time division length width area intensity CMx CMy
0 0 47.065 11.601 546 133.436 363.758 471.375
1 0 49.106 15.2934 751 123.097 362.477 475.092
2 0 50.1612 14.1942 712 124.515 362.046 474.067
3 0 54.1129 16.0405 868 120.152 361.394 472.869
4 0 56.1106 25.1468 1411 104.588 360.347 474.835
5 0 55.0709 15.6162 860 121.443 359.316 469.922
6 0 58.2067 17.5237 1020 114.046 358.195 476.234
7 0 59.041 13.262 783 124.548 356.616 472.174
8 0 60.1299 14.0695 846 125.131 356.878 471.091
9 0 66.3856 18.6938 1241 113.515 355.737 469.443
10 0 64.2459 15.4407 992 119.542 356.01 469.023
11 0 65.2773 15.1661 990 119.127 355.08 466.556
12 0 68.2974 16.4574 1124 117.618 355.629 465.307
13 0 67.2783 13.4367 904 119.19 355.388 461.858
14 0 71.1515 18.8471 1341 112.042 355.063 461.847
15 0 73.2515 14.3751 1053 117.87 354.378 458.706
16 0 76.5617 15.9479 1221 113.389 354.551 458.252
17 0 77.3194 15.8951 1229 115.267 353.947 451.523
18 0 82.3799 16.8123 1385 116.732 354.275 451.494
19 0 83.3786 13.9724 1165 121.259 352.897 450.72
20 0 88.2154 13.7504 1213 117.084 354.009 449.035
21 0 89.2873 14.1229 1261 116.977 354.404 448.964
22 0 91.1869 15.6053 1423 115.419 355.35 437.696
23 0 91.1869 15.693 1431 140.584 357.331 437.713
24 0 98.2699 17.3197 1702 117.201 358.619 436.801
25 0 98.2699 17.2688 1697 131.089 358.624 436.726
26 1 54.1038 13.7329 743 117.891 360.785 461.316
27 0 59.1785 12.0821 715 120.608 360.901 460.124
28 0 59.1229 13.8018 816 120.082 360.998 458.441
29 0 61.2018 18.7413 1147 110.556 362.398 458.402
30 0 62.2504 16.016 997 116.075 361.901 454.963
31 0 64.1096 15.879 1018 117.6 364.011 452.864
32 0 66.3657 13.5462 899 119.543 364.072 456.39
33 0 64.5373 12.7368 822 122.079 363.897 452.965
34 0 70.2331 16.3883 1151 116.438 364.154 450.956
35 0 74.2223 12.5569 932 122.351 363.73 454.52
36 0 79.3189 16.6543 1321 113.353 365.4 453.039
37 0 81.2033 14.3098 1162 116.685 364.481 453.132
38 0 84.2803 14.523 1224 120.355 365.521 450.23
39 0 84.1282 13.2774 1117 117.692 365.965 448.393
40 0 89.1354 19.274 1718 107.779 365.751 443.712
41 0 94.1866 19.8224 1867 105.75 365.548 454.539
42 0 96.2237 17.1683 1652 110.453 365.119 445.038
43 1 49.0291 12.7475 625 112.44 365.258 471.637
44 0 52.0806 12.9415 674 110.218 364.18 471.144
45 0 53.0959 13.8429 735 115.471 363.249 472.773
46 0 57.1261 14.1616 809 122.14 362.77 470.073
47 0 57.1114 13.3423 762 124.198 362.745 470.678
48 0 60.2256 14.6947 885 119.146 361.968 470.193
49 0 61.1491 15.1433 926 119.853 361.74 469.374
50 0 62.2647 13.9405 868 124.339 359.757 470.947
51 0 64.1781 14.4909 930 122.868 359.566 466.734
52 0 68.0547 12.8867 877 123.441 358.844 468.956
53 0 67.062 13.7485 922 123.614 358.351 464.06
54 0 67.0626 11.8844 797 127.334 357.986 462.911
55 0 75.1294 13.7629 1034 121.77 357.123 462.383
56 0 78.1576 13.8438 1082 121.128 357.311 459.722
57 0 78.1503 9.45614 739 128.035 356.414 460.927
58 0 81.1166 14.4237 1170 120.623 355.38 456.35
59 0 85.1548 12.3305 1050 122.651 356.899 459.546
60 1 47.1322 12.1997 575 120.44 355.595 471.146
61 0 47.0537 15.4717 728 113.721 354.835 472.872
62 0 49.0414 12.9686 636 117.347 354.783 471.327
63 0 51.1054 12.5818 643 117.305 355.697 467.589
64 0 52.086 12.5753 655 118.629 354.75 465.769
65 0 53.1785 15.2693 812 114.839 355.599 464.187
66 0 58.0379 17.1095 993 110.236 355.828 463.634
67 0 57.0959 15.1149 863 114.679 356.481 460.65
68 0 59.1749 15.1922 899 114.277 356.463 461.622
69 0 58.0883 14.478 841 116.798 356.945 460.04
70 0 63.0729 17.2657 1089 111.344 356.563 453.578
71 0 62.0743 13.3228 827 118.294 358.322 457.46
72 0 65.1044 12.119 789 119.19 358.733 456.728
73 0 69.1023 13.0821 904 117.053 359.412 455.063
74 0 68.2075 13.239 903 119.128 359.466 450.939
75 0 68.1514 10.7114 730 123.068 359.604 453.651
76 0 72.1631 14.9522 1079 115.771 360.597 454.095
77 0 76.1275 15.6448 1191 116.052 361.285 450.558
78 0 77.036 20.3671 1569 107.009 361.46 458.915
79 0 80.1584 14.9828 1201 115.52 363.226 456.565
80 0 83.2922 11.9699 997 121.312 363.168 451.114
81 0 87.2686 16.0883 1404 113.998 363.358 446.275
82 0 86.1661 11.385 981 120.639 362.985 446.672
83 0 93.2175 13.3666 1246 116.486 362.738 445.755
84 0 95.2321 13.3043 1267 117.243 363.277 448.792
85 0 100.342 13.4839 1353 115.942 362.041 451.78
86 0 102.197 14.2372 1455 116.567 362.185 448.989
87 0 105.324 13.6246 1435 118.1 362.151 447.295
88 0 109.376 13.3027 1455 118.333 362.085 446.243
89 1 55.0524 11.9886 660 112.029 361.78 470.489
90 0 57.0882 11.4735 655 112.273 360.847 476.327
91 0 59.0641 11.3605 671 112.894 360.838 474.191
92 0 63.1889 12.5022 790 109.668 360.163 476.285
93 0 65.3018 13.4759 880 108.606 359.068 476.032
94 0 64.1305 11.7105 751 112.795 358.888 472.691
95 0 67.1097 12.4423 835 110.889 356.746 471.514
96 0 70.0707 13.1296 920 110.102 357.466 470.778
97 0 73.3755 12.1021 888 110.551 356.465 468.041
98 0 76.1718 13.6796 1042 108.833 356.447 464.86
99 0 78.1247 12.5953 984 109.961 355.704 462.443
100 1 41.0483 14.9824 615 103.54 354.958 482.12
101 0 42.0948 10.025 422 109.746 353.953 479.315
102 0 44.0281 13.1053 577 105.529 354.154 477.504
103 0 49.0332 12.5221 614 104.691 354.678 477.345
104 0 48.1385 12.8587 619 104.488 354.338 479.294
105 0 51.1027 8.84493 452 110.801 353.991 475.734
106 0 51.0733 15.1547 774 103.031 353.74 471.072
107 0 53.117 12.7266 676 107.12 354.109 469.917
108 0 55.0485 13.0975 721 108.391 354.454 467.988
109 0 55.1312 12.0984 667 111.165 354.141 468.27
110 0 60.0958 10.4001 625 113.034 354.357 465.731
111 0 59.0501 12.1422 717 111.735 354.654 461.961
112 0 64.0688 14.5469 932 106.834 356.359 462.715
113 0 65.0887 13.6122 886 107.558 356.836 463.184
114 0 67.0662 12.5249 840 111.19 357.696 457.211
115 0 69.2052 13.4383 930 110.235 357.503 456.104
116 0 72.3566 14.9952 1085 108.313 357.977 454.841
117 0 74.231 12.1378 901 113.758 358.602 454.174
118 0 77.1544 14.2442 1099 108.885 358.563 458.397
119 0 79.1229 13.1441 1040 113.414 358.808 449.512
120 0 85.8782 16.5234 1419 106.963 358.837 453.916
121 0 86.117 21.0295 1811 102.294 359.631 453.157
122 0 89.1776 18.0875 1613 107.053 360.619 448.269
123 1 49.0531 11.0085 540 108.885 362.407 472.509
124 0 52.5304 12.1644 639 104.638 361.649 472.839
125 0 51.0971 13.3471 682 104.834 362.251 472.396
126 0 50.0568 10.9875 550 109.469 361.622 473.549
127 0 51.0773 12.5104 639 107.9 362.277 472.524
128 0 56.2777 11.8697 668 111.988 363.114 474.466
129 0 55.1498 11.8767 655 115.812 361.261 470.064
130 0 57.1134 14.1823 810 112.109 361.33 470.826
131 0 57.1386 10.3608 592 117.503 361.316 473.888
132 0 61.1448 13.0837 800 113.104 361.375 472.35
133 0 62.2512 14.4094 897 110.804 360.049 471.456
134 0 65.1457 12.0806 787 114.327 357.973 470.459
135 0 63.1457 11.9248 753 114.537 359.056 467.259
136 0 66.2254 12.4726 826 114.823 358.131 467.211
137 0 70.248 13.1107 921 112.072 358.516 468.633
138 0 72.1005 8.47429 611 115.885 356.074 473.561
139 0 78.1594 15.0718 1178 108.124 356.807 467.712
140 0 79.213 13.369 1059 110.66 354.86 465.738
141 0 86.4034 16.6776 1441 104.772 354.114 466.09
142 0 83.2554 14.0892 1173 110.781 354.241 462.406
143 0 85.3219 12.951 1105 113.541 353.697 457.092
144 0 90.627 15.4148 1397 107.764 352.831 461.428
145 0 91.1129 13.9278 1269 110.366 352.218 458.247
146 0 94.3751 13.6689 1290 111.536 351.839 455.318
147 0 97.3302 15.6991 1528 107.481 351.219 455.84
148 0 102.464 16.0349 1643 109.724 352.565 446.12
149 1 53.1488 14.5441 773 106.686 351.578 470.489
150 0 56.1162 15.0046 842 104.044 352.72 471.557
151 0 57.0454 11.6223 663 107.032 352.811 464.911
152 0 57.1088 12.8351 733 105.855 352.522 463.744
153 0 61.1198 11.8129 722 106.421 352.627 463.971
154 0 63.1622 11.2251 709 111.054 353.636 464.299
155 0 64.1027 8.45518 542 114.766 353.533 462.793
156 0 67.2136 12.2297 822 106.646 354.083 465.923
157 0 69.1946 16.8655 1167 104.627 354.471 454.259
158 0 70.3015 11.1804 786 113.462 355.218 455.209
159 0 71.142 15.462 1100 109.234 356.404 454.528
160 0 71.11 13.4721 958 112.687 356.534 453.602
161 0 77.2316 15.3435 1185 109.435 357.462 452.098
162 0 79.1908 14.4461 1144 111.021 357.777 456.059
163 0 79.2244 13.872 1099 113.983 359.149 450.369
164 0 82.5134 18.6394 1538 106.666 358.94 452.894
165 0 86.2355 14.7735 1274 112.728 359.866 449.415
166 0 85.1906 13.1 1116 115.53 360.235 454.054
167 0 88.3142 16.2148 1432 111.948 359.645 447.587
168 0 93.1939 13.3056 1240 116.111 360.319 448.794
169 0 96.3782 14.0592 1355 115.003 360.937 447.747
170 0 100.209 13.9109 1394 114.925 360.637 444.208
171 0 103.277 16.2959 1683 109.907 360.367 451.716
172 0 106.231 12.0116 1276 116.512 360.487 450.301
173 0 107.117 12.0523 1291 116.797 359.637 449.012
174 1 58.0676 12.3821 719 114.994 359.958 465.046
175 0 62.0892 15.526 964 109.015 359.179 469.529
176 0 63.1906 12.7709 807 113.423 358.995 472.424
177 0 68.176 13.5238 922 111.066 358.675 471.453
178 0 68.1799 17.7032 1207 106.225 357.66 471.85
179 0 68.1431 15.2767 1041 109.975 357.439 469.084
180 0 72.2342 16.7372 1209 106.302 356.183 471.202
181 0 74.1945 14.0846 1045 111.736 355.034 467.414
182 0 77.2647 15.4922 1197 109.538 354.7 467.798
183 0 79.1327 12.7128 1006 114.453 354.887 465.238
184 0 83.232 14.3214 1192 109.718 352.6 463.43
185 0 83.1652 14.2968 1189 110.728 352.366 462.108
186 0 86.0978 13.0317 1122 112.922 352.355 459.575
187 0 91.1146 16.2433 1480 108.787 351.079 455.478
188 0 93.1645 15.0057 1398 110.104 351.318 454.815
189 0 96.2628 14.1488 1362 111.256 350.448 453.607
190 0 99.1645 15.1264 1500 110.177 350.348 451.761
191 1 48.1409 10.49 505 115.982 349.745 469.206
192 0 52.078 11.406 594 114.21 350.569 467.914
193 0 52.078 11.3292 590 145.005 351.559 467.863
194 0 58.1788 13.1147 763 110.7 350.313 466.501
195 0 59.2246 12.9507 767 111.099 351.141 466.961
196 0 61.1703 14.6476 896 108.074 351.19 465.823
197 0 63.1086 15.1485 956 107.881 352.058 464.754
198 0 64.1211 12.2113 783 112.789 352.564 459.559
199 0 67.1716 15.0361 1010 107.425 353.333 462.528
200 0 68.0612 12.4447 847 112.118 354.378 460.739
201 0 71.1542 13.8432 985 109.509 353.516 458.732
202 0 72.1547 15.9518 1151 108.312 355.075 455.736
203 0 74.0921 12.1335 899 114.265 355.888 456.291
204 0 76.1553 15.2189 1159 112.173 356.094 449.856
205 0 78.2533 15.6799 1227 111.176 357.18 451.717
206 0 81.189 15.7287 1277 112.078 357.673 451.85
207 0 82.1926 14.8067 1217 113.95 358.155 449.946
208 0 88.2706 13.5379 1195 114.525 359.245 452.95
209 0 88.1599 16.7196 1474 110.917 359.896 449.457
210 0 91.1158 16.0565 1463 112.405 359.049 451.232
211 0 95.174 13.8063 1314 115.928 360.399 446.292
212 0 97.3831 15.0231 1463 114.831 360.499 450.627
213 0 100.36 17.9255 1799 110.177 359.474 452.076
214 0 107.264 20.0627 2152 105.962 359.254 451.406
215 0 110.215 13.1379 1448 114.74 359.7 453.099
216 0 111.164 15.7875 1755 112.415 359.655 449.222
217 0 116.365 14.0335 1633 115.453 358.773 442.157
218 0 116.365 14.0335 1633 144.031 357.775 442.309
219 1 62.0739 14.7083 913 108.596 358.571 475.732
220 0 64.3016 10.8396 697 115.445 357.525 470.05
221 0 68.1334 13.7231 935 113.23 357.517 470.724
222 0 71.1768 12.0123 855 116.225 356.906 468.614
223 0 73.1126 14.1289 1033 113.318 355.569 467.385
224 0 75.1752 11.0409 830 117.123 354.341 468.224
225 0 77.4901 12.2467 949 115.957 353.462 465.538
226 0 81.1404 12.3366 1001 110.941 353.029 469.356
227 0 83.2306 12.4714 1038 111.601 351.908 466.473
228 0 87.2684 11.986 1046 110.53 351.103 467.053
229 0 90.2421 15.3587 1386 108.044 350.312 457.22
230 1 48.0824 12.8945 620 108.794 349.429 481.319
231 0 50.0483 13.7067 686 107.864 348.529 479.827
232 0 49.1127 9.59018 471 112.399 348.665 478.862
233 0 50.0982 11.9166 597 110.757 349.402 477.955
234 0 52.1321 13.1972 688 108.804 347.863 475.876
235 0 52.0897 12.4977 651 109.676 349.128 474.455
236 0 56.1724 13.1559 739 109.271 348.766 468.336
237 0 58.0462 14.5229 843 106.057 348.606 467.386
238 0 60.2384 11.4711 691 109.808 348.944 467.939
239 0 61.2152 9.03371 553 109.539 347.998 470.288
240 0 61.1757 11.0828 678 110.022 349.841 464.174
241 0 67.1148 12.2626 823 106.445 349.332 463.098
242 0 67.1601 13.7135 921 106.265 350.352 460.005
243 0 71.0955 12.0683 858 108.347 350.761 458.85
244 0 71.4349 11.395 814 109.404 350.115 461.99
245 0 71.2568 9.58505 683 112.717 351.842 457.627
246 0 76.115 11.5352 878 108.683 351.759 458.951
247 0 77.0535 12.1863 939 110.026 352.673 455.178
248 1 89.2645 9.91436 885 112.549 353.036 454.354
249 0 87.0789 12.6667 1103 113.898 354.371 445.918
250 0 91.1229 12.6532 1153 109.22 354.713 452.043
251 0 91.2385 13.0208 1188 105.369 354.241 460.474
252 0 93.2033 10.8365 1010 112.169 356.148 448.833
253 0 96.3197 9.55153 920 114.736 356.866 447.201
254 1 51.049 11.4596 585 109.325 356.364 471.113
255 0 54.2002 9.90772 537 112.771 356.648 467.14
256 0 55.1837 13.8628 765 107.458 356.306 471.673
257 0 57.1397 14.0708 804 107.55 358.104 470.037
258 0 57.1594 13.0687 747 105.708 357.153 471.293
259 0 57.0737 8.56786 489 112.505 358.307 471.898
260 0 60.178 12.6957 764 106.446 357.014 475.483
261 0 61.145 12.1678 744 107.774 357.234 473.829
262 0 62.1809 13.509 840 106.505 356.819 472.751
263 0 63.034 13.104 826 106.679 355.705 474.126
264 0 67.0678 17.2959 1160 100.13 356.316 476.891
265 0 67.313 13.7269 924 107.615 355.34 470.438
266 0 70.0716 11.0744 776 111.376 355.272 469.947
267 0 70.0527 11.3772 797 112.026 353.871 470.592
268 0 76.0974 13.9295 1060 108.551 353.486 466.893
269 0 76.0974 13.9689 1063 126.11 353.504 466.758
270 0 80.0949 14.308 1146 107.483 351.709 465.955
271 0 83.1571 12.4583 1036 111.473 351.221 464.023
272 0 86.1817 15.2004 1310 107.279 351.707 458.516
273 1 46.0786 15.0829 695 102.328 350.577 482.494
274 0 47.3004 11.8604 561 106.528 350.704 475.274
275 0 50.2596 12.6941 638 106.649 349.735 470.945
276 0 51.4279 13.5724 698 103.265 350.106 478.978
277 0 53.0853 10.3419 549 109.767 349.137 474.224
278 0 49.1123 10.1808 500 111.598 348.996 469.158
279 0 53.089 13.1101 696 105.82 349.443 473.49
280 0 53.1968 10.6961 569 111.534 349.42 468.169
281 0 56.2305 11.3461 638 110.219 349.042 464.566
282 0 59.1742 10.3254 611 111.079 348.812 465.931
283 0 59.0787 10.2744 607 111.26 349.97 466.715
284 0 63.1615 14.1225 892 104.933 350.527 464.394
285 0 66.241 13.149 871 107.223 351.381 459.929
286 0 67.1394 14.3284 962 105.999 351.101 459.82
287 0 71.0983 9.56422 680 111.499 352.393 458.278
288 0 72.1452 13.3897 966 107.935 352.303 453.293
289 0 76.2616 14.5421 1109 106.441 353.238 450.431
290 0 77.1601 13.0508 1007 111.939 354.258 450.518
291 0 77.1601 12.9212 997 137.283 355.26 450.367
292 0 84.3668 13.5836 1146 110.354 355.703 447.784
293 1 43.1492 16.4545 710 102.439 357.656 469.306
294 0 45.1093 12.6803 572 106.042 357.138 470.187
295 0 46.0569 13.1142 604 108.427 358.419 469.06
296 0 48.0847 12.4364 598 109.751 358.594 468.783
297 0 48.1226 15.8761 764 106.764 358.882 466.234
298 0 51.153 14.9356 764 110.482 360.202 465.086
299 0 55.0806 15.6498 862 108.6 359.309 468.23
300 0 53.129 14.5683 774 113.001 360.053 469.399
301 0 57.1785 12.1549 695 116.325 359.335 467.859
302 0 57.0826 12.6133 720 114.404 359.625 473.332
303 0 57.0845 10.1954 582 119.297 358.732 474.842
304 0 60.0855 21.9853 1321 103.201 358.155 464.867
305 0 61.0901 16.844 1029 111.423 359.423 469.502
306 0 63.0938 12.632 797 117.449 357.482 471.024
307 0 68.1861 16.103 1098 111.454 358.417 470.154
308 0 67.0669 14.0308 941 114.661 357.559 471.813
309 0 69.0821 14.0702 972 114.844 357.062 470.63
310 0 71.2619 12.9101 920 116.397 356.363 471.637
311 0 76.3175 14.1645 1081 113.436 355.311 468.261
312 0 76.1581 11.3317 863 117.618 354.627 469.688
313 0 83.1511 17.1134 1423 108.805 354.393 465.822
314 1 41.0316 12.4538 511 113.536 353.816 482.18
315 0 43.2454 13.0418 564 112.011 352.498 481.41
316 0 46.2491 15.9354 737 105.214 352.849 480.035
317 0 43.0823 12.2556 528 110.223 351.261 479.53
318 0 43.0823 12.3485 532 125.374 349.233 479.508
319 0 46.0193 12.6034 580 110.072 350.522 475.26
320 0 47.224 11.1596 527 109.947 349.92 474.159
321 0 51.0629 10.301 526 109.836 350.181 474.053
322 0 53.0748 13.0005 690 106.617 350.13 469.872
323 0 57.0574 11.5147 657 106.449 350.907 471.393
324 0 54.2045 9.99917 542 110.491 350.476 465.459
325 0 57.1481 10.1666 581 110.396 351.077 460.902
326 0 59.2168 12.412 735 105.717 351.494 464.863
327 0 59.2168 12.4289 736 109.429 351.495 464.952
328 0 64.1122 13.1332 842 104.335 352.469 456.483
329 0 64.1192 9.46675 607 107.325 351.652 462.82
330 0 69.1862 14.4538 1000 102.531 353.314 454.737
331 0 69.1365 12.8731 890 104.145 353.594 451.4
332 0 72.2149 10.995 794 108.409 354.363 449.912
333 0 75.1083 9.35982 703 108.013 354.292 455.531
334 0 79.0763 11.0147 871 105.382 354.875 451.704
335 0 86.3297 10.0081 864 103.502 356.228 456.88
336 1 44.2437 13.6291 603 104.299 357.915 466.813
337 0 45.0675 10.5176 474 105.384 357.441 464.846
338 0 44.1122 14.9618 660 104.452 357.75 467.538
339 0 46.1123 11.2334 518 109.359 359.334 466.902
340 0 49.1916 12.2379 602 108.377 360.264 465.173
341 0 50.2314 12.2632 616 108.625 358.958 464.396
342 0 52.355 12.759 668 108.644 359.527 465.419
343 0 54.2928 11.1985 608 107.694 361.661 468.008
344 0 55.1292 13.5318 746 105.466 360.255 463.59
345 0 56.2418 14.8466 835 102.946 361.268 464.095
346 0 58.1521 13.6367 793 104.393 361.141 466.093
347 0 63.393 16.0586 1018 103.723 360.516 464.267
348 0 62.1196 16.2107 1007 103.973 359.961 462.506
349 0 66.4393 17.0231 1131 102.63 360.438 466.22
350 0 65.3068 12.7552 833 110.242 359.714 464.215
351 0 67.8306 12.6639 859 110.175 359.043 465.225
352 0 71.1732 13.6428 971 109.609 358.634 464.346
353 0 74.4195 15.2111 1132 107.646 358.818 463.809
354 0 77.3768 17.8736 1383 104.461 358.109 463.142
355 0 79.4693 19.064 1515 104.052 356.711 457.865
356 0 81.1492 13.4197 1089 109.206 355.509 461.427
357 0 84.2841 14.6054 1231 108.545 355.654 459.362
358 0 88.7149 16.3219 1448 105.385 355.954 463.353
359 0 87.2984 13.3107 1162 111.655 355.636 454.566
360 0 91.5131 14.2166 1301 110.629 355.372 451.567
361 1 43.1912 10.3262 446 112.155 353.982 478.587
362 0 44.3067 14.9639 663 105.867 353.852 475.703
363 0 51.1505 13.5482 693 104.196 353.369 476.006
364 0 50.258 15.6791 788 102.085 352.935 469.617
365 0 53.1778 11.4522 609 107.713 353.517 470.836
366 0 53.173 17.1516 912 100.963 353.92 467.664
367 0 53.173 17.2456 917 118.341 354.927 467.65
368 0 57.273 10.5111 602 107.963 353.204 469.289
369 0 56.2552 13.3143 749 106.288 352.732 464.184
370 0 61.236 14.6646 898 104.459 353.293 462.126
371 0 63.1236 17.743 1120 103.228 353.688 460.54
372 0 66.219 12.8815 853 109.646 354.699 458.917
373 0 66.3029 14.6298 970 109.286 354.033 452.661
374 0 69.3222 14.4398 1001 109.018 354.817 455.647
375 0 75.3154 17.5396 1321 105.565 354.955 452.178
376 0 75.336 14.4154 1086 112.129 355.567 451.899
377 0 76.123 12.8739 980 113.42 357.517 452.642
378 0 82.1537 19.6583 1615 104.696 357.825 449.046
379 0 83.3906 16.2368 1354 110.979 358.792 443.544
380 0 87.2486 17.5361 1530 109.78 359.17 446.212
381 0 85.1418 15.6562 1333 114.252 358.954 446.979
382 0 89.1233 15.4056 1373 115.34 360.908 443.845
383 0 93.3626 16.5484 1545 112.719 361.346 444.955
384 0 96.3647 13.7395 1324 116.537 360.279 446.727
385 0 101.268 16.718 1693 112.281 361.049 444.276
386 0 104.316 16.9486 1768 112.471 361.193 442.617
387 0 105.477 14.1547 1493 117.613 361.802 438.242
388 0 105.477 14.1452 1492 149.723 362.793 438.14
389 0 117.339 20.2661 2378 107.389 361.528 439.048
390 0 121.399 15.1649 1841 114.784 361.131 441.128
391 1 61.5184 13.2156 813 112.494 361.046 469.985
392 0 63.3237 13.4705 853 112.984 360.902 468.494
393 0 65.4635 14.1911 929 112.104 359.281 469.687
394 0 67.4026 17.3139 1167 109.049 360.178 471.623
395 0 69.3882 13.9217 966 115.7 358.369 468.028
396 0 76.2555 16.1562 1232 110.028 358.803 469.394
397 0 75.7146 14.7792 1119 113.089 358.73 468.201
398 0 79.7574 22.907 1827 101.965 356.502 465.94
399 0 79.6387 15.8215 1260 113.111 355.642 461.896
400 0 82.655 14.7602 1220 114.407 355.485 462.772
401 0 83.2913 15.5719 1297 114.407 355.433 459.438
402 0 85.4797 14.3894 1230 114.528 354.815 458.816
403 0 87.8521 15.4123 1354 113.856 354.743 455.29
404 0 90.7717 15.214 1381 114.153 353.688 452.293
405 0 92.5147 11.9765 1108 118.362 353.408 455.101
406 0 95.3313 13.259 1264 115.539 352.4 453.416
407 0 96.3987 11.2346 1083 120.005 352.353 449.908
408 0 102.663 15.5557 1597 110.974 351.136 451.301
409 0 106.507 13.9427 1485 115.609 352.08 441.257
410 1 57.3167 15.9465 914 107.066 351.6 466.268
411 0 61.2623 14.6746 899 110.917 351.917 464.222
412 0 60.1893 14.7534 888 113.43 352.572 460.485
413 0 64.3627 18.085 1164 110.569 352.368 457.96
414 0 65.5734 17.2936 1134 108.108 352.457 461.267
415 0 70.5814 13.1621 929 112.752 352.487 456.845
416 0 68.3872 11.9759 819 114.27 353.383 453.106
417 0 71.5315 17.6705 1264 106.131 353.248 454.151
418 0 71.5315 17.5587 1256 125.854 353.233 453.866
419 0 71.5315 17.5867 1258 125.291 353.245 453.839
420 0 84.9688 16.4766 1400 108.778 355.133 448.481
421 0 85.5935 17.2443 1476 108.388 356.689 448.577
422 0 89.5196 15.0246 1345 111.521 356.823 445.204
423 1 43.3604 11.808 512 111.879 357.273 467.475
424 0 43.4858 14.2575 620 111.045 357.244 464.976
425 0 47.1128 14.6669 691 111.781 359.339 469.63
426 0 49.137 13.961 686 112.71 360.43 470.586
427 0 50.2271 14.3946 723 110.615 360.943 472.34
428 0 49.1396 11.7217 576 119.359 362.747 469.366
429 0 53.1788 16.924 900 109.764 362.593 470.721
430 0 54.1684 14.4734 784 112.221 362.037 473.068
431 0 55.3757 12.966 718 117.425 361.487 469.898
432 0 58.1454 17.3187 1007 109.521 361.909 470.708
433 0 62.3293 16.7337 1043 109.155 361.727 472.764
434 0 59.2402 12.2552 726 117.275 360.942 469.814
435 0 63.1592 13.0781 826 114.845 361.36 471.23
436 0 63.1592 13.0306 823 142.73 362.366 471.338
437 0 66.3167 12.0332 798 117.609 361.411 471.085
438 0 70.4304 15.3911 1084 113.232 360.376 468.313
439 0 73.3241 17.2522 1265 110.401 359.988 469.596
440 0 77.2034 14.3388 1107 113.224 359.386 472.253
441 1 36.2162 9.16717 332 122.642 358.723 486.25
442 0 45.7447 17.0949 782 106.566 357.839 486.046
443 0 42.1223 13.9119 586 117.053 357.305 483.637
444 0 44.1955 14.1191 624 116.013 357.244 482.926
445 0 44.2591 14.5959 646 114.816 355.045 483.596
446 0 49.2008 18.4956 910 105.001 354.386 485.197
447 0 50.2207 16.8656 847 111.367 355.496 479.306
448 0 49.1688 15.9044 782 113.917 354.908 479.082
449 0 53.1413 16.6913 887 112.125 354.424 476.815
450 0 55.1416 17.5185 966 109.532 353.454 477.729
451 0 57.3097 16.629 953 112.144 353.34 474.062
452 0 56.1665 15.6143 877 115.099 353.135 471.025
453 0 59.2794 12.77 757 117.921 352.787 471.982
454 0 61.3212 17.6937 1085 111.255 352.995 469.326
455 0 62.3058 14.3165 892 117.303 352.654 466.367
456 0 65.1342 14.7695 962 116.624 352.757 464.724
457 0 69.2292 13.9537 966 117.499 351.165 460.787
458 0 70.3718 13.9118 979 116.826 350.941 458.115
459 0 76.4074 15.6791 1198 114.385 349.577 455.305
460 0 77.6733 16.3248 1268 113.781 350.859 455.628
461 0 81.4472 13.96 1137 116.473 351.73 458.347
462 1 43.0889 12.4626 537 117.655 352.393 474.002
463 0 44.5845 15.7902 704 117.365 353.649 472.903
464 0 44.0674 12.3674 545 124.686 353.464 473.016
465 0 46.1537 16.7267 772 115.693 355.81 473.299
466 0 49.0991 12.7905 628 122.439 356.277 474.556
467 0 50.0522 15.0843 755 120.171 355.977 470.783
468 0 49.3044 14.522 716 122.487 357.574 472.721
469 0 52.2008 16.3216 852 118.874 358.604 471.999
470 0 53.5291 13.8056 739 123.02 358.532 472.821
471 0 53.1084 17.4549 927 119.847 358.556 469.452
472 0 55.3493 15.6641 867 120.644 358.812 474.546
473 0 60.2231 16.2728 980 119.622 358.379 472.687
474 0 59.0815 15.284 903 122.643 359.234 473.798
475 0 63.184 16.2066 1024 119.401 358.776 474.188
476 0 65.3602 16.6462 1088 119.289 358.71 473.161
477 0 66.5194 13.1089 872 125.943 357.483 472.727
478 0 67.2164 14.9963 1008 123.591 356.921 471.092
479 0 70.1433 17.1078 1200 119.579 356.732 472.266
480 0 73.3516 15.1462 1111 122.4 356.065 474.013
481 0 77.4794 13.8617 1074 124.43 355.656 476.465
482 0 78.3916 16.2007 1270 121.849 355.682 472.524
483 0 80.4046 14.0664 1131 125.095 353.956 473.095
484 1 44.1716 13.7419 607 119.835 353.173 492.875
485 0 44.3649 13.3439 592 120.77 350.383 492.091
486 0 50.3327 14.2651 718 117.355 349.056 490.943
487 0 51.1541 18.1999 931 112.134 349.982 490.94
488 0 49.0688 15.3866 755 119.147 349.265 488.456
489 0 50.1861 13.5296 679 122.757 348.733 486.639
490 0 52.1066 15.8905 828 118.946 348.736 483.581
491 0 56.1646 13.3536 750 121.125 348.332 484.937
492 0 59.2142 17.7491 1051 113.652 347.693 482.087
493 0 59.2142 17.7491 1051 134.722 346.702 482.199
494 0 63.1023 13.7554 868 120.166 347.132 476.787
495 0 64.1681 17.3606 1114 116.311 346.756 474.479
496 0 66.1625 15.734 1041 119.329 345.859 474.083
497 0 69.3351 14.9563 1037 120.11 346.569 470.516
498 0 70.1772 15.3326 1076 121.564 345.831 467.024
499 0 74.2029 12.7623 947 124.216 346.371 466.744
500 0 76.1123 15.8187 1204 120.699 346.318 459.575
501 0 81.428 15.3019 1246 119.558 347.789 462.992
502 0 81.1592 14.0095 1137 122.384 348.468 460.533
503 0 86.4113 16.2132 1401 119.213 349.279 456.268
504 1 42.1339 12.0568 508 121.878 349.059 474.423
505 0 45.0995 13.9026 627 116.713 350.045 474.542
506 0 45.1365 12.6505 571 120.42 351.13 473.828
507 0 49.0945 12.3232 605 119.648 351.355 475.795
508 0 47.1127 15.8132 745 116.795 352.823 471.45
509 0 51.1672 17.1594 878 111.09 353.525 471.244
510 0 53.0491 13.0445 692 119.425 353.874 470.15
511 0 55.0503 14.3868 792 115.893 354.312 470.16
512 0 55.1716 12.3977 684 120.418 355.692 469.107
513 0 59.0636 15.9489 942 115.877 356.618 468.749
514 0 59.1581 12.4074 734 122.766 356.256 468.605
515 0 65.1662 16.4503 1072 114.314 358.377 468.684
516 0 67.073 13.0604 876 120.675 358.094 468.494
517 0 66.3355 12.7232 844 122.521 358.703 468.863
518 0 69.1196 14.2362 984 120.688 358.206 466.21
519 0 74.1292 15.2706 1132 117.089 358.299 471.436
520 0 75.162 12.9454 973 121.844 358.136 472.204
521 0 77.2245 14.2701 1102 119.783 357.959 472.444
522 0 80.1558 14.896 1194 120.703 357.229 469.202
523 0 82.3105 12.2099 1005 124.788 356.333 472.421
524 0 86.2615 14.8038 1277 120.097 355.598 472.85
525 0 87.1662 14.5813 1271 123.669 354.145 467.74
526 0 90.1053 15.4597 1393 121.604 354.849 467.785
527 0 93.114 14.9494 1392 123.025 354.059 467.125
528 0 95.5096 16.5533 1581 121.269 352.888 463.872
529 0 101.238 16.0315 1623 121.917 350.973 462.912
530 0 104.588 14.3707 1503 124.856 349.515 462.053
531 1 53.1902 11.0171 586 128.275 349.947 482.788
532 0 57.3218 12.0896 693 125.475 347.745 479.883
533 0 58.0799 17.2865 1004 113.298 347.975 484.366
534 0 61.0957 14.8783 909 120.558 345.861 476.745
535 0 61.1676 12.6047 771 124.536 343.757 474.895
536 0 66.1623 15.0841 998 120.362 344.302 470.785
537 0 69.1469 15.1851 1050 118.882 343.729 470.28
538 0 72.1131 17.4864 1261 111.927 344.237 473.074
539 0 74.1154 15.3679 1139 116.284 344.241 465.303
540 0 77.2947 14.49 1120 118.76 347.059 465.935
541 0 81.379 20.2263 1646 107.973 344.036 467.753
542 0 81.0851 14.4416 1171 119.137 344.023 461.722
543 0 85.1849 13.2066 1125 121.252 347.738 460.831
544 0 88.3051 16.2958 1439 117.711 348.069 457.48
545 0 90.4407 14.9822 1355 120.401 348.883 452.102
546 0 96.5378 16.6049 1603 117.215 349.226 450.797
547 1 49.1109 10.8937 535 119.912 350.865 472.075
548 0 52.0957 9.80887 511 117.973 351.368 473.996
549 0 53.3362 12.9555 691 113.236 352.055 468.019
550 0 52.0156 11.1697 581 119.614 351.415 468.375
551 0 55.0997 10.0001 551 114.385 351.672 468.858
552 0 59.0592 15.3236 905 108.476 351.318 469.664
553 0 62.206 16.8955 1051 105.485 352.493 468.492
554 0 62.0424 13.7164 851 110.006 352.72 468.723
555 0 66.234 14.4035 954 107.906 353.604 469.2
556 0 65.142 10.1471 661 115.847 354.312 465.93
557 0 70.2148 18.0162 1265 105.259 355.744 465.18
558 0 70.0732 14.5419 1019 111.184 356.653 465.29
559 0 73.0745 12.2478 895 113.241 355.85 469.54
560 0 75.1093 12.9278 971 113.728 356.032 465.846
561 0 77.0568 9.94072 766 118.226 355.808 468.778
562 0 81.102 13.3659 1084 114.787 356.081 463.563
563 0 82.1762 10.2706 844 119.252 355.589 465.816
564 1 45.0708 9.93992 448 119.004 355.067 482.797
565 0 44.0876 9.93478 438 119.664 355.888 482.096
566 0 48.0753 12.1268 583 115.089 356.29 484.434
567 0 47.1461 10.6053 500 120.148 353.406 485.224
568 0 49.0816 9.94263 488 120.137 352.264 484.076
569 0 48.0818 12.2707 590 111.763 353.547 486.329
570 0 49.0455 10.8878 534 114.839 352.148 486.002
571 0 47.1023 7.36694 347 120.761 350.692 486.401
572 0 53.0633 11.5334 612 113.028 351.652 484.915
573 0 55.0891 9.89306 545 114.235 350.651 486.862
574 0 58.2235 8.48455 494 119.445 350.166 482.522
575 0 59.0883 10.3066 609 113.353 348.944 485.424
576 0 58.0655 11.0565 642 115.712 349.019 479.678
577 0 62.1709 12.6265 785 112.875 348.717 477.285
578 0 61.0477 8.55069 522 119.435 348.299 477.594
579 0 66.1406 13.426 888 111.736 348.562 475.681
580 0 66.2634 12.8125 849 114.051 346.962 472.538
581 0 69.1186 12.4569 861 114.832 347.594 473.825
582 0 69.3388 8.9416 620 120.387 347.315 473.718
583 0 70.1353 9.99497 701 120.083 347.934 467.746
584 0 71.1932 10.5628 752 121.456 348.058 464.104
585 0 78.1541 14.6633 1146 114.124 347.196 462.205
586 0 81.142 10.3152 837 120.492 348.135 464.041
587 0 84.1759 12.8303 1080 117.758 349.062 456.145
588 0 84.1464 9.94695 837 122.025 349.253 456.619
589 0 91.1849 12.842 1171 116.815 348.954 454.736
590 0 91.1008 9.83526 896 122.919 349.011 454.347
591 0 96.2195 10.4553 1006 122.982 350.322 452.961
592 0 102.192 14.2574 1457 115.58 351.411 448.589
593 0 101.699 14.7101 1496 115.785 351.839 447.456
594 0 102.332 11.7852 1206 123.925 352.138 446.075
595 0 107.421 13.9358 1497 120.061 352.564 443.575
596 1 55.1128 9.96139 549 119.315 353.463 471.694
597 0 57.0461 10.4126 594 119.02 353.854 471.072
598 0 58.0985 12.7026 738 116.225 354.041 469.744
599 0 58.0757 9.3843 545 120.833 355.615 471.154
600 0 63.0959 10.9674 692 117.013 356.234 468.957
601 0 63.0992 8.93831 564 119.23 355.778 470.892
602 0 64.1977 10.3898 667 118.844 356.39 469.379
603 0 64.1977 10.343 664 116.917 356.401 469.41
604 0 73.177 8.96457 656 118.788 355.875 471.352
605 0 74.2047 9.33904 693 117.885 356.017 471.46
606 0 77.1448 12.3275 951 112.641 356.583 471.09
607 1 43.1034 12.7136 548 115.442 357.044 484.473
608 0 48.1072 11.6822 562 115.53 354.986 489.818
609 0 48.3722 14.4711 700 113.846 354.53 485.856
610 0 46.0619 14.0463 647 110.19 354.442 488.972
611 0 45.0335 10.5699 476 117.023 354.235 485.626
612 0 49.1516 11.373 559 114.163 353.721 487.127
613 0 49.0932 10.8773 534 116.026 353.822 485.129
614 0 53.0747 13.0005 690 112.293 352.593 486.275
615 0 53.2684 12.6904 676 113.269 351.595 482.741
616 0 54.206 8.94736 485 119.691 349.482 481.936
617 0 58.1109 12.7171 739 111.219 349.72 484.746
618 0 58.1684 10.7275 624 115.181 349.529 482.819
619 0 59.0564 12.0901 714 112.971 349.65 481.185
620 0 61.1057 17.1997 1051 104.645 347.738 478.386
621 0 63.2107 12.4188 785 111.278 347.941 478.076
622 0 66.2666 12.8723 853 109.492 347.928 480.463
623 0 67.1148 10.7428 721 114.01 347.779 476.154
624 0 69.1125 10.6059 733 114.967 346.494 475.849
625 0 72.1024 12.2187 881 112.89 347.043 470.549
626 0 74.1196 11.36 842 113.419 347.638 468.612
627 0 79.5711 13.4848 1073 108.761 346.397 464.518
628 0 80.18 11.1125 891 112.679 346.914 460.723
629 0 82.1773 14.7243 1210 105.81 347.851 463.274
630 0 87.2915 16.3475 1427 104.649 347.484 454.781
631 0 87.1704 10.5655 921 113.376 349.063 455.697
632 0 92.2048 12.9494 1194 108.886 349.018 455.284
633 1 48.1277 10.8254 521 113 351.835 473.44
634 0 49.337 12.2018 602 111.983 349.454 473.251
635 0 54.273 14.6298 794 107.108 352.058 472.316
636 0 50.1148 12.172 610 110.697 352.015 472.646
637 0 53.0454 11.8955 631 110.157 352.664 471.967
638 0 55.117 13.8796 765 107.022 353.129 466.893
639 0 56.1167 15.0401 844 105.962 353.124 468.44
640 0 59.1106 14.4644 855 105.93 353.466 470.302
641 0 61.1503 14.9958 917 106.302 354.866 468.294
642 0 65.0683 13.8316 900 106.873 355.358 466.642
643 0 65.1102 13.0087 847 107.822 355.54 468.732
644 0 66.1173 11.888 786 109.497 356.435 470.632
645 0 70.1489 15.8377 1111 103.185 356.276 469.321
646 0 72.1916 15.2926 1104 104.141 354.502 467.328
647 0 70.1723 12.3981 870 108.428 355.322 472.483
648 0 75.3133 13.1716 992 106.406 354.858 472.78
649 0 76.2949 11.5735 883 109.928 353.664 471.413
650 0 77.2803 10.546 815 112.371 353.627 471.328
651 0 84.459 12.586 1063 107.561 353.624 471.511
652 0 84.5119 12.8148 1083 108.851 354.001 466.83
653 1 47.2074 15.0824 712 105.407 354.603 486.094
654 0 46.152 11.7221 541 108.952 355.201 482.233
655 0 46.1286 10.0805 465 112.262 354.847 479.151
656 0 53.2681 15.4126 821 104.924 354.206 487.23
657 0 54.033 12.6404 683 108.939 352.127 484.9
658 0 53.0355 9.52192 505 114.949 353.279 484.412
659 0 50.1978 8.86493 445 118.112 351.398 481.634
660 0 55.2295 10.737 593 115.599 351.352 478.976
661 0 59.114 16.1891 957 105.679 349.706 479.449
662 0 60.0899 15.56 935 107.53 350.319 477.211
663 0 62.1465 14.2084 883 110.401 350.273 474.515
664 0 65.1754 12.5047 815 111.045 349.941 475.324
665 0 65.2444 11.1734 729 114.9 349.359 471.405
666 0 69.2246 15.9481 1104 107.201 348.687 469.177
667 0 72.0952 13.8983 1002 109.027 348.157 468.322
668 0 73.1501 14.2857 1045 108.726 348.813 465.818
669 0 73.3471 12.175 893 110.937 346.586 468.318
670 0 76.1656 15.8864 1210 105.884 347.698 467.056
671 0 79.2197 14.5292 1151 108.802 348.526 458.826
672 0 84.312 17.6487 1488 103.957 348.411 460.817
673 0 90.5211 18.5261 1677 101.04 349.01 464.9
674 1 45.1114 11.9482 539 110.733 350.421 475.744
675 0 47.1095 16.3449 770 103.231 348.658 468.599
676 0 49.0269 15.5629 763 107.52 350.195 473.208
677 0 50.1482 13.6396 684 107.845 352.007 474.165
678 0 52.1736 17.8251 930 101.539 352.028 473.3
679 0 52.1319 12.9863 677 108.569 352.257 474.186
680 0 51.2379 9.19242 471 114.597 353.8 473.864
681 0 57.1337 13.5822 776 108.138 352.966 471.088
682 0 60.1166 15.7195 945 104.815 353.176 470.798
683 0 60.2875 12.8551 775 108.862 355.09 471.888
684 0 69.4287 16.9814 1179 100.642 355.048 465.655
685 0 73.2266 17.398 1274 99.602 355.343 463.971
686 0 71.1316 12.8072 911 107.299 354.827 464.112
687 0 73.2601 13.9639 1023 106.419 355.389 465.474
688 0 72.2843 13.7374 993 108.6 355.006 469.875
689 0 77.2587 13.4224 1037 111.669 354.714 465.298
690 0 76.2652 16.3246 1245 119.198 355.644 467.482
691 0 81.1582 14.1452 1148 111.229 356.475 467.578
692 0 85.1876 15.683 1336 108.122 355.231 465.516
693 0 92.6719 16.143 1496 103.134 355.271 473.633
694 1 48.1388 12.8794 620 107.766 356.023 490.495
695 0 49.1015 13.5841 667 107.576 355.591 490.61
696 0 46.031 8.90704 410 111.556 352.417 489.832
697 0 51.0601 18.9972 970 97.6237 353.929 484.945
698 0 53.3691 14.8026 790 102.797 351.633 483.429
699 0 53.228 17.9981 958 99.5407 351.533 484.528
700 0 56.0851 12.3741 694 106.464 351.192 487.249
701 0 56.0538 12.7556 715 106.375 350.842 483.99
702 0 59.0877 13.2007 780 105.304 350.138 478.278
703 0 61.1596 12.2794 751 112.743 349.242 479.154
704 0 64.2315 12.8597 826 111.263 348.234 480.004
705 0 68.0861 17.8157 1213 104.013 347.798 475.902
706 0 68.1088 13.0233 887 111.359 346.967 475.029
707 0 71.1465 14.9551 1064 107.758 346.375 473.998
708 0 73.0931 14.6252 1069 108.629 347.11 471.265
709 0 74.12 15.9606 1183 105.731 346.017 474.092
710 0 80.096 13.309 1066 109.704 345.114 467.353
711 0 80.1659 14.7943 1186 108.557 345.817 460.884
712 0 84.2464 14.9443 1259 107.546 345.246 465.193
713 0 89.3353 15.5034 1385 105.468 346.581 464.676
714 1 44.2339 12.3661 547 108.274 344.792 483.207
715 0 44.0479 10.0572 443 110.596 345.312 482.537
716 0 48.0513 10.4472 502 110.243 346.62 480.183
717 0 48.0728 16.0798 773 104.486 349.668 476.19
718 0 52.0819 15.706 818 99.7861 348.897 476.178
719 0 54.1203 15.5025 839 103.632 350.493 477.3
720 0 51.1754 14.0888 721 109.209 349.71 472.693
721 0 55.4401 14.1233 783 108.289 350.754 470.356
722 0 58.1598 14.3054 832 106.673 350.682 473.454
723 0 58.0778 13.7402 798 107.871 353.041 473.137
724 0 59.169 14.3318 848 107.762 353 470.68
725 0 61.2768 13.0881 802 108.865 353.748 468.815
726 0 65.652 16.4961 1083 104.303 354.041 465.245
727 0 66.2317 14.5097 961 107.291 354.494 469.281
728 0 68.2888 14.5412 993 108.562 355.325 466.483
729 0 71.331 13.8089 985 109.201 355.356 469.11
730 0 70.3048 15.6462 1100 104.595 356.494 468.568
731 0 71.2588 12.3634 881 109.162 355.734 469.476
732 0 77.2794 13.3541 1032 108.204 355.941 470.693
733 0 77.3873 15.5323 1202 106.517 355.849 466.315
734 0 82.3011 20.6073 1696 99.8667 355.531 471.293
735 0 84.3477 15.9103 1342 106.689 355.306 465
736 0 85.4798 10.6224 908 114.511 354.119 469.119
737 0 91.5132 14.5553 1332 108.805 354.357 465.862
738 0 94.2138 14.0319 1322 109.386 353.049 464.151
739 0 98.2489 17.6389 1733 104.342 353.512 466.811
740 1 52.5717 11.0135 579 113.352 352.663 483.34
741 0 55.1888 11.5241 636 110.385 353.167 482.892
742 0 55.3652 12.1556 673 108.492 352.172 477.782
743 0 58.2314 13.3948 780 110.031 351.037 481.88
744 0 59.2435 10.499 622 112.002 351.24 483.243
745 0 62.4681 12.7585 797 111.997 350.911 474.836
746 0 65.5057 14.4568 947 109.01 350.45 474.861
747 0 68.4283 12.5679 860 110.948 349.877 474.77
748 0 69.461 15.3899 1069 107.551 349.304 469.204
749 0 70.1473 12.0461 845 108.181 348.69 471.098
750 0 75.4587 13.9282 1051 105.355 348.868 469.615
751 0 77.5603 12.068 936 106.59 349.154 468.193
752 0 79.6776 12.036 959 108.544 348.666 458.121
753 0 83.591 11.6639 975 108.983 348.096 457.496
754 0 87.8782 12.0963 1063 107.957 347.722 456.38
755 0 90.4173 16.999 1537 102.367 347.895 455.597
756 0 93.712 13.4775 1263 107.204 348.516 455.183
757 1 46.3458 12.6225 585 105.209 349.159 472.92
758 0 50.3272 10.6304 535 108.845 349.722 470.172
759 0 53.3276 12.7139 678 107.912 349.668 470.972
760 0 55.4206 12.6668 702 109.717 352.175 467.302
761 0 56.3174 12.2165 688 113.577 351.124 465.201
762 0 58.2216 12.7959 745 108.711 352.834 467.35
763 0 61.17 16.6095 1016 104.985 352.843 467.547
764 0 62.4066 11.6815 729 112.052 353.395 466.728
765 0 65.2012 14.6316 954 108.029 353.12 460.679
766 0 68.7445 14.8521 1021 107.751 354.013 462.088
767 0 72.8789 15.5601 1134 101.351 354.086 454.562
768 0 71.1453 14.2385 1013 104.038 354.91 461.236
769 0 75.2514 11.5878 872 108.028 354.811 461.294
770 0 77.1722 13.3986 1034 104.277 354.904 464.109
771 0 79.0687 11.4457 905 107.397 355.071 462.957
772 0 82.5323 10.5413 870 110.207 355.376 455.6
773 0 85.3262 10.4071 888 110.277 355.734 457.266
774 0 88.3712 13.3867 1183 106.821 355.788 456.385
775 0 88.6061 18.159 1609 102.591 356.075 449.268
776 0 94.4826 12.3197 1164 108.562 355.315 454.338
777 0 98.7329 15.5672 1537 104.403 355.919 449.813
778 0 100.384 11.7249 1177 110.278 354.873 448.779
779 0 108.42 10.3117 1118 110.11 354.869 455.341
780 0 106.481 12.6408 1346 109.714 354.646 446.07
781 0 114.247 16.1843 1849 103.246 354.837 451.616
782 1 58.1102 13.7153 797 105.183 355.519 479.389
783 0 59.2198 11.2462 666 109.192 355.506 477.173
784 0 62.1716 11.983 745 106.611 355.514 474.174
785 0 62.2586 11.8377 737 106.931 354.531 474.554
786 0 65.2414 14.6379 955 103.08 353.617 473.038
787 0 66.1426 10.7193 709 107.955 352.695 473.166
788 0 70.2446 14.3783 1010 102.731 352.216 470.259
789 0 69.2025 9.73954 674 106.815 351.898 477.769
790 0 69.1506 10.5133 727 109.084 351.638 473.304
791 0 75.3168 15.1493 1141 104.518 350.273 463.681
792 0 77.2753 12.7984 989 107.665 351.257 459.925
793 0 78.2079 14.1162 1104 106.822 351.126 456.61
794 0 83.5944 12.5965 1053 108.924 350.116 458.997
795 0 85.4384 13.1674 1125 108.562 350.928 457.347
796 0 88.2324 11.2884 996 110.403 350.53 454.372
797 0 88.2324 11.2657 994 135.092 349.545 454.182
798 0 93.3746 15.4325 1441 106.368 349.667 446.176
799 1 51.169 13.5043 691 106.709 349.175 471.036
800 0 51.1163 6.55368 335 117.516 350.621 467.2
801 0 53.3181 11.5158 614 108.518 347.596 471.309
802 0 53.2104 11.3324 603 110.64 348.786 469.196
803 0 58.1707 12.0336 700 110.697 349.236 468.726
804 0 59.6063 14.0589 838 108.295 350.557 463.599
805 0 61.3093 19.1162 1172 101.695 351.643 465.916
806 0 62.3876 14.2176 887 108.322 351.648 466.018
807 0 63.2683 11.554 731 113.282 353.279 464.787
808 0 70.3143 18.6591 1312 101.913 352.315 462.406
809 0 69.3676 13.1618 913 108.933 353.095 462.053
810 0 71.3021 14.123 1007 109.896 354.396 457.772
811 0 73.2694 16.0777 1178 106.004 354.242 466.244
812 0 78.6346 17.1044 1345 103.712 356.332 464.765
813 0 79.2739 16.0709 1274 108.949 356.059 459.16
814 0 81.0716 11.237 911 113.621 355.442 458.94
815 0 84.3241 14.6459 1235 108.572 356.593 458.254
816 0 87.1742 13.5132 1178 108.323 356.72 454.874
817 0 90.2284 11.7036 1056 110.25 357.2 457.571
818 0 92.1491 14.075 1297 108.029 356.397 452.688
819 1 52.1184 9.47842 494 110.038 357.208 482.464
820 0 54.1688 12.9595 702 106.768 357.128 480.114
821 0 54.1522 10.8952 590 110.992 356.383 476.841
822 0 54.1522 10.7475 582 130.265 355.412 476.723
823 0 59.0719 16.4884 974 102.689 357.424 479.128
824 0 59.0728 12.273 725 107.676 355.541 480.63
825 0 62.0792 13.7727 855 106.491 355.523 477.549
826 0 63.1734 11.9196 753 109.709 353.818 479.004
827 0 66.0718 14.6205 966 107.108 355.567 473.38
828 0 69.2524 13.3281 923 108.969 355.043 474.491
829 0 69.1488 12.4514 861 110.754 354.534 475.922
830 0 70.2668 13.3634 939 111.289 351.547 473.231
831 0 71.2295 13.1687 938 112.256 351.663 471.42
832 0 75.1859 16.7585 1260 107.277 349.648 468.817
833 0 77.1766 12.6334 975 113.003 349.107 467.907
834 0 80.3328 12.137 975 114.528 349.011 467.458
835 0 81.4322 12.1574 990 116.026 349.987 461.122
836 1 48.0697 10.6096 510 114.427 350.196 481.537
837 0 45.035 11.702 527 114.287 349.651 481.228
838 0 49.0479 12.396 608 112.706 348.714 480.386
839 0 51.0365 11.3252 578 115.313 348.566 475.509
840 0 48.0876 10.7304 516 114.324 351.112 479.672
841 0 52.2468 10.5844 553 111.488 349.582 477.74
842 0 50.0705 9.10716 456 114.322 350.009 475.866
843 0 53.0557 13.1937 700 108.969 350.199 470.18
844 0 57.1157 11.6255 664 110.988 350.31 470.313
845 0 58.1204 10.8052 628 113.312 351.497 466.25
846 0 62.3695 13.0031 811 107.815 352.065 471.847
847 0 61.1445 10.9249 668 112.478 353.296 468.689
848 0 65.0604 13.0648 850 109.094 353.415 465.613
849 0 66.1982 11.7979 781 112.334 353.832 463.05
850 0 66.234 8.78703 582 117.275 353.483 461.445
851 0 71.3223 13.0114 928 109.373 354.2 465.62
852 0 75.2053 14.9325 1123 108.565 353.297 460.913
853 0 73.1067 12.2424 895 114.116 355.558 456.102
854 0 78.1523 11.452 895 117.268 355.72 454.906
855 0 83.2358 13.1434 1094 114.215 357.484 448.168
856 0 83.4359 17.2468 1439 108.671 356.757 446.749
857 0 86.4663 9.80728 848 117.934 358.045 452.099
858 0 90.2644 12.4634 1125 115.237 358.123 447.372
859 1 46.1766 10.6331 491 114.159 358.497 472.585
860 0 45.3295 7.21385 327 115.508 357.33 467.159
861 0 48.4974 11.3408 550 109.389 357.731 470.095
862 0 51.2981 14.6204 750 105.48 357.772 470.539
863 0 53.2709 12.3895 660 114.926 356.25 479.224
864 0 55.4722 11.5193 639 116.664 356.423 478.62
865 0 57.1359 12.8116 732 114.463 356.678 477.874
866 0 59.3213 15.7616 935 110.763 355.991 474.72
867 0 60.6182 11.6962 709 117.052 355.585 478.616
868 0 62.288 12.6509 788 114.994 353.726 475.066
869 0 62.3062 11.4756 715 112.424 354.169 476.443
870 0 66.342 16.1888 1074 104.928 354.126 475.218
871 0 68.1039 15.9609 1087 105.974 354.651 473.874
872 0 70.1814 18.9224 1328 102.42 353.87 475.956
873 0 71.1728 11.8304 842 112.715 352.265 471.815
874 0 74.1144 17.3651 1287 105.73 353.172 466.845
875 0 76.104 14.6247 1113 110.633 352.744 469.412
876 0 79.3211 11.2959 896 115.883 351.647 465.981
877 0 79.4245 11.4071 906 116.728 351.17 463.698
878 0 84.4263 16.239 1371 108.828 349.106 462.36
879 0 86.5262 13.4757 1166 113.86 351.087 457.131
880 1 46.1763 12.1924 563 111.41 349.945 476.682
881 0 49.6206 9.75401 484 115.61 350.682 474.182
882 0 49.2196 13.8359 681 110.332 350.511 479.358
883 0 53.195 13.9863 744 109.302 351.758 476.985
884 0 53.3507 12.296 656 113.377 350.562 474.779
885 0 53.3362 12.9555 691 113.433 350.8 471.566
886 0 56.4375 13.4662 760 112.289 350.282 468.393
887 0 56.4375 13.4308 758 128.534 350.276 468.445
888 0 60.3664 14.5611 879 109.255 351.471 470.356
889 0 61.2466 13.1109 803 112.573 351.615 466.209
890 0 64.1702 13.3551 857 111.704 352.859 464.8
891 0 66.0878 13.936 921 111.919 353.055 461.199
892 0 68.1697 13.0997 893 112.232 352.965 464.667
893 0 71.044 13.738 976 112.968 354.573 460.073
894 0 71.3702 12.274 876 115.84 354.237 460.087
895 0 75.3129 11.3394 854 117.143 353.755 462.553
896 0 79.3136 14.1086 1119 115.765 354.921 458.869
897 1 39.1342 13.0065 509 114.587 353.556 476.277
898 0 45.1169 11.9024 537 112.11 354.231 476.719
899 0 43.1727 13.1796 569 112.302 354.705 475.671
900 0 44.2214 12.347 546 112.965 355.987 477.485
901 0 49.3519 14.4878 715 109.59 356.629 473.187
902 0 48.2407 16.8737 814 107.039 356.758 474.602
903 0 50.1886 13.3098 668 112.54 356.94 476.019
904 0 49.2873 14.2836 704 113.036 356.493 474.749
905 0 52.1173 14.0836 734 112.143 356.059 477.416
906 0 52.1674 12.2107 637 116.655 356.276 473.13
907 0 54.1358 13.2075 715 114.79 355.78 477.238
908 0 56.1829 13.5628 762 114.959 356.091 477.916
909 0 59.1729 15.2942 905 112.008 355.692 475.743
910 0 59.1582 14.7063 870 113.569 355.31 477.891
911 0 62.2034 15.9959 995 111.722 355.127 473.993
912 0 65.148 17.6982 1153 108.681 354.381 471.139
913 0 69.0864 16.6748 1152 109.619 353.85 470.516
914 0 68.1292 13.9147 948 116.704 352.5 473.237
915 0 71.1781 13.403 954 118.268 353.086 473.045
916 0 72.1178 15.1419 1092 114.902 351.229 469.826
917 0 76.1138 15.5031 1180 113.123 351.048 468.583
918 0 77.1479 14.3491 1107 113.469 350.682 467.731
919 0 80.2387 14.5316 1166 111.462 349.536 470.275
920 0 81.1815 12.2934 998 117.64 349.606 463.127
921 0 85.1837 12.5963 1073 115.882 349.351 462.675
922 0 88.1634 14.2009 1252 112.891 348.827 459.863
923 1 44.0772 9.16573 404 120.178 347.292 479.25
924 0 50.0603 12.5249 627 114.869 347.553 478.25
925 0 51.054 14.0635 718 110.642 348.773 471.965
926 0 51.054 14.0635 718 122.809 349.801 471.993
927 0 51.181 12.3483 632 119.612 348.239 469.486
928 0 53.1109 11.3159 601 117.075 349.403 473.864
929 0 55.0929 11.8527 653 117.519 349.36 469.462
930 0 57.1566 10.6549 609 118.631 349.22 470.906
931 0 60.4607 13.6618 826 114.063 348.104 467.67
932 0 60.1326 10.2607 617 120.034 349.6 465.802
933 0 63.4359 13.5728 861 114.499 350.555 462.466
934 0 65.1048 12.8869 839 114.54 351.151 460.416
935 0 68.239 13.3795 913 113.636 351.135 461.229
936 0 69.2551 11.7825 816 114.072 352.05 464.971
937 0 72.2778 11.6772 844 116.286 353.018 455.983
938 1 38.0142 10.2856 391 114.816 352.767 475.483
939 0 38.0461 10.7238 408 113.353 354.333 474.674
940 0 39.4361 10.9798 433 115.711 355.483 470.755
941 0 44.0897 15.9221 702 101.248 355.427 479.077
942 0 41.1853 13.767 567 107.578 353.982 476.411
943 0 44.3598 10.5275 467 112.505 354.128 474.55
944 0 43.3357 9.27642 402 114.784 355.403 477.595
945 0 49.2727 12.1365 598 108.038 354.806 474.433
946 0 48.0538 12.486 600 109.96 356.548 476.33
947 0 48.0352 10.6797 513 111.281 355.556 481.035
948 0 51.0937 12.0367 615 109.423 356.525 478.735
949 0 51.3076 11.6162 596 110.881 354.441 478.181
950 0 54.1473 12.0782 654 110.494 355.448 477.272
951 0 56.081 13.5697 761 108.778 357.056 479.2
952 0 55.2366 10.6813 590 113.502 353.181 476.895
953 0 58.2946 10.121 590 114.454 354.334 478.058
954 0 61.17 11.1002 679 113.181 353.592 475.853
955 0 65.3217 12.8135 837 110.313 352.3 475.282
956 0 65.137 12.1129 789 111.125 352.376 477.738
957 0 68.1698 10.0778 687 116.604 351.003 475.524
958 0 68.2585 10.8997 744 115.542 351.485 472.574
959 0 72.2525 9.9789 721 116.293 350.3 474.061
960 0 74.1721 11.6621 865 116.483 349.961 469.482
961 0 77.1658 11.2226 866 116.039 348.448 469.89
962 0 81.3353 13.2415 1077 112.396 350.062 468.513
963 0 84.156 11.5737 974 116.253 348.152 464.404
964 0 84.1383 11.5643 973 117.291 349.888 463.238
965 0 87.2588 11.0018 960 119.082 349.028 460.215
966 0 90.4469 13.8313 1251 113.131 349.44 462.924
967 0 91.7562 9.23098 847 121.815 349.079 461.6
968 0 90.3575 9.9715 901 119.488 350.169 461.057
969 0 94.6874 12.1769 1153 117.115 349.872 453.682
970 0 98.2125 11.8315 1162 116.772 350.62 454.185
971 1 54.0791 10.836 586 114.908 349.961 472.84
972 0 56.1714 10.5214 591 112.785 350.602 470.635
973 0 54.1154 9.22103 499 118.926 350.09 470.663
974 0 60.0969 11.0155 662 113.559 350.672 465.424
975 0 62.1428 11.3127 703 113.937 350.545 468.654
976 0 64.1686 10.5347 676 114.617 352.861 464.29
977 0 66.2322 11.1577 739 113.685 352.553 457.675
978 0 64.2384 10.9125 701 114.207 353.534 456.151
979 0 69.1349 12.3671 855 111.222 354.65 457.655
980 0 68.3403 6.36521 435 115.186 355.924 465.786
981 0 75.2105 9.95872 749 110.702 355.279 460.43
982 0 75.2976 10.9964 828 112.303 353.042 456.415
983 0 79.2668 17.0437 1351 99.4049 353.432 460.191
984 0 83.4434 11.7565 981 102.942 352.91 465.58
985 0 88.285 17.2849 1526 99.2975 354.409 458.497
986 0 88.3206 13.5529 1197 103.227 355.196 453.59
987 0 92.3881 15.6622 1447 102.133 355.403 451.238
988 0 92.3817 11.669 1078 108.443 355.435 454.687
989 0 97.517 11.1058 1083 109.813 356.695 454.491
990 0 100.242 12.4898 1252 109.05 357.19 449.621
991 0 107.294 5.74124 616 116.901 356.364 459.917
992 0 109.818 12.7484 1400 104.485 355.844 458.613
993 0 110.558 12.9887 1436 106.457 356.656 450.052
994 0 114.749 12.5579 1441 106.76 356.496 446.827
995 1 63.2715 11.1741 707 106.762 354.451 475.444
996 0 64.1544 7.38843 474 116.932 354.939 472.538
997 0 68.2767 14.7928 1010 105.821 353.766 469.512
998 0 70.0969 14.6083 1024 106.609 353.317 472.715
999 0 70.1558 12.2584 860 108.713 353.264 470.145
1000 0 72.1041 11.1505 804 111.756 352.095 469.315
1001 0 77.353 11.9064 921 110.403 350.877 468.73
1002 0 80.3531 16.1288 1296 103.634 350.84 468.454
1003 0 84.5827 15.3814 1301 104.824 351.176 467.746
1004 0 86.4534 12.2725 1061 109.804 350.997 465.342
1005 0 86.5219 11.211 970 114.764 349.629 457.313
1006 0 85.5077 10.4552 894 113.394 346.732 456.559
1007 1 47.524 12.8356 610 106.613 350.893 476.346
1008 0 48.5076 12.0394 584 107.384 351.178 478.029
1009 0 50.0549 14.3443 718 104.503 351.57 479.524
1010 0 49.3291 10.5617 521 111.238 351.054 481.641
1011 0 52.2023 16.7042 872 102.154 351.978 477.688
1012 0 53.0978 17.157 911 101.985 351.582 476.029
1013 0 51.2381 14.7546 756 105.709 351.332 476.156
1014 1 107.372 12.2937 1320 112.719 351.318 447.749
1015 1 56.2285 14.8679 836 105.906 350.23 473.507
1016 0 57.1671 11.9824 685 111.083 351.851 472.511
1017 0 57.1615 12.0886 691 112.245 352.424 468.035
1018 0 60.0948 16.3575 983 105.811 351.975 466.25
1019 0 59.1045 12.1987 721 113.379 352.802 468.381
1020 0 61.2802 13.2669 813 112.326 353.594 465.77
1021 0 64.2262 13.7483 883 111.16 353.693 464.41
1022 0 63.1011 10.4119 657 117.968 353.487 464.079
1023 0 65.2064 14.3851 938 110.753 354.398 464.19
1024 0 67.137 10.3966 698 114.322 353.759 464.119
1025 0 67.1689 10.883 731 114.792 355.066 462.936
1026 0 73.1082 13.5142 988 109.228 354.401 459.941
1027 0 77.31 16.8801 1305 104.569 355.022 459.287
1028 0 75.1846 13.3671 1005 109.42 353.554 460.754
1029 0 75.1488 12.1758 915 112.634 353.96 456.172
1030 0 79.217 12.1186 960 112.696 354.774 457.194
1031 0 82.1941 14.8916 1224 107.141 353.785 464.013
1032 0 85.2502 14.6275 1247 108.674 354.536 454.658
1033 0 88.1974 13.9006 1226 111.082 355.243 455.728
1034 0 91.4786 14.1235 1292 108.737 353.906 455.765
1035 1 45.0704 9.76249 440 111.086 354.527 477.255
1036 0 51.2057 13.9242 713 103.82 350.499 482.937
1037 0 50.2676 12.1947 613 108.959 351.966 480.168
1038 0 52.2174 12.9459 676 108.604 351.791 477.99
1039 0 55.0836 12.5082 689 107.258 353.385 480.702
1040 0 55.1322 10.9555 604 110.866 352.776 480.437
1041 0 59.171 14.4497 855 105.411 351.94 477.187
1042 0 59.2366 12.0365 713 108.21 351.875 479.947
1043 0 61.0879 11.2625 688 110.029 350.794 479.868
1044 0 63.0613 10.7673 679 110.096 349.791 478.991
1045 0 65.1087 11.2427 732 110.343 349.303 475.579
1046 0 70.263 15.3993 1082 102.587 349.426 475.284
1047 0 74.1384 13.0432 967 106.513 348.944 475.272
1048 0 73.208 13.4958 988 107.356 348.322 467.342
1049 0 76.1955 15.1715 1156 105.399 347.53 468.198
1050 0 78.1472 13.9608 1091 108.673 345.162 470.909
1051 0 78.0858 16.5075 1289 107.14 346.458 465.837
1052 0 80.1843 13.3941 1074 111.972 345.911 466.145
1053 0 86.2307 17.6271 1520 103.799 346.118 468.195
1054 0 88.0899 17.4481 1537 105.692 345.483 462.001
1055 0 92.1672 15.3525 1415 108.819 345.184 462.059
1056 0 92.3226 19.4752 1798 104.314 345.515 457.294
1057 0 94.2056 13.2476 1248 115.226 346.845 453.415
1058 0 97.2981 12.2818 1195 115.179 346.128 455.984
1059 0 96.1767 10.3559 996 118.022 346.176 456.333
1060 0 106.578 13.408 1429 114.564 348.485 448.3
1061 0 108.47 12.6487 1372 117.566 349.038 448.389
1062 1 61.1663 13.8311 846 110.362 349.42 469.907
1063 0 63.2052 12.404 784 113.375 349.142 468.287
1064 0 61.1103 11.9947 733 113.236 350.394 464.664
1065 0 63.1211 9.14116 577 115.419 350.315 448.705
1066 0 63.1211 9.157 578 147.728 351.313 448.839
1067 0 63.2334 10.9278 691 110.726 350.926 448.172
1068 0 71.2937 15.2187 1085 102.96 352.265 453.365
1069 0 69.4827 11.0243 766 110.71 353.343 450.79
1070 0 72.3398 14.5701 1054 105.828 354.632 455.042
1071 0 75.075 12.0413 904 116.204 356.586 458.321
1072 0 79.1116 14.4227 1141 111.839 356.154 460.146
1073 0 82.4368 13.5498 1117 112.627 358.02 460.448
1074 0 86.3342 14.0037 1209 112.854 359.107 459.047
1075 0 87.131 14.4266 1257 111.653 357.715 459.932
1076 0 90.2944 11.2742 1018 116.61 358.506 458.959
1077 0 93.2724 14.0127 1307 113.562 358.135 455.36
1078 0 97.2951 12.6831 1234 114.96 357.716 455.248
1079 0 101.268 12.9162 1308 115.071 357.589 453.675
1080 0 106.527 17.4134 1855 109.369 355.77 451.988
1081 0 106.658 13.7729 1469 114.806 356.447 448.973
1082 1 57.227 11.7777 674 111.994 356.705 477.343
1083 0 57.3512 10.9501 628 114.162 356.65 474.713
1084 0 60.3476 11.4172 689 110.576 355.482 475.517
1085 0 61.1317 7.57381 463 114.112 353.343 482.404
1086 0 63.0968 11.8548 748 109.103 353.251 476.568
1087 0 68.2567 14.1818 968 105.154 353.396 479.243
1088 0 68.5394 11.6575 799 107.967 352.4 481.22
1089 0 71.1966 12.5568 894 107.754 352.063 475.015
1090 0 74.3739 11.9934 892 108.4 350.576 473.419
1091 0 75.4581 11.7814 889 108.849 350.543 474.508
1092 0 77.2794 12.0343 930 111.308 350.241 470.219
1093 0 83.5126 13.4591 1124 108.513 349.442 469.06
1094 0 84.2774 13.4556 1134 108.129 348.944 471.052
1095 0 86.5213 14.4935 1254 108.081 349.047 464.856
1096 0 91.2785 16.0498 1465 104.504 348.794 465.679
1097 0 94.5842 12.1796 1152 109.126 349.723 465.322
1098 1 46.2861 12.1203 561 111.654 348.572 479.797
1099 0 52.5703 10.8997 573 107.15 348.901 484.475
1100 0 50.028 14.9316 747 104.712 347.36 480.643
1101 0 54.102 14.5651 788 106.131 348.109 476.093
1102 0 54.0519 15.6701 847 102.769 346.845 479.151
1103 0 57.1462 12.9142 738 106.684 347.795 474.663
1104 0 59.1165 14.4461 854 105.533 348.204 474.382
1105 0 59.1156 12.8562 760 109.133 348.158 469.747
1106 0 61.0837 15.8144 966 104.858 349.354 468.107
1107 0 63.0812 11.4773 724 110.93 348.29 469.145
1108 0 63.1777 11.7446 742 111.07 350.084 466.419
1109 0 68.3379 14.7649 1009 105.883 349.847 465.346
1110 0 69.0594 13.4232 927 106.965 351.703 467.999
1111 0 71.0517 14.7639 1049 107.109 351.679 465.087
1112 0 74.0541 13.004 963 108.489 352.814 460.151
1113 0 76.1399 13.7116 1044 106.39 352.492 464.318
1114 0 78.0872 12.9599 1012 107.692 352.78 462.794
1115 0 83.1503 14.5399 1209 105.78 353.763 461.165
1116 0 84.1118 15.8361 1332 104.183 354.063 460.309
1117 0 88.0739 13.3411 1175 107.778 353.434 457.965
1118 1 47.1063 11.0813 522 107.341 354.751 479.538
1119 0 49.0769 12.0423 591 104.883 353.575 479.411
1120 0 50.0743 12.6412 633 100.035 355.668 483.643
1121 0 50.1115 11.0154 552 102.918 354.672 479.444
1122 0 53.2343 13.2997 708 100.438 354.668 478.686
1123 0 55.2272 10.9004 602 103.595 354.473 477.748
1124 0 57.0341 13.2377 755 103.562 353.293 479.473
1125 0 55.1434 12.5491 692 106.777 353.861 480.467
1126 0 59.2124 14.4226 854 104.541 354.694 479.453
1127 0 60.351 13.3718 807 104.98 356.378 479.828
1128 0 65.2589 16.0285 1046 101.21 354.901 479.297
1129 0 64.381 11.9911 772 106.065 353.851 478.615
1130 0 69.217 13.6383 944 105.388 351.82 477.382
1131 0 68.1997 11.0558 754 108.599 351.41 478.918
1132 0 72.2393 11.2958 816 107.722 351.744 478.57
1133 0 72.1383 10.6739 770 109.674 351.244 476.886
1134 0 75.1786 13.5411 1018 107.123 349.276 470.06
1135 0 77.2866 12.3566 955 107.323 350.408 471.222
1136 1 40.0935 10.8746 436 105.674 348.608 489.911
1137 0 41.0644 8.91284 366 107.153 350.568 490.424
1138 0 39.0687 9.03538 353 108.518 350.085 486.649
1139 0 44.1223 11.2188 495 102.368 348.962 483.768
1140 0 44.1147 10.6541 470 104.091 348.668 481.304
1141 0 47.1109 12.2902 579 103.38 349.575 482.886
1142 0 49.1033 12.6264 620 103.34 348.274 477.915
1143 0 49.1168 11.89 584 105.164 347.394 478.721
1144 0 49.0933 13.729 674 104.295 347.067 477.111
1145 0 50.1556 13.0992 657 104.335 348.123 474.849
1146 0 52.374 9.20304 482 109.452 349.467 473.154
1147 0 56.2252 13.5349 761 103.105 348.862 474.378
1148 0 57.1735 12.7332 728 104.565 348.51 469.725
1149 0 58.112 11.1509 648 107.563 350.097 471.86
1150 0 63.2348 14.9285 944 102.04 349.035 469.684
1151 0 66.1572 13.5435 896 103.424 350.682 466.047
1152 0 67.2179 13.6571 918 104.241 352.072 464.246
1153 0 67.1709 13.5922 913 105.165 351.79 461.876
1154 0 69.4466 11.9084 827 107.302 352.849 464.845
1155 0 74.289 12.061 896 106.804 353.488 463.738
1156 0 77.436 14.7864 1145 103.967 354.24 461.248
1157 0 78.2176 12.5292 980 107.343 353.954 458.507
1158 0 78.3826 10.8187 848 110.612 353.768 458.573
1159 0 85.3096 16.1647 1379 102.672 355.841 457.88
1160 0 85.3096 16.1881 1381 106.314 357.878 457.621
1161 0 87.1611 10.8535 946 112.103 356.964 456.03
1162 0 93.3266 14.0582 1312 107.09 355.358 451.963
1163 0 99.7364 16.6539 1661 102.811 355.972 454.75
1164 0 100.44 17.4731 1755 103.065 357.229 450.342
1165 0 99.3901 10.7455 1068 112.137 356.528 447.514
1166 1 51.1035 11.2125 573 109.656 357.209 480.417
1167 0 50.0551 11.9468 598 105.085 355.895 478.878
1168 0 51.0521 12.0465 615 105.576 355.206 481.798
1169 0 52.0816 7.14263 372 112.669 355.019 480.25
1170 0 54.1444 7.57234 410 112.346 353.459 477.517
1171 0 63.228 9.18897 581 107.239 353.917 486.499
1172 0 58.112 9.17194 533 109.068 353.537 473.657
1173 0 64.0785 15.5434 996 103.135 353.56 478.708
1174 0 69.3432 12.2002 846 106.122 352.59 473.351
1175 0 66.3505 14.8454 985 103.455 351.254 475.584
1176 0 69.2017 10.939 757 108.159 350.806 476.164
1177 0 75.1595 9.41996 708 109.285 350.931 473.024
1178 0 76.2023 12.165 927 106.182 350.378 473.116
1179 0 78.1105 9.74261 761 109.066 349.816 469.963
1180 0 81.1792 13.2793 1078 104.921 349.121 469.689
1181 0 84.4242 8.61127 727 110.565 347.199 460.543
1182 1 47.2581 12.9925 614 102.536 346.814 489.676
1183 0 47.0335 10.2905 484 108.49 347.025 485.351
1184 0 52.5372 13.5713 713 103.014 347.853 482.75
1185 0 51.0842 12.45 636 106.417 346.675 480.454
1186 0 51.152 10.5959 542 110.852 345.12 478.489
1187 0 54.0732 12.1502 657 105.728 347.361 478.175
1188 0 53.106 14.6123 776 103.375 346.205 478.671
1189 0 59.2064 12.7689 756 104.741 346.415 476.04
1190 0 61.2566 12.064 739 104.765 346.353 471.134
1191 0 61.2216 14.815 907 102.943 348.991 470.322
1192 0 62.379 12.2477 764 106.03 348.908 473.11
1193 0 64.3521 15.1355 974 103.458 349.216 466.303
1194 0 64.2086 13.5652 871 105.986 350.107 467.684
1195 0 68.1492 10.7558 733 108.031 349.533 468.109
1196 0 72.1436 15.1642 1094 102.676 351.254 464.181
1197 0 77.0931 14.8392 1144 100.969 351.9 467.262
1198 0 74.0948 14.6029 1082 102.768 351.769 466.087
1199 0 80.1661 17.0147 1364 101.265 352.91 459.097
1200 0 80.178 9.20452 738 110.435 352.986 464.028
1201 0 85.2386 13.9139 1186 104.602 353.918 460.279
1202 0 87.3553 13.2562 1158 105.934 354.117 461.097
1203 0 90.2284 14.7515 1331 103.963 355.793 457.168
1204 1 46.2723 14.3715 665 106.513 354.592 476.796
1205 0 47.3812 12.5155 593 109.74 355.904 476.266
1206 0 50.1368 13.2637 665 101.305 357.827 475.904
1207 0 50.1058 11.336 568 104.236 357.137 470.991
1208 0 53.2444 18.4808 984 97.5549 355.991 478.989
1209 0 52.0862 12.2489 638 108.572 355.221 481.056
1210 0 54.2068 12.5261 679 108.225 354.77 480.669
1211 0 56.2577 13.8292 778 106.977 354.242 480.744
1212 0 59.1463 13.7625 814 107.557 354.439 478.816
1213 0 59.1463 13.8808 821 118.476 354.446 478.979
1214 0 62.2172 16.2495 1011 104.068 353.341 478.446
1215 0 64.3258 11.2086 721 110.666 352.055 479.799
1216 0 67.3976 14.9857 1010 105.016 350.988 475.829
1217 0 67.2579 11.4039 767 111.132 350.614 476.056
1218 0 70.1505 13.6849 960 107.861 349.753 477.275
1219 0 73.1192 13.6353 997 108.18 349.935 472.644
1220 0 76.2809 12.2573 935 109.978 349.932 468.945
1221 0 78.2126 15.9821 1250 103.238 348.078 473.645
1222 0 82.3134 12.0151 989 108.906 349.371 468.35
1223 0 82.6259 14.8743 1229 105.814 348.714 469.631
1224 0 86.2825 14.6727 1266 107.056 349.164 462.224
1225 1 46.5468 11.279 525 111.499 348.107 478.29
1226 0 45.3723 12.717 577 108.88 348.475 477.955
1227 0 48.2486 9.47178 457 112.584 347.923 476.048
1228 0 48.1642 11.3778 548 112.285 347.396 477.352
1229 0 52.0553 12.2946 640 110.961 346.72 476.092
1230 0 54.0962 15.3615 831 106.457 346.782 473.968
1231 0 52.0342 11.896 619 111.141 347.725 475.467
1232 0 56.0518 15.8782 890 105.618 347.479 472.319
1233 0 59.1188 12.0266 711 111.553 348.291 470.709
1234 0 61.2062 14.7534 903 106.932 348.779 469.503
1235 0 65.1031 14.6844 956 107.759 349.791 465.507
1236 0 67.073 15.2371 1022 105.838 348.385 467.8
1237 0 70.149 15.6381 1097 106.122 350.264 461.182
1238 0 70.149 15.5954 1094 122.487 352.271 461.123
1239 0 74.1107 13.075 969 110.164 351.208 461.353
1240 0 76.1325 13.0824 996 110.673 351.572 462.919
1241 0 81.0964 16.3139 1323 106.211 351.93 459.765
1242 0 83.2857 14.4323 1202 109.3 352.676 459.069
1243 0 86.0659 12.351 1063 113.205 354.23 456.817
1244 1 44.0322 15.8974 700 105.21 353.747 476.147
1245 0 47.1051 9.80786 462 113.673 354.619 480.721
1246 0 49.2216 13.3681 658 112.038 356.837 476.033
1247 0 50.1941 13.4478 675 111.738 356.75 476.707
1248 0 52.073 14.3836 749 111.523 355.869 479.86
1249 0 51.2002 13.3007 681 114.088 354.927 479.028
1250 0 54.112 13.3057 720 113.624 355.919 479.446
1251 0 55.1041 11.1244 613 118.623 354.925 479.799
1252 0 57.0979 12.8201 732 114.915 355.35 482.223
1253 0 60.1237 13.0065 782 115.997 354.063 477.555
1254 0 62.0783 12.1137 752 117.057 353.692 480.561
1255 0 66.2762 12.7648 846 115.169 353.472 479.267
1256 0 68.145 13.0164 887 117.011 353.642 475.985
1257 0 71.1856 14.5254 1034 114.51 353.152 473.78
1258 0 72.3366 13.5478 980 116.398 353.031 475.441
1259 0 75.2972 14.9939 1129 114.609 353.271 472.861
1260 0 79.2391 11.6735 925 119.231 350.674 474.244
1261 1 44.1714 16.0511 709 108.42 349.856 490.638
1262 0 44.0771 13.4991 595 114.371 349.724 488.561
1263 0 45.0638 13.7805 621 114.738 348.834 485.731
1264 0 43.0808 10.283 443 116.183 349.831 490.524
1265 0 49.109 12.1363 596 111.337 347.757 487.017
1266 0 49.1371 11.0914 545 114.097 348.582 484.673
1267 0 51.2018 12.9488 663 111.621 348.516 483.116
1268 0 53.0589 13.0986 695 110.573 348.961 485.01
1269 0 53.0909 12.5822 668 112.496 348.314 479.046
1270 0 54.0572 11.9318 645 110.96 348.181 481.178
1271 0 55.0895 9.14874 504 115.159 348.486 480.927
1272 0 58.0602 15.7767 916 106.058 348.606 473.808
1273 0 62.1824 15.8083 983 106.001 348.43 467.709
1274 0 62.2116 10.4482 650 112.249 348.437 472.043
1275 0 62.2116 10.4161 648 115.312 348.418 472.077
1276 0 66.3105 11.7327 778 117.693 349.235 463.134
1277 0 69.3592 12.1397 842 116.59 350.761 464.207
1278 0 70.4075 14.4161 1015 112.865 350.685 462.861
1279 0 74.4328 14.859 1106 111.777 350.778 459.713
1280 0 77.3354 11.2885 873 114.955 352.28 463.804
1281 0 78.294 12.0188 941 114.191 353.293 460.052
1282 0 82.3656 13.2215 1089 113.722 354.268 457.867
1283 1 47.0471 15.0912 710 107.599 354.317 475.913
1284 0 46.2179 11.6622 539 115.581 355.523 476.466
1285 0 52.1304 18.4537 962 103.625 356.605 472.951
1286 0 52.1304 18.3578 957 108.602 357.63 472.929
1287 0 48.2214 13.3965 646 113.494 356.108 475.512
1288 0 50.2811 11.3761 572 118.872 356.437 473.334
1289 0 55.1632 17.0222 939 108.267 356.817 475.516
1290 0 52.3515 10.8115 566 120.853 356.422 475.753
1291 0 57.2812 14.7343 844 112.315 356.466 473.332
1292 0 55.1572 11.6032 640 118.892 355.828 473.145
1293 0 60.2182 12.5876 758 116.534 356.123 474.476
1294 0 61.3008 16.8024 1030 107.899 355.337 478.473
1295 0 62.1184 12.1864 757 114.795 355.407 473.716
1296 0 64.4687 10.4702 675 117.717 355.025 475.264
1297 0 70.3484 11.9121 838 112.798 354.945 472.802
1298 0 71.3582 11.8276 844 112.32 355.006 472.348
1299 0 76.3761 14.062 1074 108.145 354.434 468.996
1300 0 79.2454 9.32546 739 114.893 353.85 473.911
1301 0 79.2326 11.9017 943 117.608 353.798 471.08
1302 0 85.1989 13.2279 1127 109.16 351.654 470.013
1303 0 85.1989 13.1692 1122 113.57 349.637 470.132
1304 1 41.2455 9.77077 403 112.122 350.087 488.98
1305 0 47.2816 12.1823 576 107.694 350.698 485.639
1306 0 47.6348 11.5042 548 108.436 349.812 481.031
1307 0 50.2731 13.4068 674 106.552 350.168 482.166
1308 0 56.1686 10.8067 607 109.325 348.465 482.987
1309 0 55.1939 14.893 822 107.358 348.534 476.633
1310 0 61.319 15.5091 951 108.587 348.025 476.8
1311 0 58.4514 12.7456 745 112.915 347.366 474.385
1312 0 64.3848 12.2389 788 112.953 347.935 470.584
1313 0 64.1423 11.3965 731 112.369 347.28 470.082
1314 0 70.3907 13.7518 968 107.901 347.743 468.019
1315 0 75.2227 13.5996 1023 107.899 348.405 463.541
1316 0 74.4049 16.9747 1263 104.098 348.548 462.968
1317 0 75.5386 13.0794 988 111.177 348.485 459.688
1318 0 77.354 15.1511 1172 107.753 349.089 456.761
1319 0 81.2037 16.9943 1380 105.36 348.725 457.751
1320 0 83.2023 14.2785 1188 109.664 349.279 453.125
1321 0 89.7066 16.4425 1475 106.362 350.896 453.324
1322 0 89.4142 15.9259 1424 108.41 350.456 449.084
1323 0 90.4941 12.2881 1112 113.581 352.225 454.382
1324 0 93.2236 14.1595 1320 112.93 353.015 450.292
1325 0 95.3887 15.201 1450 110.744 352.757 450.401
1326 0 100.449 15.4804 1555 111.916 354.111 442.85
1327 0 102.463 13.1072 1343 115.491 353.464 441.276
1328 0 109.76 14.3222 1572 113.083 354.311 446.722
1329 0 110.603 17.2418 1907 109.689 355.689 438.579
1330 0 114.544 15.9066 1822 111.495 355.368 439.674
1331 0 115.66 11.7759 1362 117.907 356.074 436.706
1332 0 121.782 13.5653 1652 114.806 354.935 440.805
1333 0 130.518 15.1473 1977 112.56 356.697 444.698
1334 0 132.531 14.6834 1946 112.541 355.009 431.842
1335 1 65.512 14.1043 924 112.56 355.723 471.115
1336 0 67.2828 13.2277 890 115.148 355.231 467.663
1337 0 69.2513 12.6929 879 115.306 354.385 468.027
1338 0 76.1867 15.0814 1149 109.94 355.467 471.536
1339 0 78.3034 15.9125 1246 108.791 355.421 474.198
1340 0 79.2298 14.2749 1131 116.16 354.2 467.078
1341 0 84.111 14.8257 1247 114.703 354.128 468.405
1342 0 84.3417 11.0384 931 122.185 352.172 462.575
1343 0 89.1833 15.6307 1394 115.212 353.212 465.202
1344 0 93.3323 14.6895 1371 116.619 351.294 467.405
1345 0 94.4089 15.0833 1424 116.407 351.644 464.835
1346 0 99.3438 16.7197 1661 112.927 350.081 457.312
1347 0 100.471 15.3975 1547 116.442 350.585 460.191
1348 0 101.116 11.017 1114 123.078 350.46 462.908
1349 0 104.31 15.1471 1580 118.97 349.728 455.554
1350 0 110.465 16.168 1786 117.14 349.317 448.471
1351 0 113.551 14.4076 1636 121.094 348.577 446.667
1352 0 119.54 16.5552 1979 117.111 348.547 439.838
1353 0 122.517 16.1365 1977 119.063 348.958 431.838
1354 0 127.444 17.5999 2243 112.934 348.436 444.348
1355 0 131.937 19.5472 2579 113.053 347.102 418.366
1356 0 135.578 18.8969 2562 112.884 347.919 431.367
1357 0 141.372 16.0286 2266 117.273 349.149 427.412
1358 1 73.1912 12.4059 908 118.759 348.61 453.63
1359 0 76.5455 13.2078 1011 117.634 348.859 454.838
1360 0 78.2668 14.8467 1162 115.19 348.734 450.58
1361 0 84.4198 15.2216 1285 112.634 348.238 452.311
1362 0 85.5142 15.6699 1340 115.714 349.853 446.865
1363 0 87.4815 16.6892 1460 112.663 349.923 451.768
1364 0 90.5022 14.1986 1285 117.221 351.281 446.753
1365 0 93.2913 19.8196 1849 108.174 351.899 449.16
1366 0 95.3599 13.5696 1294 120.79 352.737 440.832
1367 0 96.3236 12.9252 1245 123.129 353.251 438.845
1368 0 99.3394 13.1368 1305 122.702 353.388 438.14
1369 0 103.221 12.914 1333 121.641 353.681 442.708
1370 0 111.446 14.5362 1620 119.08 353.595 436.405
1371 0 114.465 13.7335 1572 121.602 354.366 437.62
1372 0 117.372 14.8417 1742 119.88 354.665 435.885
1373 0 122.408 17.1312 2097 116.623 355.263 433.999
1374 0 128.637 14.9258 1920 119.223 354.274 436.141
1375 0 134.384 22.9046 3078 107.307 355.448 436.879
1376 0 138.436 15.4945 2145 119.167 355.99 433.381
1377 0 141.433 12.7269 1800 124.503 355.587 431.913
1378 0 147.707 15.0026 2216 121.833 355.028 429.824
1379 1 81.2176 10.9459 889 120.261 354.889 464.205
1380 0 85.4351 12.3017 1051 118.785 355.953 465.726
1381 0 84.3145 10.2829 867 123.848 354.384 463.349
1382 0 87.3069 12.7481 1113 118.938 353.501 458.936
1383 0 92.4445 12.137 1122 118.762 354.48 464.709
1384 0 95.4649 11.5016 1098 119.893 354.537 462.521
1385 0 98.3365 14.2673 1403 115.493 354.361 464.269
1386 0 102.394 14.7373 1509 114.843 352.288 460.372
1387 0 105.432 15.944 1681 114.121 351.995 456.876
1388 0 106.604 13.4235 1431 116.507 350.189 460.67
1389 0 109.362 11.8963 1301 121.676 349.792 454.683
1390 0 111.466 12.4612 1389 119.857 349.688 456.703
1391 0 115.307 13.5811 1566 118.345 349.612 450.882
1392 0 120.526 12.9101 1556 119.033 349.594 447.524
1393 1 65.2424 12.4919 815 116.84 349.514 472.818
1394 0 68.2864 13.1212 896 114.314 348.975 474.902
1395 0 69.1587 11.0615 765 119.107 348.437 471.301
1396 0 69.2647 11.059 766 121.504 345.574 470.273
1397 0 73.4047 14.0863 1034 117.554 347.508 467.831
1398 0 76.3862 16.1024 1230 113.907 346.779 467.759
1399 0 76.2497 14.6755 1119 117.36 346.768 464.947
1400 0 79.3166 12.5699 997 120.519 346.362 461.808
1401 0 82.3959 13.3138 1097 118.114 346.49 460.257
1402 0 83.4987 14.5391 1214 118.062 347.203 458.464
1403 0 87.4881 14.9277 1306 117.035 347.234 456.012
1404 0 90.9227 13.6929 1245 119.32 347.406 451.831
1405 0 90.9227 13.7589 1251 136.1 347.441 451.745
1406 0 93.7511 14.4318 1353 118.574 349.353 450.392
1407 0 96.7082 14.1353 1367 121.103 349.057 444.46
1408 0 98.3992 14.5834 1435 120.55 350.32 448.076
1409 0 101.495 13.3208 1352 122.814 350.173 441.012
1410 0 106.503 13.7555 1465 121.147 351.763 440.793
1411 0 108.586 13.9612 1516 118.848 352.764 446.132
1412 0 108.254 11.5931 1255 122.313 352.031 436.014
1413 1 61.1637 12.8998 789 115.607 352.589 461.989
1414 0 64.1857 15.9225 1022 109.822 353.191 463.677
1415 0 67.4445 12.4102 837 117.02 354.311 461.244
1416 0 70.4794 12.3582 871 121.861 355.183 461.93
1417 0 70.4794 12.3724 872 133.452 357.173 461.938
1418 0 73.4148 12.4498 914 118.216 357.148 468.214
1419 0 74.2234 12.2603 910 118.785 356.927 467.235
1420 0 79.2887 15.412 1222 113.39 356.754 465.071
1421 0 84.1674 15.1009 1271 112.487 356.304 468.057
1422 0 84.2591 12.6515 1066 118.076 356.062 464.735
1423 0 88.4796 13.5738 1201 116.705 355.931 462.097
1424 0 91.3511 15.0956 1379 113.659 355.458 461.204
1425 0 95.2617 14.8748 1417 113.035 355.367 464.01
1426 0 96.2913 12.4414 1198 117.532 354.962 460.437
1427 0 99.2889 13.7981 1370 115.613 354.394 459.358
1428 0 101.323 10.3827 1052 119.334 353.029 464.789
1429 0 104.143 12.5117 1303 119.151 353.269 462.485
1430 1 53.1249 14.6259 777 113.466 351.575 483.56
1431 0 54.0376 12.0287 650 118.015 351.857 482.995
1432 0 58.081 12.5687 730 116.29 350.84 477.779
1433 0 60.0728 11.8856 714 121.081 351.057 475.395
1434 0 62.1439 14.8848 925 116.309 349.744 472.968
1435 0 61.1752 11.9656 732 120.919 350.082 475.41
1436 0 69.2339 14.9349 1034 113.814 348.616 477.432
1437 0 69.3549 16.0335 1112 113.567 348.88 471.225
1438 0 72.2241 13.2504 957 118.24 348.672 468.301
1439 0 74.139 14.864 1102 115.566 348.09 468.704
1440 0 75.2492 13.6081 1024 118.192 348.833 463.31
1441 0 80.3177 14.0816 1131 115.969 348.358 466.277
1442 0 83.3877 13.1314 1095 118.02 348.531 461.107
1443 0 86.1965 13.1328 1132 117.053 348.796 459.354
1444 0 88.3557 13.9323 1231 116.283 348.868 457.874
1445 1 47.2347 12.4696 589 113.975 348.803 475.528
1446 0 47.3066 13.7401 650 113.154 348.917 474.402
1447 0 49.1892 10.7747 530 118.004 350.54 473.191
1448 0 53.4235 12.7659 682 115.891 349.814 473.949
1449 0 54.4763 14.7954 806 113.728 351.026 470.62
1450 0 54.2935 15.1215 821 113.78 351.879 467.307
1451 0 56.2977 15.3825 866 113.732 351.648 467.3
1452 0 57.0909 12.5764 718 119.331 353.489 466.104
1453 0 57.0909 12.5239 715 148.207 355.506 466.194
1454 0 61.2212 13.2144 809 118.703 354.101 466.188
1455 0 64.1256 14.2065 911 116.743 354.384 464.578
1456 0 66.3924 13.9323 925 116.781 354.346 464.471
1457 0 69.1933 11.6919 809 120.438 354.661 463.742
1458 0 76.8682 12.7361 979 115.981 356.4 466.661
1459 0 81.1283 18.5139 1502 107.733 355.945 465.005
1460 0 79.4584 13.7934 1096 116.168 357.086 464.669
1461 0 82.3317 14.1258 1163 116.273 356.862 462.981
1462 0 82.5226 13.1964 1089 120.381 356.688 456.904
1463 0 85.4293 13.6136 1163 120.553 356.079 460.445
1464 1 43.2022 11.2031 484 118.469 356.339 484.868
1465 0 48.1947 10.1463 489 119.274 356.115 486.063
1466 0 52.2526 10.698 559 119.102 356.116 476.866
1467 0 52.0914 13.7451 716 116.627 354.485 478.803
1468 0 52.081 12.3461 643 116.487 356.082 485.984
1469 0 53.0508 10.8387 575 122.701 354.623 480.071
1470 0 56.2118 12.5596 706 119.931 354.752 482.014
1471 0 58.1266 13.2469 770 118.861 353.947 481.07
1472 0 61.1542 11.8062 722 122.475 353.187 482.127
1473 0 60.2762 13.5045 814 120.711 351.803 476.423
1474 0 63.2298 13.443 850 120.907 351.679 477.473
1475 0 67.2412 13.3252 896 121.393 351.475 474.338
1476 0 69.212 13.148 910 121.235 350.83 475.445
1477 0 73.3533 13.9735 1025 119.675 350.209 469.58
1478 0 72.3566 14.9261 1080 118.359 349.256 469.544
1479 0 75.5535 12.6798 958 121.294 349.07 468.766
1480 0 77.6748 13.0802 1016 123.046 348.764 465.491
1481 0 80.618 12.5902 1015 124.076 347.478 466.037
1482 0 85.4095 12.6098 1077 124.055 347.199 464.346
1483 0 87.5336 13.115 1148 125.534 347.387 459.537
1484 1 46.3547 12.8574 596 119.183 347.862 480.839
1485 0 48.2706 11.767 568 123.558 348.053 475.887
1486 0 55.1823 12.3953 684 116.678 348.472 473.825
1487 0 51.1584 12.7056 650 120.291 349.037 468.542
1488 0 51.1211 12.5193 640 119.022 348.395 470.156
1489 0 54.217 15.6408 848 113.706 348.724 467.105
1490 0 57.3675 13.2305 759 123.267 348.357 469.76
1491 0 62.2877 18.8962 1177 110.437 349.36 470.108
1492 0 60.456 14.6553 886 119.143 350.624 468.799
1493 0 61.1825 12.193 746 125.479 351.161 465.979
1494 0 62.3465 13.8099 861 122.276 351.278 465.167
1495 0 66.3698 13.3946 889 120.511 351.697 464.896
1496 0 66.3307 12.4678 827 125.033 352.942 461.8
1497 0 70.5019 14.028 989 120.22 352.633 460.963
1498 0 73.5257 14.5799 1072 116.816 352.907 461.172
1499 0 75.5219 11.8244 893 118.825 354.041 461.613
1500 0 79.2122 11.728 929 118.615 353.665 458.431
1501 0 77.2351 11.1607 862 120.675 354.451 456.44
1502 0 84.3609 14.3076 1207 114.461 355.028 457.708
1503 0 86.2577 13.877 1197 115.961 354.873 455.466
1504 1 45.115 11.6591 526 114.154 355.154 478.222
1505 0 47.2998 14.0593 665 108.662 354.284 479.627
1506 0 48.2469 12.2288 590 113.159 356.242 480.117
1507 0 48.2684 10.5245 508 119.411 355.445 478.514
1508 0 51.2409 13.7195 703 113.758 355.386 481.871
1509 0 53.3391 12.6174 673 121.489 354.511 480.462
1510 0 54.3444 11.8319 643 123.356 354.947 478.969
1511 0 56.3701 14.5822 822 118.601 354.047 479.17
1512 0 58.2821 13.5376 789 119.926 353.309 479.115
1513 0 59.2129 15.0136 889 116.889 353.884 481.627
1514 0 62.2746 12.477 777 119.68 353.216 480.588
1515 0 62.2263 14.5437 905 118.227 351.62 477.743
1516 0 64.3898 13.7134 883 116.337 350.892 481.264
1517 0 65.3513 11.7978 771 120.838 349.748 476.492
1518 0 68.2069 11.5091 785 122.124 350.048 477.428
1519 0 68.1858 12.5833 858 118.542 349.141 476.047
1520 0 73.1487 9.5422 698 121.189 349.274 472.946
1521 0 78.3217 13.2147 1035 115.685 349.025 466.673
1522 0 80.1606 13.5229 1084 115.023 348.326 465.649
1523 0 81.0619 10.1281 821 120.608 348.432 461.849
1524 1 43.4142 9.97369 433 115.824 346.848 482.534
1525 0 45.2297 10.9662 496 113.175 346.889 481.774
1526 0 44.3326 11.1205 493 114.961 347.734 480.533
1527 0 49.2681 12.0768 595 111.353 347.197 479.624
1528 0 48.1299 12.9857 625 110.718 347.28 474.63
1529 0 50.1624 14.174 711 108.241 347.201 473.404
1530 0 51.3454 11.2766 579 112.111 347.762 471.394
1531 0 51.2911 13.2382 679 109.803 346.358 472.202
1532 0 52.1928 9.71399 507 115.442 347.426 471.475
1533 0 57.3647 12.2375 702 111.147 346.843 470.738
1534 0 57.3534 11.2809 647 113.578 347.691 468.139
1535 0 60.1417 13.701 824 109.462 348.228 467.745
1536 0 59.2157 12.2265 724 111.923 350.623 463.482
1537 0 62.3319 13.9896 872 109.406 351.704 463.784
1538 0 62.3157 10.3826 647 114.75 351.977 465.683
1539 0 67.1276 12.8859 865 110.77 352.321 462.158
1540 0 69.1217 10.5466 729 114.573 353.593 463.015
1541 0 72.38 14.0232 1015 110.125 354.218 460.549
1542 0 73.2665 12.5296 918 112.191 353.979 458.087
1543 0 75.2438 15.4431 1162 108.349 353.842 455.565
1544 0 79.1815 11.2274 889 112.81 353.957 462.739
1545 0 84.3232 13.7922 1163 107.916 354.444 456.597
1546 0 86.2702 10.5251 908 113.948 354.747 454.751
1547 1 45.4459 13.0045 591 106.069 353.936 479.494
1548 0 45.2672 11.4653 519 109.954 354.659 478.243
1549 0 48.1234 11.6367 560 108.204 354.014 478.196
1550 0 45.2066 8.47222 383 115.305 354.102 480.99
1551 0 49.2107 10.8106 532 109.18 353.256 483.47
1552 0 49.1188 15.1877 746 105.871 353.709 480.147
1553 0 52.3441 11.0805 580 111.434 353.595 481.162
1554 0 54.2417 10.0108 543 113.256 353.527 482.68
1555 0 56.1869 14.5052 815 107.372 352.134 478.517
1556 0 57.2067 11.7818 674 112.543 352.378 479.018
1557 0 57.2686 15.471 886 107.128 351.372 484.496
1558 0 59.2138 12.0918 716 114.325 350.471 481.575
1559 0 62.3457 14.179 884 108.861 350.528 479.902
1560 0 63.3222 10.6598 675 114.093 349.588 480.241
1561 0 67.1917 10.6412 715 114.01 349.846 478
1562 0 69.2751 13.4103 929 111.863 348.253 474.036
1563 0 72.3278 14.8629 1075 109.819 348.873 473.234
1564 0 72.2197 15.1067 1091 110.499 347.932 470.074
1565 0 74.3039 10.3629 770 117.261 346.748 468.94
1566 0 80.2768 15.9947 1284 108.734 346.562 462.845
1567 0 80.2791 10.9618 880 116.586 346.693 464.015
1568 1 42.1677 11.0748 467 114.717 344.809 481.994
1569 0 43.2861 10.2804 445 116.04 345.139 482.53
1570 0 44.1961 12.8971 570 111.742 344.386 480.56
1571 0 49.1106 12.8282 630 112.29 344.849 474.881
1572 0 48.1718 11.542 556 113.746 345.435 478.144
1573 0 51.04 12.3628 631 115.525 345.735 471.975
1574 0 54.1284 13.2832 719 113.936 346.238 464.915
1575 0 55.3972 15.434 855 110.586 348.027 465.881
1576 0 55.3077 15.7121 869 112.289 348.017 463.986
1577 0 56.2606 13.6685 769 115.315 348.529 467.588
1578 0 57.3649 17.8506 1024 110.512 348.484 463.299
1579 0 59.3204 12.9635 769 118.168 349.615 463.856
1580 0 61.3891 13.7484 844 116.823 350.867 460.782
1581 0 65.2786 12.9752 847 116.732 351.168 462.089
1582 0 66.2809 13.4428 891 117.034 351.295 461.149
1583 0 69.3409 14.234 987 113.357 351.383 465.5
1584 0 69.2035 12.5572 869 118.605 353.04 463.507
1585 0 67.0541 9.49979 637 119.983 352.666 467.046
1586 0 78.1559 16.5822 1296 107.069 353.194 457.596
1587 0 79.2898 18.5522 1471 105.661 352.687 459.24
1588 0 72.0918 8.03143 579 123.382 353.682 463.06
1589 0 80.2168 14.8223 1189 111.892 353.979 464.616
1590 0 80.2006 14.5136 1164 115.045 353.583 464.131
1591 0 86.1563 13.8121 1190 116.111 353.889 460.472
1592 0 88.1655 12.9075 1138 118.694 354.55 459.159
1593 0 92.285 14.2168 1312 114.809 353.159 462.531
1594 0 93.3097 12.8282 1197 118.719 354.247 457.27
1595 0 95.1832 12.933 1231 118.646 353.811 460.152
1596 0 100.163 15.1153 1514 115.228 351.767 457.229
1597 0 104.247 14.0052 1460 117.325 351.732 461.692
1598 0 106.5 13.2582 1412 121.17 352.263 459.499
1599 0 103.208 8.65242 893 130.396 352.27 451.097
1600 0 110.361 15.3314 1692 116.309 352.502 461.28
1601 0 109.408 10.1546 1111 126.065 350.775 456.928
1602 0 110.235 14.8683 1639 117.633 351.041 458.644
1603 1 70.1252 9.81102 688 118.686 349.122 476.308
1604 0 71.2085 11.2206 799 118.183 348.929 475.439
1605 0 76.2942 18.4811 1410 104.723 348.82 473.487
1606 0 76.105 14.8085 1127 108.985 348.307 471.167
1607 0 79.3228 17.5233 1390 103.974 348.643 471.805
1608 0 82.1227 12.1891 1001 116.788 348.679 466.628
1609 0 85.2236 14.9607 1275 112.45 348.216 463.839
1610 0 89.1042 16.1272 1437 109.266 348.139 464.662
1611 0 88.1818 13.7217 1210 114.764 347.971 455.841
1612 0 92.196 15.3803 1418 110.624 347.617 456.862
1613 0 97.2708 15.7807 1535 108.082 346.962 460.198
1614 0 97.3599 13.3217 1297 112.866 347.068 454.046
1615 0 102.419 13.269 1359 112.301 345.679 453.215
1616 0 102.419 13.1714 1349 138.838 345.662 453.141
1617 0 109.381 14.7649 1615 111.085 347.729 446.585
1618 0 111.255 14.6869 1634 112.352 348.144 443.397
1619 0 115.167 12.9204 1488 114.103 348.066 440.423
1620 0 119.326 13.2745 1584 114.419 348.338 432.018
1621 0 125.439 16.0317 2011 109.902 348.309 434.022
1622 1 67.3499 12.1752 820 115.322 348.288 458.288
1623 0 72.1941 13.339 963 113.024 348.508 456.531
1624 0 69.1431 10.0371 694 116.633 351.633 457.986
1625 0 74.0882 15.6705 1161 104.718 351.615 463.108
1626 0 74.3005 12.0861 898 111.459 352.185 458.516
1627 0 79.2376 13.3018 1054 109.426 353.825 454.904
1628 0 82.444 14.2278 1173 108.285 354.194 455.788
1629 0 87.1335 15.2869 1332 105.767 354.718 455.626
1630 0 87.2185 12.8528 1121 110.327 354.736 453.418
1631 0 88.1394 11.3684 1002 112.84 355.451 454.903
1632 0 94.1494 12.5014 1177 111.178 355.867 456.433
1633 0 95.4285 14.4401 1378 110.075 355.483 451.853
1634 0 100.241 13.6271 1366 113.115 357.015 453.096
1635 0 103.387 16.0852 1663 109.649 355.192 448.754
1636 0 108.457 14.2545 1546 112.62 355.041 452.08
1637 0 111.268 13.9663 1554 110.849 354.046 449.002
1638 0 116.227 11.3743 1322 113.741 354.434 451.903
1639 1 61.1742 16.4122 1004 104.177 353.915 475.001
1640 0 64.1163 14.2241 912 106.535 353.497 477.562
1641 0 63.1016 13.3436 842 109.253 352.916 477.329
1642 0 66.2412 16.5305 1095 103.878 351.962 480.356
1643 0 67.1971 15.0602 1012 107.065 351.509 471.832
1644 0 67.1971 15.1643 1019 131.977 352.484 471.723
1645 0 70.2733 15.0271 1056 107.732 350.166 477.672
1646 0 74.2083 15.443 1146 107.688 349.847 475.077
1647 0 75.133 15.3594 1154 108.239 349.533 470.042
1648 0 78.3063 11.5061 901 113.661 348.717 467.747
1649 1 42.056 11.8889 500 111.948 349.076 487.018
1650 0 42.045 12.6293 531 111.29 346.136 490.013
1651 0 44.0327 13.6263 600 112.745 346.032 484.87
1652 0 46.2155 16.0552 742 109.329 348.189 482.841
1653 0 48.1188 17.7269 853 105.743 345.746 484.123
1654 0 47.1315 14.4489 681 110.63 345.279 480.557
1655 0 52.1476 16.4341 857 104.487 346.131 481.695
1656 0 52.3169 14.4695 757 108.033 344.506 475.871
1657 0 54.1537 13.7941 747 108.28 344.701 474.913
1658 0 55.2815 13.5126 747 109.317 344.963 472.692
1659 0 58.0726 17.5126 1017 103.954 345.701 471.959
1660 0 59.1497 15.8074 935 107.011 345.826 468.022
1661 0 59.155 15.434 913 108.811 346.93 465.352
1662 0 60.2102 12.6058 759 113.452 347.202 466.74
1663 0 64.0835 16.3693 1049 107.777 347.817 464.188
1664 0 64.2545 17.4307 1120 106.471 346.118 462.299
1665 0 69.1324 13.1921 912 111.526 348.59 464.485
1666 0 67.2295 16.942 1139 107.419 349.723 456.503
1667 0 72.266 13.0075 940 112.674 350.392 460.397
1668 0 75.416 15.4079 1162 109.062 350.023 457.897
1669 0 78.409 21.3368 1673 100.985 351.122 455.846
1670 0 78.409 21.3751 1676 122.801 353.103 455.856
1671 0 80.2961 14.1103 1133 114.564 352.041 458.676
1672 0 80.1858 11.5607 927 119.932 351.971 448.297
1673 1 45.1946 15.2231 688 111.661 354.108 469.233
1674 0 44.2758 15.0647 667 113.346 353.936 473.858
1675 0 48.2393 12.0234 580 117.379 354.24 474.443
1676 0 49.0731 15.3037 751 112.481 353.804 476.174
1677 0 50.1716 13.3342 669 118.031 352.638 474.858
1678 0 55.1875 15.2571 842 113.679 353.688 476.675
1679 0 56.2039 16.191 910 112.823 353.048 476.69
1680 0 59.1265 19.7204 1166 106.358 352.591 470.149
1681 0 66.3928 29.0092 1926 93.4268 351.651 466.199
1682 0 65.1198 17.7058 1153 109.445 352.231 472.786
1683 0 68.1479 19.6631 1340 107.61 351.329 474.037
1684 0 67.05 16.1521 1083 115.576 351.517 473.739
1685 0 65.1663 14.3326 934 120.814 351.209 473.661
1686 0 71.3592 17.3909 1241 113.82 349.717 473.82
1687 0 71.3328 13.9627 996 121.697 349.502 470.013
1688 0 73.1127 15.4282 1128 120.299 349.425 468.027
1689 0 75.2923 18.0629 1360 116.043 348.271 466.997
1690 0 78.1644 14.2648 1115 121.731 348.003 466.097
1691 0 82.2045 15.9845 1314 117.908 347.837 462.272
1692 0 84.2214 16.0648 1353 117.634 346.314 462.682
1693 0 87.2177 15.0887 1316 119.84 345.771 460.369
1694 0 90.4316 18.1574 1642 114.543 345.28 460.875
1695 0 92.2206 15.1593 1398 120.856 345.406 455.631
1696 0 95.2638 17.0789 1627 117.91 345.177 455.203
1697 1 52.1085 12.5124 652 118.278 344.136 478.028
1698 0 51.0641 10.3008 526 123.565 344.608 475.576
1699 0 55.1702 12.0536 665 119.586 345.417 476.72
1700 0 57.0401 18.1802 1037 108.746 345.949 473.884
1701 0 58.1836 15.0214 874 112.262 347.54 472.35
1702 0 60.072 11.9024 715 119.21 346.972 469.709
1703 0 64.1222 16.8584 1081 110.787 347.617 467.384
1704 0 63.0698 12.6051 795 117.887 346.78 466.662
1705 0 68.1645 14.6557 999 113.871 348.968 464.677
1706 0 70.3517 14.2996 1006 114.642 349.485 465.169
1707 0 67.1448 10.6039 712 119.545 350.424 465.147
1708 1 142.354 14.8011 2107 124.653 350.714 425.394
1709 0 150.47 17.5982 2648 119.474 351.765 426.239
1710 0 150.29 14.3922 2163 127.6 351.73 419.274
1711 0 157.311 16.3117 2566 124.283 352.825 415.996
1712 0 163.273 15.1587 2475 126.715 353.272 416.181
1713 0 166.296 12.2793 2042 132.347 353.186 409.711
1714 1 129.211 11.2375 1452 128.422 353.65 432.631
1715 1 93.3005 14.5873 1361 114.651 353.904 454.802
1716 0 93.3096 13.2141 1233 116.771 355.189 455.195
1717 0 98.1665 12.8761 1264 117.257 354.82 451.475
1718 0 101.35 10.6857 1083 119.375 354.078 455.813
1719 1 55.0692 11.313 623 112.303 355.059 480.859
1720 0 56.2482 10.8626 611 113.74 355.517 479.959
1721 0 56.0673 10.3982 583 116.413 354.914 479.13
1722 0 61.1466 14.1463 865 111.442 354.383 474.524
1723 0 58.1207 9.20498 535 119.273 354.624 482.529
1724 0 62.1058 7.92196 492 120.687 353.634 479.679
1725 0 64.1572 13.9345 894 113.202 353.406 476.777
1726 0 66.0579 13.3973 885 114.581 354.331 474.876
1727 0 68.1958 10.9537 747 117.415 353.93 479.452
1728 0 72.2637 8.74575 632 118.6 352.734 483.669
1729 0 73.0656 12.1808 890 116.707 352.37 476.852
1730 0 74.0714 13.4465 996 116.312 349.172 471.831
1731 0 77.1573 11.0294 851 116.679 350.26 475.945
1732 0 81.0334 10.3784 841 118.147 349.763 471.137
1733 0 81.1808 9.66978 785 121.33 349.868 466.099
1734 0 86.1474 12.3509 1064 116.604 348.507 468.419
1735 0 87.2809 12.0072 1048 116.493 349.065 466.82
1736 0 91.2742 11.9639 1092 117.116 347.32 461.978
1737 0 91.2299 10.5119 959 119.077 347.283 459.512
1738 0 93.1103 11.0622 1030 117.916 346.691 461.642
1739 0 98.1686 13.0694 1283 114.987 346.863 458.367
1740 0 102.133 10.5549 1078 119.112 346.914 456.353
1741 1 53.0904 14.4282 766 111.544 345.949 476.581
1742 0 53.092 13.1847 700 111.649 346.89 473.747
1743 0 55.2548 11.9447 660 113.82 347.465 473.77
1744 0 58.0978 8.88157 516 119.045 347.448 471.562
1745 0 62.1454 12.519 778 112.238 347.879 470.395
1746 0 63.0517 12.5611 792 111.322 347.754 470.79
1747 0 64.2236 12.8146 823 111.987 346.819 463.416
1748 0 68.3592 12.9756 887 113.729 349.095 463.193
1749 0 69.3466 11.1325 772 116.583 349.596 460.244
1750 0 74.6017 10.7772 804 117.408 349.638 459.289
1751 0 76.2922 13.2255 1009 113.817 350.218 461.347
1752 0 77.2639 12.9685 1002 115.453 350.875 456.399
1753 0 83.4131 13.6789 1141 114.402 350.731 454.287
1754 0 85.2726 11 938 120.225 352.28 454.981
1755 1 45.3897 9.69383 440 120.607 353.311 474.011
1756 0 45.3983 9.692 440 135.95 353.311 474.011
1757 0 49.1587 12.7953 629 115.927 353.345 475.542
1758 0 51.0834 15.5432 794 112.955 353.475 473.927
1759 0 51.1599 12.8812 659 113.118 355.363 476.731
1760 0 52.1658 12.5561 655 115.345 355.91 474.666
1761 0 53.1994 14.7746 786 112.184 356.344 471.898
1762 0 55.0613 13.6575 752 113.9 355.372 477.223
1763 0 58.2206 14.6683 854 113.146 355.289 473.431
1764 0 57.2166 12.4265 711 117.873 355.436 476.93
1765 0 60.3936 15.4156 931 113.313 354.995 475.204
1766 0 62.2458 13.3824 833 117.881 354.441 473.79
1767 0 66.2239 18.7848 1244 107.393 353.743 477.686
1768 0 66.2772 13.6397 904 118.144 353.94 475.487
1769 0 69.3814 15.5517 1079 114.38 353.758 477.015
1770 0 72.2712 14.0028 1012 117.222 352.365 475.949
1771 0 74.2688 14.5822 1083 115.893 351.828 472.796
1772 0 77.3073 14.2289 1100 116.785 349.881 469.261
1773 0 78.1626 14.2523 1114 114.029 350.335 474.276
1774 0 85.3343 15.5975 1331 111.111 350.035 464.947
1775 0 87.211 14.1611 1235 113.253 348.832 470.484
1776 1 45.0382 11.1683 503 116.3 348.507 487.113
1777 0 46.1565 12.5659 580 112.214 347.845 487.233
1778 0 50.1602 14.5135 728 108.402 347.738 483.949
1779 0 51.13 16.1744 827 106.401 347.634 482.742
1780 0 53.1377 16.1279 857 106.221 346.959 481.055
1781 0 53.0528 13.3452 708 110.345 347.444 483.444
1782 0 55.1183 13.7704 759 111.366 347.411 477.497
1783 0 55.0999 16.7332 922 107.876 347.547 477.389
1784 0 58.1441 16.1151 937 107.925 346.549 477.478
1785 0 59.2097 14.7273 872 110.919 345.65 477.82
1786 0 58.3189 15.1752 885 113.021 347.39 472.79
1787 0 63.1408 17.5164 1106 107.386 347.208 471.983
1788 0 63.1191 13.1022 827 116.675 348.068 468.718
1789 0 70.1973 15.8553 1113 109.986 348.247 468.808
1790 0 66.2102 11.826 783 121.378 347.89 464.687
1791 0 72.5061 14.054 1019 121.147 347.295 462.656
1792 0 72.1152 13.7003 988 116.794 347.646 464.088
1793 0 77.2482 13.8515 1070 114.468 349.222 466.298
1794 0 78.2491 13.4698 1054 117.306 349.698 463.78
1795 0 78.0434 14.351 1120 117.852 350.627 457.921
1796 0 83.174 18.1427 1509 109.834 350.054 460.961
1797 0 84.114 11.6152 977 121.687 351.513 462.73
1798 0 90.2642 15.2331 1375 115.779 351.485 457.623
1799 0 93.3471 13.7765 1286 116.061 351.257 457.31
1800 0 95.4536 14.4363 1378 115.79 352.16 455.417
1801 0 97.2755 14.4538 1406 117.479 352.063 455.023
1802 1 54.0757 10.8552 587 120.02 353.083 478.157
1803 0 57.0709 16.5058 942 108.487 352.829 480.773
1804 0 62.179 13.2842 826 115.847 352.822 476.162
1805 0 64.1362 13.409 860 116.765 354.091 474.215
1806 0 66.2659 15.1058 1001 114.5 353.369 476.884
1807 0 66.2028 14.4556 957 116.167 353.046 473.785
1808 0 70.3928 14.0071 986 117.235 352.888 471.614
1809 0 72.2959 12.9053 933 118.943 352.102 470.764
1810 0 74.1679 15.3301 1137 114.788 351.922 470.55
1811 0 75.2856 14.186 1068 117.834 351.73 472.347
1812 0 79.2055 17.2715 1368 113.482 351.703 468.527
1813 0 80.3545 12.6813 1019 120.473 351.407 475.359
1814 0 84.2847 15.2578 1286 118.537 350.596 469.202
1815 0 87.3897 12.8963 1127 123.511 349.43 466.168
1816 0 90.645 14.7388 1336 120.888 349.359 464.997
1817 0 92.4346 15.3514 1419 121.201 347.742 462.07
1818 0 99.6361 17.3833 1732 115.689 347.923 465.846
1819 0 99.6023 15.2808 1522 122.046 347.337 457.488
1820 0 101.518 15.2485 1548 121.8 346.926 460.43
1821 0 103.316 14.2282 1470 122.858 346.576 460.428
1822 0 107.485 17.649 1897 116.722 346.342 453.789
1823 0 113.579 16.8782 1917 117.365 345.605 452.459
1824 0 115.346 16.4289 1895 118.482 345.099 451.888
1825 1 62.2173 14.9798 932 120.548 345.789 473.262
1826 0 62.1861 15.5662 968 120.261 345.246 472.717
1827 0 66.3616 15.3553 1019 119.788 344.623 472.238
1828 0 69.171 16.1195 1115 117.824 344.239 470.549
1829 0 70.2209 14.7677 1037 120.247 345.608 471.101
1830 0 73.2127 14.2462 1043 122.717 345.091 466.321
1831 0 75.2376 14.3412 1079 123.703 344.313 464.387
1832 0 79.256 12.7687 1012 126.18 345.585 462.36
1833 0 80.1124 13.9804 1120 124.368 345.694 458.276
1834 0 90.5576 20.3848 1846 109.699 345.944 451.497
1835 0 91.3267 17.629 1610 115.394 346.59 450.914
1836 0 91.1861 18.8516 1719 114.793 346.184 451.689
1837 0 88.3556 15.2679 1349 123.953 348.377 449.598
1838 0 93.1295 15.1295 1409 123.434 348.564 452.171
1839 0 96.1649 15.8686 1526 122.326 350.005 449.121
1840 0 102.165 14.4472 1476 123.846 349.631 450.401
1841 0 103.28 16.2568 1679 123.167 350.248 447.021
1842 0 103.27 16.2003 1673 154.166 350.269 447.063
1843 0 112.33 21.3478 2398 112.093 350.901 440.625
1844 1 58.2588 13.4744 785 122.583 351.383 470.587
1845 0 60.0472 13.7558 826 123.349 352.32 468.875
1846 0 60.111 14.8891 895 120.042 352.241 469.647
1847 0 64.1659 14.2599 915 122.216 353.852 470.509
1848 0 64.1868 13.4919 866 126.346 352.805 466.449
1849 0 70.1034 16.3045 1143 119.642 353.041 468.305
1850 0 70.1177 13.1065 919 125.096 352.591 466.251
1851 0 72.0507 15.2254 1097 122.472 352.523 466.296
1852 0 74.0706 13.5546 1004 125.355 352.184 466.683
1853 0 80.2329 17.5988 1412 117.526 350.603 467.97
1854 0 82.1031 12.8497 1055 126.156 350.451 466.49
1855 0 85.0826 15.8317 1347 120.667 350.557 464.402
1856 0 89.1127 16.6531 1484 118.757 350.218 463.978
1857 0 93.116 16.8822 1572 119.088 350.081 462.179
1858 0 94.1005 14.2826 1344 123.333 349.212 462.33
1859 0 96.1246 14.5436 1398 124.014 348.436 460.363
1860 1 57.067 11.4953 656 118.796 348.119 483.369
1861 0 54.0744 10.6705 577 122.397 347.023 479.492
1862 0 58.0521 11.4724 666 120.323 347.032 481.06
1863 0 60.0344 12.143 729 119.539 345.199 479.311
1864 0 60.1507 13.5327 814 119.64 346.27 476.622
1865 0 64.1969 13.3963 860 119.216 346.271 475.076
1866 0 64.3737 13.8411 891 118.034 346.14 475.25
1867 0 67.1442 14.0146 941 117.467 346.182 472.936
1868 0 69.2478 13.2278 916 117.798 345.632 472.019
1869 0 68.1065 11.0709 754 122.619 345.618 466.841
1870 0 70.116 12.408 870 114.478 345.012 472.066
1871 0 74.2363 13.6726 1015 113.804 345.212 469.537
1872 0 75.1998 13.9761 1051 115.268 344.66 464.457
1873 0 76.1201 11.0483 841 119.484 345.508 463.743
1874 0 80.1549 12.1639 975 118.643 345.298 460.358
1875 0 83.1617 13.8646 1153 114.814 345.405 457.451
1876 1 46.0705 9.72422 448 116.292 346.681 478.116
1877 0 49.0569 13.6576 670 109.987 347.381 474.563
1878 0 48.1385 11.1138 535 112.437 347.372 473.432
1879 0 49.0267 12.5646 616 106.398 347.86 473.067
1880 0 49.1459 9.97031 490 110.094 348.184 474.555
1881 0 50.2221 14.0775 707 102.436 349.277 477.422
1882 0 54.2364 10.7861 585 108.234 349.706 472.075
1883 0 56.1157 10.7278 602 110.678 350.545 469.882
1884 0 54.095 9.63121 521 124.315 350.568 468.545
1885 0 57.0826 6.58694 376 116.734 351.891 467.88
1886 0 59.0946 13.9776 826 106.512 352.189 466.311
1887 0 65.2551 12.9185 843 107.396 352.393 467.095
1888 0 67.2431 12.6556 851 108.262 353.283 469.395
1889 0 68.275 11.0582 755 112.122 353.619 468.181
1890 0 69.1169 9.76606 675 115.397 354.327 464.03
1891 0 71.2085 9.9005 705 115.271 354.098 466.885
1892 0 74.1126 13.6009 1008 110.21 354.929 463.768
1893 0 78.2815 11.8419 927 113.735 354.56 460.002
1894 0 80.1904 11.1111 891 115.762 354.258 465.033
1895 0 82.3391 15.084 1242 110.198 353.356 462.688
1896 1 46.1739 11.565 534 113.03 353.457 483.221
1897 0 50.1179 10.8345 543 113.573 352.72 483.912
1898 0 48.258 7.97796 385 118.93 353.068 486.431
1899 0 53.1508 12.4739 663 112.149 352.995 484.06
1900 0 50.06 9.64843 483 111.878 351.004 489.836
1901 0 52.2337 11.6783 610 111.531 350.352 483.51
1902 0 55.1441 11.0257 608 111.263 349.617 484.719
1903 0 57.0309 9.67896 552 115.495 349.047 483.19
1904 0 56.1054 11.2289 630 114.308 348.395 483.052
1905 0 61.1083 11.7005 715 112.843 348.52 478.248
1906 0 61.1596 10.8078 661 116.236 348.584 475.239
1907 0 65.1142 12.3475 804 112.842 347.428 475.945
1908 0 68.0788 11.2664 767 115.555 346.639 474.286
1909 0 68.1116 11.349 773 115.574 346.448 473.706
1910 0 73.1424 15.3536 1123 108.404 345.172 471.005
1911 0 72.1634 11.862 856 115.373 346.125 470.216
1912 0 75.0892 12.7315 956 113.94 346.246 469.038
1913 0 77.2684 13.9643 1079 113.229 346.283 466.443
1914 1 40.121 12.7863 513 116.458 346.559 481.961
1915 0 43.024 12.4117 534 115.616 346.959 481.193
1916 0 43.0258 12.202 525 116.152 346.301 480.472
1917 0 48.0865 12.9974 625 111.043 346.702 479.714
1918 0 45.3283 10.8762 493 116.061 343.509 475.933
1919 0 46.2673 12.2981 569 113.239 345.304 476.258
1920 0 50.3764 12.7639 643 112.603 346.098 474.132
1921 0 51.3047 13.2736 681 111.446 346.746 475.044
1922 0 51.3383 13.635 700 112.251 347.481 471.686
1923 0 53.3638 14.879 794 109.53 349.011 470.215
1924 0 52.2886 12.7944 669 113.886 348.247 471.178
1925 0 57.1217 18.8545 1077 102.93 350.077 474.249
1926 0 58.1992 15.928 927 107.323 351.179 473.775
1927 0 57.1863 12.6079 721 115.541 351.584 469.103
1928 0 59.1613 13.6069 805 112.575 351.655 471.017
1929 0 62.0932 15.4606 960 108.878 351.994 471.168
1930 0 64.1338 13.3471 856 113.194 351.875 466.164
1931 0 65.1112 15.942 1038 109.028 352.143 467.867
1932 0 67.2845 13.3017 895 114.785 352.445 466.348
1933 0 69.31 23.8494 1653 99.3781 352.492 465.886
1934 0 72.1875 14.213 1026 113.089 352.744 467.521
1935 0 74.1274 13.6926 1015 115.483 352.531 469.299
1936 0 80.6953 15.8869 1282 110.736 352.624 469.664
1937 0 78.1073 16.5669 1294 112.716 352.25 464.699
1938 0 80.1522 15.5579 1247 115.338 352.518 466.55
1939 0 83.305 14.2969 1191 118.116 351.791 466.41
1940 1 44.14 11.9166 526 123.966 351.382 486.5
1941 0 45.1116 13.4112 605 122.337 351.398 484.39
1942 0 47.1604 12.3833 584 123.731 350.769 487.06
1943 0 52.108 16.7728 874 113.481 349.426 484.538
1944 0 53.175 14.6686 780 120.227 348.258 481.731
1945 0 53.2482 14.6859 782 121.069 348.772 481.308
1946 0 53.3243 14.0086 747 124.009 347.673 480.771
1947 0 57.2711 14.9115 854 120.682 347.512 483.155
1948 0 57.1409 14.3505 820 122.068 345.846 483.005
1949 0 59.0465 15.564 919 120.94 346.078 479.47
1950 0 58.0503 12.6614 735 127.844 345.829 478.924
1951 0 64.2122 15.293 982 121.215 344.792 476.141
1952 0 66.1412 17.9011 1184 117.527 344.251 470.145
1953 0 67.0987 15.425 1035 121.775 344.837 475.9
1954 0 68.1808 14.4322 984 125.139 345.207 471.567
1955 0 70.2439 16.4142 1153 121.611 344.196 468.262
1956 0 75.323 14.7764 1113 121.942 344.73 469.182
1957 0 77.175 16.4043 1266 119.198 344.949 467.434
1958 0 86.4727 18.6417 1612 112.54 344.251 459.643
1959 0 91.4416 30.5441 2793 96.2467 344.134 452.017
1960 0 93.289 22.9823 2144 104.924 344.727 460.479
1961 1 45.1788 12.3067 556 124.622 345.716 457.39
1962 0 47.2431 13.4835 637 120.987 345.997 457.29
1963 0 51.1753 12.8578 658 120.008 346.561 458.839
1964 0 53.2021 18.7962 1000 111.532 347.026 462.569
1965 0 51.2542 13.6184 698 124.037 346.831 452.574
1966 0 55.149 14.2886 788 121.218 348.371 457.665
1967 0 55.2681 13.335 737 123.712 349.316 460.469
1968 0 59.3276 15.1026 896 119.916 350.164 460.174
1969 0 60.1886 16.0662 967 119.121 350.061 463.62
1970 0 61.1295 13.1524 804 125.835 350.756 464.498
1971 0 66.2145 13.2146 875 120.321 351.991 468.431
1972 0 62.057 10.2325 635 127.132 351.929 468.556
1973 0 69.1629 14.502 1003 119.541 352.811 465.998
1974 0 69.1289 11.6449 805 125.099 353.138 463.881
1975 0 73.1192 14.0592 1028 120.375 353.155 465.913
1976 0 75.3095 14.5533 1096 120.35 353.133 461.896
1977 0 79.1512 14.6176 1157 119.813 353.49 464.774
1978 0 82.1568 14.3993 1183 118.429 353.793 468.967
1979 0 83.1808 14.8953 1239 123.889 353.533 460.196
1980 1 49.2503 13.2182 651 118.171 352.905 484.071
1981 0 50.0881 12.7974 641 124.562 352.27 482.19
1982 0 52.2639 13.9293 728 122.758 352.168 482.919
1983 0 50.0267 12.0735 604 130.207 351.877 481.215
1984 0 54.165 14.5851 790 123.327 350.727 483.656
1985 0 54.1481 11.8194 640 129.705 350.745 480.139
1986 0 57.2775 12.8323 735 129.536 349.742 479.793
1987 0 62.3434 15.0296 937 122.009 348.64 481.026
1988 0 64.1757 13.2293 849 127.598 346.668 477.823
1989 0 63.403 12.9647 822 132.46 348.028 475.039
1990 0 68.1636 15.14 1032 125.856 346.896 476.288
1991 0 69.3661 13.5513 940 130.476 346.452 474.708
1992 0 74.2976 15.3975 1144 125.714 347.001 472.085
1993 0 75.1765 14.2731 1073 129.24 346.551 469.302
1994 0 75.3297 13.275 1000 132.828 346.13 467.973
1995 0 79.146 15.882 1257 127.177 345.741 465.924
1996 0 83.3121 15.532 1294 126.023 343.877 465.563
1997 0 83.2999 15.2821 1273 128.084 345.04 463.196
1998 0 86.2946 15.8411 1367 124.368 344.459 462.477
1999 0 87.2339 13.8134 1205 130.852 345.403 460.124
2000 0 90.2458 15.0146 1355 127.577 345.21 460.631
2001 0 94.3245 15.3725 1450 128.415 345.028 450.234
2002 1 53.1108 13.4059 712 128.959 344.455 468.58
2003 0 53.1432 12.1182 644 131.623 345.224 463.832
2004 0 53.1786 10.8126 575 136.449 345.301 466.576
2005 0 56.1249 12.7929 718 130.405 348.531 471.73
2006 0 57.1752 15.4438 883 126.454 348.869 466.456
2007 0 60.0698 14.4166 866 128.477 348.618 468.225
2008 0 61.2272 14.1767 868 129.21 349.764 464.529
2009 0 61.1869 13.614 833 131.236 349.597 463.134
2010 0 66.1986 15.2873 1012 127.507 350.174 461.662
2011 0 66.1225 14.1707 937 130.489 351.318 460.804
2012 0 72.1672 16.0738 1160 122.991 351.76 461.212
2013 0 72.2357 14.9511 1080 125.904 351.856 458.447
2014 0 74.1751 16.0027 1187 124.279 351.329 458.574
2015 0 75.2144 13.2554 997 130.769 352.758 458.691
2016 0 80.2247 14.9455 1199 124.826 352.902 459.713
2017 0 81.0978 13.2679 1076 129.626 353.254 456.821
2018 0 82.5047 15.0052 1238 124.473 353.147 459.588
2019 0 85.1974 14.9418 1273 126.128 353.172 453.5
2020 0 87.3097 14.8895 1300 127.648 354.082 453.228
2021 0 90.2418 14.4168 1301 127.355 352.436 454.179
2022 1 49.1448 10.642 523 129.013 353.727 472.243
2023 0 54.1837 10.7043 580 127.238 353.957 476.631
2024 0 56.139 13.6803 768 120.492 353.943 478.214
2025 0 58.1245 14.1593 823 121.708 352.797 478.032
2026 0 59.1442 13.8306 818 122.505 352.313 476.906
2027 0 64.0832 14.1223 905 120.113 352.607 479.004
2028 0 64.1314 11.991 769 124.664 351.373 478.199
2029 0 65.1058 12.9482 843 123.894 350.875 476.431
2030 0 70.1847 13.8919 975 119.136 351.014 478.16
2031 0 70.1623 11.9722 840 124.402 349.851 473.331
2032 0 74.447 13.8622 1032 121.172 349.044 471.708
2033 0 76.1319 14.3698 1094 119.637 348.927 470.007
2034 0 80.3191 16.5092 1326 115.253 347.879 468.417
2035 0 81.2216 12.2627 996 122.571 348.098 466.163
2036 0 85.1511 13.3645 1138 119.94 347.388 464.734
2037 0 87.1322 14.128 1231 118.149 346.625 464.028
2038 0 89.2187 13.9545 1245 118.761 346.581 457.353
2039 0 93.3432 16.8411 1572 112.201 346.156 462.195
2040 0 94.2689 13.5464 1277 116.039 345.839 456.571
2041 1 51.0699 10.6912 546 110.183 344.919 480.26
2042 0 51.2567 10.7108 549 112.421 345.479 474.353
2043 0 53.079 13.4328 713 107.114 345.907 475.374
2044 0 50.0358 10.6923 535 114.226 345.533 472.959
2045 0 54.1635 11.1514 604 111.909 346.245 470.964
2046 0 56.0709 9.29181 521 113.226 346.96 475.461
2047 0 60.0449 10.1091 607 112.702 347.241 470.377
2048 0 60.1499 12.6018 758 109.834 348.165 465.194
2049 0 63.0942 10.8726 686 111.748 347.827 467.557
2050 0 63.0423 9.7395 614 113.801 348.112 464.459
2051 0 63.0375 10.5017 662 112.343 348.34 464.559
2052 0 68.0494 12.1529 827 109.036 349.786 464.3
2053 0 69.0671 10.2943 711 112.457 350.197 462.762
2054 0 72.0924 12.5395 904 109.273 351.201 461.509
2055 0 76.1858 9.81811 748 113.528 350.624 457.805
2056 0 74.0975 9.35254 693 114.162 352.332 456.362
2057 0 79.0736 13.9237 1101 108.259 352.669 458.431
2058 0 79.1089 11.0986 878 113.185 353.167 452.187
2059 0 83.1401 11.1499 927 112.105 354.708 450.487
2060 0 85.1347 11.2762 960 112.771 353.972 453.594
2061 0 90.2024 11.7846 1063 115.579 354.229 449.136
2062 0 92.1824 11.0542 1019 115.148 354.127 454.966
2063 1 55.0413 9.22944 508 112.226 354.012 473.585
2064 0 55.1359 13.766 759 106.929 352.588 473.487
2065 0 59.2993 11.5853 687 111.06 353.098 474.122
2066 0 59.1092 10.3537 612 113.614 351.364 469.67
2067 0 59.2405 7.52864 446 117.57 352.908 471.457
2068 0 63.1545 12.2557 774 109.12 352.234 470.045
2069 0 64.1095 7.15962 459 115.769 352.662 472.993
2070 0 70.1328 11.7491 824 108.078 352.107 472.098
2071 0 71.1131 10.2091 726 110.786 350.945 465.959
2072 0 75.1904 10.5466 793 109.431 350.74 473.975
2073 0 77.3553 12.5008 967 108.113 349.915 467.039
2074 0 80.1028 11.4353 916 109.286 349.207 465.029
2075 0 84.1536 10.968 923 109.342 348.064 462.42
2076 0 83.1188 10.479 871 109.527 347.191 468.444
2077 0 87.3901 12.1982 1066 108.494 347.093 461.983
2078 0 93.3462 14.3873 1343 105.657 346.877 462.06
2079 1 46.1144 9.82339 453 108.013 346.212 481.132
2080 0 49.0925 10.1238 497 107.316 345.644 478.594
2081 0 52.1071 11.1501 581 105.334 345.785 479.678
2082 0 56.1114 12.7603 716 101.568 345.81 480.631
2083 0 55.1672 9.95157 549 107.863 345.843 475.86
2084 0 59.1164 9.26984 548 106.294 346.035 478.456
2085 0 58.1115 10.6691 620 106.721 345.974 469.952
2086 0 59.3329 10.6686 633 106.551 346.046 467.371
2087 0 60.0959 9.76772 587 106.908 346.796 466.589
2088 0 63.1452 12.685 801 102.598 346.132 461.126
2089 0 66.3731 12.3544 820 102.252 347.165 464.054
2090 0 66.4477 11.2118 745 103.911 347.744 458.14
2091 0 71.2773 16.7374 1193 96.6991 347.636 463.653
2092 0 73.2408 12.5886 922 103.05 349.21 459.324
2093 0 74.2273 11.3301 841 104.975 348.916 461.156
2094 0 78.1992 12.9541 1013 102.456 349.701 461.647
2095 0 76.1188 12.2966 936 106.48 349.722 452.205
2096 0 78.2177 11.6214 909 106.619 351.26 456.835
2097 0 83.1751 12.5158 1041 105.127 351.169 455.336
2098 0 89.2341 12.9771 1158 104.204 351.691 452.053
2099 0 92.1542 12.5984 1161 104.718 351.828 453.314
2100 0 94.1926 9.6292 907 109.795 353.035 450.656
2101 0 98.1437 14.4482 1418 102.517 352.353 446.068
2102 1 53.2072 11.9345 635 100.313 354.502 469.217
2103 0 56.1577 13.1416 738 98.5664 354.072 470.526
2104 0 54.0818 11.5196 623 100.586 353.092 472.605
2105 0 58.066 9.74753 566 103.323 352.095 475.541
2106 0 61.1921 11.1125 680 104.047 354.613 473.532
2107 0 64.1391 13.7669 883 99.7203 354.313 471.18
2108 0 65.2186 13.6464 890 100.297 354.198 474.125
2109 0 66.1758 10.457 692 105.64 353.262 473.012
2110 0 69.0972 16.3972 1133 97.3884 352.748 472.498
2111 0 72.1592 13.3871 966 100.179 352.215 474.838
2112 0 75.04 13.4062 1006 100.983 352.129 472.201
2113 0 75.1748 11.6927 879 103.11 351.642 460.226
2114 0 81.275 12.956 1053 100.217 351.343 460.206
2115 0 80.3264 9.64813 775 104.645 349.968 460.022
2116 0 82.4219 11.065 912 104.762 349.185 456.935
2117 0 88.2233 14.9507 1319 99.7339 349.092 460.638
2118 0 86.2931 12.446 1074 104.602 348.111 457.772
2119 0 87.1863 10.0016 872 107.859 347.961 457.795
2120 0 93.5883 12.2024 1142 104.559 347.699 457.461
2121 0 96.5559 13.2255 1277 106.201 345.791 456.659
2122 0 97.3158 11.6425 1133 107.897 345.038 458.565
2123 0 102.191 14.0325 1434 105.51 344.996 454.548
2124 0 105.159 11.126 1170 109.631 345.484 452.314
2125 0 107.234 11.4516 1228 108.985 345.132 451.647
2126 0 111.472 14.1292 1575 104.912 344.555 446.297
2127 0 114.542 11.2622 1290 110.742 345.638 439.905
2128 0 115.606 9.3507 1081 112.925 344.912 442.376
2129 1 69.5569 11.2857 785 106.478 345.446 465.566
2130 0 68.273 16.229 1108 100.71 343.916 464.324
2131 0 72.2607 11.6523 842 106.178 344.772 457.262
2132 0 74.3425 16.1684 1202 103.166 346.131 459.231
2133 0 78.4007 14.7193 1154 104.281 346.244 458.95
2134 0 79.323 15.7205 1247 103.055 346.433 456.815
2135 0 80.3114 12.5013 1004 107.101 346.912 455.938
2136 0 84.253 19.845 1672 97.4079 347.533 453.894
2137 0 84.5379 15.2713 1291 104.366 348.547 450.77
2138 0 88.412 12.4191 1098 107.944 348.739 450.301
2139 0 88.412 12.3965 1096 130.015 349.736 450.133
2140 0 95.4558 14.4674 1381 106.425 349.476 447.137
2141 0 97.4219 13.0566 1272 109.17 350.856 446.353
2142 0 102.38 14.2117 1455 108.051 350.581 447.335
2143 0 106.265 14.078 1496 106.945 352.094 445.38
2144 0 108.361 13.8241 1498 109.344 352.547 440.293
2145 0 114.458 16.2243 1857 105.279 351.616 441.688
2146 0 114.458 16.2068 1855 126.602 350.629 441.619
2147 0 122.608 13.2455 1624 109.136 351.644 441.212
2148 1 64.3017 12.3014 791 110.123 352.775 469.116
2149 0 65.1371 12.6656 825 110.676 351.107 467.863
2150 0 65.2049 11.6556 760 113.163 350.663 468.645
2151 0 68.1099 12.0687 822 111.777 350.931 472.676
2152 0 73.2317 15.0208 1100 108.029 350.515 467.8
2153 0 76.2316 16.5155 1259 105.466 350.662 468.072
2154 0 75.1302 11.7929 886 113.896 350.595 469.854
2155 0 81.0811 16.2677 1319 105.878 349.945 471.167
2156 0 86.1355 15.6033 1344 106.176 348.925 471.904
2157 0 86.1444 13.8372 1192 110.443 348.096 464.954
2158 0 89.2582 12.9064 1152 111.274 347.858 464.043
2159 0 94.2021 16.6663 1570 105.267 347.913 465.161
2160 0 96.2778 20.6797 1991 99.9397 348.59 459.013
2161 0 99.1579 10.2866 1020 114.438 347.359 458.185
2162 0 103.339 11.5155 1190 111.648 346.971 457.989
2163 0 104.424 12.1811 1272 111.81 347.113 451.667
2164 1 115.383 11.8041 1362 111.096 346.598 451.43
2165 0 116.402 17.0529 1985 104.595 346.204 446.425
2166 1 66.1084 14.1132 933 104.025 346.992 474.58
2167 0 67.2531 12.386 833 106.546 347.439 472.247
2168 0 66.1917 11.6782 773 108.613 346.423 468.673
2169 0 72.2321 11.8784 858 107.441 347.149 468.646
2170 0 71.246 11.0322 786 109.485 346.791 466.323
2171 0 74.2637 11.4322 849 109.603 346.612 461.569
2172 0 77.1915 11.6075 896 107.598 346.526 464.911
2173 0 80.2636 12.8203 1029 105.889 346.151 462.841
2174 0 81.1672 13.8233 1122 105.225 347.155 455.158
2175 0 83.2628 12.0822 1006 108.329 347.136 452.529
2176 0 89.8325 14.5159 1304 102.706 347.883 460.518
2177 0 85.2008 13.8966 1184 107.174 346.537 450.337
2178 0 89.1386 11.1175 991 108.669 346.43 456.886
2179 0 92.3796 14.7002 1358 103.474 348.124 456.602
2180 0 92.2371 12.9015 1190 107.961 347.55 450.308
2181 0 95.1373 16.1346 1535 103.718 347.734 447.806
2182 0 97.3054 11.469 1116 109.57 349.018 449.263
2183 0 101.233 13.7504 1392 107.761 349.413 442.742
2184 0 109.255 15.6515 1710 103.563 350.93 443.104
2185 0 108.603 14.6497 1591 108.821 351.026 435.087
2186 0 108.686 14.1692 1540 110.471 352.128 433.44
2187 0 114.536 14.4322 1653 109.866 351.801 434.675
2188 0 116.378 13.0265 1516 111.447 352.721 438.777
2189 0 121.676 15.0811 1835 108.936 353.589 436.68
2190 0 124.664 15.3372 1912 107.361 353.393 435.179
2191 0 130.304 12.9083 1682 110.648 354.111 432.683
2192 1 73.3214 10.8699 797 105.688 353.287 469.2
2193 0 76.2368 11.8184 901 108.463 352.125 470.87
2194 0 76.1644 12.8669 980 108.427 352.921 470.352
2195 0 81.2152 11.9928 974 110.69 351.934 467.161
2196 0 83.3601 17.5744 1465 103.256 350.875 466.082
2197 0 87.2937 12.9563 1131 109.952 350.096 468.036
2198 0 88.4056 13.4154 1186 108.939 350.854 467.583
2199 0 91.3974 12.3417 1128 110.975 349.58 464.583
2200 0 94.2648 13.1863 1243 108.879 349.014 468.351
2201 0 96.2919 10.8316 1043 113.227 346.778 462.57
2202 0 99.488 12.0316 1197 112.557 347.444 456.458
2203 0 105.429 14.0663 1483 108.514 347.08 455.313
2204 0 106.43 14.6199 1556 108.885 346.877 450.448
2205 0 110.453 15.9434 1761 105.532 345.827 448.379
2206 0 113.526 13.6357 1548 106.053 346.37 453.543
2207 1 65.463 13.3205 872 103.361 345.377 477.079
2208 0 69.3387 17.5227 1215 98.0337 346.092 472.725
2209 0 66.2877 11.3445 752 109.664 345.206 470.399
2210 0 69.2952 15.369 1065 105.313 344.973 467.526
2211 0 71.32 15.802 1127 103.311 345.592 468.407
2212 0 74.2844 13.3137 989 107.181 345.772 467.616
2213 0 78.2743 18.8951 1479 99.2569 346.423 465.615
2214 0 82.2299 18.5334 1524 99.332 345.444 463.4
2215 0 83.5305 14.809 1237 105.27 347.174 460.668
2216 0 85.1735 14.7816 1259 104.927 345.405 457.117
2217 0 86.2851 13.1193 1132 108.615 346.95 452.405
2218 0 89.1731 14.1635 1263 106.222 347.116 453.959
2219 0 94.2264 15.0276 1416 104.663 348.327 452.529
2220 0 92.2092 15.6384 1442 106.552 348.408 450.874
2221 0 97.2879 14.8323 1443 107.61 349.31 449.301
2222 0 100.436 12.6647 1272 110.739 350.16 449.549
2223 0 102.33 15.4695 1583 107.123 349.946 444.776
2224 0 107.268 15.96 1712 106.856 350.697 444.484
2225 0 109.417 17.4562 1910 105.76 349.165 443.86
2226 1 58.2391 20.2441 1179 96.3749 349.722 468.877
2227 0 62.2114 12.9719 807 105.178 350.066 469.47
2228 0 63.318 13.6928 867 108.18 352.759 464.314
2229 0 64.1357 13.2064 847 109.129 353.126 462.78
2230 0 63.1103 10.2519 647 114.703 354.929 464.38
2231 0 69.1008 15.3399 1060 106.283 354.892 465.397
2232 0 72.1039 17.3084 1248 104.137 354.305 465.003
2233 0 73.1141 11.4889 840 112.06 354.867 466.894
2234 0 78.0948 13.7653 1075 109.722 355.349 465.916
2235 0 78.2065 13.4771 1054 110.802 354.373 465.946
2236 0 86.3898 15.8352 1368 105.178 353.952 468.695
2237 0 88.6522 13.1864 1169 110.292 352.167 468.346
2238 0 88.2814 13.9214 1229 115.314 353.069 462.158
2239 0 93.2627 14.2072 1325 115.562 352.423 459.673
2240 0 98.199 14.7048 1444 114.312 352.342 464.304
2241 0 98.3318 15.6104 1535 114.575 350.571 461.578
2242 1 57.2324 11.6193 665 117 351.113 482.633
2243 0 58.1705 10.4005 605 117.846 348.812 484.94
2244 0 58.2484 12.0175 700 116.183 348.19 480.813
2245 0 57.2588 10.8106 619 119.722 347.149 477.137
2246 0 62.2518 14.3771 895 109.896 346.085 477.618
2247 0 61.3118 10.6179 651 119.143 345.111 474.962
2248 0 63.2467 9.53409 603 121.887 344.975 474.406
2249 0 67.3712 13.4627 907 113.271 344.559 475.955
2250 0 68.2292 13.1322 896 116.898 344.453 470.837
2251 0 71.2433 14.4575 1030 114.68 343.87 468.092
2252 0 71.2946 12.0767 861 119.664 343.97 464.403
2253 0 75.2606 13.7256 1033 116.426 343.739 467.032
2254 0 77.1882 14.3027 1104 115.694 343.439 463.266
2255 0 77.1882 14.3545 1108 136.496 343.426 463.287
2256 0 81.2574 13.1803 1071 118.167 343.26 460.805
2257 0 80.1837 11.3614 911 124.07 344.157 455.936
2258 0 83.2544 13.4407 1119 119.781 344.986 458.996
2259 0 89.2406 15.2285 1359 115.915 346.598 452.985
2260 0 88.1303 13.1169 1156 121.759 347.803 450.891
2261 0 90.1152 12.2177 1101 124.299 348.082 450.652
2262 0 94.1448 12.0559 1135 125.178 348.626 447.346
2263 0 98.2091 13.9193 1367 121.075 348.606 446.753
2264 0 101.159 13.6024 1376 120.772 348.86 445.104
2265 1 58.103 12.2713 713 115.964 349.52 465.773
2266 0 58.2046 12.353 719 116.366 348.31 463.606
2267 0 61.3469 11.7691 722 115.278 349.69 463.252
2268 0 63.1676 13.1396 830 116.17 349.023 463.474
2269 0 63.4887 11.4036 724 119.854 349.836 463.039
2270 0 67.2052 13.5555 911 115.439 350.133 458.901
2271 0 69.3832 14.6577 1017 111.324 349.802 465.655
2272 0 72.203 13.4898 974 114.171 350.72 463.049
2273 0 71.3311 15.1547 1081 113.537 351.85 458.457
2274 0 76.353 13.1363 1003 115.589 352.781 461.318
2275 0 76.2201 11.4143 870 119.591 352.53 459.498
2276 0 80.2941 13.3883 1075 116.315 352.598 455.963
2277 0 82.2978 13.7549 1132 116.05 352.783 456.333
2278 0 86.4938 10.7407 929 120.764 351.961 457.917
2279 0 87.4273 11.5868 1013 119.595 352.631 459.094
2280 0 93.402 13.9076 1299 114.421 351.339 460.35
2281 0 94.3688 12.43 1173 118.078 351.732 457.872
2282 0 104.413 16.6454 1738 109.486 350.235 452.389
2283 0 107.484 13.6764 1470 114.628 350.443 450.42
2284 0 108.473 11.9016 1291 118.207 350.146 449.224
2285 1 58.103 11.6861 679 114.8 347.661 478.415
2286 0 62.0815 12.1775 756 113.269 347.786 478.283
2287 0 63.0957 12.8535 811 113.581 347.139 473.292
2288 0 66.2085 11.0862 734 116.015 344.272 473.395
2289 0 70.0858 10.6726 748 117.127 345.108 469.225
2290 0 71.1464 14.6177 1040 110.766 342.934 470.455
2291 0 73.2773 14.0698 1031 110.765 344.593 469.813
2292 0 74.2051 13.7996 1024 111.7 343.746 463.652
2293 0 79.2757 12.7656 1012 112.544 344.439 465.064
2294 0 80.2494 12.9222 1037 113.65 343.225 463.578
2295 0 84.1174 13.0888 1101 112.845 344.308 461.014
2296 0 84.3166 12.0854 1019 115.066 343.37 459.125
2297 0 85.2338 12.3191 1050 115.578 343.92 455.396
2298 0 85.2962 12.4859 1065 116.122 343.79 453.022
2299 0 89.2817 13.351 1192 110.914 344.2 451.782
2300 0 94.2857 12.5788 1186 111.948 344.755 450.621
2301 0 97.4143 14.3511 1398 111.036 345.203 446.546
2302 0 99.2954 12.5686 1248 113.818 345.615 448.619
2303 1 55.1033 10.1627 560 112.416 345.386 471.571
2304 0 57.1894 9.11008 521 115.862 345.428 464.62
2305 0 59.255 12.2184 724 110.693 346.724 466.025
2306 0 61.0365 9.83018 600 114.23 348.138 466.493
2307 0 64.0331 11.0099 705 115.705 349.074 464.065
2308 0 65.2812 11.6113 758 112.491 347.036 460.608
2309 0 67.1692 11.5827 778 115.97 347.97 464.242
2310 0 69.0614 15.1894 1049 110.871 348.436 462.174
2311 0 73.0982 13.7213 1003 113.185 348.112 459.921
2312 0 71.1871 11.1818 796 118.44 349.755 456.731
2313 0 78.3428 14.36 1125 111.777 350.013 459.321
2314 0 79.1557 13.4671 1066 113.554 350.096 457.297
2315 0 82.1634 14.6172 1201 112.919 350.793 456.524
2316 0 86.2255 14.2185 1226 113.644 350.381 457.295
2317 0 89.1155 12.9495 1154 115.534 351.548 458.449
2318 0 92.181 13.5277 1247 115.905 351.694 451.855
2319 0 95.1573 13.4724 1282 116.778 352.117 449.706
2320 0 99.7512 14.0048 1397 115.533 351.921 448.601
2321 0 101.501 14.187 1440 114.612 352.055 447.823
2322 0 104.528 13.3074 1391 117.996 351.337 447.122
2323 0 112.836 15.6422 1765 112.57 350.675 448.722
2324 1 63.3994 9.33763 592 116.902 349.388 474.701
2325 0 64.3644 10.3939 669 115.969 349.341 470.475
2326 0 67.4416 10.7204 723 111.509 350.422 468.378
2327 0 70.2077 13.9159 977 108.732 349.269 468.062
2328 0 74.5445 12.1002 902 110.942 347.508 473.901
2329 0 75.3054 13.4652 1014 110.035 347.636 467.134
2330 0 76.5948 10.0398 769 115.33 346.996 468.908
2331 0 82.3208 11.7224 965 112.479 346.768 467.945
2332 0 84.4548 13.2734 1121 112.005 346.734 466.014
2333 0 87.1716 11.2422 980 115.432 346.602 462.182
2334 0 90.2519 11.5233 1040 114.864 346.628 460.247
2335 0 89.1821 13.3659 1192 112.865 345.067 457.966
2336 0 96.2309 12.7402 1226 112.689 345.781 457.506
2337 0 98.3342 14.6439 1440 107.645 346.112 454.267
2338 0 101.312 14.3912 1458 108.195 345.796 450.873
2339 0 105.265 13.1668 1386 110.672 345.339 447.338
2340 0 108.196 12.7547 1380 112.327 346.436 447.223
2341 0 110.299 12.2123 1347 113.955 344.944 442.889
2342 0 111.32 9.70172 1080 117.107 345.853 440.784
2343 1 64.2779 11.0302 709 107.578 346.948 465.09
2344 0 66.0934 12.8908 852 105.796 345.92 465.318
2345 0 70.2209 11.2502 790 105.962 345.982 465.518
2346 0 71.3242 11.3846 812 106.241 345.86 460.697
2347 0 71.2647 11.7309 836 111.007 345.464 457.776
2348 0 75.1882 11.8902 894 111.115 344.704 455.95
2349 0 73.2104 10.9001 798 113.744 346.739 453.655
2350 0 77.1146 13.668 1054 109.676 347.228 451.001
2351 0 80.2882 12.5672 1009 109.623 348.601 450.05
2352 0 81.3967 11.4624 933 112.597 348.297 449.153
2353 0 83.3054 14.7289 1227 104.421 350.397 451.37
2354 0 87.155 12.5753 1096 107.295 350.62 453.068
2355 0 94.1694 11.4581 1079 106.528 351.096 455.893
2356 0 95.4008 11.2578 1074 108.303 351.507 454.191
2357 0 100.355 15.5448 1560 102.121 352.172 451.626
2358 0 99.5124 8.74263 870 114.001 351.687 448.64
2359 0 102.637 10.7953 1108 110.877 352.766 448.544
2360 0 105.426 9.76044 1029 113.342 352.246 443.822
2361 0 111.312 11.2117 1248 110.501 351.385 447.038
2362 1 65.3876 9.83367 643 108.726 351.837 470.288
2363 0 67.3751 13.269 894 104.764 352.128 467.763
2364 0 68.4914 11.9431 818 104.561 351.688 471.455
2365 0 70.1709 11.3295 795 102.406 351.206 463.586
2366 0 74.3851 10.1902 758 103.953 351.976 469.557
2367 0 76.2193 7.58338 578 106.737 351.405 468.99
2368 0 80.1669 11.5883 929 101.171 349.936 469.947
2369 0 83.2552 12.2275 1018 101.542 349.888 466.41
2370 0 86.3489 12.7622 1102 100.689 348.479 465.584
2371 0 91.2818 11.5247 1052 101.94 347.241 464.907
2372 0 92.2133 12.9916 1198 100.837 347.01 460.01
2373 0 95.2683 8.77522 836 106.239 346.226 464.963
2374 0 102.293 13.129 1343 100.232 346.767 464.608
2375 0 102.069 14.4902 1479 99.8452 344.277 462.908
2376 0 104.265 12.4203 1295 102.969 344.276 461.87
2377 0 106.283 9.91688 1054 108.29 343.973 453.69
2378 0 112.278 12.5047 1404 105.145 343.954 451.291
2379 0 116.159 16.1158 1872 101.698 344.44 453.454
2380 0 116.171 12.189 1416 109.617 344.591 441.735
2381 0 120.363 17.2644 2078 102.268 343.974 450.679
2382 0 121.37 13.0675 1586 110.631 343.706 438.405
2383 0 128.341 17.6327 2263 103.583 344.947 441.568
2384 0 131.207 14.5572 1910 110.08 345.63 433.49
2385 0 136.392 15.712 2143 107.866 345.879 437.748
2386 1 78.1749 12.1778 952 103.211 345.877 465.534
2387 0 79.3333 12.0252 954 103.435 345.491 463.779
2388 0 80.1922 12.258 983 105.682 345.989 453.865
2389 0 82.54 14.805 1222 105.327 345.539 464.152
2390 0 85.4087 14.6121 1248 107.624 346.006 455.164
2391 0 87.3559 12.3403 1078 110.688 346.703 456.091
2392 0 90.424 13.5141 1222 110.209 348.023 453.629
2393 0 93.3727 14.6081 1364 108.879 347.438 453.194
2394 0 95.5138 11.5062 1099 114.493 349.152 452.919
2395 0 99.53 12.2777 1222 112.714 348.747 453.155
2396 0 100.547 13.6055 1368 112.866 349.556 446.405
2397 0 103.576 15.5731 1613 110.153 349.34 448.522
2398 0 105.433 14.9005 1571 112.461 350.189 446.129
2399 0 110.414 13.7845 1522 113.714 351.05 449.262
2400 0 114.566 13.1365 1505 115.203 352.124 438.098
2401 0 117.422 12.1442 1426 116.088 351.945 448.86
2402 0 118.475 11.9013 1410 118.431 352.345 445.016
2403 0 122.559 11.064 1356 119.834 352.148 444.648
2404 0 129.646 14.3082 1855 114.962 351.029 442.915
2405 0 135.66 12.9662 1759 117.15 350.084 440.86
2406 0 141.486 16.5952 2348 111.22 349.469 433.876
2407 0 147.535 14.3356 2115 114.526 349.712 433.482
2408 0 152.634 17.447 2663 108.662 350.389 436.249
2409 0 154.484 11.7423 1814 117.539 349.462 423.235
2410 0 160.509 12.0367 1932 117.03 348.479 422.802
2411 0 167.334 13.9422 2333 115.839 347.26 412.673
2412 0 171.457 15.4849 2655 112.605 346.997 419.174
2413 0 178.655 14.3293 2560 115.518 345.247 416.649
2414 0 181.504 13.9391 2530 118.789 344.82 411.03
2415 0 187.411 13.7772 2582 119.698 344.413 413.847
2416 0 192.466 12.6516 2435 121.239 344.994 415.076
2417 0 196.496 13.7254 2697 119.997 343.758 410.261
2418 0 202.421 14.1389 2862 118.973 343.409 397.488
2419 0 211.657 15.3409 3247 114.966 343.833 400.97
2420 0 215.391 15.5577 3351 115.87 343.243 393.635
2421 1 49.0594 8.03109 394 106.47 342.249 479.942
2422 0 52.0675 9.71815 506 103.032 342.773 478.648
2423 0 55.2606 11.491 635 102.699 342.228 479.528
2424 0 54.0724 11.6511 630 107.135 341.511 475.61
2425 1 243.397 15.9986 3894 118.584 343.277 382.013
2426 0 246.656 13.8371 3413 123.76 343.543 374.183
2427 0 252.526 14.7034 3713 121.019 344.264 375.888
2428 0 260.622 15.1254 3942 120.26 344.284 380.295
2429 1 58.0997 14.6989 854 106.029 343.711 473.585
2430 0 57.111 13.0798 747 109.754 344.254 471.349
2431 0 60.0867 9.20337 553 114.792 345.119 475.007
2432 0 57.108 10.8391 619 115.372 345.215 471.486
2433 0 59.1022 11.3194 669 115.085 346.238 472.181
2434 0 58.1319 12.3512 718 114.022 347.06 471.582
2435 0 58.0617 13.434 780 114.233 347.991 471.619
2436 0 59.0594 14.6971 868 111.551 347.715 470.563
2437 0 58.1103 14.266 829 112.912 348.259 470.104
2438 0 333.914 14.8152 4947 127.783 350.843 331.075
2439 0 341.704 14.5184 4961 128.838 351.597 330.334
2440 1 57.0827 11.1417 636 114.561 350.618 474.865
2441 0 59.1758 12.8262 759 112.233 351.943 477.606
2442 0 58.1037 10.9632 637 117.121 351.196 476.469
2443 0 57.0841 13.8217 789 112.529 351.887 481.436
2444 0 58.4624 13.9919 818 112.692 350.63 480.366
