time division length width area intensity CMx CMy
0 0 34.152 15.0796 515 126.283 437.955 476.934
1 0 34.0776 14.3496 489 127.321 437.928 478.943
2 0 34.0656 12.065 411 131.73 437.681 480.182
3 0 34.1948 15.1777 519 121.193 436.605 483.759
4 0 36.0289 11.5463 416 125.281 436.034 485.072
5 0 36.1543 10.9531 396 130.321 434.624 483.048
6 0 37.1398 15.159 563 124.822 433.33 480.922
7 0 39.034 14.8588 580 123.821 431.953 481.619
8 0 39.0147 14.5842 569 127.227 431.954 480.561
9 0 39.3422 14.0562 553 128.745 430.669 479.552
10 0 40.0301 13.265 531 129.676 430.955 479.518
11 0 44.1088 14.9403 659 121.724 430.407 480.854
12 0 44.0539 13.6651 602 129.294 430.752 478.347
13 0 48.0921 15.8862 764 118.568 430.438 477.06
14 0 45.0699 15.2652 688 126.657 430.334 474
15 0 46.0784 14.2366 656 127.041 429.887 472.701
16 0 51.0411 21.277 1086 112.223 430.059 471.774
17 0 49.1187 14.1087 693 127.185 429.475 470.144
18 0 51.0827 12.6853 648 130.659 429.693 472.872
19 0 53.0538 15.6068 828 126.627 428.268 468.362
20 0 56.1045 18.5547 1041 117.547 428.99 465.726
21 0 57.1397 14.5958 834 125.374 429.579 464.179
22 0 60.4544 14.9369 903 123.788 430.389 459.939
23 0 60.4544 14.9038 901 158.838 431.381 459.91
24 0 63.0977 16.5299 1043 125.881 433.892 459.391
25 0 63.09 16.4527 1038 138.447 435.898 459.406
26 0 68.1 16.9897 1157 122.999 435.769 456.027
27 0 68.0559 13.9885 952 131.029 436.03 453.8
28 0 74.1978 16.6312 1234 123.558 435.966 454.985
29 0 75.1843 14.8834 1119 127.25 437.33 451.089
30 0 79.2602 16.1493 1280 124.111 436.784 448.136
31 0 82.2861 13.8541 1140 128.006 438.964 450.296
32 0 87.1553 15.9256 1388 124.048 439.122 447.533
33 1 47.1512 13.8067 651 124.664 439.412 465.76
34 0 46.2542 13.1447 608 125.946 439.683 467.347
35 0 49.1488 15.9312 783 122.531 439.227 465.48
36 0 50.1298 12.8865 646 122.057 440.56 465.279
37 0 52.0717 15.6131 813 115.803 439.732 465.884
38 0 55.1134 14.0982 777 121.286 440.53 465.206
39 0 58.1048 15.4032 895 112.819 440.686 464.556
40 0 60.1473 13.5168 813 115.493 440.78 464.95
41 0 64.306 17.3079 1113 108.977 440.346 468.454
42 0 65.0875 16.1321 1050 112.718 440.15 465.599
43 0 67.1757 13.487 906 116.597 439.524 466.216
44 0 69.1022 13.8925 960 113.17 438.459 468.256
45 0 72.2036 14.1267 1020 122.785 437.892 462.974
46 0 73.1701 13.7488 1006 130.842 437.465 463.823
47 0 76.2731 14.2908 1090 129.352 437.442 466.215
48 0 81.0961 15.0562 1221 124.718 436.739 464.053
49 0 80.3101 12.2152 981 133.557 436.441 461.038
50 0 85.1746 15.8028 1346 129.365 434.759 463.432
51 1 44.2166 12.484 552 126.819 434.444 482.62
52 0 47.0661 14.2353 670 124.47 433.754 478.655
53 0 49.1557 14.1387 695 124.908 433.558 477.485
54 0 50.1252 16.3191 818 123.575 433.364 474.941
55 0 49.0945 11.7121 575 132.419 432.751 475.337
56 0 54.1052 13.3998 725 127.37 432.554 474.623
57 0 57.1647 13.8547 792 125.715 431.763 473.14
58 0 60.2997 14.7762 891 126.758 430.532 469.03
59 0 61.1749 13.2407 810 129.415 431.779 468.038
60 0 62.049 15.101 937 125.889 430.053 466.462
61 0 66.2517 13.177 873 128.656 429.714 463.998
62 0 66.2002 13.8972 920 127.48 430.083 463.829
63 0 69.1482 14.5774 1008 126.116 430.766 458.72
64 0 73.2551 15.1935 1113 124.339 429.814 456.345
65 0 77.1983 13.2386 1022 126.603 430.613 455.579
66 0 77.0922 13.6719 1054 127.722 430.611 451.704
67 0 80.1543 15.2955 1226 124.529 431.204 452.157
68 1 43.0328 12.8971 555 122.917 430.856 469.665
69 0 42.1476 10.7479 453 126.777 431.144 468.664
70 0 44.2884 11.6283 515 126.907 430.92 466.183
71 0 46.0344 12.3169 567 125.702 432.97 466.63
72 0 46.0625 11.7883 543 119.451 434.333 467.206
73 0 48.1044 11.3919 548 118.761 434.974 468.401
74 0 48.0603 11.5688 556 120.721 435.074 465.518
75 0 49.1679 15.0911 742 119.704 434.655 465.734
76 0 52.1359 14.2129 741 121.147 435.555 465.115
77 0 53.141 13.6241 724 122.337 436.141 466.751
78 0 55.2039 13.6403 753 124.316 436.275 465.343
79 0 54.2751 13.1736 715 125.669 438.081 466.822
80 0 57.1419 13.6502 780 123.851 437.945 467.386
81 0 59.0475 16.3089 963 120.205 438.285 462.641
82 0 61.0848 12.0652 737 129.596 437.525 464.478
83 0 63.2418 15.0217 950 122.782 437.337 467.167
84 0 66.3031 14.479 960 126.188 437.79 461.973
85 0 68.1197 14.3277 976 126.879 436.803 464.846
86 0 71.1584 15.1212 1076 125.792 437.13 464.996
87 0 72.3244 13.0799 946 129.706 437.303 466.921
88 0 76.1616 15.3489 1169 124.803 437.405 463.463
89 0 77.1422 15.439 1191 126.365 436.885 461.43
90 0 82.2297 15.3837 1265 125.883 435.932 463.24
91 0 83.1404 13.375 1112 129.298 435.88 463.656
92 0 85.2423 14.6172 1246 128.392 435.303 460.12
93 0 89.1593 14.1657 1263 129.144 434.347 459.029
94 1 48.0607 13.3581 642 125.438 433.179 483.09
95 0 48.0975 12.8905 620 124.65 431.389 482.306
96 0 51.1402 12.5342 641 123.732 431.922 481.212
97 0 52.1028 14.5674 759 119.951 431.275 479.588
98 0 51.1078 13.2661 678 124.462 431.075 478.754
99 0 54.1149 14.4507 782 122.125 430.464 477.33
100 0 56.0886 16.7592 940 119.955 429.776 473.582
101 0 57.0403 16.1114 919 120.386 428.804 474.736
102 0 58.0512 11.3693 660 128.758 429.064 473.374
103 0 61.1815 16.2631 995 118.329 429.247 473.052
104 0 64.1961 14.9853 962 120.716 429.556 469.709
105 0 69.1044 16.6849 1153 117.686 429.408 467.068
106 0 70.217 14.2843 1003 126.095 428.766 464.52
107 0 70.3887 15.1729 1068 126.332 429.589 460.511
108 0 75.1709 14.354 1079 126.454 429.44 461.158
109 0 77.2287 15.8361 1223 125.128 429.246 457.957
110 0 78.4035 15.5988 1223 124.791 429.665 455.288
111 0 81.208 14.506 1178 126.681 429.882 453.567
112 0 84.2821 17.2516 1454 119.843 431.462 454.325
113 0 85.1547 13.8454 1179 128.414 431.719 447.111
114 0 88.2439 14.154 1249 125.532 432.737 450.637
115 0 94.1875 14.6622 1381 124.914 432.468 446.869
116 0 99.3094 14.9231 1482 122.407 433.743 448.269
117 1 52.1931 13.2584 692 125.855 433.264 467.356
118 0 54.049 13.0067 703 126.582 433.348 465.57
119 0 57.1849 14.5493 832 121.053 433.682 465.323
120 0 58.2691 12.4938 728 123.681 433.611 466.076
121 0 59.2105 12.4471 737 125.474 434.647 465.512
122 0 61.1442 12.6586 774 126.021 435.159 466
123 0 65.1483 15.0426 980 120.844 436.287 464.619
124 0 65.3131 12.5396 819 125.37 435.658 466.416
125 0 69.0307 14.7036 1015 124.72 436.395 462.605
126 0 70.1965 14.1887 996 127.279 435.887 462.95
127 0 72.5016 14.6893 1065 125.25 436.557 463.291
128 0 74.1399 16.2126 1202 120.969 437.112 466.481
129 0 76.0757 16.1681 1230 122.637 436.111 459.715
130 0 79.1145 14.9024 1179 123.357 436.343 461.452
131 0 83.1121 14.1616 1177 125.532 436.431 462.135
132 0 88.1867 15.6146 1377 122.147 436.081 465.888
133 1 48.0394 11.9485 574 129.263 434.179 479.436
134 0 50.1436 11.9856 601 123.364 433.273 477.865
135 0 50.0684 11.7839 590 129.486 433.444 478.836
136 0 53.0936 13.1843 700 128.971 432.469 478.583
137 0 54.1492 12.8903 698 129.947 432.868 477.198
138 0 56.3085 14.4383 813 126.658 430.991 476.847
139 0 57.0952 17.5847 1004 121.105 431.337 476.103
140 0 61.0903 18.9228 1156 117.099 429.554 472.563
141 0 61.1539 14.8641 909 124.785 428.666 473.349
142 0 61.4376 14.7304 905 126.591 429.046 472.366
143 0 65.2178 12.7726 833 130.77 428.508 469.27
144 0 68.1098 15.2841 1041 122.241 427.678 469.295
145 0 69.1012 16.02 1107 120.73 427.519 467.341
146 0 72.257 21.7695 1573 111.456 427.184 464.152
147 0 74.1596 14.1586 1050 123.375 426.628 461.987
148 0 75.2449 13.9943 1053 123.484 427.986 462.028
149 0 79.1929 14.4205 1142 122.636 427.197 457.67
150 0 81.2514 13.8459 1125 122.108 428.045 456.784
151 0 88.364 14.6892 1298 118.363 428.124 454.895
152 1 45.5083 13.3602 608 115.704 428.406 471.645
153 0 45.3592 13.6025 617 113.404 429.092 473.583
154 0 48.3479 12.4307 601 119.158 429.426 467.75
155 0 47.1489 14.3163 675 115.41 428.009 467.333
156 0 52.1303 14.1952 740 114.758 428.432 467.735
157 0 52.074 13.5 703 116.357 428.67 465.664
158 0 52.1339 15.019 783 113.826 429.446 467.103
159 0 54.0868 12.1287 656 120.686 430.471 462.838
160 0 56.1345 15.0353 844 115.517 430.774 460.502
161 0 57.0582 15.1074 862 114.979 431.821 462.887
162 0 57.087 17.2719 986 111.868 432.138 465.248
163 0 58.0563 16.2256 942 114.741 433.227 462.743
164 0 61.1738 13.2083 808 118.791 433.342 463.678
165 0 62.1425 13.7104 852 118.987 434.553 460.951
166 0 65.2102 16.2858 1062 114.458 435.111 463.066
167 0 66.0522 13.3834 884 119.943 434.727 461.217
168 0 70.1109 15.4327 1082 115.97 435.389 461.83
169 0 72.0797 15.2193 1097 117.205 436.15 461.987
170 0 73.1626 14.666 1073 118.348 435.61 463.808
171 0 75.2063 13.5095 1016 119.742 435.784 461.506
172 0 75.244 10.7118 806 124.97 435.742 460.474
173 0 80.1379 14.7246 1180 117.508 435.203 460.563
174 0 83.2938 15.2472 1270 116.22 435.098 457.862
175 0 86.3315 17.3517 1498 111.831 434.096 461.162
176 0 90.5386 16.6117 1504 110.89 434.105 465.736
177 0 92.1752 12.997 1198 114.901 433.532 464.859
178 0 97.2892 15.2638 1485 112.09 432.762 458.675
179 0 98.3528 14.6513 1441 114.774 433.282 458.891
180 1 51.1945 10.7824 552 115.578 432.058 481.725
181 0 53.0995 13.0133 691 114.327 430.935 478.014
182 0 52.3058 10.7828 564 113.652 429.117 480.176
183 0 55.1061 15.0618 830 108.825 429.312 475.142
184 0 59.4326 17.4652 1038 104.092 427.791 476.982
185 0 62.2116 11.7824 733 111.932 427.213 475.383
186 0 64.0412 14.0222 898 109.002 427.451 470.016
187 0 67.1052 13.9632 937 108.199 426.121 470.988
188 0 69.1609 15.6591 1083 107.18 426.8 466.777
189 0 69.3318 12.4474 863 112.14 425.43 467.078
190 0 73.2044 13.9882 1024 111.768 425.473 463.746
191 0 74.2696 12.8586 955 112.061 424.597 461.79
192 0 80.4579 13.4605 1083 110.331 425.356 460.637
193 0 80.4579 13.4232 1080 142.472 427.381 460.578
194 0 85.198 12.3477 1052 111.107 425.006 456.429
195 0 91.3284 14.9132 1362 107.283 426.039 453.855
196 1 45.1476 11.8279 534 106.2 425.773 475.747
197 0 47.1338 14.4482 681 105.282 426.652 469.825
198 0 49.182 14.0295 690 102.687 427.468 469.38
199 0 50.1566 17.5451 880 98.4216 428.184 469.426
200 0 53.2079 13.7573 732 103.317 428.986 468.861
201 0 50.0834 15.0948 756 103.784 428.303 464.872
202 0 51.1188 14.5934 746 104.862 429.571 465.051
203 0 56.1323 17.245 968 99.1157 430.052 471.43
204 0 58.3055 15.1615 884 104.819 430.348 466.166
205 0 58.2447 12.1384 707 109.31 431.325 466.895
206 0 61.1282 11.2878 690 111.257 432.01 465.536
207 0 65.2333 14.7777 964 105.407 432.276 465.731
208 0 64.4527 12.5208 807 112.224 433.699 464.854
209 0 68.2262 13.8656 946 112.158 434.606 461.039
210 0 68.2372 12.31 840 115.825 434.119 460.84
211 0 72.2506 14.5189 1049 111.556 435.291 460.159
212 0 76.3855 14.4923 1107 112.53 435.49 462.413
213 0 77.3665 14.8772 1151 114.648 434.491 461.468
214 0 79.3707 14.1488 1123 113.726 434.3 464.481
215 0 80.2014 13.9274 1117 115.633 435.145 463.103
216 0 86.5116 16.1366 1396 114.143 435.402 459.079
217 1 44.2377 12.139 537 115.67 433.993 481.952
218 0 46.2168 14.9513 691 112.3 433.919 481.871
219 0 45.1545 14.3064 646 114.703 432.783 481.625
220 0 48.0585 14.2119 683 113.306 431.876 481.186
221 0 50.0971 12.6155 632 114.187 432.85 483.706
222 0 51.104 13.3258 681 115.504 432.466 482.219
223 0 54.0938 18.2091 985 107.434 430.905 482.31
224 0 53.1639 14.2014 755 114.208 429.595 477.64
225 0 54.12 14.9298 808 113.245 428.76 478.165
226 0 54.2929 14.8822 808 113.056 428.751 480.125
227 0 59.1081 13.0777 773 116.361 427.646 478.534
228 0 62.0866 11.5323 716 115.662 426.719 478.656
229 0 62.1277 13.5044 839 112.824 425.932 476.787
230 0 64.2575 16.6829 1072 109.239 425.185 472.702
231 0 67.2779 14.611 983 114.71 424.026 472.693
232 0 69.1715 16.9145 1170 111.011 424.485 471.041
233 0 70.1681 14.4225 1012 115.518 424.694 468.366
234 0 72.1594 14.3294 1034 116.645 422.815 465.961
235 0 77.1193 13.4856 1040 117.936 424.148 462.181
236 0 77.3681 12.4211 961 120.604 423.458 459.97
237 0 83.1541 15.2608 1269 113.678 423.37 461.23
238 0 82.3572 13.1257 1081 119.339 423.648 454.628
239 0 86.8294 15.1101 1312 115.039 423.123 454.417
240 0 87.236 14.8448 1295 118.156 424.812 450.542
241 1 45.1858 17.2621 780 107.799 423.945 470.69
242 0 42.1385 7.42788 313 125.016 425.086 472.361
243 0 50.178 11.0208 553 115.685 425.15 470.881
244 0 51.4925 14.371 740 112.407 424.831 469.808
245 0 49.1321 11.0722 544 119.86 428.324 469.072
246 0 52.0657 12.1769 634 118.281 427.886 466.991
247 0 55.0781 15.0695 830 109.718 427.859 468.239
248 0 56.0925 14.173 795 111.586 428.386 467.434
249 0 55.1114 10.0705 555 119.697 429.211 466.063
250 0 58.0852 12.1546 706 115.973 429.847 464.568
251 0 62.2204 11.4914 715 115.895 430.095 466.45
252 0 62.1575 11.5996 721 120.68 431.487 461.632
253 0 66.1454 12.5935 833 115.749 432.068 463.783
254 0 66.1742 12.7391 843 116.669 432.307 464.427
255 0 74.3549 16.0581 1194 111.089 432.224 455.992
256 0 72.2762 12.8258 927 119.221 430.447 458.652
257 0 77.0851 16.8645 1300 107.845 433.019 461.459
258 0 75.337 13.5259 1019 113.335 432.602 461.867
259 0 78.1823 12.8546 1005 113.526 433.426 464.319
260 0 83.3044 13.0966 1091 113.808 432.495 462.38
261 0 85.1906 12.1492 1035 116.288 432.466 461.1
262 1 44.2083 11.6042 513 113.846 432.552 480.076
263 0 47.1211 10.2077 481 113.721 431.198 483.345
264 0 48.0466 15.5682 748 107.971 432.376 482.064
265 0 53.3658 13.7541 734 110.658 428.943 484.259
266 0 51.0181 13.8186 705 113.982 428.986 480.001
267 0 53.0872 13.2235 702 115.675 428.238 478.856
268 0 51.0966 11.2923 577 120.62 427.808 479.6
269 0 51.1043 11.2124 573 140.316 426.782 479.583
270 0 56.1207 11.8851 667 118.915 425.316 471.573
271 0 58.417 14.037 820 114.737 425.257 475.893
272 0 61.1791 14.5311 889 112.884 425.912 474.304
273 0 63.3051 14.9909 949 113.299 424.831 470.515
274 0 64.1764 15.9249 1022 112.732 424.525 469.755
275 0 67.0337 14.2466 955 115.075 423.553 468.219
276 0 70.1416 13.2446 929 115.851 424.404 467.603
277 0 70.1298 12.705 891 118.476 423.663 463.136
278 0 74.1893 17.1184 1270 111.722 423.845 460.268
279 0 77.2061 14.1699 1094 115.871 424.668 459.198
280 0 79.0918 12.4412 984 119.152 423.883 458.68
281 0 80.1623 12.6369 1013 117.643 423.7 460.023
282 1 41.0663 12.078 496 116.145 423.728 472.619
283 0 44.047 13.0542 575 111.151 425.252 472.81
284 0 43.062 11.3325 488 113.668 425.039 473.039
285 0 46.075 13.9555 643 107.442 426.583 471.005
286 0 45.1099 12.0594 544 111.417 426.632 471.16
287 0 48.0867 12.2903 591 110.409 427.746 469.462
288 0 47.0354 11.013 518 114.432 428.122 468.421
289 0 49.0684 14.5511 714 109.668 428.944 467.555
290 0 51.0732 13.7058 700 111.763 429.299 465.759
291 0 51.2434 11.8649 608 113.395 430.732 467.336
292 0 57.2262 12.3021 704 112.227 430.688 467.207
293 0 55.1488 11.5143 635 113.969 432.957 465.32
294 0 59.4555 15.0028 892 106.852 431.744 466.163
295 0 57.0893 13.4001 765 113.021 433.035 464.097
296 0 62.1688 12.7878 795 111.345 433.41 465.033
297 0 63.2238 14.5989 923 110.3 434.13 462.968
298 0 64.0805 11.4231 732 114.887 435.288 464.083
299 0 69.2283 13.0727 905 113.039 434.446 463.892
300 0 70.1474 19.1311 1342 107.391 435.203 462.125
301 0 70.1588 13.9113 976 115.179 434.525 464.009
302 0 74.2802 12.924 960 116.243 434.759 465.483
303 0 78.1962 14.0032 1095 115.314 433.779 463.805
304 0 79.302 16.4183 1302 111.605 433.459 463.761
305 0 83.1886 15.9517 1327 112.476 434.152 460.665
306 0 85.2447 16.9277 1443 112.622 432.11 460.538
307 0 85.5667 17.2497 1476 114.32 432.948 459.068
308 0 89.5985 15.0895 1352 117.44 431.553 459.506
309 0 91.5434 15.0202 1375 119.692 431.798 456.032
310 0 94.5881 14.6953 1390 120.216 431.298 454.809
311 0 98.5606 15.1379 1492 118.367 430.225 453.601
312 0 101.843 13.2557 1350 121.721 429.372 451.986
313 0 103.54 13.6468 1413 120.982 428.847 450.093
314 1 55.292 14.0527 777 112.174 428.205 474.208
315 0 57.1756 15.2163 870 110.462 426.84 474.587
316 0 58.1129 14.3686 835 112.018 427.988 474.607
317 0 62.0415 16.5857 1029 107.691 425.798 472.162
318 0 62.0463 16.7133 1037 124.172 423.777 472.139
319 0 64.1324 13.4098 860 114.631 424.66 466.648
320 0 66.1277 17.0579 1128 109.664 424.31 470.057
321 0 69.1132 13.4272 928 117.767 424.712 462.152
322 0 71.0879 13.2512 942 117.826 423.999 461.001
323 0 73.2451 13.1067 960 117.382 424.85 459.743
324 0 74.1451 13.5006 1001 117.846 425.329 457.868
325 0 75.1308 10.8477 815 121.578 425.941 456.547
326 0 82.1752 15.1019 1241 113.768 426.502 453.728
327 0 79.1545 12.7851 1012 148.585 426.362 450.366
328 0 85.1575 14.7139 1253 114.654 427.483 449.251
329 0 89.3092 14.0859 1258 116.695 426.921 444.886
330 1 49.2926 7.87136 388 118.111 427.108 465.773
331 0 48.1957 9.35769 451 117.991 428.463 459.466
332 0 52.2572 10.0082 523 116.002 429.105 462.444
333 0 53.3832 13.9557 745 110.072 429.052 462.144
334 0 54.153 11.6522 631 116.106 428.521 462.097
335 0 56.1076 12.5473 704 114.787 430.151 460.46
336 0 56.0699 11.7532 659 117.61 431.211 462.123
337 0 57.0347 15.4993 884 107.023 431.831 462.011
338 0 59.096 13.4527 795 110.903 432.582 460.53
339 0 63.1403 13.8105 872 109.475 433.956 461.675
340 0 62.0517 11.4259 709 113.611 434.9 461.803
341 0 65.1439 12.8945 840 111.738 433.932 461.176
342 0 68.1234 12.6829 864 112.677 434.797 460.392
343 0 73.2461 15.7961 1157 107.898 435.788 457.23
344 0 75.2926 17.5714 1323 105.976 435.344 456.833
345 0 75.0814 13.9582 1048 111.569 436.169 458.673
346 0 79.1978 12.2604 971 113.371 436.455 459.733
347 0 82.1428 15.8504 1302 107.73 435.999 461.065
348 0 84.2011 10.95 922 115.198 435.432 460.395
349 1 47.0429 11.2663 530 112.238 436.377 475.521
350 0 48.2197 14.0814 679 108.389 435.33 478.582
351 0 49.066 11.0463 542 111.103 434.734 478.404
352 0 52.0941 11.9975 625 108.923 433.741 477.819
353 0 54.0864 14.3844 778 107.082 433.048 474.267
354 0 57.2141 11.9027 681 110.756 432.236 476.95
355 0 57.0693 13.58 775 109.764 430.657 471.839
356 0 57.0496 15.8634 905 105.128 429.907 475.37
357 0 58.1551 12.1228 705 111.345 429.789 473.028
358 0 62.2378 12.3719 770 110.378 429.694 470.26
359 0 64.0798 10.1592 651 113.25 429.676 468.693
360 0 65.087 12.6753 825 109.269 429.488 468.853
361 0 68.1497 10.4036 709 111.405 427.866 470.499
362 0 70.1988 12.9347 908 109.128 428.092 462.879
363 0 73.1583 11.5366 844 111.101 427.427 460.647
364 0 77.3427 14.3129 1107 106.509 427.186 457.376
365 0 78.4654 15.5483 1220 104.668 427.63 459.068
366 0 81.2336 15.8678 1289 105.412 428.56 452.104
367 0 81.2336 15.6709 1273 115.13 428.533 451.766
368 0 87.2146 16.2243 1415 103.855 428.163 453.866
369 0 92.3378 17.4143 1608 102.939 427.755 448.915
370 0 94.6746 15.2417 1443 106.746 427.942 442.202
371 1 46.4396 10.2929 478 105.818 427.628 469.906
372 0 48.1741 12.1019 583 106.432 428.815 463.364
373 0 50.3337 13.3708 673 104.875 428.279 463.857
374 0 53.0422 11.7831 625 106.112 428.776 463.773
375 0 53.1836 12.3158 655 104.018 429.298 466.151
376 0 54.0976 16.9324 916 100.943 430.58 464.476
377 0 52.2214 8.82779 461 112.189 431.79 461.204
378 0 52.2214 8.90439 465 130 432.804 461.101
379 0 57.1312 13.7928 788 107.038 433.249 458.931
380 0 59.1372 13.1389 777 108.493 434.12 458.059
381 0 64.4391 14.3081 922 105.614 433.494 459.538
382 0 62.159 11.8084 734 110.559 435.159 457.605
383 0 66.3904 14.6859 975 105.55 435.6 459.285
384 0 66.3839 12.6085 837 109.968 434.757 460.839
385 0 66.1753 10.8802 720 116.756 435.393 456.771
386 0 73.4719 17.1494 1260 106 435.808 459.395
387 0 72.5355 12.1733 883 115.043 436.42 458.869
388 0 72.5355 12.132 880 150.973 436.423 458.915
389 0 79.3829 17.6738 1403 106.57 436.592 456.759
390 0 82.4423 13.2699 1094 111.806 436.547 459.776
391 0 82.4938 13.7222 1132 113.292 436.281 457.7
392 0 86.557 13.8521 1199 113.445 436.409 457.818
393 0 86.557 13.8984 1203 149.797 437.403 457.994
394 0 89.7704 14.0135 1258 115.092 435.87 453.7
395 0 95.551 15.4996 1481 112.151 434.31 455.822
396 0 97.6958 15.538 1518 112.794 434.686 453.353
397 0 98.8416 12.8387 1269 118.426 434.471 450.002
398 0 101.807 13.28 1352 118.109 432.598 451.033
399 0 103.548 15.8768 1644 113.241 431.973 452.714
400 0 108.459 17.2416 1870 113.326 431.541 444.852
401 0 113.478 18.1004 2054 110.513 431.665 445.404
402 0 117.79 16.7247 1970 110.478 431.02 450.046
403 0 123.823 16.1924 2005 112.264 431.07 442.407
404 0 126.65 18.1524 2299 108.665 430.297 444.693
405 0 128.547 18.9269 2433 108.37 430 443.06
406 0 130.393 17.6082 2296 111.511 428.81 434.719
407 0 133.461 16.5667 2211 113.826 428.684 428.734
408 0 138.285 17.059 2359 112.551 427.189 425.211
409 0 143.356 15.7859 2263 114.387 428.068 426.516
410 0 151.474 20.1553 3053 107.841 427.674 423.081
411 0 155.66 15.6366 2434 113.949 427.623 420.366
412 0 157.392 14.6577 2307 115.814 427.95 418.441
413 0 163.561 15.7739 2580 114.964 427.614 410.363
414 0 168.591 16.4303 2770 113.164 427.741 413.962
415 0 174.468 13.4408 2345 118.238 428.093 409.76
416 1 99.2216 16.5488 1642 109.26 428.719 446.954
417 0 101.182 13.2632 1342 115.433 428.817 443.106
418 0 101.182 13.3027 1346 155.311 428.819 443.207
419 0 101.205 13.2306 1339 154.996 428.83 443.267
420 0 112.353 20.667 2322 104.167 430.326 441.615
421 0 114.288 17.3334 1981 109.761 432.1 435.613
422 0 114.249 14.0746 1608 116.371 432.46 427.221
423 0 122.557 17.7061 2170 108.159 433.361 434.293
424 0 124.376 13.3868 1665 116.706 433.381 428.728
425 0 127.61 15.7276 2007 114.08 434.768 422.072
426 0 133.38 14.2151 1896 115.561 435.315 424.169
427 0 138.53 14.69 2035 115.415 435.562 424.115
428 0 144.415 17.3874 2511 111.731 437.601 418.659
429 0 147.349 15.2088 2241 113.507 437.539 427.493
430 0 153.397 17.1711 2634 109.885 437.406 422.987
431 0 156.404 15.671 2451 112.272 436.972 422.124
432 0 159.391 14.1037 2248 115.819 437.475 411.188
433 0 168.614 14.7438 2486 114.373 437.233 416.379
434 1 77.2784 12.7979 989 112.868 435.315 463.727
435 0 84.838 16.3606 1388 106.312 435.389 463.607
436 0 83.2216 15.1643 1262 112.044 435.265 456.725
437 0 85.2863 12.3349 1052 116.997 435.53 458.258
438 0 89.35 17.4259 1557 109.222 434.882 454.774
439 0 92.4872 13.7316 1270 115.593 434.505 455.791
440 0 96.1556 15.0485 1447 111.168 433.984 458.551
441 0 103.344 14.2823 1476 113.238 433.495 452.49
442 0 104.55 15.3706 1607 110.942 432.319 455.79
443 0 107.525 13.6061 1463 115.003 432.816 447.967
444 0 112.451 16.7095 1879 109.897 432.478 448.67
445 0 113.182 14.9848 1696 111.858 430.696 446.226
446 0 121.308 16.3139 1979 108.897 430.742 445.258
447 0 120.705 12.485 1507 117.86 431.147 437.693
448 0 126.157 13.1978 1665 116.281 430.617 442.954
449 0 129.327 13.5161 1748 117.362 429.847 435.574
450 1 72.2091 14.735 1064 108.164 429.102 462.821
451 0 73.1722 16.6593 1219 106.92 427.171 460.459
452 0 76.1065 13.6651 1040 111.036 426.901 455.628
453 0 77.1129 14.5112 1119 110.609 426.745 455.092
454 0 82.1413 11.9185 979 112.734 426.732 458.61
455 0 83.1016 11.492 955 114.637 427.321 453.134
456 0 85.1825 14.3574 1223 110.416 428.043 452.31
457 0 87.2141 13.3465 1164 111.485 426.15 451.024
458 0 90.3564 16.5456 1495 104.848 426.48 456.372
459 0 94.3808 14.664 1384 109.577 425.629 447.622
460 1 54.115 14.9312 808 105.52 426.574 468.782
461 0 52.1942 10.6908 558 108.353 426.315 466.125
462 0 56.0943 12.9603 727 105.11 428.056 463.884
463 0 53.0911 8.55134 454 113.797 427.969 465.936
464 0 54.2376 8.90526 483 112.596 427.994 468.226
465 0 61.0576 12.6602 773 107.939 430.811 464.189
466 0 64.3338 15.0465 968 102.558 431.474 468.754
467 0 64.1195 13.6308 874 106.777 431.219 464.442
468 0 66.2947 13.1986 875 107.369 432.776 464.203
469 0 70.2359 14.2947 1004 108.33 433.322 462.881
470 0 73.3566 13.9456 1023 108.994 433.424 462.87
471 0 76.2733 19.2728 1470 101.648 433.107 462.303
472 0 79.2898 13.1921 1046 108.841 432.732 464.904
473 0 81.267 14.4585 1175 108.821 432.814 460.755
474 0 82.4197 16.4645 1357 106.532 433.421 457.424
475 0 86.3991 13.264 1146 111.536 433.234 458.229
476 0 88.2418 13.055 1152 111.356 432.708 461.735
477 0 92.4518 15.2945 1414 107.963 431.89 460.989
478 1 49.1576 12.4498 612 105.675 430.792 485.845
479 0 50.3073 13.2784 668 105.657 430.475 483.931
480 0 51.0418 13.1853 673 107.694 429.594 484.273
481 0 53.1835 14.0457 747 106.162 429.17 484.802
482 0 52.0717 13.5198 704 109.364 429.263 485.131
483 0 52.0565 12.5633 654 110.303 427.58 487.277
484 0 53.0792 11.7748 625 112.222 427.346 485.976
485 0 55.1749 11.237 620 113.8 424.59 485.019
486 0 57.0952 13.3111 760 110.842 423.651 482.786
487 0 61.1906 14.5937 893 107.514 424.424 484.645
488 0 61.1274 13.1038 801 111.559 423.91 480.226
489 0 62.0755 12.0659 749 113.115 423.3 480.206
490 0 64.1211 14.5038 930 110.108 423.223 475.198
491 0 68.1074 16.5474 1127 105.822 423.211 476.251
492 0 68.1537 11.4447 780 112.891 422.036 476.642
493 0 68.1643 11.487 783 134.475 422.046 476.71
494 0 74.0816 16.1984 1200 105.456 421.787 474.422
495 0 72.1223 12.2847 886 113.255 421.558 470.524
496 0 79.1283 13.1938 1044 110.853 420.908 468.087
497 0 81.1738 18.7499 1522 102.825 421.697 465.948
498 0 83.3114 16.3003 1358 107.265 421.3 460.366
499 0 86.4275 17.2746 1493 106.246 421.928 456.904
500 0 87.2669 13.7968 1204 110.477 421.95 459.899
501 0 89.3124 12.1036 1081 114.044 423.283 454.55
502 1 45.1747 11.5994 524 109.597 423.798 475.332
503 0 47.1448 9.94807 469 111.51 423.386 473.791
504 0 50.2069 15.0577 756 104.083 423.94 468.436
505 0 51.2358 11.8277 606 106.898 424.794 469.784
506 0 51.1676 14.6968 752 105.875 426.301 470.491
507 0 53.0958 13.1837 700 108.423 426.144 469.176
508 0 54.1901 13.3788 725 108.036 427.717 469.646
509 0 56.0575 13.4326 753 105.999 428.424 469.282
510 0 58.0909 13.1174 762 107.928 428.982 469.217
511 0 62.1528 12.9519 805 107.135 428.625 466.766
512 0 62.1249 18.4145 1144 101.275 429.998 463.054
513 0 65.2209 15.7772 1029 104.794 431.672 463.958
514 0 64.2488 14.0236 901 108.614 431.109 462.606
515 0 69.2154 12.1505 841 110.565 433.133 464.587
516 0 71.2289 12.2703 874 110.223 432.332 468.121
517 0 75.2475 16.1733 1217 107.302 432.828 467.413
518 0 76.0526 12.2021 928 114.359 432.227 466.981
519 1 40.2194 13.302 535 109.721 432.92 484.697
520 0 40.0897 11.3994 457 114.825 432.825 484.91
521 0 41.0743 16.3119 670 104.163 433.336 487.36
522 0 44.0292 17.4657 769 102.391 432.088 486.739
523 0 43.0705 13.9771 602 108.849 431.075 487.58
524 0 45.1307 11.4778 518 112.195 430.411 489.025
525 0 46.1529 12.8703 594 111.372 428.931 488.951
526 0 48.0849 11.1054 534 113.942 428.976 490.298
527 0 51.051 13.0262 665 111.928 427.917 486.863
528 0 52.2798 13.3321 697 113.202 427.03 484.911
529 0 53.0275 11.824 627 115.791 425.177 485.1
530 0 58.2467 13.7862 803 113.889 424.027 484.898
531 0 56.0552 15.1993 852 113.182 424.771 482.992
532 0 60.061 16.1502 970 110.332 422.716 481.601
533 0 60.0708 12.8349 771 116.99 422.652 478.68
534 0 62.0628 14.0181 870 114.821 420.674 476.33
535 0 66.2127 14.2269 942 114.029 418.99 472.096
536 0 69.105 18.2621 1262 107.472 419.578 471.493
537 0 70.134 16.112 1130 111.26 419.135 471.366
538 0 72.2317 19.5482 1412 104.554 420.004 472.418
539 0 75.1464 14.9575 1124 110.714 419.456 465.382
540 0 78.2867 17.0527 1335 107.79 422.413 466.439
541 0 80.119 13.5548 1086 113.095 419.075 462.457
542 0 82.168 19.947 1639 103.266 419.308 464.188
543 1 45.1958 12.3905 560 110.62 422.532 478.073
544 0 46.0799 10.6771 492 110.055 422.539 483.496
545 0 45.2503 10.1878 461 114.317 423.833 476.356
546 0 48.2139 14.5394 701 103.05 424.107 477.86
547 0 49.1735 11.7136 576 107.901 425.814 475.038
548 0 51.2292 13.2737 680 106.062 425.974 472.44
549 0 52.3598 12.2995 644 108.107 426.3 471.464
550 0 54.2639 11.9232 647 108.366 426.743 470.816
551 0 58.1014 12.788 743 108.128 426.258 465.935
552 0 60.1671 14.1439 851 106.051 426.116 469.116
553 0 60.3675 15.0412 908 105.693 427.446 468.017
554 0 61.3237 11.8877 729 109.914 427.364 470.115
555 0 63.3056 10.631 673 115.949 428.19 466.048
556 0 68.2623 12.5399 856 111.794 429.082 466.905
557 0 69.3362 13.2831 921 111.401 430.598 464.774
558 0 70.4214 13.3198 938 111.414 431.217 466.367
559 0 75.2618 15.1471 1140 108.85 431.016 463.725
560 0 76.2155 10.3129 786 115.366 431.358 466.262
561 0 84.3475 16.4676 1389 105.412 431.113 466.824
562 0 85.3238 13.8531 1182 110.525 431.484 463.986
563 1 42.1293 12.0106 506 108.289 429.156 486.99
564 0 47.446 11.6764 554 104.144 429.507 490.776
565 0 44.2688 10.7751 477 108.66 430.742 484.3
566 0 45.1324 12.3193 556 113.824 428.354 484.538
567 0 49.0223 12.5453 615 111.793 428.74 486.405
568 0 54.7881 19.0917 1046 98.5296 427.294 490.034
569 0 51.081 15.9159 813 107.218 427.915 484.819
570 0 53.2485 13.4088 714 110.957 426.585 484.884
571 0 54.1971 15.4621 838 104.156 425.394 488.833
572 0 54.0897 12.0356 651 112.215 426.091 484.7
573 0 56.0782 14.2123 797 109.7 425.4 481.285
574 0 59.2027 14.4081 853 108.802 424.644 484.864
575 0 59.2114 11.0283 653 113.092 423.435 483.502
576 0 62.1867 14.6494 911 110.11 423.544 476.816
577 0 62.2814 13.7441 856 110.597 423.181 479.414
578 0 63.4445 8.84238 561 118.394 422.954 476.046
579 0 67.4316 15.1561 1022 108.585 423.613 472.615
580 0 70.6376 13.9869 988 112.314 421.796 470.678
581 0 71.375 14.5989 1042 112.542 422.486 469.028
582 0 73.6384 15.6983 1156 110.115 422.138 469.716
583 0 76.603 15.3519 1176 110.454 422.963 467.877
584 0 76.4783 13.9255 1065 114.053 422.932 467.04
585 0 78.5045 14.3941 1130 114.111 422.442 461.584
586 0 83.5604 19.4231 1623 104.42 423.394 462.004
587 0 85.3631 13.8936 1186 112.099 424.304 461.061
588 0 87.5023 15.0168 1314 109.951 424.802 458.238
589 0 90.2019 13.0263 1175 113.046 424.283 455.149
590 0 93.2056 14.5163 1353 112.346 424.612 452.052
591 0 97.5072 14.7579 1439 112.807 425.61 451.633
592 0 98.5594 13.5451 1335 117.717 426.361 440.735
593 1 56.0782 12.8392 720 108.268 426.617 471.965
594 0 58.0438 14.1617 822 109.439 426.849 469.72
595 0 60.4561 15.3996 931 111.794 428.347 467.173
596 0 62.3348 12.8339 800 117.084 429.701 466.605
597 0 63.3869 14.3405 909 115.724 429.886 464.618
598 0 68.2203 13.9988 955 114.616 429.976 467.653
599 0 68.3262 12.0305 822 118.742 431.004 466.083
600 0 70.2627 13.848 973 114.619 431.813 462.508
601 0 71.1488 12.1998 868 115.368 431.503 467.582
602 0 74.293 14.712 1093 111.636 431.81 462.668
603 0 74.293 14.6447 1088 132.367 431.817 462.635
604 0 80.4479 13.3751 1076 112.116 430.994 462.977
605 0 81.2494 14.2524 1158 111.953 429.696 463.966
606 0 84.4412 14.0571 1187 113.018 430.564 462.904
607 0 86.4408 11.2794 975 117.511 430.468 462.562
608 0 89.4591 13.0227 1165 115.716 429.062 462.044
609 0 93.4224 14.108 1318 113.337 429.187 465.129
610 0 94.5141 12.5061 1182 117.224 429.332 460.717
611 0 100.374 12.822 1287 116.633 429.162 458.629
612 0 102.506 14.8186 1519 113.537 428.81 458.205
613 0 106.4 13.844 1473 115.381 428.967 454.428
614 1 47.0782 12.4474 586 112.628 426.623 485.423
615 0 48.1842 11.9956 578 112.689 425.815 484.661
616 0 51.0942 12.0757 617 112.862 423.433 486.686
617 0 54.0686 13.5569 733 110.865 424.072 484.726
618 0 56.0624 12.0223 674 112.935 423.76 483.059
619 0 58.1565 14.7361 857 107.963 423.943 482.897
620 0 57.0506 12.2172 697 112.826 422.06 476.709
621 0 59.1008 12.301 727 109.319 423.747 474.475
622 0 58.1729 13.3911 779 109.553 423.528 474.555
623 0 61.1161 10.2592 627 114.491 422.951 472.375
624 0 64.1802 13.6023 873 112.751 420.843 471.006
625 0 68.0958 10.8524 739 116.572 421.241 469.08
626 0 69.1924 13.8744 960 110.9 422.107 470.953
627 0 70.085 16.0377 1124 109.25 421.263 464.357
628 0 74.1765 13.7105 1017 111.623 422.109 466.986
629 0 72.1253 12.9774 936 112.295 423.643 466.537
630 0 78.3116 16.0129 1254 108.372 423.638 462.139
631 0 77.1145 13.1882 1017 114.921 423.894 459.276
632 0 80.1769 13.3081 1067 114.33 424.841 458.636
633 0 84.1872 12.4247 1046 113.116 425.394 460.079
634 0 88.1809 15.9445 1406 110.476 424.334 453.486
635 0 88.2365 14.3478 1266 112.268 425.583 454.176
636 0 96.2025 14.2096 1367 112.236 426.568 451.852
637 0 95.3005 12.8751 1227 115.907 427.131 449.097
638 1 61.0951 10.6883 653 119.412 427.704 465.678
639 0 62.2117 18.4531 1148 106.351 428.125 468.981
640 0 66.1205 11.9933 793 118.721 429.208 466.846
641 0 69.0891 13.0556 902 118.055 430.744 465.659
642 0 72.3143 15.889 1149 111.527 431.157 469.318
643 0 73.1526 14.1212 1033 117.203 431.222 464.063
644 0 78.4556 15.1678 1190 113.69 432.502 466.532
645 0 80.1304 17.7835 1425 109.693 432.45 463.533
646 0 80.3845 14.244 1145 115.681 431.804 466.883
647 0 83.132 13.5688 1128 118.296 432.058 462.277
648 0 86.1489 16.7965 1447 112.856 431.08 463.952
649 0 90.2298 15.8595 1431 114.161 431.296 461.393
650 0 93.2549 13.9939 1305 117.914 430.667 462.265
651 0 93.2511 12.9757 1210 119.545 430.884 459.646
652 0 97.4825 14.1359 1378 117.824 431.391 460.109
653 0 105.21 15.5023 1631 113.777 431.076 459.284
654 0 105.488 13.4802 1422 116.939 430.329 456.949
655 1 57.1463 11.1118 635 116.405 430.912 482.254
656 0 58.3644 12.679 740 114.174 429.442 481.173
657 0 61.2565 15.1331 927 110.477 426.857 479.525
658 0 62.1235 12.2659 762 114.769 425.79 478.794
659 0 63.1281 11.6113 733 116.03 424.392 476.734
660 0 68.0757 14.2048 967 111.793 424.304 471.866
661 0 68.1017 12.8925 878 113.519 422.732 474.314
662 0 71.1047 14.5841 1037 110.788 423.341 474.551
663 0 74.1901 14.2876 1060 111.696 423.228 473.73
664 0 76.0911 12.8004 974 111.24 422.987 470.912
665 0 78.144 12.477 975 113.276 422.168 468.02
666 0 83.1638 13.9604 1161 111.303 421.815 469.04
667 0 87.112 15.2447 1328 110.042 421.489 463.581
668 1 49.2341 13.2022 650 108.731 422.717 480.428
669 0 46.0543 11.0956 511 112.732 421.378 479.671
670 0 50.15 11.2263 563 112.297 421.702 475.636
671 0 48.1948 9.06737 437 114.719 422.542 476.256
672 0 53.0394 14.838 787 108.723 422.29 475.508
673 0 54.0623 13.9839 756 112.155 423.033 473.798
674 0 53.0529 13.6468 724 108.724 424.859 475.804
675 0 55.0459 10.1188 557 114.61 423.583 474.418
676 0 58.2508 14.4891 844 108.019 425.139 472.772
677 0 60.2295 11.7716 709 114.76 425.702 469.316
678 0 61.2152 13.7874 844 111.905 426.177 468.506
679 0 62.0862 12.0639 749 114.748 427.152 469.244
680 0 66.1158 16.9854 1123 107.114 428.793 466.01
681 0 68.1058 14.9767 1020 109.966 427.98 464.808
682 0 73.1113 17.9179 1310 105.419 428.278 465.138
683 0 73.2374 15.1016 1106 110.933 430.743 461.156
684 0 73.1332 14.3027 1046 113.839 430.554 459.28
685 0 79.2565 16.6169 1317 108.235 430.896 464.155
686 0 79.0948 12.1626 962 114.957 430.599 458.135
687 0 87.1312 18.891 1646 106.761 431.453 462.391
688 0 85.174 11.4002 971 122.297 430.843 461.015
689 0 92.2349 17.965 1657 108.676 429.088 459.115
690 0 92.2349 17.9433 1655 139.535 428.076 459.218
691 0 95.2987 16.3486 1558 112.872 430.739 456.867
692 0 103.312 17.3165 1789 108.874 429.572 453.638
693 1 55.0495 13.4969 743 113.022 428.93 482.834
694 0 54.1519 9.95348 539 118.748 431.399 480.935
695 0 58.206 12.7994 745 112.409 429.276 484.136
696 0 62.1433 15.9309 990 109.672 426.285 479.603
697 0 62.1148 10.3196 641 118.061 427.49 482.797
698 0 61.0875 10.6405 650 118.472 426.482 480.025
699 0 65.173 12.4745 813 115.8 426.209 478.52
700 0 68.1654 12.5137 853 116.148 424.688 477.505
701 0 71.079 12.3103 875 112.215 424.269 482.902
702 0 75.2243 12.2567 922 115.06 423.735 473.249
703 0 77.0847 14.3997 1110 111.108 423.999 475.339
704 0 77.0847 14.4776 1116 127.9 424.965 475.4
705 0 82.1608 13.717 1127 111.505 423.588 472.599
706 0 83.2975 12.7975 1066 114.249 423.367 467.97
707 0 87.5417 14.1304 1237 112.287 422.508 458.972
708 0 90.6888 15.8895 1441 108.815 423.597 461.645
709 0 94.6409 16.7581 1586 108.421 423.083 456.145
710 0 95.6304 12.3705 1183 115.23 421.829 453.68
711 1 54.4801 12.2614 668 108.822 423.124 478.103
712 0 53.5326 11.0213 590 108.11 422.725 475.159
713 0 56.3032 12.7346 717 106.11 423.718 471.35
714 0 57.424 12.7299 731 108.055 422.413 470.605
715 0 60.3322 13.3594 806 106.462 422.164 472.282
716 0 60.0558 14.3034 859 105.745 423.324 470.633
717 0 63.1351 22.0796 1394 96.7181 422.909 472.123
718 0 64.1908 12.899 828 107.888 423.039 468.242
719 0 66.28 14.0012 928 108.861 423.904 466.99
720 0 69.2025 14.3347 992 108.134 423.389 467.674
721 0 69.3634 11.2595 781 115.621 424.707 467.238
722 0 72.2299 13.277 959 112.175 424.753 464.571
723 0 76.3866 14.2695 1090 110.089 427.196 464.57
724 0 77.4483 12.5116 969 114.174 427.351 461.123
725 0 82.504 13.1266 1083 111.122 427.959 461.426
726 0 83.6913 15.6886 1313 109.623 428.631 457.699
727 0 86.5373 11.9717 1036 115.347 429.188 459.472
728 0 91.5794 16.4011 1502 108.239 429.978 459.834
729 1 44.11 11.8794 524 110.397 429.185 480.223
730 0 48.2047 10.7666 519 113.166 431.272 480.699
731 0 48.2353 13.3927 646 110.359 430.754 477.375
732 0 52.1548 12.7505 665 108.293 430.944 481.973
733 0 53.2666 13.5357 721 111.449 431.361 478.524
734 0 53.3875 12.4374 664 115.919 430.7 478.648
735 0 55.3864 14.9134 826 108.879 430.09 482.794
736 0 58.3583 13.7256 801 112.697 429.082 482.009
737 0 59.475 13.2325 787 115.324 429.522 478.285
738 0 62.3173 14.8274 924 111.687 428.686 480.298
739 0 62.3833 12.7598 796 117.052 429.034 479.516
740 0 65.3778 13.7356 898 115.666 427.826 479.118
741 0 66.4643 13.3305 886 114.312 428.76 481.933
742 0 69.5438 15.386 1070 112.956 427.579 474.943
743 0 71.648 15.4226 1105 113.175 426.553 474.31
744 0 71.2757 13.7635 981 117.336 426.884 475.564
745 0 74.5016 13.597 1013 116.743 426.332 472.602
746 0 78.362 14.1523 1109 114.122 426.127 474.362
747 0 77.4387 11.2347 870 120.66 425.492 472.287
748 0 78.4328 11.3856 893 121.766 423.933 470.218
749 0 83.264 13.4992 1124 118.09 424.224 469.859
750 0 87.1934 16.4691 1436 113.54 424.471 463.1
751 0 87.1626 14.0312 1223 119.204 424.807 459.904
752 0 91.3678 15.3993 1407 116.153 424.853 459.697
753 1 48.1541 13.2907 640 116.689 424.786 480.958
754 0 50.1826 13.9889 702 115.993 424.859 477.538
755 0 52.1288 11.8552 618 120.1 423.469 477.38
756 0 50.1393 13.3428 669 116.493 424.795 477.9
757 0 53.0383 13.5374 718 116.024 424.979 477.166
758 0 55.0997 13.3939 738 116.675 425.631 473.224
759 0 54.0874 12.6277 683 122.132 424.867 470.744
760 0 58.3081 13.8746 809 119.201 426.088 468.381
761 0 60.1241 13.2559 797 118.753 424.748 469.925
762 0 64.1272 17.1222 1098 110.911 426.815 464.57
763 0 65.0896 15.8704 1033 114.542 426.725 464.861
764 0 68.1103 15.7392 1072 114.128 427.184 465.439
765 0 66.0718 14.908 985 117.605 427.162 464.15
766 0 68.2044 13.8407 944 119.882 428.164 461.55
767 0 71.105 14.9357 1062 117.744 428.511 459.382
768 0 74.1023 16.4232 1217 115.288 429.408 461.752
769 0 76.088 14.6409 1114 119.76 429.563 459.315
770 0 79.0977 13.2621 1049 120.493 429.64 460.305
771 0 84.2747 16.8022 1416 114.681 430.051 456.92
772 0 86.2937 15.3777 1327 116.855 430.763 461.747
773 0 87.1634 13.5148 1178 119.816 430.887 459.689
774 0 90.3533 15.5611 1406 117.94 430.835 461.161
775 0 91.3518 12.4026 1133 122.285 432.732 459.118
776 1 45.1116 12.1476 548 122.489 431.883 480.308
777 0 47.3068 13.0002 615 120.784 431.657 478.637
778 0 49.5986 13.0649 648 116.205 430.09 478.827
779 0 51.4648 13.6987 705 113.66 430.166 480.17
780 0 53.1067 12.8797 684 120.374 429.241 478.532
781 0 54.0918 13.588 735 118.888 428.917 480.376
782 0 57.0992 13.4853 770 117.799 429.349 481.779
783 0 58.2114 14.1381 823 116.695 429.063 481.54
784 0 59.1927 12.4171 735 119.424 428.831 480.042
785 0 61.1522 11.7085 716 119.98 427.821 476.493
786 0 64.0805 13.0149 834 117.536 427.032 476.337
787 0 65.1749 12.7656 832 117.631 425.673 475.446
788 0 70.1404 19.3184 1355 105.409 426.023 478.061
789 0 71.2386 12.8442 915 116.866 424.932 471.395
790 0 72.1979 12.3549 892 119.99 424.881 466.144
791 0 74.1339 12.2076 905 120.898 423.762 465.425
792 0 76.0845 12.473 949 120.798 424.917 465.227
793 0 79.1906 13.6759 1083 119.419 424.901 463.54
794 0 82.3259 14.066 1158 119.374 424.048 459.381
795 0 85.2186 10.784 919 123.603 425.324 459.864
796 1 46.1475 11.6366 537 114.862 424.108 477.622
797 0 48.2243 13.6653 659 127.044 423.92 479.734
798 0 48.2344 11.3612 548 116.31 423.619 475.931
799 0 48.043 12.5305 602 113.277 422.958 473.342
800 0 51.0534 10.6751 545 114.319 424.822 475.013
801 0 53.0794 12.1893 647 112.402 423.79 469.734
802 0 55.0787 12.6546 697 112.293 425.331 471.036
803 0 57.239 15.1296 866 108.781 424.984 464.9
804 0 59.1024 10.8963 644 114.888 425.205 466.638
805 0 62.3975 11.8274 738 114.077 426.252 462.06
806 0 62.2671 10.8886 678 116.827 426.298 461.978
807 0 65.1385 13.8628 903 112.024 428.89 462.627
808 0 69.2854 14.4764 1003 114.395 427.622 460.647
809 0 71.1988 11.6154 827 117.549 428.577 459.646
810 0 73.3771 11.8293 868 117.073 430.552 458.903
811 0 73.2033 12.6907 929 116.086 430.621 461.384
812 0 77.5318 13.1946 1023 113.585 432.564 462.174
813 0 80.3617 10.8012 868 118.106 431.857 459.637
814 1 44.0802 11.1615 492 111.356 432.03 477.181
815 0 44.2623 9.19519 407 116.624 433.961 471.305
816 0 46.1364 11.3359 523 111.899 433.13 475.377
817 0 46.0939 13.9715 644 106.242 433.092 480.146
818 0 49.2287 12.1271 597 109.075 429.886 477.057
819 0 48.0694 8.55015 411 115.849 430.314 481.336
820 0 53.1793 12.8621 684 109.626 430.785 479.915
821 0 52.0938 11.4601 597 113.821 430.358 477.655
822 0 52.0938 11.5369 601 109.003 430.323 477.649
823 0 56.1993 10.9254 614 115.772 430.663 480.208
824 0 57.0644 12.7225 726 112.241 429.712 475.727
825 0 60.0859 11.8497 712 114.031 429.365 477.659
826 0 62.1637 11.2606 700 116.124 426.649 476.076
827 0 62.2901 8.50858 530 119.942 428.228 477.919
828 0 65.264 11.7216 765 116.537 428.086 473.175
829 0 69.1638 14.3861 995 111.066 427.898 475.47
830 0 69.0416 13.0501 901 114.613 426.373 474.587
831 0 72.0943 13.2188 953 116.857 425.57 471.179
832 0 75.0807 11.9738 899 119.617 424.545 468.102
833 0 78.1439 12.1699 951 118.06 424.298 469.471
834 0 81.2524 15.618 1269 113.615 424.584 462.975
835 0 83.3208 13.058 1088 117.507 424.945 462.585
836 1 44.1182 10.7439 474 113.487 425.388 484.226
837 0 43.2145 10.4595 452 116.385 425.188 480.403
838 0 46.3293 13.7062 635 109.301 425.764 479.476
839 0 46.2235 10.3627 479 116.01 425.468 476.683
840 0 45.0741 8.91866 402 117.998 424.134 481.562
841 0 48.0387 11.9279 573 108.705 424.11 477.175
842 0 46.2135 8.63384 399 114.07 424.697 476.196
843 0 50.1077 10.6371 533 109.709 425.503 474.195
844 0 53.0778 11.4172 606 109.685 426.145 471.507
845 0 54.0701 8.56296 463 113.611 426.002 466.408
846 0 56.2006 13.8967 781 106.625 426.77 467.296
847 0 56.0877 13.1401 737 108.951 427.459 463.898
848 0 59.1135 11.7401 694 109.945 427.768 466.403
849 0 60.1658 10.1386 610 113.121 428.428 463.252
850 0 62.0773 9.29486 577 113.406 428.534 468.113
851 0 64.0629 10.7082 686 113.204 429.631 463.261
852 0 68.1232 10.4957 715 116.386 428.573 463.073
853 0 72.2318 13.5674 980 111.108 430.349 457.269
854 0 71.2309 8.10041 577 119.232 430.13 462.461
855 0 75.1662 11.9735 900 112.657 431.802 459.437
856 0 80.1325 11.0816 888 112.866 429.81 461.222
857 1 45.1604 11.8467 535 110.211 429.819 477.948
858 0 47.019 10.9956 517 112.925 430.133 475.644
859 0 48.3039 12.4835 603 112.232 432.673 475.322
860 0 48.5267 12.8795 625 111.899 432.461 474.714
861 0 49.2467 13.4019 660 113.141 432.647 474.391
862 0 47.1477 10.8383 511 117.883 431.274 477.074
863 0 51.0803 12.6468 646 110.961 431.071 478.094
864 0 52.045 14.8141 771 107.997 431.659 479.901
865 0 54.2131 12.4324 674 112.536 430.656 480.855
866 0 56.1187 16.0374 900 106.649 430.2 481.057
867 0 58.147 12.5544 730 113.477 429.908 478.723
868 0 57.0551 10.7615 614 116.523 428.546 481.078
869 0 61.1798 14.155 866 112.626 428.784 476.62
870 0 64.1176 13.0385 836 115.673 427.316 477.011
871 0 62.115 11.7202 728 118.593 427.897 477.986
872 0 65.1169 11.6406 758 116.645 427.623 481.07
873 0 66.074 12.9249 854 115.416 426.173 472.376
874 0 70.1133 12.9932 911 115.704 427.388 471.187
875 0 69.1076 10.8237 748 120.968 426.378 470.743
876 0 74.1383 12.2609 909 117.182 424.79 469.395
877 0 76.0906 13.0765 995 116.318 424.936 465.908
878 0 79.0367 14.0694 1112 114.966 423.248 463.365
879 0 82.1228 13.6868 1124 116.46 425.168 465.208
880 0 83.1411 15.1068 1256 112.1 426.422 465.737
881 0 86.2045 11.7511 1013 118.886 427.184 460.023
882 1 47.0973 10.8074 509 118.8 426.413 482.747
883 0 49.3662 12.9238 638 115.445 425.687 474.447
884 0 51.2575 11.6081 595 119.392 425.129 476.887
885 0 52.262 14.4273 754 115.797 425.288 474.044
886 0 53.2262 15.2932 814 115.043 425.021 471.151
887 0 53.2262 15.2744 813 119.478 424.049 471.044
888 0 54.2268 13.0009 705 117.691 425.957 471.335
889 0 57.1161 13.7965 788 116.39 426.279 470.523
890 0 58.0515 12.6095 732 121.456 426.736 465.221
891 0 60.1224 16.1337 970 116.278 427.042 466.254
892 0 61.0578 13.0368 796 121.819 426.79 466.676
893 0 64.1833 13.477 865 121.195 428.238 461.625
894 0 67.1264 14.5695 978 118.623 428.521 461.203
895 0 68.1455 13.3391 909 121.802 428.53 461.88
896 0 70.1282 12.1207 850 124.144 429.626 462.273
897 0 73.4422 14.5148 1066 119.33 429.492 460.766
898 0 75.2075 15.0118 1129 116.735 429.938 462.293
899 0 76.3018 13.4204 1024 119.89 430.295 458.161
900 0 81.0863 13.1958 1070 118.808 431.459 461.352
901 0 81.1934 13.6711 1110 119.568 432.28 458.058
902 0 87.4241 15.0759 1318 116.512 432.504 457.349
903 0 87.331 13.3744 1168 114.953 433.646 456.757
904 0 92.22 13.1208 1210 114.843 433.311 454.793
905 1 48.2007 9.04551 436 118.216 430.695 476.548
906 0 51.321 10.9312 561 115.021 430.82 477.185
907 0 52.0864 15.1479 789 110.089 431.379 477.823
908 0 52.2144 15.7428 822 109.04 431.499 476.33
909 0 55.1752 14.2093 784 111.182 430.878 477.99
910 0 57.3396 12.0684 692 116.081 430.809 477.231
911 0 55.3384 11.7098 648 116.639 430.147 480.043
912 0 58.3716 12.9686 757 115.89 429.756 476.27
913 0 60.1631 10.056 605 120.759 429.501 477.547
914 0 63.2423 11.7168 741 118.837 428.127 475.255
915 0 67.2076 13.0789 879 116.865 428.646 473.585
916 0 70.1859 15.5872 1094 111.814 426.898 472.618
917 0 73.4997 14.0137 1030 113.785 426.64 468.341
918 0 73.2993 11.9919 879 118.739 425.807 472.538
919 0 75.3747 12.7231 959 118.203 424.902 466.997
920 0 77.327 13.2166 1022 116.408 424.886 467.103
921 0 81.2622 15.1731 1233 113.946 424.789 464.419
922 0 82.3273 14.0901 1160 117.66 424.297 463.232
923 0 85.2412 13.0688 1114 121.851 423.365 457.671
924 0 87.18 13.5926 1185 121.657 423.906 457.509
925 0 88.1719 10.7404 947 125.742 424.099 455.822
926 0 88.1719 10.7744 950 145.494 424.121 455.658
927 0 95.2287 14.6384 1394 117.797 425.005 453.682
928 0 99.2585 15.7266 1561 116.889 425.031 449.629
929 0 107.317 16.577 1779 115.17 425.017 441.256
930 0 107.117 14.4981 1553 120.27 425.704 443.265
931 0 111.174 13.9151 1547 119.635 424.272 448.401
932 1 58.1554 12.0367 700 121.114 426.237 465.009
933 0 61.323 12.638 775 118.015 428.366 462.75
934 0 63.3425 15.3294 971 113.168 428.751 458.172
935 0 67.3133 15.2273 1025 110.857 429.055 461.354
936 0 70.2761 14.7703 1038 111.049 430.559 462.936
937 0 70.2782 12.9628 911 115.146 430.408 459.409
938 0 72.3913 14.2282 1030 112.901 430.652 459.258
939 0 74.2077 14.9445 1109 111.235 431.864 461.197
940 0 78.3118 15.7575 1234 109.899 430.914 458.064
941 0 80.1751 12.3604 991 115.247 431.71 460.638
942 0 80.1473 13.2132 1059 114.283 431.314 461.658
943 0 84.1303 13.4315 1130 114.449 431.104 456.704
944 0 90.2354 14.7503 1331 110.926 432.183 458.467
945 0 90.5426 15.4734 1401 110.096 431.976 450.935
946 0 92.5603 14.7471 1365 111.798 432.681 450.66
947 0 99.7008 14.6238 1458 110.63 431.464 453.798
948 1 50.1889 9.44432 474 114.941 432.251 476.198
949 0 53.1382 9.76699 519 112.597 433.073 480.979
950 0 53.3194 10.6903 570 114.73 433.598 476.474
951 0 56.0853 11.5182 646 113.074 432.272 477.509
952 0 59.0338 12.9248 763 109.325 428.575 479.021
953 0 63.1709 15.0227 949 106.646 429.631 479.633
954 0 61.0745 11.9854 732 114.051 428.622 476.432
955 0 64.0766 14.7012 942 109.83 427.579 477.719
956 0 65.0956 8.41839 548 120.453 427.657 477.398
957 0 68.4053 9.48757 649 120.085 427.151 474.365
958 0 74.2076 11.7912 875 111.31 428.009 474.896
959 0 73.1714 13.6939 1002 112.577 426.163 473.754
960 0 77.1291 13.0431 1006 114.212 425.959 470.39
961 0 79.147 13.1022 1037 113.83 424.435 468.923
962 1 39.0838 7.29202 285 118.291 427.463 490.975
963 0 43.135 11.8697 512 110.652 425.23 485.119
964 0 44.052 12.9393 570 107.149 424.746 486.767
965 0 41.0742 10.3228 424 117.314 423.528 480.288
966 0 43.1592 10.6119 458 116.502 424.247 484.199
967 0 45.0667 12.5148 564 106.108 425.082 486.644
968 0 43.0851 10.3516 446 111.794 424.374 484.895
969 0 48.1129 12.3875 596 107.733 424.388 481.55
970 0 46.1763 12.5606 580 108.671 425.114 480.398
971 0 50.1929 12.5516 630 107.173 424.549 480.565
972 0 50.1072 9.59941 481 113.597 425.353 474.489
973 0 50.042 13.4487 673 109.504 424.783 475.782
974 0 53.0876 14.3913 764 108.075 425.139 472.822
975 0 56.0518 11.6856 655 112.834 425.215 474.049
976 0 56.2723 12.4395 700 112.729 425.357 471.841
977 0 57.2157 13.72 785 109.716 425.203 470.064
978 0 59.0742 13.1191 775 110.894 427.297 466.221
979 0 62.1294 12.4579 774 115.917 426.585 467.291
980 0 67.1631 14.1744 952 111.458 427.328 464.467
981 0 68.1059 15.608 1063 108.045 427.512 465.219
982 0 70.1344 13.688 960 114.171 428.145 462.677
983 0 72.1926 13.6025 982 109.406 428.911 466.05
984 0 74.2102 16.6015 1232 105.761 428.981 461.214
985 0 77.4796 14.1328 1095 109.374 430.163 465.435
986 1 37.0721 11.0326 409 110.851 430.254 477.271
987 0 41.0737 14.6566 602 106.324 430.643 481.696
988 0 45.4184 16.6232 755 105.171 431.776 478.375
989 0 43.0268 11.7136 504 114.052 430.887 480.923
990 0 46.1067 10.6492 491 117.582 431.212 480.719
991 0 45.0837 12.1108 546 115.626 432.209 480.306
992 0 48.3026 12.1318 586 107.186 434.324 486.488
993 0 44.1387 11.192 494 113.834 434.279 484.607
994 0 44.1387 11.2826 498 149.645 435.273 484.566
995 0 49.2855 10.6725 526 111.958 432.601 482.97
996 0 51.3476 12.9899 667 113.928 433.384 480.874
997 0 55.2034 15.3976 850 110.516 431.881 479.626
998 0 55.1572 12.2196 674 115.671 431.364 481.939
999 0 64.2205 13.0644 839 112.234 431.218 481.379
1000 0 61.2797 13.6913 839 114.122 429.932 480.173
1001 0 62.4306 11.8532 740 118.236 428.928 476.18
1002 0 66.2658 13.5515 898 114.364 427.828 476.393
1003 0 73.8472 14.9498 1104 109.982 428.543 477.696
1004 0 69.2402 11.814 818 117.932 428.115 473.407
1005 0 73.3295 12.4779 915 118.658 426.22 469.168
1006 0 73.3295 12.437 912 137.776 424.218 469.155
1007 1 39.2175 8.5421 335 115.749 426.2 488.663
1008 0 39.2227 12.0594 473 108.374 426.015 489.317
1009 0 41.1271 10.7958 444 109.482 425.214 487.757
1010 0 43.0833 14.0193 604 107.099 424.636 483.012
1011 0 42.061 10.6274 447 112.604 425.68 481.577
1012 0 42.1049 9.66633 407 112.686 427.079 481.523
1013 0 46.1102 12.687 585 107.205 426.173 481.703
1014 0 45.0595 8.54426 385 117.787 423.59 479.631
1015 0 46.1604 10.1819 470 115.815 422.964 476.064
1016 0 49.0611 13.0653 641 110.886 425.053 475.051
1017 0 51.1495 12.2191 625 111.266 425.512 474.848
1018 0 51.2741 9.82952 504 118.298 424.712 472.103
1019 0 52.1699 10.9833 573 116.311 425.253 473.419
1020 0 55.1235 12.6988 700 114.343 426.444 470.171
1021 0 57.1183 12.9381 739 113.839 426.622 468.608
1022 0 58.2782 12.2859 716 115.777 426.568 467.701
1023 0 60.132 10.9592 659 117.587 427.436 468.968
1024 0 64.2414 14.2276 914 112.324 427.324 463.07
1025 0 66.3465 13.7309 911 110.84 429.031 465.603
1026 0 69.247 14.6288 1013 110.039 428.192 459.755
1027 0 72.2936 10.5404 762 118.857 428.047 463.291
1028 0 75.4888 16.2806 1229 109.312 426.679 458.843
1029 0 75.3468 14.5461 1096 112.629 427.019 460.775
1030 0 78.3967 12.9342 1014 115.498 427.9 461.24
1031 1 38.0415 11.3297 431 120.079 426.979 478.979
1032 0 43.1749 13.5264 584 113.219 427.43 477.341
1033 0 43.1449 11.9829 517 118.667 427.992 476.416
1034 0 42.1395 11.6043 489 120.867 427.274 474.838
1035 0 43.2064 9.18844 397 124.252 427.819 477.564
1036 0 45.0946 10.6665 481 121.48 425.399 481.362
1037 0 48.0362 13.698 658 116.011 426.995 480.657
1038 0 49.0303 12.2781 602 119.503 426.844 482.05
1039 0 51.17 12.8591 658 119.515 426.695 479.845
1040 0 47.1182 9.38067 442 128.758 425.434 479.667
1041 0 53.1534 13.1318 698 118.63 425.347 483.692
1042 0 54.0438 11.4352 618 124.003 424.917 481.778
1043 0 54.0772 12.5376 678 125.299 424.019 477.674
1044 0 58.05 13.5917 789 121.74 423.136 478.4
1045 0 60.0709 13.8503 832 119.713 423.2 477.831
1046 0 62.0437 14.0868 874 119.429 422.99 476.791
1047 0 64.1144 13.3823 858 121.79 422.401 475.014
1048 0 66.1734 13.3588 884 122.191 421.742 469.079
1049 0 66.3472 12.5702 834 124.662 420.988 470.839
1050 0 66.1712 12.4677 825 125.902 419.903 468.343
1051 0 70.102 11.7686 825 124.205 421.263 471.148
1052 0 72.07 11.253 811 124.837 420.674 471.234
1053 0 73.2097 12.9218 946 123.162 420.983 465.607
1054 0 74.2841 10.8233 804 127.148 420.294 463.558
1055 0 78.2135 11.9545 935 125.125 419.814 458.124
1056 1 43.2602 11.0263 477 122.516 420.904 476.933
1057 0 46.1848 13.7708 636 116.409 421.509 475.616
1058 0 47.062 13.4078 631 116.433 420.897 474.998
1059 0 46.1582 11.2873 521 122.848 422.2 472.925
1060 0 48.242 13.8054 666 118.446 422.408 470.004
1061 0 51.1283 14.7863 756 114.778 423.046 472.499
1062 0 51.0435 14.3995 735 114.336 422.808 472.131
1063 0 55.0965 12.1423 669 115.245 423.247 470.891
1064 0 57.1136 13.7796 787 114.213 423.354 468.87
1065 0 59.1081 14.7865 874 113.397 423.957 467.573
1066 0 58.103 13.8547 805 128.481 424.887 466.404
1067 0 61.1687 15.3673 940 116.912 425.029 463.234
1068 0 65.5015 12.4272 814 120.571 426.62 464.28
1069 0 64.2492 12.3581 794 121.89 427.314 463.277
1070 0 67.1005 12.9507 869 120.186 428.787 463.756
1071 0 69.2372 13.6343 944 120.174 430.177 461.915
1072 0 71.2235 13.2821 946 120.168 430.281 464.498
1073 0 71.2235 13.1979 940 129.198 431.258 464.5
1074 0 77.3498 14.415 1115 118.728 433.482 462.914
1075 0 78.2039 11.6107 908 123.279 432.84 460.155
1076 0 81.26 13.6845 1112 120.2 433.349 457.067
1077 0 82.2292 9.52216 783 124.88 432.802 462.722
1078 0 88.7904 14.6525 1301 115.826 432.637 461.856
1079 0 89.4612 12.4412 1113 120.334 432.49 458.722
1080 0 95.7106 12.9139 1236 118.558 431.235 460.006
1081 0 99.249 13.0379 1294 117.852 431.817 458.426
1082 0 101.238 13.8979 1407 116.864 431.656 456.62
1083 1 50.1092 11.3353 568 117.879 431.674 479.056
1084 0 55.0606 13.7666 758 111.77 431.183 481.42
1085 0 57.052 11.2354 641 116.223 430.616 481.083
1086 0 59.1763 12.7416 754 114.755 430.357 481.606
1087 0 59.27 14.4255 855 113.132 429.565 474.172
1088 0 62.4516 12.5377 783 115.653 427.563 479.875
1089 0 64.2714 11.7471 755 117.336 427.682 471.229
1090 0 65.2139 15.0428 981 112.394 426.241 470.586
1091 0 68.5043 13.7801 944 114.566 426.25 468.075
1092 0 69.2641 13.4702 933 115.77 426.154 466.936
1093 0 70.1152 14.248 999 114.083 425.272 472.123
1094 0 73.0746 12.3162 900 115.897 423.761 471.864
1095 0 75.1334 12.5244 941 115.651 423.82 468.319
1096 0 80.2088 13.1781 1057 113.149 423.728 468.607
1097 0 80.3562 12.0837 971 115.108 424.63 465.585
1098 0 80.1995 10.212 819 117.117 424.001 461.965
1099 0 86.2823 12.8184 1106 112.931 424.028 460.779
1100 0 88.2927 13.3193 1176 110.996 424.212 460.539
1101 0 90.3746 12.0166 1086 113.903 424.38 457.366
1102 0 94.7733 15.5424 1473 108.723 423.56 454.664
1103 0 95.2784 11.4192 1088 113.135 424.458 452.774
1104 0 100.437 11.8881 1194 114.211 424.914 449.858
1105 0 103.55 14.8045 1533 108.925 424.865 449.17
1106 1 56.352 10.4344 588 110.06 425.474 467.891
1107 0 59.459 13.3874 796 105.675 424.524 467.46
1108 0 61.204 13.4142 821 105.809 426.48 466.661
1109 0 63.3323 11.2897 715 109.408 425.527 464.951
1110 0 67.369 11.6671 786 107.388 427.308 468.489
1111 0 68.2508 13.1574 898 109.932 427.477 463.546
1112 0 71.4224 16.2694 1162 105.789 428.741 462.459
1113 0 73.1452 12.0445 881 112.503 428.335 463.311
1114 0 76.3076 17.6654 1348 104.2 428.956 461.975
1115 0 79.2746 15.2003 1205 107.412 429.651 462.025
1116 0 80.2097 14.512 1164 109.175 430.278 458.655
1117 0 84.5526 13.5064 1142 110.395 429.778 459.061
1118 0 86.7054 15.6738 1359 109.265 431.606 456.95
1119 0 89.4789 13.0645 1169 114.621 430.535 455.939
1120 0 92.4478 13.7699 1273 114.484 431.488 457.677
1121 1 52.528 12.0698 634 111.055 430.147 478.872
1122 0 51.3086 12.6684 650 112.438 431.035 479.16
1123 0 55.0765 13.6537 752 109.586 431.847 479.033
1124 0 55.0405 16.933 932 103.964 430.246 484.622
1125 0 56.3049 12.5033 704 113.239 430.02 480.541
1126 0 56.3989 11.3477 640 116.459 429.395 482.55
1127 0 60.2593 12.6122 760 113.838 429.654 477.725
1128 0 61.2209 15.4032 943 109.592 428.287 479.214
1129 0 62.3452 10.105 630 118.263 426.911 478.422
1130 0 65.3177 13.3348 871 115.42 426.755 476.666
1131 0 68.2091 13.0188 888 116.382 425.784 476.759
1132 0 67.1974 13.2594 891 117.971 425.016 474.159
1133 0 70.2669 12.9791 912 119.578 424.43 473.505
1134 0 72.1482 13.6109 982 121.147 422.894 473.424
1135 0 73.2481 12.8877 944 122.283 424.247 471.508
1136 0 77.2066 14.1698 1094 119.73 422.845 470.165
1137 0 80.1855 16.0004 1283 116.299 423.486 465.764
1138 0 83.3598 13.9636 1164 120.618 423.291 466.6
1139 0 84.3341 14.1817 1196 120.653 422.569 462.604
1140 0 86.2296 13.3829 1154 120.647 422.173 463.065
1141 0 89.3836 15.4503 1381 116.591 423.353 462.413
1142 0 90.454 9.8282 889 125.93 421.6 454.315
1143 1 52.5481 12.1413 638 115.299 421.26 472.111
1144 0 53.0861 11.227 596 122.248 422.829 471.163
1145 0 53.0903 11.9419 634 121.64 423.912 470.334
1146 0 57.0564 15.7563 899 113.438 424.444 472.161
1147 0 56.1118 10.6751 599 119.255 423.088 471.334
1148 0 58.1189 11.9754 696 116.767 423.02 470.223
1149 0 61.1967 13.2033 808 117.894 423.328 466.673
1150 0 61.354 11.5559 709 121.133 422.884 465.261
1151 0 64.202 11.2146 720 121.056 424.554 462.942
1152 0 67.211 11.8135 794 121.579 425.832 461.634
1153 0 69.2524 13.4291 930 118.823 425.659 458.842
1154 0 69.2885 12.2964 852 120.69 426.813 460.107
1155 0 72.1776 15.3372 1107 115.346 427.431 460.107
1156 0 75.4015 12.334 930 120.18 428.127 459.751
1157 0 78.2573 13.0595 1022 118.12 427.958 454.98
1158 0 81.4412 13.8996 1132 117.267 427.539 456.066
1159 0 84.3399 13.4456 1134 117.778 429.547 456.309
1160 0 84.3399 13.4219 1132 133.889 431.557 456.216
1161 1 47.1224 11.7354 553 115.382 429.772 475.501
1162 0 47.1048 12.3342 581 114.429 429.448 477.361
1163 0 46.221 8.52426 394 120.069 433.358 476.716
1164 0 50.0631 13.0436 653 110.694 433.403 478.257
1165 0 49.0752 8.86395 435 121.49 431.871 474.839
1166 0 53.1166 11.4653 609 116.048 431.719 477.404
1167 0 55.1213 11.3205 624 116.171 429.053 478.338
1168 1 110.152 9.41426 1037 126.253 430.143 449.206
1169 0 115.451 14.0319 1620 117.499 429.847 448.367
1170 1 58.0928 15.7162 913 110.963 427.488 477.072
1171 0 56.1371 7.73107 434 124.47 427.793 477.302
1172 0 63.1558 12.8729 813 114.643 426.524 478.743
1173 0 63.0943 10.302 650 119.231 426.842 479.825
1174 0 62.055 10.813 671 118.928 425.912 474.297
1175 0 67.0574 15.6284 1048 110.473 424.906 474.088
1176 0 70.0395 12.0789 846 116.106 424.709 470.864
1177 0 68.1756 11.6904 797 117.607 424.167 467.378
1178 0 75.1017 11.571 869 116.687 423.806 471.674
1179 0 74.2131 12.0194 892 117.526 423.136 469.418
1180 0 80.0912 11.9738 959 116.552 422.752 469.221
1181 0 79.0583 12.0544 953 116.099 421.358 465.516
1182 0 80.2253 12.0411 966 116.98 420.821 464.15
1183 0 86.3268 9.82314 848 118.772 420.757 463.511
1184 0 88.3242 10.5294 930 117.915 421.282 460.211
1185 0 92.2428 10.5482 973 118.536 421.186 459.094
1186 1 52.1754 11.2314 586 116.526 420.193 477.148
1187 0 51.2983 10.936 561 117.75 421.683 474.276
1188 0 52.039 8.91639 464 121.694 420.511 471.636
1189 0 56.0431 13.0079 729 114.484 421.18 471.587
1190 0 58.0601 13.7961 801 110.878 420.471 472.001
1191 0 61.1611 13.4072 820 112.295 423.234 469.827
1192 0 60.1397 10.5255 633 119.224 423.335 469.013
1193 0 60.0197 12.7292 764 115.658 423.403 465.966
1194 0 63.2386 13.1723 833 115.653 425.466 465.192
1195 0 67.173 15.9439 1071 110.152 425.192 462.979
1196 0 66.1924 10.3637 686 119.517 426.121 465.229
1197 0 72.6084 16.0037 1162 111.083 427.575 457.885
1198 0 71.4832 11.5272 824 120.775 427.669 457.768
1199 0 74.5095 13.2332 986 118.396 428.702 456.57
1200 0 76.4377 12.677 969 118.304 429.172 458.525
1201 0 81.5283 16.1784 1319 111.6 430.259 460.122
1202 0 80.5276 11.2136 903 122.385 430.104 458.461
1203 0 85.1666 11.2251 956 119.873 430.786 455.605
1204 0 89.3717 13.7963 1233 115.632 430.291 458.637
1205 0 92.2207 12.4701 1150 118.517 430.957 456.363
1206 1 49.0553 9.56064 469 119.094 432.151 483.708
1207 0 51.2499 11.4147 585 119.489 432.691 476.099
1208 0 50.2865 10.7782 542 115.985 432.116 473.801
1209 0 55.1111 13.9536 769 112.485 430.402 481.648
1210 0 56.0975 11.0878 622 120.677 429.682 478.823
1211 0 58.0248 11.5812 672 120.372 429.025 479.893
1212 0 58.1711 13.4087 780 119.108 429.215 477.145
1213 0 58.1711 13.4259 781 135.511 429.225 477.138
1214 0 60.146 9.65982 581 121.045 428.005 479.27
1215 0 66.086 13.891 918 115.634 427.024 481.601
1216 0 67.1055 13.6204 914 116.952 425.774 476.465
1217 0 67.1467 12.8525 863 119.33 425.527 476.878
1218 0 69.2958 12.7713 885 118.85 424.756 474.692
1219 0 70.0788 15.9249 1116 115.384 424.874 470.847
1220 0 75.2163 15.4754 1164 112.945 424.799 474.598
1221 0 78.1647 15.0452 1176 113.702 422.782 471.269
1222 0 78.1253 14.6559 1145 116.466 424.032 465.978
1223 0 82.3982 14.1751 1168 116.427 423.438 467.116
1224 0 80.0985 12.3598 990 120.296 423.602 466.608
1225 0 84.1997 12.4585 1049 120.332 422.43 463.379
1226 0 87.1348 16.4802 1436 113.826 422.807 458.62
1227 0 91.1835 15.0466 1372 115.104 422.545 460.926
1228 0 91.2279 12.9346 1180 120.021 422.673 453.966
1229 0 94.2497 13.2945 1253 120.783 422.346 451.1
1230 0 102.581 20.7349 2127 106.615 422.798 439.497
1231 0 100.502 14.7061 1478 118.699 424.963 445.932
1232 0 104.358 17.9096 1869 112.944 424.744 445.848
1233 0 110.388 15.8984 1755 115.487 425.224 447.684
1234 0 112.501 17.4133 1959 114.087 425.301 440.402
1235 0 115.306 14.6306 1687 119.255 426.889 442.369
1236 1 63.1879 12.6607 800 116.865 425.741 466.73
1237 0 62.1701 9.53835 593 124.04 427.565 464.111
1238 0 62.1701 9.55444 594 144.301 428.588 464.32
1239 0 71.4747 15.9497 1140 112.612 428.512 458.785
1240 0 70.3265 12.0723 849 118.519 429.072 461.728
1241 0 73.5181 12.4051 912 120.06 428.735 453.049
1242 0 76.4812 13.5066 1033 116.901 429.708 454.359
1243 0 80.4921 12.9951 1046 117.643 431.004 454.097
1244 0 80.5138 11.8613 955 120.481 430.511 448.895
1245 0 86.3847 15.1068 1305 114.172 431.91 452.464
1246 0 89.4039 15.8382 1416 111.367 432.867 457.745
1247 0 88.4077 12.3179 1089 120.114 432.468 450.197
1248 0 92.6266 14.8769 1378 115.816 432.631 448.953
1249 0 94.5691 14.4868 1370 116.831 431.893 449.975
1250 0 95.3635 12.94 1234 119.934 433.068 455.334
1251 0 100.589 13.2917 1337 118.414 432.545 458.141
1252 0 102.757 13.7217 1410 119.186 433.247 452.982
1253 0 105.373 12.9919 1369 120.859 431.986 453.283
1254 0 108.532 12.5401 1361 122.519 431.76 454.71
1255 0 111.351 13.0847 1457 121.963 431.32 448.547
1256 0 117.168 15.8405 1856 116.568 431.475 451.085
1257 0 119.522 11.6715 1395 125.196 430.667 446.725
1258 0 122.411 13.3975 1640 122.454 430.657 447.859
1259 0 126.563 12.9738 1642 124.282 430.412 443.426
1260 0 130.662 12.8576 1680 124.81 428.049 439.145
1261 0 134.252 13.9067 1867 122.442 426.753 441.453
1262 1 75.4301 13.3501 1007 117.383 427.294 468.923
1263 0 78.225 13.7168 1073 118.385 426.196 465.29
1264 0 79.2862 9.6612 766 126.999 425.612 459.624
1265 0 83.236 13.708 1141 119.587 423.996 461.577
1266 0 85.2878 12.1823 1039 121.432 424.013 463.383
1267 0 90.2963 13.7104 1238 118.742 424.061 464.57
1268 0 89.4394 10.8677 972 128.678 424.264 455.473
1269 0 94.4673 12.6711 1197 123.586 423.486 456.993
1270 0 98.3986 13.5571 1334 121.427 423.277 454.458
1271 0 102.503 15.6873 1608 117.824 423.943 448.872
1272 0 98.7248 11.5169 1137 122.722 423.676 453.683
1273 0 108.425 11.5195 1249 122.633 423.482 443.812
1274 1 59.3936 12.7623 758 116.013 423.439 469.743
1275 0 59.3936 12.8633 764 123.973 422.45 469.847
1276 0 63.228 13.5225 855 115.671 424.38 464.544
1277 0 64.45 11.1249 717 121.516 426.307 464.269
1278 0 67.333 14.1684 954 116.514 425.836 458.702
1279 0 71.267 15.6313 1114 112.625 425.87 458.915
1280 0 69.3396 10.0952 700 124.196 426.886 459.537
1281 0 72.3197 9.51332 688 124.974 427.756 456.503
1282 0 74.5945 13.9957 1044 118.683 428.483 453.432
1283 0 76.3231 12.6829 968 121.195 429.158 455.282
1284 0 80.3843 13.0747 1051 121.336 429.921 455.206
1285 0 84.5495 14.3466 1213 118.343 431.062 456.229
1286 0 84.5495 14.4294 1220 132.84 433.068 456.201
1287 0 88.2869 12.1196 1070 122.57 430.801 450.441
1288 0 90.6442 15.8201 1434 116.401 431.281 453.955
1289 1 50.3585 11.7358 591 119.677 432.144 471.569
1290 0 54.2091 10.5148 570 114.454 430.791 471.428
1291 0 56.3062 11.917 671 111.232 430.703 473.149
1292 0 58.3082 13.463 785 107.646 429.92 475.143
1293 0 60.1111 13.4751 810 110.642 430.079 477.12
1294 0 57.1198 12.2024 697 115.461 429.58 473.274
1295 0 62.2788 12.1068 754 115.92 430.195 475.557
1296 0 63.4061 13.311 844 114.02 429.358 474.295
1297 0 64.1628 13.7619 883 115.032 429.257 474.456
1298 0 68.197 11.9653 816 120.203 429.453 475.806
1299 0 70.3042 13.1002 921 118.377 429.191 474.419
1300 0 74.3675 12.2231 909 119.778 428.657 473.669
1301 0 74.4083 14.4876 1078 117.67 428.59 476.33
1302 0 74.5325 10.5726 788 120.242 426.514 471.35
1303 0 74.5325 10.5726 788 142.141 424.516 471.623
1304 0 83.7795 12.0316 1008 115.837 425.188 470.371
1305 1 43.2215 11.3832 492 115.264 424.774 487.069
1306 0 44.3925 11.6912 519 116.11 424.547 484.046
1307 0 46.4099 9.35146 434 119.316 424.691 478.811
1308 0 47.6282 13.9203 663 114.857 422.992 478.256
1309 0 51.6118 14.0859 727 112.878 423.337 480.08
1310 0 53.5086 19.866 1063 104.25 422.852 475.309
1311 0 55.6874 13.7913 768 113.516 422.057 472.51
1312 0 55.3759 13.8147 765 115.037 421.553 474.061
1313 0 60.4901 16.5978 1004 106.687 421.175 465.928
1314 0 54.2286 12.392 672 117.805 421.195 473.475
1315 0 57.2894 11.3285 649 120.046 422.176 471.066
1316 0 60.4985 15.1243 915 113.635 422.552 469.009
1317 0 62.5082 13.4542 841 117.084 422.402 464
1318 0 63.4389 16.8036 1066 110.965 423.088 464.406
1319 0 65.2768 12.0563 787 119.554 422.659 459.997
1320 0 64.5382 12.1014 781 120.038 423.337 462.31
1321 0 67.6188 14.2712 965 116.067 425.042 463.263
1322 0 68.3718 13.5875 929 116.328 424.531 463.953
1323 0 70.4126 12.7818 900 120.689 426.654 456.762
1324 0 74.6767 15.922 1189 115.417 427.5 454.759
1325 0 75.7195 13.6689 1035 119.305 427.252 456.938
1326 0 79.6394 13.6993 1091 119.282 428.853 455.041
1327 0 81.2232 18.4676 1500 109.341 428.401 450.95
1328 0 82.4743 15.6049 1287 113.159 429.221 457.148
1329 0 86.3084 16.105 1390 112.259 430.826 455.745
1330 0 87.4905 14.1272 1236 116.338 430.642 453.911
1331 0 89.4031 14.7982 1323 115.732 431.252 451.965
1332 0 94.4268 15.1864 1434 114.283 430.225 456.197
1333 1 52.2795 12.5671 657 115.46 432.359 479.163
1334 0 51.3402 13.1671 676 114.169 430.919 477.053
1335 0 55.2479 16.2359 897 111.891 431.876 477.136
1336 0 57.3113 13.3656 766 117.385 431.255 475.898
1337 0 59.249 15.4095 913 113.907 429.962 477.05
1338 0 61.2289 14.405 882 116.366 431.203 477.228
1339 0 60.1238 14.1708 852 119.413 431.001 476.068
1340 0 64.376 13.8716 893 118.434 430.177 476.654
1341 0 66.1531 14.9199 987 118.964 429.92 475.091
1342 0 68.3132 17.0977 1168 115.14 427.261 472.608
1343 0 69.4722 13.2283 919 125.75 428.242 473.131
1344 0 69.1484 14.505 1003 125.076 426.777 472.373
1345 0 73.3106 13.6679 1002 124.588 426.83 466.218
1346 0 75.5761 13.9462 1054 124.144 425.562 462.06
1347 0 78.4511 14.4421 1133 123.093 426.12 462.228
1348 0 80.5093 18.5693 1495 114.868 426.003 466.125
1349 0 80.2747 14.9611 1201 122.811 424.941 451.137
1350 0 83.3085 16.1328 1344 120.338 424.345 447.676
1351 0 85.2771 15.0568 1284 122.213 423.667 450.212
1352 0 88.3461 14.2734 1261 123.626 423.928 453.343
1353 0 91.4775 14.3642 1314 123.568 424.116 455.133
1354 0 92.6357 15.6635 1451 122.428 423.47 452.367
1355 0 96.5886 13.6869 1322 126.068 422.096 452.242
1356 0 100.276 18.3395 1839 116.577 423.394 445.391
1357 0 105.74 17.0796 1806 118.332 424.645 443.781
1358 0 106.497 14.0286 1494 125.705 423.575 437.697
1359 0 107.441 13.1049 1408 128.427 424.568 430.19
1360 1 43.1075 8.07284 348 122.822 424.71 461.882
1361 0 46.1293 10.7741 497 118.076 424.666 458.416
1362 0 50.0918 11.8982 596 114.277 425.899 458.297
1363 0 48.2419 8.39519 405 122.02 425.63 456.319
1364 0 52.2061 15.1515 791 109.186 427.378 465.676
1365 0 53.1206 10.9374 581 121.678 427.516 469.602
1366 0 56.205 12.0986 680 118.835 426.85 469.043
1367 0 57.1113 14.463 826 115.196 427.679 470.864
1368 0 60.1634 15.2584 918 113.428 427.626 466.508
1369 0 61.1224 14.1356 864 116.395 427.894 465.688
1370 0 64.0863 13.8719 889 118.558 427.938 465.922
1371 0 64.1687 10.8932 699 124.818 429.127 466.461
1372 0 67.1479 12.6735 851 120.365 429.313 464.338
1373 0 69.0596 13.5535 936 119.193 430.526 463.388
1374 0 71.0447 13.7941 980 118.151 429.659 463.559
1375 0 77.121 17.881 1379 109.071 430.614 460.793
1376 0 79.1905 15.9741 1265 112.026 430.874 460.519
1377 0 78.1852 12.6622 990 117.754 430.45 466.522
1378 1 43.0219 8.80947 379 118.269 429.216 485.472
1379 0 43.1356 9.99175 431 119.174 430.084 484.097
1380 0 45.3575 8.55426 388 121.977 430.982 483.745
1381 0 48.2325 11.8592 572 117.769 428.984 480.337
1382 0 47.2151 9.80618 463 115.581 427.46 484.907
1383 0 51.1117 8.72599 446 116.989 428.874 486.872
1384 0 51.1375 11.2246 574 114.772 427.693 484.312
1385 0 53.0536 12.6664 672 114.305 427.893 481.771
1386 0 53.1237 11.7085 622 116.346 426.198 484.537
1387 0 53.0334 8.65493 459 121.597 425.95 484.804
1388 0 57.1145 12.7113 726 113.438 424.289 484.285
1389 0 60.1875 13.4579 810 114.338 423.759 480.473
1390 0 62.1669 13.882 863 114.185 423.671 480.603
1391 0 64.423 11.5952 747 117.921 423.942 477.224
1392 0 65.182 12.3194 803 117.344 423.168 473.756
1393 0 69.1286 13.1205 907 116.293 423.256 471.295
1394 0 71.1408 10.177 724 122.529 422.601 468.477
1395 0 74.1996 12.7359 945 118.105 422.256 470.707
1396 0 78.1489 15.7904 1234 117.005 420.868 462.671
1397 0 78.0919 11.6657 911 124.108 421.879 469.071
1398 0 80.1005 13.8826 1112 121.423 421.316 459.999
1399 1 40.0255 9.61887 385 123.579 421.291 481.753
1400 0 43.1816 12.019 519 117.663 420.343 482.38
1401 0 46.1691 11.3929 526 119.679 421.255 478.259
1402 0 46.4003 8.34046 387 124.106 423.475 471.734
1403 0 48.0531 12.4238 597 120.894 421.528 473.854
1404 0 47.0443 12.7114 598 116.117 422.241 477.097
1405 0 48.0567 12.4228 597 129.809 422.266 477.261
1406 0 52.0869 14.4758 754 113.566 423.255 472.786
1407 0 53.0848 11.9808 636 122.097 423.151 470.465
1408 0 54.1352 12.5796 681 123.298 424.311 470.62
1409 0 55.1882 13.4811 744 118.87 424.358 472.399
1410 0 54.1075 11.8838 643 123.512 425.966 470.16
1411 0 58.1224 15.1061 878 118.431 427.428 465.787
1412 0 59.1196 11.6543 689 124.102 426.836 468.154
1413 0 60.0769 11.4686 689 122.409 429.219 467.747
1414 0 64.2833 14.3272 921 120.698 430.087 465.286
1415 0 64.1395 14.5932 936 121.114 431.142 466.063
1416 0 65.2925 13.4166 876 125.116 431.868 465.083
1417 0 65.2925 13.3859 874 141.855 432.863 465.085
1418 0 69.147 14.9392 1033 122.352 431.664 466.063
1419 0 72.0663 14.1398 1019 123.856 431.554 464.559
1420 0 75.2603 13.5397 1019 124.013 431.972 463.283
1421 0 75.2446 12.9179 972 126.322 431.66 464.533
1422 0 80.2842 14.7227 1182 121.228 431.319 464.918
1423 0 83.17 13.5987 1131 122.928 430.21 465.206
1424 0 85.2162 12.9436 1103 122.426 430.844 464.578
1425 0 89.2194 13.3491 1191 121.102 430.648 460.89
1426 1 51.1607 12.6269 646 120.709 428.588 482.04
1427 0 56.1918 13.6675 768 117.883 428.452 483.168
1428 0 55.0321 13.8283 761 118.431 426.36 482.844
1429 0 54.046 12.3228 666 124.147 426.889 483.601
1430 0 57.0884 12.0515 688 123.823 425.446 480.17
1431 0 58.0989 14.0106 814 119.558 425.536 479.431
1432 0 58.1086 11.2892 656 125.428 424.439 475.229
1433 0 63.0621 12.4956 788 122.145 423.843 472.358
1434 0 69.1393 15.664 1083 114.017 422.755 475.402
1435 0 68.0801 13.822 941 119.484 422.898 470.385
1436 0 72.1007 12.7322 918 120.356 421.59 474.27
1437 0 72.0793 13.9707 1007 119.882 422.093 467.319
1438 0 77.1308 13.315 1027 119.923 422.209 467.088
1439 0 76.1245 15.0937 1149 117.712 422.001 464.483
1440 0 78.0989 12.5866 983 121.596 422.167 460.62
1441 0 81.1297 13.312 1080 120.341 421.562 459.456
1442 0 86.0905 13.9272 1199 117.27 421.728 460.858
1443 0 87.1314 14.3347 1249 116.825 422.042 458.873
1444 0 89.2937 12.3525 1103 121.458 422.675 453.378
1445 0 95.0762 16.3658 1556 113.963 422.468 449.609
1446 0 100.268 17.0243 1707 112.3 422.587 449.964
1447 0 100.191 15.4206 1545 117.68 424.142 446.195
1448 0 104.344 14.5577 1519 121.096 424.947 441.396
1449 0 108.497 18.3692 1993 113.714 426.018 441.779
1450 0 108.686 14.6385 1591 121.859 427.168 437.285
1451 0 113.452 13.8738 1574 123.835 426.671 439.593
1452 0 116.536 19.3761 2258 113.408 427.477 443.706
1453 0 116.536 19.2473 2243 137.199 428.488 443.718
1454 0 123.381 13.4948 1665 124.894 428.271 438.766
1455 0 128.631 12.9985 1672 126.202 429.197 430.992
1456 1 71.3002 11.6549 831 124.054 428.594 462.912
1457 0 79.255 13.3998 1062 120.296 428.83 460.164
1458 0 79.193 15.6832 1242 116.684 430.739 463.172
1459 0 80.2576 13.7059 1100 122.49 430.012 460.147
1460 0 84.278 14.1793 1195 121.229 431.458 457.395
1461 0 87.2654 14.2095 1240 120.375 431.318 460.027
1462 0 91.2764 13.9576 1274 120.952 431.276 459.641
1463 0 93.3882 12.9781 1212 122.348 430.714 460.478
1464 0 97.3384 15.3074 1490 118.007 430.962 458.771
1465 0 96.1713 13.6839 1316 120.703 430.527 461.265
1466 0 101.398 13.0477 1323 121.961 431.159 456.806
1467 0 107.324 19.7998 2125 109.585 429.872 455.278
1468 0 112.239 15.6898 1761 115.037 429.93 449.458
1469 0 117.536 16.3355 1920 113.606 428.499 447.221
1470 0 116.296 10.2927 1197 121.809 428.297 458.332
1471 0 124.404 14.7342 1833 115.712 428.417 443.289
1472 1 76.163 16.5303 1259 110.156 426.72 462.104
1473 0 78.1404 12.9894 1015 115.202 425.548 459.918
1474 0 79.0721 14.9484 1182 113.788 425.337 466.222
1475 0 86.1694 14.1814 1222 114.768 424.762 461.921
1476 0 87.3116 12.7474 1113 117.27 424.237 464.472
1477 0 91.1615 16.5421 1508 109.168 423.934 464.397
1478 0 92.1795 12.595 1161 116.456 422.823 461.568
1479 0 92.3336 12.639 1167 113.027 423.039 462.927
1480 0 97.0907 13.2453 1286 112.631 423.186 457.478
1481 0 100.121 15.5911 1561 111.063 421.82 452.936
1482 0 103.377 10.4472 1080 119.408 421.573 451.356
1483 0 109.235 12.1939 1332 115.756 422.273 451.059
1484 0 112.228 14.5775 1636 112.318 422.397 442.637
1485 0 115.25 16.2516 1873 108.376 423.336 444.865
1486 0 116.154 10.0901 1172 117.013 423.384 443.112
1487 1 63.2316 9.86849 624 114.649 424.875 456.954
1488 0 61.1054 13.0921 800 109.016 424.062 453.175
1489 0 69.1622 14.8925 1030 107.142 424.218 463.005
1490 0 72.1761 10.8208 781 112.335 422.522 464.512
1491 0 70.2385 12.2725 862 112.353 423.988 456.546
1492 0 75.2647 12.9011 971 110.459 425.181 454.37
1493 0 78.5604 14.0911 1107 108.33 425.573 455.473
1494 0 83.4726 14.6755 1225 106.083 425.938 454.325
1495 0 82.2389 12.8406 1056 108.669 426.35 452.403
1496 0 88.2674 15.7476 1390 103.905 427.705 445.545
1497 0 89.203 14.8426 1324 105.996 427.216 447.793
1498 0 94.3201 14.1963 1339 105.549 428.051 451.352
1499 0 94.341 11.2676 1063 109.975 429.254 446.511
1500 0 99.3357 14.9594 1486 104.417 428.91 445.584
1501 0 104.225 18.2202 1899 99.7167 429.87 447.618
1502 0 109.362 15.3984 1684 102.666 430.648 449.359
1503 1 54.2062 12.1573 659 106.678 430.782 470.625
1504 0 56.2021 11.9569 672 107.302 431.805 471.557
1505 0 57.1804 12.6967 726 105.636 431.347 471.528
1506 0 58.2084 14.345 835 104.265 432.881 471.182
1507 0 61.2285 13.8498 848 103.815 431.111 472.591
1508 0 64.2084 12.1479 780 105.962 431.23 474.07
1509 0 62.1393 9.83274 611 110.771 430.198 470.246
1510 0 68.1178 13.7262 935 105.162 430.675 471.831
1511 0 70.2695 13.2348 930 106.122 430.201 474.048
1512 0 69.3655 12.0377 835 107.613 429.43 474.971
1513 0 75.2203 13.9457 1049 105.287 429.752 470.847
1514 0 81.3553 14.6149 1189 103.046 428.998 468.283
1515 0 83.695 19.4755 1630 97.3595 427.237 459.983
1516 0 82.4743 15.1077 1246 104.915 426.523 465.165
1517 0 82.327 12.4261 1023 109.168 425.878 469.82
1518 0 87.344 13.0518 1140 108.797 425.801 466.352
1519 1 47.1776 10.0895 476 113.132 426.118 482.819
1520 0 51.1019 11.4477 585 107.605 425.962 483.875
1521 0 49.356 11.569 571 112.767 425.126 477.168
1522 0 54.3031 12.4302 675 110.399 424.243 476.956
1523 0 55.2387 11.9481 660 105.724 423.511 480.647
1524 0 56.0753 11.8947 667 106.477 422.042 477.339
1525 0 59.1034 11.1161 657 107.461 422.027 477.285
1526 0 60.1088 11.1631 671 108.085 422.401 479.179
1527 0 61.2264 11.0736 678 110.501 422.717 470.198
1528 0 65.1386 17.0252 1109 100.596 422.605 471.702
1529 0 68.194 11.306 771 107.302 422.674 470.988
1530 0 70.1341 14.4723 1015 104.034 423.206 465.568
1531 0 69.0566 12.4246 858 107.072 421.49 465.625
1532 0 77.1755 14.3828 1110 107.403 422.886 455.899
1533 0 78.1568 13.716 1072 109.437 422.163 454.65
1534 0 77.1313 19.3566 1493 119.951 422.332 458.851
1535 1 43.1262 11.2692 486 111.673 424.066 473.78
1536 0 48.1053 15.5492 748 103.066 425.703 474.059
1537 0 48.2311 16.338 788 101.368 427.745 469.674
1538 0 49.2093 13.087 644 106.329 427.266 472.183
1539 0 50.0857 11.8197 592 106.069 427.885 472.652
1540 0 52.0255 13.3781 696 103.79 429.06 472.397
1541 0 54.1372 14.8142 802 103.759 429.364 468.682
1542 0 56.1318 13.593 763 104.408 429.121 472.864
1543 0 56.1639 12.9621 728 106.985 429.548 471.212
1544 0 57.2892 14.2784 818 106.98 428.985 467.231
1545 0 56.1187 10.7807 605 113.182 429.365 466.369
1546 0 61.1839 14.1867 868 108.046 429.459 468.417
1547 0 64.1513 13.5929 872 109.01 429.732 469.734
1548 0 68.3282 19.421 1327 100.535 430.466 463.798
1549 0 66.1719 12.4826 826 112 429.654 468.866
1550 0 70.3225 14.5188 1021 108.798 429.787 471.429
1551 0 73.2799 15.0246 1101 109.497 429.292 469.431
1552 0 77.2154 15.3855 1188 108.021 429.371 465.406
1553 0 80.4105 14.5877 1173 110.184 429.425 469.141
1554 0 82.3 17.6306 1451 105.83 429.254 469.198
1555 0 84.2457 13.4488 1133 113.482 428.066 462.738
1556 0 85.2422 16.9048 1441 108.57 428.65 468.482
1557 0 90.3709 16.7753 1516 109.593 428.376 467.17
1558 0 89.19 13.6114 1214 117.143 427.347 462.169
1559 0 96.3844 15.4901 1493 111.673 426.841 464.078
1560 0 96.1692 11.1366 1071 119.414 425.669 464.746
1561 1 55.1508 10.3534 571 118.566 426.205 483.426
1562 0 54.143 11.9129 645 117.884 424.924 479.623
1563 0 64.3438 16.8004 1081 105.819 424.986 474.989
1564 0 63.3033 16.3025 1032 108.528 424.513 474.223
1565 0 62.2008 14.7426 917 112.506 423.421 470.631
1566 0 63.2124 11.7382 742 117.301 423.834 475.244
1567 0 65.2086 12.5904 821 117.505 423.592 472.223
1568 0 68.2514 14.1536 966 114.451 422.592 472.207
1569 0 69.2776 14.0594 974 116.005 422.96 467.304
1570 0 75.2063 15.4774 1164 111.555 422.097 468.509
1571 0 74.0931 13.4021 993 115.4 422.511 466.046
1572 0 79.1809 18.2241 1443 107.317 423.035 462.076
1573 0 79.2467 13.2371 1049 115.957 423.452 459.265
1574 0 90.5747 14.6178 1324 110.335 424.07 461.211
1575 0 87.1799 17.2402 1503 107.527 424.674 460.834
1576 0 89.3423 15.1776 1356 113.248 424.704 451.777
1577 1 48.1595 10.4237 502 117.801 425.916 470.293
1578 0 50.3652 11.9527 602 113.919 425.749 471.841
1579 0 61.6684 16.7022 1030 101.774 426.97 471.849
1580 0 55.3498 14.9594 828 109.094 427.698 469.793
1581 0 57.4567 17.6307 1013 104.677 428.012 470.214
1582 0 57.349 14.682 842 111.759 427.796 467.843
1583 0 59.6105 15.3832 917 109.529 428.205 464.22
1584 0 68.4022 23.2887 1593 95.9743 428.788 466.051
1585 0 61.1546 13.0652 799 113.383 429.805 469.985
1586 0 62.2414 14.026 873 113.914 429.899 465.126
1587 0 65.1422 14.9212 972 110.439 429.999 468.649
1588 0 69.3992 19.8273 1376 104.015 430.132 465.895
1589 0 68.1681 14.5229 990 112.649 429.241 469.395
1590 0 72.3156 16.1653 1169 110.588 429.246 462.511
1591 0 72.3932 14.2555 1032 113.907 429.696 467.188
1592 0 73.2537 12.2588 898 117.42 429.833 468.345
1593 0 75.1215 12.3799 930 117.165 429.166 466.717
1594 0 83.2484 15.8562 1320 109.923 430.451 462.449
1595 0 85.3971 17.6001 1503 106.614 429.758 470.234
1596 0 84.3165 14.8844 1255 112.708 428.132 465.514
1597 0 87.3152 16.1484 1410 108.774 427.942 471.782
1598 0 91.6358 15.5398 1424 113.324 428.272 457.635
1599 0 94.2453 14.9928 1413 114.141 428.521 453.439
1600 0 96.277 13.0976 1261 114.931 428.968 448.412
1601 0 100.541 14.7203 1480 112.154 427.113 451.251
1602 1 55.2412 12.4364 687 108.905 427.457 476.562
1603 0 57.4989 15.3742 884 103.89 426.222 480.757
1604 0 57.2593 12.7141 728 109.503 425.878 477.364
1605 0 59.2739 14.0703 834 107.603 424.776 474.314
1606 0 60.0928 16.0086 962 104.73 424.328 476.655
1607 0 63.2544 14.8448 939 105.062 423 478.561
1608 0 68.348 16.021 1095 101.604 422.389 479.346
1609 0 68.3555 15.6681 1071 107.106 422.148 474.354
1610 0 69.156 15.747 1089 108.185 422.45 471.017
1611 0 71.1446 11.6242 827 113.226 421.805 472.577
1612 0 75.4324 20.2168 1525 101.387 422.127 459.373
1613 0 78.1071 16.695 1304 106.039 421.293 466.861
1614 0 80.2579 15.5997 1252 107.395 421.467 466.375
1615 0 81.2663 13.1543 1069 114.361 420.377 458.892
1616 0 81.2663 13.2281 1075 153.508 419.366 458.863
1617 0 87.1698 13.6515 1190 112.435 422.468 458.902
1618 0 90.597 14.2941 1295 114.071 423.114 450.957
1619 0 93.4848 17.1151 1600 108.737 423.48 447.796
1620 0 99.7516 18.3656 1832 103.437 424.472 452.595
1621 0 99.2986 13.263 1317 112.767 424.571 445.947
1622 0 102.246 13.6338 1394 110.821 424.579 445.139
1623 0 109.25 13.4279 1467 110.676 424.02 443.979
1624 1 54.0621 13.9469 754 106.086 425.382 470.702
1625 0 60.2263 13.4327 809 106.831 425.925 460.765
1626 0 62.1058 14.1855 881 105.982 426.385 461.135
1627 0 65.2068 13.8636 904 106.729 426.748 459.508
1628 0 63.1655 11.4145 721 111.677 427.14 462.598
1629 0 67.238 14.233 957 107.14 427.585 464.465
1630 0 69.2918 12.8442 890 109.236 427.609 464.451
1631 0 72.0825 18.6314 1343 100.026 428.518 465.393
1632 0 76.21 18.1997 1387 100.489 428.739 464.858
1633 0 75.0691 14.9995 1126 107.02 428.481 460.151
1634 0 78.1903 11.3057 884 111.264 430.046 465.008
1635 0 78.1632 11.2457 879 112.945 428.505 460.182
1636 0 82.1948 12.2757 1009 112.547 429.181 459.516
1637 0 85.1619 11.895 1013 111.719 427.576 464.251
1638 0 87.1803 13.2713 1157 111.153 427.999 462.763
1639 0 91.2013 12.127 1106 112.046 427.246 462.274
1640 0 95.2729 15.3454 1462 106.534 426.644 460.736
1641 0 95.1788 11.284 1074 113.715 426.68 458.11
1642 0 99.2259 11.106 1102 113.789 426.055 464.515
1643 0 103.384 13.977 1445 112.768 425.608 457.058
1644 0 103.384 13.8802 1435 142.98 425.613 457.098
1645 0 112.464 15.7828 1775 109.086 424.441 459.794
1646 0 115.313 14.0054 1615 113.706 423.973 454.737
1647 0 116.259 13.5732 1578 113.683 423.886 455.221
1648 0 118.264 13.0217 1540 116.092 423.358 447.434
1649 1 68.1302 12.5642 856 110.008 425.019 474.081
1650 0 73.1003 10.7934 789 112.207 423.674 475.382
1651 0 73.3534 12.1739 893 111.4 424.029 470.167
1652 0 77.057 13.7171 1057 109.21 424.381 468.74
1653 0 79.1114 15.2949 1210 108.021 423.887 467.745
1654 0 80.2363 14.1831 1138 108.151 422.322 470.124
1655 0 83.0499 14.7743 1227 110.089 423.246 460.972
1656 0 87.1552 13.5046 1177 112.644 422.564 456.382
1657 0 91.1128 16.8912 1539 106.252 422.505 455.708
1658 0 93.2936 12.7233 1187 112.538 422.607 451.143
1659 0 96.1522 12.4802 1200 114.429 423.099 451.883
1660 0 100.235 15.8726 1591 109.15 423.279 447.429
1661 0 101.362 13.8119 1400 112.204 424.346 448.366
1662 0 108.158 15.1908 1643 109.741 424.62 442.226
1663 1 57.0643 10.567 603 112.731 425.439 470.224
1664 0 59.1088 9.96468 589 114.548 423.864 466.73
1665 0 61.23 11.5956 710 113.231 425.639 463.046
1666 0 66.1526 12.7735 845 110.909 426.735 461.948
1667 0 71.1328 16.1248 1147 103.811 426.953 462.409
1668 0 69.3539 13.4672 934 109.971 426.458 459.257
1669 0 69.2406 14.529 1006 109.628 427.752 459.431
1670 0 69.2406 14.4713 1002 129.353 428.758 459.319
1671 0 75.1698 14.434 1085 109.332 428.84 464.716
1672 0 77.4684 13.4765 1044 111.489 428.67 463.185
1673 0 79.3017 15.4852 1228 109.373 430.626 458.325
1674 0 80.546 14.1286 1138 111.529 430.944 462.933
1675 0 83.303 14.0691 1172 112.629 431.369 461.114
1676 0 85.2851 13.7539 1173 114.598 430.715 458.488
1677 0 88.2414 13.2024 1165 116.669 429.258 459.842
1678 0 88.2589 12.6899 1120 118.088 430.575 459.081
1679 0 94.3281 12.8382 1211 117.755 429.941 456.71
1680 0 99.3009 13.8065 1371 112.633 428.794 453.57
1681 0 102.216 15.8488 1620 109.256 428.367 455.197
1682 0 106.476 11.5895 1234 116.649 428.505 456.673
1683 1 54.2912 12.4514 676 108.509 426.942 477.487
1684 0 53.3113 10.7669 574 111.899 426.507 475.645
1685 0 55.146 10.7714 594 113.953 427.217 474.03
1686 0 57.5572 13.5691 781 114.257 425.841 471.152
1687 0 60.265 12.5114 754 114.257 425.183 478.29
1688 0 59.1472 12.6971 751 114.72 424.933 478.032
1689 0 62.2209 12.6163 785 113.428 423.642 477.051
1690 0 63.2916 12.6083 798 114.321 423.721 472.381
1691 0 66.3287 14.4281 957 109.913 423.203 472.979
1692 0 68.399 11.5937 793 112.555 421.672 474.103
1693 0 72.3659 12.9066 934 110.868 421.623 464.859
1694 0 78.7759 23.1289 1822 96.0862 421.518 465.127
1695 0 76.5531 16.6159 1272 104.728 421.446 465.944
1696 0 77.2852 10.83 837 113.691 421.154 467.206
1697 0 79.4227 14.4543 1148 110.301 421.232 455.043
1698 0 80.49 12.809 1031 112.24 421.328 452.199
1699 0 83.4409 11.5531 964 112.203 421.602 452.099
1700 0 86.6089 11.1189 963 111.73 422.196 448.4
1701 0 93.8757 13.9866 1313 107.33 423.363 447.16
1702 0 93.5514 11.5872 1084 112.288 422.447 445.936
1703 0 98.5148 13.7137 1351 110.568 423.432 443.166
1704 1 53.2542 10.9851 585 108.788 422.578 469.781
1705 0 54.1059 11.6069 628 107.503 423.15 471.583
1706 0 57.1757 12.6627 724 107.401 423.628 470.565
1707 0 57.1571 12.8768 736 107.812 424.542 468.038
1708 0 59.051 12.9549 765 107.867 424.971 469.54
1709 0 60.3102 12.1373 732 113.753 425.97 469.59
1710 0 64.2016 15.5604 999 109.619 426.347 466.054
1711 0 65.4544 13.7042 897 111.737 427.047 469.153
1712 0 67.258 12.965 872 115.175 427.578 465.739
1713 0 69.2972 13.2184 916 115.061 427.757 461.007
1714 0 73.1534 14.2714 1044 113.465 428.336 460.255
1715 0 73.2465 12.574 921 117.248 428.705 460.001
1716 0 78.144 13.9742 1092 114.115 430.011 460.636
1717 0 82.2132 16.4329 1351 108.594 428.592 462.129
1718 0 83.1034 14.8249 1232 111.53 427.957 465.448
1719 0 85.1706 15.827 1348 111.349 428.832 458.751
1720 0 89.1571 14.8502 1324 113.123 429.279 460.228
1721 1 49.0405 13.2544 650 113.085 428.255 481.714
1722 0 50.2101 10.8743 546 117.564 427.586 481.742
1723 0 55.1533 11.5496 637 114.474 427.711 486.816
1724 0 54.155 10.7839 584 115.137 429.471 485.135
1725 0 57.2173 14.7158 842 112.382 429.499 482.872
1726 0 60.3342 13.3589 806 116.546 430.287 480.515
1727 0 60.3186 13.5282 816 114.607 430.023 483.312
1728 0 66.7826 16.8607 1126 108.013 428.942 484.15
1729 0 64.2056 15.0298 965 115.836 428.265 478.395
1730 0 66.195 13.7322 909 117.837 425.146 476.864
1731 0 66.4044 10.9481 727 122.41 426.305 476.769
1732 0 70.2423 13.6243 957 116.644 425.908 477.289
1733 0 73.223 14.2715 1045 116.744 425.955 476.242
1734 0 74.2284 15.5601 1155 115.744 424.526 471.618
1735 0 77.3786 11.9671 926 120.654 425.166 473.886
1736 0 79.2604 13.5124 1071 118.023 423.223 466.729
1737 0 82.1946 14.9402 1228 115.875 423.184 467.82
1738 0 85.0764 15.0923 1284 114.449 423.535 465.843
1739 0 91.2692 17.2786 1577 110.032 423.725 465.307
1740 0 89.1432 12.3397 1100 121.46 423.668 458.312
1741 0 95.239 17.3353 1651 110.611 422.874 460.247
1742 1 55.3022 9.43905 522 120.933 422.383 472.988
1743 0 56.3096 11.934 672 117.01 422.921 469.345
1744 0 60.3704 11.3798 687 121.33 423.544 471.342
1745 0 62.2203 13.6772 851 117.576 423.699 466.293
1746 0 64.3041 13.7627 885 117.235 423.603 466.881
1747 0 67.2906 14.5637 980 115.661 422.833 464.971
1748 0 71.337 14.5647 1039 113.428 424.982 466.588
1749 0 69.2858 17.0886 1184 110.741 425.145 464.299
1750 0 70.3367 12.7956 900 119.947 425.237 459.102
1751 0 74.4307 13.7175 1021 116.152 424.395 462.698
1752 0 74.1301 12.8288 951 119.766 425.458 458.441
1753 0 79.225 15.5885 1235 113.172 425.232 458.235
1754 0 80.2445 13.7081 1100 116.963 426.575 455.849
1755 0 82.3189 13.2655 1092 117.298 426.835 457.355
1756 0 82.3189 13.2169 1088 157.142 427.84 457.266
1757 0 89.2615 16.939 1512 110.921 427.13 454.726
1758 0 88.1087 12.3597 1089 119.874 426.716 454.732
1759 0 97.1715 20.8703 2028 103.52 428.482 448.554
1760 0 99.1264 14.5067 1438 112.579 429.261 457.054
1761 0 102.134 13.5998 1389 115.505 429.792 452.015
1762 0 104.139 12.7234 1325 117.753 428.983 447.742
1763 0 106.328 13.938 1482 114.725 429.593 449.721
1764 0 101.622 14.6129 1485 109.595 430.36 453.24
1765 1 63.3068 11.7839 746 111.782 430.185 471.452
1766 0 67.1849 12.9493 870 113.102 429.475 460.824
1767 0 69.3521 15.2267 1056 109.17 428.547 458.314
1768 0 70.1445 11.405 800 116.164 428.96 458.709
1769 0 72.4291 16.0295 1161 109.455 428.799 455.891
1770 0 75.5532 12.3224 931 114.655 427.454 457.945
1771 0 78.2078 15.1775 1187 110.479 427.088 452.994
1772 0 77.2602 12.3479 954 116.287 425.565 451.736
1773 0 83.4138 12.8876 1075 114.428 425.521 452.953
1774 0 88.3091 17.0537 1506 107.604 424.814 450.012
1775 0 90.2521 13.972 1261 112.571 424.154 451.1
1776 0 92.1372 13.1543 1212 113.345 423.394 455.325
1777 0 99.3268 16.3199 1621 107.362 422.236 446.482
1778 0 99.3428 12.9048 1282 114.203 422.209 447.348
1779 0 103.578 13.5744 1406 112.908 422.44 448.89
1780 0 106.356 16.2849 1732 109.846 422.08 444.861
1781 0 101.201 7.89518 799 115.641 423.186 462.534
1782 1 58.0521 11.7308 681 109.999 423.294 473.642
1783 0 60.2356 8.998 542 117.131 423.382 470.474
1784 0 65.3838 12.2966 804 112.285 422.583 469.488
1785 0 65.3006 13.1699 860 111.82 422.015 466.409
1786 0 65.1349 11.7141 763 115.173 423.007 464.059
1787 0 73.2242 13.8615 1015 109.862 422.927 467.975
1788 0 71.1934 12.1219 863 115.192 423.056 465.248
1789 0 75.2481 15.0569 1133 109.925 422.831 461.205
1790 0 77.3745 13.0663 1011 112.079 423 463.411
1791 0 80.2398 12.9362 1038 113.976 423.788 456.025
1792 0 83.1746 15.3412 1276 110.013 423.738 455.079
1793 0 85.2845 12.7925 1091 113.282 425.079 456.896
1794 0 87.225 14.6174 1275 111.544 424.954 449.932
1795 0 86.4515 11.8564 1025 117.128 426.186 449.452
1796 0 91.306 12.3431 1127 116.18 425.663 447.686
1797 0 97.4125 17.4926 1704 107.587 426.914 448.29
1798 0 98.406 14.9788 1474 112.474 426.66 448.014
1799 0 100.252 15.4611 1550 110.934 427.31 447.104
1800 0 103.676 12.7995 1327 115.705 427.916 440.892
1801 0 110.467 13.1894 1457 114.518 428.407 432.187
1802 0 108.433 11.8506 1285 118.27 429.518 426.706
1803 0 115.733 14.4384 1671 112.864 429.488 424.698
1804 0 115.733 14.3693 1663 136.958 428.474 424.637
1805 0 122.42 15.2345 1865 111.329 429.488 439.858
1806 0 125.771 13.8029 1736 112.85 429.603 444.378
1807 0 131.609 14.6267 1925 111.483 429.49 434.749
1808 0 137.424 15.9288 2189 110.124 429.355 431.104
1809 0 138.352 11.6515 1612 117.912 428.661 430.641
1810 1 72.2816 12.2023 882 114.209 428.472 460.147
1811 0 79.2256 12.7105 1007 110.327 426.904 462.751
1812 0 82.1956 14.3438 1179 109.282 427.007 468.624
1813 0 86.3285 13.1938 1139 110.727 427.011 469.658
1814 0 90.328 19.9717 1804 101.488 425.947 470.005
1815 0 95.3374 19.174 1828 101.919 425.082 455.903
1816 0 98.4036 15.4059 1516 108.065 424.778 458.064
1817 0 97.327 16.46 1602 107.687 423.179 461.778
1818 0 100.321 20.544 2061 101.084 423.6 464.746
1819 0 103.262 11.6209 1200 115.528 423.099 455.051
1820 0 111.821 14.72 1646 109.179 422.92 449.202
1821 0 108.483 13.1173 1423 113.568 422.566 444.916
1822 0 111.823 13.1278 1468 112.067 422.54 452.489
1823 0 116.527 13.6192 1587 112.086 421.848 443.062
1824 0 116.479 14.1313 1646 110.886 421.175 444.677
1825 0 122.747 15.088 1852 108.855 422.039 442.922
1826 0 124.461 17.5236 2181 103.802 421.544 448.057
1827 0 129.475 16.9454 2194 107.253 420.945 436.387
1828 0 132.488 13.1559 1743 113.046 420.855 430.806
1829 0 137.624 13.5151 1860 112.43 422.087 428.598
1830 1 75.2685 11.4523 862 109.771 421.555 459.146
1831 0 80.3815 12.478 1003 108.183 421.064 457.452
1832 0 82.3276 11.8672 977 108.601 422.671 455.135
1833 0 83.2945 10.9251 910 114.556 421.844 450.392
1834 0 87.2743 13.3029 1161 110.991 422.332 444.429
1835 0 92.6522 15.5744 1443 105.644 422.899 447.844
1836 0 95.281 15.2391 1452 106.209 421.576 447.472
1837 0 98.2196 12.584 1236 109.53 423.702 449.187
1838 0 100.5 13.0448 1311 109.906 424.121 442.908
1839 0 105.526 14.8969 1572 106.07 425.473 445.822
1840 0 109.399 15.9416 1744 105.174 424.899 444.794
1841 0 111.101 12.8081 1423 110.919 425.531 439.959
1842 0 112.104 12.7203 1426 137.722 425.519 439.639
1843 0 116.326 12.8347 1493 110.484 426.177 434.242
1844 1 63.2097 9.90355 626 109.058 426.532 466.767
1845 0 66.1547 11.3673 752 107.786 427 464.055
1846 0 69.2295 12.3069 852 105.374 427.12 466.526
1847 0 71.4458 10.0076 715 109.69 429.71 457.427
1848 0 73.2918 14.3809 1054 103.55 427.342 464.143
1849 0 77.2007 17.1631 1325 99.0657 427.556 464.408
1850 0 79.3008 13.6821 1085 103.174 427.388 467.358
1851 0 81.7291 14.5848 1192 101.742 427.461 469.594
1852 0 82.5406 10.9279 902 109.768 427.242 462.509
1853 0 85.4646 16.3577 1398 102.838 425.284 462.515
1854 0 89.6371 18.7311 1679 99.3538 425.497 458.489
1855 0 90.6682 16.1358 1463 102.548 425.828 460.553
1856 0 92.4843 13.6996 1267 106.38 425.445 458.36
1857 0 97.891 14.0462 1375 106.518 425.733 458.221
1858 0 97.8038 14.478 1416 107.02 425.02 453.966
1859 0 97.4329 15.4465 1505 105.056 424.463 454.016
1860 0 105.749 14.9694 1583 105.033 424.41 449.128
1861 0 105.743 13.1072 1386 106.79 423.532 448.651
1862 0 109.562 12.6595 1387 109.11 423.534 450.417
1863 0 111.729 13.6849 1529 108.08 421.553 445.561
1864 0 113.728 14.5259 1652 107.324 421.712 447.359
1865 0 114.546 13.4705 1543 110.307 421.875 440.79
1866 0 120.529 20.0036 2411 100.966 421.805 439.367
1867 1 70.3969 10.8527 764 106.579 421.704 468.259
1868 0 68.7006 10.1891 700 107.82 421.166 466.811
1869 0 71.4858 12.8837 921 107.074 420.451 470.605
1870 0 68.2608 10.1083 690 113.255 420.178 464.616
1871 0 75.3473 13.9487 1051 105.945 420.975 461.733
1872 0 74.5094 21.0443 1568 97.6728 420.622 461.057
1873 0 77.5453 14.2497 1105 106.827 421.345 457.742
1874 0 80.3116 12.1402 975 109.595 421.094 458.986
1875 0 81.6841 15.511 1267 105.409 421.205 453.86
1876 0 84.3293 15.0007 1265 106.432 422.421 455.007
1877 0 85.5999 12.7687 1093 110.158 422.984 452.571
1878 0 90.8283 18.1331 1647 101.527 422.982 447.614
1879 0 88.3807 12.118 1071 112.002 423.252 444.947
1880 0 95.5855 15.2115 1454 107.265 423.915 444.387
1881 0 98.7907 17.0259 1682 105.081 425.158 443.384
1882 0 98.8091 15.3933 1521 107.294 425.251 447.668
1883 0 102.543 18.5287 1900 104.717 425.989 442.587
1884 0 102.543 18.5775 1905 127.343 426.002 442.468
1885 0 111.481 14.1549 1578 109.696 427.087 443.231
1886 0 111.479 14.2359 1587 110.581 427.727 438.336
1887 0 115.435 11.513 1329 114.196 427.916 439.051
1888 0 121.573 15.9082 1934 107.57 428.622 436.998
1889 0 123.496 17.2719 2133 107.097 428.906 433.969
1890 0 130.578 14.5966 1906 110.99 429.432 433.173
1891 1 74.3006 10.7267 797 108.334 429.336 468.307
1892 0 75.2655 10.9745 826 112.314 429.958 459.392
1893 0 81.3023 16.863 1371 104.346 429.574 462.482
1894 0 82.592 13.5364 1118 111.856 429.436 462.818
1895 0 86.4876 15.852 1371 109.013 428.572 458.809
1896 0 91.6169 17.4749 1601 105.381 428.517 457.847
1897 0 92.3959 13.5504 1252 112.014 427.887 456.791
1898 0 94.6407 14.8034 1401 110.621 428.174 453.754
1899 0 95.3588 10.9691 1046 117.045 427.669 454.201
1900 0 101.264 16.6594 1687 108.819 427.182 453.332
1901 0 105.523 13.9874 1476 113.622 426.762 455.114
1902 0 107.517 12.7143 1367 114.797 425.891 451.541
1903 0 112.243 14.433 1620 113.823 425.678 450.249
1904 0 113.28 14.0537 1592 114.971 424.938 448.138
1905 0 118.256 15.0521 1780 112.662 424.527 445.449
1906 0 123.178 14.3938 1773 114.373 423.162 449.488
1907 0 126.257 18.193 2297 108.043 421.787 453.169
1908 0 131.27 14.2607 1872 116.095 420.549 441.543
1909 1 73.1139 12.6652 926 113.006 420.698 474.046
1910 0 73.236 13.8183 1012 112.939 420.822 472.318
1911 0 80.4802 16.0536 1292 110.522 422.122 465.028
1912 0 77.2629 12.6451 977 117.202 421.858 467.022
1913 0 81.3018 13.7512 1118 115.829 421.796 461.886
1914 0 82.1987 13.8323 1137 116.826 421.674 459.305
1915 0 85.3061 13.3519 1139 117.387 421.998 458.773
1916 0 86.4161 13.0763 1130 118.398 421.331 457.296
1917 0 87.1454 13.334 1162 119.372 421.659 452.812
1918 0 94.3138 15.2046 1434 114.903 420.955 453.997
1919 0 95.2688 15.0521 1434 116.285 422.285 447.199
1920 0 100.19 15.8199 1585 114.257 422.881 451.298
1921 0 102.414 16.8629 1727 113.876 423.28 446.969
1922 0 103.296 13.0305 1346 121.058 424.146 445.608
1923 0 107.334 13.239 1421 118.196 425.312 444.566
1924 0 108.306 13.1849 1428 118.425 424.889 444.007
1925 0 114.211 13.2737 1516 117.717 425.462 440.901
1926 0 117.278 12.4235 1457 118.113 426.653 440.432
1927 0 123.457 17.5202 2163 110.684 426.42 437.375
1928 1 72.1341 12.6986 916 115.853 425.929 457.223
1929 0 75.1899 10.0279 754 118.718 426.074 465.528
1930 0 78.3026 11.6088 909 117.713 426.52 455.93
1931 0 80.2875 15.6687 1258 112.474 426.498 457.293
1932 0 81.2101 13.1634 1069 118.932 426.543 457.009
1933 0 80.1485 12.8137 1027 121.013 427.798 455.897
1934 0 86.2089 14.1285 1218 117.469 429.385 458.983
1935 0 88.1781 13.1552 1160 120.741 429.116 455.978
1936 0 89.3059 12.4068 1108 123.574 429.212 454.392
1937 0 94.1812 12.7414 1200 121.945 428.743 457.11
1938 0 96.1793 12.8926 1240 122.643 428.981 458.145
1939 0 101.324 14.1231 1431 120.757 428.256 455.651
1940 0 102.164 13.723 1402 121.804 428.661 458.844
1941 0 108.422 16.9708 1840 117.107 428.015 453.541
1942 0 109.236 13.3106 1454 124.012 427.615 456.4
1943 1 59.0624 14.1376 835 116.901 426.01 481.166
1944 0 63.2194 12.8442 812 120.284 424.638 479.032
1945 0 64.0848 12.6239 809 118.802 425.445 479.551
1946 0 66.0998 12.5568 830 120.219 423.075 476.929
1947 0 70.343 13.6901 963 117.313 424.52 472.792
1948 0 72.0992 12.4412 897 118.834 421.088 475.115
1949 0 72.1932 12.799 924 119.226 420.989 473.289
1950 0 75.3222 11.7495 885 120.791 420.32 467.605
1951 0 79.1352 12.1943 965 118.759 419.434 465.593
1952 0 77.16 11.9881 925 120.411 419.77 467.176
1953 0 82.1646 14.7387 1211 114.493 420.2 466.415
1954 0 86.2128 14.5918 1258 113.884 420.514 460.584
1955 0 89.2735 14.3268 1279 114.36 419.035 461.769
1956 0 90.3118 12.9441 1169 115.876 419.448 457.334
1957 0 91.3137 13.4153 1225 115.971 419.706 449.794
1958 0 93.3525 13.84 1292 114.922 419.176 449.374
1959 0 94.4203 12.0525 1138 117.247 419.788 446.973
1960 0 100.224 13.3701 1340 113.365 419.665 445.931
1961 0 101.239 12.6236 1278 115.842 420.285 445.677
1962 0 104.582 13.7691 1440 113.789 420.967 448.158
1963 0 105.386 11.2159 1182 116.744 422.257 447.096
1964 0 110.671 13.4724 1491 113.765 422.961 440.254
1965 0 114.523 11.4212 1308 116.415 422.773 442.099
1966 1 63.1617 11.3835 719 111.172 424.202 466.441
1967 0 66.1318 14.5769 964 106.884 423.63 463.15
1968 0 68.0899 15.4355 1051 106.737 424.462 459.826
1969 0 68.1709 9.50552 648 115.698 423.964 461.344
1970 0 72.2075 12.5333 905 110.296 425.055 462.808
1971 0 77.1546 14.4385 1114 106.677 426.089 460.188
1972 0 79.0759 12.0517 953 110.078 426.084 459.003
1973 0 81.1492 11.9533 970 110.655 427.126 457.919
1974 0 84.1443 14.3087 1204 105.339 427.105 462.326
1975 0 84.2288 14.6981 1238 105.15 427.368 461.344
1976 0 89.206 12.5888 1123 108.357 427.513 457.393
1977 0 90.1887 13.5826 1225 105.356 427.749 463.562
1978 0 95.3657 14.7223 1404 105.535 428.722 451.057
1979 0 98.2845 13.4508 1322 107.234 428.584 457.389
1980 0 103.265 11.6206 1200 109.438 427.537 459.021
1981 0 104.359 11.4604 1196 111.764 427.115 451.791
1982 0 108.245 12.5271 1356 110.893 426.956 452.778
1983 0 117.419 21.9726 2580 98.1578 426.463 456.077
1984 0 117.411 13.1419 1543 110.794 425.732 450.655
1985 0 122.201 11.6774 1427 110.47 426.011 451.99
1986 1 67.3633 10.9852 740 109.255 425.92 472.191
1987 0 72.2142 10.6627 770 105.997 425.469 479.982
1988 0 74.255 11.6625 866 110.017 422.821 473.091
1989 0 78.2156 13.0281 1019 107.11 424.419 473.698
1990 0 80.1759 13.4704 1080 107.519 422.978 468.631
1991 0 88.2848 14.0454 1240 105.441 422.161 461.676
1992 0 91.38 23.8893 2183 93.0696 422.174 460.209
1993 0 92.6193 20.255 1876 97.6946 421.961 455.26
1994 0 92.2862 20.8482 1924 98.0541 421.634 459.21
1995 0 96.1801 17.7999 1712 101.277 421.549 458.867
1996 0 97.2195 16.6736 1621 102.735 419.49 453.717
1997 0 97.2455 15.4454 1502 105.694 420.757 453.834
1998 0 98.2928 18.16 1785 102.087 420.224 454.312
1999 0 102.301 16.3145 1669 104.46 421.171 455.072
2000 0 108.343 16.0416 1738 104.782 420.656 451.321
2001 1 54.0879 11.7402 635 107.846 420.614 471.918
2002 0 61.3104 8.33464 511 110.403 419.117 472.114
2003 0 60.1959 11.1137 669 107.821 420.378 472.036
2004 0 63.1517 13.0954 827 106.247 420.262 468.628
2005 0 64.2568 15.0801 969 104.686 421.637 466.503
2006 0 63.2091 12.6089 797 109.675 421.571 463.788
2007 0 68.1728 15.9594 1088 104.715 423.35 462.271
2008 0 71.1446 15.2366 1084 104.851 424.638 462.177
2009 0 73.1838 12.3661 905 109.582 424.497 460.035
2010 0 73.2947 12.6066 924 110.433 425.062 458.393
2011 0 78.1794 14.1214 1104 107.024 426.481 459.526
2012 0 80.1149 10.5474 845 112.22 426.728 457.68
2013 0 82.3219 12.0138 989 109.469 426.949 456.701
2014 0 88.3651 17.1335 1514 101.264 426.217 457.958
2015 0 88.2907 13.1837 1164 108.676 427.689 452.84
2016 0 94.1712 14.2931 1346 104.834 427.85 457.345
2017 0 94.2335 15.4191 1453 105.435 427.919 451.71
2018 0 99.2554 17.46 1733 101.774 428.009 452.21
2019 0 101.259 16.7689 1698 103.323 428.259 451.951
2020 0 106.314 15.8868 1689 105.117 428.989 449.094
2021 0 108.209 15.3777 1664 105.686 427.487 452.405
2022 0 111.557 16.0277 1788 104.933 428.491 441.676
2023 0 115.579 12.4244 1436 109.924 428.579 448.235
2024 1 66.2063 10.86 719 109.52 428.264 475.099
2025 0 66.1121 11.2536 744 107.499 426.657 474.719
2026 0 70.205 16.6228 1167 102.529 425.051 471.496
2027 0 74.1388 11.4785 851 110.425 425.519 470.62
2028 0 74.1876 13.1019 972 104.967 425.134 477.534
2029 0 78.2286 17.2571 1350 101.012 424.734 472.613
2030 0 82.2187 12.8073 1053 107.577 424.826 468.71
2031 0 83.1364 13.7004 1139 104.826 423.629 470.072
2032 0 86.1356 14.0244 1208 106.065 422.621 468.081
2033 0 91.2616 13.8393 1263 106.393 422.257 462.379
2034 0 92.2002 11.5293 1063 110.622 421.545 458.697
2035 0 96.353 13.6166 1312 106.66 421.325 458.811
2036 0 100.501 12.0197 1208 108.632 420.799 456.496
2037 0 101.454 10.734 1089 110.83 420.436 454.992
2038 0 104.429 13.0136 1359 107.624 420.531 453.453
2039 0 111.531 16.0673 1792 101.654 420.027 455.605
2040 1 61.2535 12.4401 762 104.997 420.441 471.999
2041 0 61.2928 11.1106 681 109.38 419.345 470.273
2042 0 63.1732 13.3601 844 105.38 419.82 469.232
2043 0 67.1055 13.1882 885 106.756 419.419 467.932
2044 0 68.0986 17.8124 1213 100.561 419.336 469.425
2045 0 69.2014 11.8061 817 108.247 421.149 463.942
2046 0 72.1849 14.3243 1034 106.911 422.013 460.991
2047 0 75.3971 13.356 1007 105.996 422.486 465.344
2048 0 77.296 17.323 1339 102.149 423.105 459.833
2049 0 79.2178 14.4286 1143 106.453 422.729 459.222
2050 0 80.3088 12.0908 971 110.606 423.385 454.145
2051 0 83.2704 13.9666 1163 107.646 423.782 454.865
2052 0 82.3868 12.3442 1017 111.814 425.241 452.286
2053 0 88.2745 18.8503 1664 101.859 424.876 452.241
2054 0 90.4877 11.8911 1076 112.112 426.319 449.113
2055 0 94.2228 15.2617 1438 106.997 425.534 448.325
2056 0 94.5206 12.8649 1216 111.278 426.98 443.526
2057 0 97.4503 13.4325 1309 111.268 427.365 445.665
2058 0 102.505 12.8384 1316 111.256 428.141 446.815
2059 0 109.547 14.9068 1633 107.061 429.54 447.26
2060 0 110.772 19.5628 2167 100.476 429.226 452.857
2061 0 113.455 13.1594 1493 112.058 429.187 442.551
2062 0 119.604 19.8322 2372 101.167 429.258 447.019
2063 1 63.3304 8.70041 551 116.294 429.904 466.962
2064 0 67.2006 11.9047 800 111.716 428.021 465.935
2065 0 70.4518 12.9166 910 110.31 428.846 467.902
2066 0 76.3956 14.87 1136 107.277 426.761 465.118
2067 0 77.281 13.7421 1062 110.424 427.338 461.304
2068 0 76.3524 11.6696 891 113.09 426.486 464.797
2069 0 80.2661 11.9104 956 113.469 427.306 462.951
2070 0 83.5446 13.035 1089 111.632 426.43 463.032
2071 0 90.6233 13.672 1239 110.923 425.437 459.755
2072 0 90.3529 13.2259 1195 112.016 425.729 461.786
2073 0 94.6606 11.9585 1132 114.754 424.791 456.252
2074 0 96.2997 14.1641 1364 111.178 423.44 460.212
2075 0 102.723 14.6121 1501 109.797 422.639 457.153
2076 0 105.582 13.6766 1444 112.473 422.461 453.534
2077 0 108.498 16.2122 1759 108.467 422.171 454.63
2078 0 111.527 12.6785 1414 113.441 421.959 454.167
2079 0 114.324 12.7795 1461 115.084 421.236 444.559
2080 1 65.1969 10.9975 717 112.682 420.946 464.831
2081 0 65.1969 10.9975 717 122.052 419.946 464.831
2082 0 74.2482 15.3674 1141 104.292 420.49 468.989
2083 0 76.1381 12.1358 924 108.285 421.092 464.424
2084 0 77.16 11.029 851 109.324 421.244 465.812
2085 0 82.2516 17.7747 1462 100.798 421.452 466.746
2086 0 83.3026 12.8928 1074 110.223 421.704 457.481
2087 0 82.1975 10.1828 837 115.106 422.542 452.382
2088 0 89.4367 12.3551 1105 109.466 421.658 457.372
2089 0 90.2873 12.1612 1098 111.279 422.357 451.042
2090 0 93.3252 11.6689 1089 110.402 423.054 453.925
2091 0 97.534 15.287 1491 107.127 422.241 449.382
2092 0 98.405 13.5461 1333 111.917 423.872 443.663
2093 0 101.33 11.6649 1182 115.446 423.186 443.91
2094 0 107.368 14.8368 1593 110.033 424.407 443.426
2095 0 109.283 15.4644 1690 109.43 424.131 442.092
2096 0 111.212 11.9322 1327 113.99 425.443 443.43
2097 0 115.417 12.1819 1406 115.349 425.834 436.565
2098 0 116.398 14.5278 1691 112.498 426.027 433.611
2099 0 122.408 12.924 1582 113.599 426.276 435.59
2100 0 125.234 19.9547 2499 103.462 427.14 436.731
2101 0 127.348 13.4591 1714 113.775 427.146 430.851
2102 0 129.412 13.1364 1700 114.761 429.342 430.271
2103 0 135.478 13.0427 1767 114.185 428.763 430.816
2104 0 141.316 13.714 1938 112.707 427.908 430.071
2105 0 147.459 16.2147 2391 108.321 428.399 428.884
2106 0 152.625 15.6134 2383 110.264 428.757 422.876
2107 0 156.424 12.3063 1925 115.871 428.84 411.754
2108 0 158.472 11.5793 1835 117.041 428.489 417.56
2109 1 92.3675 10.9562 1012 109.906 427.383 457.089
2110 0 95.402 10.6497 1016 109.34 427.179 461.911
2111 0 102.437 15.0629 1543 105.184 427.156 456.71
2112 0 106.348 17.4052 1851 103.174 426.772 450.824
2113 0 108.525 18.4105 1998 102.084 426.568 457.766
2114 0 114.781 13.835 1588 107.35 425.858 457.581
2115 0 118.624 15.3426 1820 106.459 424.322 447.048
2116 0 119.43 11.245 1343 111.036 423.418 445.782
2117 0 122.37 12.1026 1481 109.839 422.892 444.911
2118 0 130.51 13.0029 1697 108.081 421.817 444.876
2119 0 131.338 14.2152 1867 107.59 421.88 437.184
2120 0 135.292 16.4016 2219 105.242 421.539 435.196
2121 0 140.505 15.0528 2115 108.124 420.784 436.049
2122 0 146.54 18.8139 2757 103.515 419.943 428.444
2123 0 146.204 13.8779 2029 111.9 420.422 427.102
2124 0 151.514 12.0781 1830 113.707 420.66 429.09
2125 0 155.452 11.3154 1759 112.914 420.298 429.416
2126 0 162.533 14.3909 2339 109.349 420.156 413.633
2127 1 94.2212 11.9718 1128 110.14 420.409 445.539
2128 0 96.2227 12.6062 1213 109.027 419.315 448.762
2129 0 99.2458 14.3986 1429 107.677 420.158 451.88
2130 0 101.264 14.398 1458 109.934 420.415 447.433
2131 0 101.186 10.3374 1046 116.314 421.011 448.8
2132 0 106.214 15.6382 1661 107.674 421.757 449.133
2133 0 108.179 13.755 1488 111.879 422.413 442.174
2134 0 113.467 16.842 1911 105.706 422.409 446.484
2135 0 114.199 14.6761 1676 110.882 423.104 436.264
2136 0 115.229 12.1931 1405 116.113 423.712 433.865
2137 0 121.337 13.1122 1591 113.217 424.297 438.84
2138 0 123.435 13.5213 1669 113.918 424.772 433
2139 0 123.435 13.4564 1661 152.064 423.784 433.188
2140 0 130.46 13.4677 1757 114.943 425.643 427.379
2141 0 133.733 13.7887 1844 113.696 426.865 432.813
2142 0 139.469 15.2148 2122 112.134 426.784 424.898
2143 0 143.401 14.714 2110 111.427 428.06 430.691
2144 0 149.418 13.8605 2071 113.672 428.637 411.713
2145 0 153.501 13.9087 2135 113.581 427.366 411.276
2146 0 153.501 13.9869 2147 141.384 426.381 411.319
2147 0 163.556 12.2955 2011 116.016 427.665 408.489
2148 1 96.3956 14.9281 1439 105.373 427.149 449.599
2149 0 99.3472 13.629 1354 109.116 427.328 448.453
2150 0 102.328 13.3981 1371 110.058 426.476 453.334
2151 0 104.257 11.0304 1150 114.778 426.999 453.863
2152 0 109.448 12.7276 1393 112.837 427.111 451.674
2153 0 112.218 14.8461 1666 110.321 428.487 447.427
2154 0 115.378 13.7808 1590 112.24 428.469 453.779
2155 0 118.279 12.8679 1522 114.327 427.661 447.372
2156 0 123.441 14.1687 1749 113.063 426.79 449.803
2157 0 126.248 11.7943 1489 116.852 425.949 450.679
2158 0 127.369 12.3421 1572 116.986 425.568 445.522
2159 0 134.491 15.2947 2057 111.996 424.34 445.428
2160 0 140.601 14.7937 2080 113.814 424.527 442.582
2161 0 146.561 17.5763 2576 107.973 423.027 448.128
2162 0 146.814 12.2468 1798 119.902 422.573 432.353
2163 1 83.259 11.6984 974 114.492 422.344 452.81
2164 0 82.285 9.96537 820 117.328 421.207 454.815
2165 0 86.1413 10.4596 901 118.765 420.006 454.701
2166 0 87.3774 12.2572 1071 117.506 419.774 456.694
2167 0 95.5688 17.1186 1636 107.991 420.74 461.207
2168 0 96.2942 16.3561 1575 110.804 419.9 453.928
2169 0 100.453 14.813 1488 112.644 420.647 454.813
2170 0 103.427 19.7434 2042 105.565 420.3 452.856
2171 0 106.639 15.9886 1705 111.729 420.596 449.24
2172 0 107.327 12.4014 1331 117.977 420.183 447.59
2173 0 111.698 13.4201 1499 115.029 419.908 448.486
2174 0 111.698 13.438 1501 150.011 418.897 448.468
2175 0 117.892 15.7178 1853 112.225 421.471 438.47
2176 0 120.759 14.0611 1698 115.284 422.278 432.311
2177 0 123.912 14.0826 1745 115.849 422.57 425.286
2178 0 126.744 14.478 1835 114.542 422.56 431.592
2179 0 131.705 13.4771 1775 114.665 424.556 435.099
2180 0 131.755 12.159 1602 119.032 424.41 428.721
2181 0 138.065 15.8983 2195 112.517 424.547 421.327
2182 0 143.77 15.3927 2213 111.503 425.663 428.285
2183 0 147.871 16.4197 2428 111.342 426.049 422.576
2184 0 151.951 14.1098 2144 115.876 426.552 419.71
2185 0 155.789 14.3335 2233 114.022 426.828 416.445
2186 1 92.6169 9.71745 900 116.899 427.473 446.561
2187 0 93.4443 13.1522 1229 112.347 427.142 447.259
2188 0 97.5602 15.5186 1514 108.376 428.389 448.409
2189 0 99.548 14.1942 1413 112.464 429.565 442.217
2190 0 100.589 13.1425 1322 114.526 428.9 443.918
2191 0 106.831 11.7569 1256 115.228 429.627 445.961
2192 0 110.557 13.0611 1444 112.181 429.066 443.951
2193 0 113.913 12.7641 1454 114.025 428.773 443.49
2194 0 114.852 10.2566 1178 118.846 429.38 441.729
2195 0 120.566 14.0504 1694 112.293 428.625 443.805
2196 0 125.444 14.1896 1780 112.735 427.278 443.346
2197 0 125.495 12.0404 1511 116.216 426.561 443.699
2198 0 129.523 13.2795 1720 114.94 427.219 439.179
2199 0 134.933 11.7391 1584 117.853 425.833 432.53
2200 0 142.504 13.5434 1930 114.051 425.472 440.884
2201 0 148.639 18.8511 2802 104.954 423.432 442.207
2202 0 155.559 19.4845 3031 105.522 423.587 431.144
2203 0 159.399 17.6162 2808 109.043 423.165 427.031
2204 0 163.461 15.3553 2510 113.181 422.942 424.353
2205 0 166.491 12.8415 2138 117.692 421.905 423.438
2206 0 174.37 16.9066 2948 110.606 421.638 424.788
2207 0 177.412 13.8942 2465 115.185 420.377 422.781
2208 0 186.324 14.8773 2772 113.652 421.459 419.647
2209 0 190.468 14.9369 2845 114.875 420.591 408.19
2210 0 193.307 12.4931 2415 117.88 420.208 411.723
2211 0 202.843 15.3863 3121 113.131 420.666 405.819
2212 0 208.752 15.698 3277 112.392 420.813 406.503
2213 1 159.4 16.0978 2566 111.972 421.289 427.373
2214 0 161.348 14.9739 2416 113.771 420.256 424.072
2215 0 166.539 13.7565 2291 117.067 422.031 418.133
2216 0 169.282 12.7066 2151 117.818 420.625 416.328
2217 0 175.504 15.5324 2726 114.116 422.127 410.198
2218 0 182.577 15.7523 2876 112.114 422.091 409.32
2219 0 184.665 12.0597 2227 118.308 423.649 412.103
2220 0 191.549 14.5863 2794 116.617 423.406 406.266
2221 0 198.604 14.6422 2908 116.657 424.167 399.841
2222 0 204.817 15.7994 3236 114.358 425.086 396.256
2223 0 202.584 14.2015 2877 117.916 425.42 388.824
2224 0 204.587 13.559 2774 116.629 426.337 405.478
2225 0 203.547 11.2112 2282 118.821 425.043 410.53
2226 0 204.879 9.77648 2003 118.55 426.685 419.749
2227 1 66.2623 11.213 743 108.202 426.207 466.009
2228 0 69.3947 14.7562 1024 104.252 426.986 465.228
2229 0 67.3014 11.233 756 113.946 426.847 461.914
2230 0 72.151 12.9312 933 110.958 427.378 461.464
2231 0 74.0569 13.7192 1016 108.32 427.021 465.761
2232 0 76.1256 13.3595 1017 110.584 427.365 463.755
2233 0 80.1217 13.8914 1113 110.156 427.739 457.169
2234 0 81.0579 12.0531 977 112.47 428.126 463.493
2235 0 83.1984 11.8031 982 112.551 426.812 464.162
2236 0 87.2847 15.627 1364 106.402 427.561 464.078
2237 0 92.2984 13.8789 1281 109.422 426.123 461.512
2238 0 94.3082 13.5725 1280 111.614 428.088 460.779
2239 0 97.324 11.2716 1097 114.288 427.14 462.675
2240 0 102.314 11.6016 1187 112.566 426.637 459.934
2241 0 100.728 11.4566 1154 112.432 424.988 461.95
2242 1 57.2869 11.5733 663 109.115 424.944 482.739
2243 0 58.2939 14.1696 826 105.092 423.355 479.829
2244 0 59.3033 10.7751 639 110.455 423.93 480.074
2245 0 62.2019 13.1668 819 107.388 422.888 479.077
2246 0 63.1743 13.2174 835 108.917 422.398 476.228
2247 0 66.2253 11.5213 763 112.879 420.497 478.941
2248 0 71.1395 12.9605 922 111.303 420.474 474.683
2249 0 70.1164 14.7897 1037 109.336 420.183 473.457
2250 0 69.1792 13.9493 965 112.507 420.057 471.963
2251 0 72.1699 14.1749 1023 109.443 419.442 475.991
2252 0 75.1796 14.1528 1064 111.409 419.452 471.09
2253 0 73.0724 11.5502 844 117.569 419.108 468.607
2254 0 79.2534 14.4221 1143 111.977 418.95 464.551
2255 0 79.2534 14.359 1138 140.437 418.946 464.491
2256 0 83.2543 15.3025 1274 110.027 419.086 461.293
2257 0 83.5427 12.9156 1079 112.706 419.906 463.148
2258 0 87.2872 10.918 953 117.967 419.189 451.835
2259 0 89.1858 12.5805 1122 115.114 419.645 454.864
2260 0 89.1858 12.4347 1109 145.879 420.653 454.87
2261 0 94.264 13.6319 1285 114.884 421.213 452.781
2262 0 99.4162 19.5743 1946 105.455 422.123 450.559
2263 0 97.3545 13.4252 1307 117.279 422.071 444.149
2264 0 101.281 14.129 1431 113.943 422.609 448.771
2265 0 104.326 16.1513 1685 112.121 424.091 441.5
2266 0 109.328 20.1412 2202 104.97 424.154 440.966
2267 0 109.216 12.077 1319 118.238 425.592 444.603
2268 0 115.716 18.0268 2086 107.084 425.403 446.68
2269 0 119.476 18.3301 2190 105.261 425.775 448.279
2270 0 122.589 13.5085 1656 115.44 426.187 435.691
2271 1 66.3427 9.70718 644 114.894 426.115 467.047
2272 0 69.3497 10.9013 756 114.825 426.861 462.11
2273 0 72.3218 11.7254 848 113.756 427.402 457.854
2274 0 72.1888 11.1375 804 114.886 428.479 453.878
2275 0 77.335 13.7583 1064 110.399 428.201 460.024
2276 0 78.5233 13.0152 1022 111.041 428.374 461.117
2277 0 80.2596 13.4439 1079 111.969 428.463 458.36
2278 0 84.4737 15.0343 1270 110.055 427.944 458.098
2279 0 85.4453 15.8464 1354 109.48 428.4 456.952
2280 0 89.7558 12.8014 1149 112.904 427.473 459.986
2281 0 94.3556 17.8368 1683 105.232 427.753 456.171
2282 0 95.3865 13.2828 1267 112.721 426.052 460.244
2283 0 99.3994 12.1932 1212 114.334 426.087 457.369
2284 0 108.229 17.4814 1892 104.07 425.653 454.333
2285 0 107.306 13.5314 1452 111.277 424.465 460.696
2286 1 62.2515 12.9153 804 109.726 423.561 481.956
2287 0 60.139 9.61107 578 116.912 424.777 479.642
2288 0 64.0835 16.1664 1036 104.658 422.345 475.954
2289 0 68.2021 15.2048 1037 106.047 422.888 473.868
2290 0 68.2682 15.7028 1072 107.895 421.347 472.347
2291 0 73.0867 14.5717 1065 107.897 422.724 471.818
2292 0 73.1388 14.2606 1043 109.636 421.644 468.217
2293 0 75.1907 14.5231 1092 109.288 422.397 469.154
2294 0 75.2249 13.0409 981 113.175 421.203 467.812
2295 0 79.267 14.7098 1166 110.81 422.112 464.01
2296 0 82.5008 13.5393 1117 112.414 421.11 463.918
2297 0 82.1285 13.7102 1126 113.925 421.798 460.924
2298 0 83.2765 13.7854 1148 114.835 420.52 460.524
2299 0 88.2359 13.4639 1188 115.556 420.669 457.049
2300 0 89.169 15.151 1351 111.691 421.275 461.83
2301 0 90.2547 15.002 1354 114.717 421.825 456.375
2302 0 95.1881 16.105 1533 112.847 422.014 453.342
2303 0 96.2128 14.3952 1385 114.017 423.25 452.041
2304 0 99.227 15.0463 1493 110.137 422.689 458.613
2305 0 101.216 13.8614 1403 115.426 423.732 450.665
2306 0 104.167 16.5504 1724 112.442 423.849 447.731
2307 0 107.236 16.7574 1797 113.673 424.365 443.098
2308 0 108.131 14.7877 1599 117.715 424.642 441.29
2309 0 115.197 18.5768 2140 109.91 425.924 443.505
2310 0 116.124 15.4318 1792 116.989 426.056 436.377
2311 0 118.398 13.6319 1614 121.236 425.759 432.823
2312 0 124.374 15.3408 1908 117.509 427.315 433.6
2313 1 68.1155 11.5245 785 119.603 427.475 462.555
2314 0 71.1545 14.1101 1004 113.525 426.545 454.624
2315 0 75.0904 14.4093 1082 114.152 427.677 460.77
2316 0 79.0544 14.7367 1165 114.17 426.253 460.731
2317 0 79.1585 11.218 888 120.936 427.427 461.092
2318 0 84.2169 15.3532 1293 114.05 427.387 457.063
2319 0 86.1161 12.7154 1095 118.165 427.551 462.203
2320 0 95.6651 23.7182 2269 99.2305 426.822 448.023
2321 0 95.3546 20.6073 1965 104.65 427.022 455.196
2322 0 97.2817 17.7217 1724 110.609 426.507 453.921
2323 0 101.249 15.1014 1529 115.215 426.357 452.513
2324 0 101.313 12.6835 1285 122.157 426.261 454.363
2325 0 103.284 14.7361 1522 119.643 426.392 445.815
2326 0 108.403 13.5882 1473 119.735 426.557 450.701
2327 0 112.425 14.0271 1577 118.381 425.635 450.603
2328 0 116.706 13.3412 1557 119.642 423.952 451.437
2329 0 119.39 12.6644 1512 120.651 423.898 450.151
2330 0 125.406 12.0967 1517 120.644 423.081 449.403
2331 1 71.2811 14.8567 1059 110.784 422.014 474.195
2332 0 75.3999 15.4642 1166 111.66 421.374 470.796
2333 0 75.3354 13.0749 985 120.778 421.442 466.378
2334 0 77.6469 11.05 858 123.154 421.216 464.544
2335 0 81.3735 14.9189 1214 113.513 419.376 462.844
2336 0 84.3835 13.2727 1120 115.56 419.986 464.148
2337 0 87.1801 16.4602 1435 110.338 420.171 462.532
2338 0 87.1917 13.132 1145 117.162 419.887 455.819
2339 0 92.2316 13.1517 1213 116.425 419.369 455.468
2340 0 95.3936 14.0156 1337 114.69 420.194 454.799
2341 0 97.3434 14.3307 1395 114.814 419.358 449.944
2342 0 102.69 15.3082 1572 112.487 420.278 449.317
2343 0 102.445 12.0064 1230 118.074 420.489 447.25
2344 0 105.213 14.1902 1493 116.454 420.488 441.204
2345 0 110.243 13.3342 1470 115.729 421.838 444.468
2346 0 113.34 13.6845 1551 115.751 421.619 441.364
2347 0 114.431 9.43802 1080 123.854 422.371 435.228
2348 0 119.478 14.2537 1703 115.914 421.723 433.725
2349 1 65.429 11.0807 725 114.006 423.688 464.556
2350 0 69.2228 14.0272 971 110.987 424.264 457.186
2351 0 72.3795 13.8575 1003 111.168 425.123 458.172
2352 0 71.3744 9.76541 697 118.986 425.155 456.799
2353 0 77.3996 11.7313 908 115.329 426.685 456.866
2354 0 84.6151 14.7846 1251 109.068 426.394 457.938
2355 0 82.4234 13.2487 1092 113.203 427.417 455.264
2356 0 86.4243 14.6834 1269 111.4 427.281 454.154
2357 0 89.5102 13.0711 1170 115.183 427.694 452.204
2358 0 95.3299 17.4237 1661 108.857 427.3 447.329
2359 0 98.5202 13.2359 1304 113.489 428.492 454.701
2360 0 102.483 18.6567 1912 107.521 428.082 450.522
2361 0 105.458 13.9297 1469 116.081 427.352 448.591
2362 0 107.416 13.7597 1478 116.129 427.007 447.122
2363 0 109.547 16.3857 1795 111.295 427.421 450.559
2364 0 115.492 16.4427 1899 111.638 427.015 449.788
2365 0 120.36 15.3706 1850 112.709 425.651 444.134
2366 0 122.484 13.6181 1668 116.034 426.296 438.486
2367 0 126.358 12.5358 1584 116.82 425.722 447.333
2368 1 72.2224 11.1184 803 116.041 423.838 473.797
2369 0 76.3545 11.3025 863 116.516 424.117 472.076
2370 0 78.5046 12.1522 954 116.417 423.105 466.915
2371 0 83.3339 14.9399 1245 111.247 421.84 467.204
2372 0 86.4161 15.0551 1301 111.96 421.668 459.803
2373 0 88.7941 12.1968 1083 117.066 420.733 459.485
2374 0 90.4863 15.6598 1417 112.907 421.519 452.26
2375 0 91.4282 13.6282 1246 116.982 420.189 454.623
2376 0 96.4046 14.0035 1350 115.04 419.566 462.735
2377 0 100.341 15.3177 1537 114.626 419.267 453.745
2378 0 106.595 18.0871 1928 109.324 419.214 454.019
2379 0 106.624 16.2159 1729 113.872 419.396 448.109
2380 0 107.357 12.0347 1292 122.129 419.649 446.927
2381 0 113.306 15.9568 1808 115.154 419.057 446.819
2382 0 118.379 16.0249 1897 114.364 418.285 443.184
2383 1 67.3654 14.2803 962 112.366 419.424 469.763
2384 0 68.3778 12.3578 845 115.012 419.18 471.299
2385 0 72.3124 12.2109 883 112.751 419.378 467.245
2386 0 71.1316 13.1447 935 115.655 419.776 458.171
2387 0 72.0916 13.6909 987 116.424 418.97 453.038
2388 0 75.0525 14.6164 1097 114.743 419.527 453.556
2389 0 76.0665 11.9895 912 119.309 419.363 452.489
2390 0 77.1866 13.0333 1006 117.557 419.771 452.132
2391 0 80.0682 11.8649 950 120.024 420.439 447.863
2392 0 84.1404 13.2754 1117 117.22 421.969 449.423
2393 0 86.2251 14.9145 1286 114.928 421.389 446.874
2394 0 89.1551 14.7832 1318 115.116 423.152 448.719
2395 0 90.0864 13.6203 1227 118.241 422.978 444.419
2396 0 94.2039 14.0865 1327 116.89 423.867 443.206
2397 0 95.1248 16.3259 1553 113.654 423.932 450.166
2398 0 99.1692 13.0686 1296 119.35 424.852 449.888
2399 0 100.198 12.605 1263 122.129 426.028 452.843
2400 0 106.242 16.2459 1726 115.873 427.38 448.132
2401 0 107.125 13.1061 1404 122.216 427.518 445.316
2402 0 112.411 12.5255 1408 121.411 427.567 448.821
2403 0 116.186 12.8931 1498 120.257 427.206 448.979
2404 0 123.307 14.914 1839 117.279 426.557 447.157
2405 1 68.1436 14.0145 955 116.416 426.118 468.938
2406 0 73.2131 12.8392 940 117.813 425.538 469.421
2407 0 74.1646 15.5061 1150 111.963 424.79 471.341
2408 0 77.2522 13.3977 1035 117.371 425.452 448.296
2409 0 79.1313 14.5075 1148 114.72 424.063 451.58
2410 0 86.2447 16.2329 1400 111.135 423.116 452.685
2411 0 86.1229 12.8421 1106 118.229 421.844 460.523
2412 0 90.2234 14.6082 1318 113.363 421.965 462.699
2413 0 96.1669 13.0606 1256 115.873 420.408 463.797
2414 0 98.5973 12.3634 1219 118.122 420.239 463.549
2415 0 102.325 16.34 1672 111.852 419.798 458.055
2416 0 105.324 17.8307 1878 110.018 420.365 457.687
2417 0 107.42 13.3495 1434 116.195 419.383 456.519
2418 0 109.366 15.1875 1661 113.008 418.95 449.199
2419 0 110.293 10.4267 1150 119.434 419.229 446.196
2420 0 114.2 12.408 1417 116.254 418.942 450.304
2421 0 119.173 12.998 1549 115.899 420.032 446.074
2422 1 131.372 11.6539 1531 115.86 419.7 450.208
2423 0 130.458 15.6219 2038 113.894 419.87 439.331
2424 0 134.447 14.4221 1939 114.948 419.601 442.774
2425 0 135.256 15.1934 2055 116.609 419.919 431.75
2426 1 78.092 13.5353 1057 114.315 419.698 456.452
2427 0 79.3231 15.0902 1197 112.181 420.488 452.792
2428 0 83.2898 13.1589 1096 114.967 420.718 459.32
2429 0 83.4229 14.2047 1185 114.641 420.599 443.84
2430 0 88.2706 12.609 1113 115.51 420.634 449.078
2431 0 91.1895 13.3349 1216 115.465 421.636 445.641
2432 0 93.1547 14.8248 1381 112.697 422.385 443.356
2433 0 97.134 14.5057 1409 114.756 423.805 439.41
2434 0 99.3007 17.9757 1785 110.277 424.676 445.783
2435 0 103.231 13.959 1441 116.287 425.525 447.076
2436 0 106.289 15.3826 1635 114.453 425.477 446.672
2437 1 206.615 12.9613 2678 120.625 425.22 405.733
2438 1 114.238 17.2973 1976 111.325 426.542 443.005
2439 0 118.347 14.3307 1696 115.275 427.193 445.994
2440 0 121.478 14.9903 1821 113.909 426.189 442.537
2441 0 124.311 12.7744 1588 116.89 426.463 445.832
2442 0 130.212 15.6283 2035 114.702 425.966 439.675
2443 0 136.307 19.6615 2680 109.066 426.606 438.346
2444 1 76.106 12.2067 929 116.101 424.991 466.116
2445 0 79.2808 12.0962 959 114.158 427.437 466.124
2446 0 84.1251 13.9792 1176 114.634 425.998 461.492
2447 0 88.3537 17.5318 1549 111.51 425.207 458.286
2448 0 89.4645 13.7485 1230 119.763 425.126 458.446
2449 0 95.3806 17.6032 1679 112.351 425.143 463.497
2450 0 97.4484 14.264 1390 117.276 423.822 468.255
2451 0 102.43 14.8004 1516 118.525 424.135 456.314
2452 0 105.456 14.8877 1570 119.549 422.257 452.245
2453 0 108.284 13.0306 1411 118.312 422.107 461.647
2454 0 112.735 16.0909 1814 113.901 421.985 454.261
2455 0 118.552 14.1288 1675 116.869 420.76 453.376
2456 0 122.612 22.1349 2714 104.055 420.762 453.251
2457 0 122.458 13.9721 1711 117.335 419.854 444.605
2458 0 129.685 16.9179 2194 111.816 420.17 443.662
2459 0 133.778 16.6993 2234 112.118 420.089 440.61
2460 0 138.08 15.3172 2115 114.688 419.557 434.099
2461 0 146.104 17.337 2533 109.98 419.499 436.391
2462 0 145.83 16.821 2453 111.693 419.605 431.088
2463 0 153.653 17.585 2702 110.199 419.96 430.897
2464 0 155.656 18.0847 2815 110.315 418.75 422.696
2465 0 159.88 12.7971 2046 118.095 419.247 423.482
2466 0 166.721 13.9154 2320 117.044 419.005 419.719
2467 0 168.904 15.6065 2636 115.835 419.091 410.111
2468 0 175.946 15.3967 2709 117.599 419.263 410.169
2469 0 178.641 17.1405 3062 115.602 419.618 406.69
2470 0 186.961 18.6456 3486 112.198 420.444 416.193
2471 0 188.773 15.7173 2967 119.612 420.748 397.034
2472 0 195.72 15.3638 3007 119.388 421.547 395.394
2473 0 202.916 17.2387 3498 115.64 422.573 400.833
2474 0 206.469 15.5907 3219 119.198 422.619 391.496
2475 0 216.678 16.2268 3516 117.895 423.472 397.678
2476 0 222.705 16.093 3584 119.221 424.628 383.383
2477 1 174.819 11.5662 2022 125.4 424.357 414.187
2478 0 180.703 15.257 2757 118.771 425.988 413.51
2479 0 187.501 17.6639 3312 115.394 424.652 401.8
2480 0 195.684 15.3769 3009 119.234 426.408 405.623
2481 0 199.564 14.0005 2794 122.796 426.476 405.844
2482 0 199.564 13.9053 2775 147.713 426.492 405.862
2483 0 202.557 10.7525 2178 125.545 426.352 417.853
2484 0 205.613 8.9148 1833 124.542 427.488 430.239
2485 1 61.1578 8.09381 495 112.731 426.044 479.513
2486 0 64.6158 9.67255 625 106.816 426.486 484.518
2487 0 59.205 9.9147 587 114.44 425.685 471.716
2488 0 62.2405 11.552 719 110.17 425.691 477.143
2489 0 66.4109 15.4493 1026 105.315 426.413 474.999
2490 0 70.2065 14.7137 1033 107.195 426.053 473.598
2491 0 71.5166 14.3044 1023 108.002 426.108 474.854
2492 0 75.4368 10.8568 819 113.109 425.436 475.502
2493 0 75.2107 13.5619 1020 110.683 424.686 476.06
2494 0 79.3186 14.322 1136 109.585 424.227 473.19
2495 0 79.3186 14.4102 1143 131.99 423.214 473.114
2496 0 85.4976 14.4916 1239 109.93 422.558 471.801
2497 0 85.8013 12.5989 1081 114.558 420.54 466.374
2498 0 88.5438 12.0279 1065 116.344 421.673 463.868
2499 0 94.3778 14.5055 1369 112.31 421.174 465.15
2500 0 95.5444 12.2247 1168 116.297 420.863 461.715
2501 0 99.2395 17.3217 1719 109.283 420.407 456.503
2502 0 103.228 18.2897 1888 108.864 420.221 453.678
2503 0 101.465 15.4733 1570 113.286 420.355 453.512
2504 0 101.511 13.437 1364 115.083 420.205 458.628
2505 0 127.254 22.7891 2900 97.8238 419.703 436.416
2506 0 132.687 28.3449 3761 92.3417 420.046 435.713
2507 0 129.305 22.4431 2902 100.714 420.553 440.573
2508 0 130.667 18.4974 2417 107.02 419.651 431.21
2509 0 128.48 15.9791 2053 114.116 420.977 436.111
2510 0 128.428 8.35488 1073 117.804 421.936 452.672
2511 0 129.314 7.92642 1025 113.263 422.275 461.293
2512 0 130.746 9.01751 1179 111.092 422.243 462.857
2513 0 128.345 8.71867 1119 114.167 423.067 461.334
2514 0 130.25 10.4338 1359 109.884 423.061 460.977
2515 0 124.234 7.03509 874 122.166 424.221 455.651
2516 1 144.156 15.3029 2206 96.7656 424.277 438.849
2517 0 144.228 16.7027 2409 95.247 424.462 433.755
2518 0 137.999 14.7973 2042 101.578 425.64 446.397
2519 0 128.233 23.9954 3077 90.0507 424.923 428.562
2520 0 133.581 25.2955 3379 89.3608 425.149 427.029
2521 1 166.38 7.84349 1305 121.32 426.386 436.216
2522 0 168.677 9.11803 1538 123.214 427.247 428.033
2523 0 172.513 10.8224 1867 119.605 426.798 428.989
2524 0 177.409 9.87549 1752 123.83 427.587 420.757
2525 1 121.205 21.1626 2565 102.228 426.63 438.186
2526 0 121.205 20.8078 2522 111.288 426.579 438.042
2527 1 68.0973 9.14868 623 112.056 427.36 477.344
2528 0 66.0292 6.16394 407 121.713 427.968 467.366
2529 0 68.1311 10.788 735 111.956 425.81 461.555
2530 0 71.0826 10.8465 771 111.738 425.743 457.053
2531 0 78.0423 12.9417 1010 106.826 426.566 463.148
2532 0 80.079 11.1515 893 109.26 425.088 468.271
2533 0 80.0919 11.0748 887 128.59 424.114 468.219
2534 0 85.1583 12.0716 1028 108.729 422.806 468.553
2535 0 87.1918 11.9048 1038 107.36 422.729 470.464
2536 0 90.1049 17.1689 1547 100.547 422.464 467.345
2537 0 96.1881 12.5899 1211 105.249 421.704 466.483
2538 0 95.6754 14.152 1354 104.798 421.798 458.334
2539 0 102.319 15.608 1597 102.368 421.656 456.973
2540 0 100.126 10.0973 1011 111.725 421.194 452.557
2541 0 104.171 12.6619 1319 107.809 420.348 455.663
2542 0 107.333 10.1273 1087 111.863 419.78 448.112
2543 0 116.359 14.7733 1719 104.441 419.474 446.193
2544 0 118.552 13.5974 1612 105.976 419.734 441.201
2545 0 118.489 10.7605 1275 110.111 420.648 440.927
2546 0 125.516 11.8232 1484 107.185 419.408 431.485
2547 0 130.36 12.4424 1622 105.592 420.383 434.771
2548 0 133.566 11.8668 1585 105.537 419.924 434.232
2549 0 136.3 11.416 1556 106.724 419.728 425.861
2550 0 143.293 14.9693 2145 100.11 420.206 424.468
2551 0 147.742 14.972 2212 101.187 420.669 425.099
2552 0 150.268 12.1516 1826 100.807 421.209 429.588
2553 1 89.0868 12.8077 1141 94.4417 420.182 456.238
2554 0 92.1499 14.6935 1354 92.3331 422.976 451.158
2555 0 94.175 8.601 810 96.4074 421.704 462.464
2556 0 95.2961 12.225 1165 94.5227 422.857 457.717
2557 0 100.163 14.666 1469 93.7679 423.302 448.508
2558 0 105.261 12.2742 1292 96.7709 425.253 444.079
2559 0 103.189 9.43898 974 101.348 424.678 439.191
2560 0 109.483 13.2532 1451 96.7822 425.821 444.198
2561 0 114.406 14.2038 1625 96.776 424.979 440.257
2562 0 117.564 13.4055 1576 97.4683 425.155 434.789
2563 0 119.447 9.35983 1118 102.352 426.336 438.997
2564 1 69.1977 13.7721 953 94.4008 425.194 467.603
2565 0 72.5312 11.6915 848 96.4976 425.784 466.864
2566 0 75.3574 14.5573 1097 93.742 424.998 470.242
2567 0 77.2339 11.2256 867 97.5144 424.696 472.007
2568 0 82.7194 13.7453 1137 96.3756 424.262 470.527
2569 0 81.3987 11.1427 907 100.53 424.588 469.818
2570 0 84.339 11.1336 939 99.5942 424.3 469.009
2571 0 91.526 17.6453 1615 88.9121 425.578 472.949
2572 0 90.3374 13.361 1207 96.42 424.923 467.871
2573 0 94.2706 12.9203 1218 97.6839 423.817 465.362
2574 0 98.6775 15.6267 1542 93.0804 422.887 467.019
2575 0 99.4548 9.97438 992 100.732 422.369 462.99
2576 0 103.366 13.0604 1350 97.6185 420.876 460.079
2577 0 106.299 12.4931 1328 98.9496 421.514 454.938
2578 0 111.464 14.3903 1604 95.9676 419.926 456.412
2579 0 108.527 10.0344 1089 101.383 419.387 459.342
2580 0 117.353 15.1253 1775 96.4755 419.672 450.619
2581 0 120.562 13.379 1613 98.3168 418.773 452.135
2582 0 121.327 11.9099 1445 101.017 418.673 446.349
2583 0 127.724 12.7697 1631 99.4433 418.971 442.957
2584 0 134.56 14.1499 1904 97.1418 418.108 448.654
2585 0 133.185 13.2447 1764 96.7007 418.578 451.546
2586 0 139.377 14.3783 2004 96.3618 418.372 443.519
2587 0 140.234 10.4611 1467 102.473 417.903 436.086
2588 0 147.636 17.9496 2650 94.1513 418.142 431.993
2589 0 153.433 14.0844 2161 97.2406 418.201 430.72
2590 1 92.4605 13.4544 1244 95.4807 418.635 460.33
2591 0 93.1715 13.8776 1293 95.2684 419.951 459.98
2592 0 91.4767 11.052 1011 99.7695 419.123 455.78
2593 0 98.343 17.1136 1683 91.3809 420.644 459.121
2594 0 100.202 14.5606 1459 95.7676 420.385 447.798
2595 0 102.14 13.9906 1429 97.0735 420.993 447.902
2596 0 104.335 13.6004 1419 98.7632 422.306 443.561
2597 0 106.391 11.1664 1188 100.872 422.987 442.334
2598 0 117.588 16.1241 1896 92.3296 423.029 447.536
2599 0 116.642 18.5954 2169 91.308 425.208 443.843
2600 0 117.245 10.8917 1277 99.8434 424.908 444.221
2601 0 125.763 13.7162 1725 96.2881 425.083 427.303
2602 0 127.478 13.5004 1721 98.0221 425.196 436.976
2603 0 130.205 12.5264 1631 99.6395 426.143 437.806
2604 0 136.625 16.0951 2199 95.4966 425.907 433.594
2605 0 142.389 15.9142 2266 95.8076 425.408 427.217
2606 0 150.423 15.8087 2378 93.4033 425.323 423.091
2607 0 152.334 13.3982 2041 98.8893 425.401 435.277
2608 0 161.201 18.2257 2938 93.9244 424.124 430.203
2609 0 164.263 12.9122 2121 101.792 424.814 427.051
2610 0 177.531 22.0187 3909 89.7327 424.951 433.354
2611 0 178.309 12.8485 2291 101.639 423.552 414.475
2612 0 185.605 14.2776 2650 98.4679 423.682 417.527
2613 0 192.556 15.9123 3064 99.0467 424.887 405.801
2614 1 118.315 17.0815 2021 91.6586 424.294 458.67
2615 0 120.348 13.8681 1669 95.3871 423.905 461.919
2616 0 123.635 12.4803 1543 97.8328 422.02 451.588
2617 0 124.27 13.9695 1736 96.8508 421.545 448.454
2618 0 129.281 13.2115 1708 97.6095 420.694 439.865
2619 0 135.451 8.66737 1174 102.641 420.636 426.821
2620 0 144.426 15.3989 2224 94.4038 419.498 440.466
2621 0 146.477 17.8595 2616 91.9151 419.596 441.354
2622 0 151.26 15.1726 2295 94.7512 418.76 433.272
2623 0 156.545 13.2358 2072 100.275 418.163 425.466
2624 0 164.867 15.6308 2577 96.6271 418.099 427.633
2625 0 166.474 13.1252 2185 100.122 417.87 423.19
2626 0 173.625 16.5875 2880 96.7226 418.05 415.527
2627 0 175.675 15.0676 2647 98.9275 417.556 401.968
2628 0 181.554 12.3654 2245 102.845 417.949 404.765
2629 0 189.5 15.2718 2894 98.2426 418.127 410.718
2630 0 194.352 15.3381 2981 99.052 418.43 399.835
2631 0 202.897 16.4517 3338 96.74 418.776 404.818
2632 0 209.541 16.6316 3485 96.5943 419.094 402.046
2633 1 52.0806 9.27408 483 94.7495 419.925 476.741
2634 0 50.1899 13.8673 696 92.8376 419.734 478.523
2635 0 53.1705 11.9427 635 95.1039 420.416 476.213
2636 0 55.1728 13.8293 763 93.8218 421.291 473.397
2637 0 57.2072 13.8968 795 93.3937 422.619 474.82
2638 0 61.1831 10.4931 642 97.0483 423.69 470.19
2639 0 61.1831 10.4441 639 139.972 423.676 470.014
2640 0 61.055 14.3313 875 91.8046 423.094 472.904
2641 0 64.1827 12.6202 810 94.1148 424.24 473.116
2642 1 79.2345 15.6624 1241 90.8106 426.522 468.991
2643 0 81.1394 15.1714 1231 90.4021 426.835 473.348
2644 0 82.1975 15.2438 1253 93.6903 427.251 469.692
2645 0 83.1513 14.4195 1199 93.5038 425.579 466.962
2646 0 89.3954 20.236 1809 88.0774 425.313 465.461
2647 0 90.6018 15.3308 1389 92.3902 424.251 468.558
2648 0 92.2132 11.5276 1063 96.5071 424.58 461.455
2649 0 94.185 13.8345 1303 94.3093 424.971 456.593
2650 0 97.2287 14.0596 1367 94.7125 422.898 459.294
2651 0 103.443 17.1882 1778 91.2812 423.788 454.957
2652 0 103.435 16.5611 1713 91.474 422.027 458.901
2653 1 32.0398 10.1436 325 90.6277 422.215 494.372
2654 0 30.0414 8.05556 242 92.9339 420.909 495.041
2655 0 34.2085 16.224 555 82.6847 419.041 491.652
2656 0 36.0638 3.79882 137 94.219 419.044 495.394
2657 0 41.0904 8.73684 359 90.6072 418.883 491.699
2658 0 37.1256 8.96956 333 90.9399 417.228 487.631
2659 0 35.1033 10.3694 364 90.3874 417.555 486.948
2660 0 34.0852 8.27338 282 92.0355 416.067 490.702
2661 0 36.0565 17.2784 623 83.5474 416.86 491.647
2662 0 40.1304 10.3413 415 86.7904 417.289 494.706
2663 0 38.079 10.7671 410 88.8244 415.454 488.278
2664 0 35.0536 10.0418 352 89.5966 416.219 486.528
2665 0 40.3142 22.7711 918 80.5229 415.935 483.717
2666 0 41.1276 13.0083 535 87.9907 416.32 484.447
2667 0 42.2646 14.4092 609 82.2414 416.376 489.259
2668 0 40.023 11.7433 470 88.883 416.419 482.557
2669 0 39.1139 14.2916 559 87.1002 417.25 484.102
2670 0 41.1766 12.9928 535 87.8598 416.77 485.265
2671 0 42.2232 14.1155 596 88.1292 417.471 479.597
2672 0 40.0871 14.9924 601 87.4692 417.767 482.196
2673 0 41.139 12.1053 498 90.0141 418.912 480.884
2674 0 41.0518 19.4876 800 84.045 418.811 483.098
2675 0 41.151 15.5039 638 89.0972 420.122 479.246
2676 0 37.0774 9.41273 349 95.7307 419.828 477.756
