time division length width area intensity CMx CMy
0 0 41.1029 14.4758 595 129.613 815.363 477.442
1 0 39.1204 14.3148 560 128.589 815.084 478.57
2 0 40.0379 12.4382 498 132.185 814.948 479.161
3 0 40.1322 11.1382 447 133.577 814.163 478.678
4 0 43.0384 11.2225 483 131.687 813.567 478.224
5 0 45.0745 17.7706 801 119.718 812.307 477.598
6 0 44.0559 15.0037 661 129.787 811.035 475.06
7 0 46.1283 15.3702 709 127.674 809.709 475.55
8 0 45.0524 13.6952 617 134.702 809.587 474.112
9 0 49.1034 17.1475 842 124.409 808.651 474.543
10 0 51.0537 22.6428 1156 113.527 808.726 474.747
11 0 51.1695 14.3054 732 128.109 807.866 472.904
12 0 51.0419 15.3991 786 129.597 808.522 470.033
13 0 55.0843 15.8484 873 121.717 808.373 468.511
14 0 56.2138 16.5618 931 125.081 808.177 464.984
15 0 60.1676 16.1881 974 122.354 807.594 466.084
16 0 61.1512 17.4159 1065 120.332 808.012 463.953
17 0 60.2319 13.3816 806 128.423 807.34 463.452
18 0 63.1419 18.1338 1145 123.893 807.706 454.721
19 0 65.0371 16.0524 1044 127.282 806.232 457.379
20 0 68.0598 14.9427 1017 123.839 807.15 459.565
21 0 71.0992 18.1718 1292 119.019 807.441 454.238
22 0 70.0775 15.4115 1080 124.707 808.447 448.074
23 0 70.0775 15.5542 1090 150.428 809.446 447.842
24 0 78.3387 15.7649 1235 126.828 811.787 448.708
25 0 76.2886 14.3927 1098 149.888 813.807 446.702
26 0 84.1987 16.4136 1382 122.514 813.747 449.726
27 0 86.1633 19.6139 1690 119.647 813.95 443.991
28 0 89.2837 16.2852 1454 126.01 813.942 440.728
29 1 46.0686 13.4148 618 131.307 815.049 458.34
30 0 48.3954 13.8443 670 130.627 814.585 460.006
31 0 51.0401 15.3605 784 125.468 816.788 461.131
32 0 54.1126 16.5211 894 122.798 817.167 460.441
33 0 54.118 14.7271 797 124.819 817.149 458.139
34 0 58.2648 16.2019 944 119.984 817.655 460.133
35 0 59.1019 15.1603 896 125.853 817.281 456.858
36 0 63.3567 16.8885 1070 117.56 818.841 460.066
37 0 65.0924 14.9019 970 121.977 817.804 459.44
38 0 65.0716 13.8002 898 128.69 818.738 457.577
39 0 68.2031 13.8264 943 122.615 818.752 458.36
40 0 70.0514 14.9604 1048 121.285 818.813 457.05
41 0 74.1609 17.0845 1267 117.737 818.732 457.798
42 0 76.1644 15.309 1166 120.078 818.424 457.13
43 0 79.0882 14.9453 1182 120.863 817.907 455.53
44 0 81.188 15.3471 1246 119.093 817.075 454.667
45 0 86.1233 17.684 1523 122.844 816.281 455.83
46 0 88.1988 20.0683 1770 125.68 815.86 455.018
47 0 92.1533 18.122 1670 130.292 815.86 452.274
48 0 93.1902 15.5703 1451 132.322 815.02 451.259
49 0 98.2992 15.697 1543 131.938 814.894 452.413
50 1 49.1065 12.9718 637 139.111 812.432 475.137
51 0 53.122 14.5702 774 134.27 812.411 474.155
52 0 56.0417 14.0074 785 136.32 811.856 472.638
53 0 58.0449 13.6102 790 138.848 811.685 470.292
54 0 58.0724 12.4672 724 136.385 811.087 471.001
55 0 61.202 13.7577 842 132.995 810.361 470.355
56 0 63.2213 16.7665 1060 128.558 810.698 465.556
57 0 67.1237 15.7172 1055 130.049 809.781 463.765
58 0 69.1497 14.8229 1025 131.899 808.737 463.008
59 0 71.1265 14.7765 1051 132.369 810.193 462.057
60 0 74.121 15.9739 1184 130.828 808.711 459.204
61 0 76.1563 15.4551 1177 132.013 808.206 455.478
62 0 78.1276 16.5882 1296 129.459 808.459 456.192
63 0 82.0846 14.8993 1223 133.501 809.085 452.364
64 0 84.1579 14.7699 1243 133.22 808.29 449.048
65 0 84.1159 13.9569 1174 134.337 809.209 450.288
66 0 90.123 15.035 1355 132.818 809.183 443.241
67 0 90.213 12.9804 1171 136.661 809.966 442.823
68 0 95.2152 13.6113 1296 134.968 809.998 440.466
69 0 98.0846 16.4858 1617 127.502 810.323 440.104
70 0 105.314 15.3161 1613 128.687 809.823 436.893
71 0 107.163 16.2089 1737 127.18 811.119 435.819
72 1 53.0586 12.4202 659 125.073 811.58 461.557
73 0 55.2116 12.1895 673 126.793 812.465 457.684
74 0 56.1485 11.3983 640 128.508 812.455 455.766
75 0 57.0716 12.3529 705 122.62 812.748 460.608
76 0 61.1051 13.3377 815 122.201 813.664 456.534
77 0 63.3635 14.1091 894 119.504 814.208 458.569
78 0 65.1346 12.2976 801 123.945 814.393 457.463
79 0 67.0954 10.418 699 126.014 816.395 460.339
80 0 70.0885 15.1951 1065 118.922 816.214 458.223
81 0 72.0842 13.831 997 122.298 816.374 453.851
82 0 72.1758 12.1509 877 124.821 815.847 457.94
83 0 77.1231 12.5514 968 124.052 815.499 455.467
84 0 77.1231 12.4736 962 140.435 816.499 455.611
85 0 83.1141 19.01 1580 113.733 815.006 459.154
86 0 85.1685 14.9703 1275 121.151 814.956 456.857
87 0 87.1936 13.6822 1193 124.444 815.127 456.391
88 0 90.0756 13.2333 1192 124.532 814.93 456.175
89 0 92.2141 13.8807 1280 124.33 814.411 452.441
90 0 98.2478 14.4736 1422 122.233 813.538 454.872
91 0 101.161 14.818 1499 121.596 813.664 454.223
92 0 106.154 13.6311 1447 124.256 812.867 450.502
93 1 58.1473 12.4511 724 119.595 812.037 476.033
94 0 58.0879 13.6517 793 118.483 811.652 473.066
95 0 61.0569 12.2836 750 121.304 809.813 472.684
96 0 62.2183 12.424 773 120.739 810.693 470.405
97 0 66.1331 13.2611 877 117.302 808.976 472.604
98 0 66.0991 13.2528 876 118.615 808.815 467.84
99 0 68.2968 12.1089 827 120.658 808.103 468.657
100 0 71.1658 12.3936 882 120.478 807.314 464.094
101 0 73.1218 13.0741 956 119.702 806.342 462.311
102 0 75.0903 13.5703 1019 116.891 806.614 464.521
103 0 79.151 13.4427 1064 116.002 806.955 459.381
104 0 82.1961 10.6818 878 120.664 806.822 458.818
105 0 86.133 13.723 1182 116.752 806.769 457.544
106 0 88.2428 16.3526 1443 112.408 805.938 452.673
107 0 90.1895 12.2852 1108 119.264 806.453 452.73
108 0 94.1681 12.2122 1150 118.971 806.777 449.417
109 1 52.2129 10.8211 565 118.29 806.044 467.685
110 0 54.0739 12.7788 691 112.873 806.316 466.398
111 0 56.039 14.4185 808 114.281 806.433 463.901
112 0 54.0318 9.58696 518 118.114 808.546 466.044
113 0 58.0492 14.5738 846 108.466 808.775 466.457
114 0 57.0416 14.7436 841 109.961 809.741 464.792
115 0 59.0687 11.4443 676 116.309 809.572 461.916
116 0 61.0659 13.9521 852 113.779 810.897 457.546
117 0 64.1802 12.2935 789 114.899 811.15 462.682
118 0 63.0764 12.4135 783 117.395 811.267 458.604
119 0 66.1016 10.5141 695 119.332 811.683 459.255
120 0 69.3354 14.2063 985 114.134 811.439 456.788
121 0 72.243 12.4026 896 113.03 812.449 462.816
122 0 73.1198 12.1444 888 119.34 813.159 453.902
123 0 77.2948 7.96949 616 123.24 813.75 461.062
124 1 41.1098 10.4355 429 119.438 812.802 470.527
125 0 44.0833 10.9792 484 116.831 813.897 472.31
126 0 45.1262 9.06346 409 119.812 813.328 475.115
127 0 45.1207 9.99541 451 119.936 813.769 473.195
128 0 43.0516 9.61637 414 124.237 814.169 471.135
129 0 49.1762 11.4283 562 118.995 812.911 471.989
130 0 46.0798 10.4384 481 113.655 814.062 479.081
131 0 49.184 11.6908 575 111.88 814.224 477.546
132 0 51.0496 10.6367 543 113.823 814.057 476.842
133 0 51.0495 8.36443 427 114.585 812.703 481.822
134 0 51.0398 10.4624 534 114.573 810.843 473.689
135 0 55.1017 10.9253 602 113.279 811.615 472.224
136 0 57.0546 12.5669 717 111.142 810.633 474.432
137 0 59.1336 11.0766 655 111.504 811.362 476.905
138 1 121.342 11.9332 1448 120.126 809.629 443.289
139 1 60.041 10.0598 604 114.061 809.073 475.765
140 0 62.0871 12.3858 769 110.503 807.284 471.986
141 0 64.0816 12.9522 830 110.855 806.541 468.099
142 0 70.1521 9.09453 638 115.078 805.776 469.672
143 0 70.3665 11.9801 843 112.447 805.427 465.305
144 0 68.1329 9.77501 666 116.465 804.568 463.023
145 0 74.1025 11.835 877 111.749 804.262 465.096
146 0 75.3096 12.6943 956 111.389 804.026 463.884
147 0 79.3168 10.6157 842 114.102 803.428 458.698
148 0 81.4448 11.9713 975 113.646 804.583 453.321
149 0 86.2055 11.7046 1009 112.387 803.453 455.364
150 0 87.2253 10.983 958 114.326 804.397 451.009
151 0 91.2145 14.57 1329 110.069 804.48 447.687
152 1 50.0257 9.61506 481 114.642 803.549 465.744
153 0 53.2717 11.7135 624 112.292 804.17 466.239
154 0 52.1734 14.3368 748 104.055 805.237 470.007
155 0 53.0737 9.76002 518 109.496 805.651 464.656
156 0 58.1801 9.52216 554 108.664 805.623 467.087
157 0 57.1109 10.751 614 106.073 806.88 465.614
158 0 63.3948 11.4047 723 105.934 806.746 463.118
159 0 62.294 12.6336 787 104.872 808.206 462.87
160 0 63.1387 13.1615 831 105.856 808.264 457.034
161 0 65.2242 12.4187 810 107.198 809.536 457.489
162 0 69.2028 15.6208 1081 101.84 810.202 455.648
163 0 69.1431 12.7417 881 106.587 811.252 456.415
164 0 70.2878 15.778 1109 100.839 811.242 461.694
165 0 75.1672 13.4367 1010 105.541 812.219 453.05
166 1 38.1446 11.4564 437 109.153 811.513 473.899
167 0 39.0651 11.0585 432 109.775 811.051 474.975
168 0 42.0866 11.2625 474 110.146 811.525 473.755
169 0 43.038 12.6865 546 105.28 813.044 475.69
170 0 44.0758 12.9776 572 105.423 813.012 475.635
171 0 44.0758 12.9323 570 107.619 812.016 475.73
172 0 44.171 8.71612 385 114.306 811.852 475.444
173 0 45.1396 10.7887 487 109.694 811.094 478.893
174 0 48.3332 10.4897 507 109.367 811.073 482.507
175 0 49.1079 11.1184 546 110.379 810.438 478.857
176 0 49.2625 8.95205 441 114.24 810.197 480.458
177 0 51.0905 12.2136 624 110.596 810.184 477.675
178 0 52.1567 11.3888 594 112.02 809.113 478.823
179 0 52.1549 11.6001 605 111.663 809.516 480.236
180 0 56.1125 11.7621 660 111.115 808.276 479.079
181 0 57.1614 10.5841 605 112.514 806.891 477.727
182 0 60.1589 13.8134 831 109.658 806.838 474.637
183 0 63.123 10.8202 683 113.347 806.829 476.303
184 0 64.1142 13.4915 865 110.304 805.12 469.534
185 0 66.309 12.2608 813 111.522 805.167 471.064
186 0 69.1986 11.5031 796 112.891 805.006 466.237
187 0 72.2155 12.0334 869 110.654 803.592 466.852
188 0 73.205 12.745 933 109.971 804.116 464.849
189 0 78.2398 15.0052 1174 106.561 803.121 460.382
190 0 81.2116 11.5501 938 111.956 803.116 457.043
191 0 83.209 13.3519 1111 108.225 802.504 459.512
192 0 86.1292 12.1329 1045 110.781 803.091 456.996
193 0 86.1292 12.0749 1040 122.16 803.086 457.095
194 1 47.1921 10.7857 509 114.513 802.134 470.552
195 0 45.0864 11.0011 496 113.484 805.633 469.202
196 0 43.1231 9.78594 422 116.803 805.493 468.164
197 0 48.1695 10.9198 526 114.306 806.443 466.964
198 0 46.1569 10.096 466 116.425 806.687 463.908
199 0 46.1569 10.0743 465 125.327 806.645 463.619
200 0 54.101 12.8279 694 111.331 808.2 464.246
201 0 54.0899 15.0305 813 109.399 806.512 459.629
202 0 56.0885 15.3686 862 108.653 808.094 461.151
203 0 58.1385 10.3546 602 114.239 809.535 465.581
204 0 58.1125 10.2904 598 132.998 810.564 465.617
205 0 62.2948 13.2114 823 110.908 809.147 459.45
206 0 63.329 14.6694 929 110.808 809.719 458.325
207 0 65.2895 13.1568 859 113.731 809.794 460.804
208 0 68.2048 12.3158 840 115.092 810.827 460.467
209 0 73.1825 13.0359 954 113.637 811.836 459.915
210 0 74.308 12.3002 914 115.883 811.28 459.975
211 0 77.2285 17.4418 1347 107.327 812.334 461.57
212 0 78.1915 14.0552 1099 114.561 812.498 457.06
213 0 81.3502 13.1038 1066 117.421 811.774 455.245
214 1 47.1087 10.4439 492 117.724 811.016 476.872
215 0 48.1226 10.5356 507 118.613 811.574 476.006
216 0 48.057 10.7372 516 112.523 812.217 469.089
217 0 50.2122 12.4671 626 115.064 810.812 477.358
218 0 51.11 11.7002 598 117.355 810.931 477.647
219 0 51.1092 10.4874 536 118.274 810.541 479.532
220 0 52.2352 9.99326 522 120.224 809.111 477.745
221 0 57.1433 11.0949 634 119.349 809.219 477.953
222 0 56.2531 11.5905 652 120.006 808.972 477.35
223 0 60.3821 14.342 866 115.435 807.754 477.672
224 0 62.3021 12.5357 781 117.945 806.544 476.018
225 0 62.3021 12.4875 778 151.292 805.554 476.044
226 0 66.2213 14.3458 950 116.552 805.502 473.56
227 0 69.2362 10.8325 750 122.217 804.503 474.06
228 0 71.1581 13.3365 949 117.678 803.865 468.76
229 0 72.1297 13.656 985 118.427 803.144 465.786
230 0 76.0952 12.7735 972 118.524 802.249 467.534
231 0 79.0935 13.149 1040 120.18 801.487 462.726
232 0 80.2024 12.1692 976 122.94 801.987 462.816
233 0 84.4097 12.1432 1025 122.123 802.275 462.295
234 0 88.219 13.4665 1188 120.664 801.054 456.434
235 0 91.1767 13.8083 1259 119.825 802.15 456.902
236 1 47.0382 10.4171 490 120.471 801.229 476.645
237 0 50.1558 11.7633 590 118.766 800.937 471.603
238 0 51.04 13.2053 674 115.556 801.818 472.027
239 0 52.1348 14.5584 759 117.282 800.708 469.705
240 0 53.1329 14.8684 790 117.565 802.096 470.704
241 0 54.1505 13.4255 727 120.502 801.682 468.798
242 0 56.256 12.4431 700 123.771 802.894 466.129
243 0 58.3367 12.9421 755 122.477 803.611 465.273
244 0 57.0644 11.5133 657 125.697 802.82 466.37
245 0 61.0915 13.9299 851 122.372 804.917 461.114
246 0 62.1137 13.6202 846 122.337 804.751 463.041
247 0 65.1424 14.8444 967 120.457 805.739 460.859
248 0 67.5349 15.7992 1067 117.658 806.294 462.072
249 0 68.1148 13.4772 918 120.771 807.682 459.161
250 0 69.2428 13.8065 956 120.771 808.3 456.907
251 0 72.1554 13.1799 951 120.636 808.228 460.107
252 0 74.28 13.2876 987 121.903 809.643 456.431
253 0 78.1741 13.7258 1073 120.522 809.064 456.921
254 0 78.1804 13.891 1086 121.931 809.495 457.54
255 0 83.094 14.3332 1191 119.765 809.584 458.465
256 0 85.2189 15.6421 1333 119.483 809.772 453.748
257 0 83.3234 10.9813 915 128.057 810.837 453.974
258 0 91.1488 13.9881 1275 121.733 810.875 453.526
259 0 95.197 14.4122 1372 120.696 811.851 453.337
260 1 50.0641 10.7662 539 121.545 811.187 475.362
261 0 53.1264 13.3267 708 116.682 811.006 474.397
262 0 53.0463 13.3091 706 114.288 810.698 470.323
263 0 55.0754 9.87738 544 123.807 808.331 474.675
264 0 55.1505 10.0996 557 123.898 808.697 474.248
265 0 60.1879 13.1754 793 118.686 807.508 473.199
266 0 63.1925 15.3816 972 115.298 807.559 471.79
267 0 65.107 15.3901 1002 115.054 806.246 471.558
268 0 66.1887 12.0867 800 120.862 805.64 471.964
269 0 66.1887 11.9054 788 132.615 805.659 471.798
270 0 72.1206 16.5695 1195 113.623 803.769 467.275
271 0 73.252 15.003 1099 115.755 803.695 467.05
272 0 76.5078 14.639 1120 116.367 804.171 463.11
273 0 76.5078 15.3318 1173 135.365 805.197 463.942
274 0 82.3111 13.291 1094 118.836 802.598 462.972
275 0 85.2223 14.5033 1236 118.01 801.718 460.084
276 0 85.2325 14.3724 1225 120.398 802.792 453.659
277 0 88.069 12.6719 1116 126.607 801.673 451.103
278 1 47.0424 12.5206 589 119.093 800.733 471.171
279 0 47.0568 13.4518 633 116.179 802.043 473.412
280 0 53.2121 17.8343 949 110.31 801.717 465.986
281 0 53.1096 14.5548 773 110.565 801.365 468.389
282 0 53.2557 13.3882 713 112.773 801.189 468.669
283 0 55.1476 13.0559 720 113.651 802.793 465.96
284 0 55.2208 13.5818 750 113.732 802.285 463.797
285 0 58.1328 12.4542 724 115.49 804.732 460.398
286 0 61.1629 15.9247 974 109.316 804.793 459.349
287 0 63.3508 14.6802 930 111.386 805.91 457.581
288 0 61.1703 11.2146 686 117.675 804.873 459.43
289 0 65.0662 9.82076 639 119.57 805.931 459.499
290 0 67.0368 13.0824 877 115.489 806.99 455.949
291 0 69.1176 12.2979 850 116.919 808.949 454.38
292 0 72.0671 14.1951 1023 114.347 808.208 455.323
293 0 75.0742 14.4391 1084 114.87 810.529 451.009
294 0 75.2615 12.0912 910 117.133 808.39 454.275
295 0 78.2801 15.4573 1210 112.939 809.816 453.871
296 0 80.1583 12.0012 962 118.852 810.497 452.963
297 0 81.0398 11.9818 971 120.027 811.599 455.487
298 0 86.2558 13.4716 1162 117.715 812.863 450.664
299 0 84.1663 10.8951 917 123.581 812.186 451.062
300 0 89.3043 15.1057 1349 116.508 812.744 453.64
301 0 91.3159 13.4259 1226 120.135 811.984 448.915
302 0 96.1678 12.9669 1247 119.425 812.124 452.261
303 0 99.235 17.4737 1734 112.874 811.395 447.542
304 0 104.13 14.3954 1499 115.878 811.326 451.817
305 1 54.1909 13.5447 734 114.779 812.877 476.037
306 0 56.1529 13.1605 739 113.449 809.46 473.539
307 0 56.1911 10.8914 612 117.838 812.52 475.02
308 0 59.1014 11.6241 687 117.227 811.08 472.508
309 0 61.1253 12.1226 741 116.65 810.999 474.563
310 0 64.127 16.9819 1089 109.777 810.626 470.021
311 0 65.0978 12.197 794 116.834 809.68 473.683
312 0 67.1267 13.184 885 116.207 808.615 472.538
313 0 69.1696 13.4741 932 117.413 808.2 470.628
314 0 71.1616 12.2538 872 120.329 808.329 465.964
315 0 75.1933 19.1374 1439 109.084 807.139 465.771
316 0 75.1359 14.6534 1101 117.711 807.776 462.045
317 0 78.1504 14.4209 1127 118.158 805.596 459.922
318 0 78.1504 14.3953 1125 133.785 803.568 459.88
319 1 45.0633 10.8292 488 120.533 804.977 477.375
320 0 46.0994 11.9524 551 118.203 802.372 473.436
321 0 48.3341 12.9722 627 120.853 803.525 469.191
322 0 50.1079 12.3334 618 113.45 803.053 473.916
323 0 51.1713 13.3473 683 112.135 804.694 471.72
324 0 54.1343 12.7091 688 113.237 804.483 466.911
325 0 54.129 14.5024 785 111.613 804.773 464.113
326 0 55.2188 12.4052 685 113.05 805.666 466.397
327 0 55.2188 12.2965 679 125.682 805.657 466.314
328 0 59.1247 12.7358 753 113.76 806.259 460.637
329 0 61.2067 13.3972 820 113.054 805.495 458.491
330 0 65.2191 12.5117 816 113.288 807.158 460.439
331 0 67.2573 11.969 805 114.839 807.554 457.371
332 0 66.0872 14.6019 965 112.075 808.214 456.637
333 0 66.0872 14.7684 976 122.977 809.24 456.6
334 0 67.106 14.4994 973 112.108 808.443 458.535
335 0 73.0924 14.0234 1025 119.152 808.81 452.767
336 0 74.1163 14.4503 1071 118.064 809.649 453.663
337 0 78.2224 14.2542 1115 119.205 809.686 449.474
338 0 82.1587 14.0703 1156 119.325 811.089 449.481
339 0 83.0865 14.0697 1169 120.465 812.192 447.291
340 0 86.301 12.6418 1091 123.084 813.238 446.265
341 0 87.2043 13.5429 1181 122.678 812.277 444.683
342 0 91.2536 13.6104 1242 121.755 813.007 446.495
343 1 51.1445 12.494 639 116.509 814.613 468.563
344 0 53.1717 13.6163 724 113.195 813.711 471.663
345 0 53.1826 11.5451 614 116.248 814.594 472.533
346 0 52.0976 12.5534 654 115.95 814.477 470.628
347 0 57.083 11.8424 676 113.361 814.025 471.74
348 0 61.4991 13.5287 832 107.874 813.421 473.525
349 0 63.0948 13.139 829 111.214 813.701 470.099
350 0 63.1067 15.0539 950 107.994 813.221 470.327
351 0 65.0837 16.7477 1090 106.158 812.943 469.048
352 0 65.0974 13.2417 862 113.162 811.855 466.291
353 0 69.1851 12.9363 895 112.844 811.965 466.226
354 0 73.2328 15.8536 1161 108.4 811.598 465.537
355 0 74.2308 13.4311 997 111.5 809.982 468.843
356 0 75.3212 13.781 1038 113.769 808.952 464.051
357 0 76.0836 13.196 1004 115.058 808.731 462.107
358 0 79.1978 13.3211 1055 114.24 808.657 462.537
359 0 82.2443 14.7974 1217 112.276 808.628 456.511
360 1 44.0368 12.7621 562 113.1 808.698 478.336
361 0 45.0406 11.1233 501 116.148 807.244 477.934
362 0 47.0548 15.0038 706 110.527 807.365 476.187
363 0 51.0893 13.173 673 114.648 806.831 473.056
364 0 51.0676 12.7478 651 110.553 806.684 471.733
365 0 49.0761 11.5739 568 115.567 806.794 470.78
366 0 53.044 16.3072 865 106.097 807.468 471.291
367 0 53.044 16.3072 865 128.376 808.524 471.161
368 0 55.1608 13.8323 763 112.638 806.505 465.49
369 0 57.1258 12.4637 712 111.847 806.239 465.24
370 0 59.1227 12.1611 719 114.437 806.922 462.058
371 0 62.206 15.2075 946 109.326 807.371 460.83
372 0 61.1094 11.7985 721 115.689 807.983 457.086
373 0 64.207 12.3507 793 114.574 807.632 459.734
374 0 64.156 11.3317 727 118.535 808.425 456.1
375 0 67.1881 11.6241 781 117.479 808.639 455.362
376 0 69.188 13.4272 929 117.329 809.221 452.886
377 0 72.1713 12.9553 935 117.914 810.738 451.52
378 0 74.1719 15.1675 1125 132.477 812.639 454.357
379 0 77.2129 14.9845 1157 114.496 811.808 451.02
380 0 78.1662 12.9212 1010 117.988 812.492 451.355
381 0 82.2317 12.3432 1015 119.345 812.117 448.891
382 0 85.1964 11.3268 965 120.576 814.491 448.902
383 0 89.1894 17.02 1518 112.062 814.656 445.505
384 0 91.089 13.7338 1251 118.135 814.153 444.825
385 1 49.0845 12.8961 633 118.21 815.055 467.338
386 0 52.1479 18.4475 962 107.761 813.978 469.964
387 0 53.1081 16.7959 892 107.186 813.606 468.66
388 0 53.1218 16.7916 892 118.833 813.606 468.66
389 0 55.1587 13.3252 735 114.162 813.695 466.954
390 0 56.1882 14.0243 788 113.966 813.516 466.627
391 0 60.2204 14.3639 865 113.255 813.031 466.853
392 0 59.2254 14.0143 830 114.014 812.91 472.214
393 0 61.1844 13.3204 815 117.164 811.556 468.616
394 0 64.262 16.246 1044 111.823 812.793 467.203
395 0 64.215 11.8352 760 120.151 810.626 471.009
396 0 65.1551 15.3633 1001 115.806 811.484 465.556
397 0 69.2792 11.3743 788 119.329 811.051 470.853
398 0 74.2029 15.4037 1143 114.397 809.201 466.245
399 0 72.135 13.045 941 120.091 808.561 465.603
400 0 78.3132 16.2042 1269 113.864 808.285 466.955
401 0 79.1519 17.8265 1411 110.865 807.93 467.069
402 0 81.2998 15.4859 1259 116.8 807.377 458.495
403 0 85.2431 15.9074 1356 115.316 807.255 458.923
404 0 88.2554 18.8884 1667 111.672 806.281 455.819
405 0 90.1822 16.012 1444 116.946 806.195 455.878
406 0 93.3171 14.5311 1356 119.285 805.138 452.535
407 0 96.1456 15.0813 1450 118.384 805.148 451.103
408 0 98.3265 12.2653 1206 123.002 803.738 447.919
409 0 101.486 14.002 1421 118.157 804.581 450.843
410 0 104.323 12.9693 1353 121.655 804.556 444.615
411 0 106.293 14.9587 1590 119.796 804.93 440.955
412 0 113.398 16.9579 1923 115.514 805.633 438.969
413 0 116.274 15.816 1839 117.706 805.209 432.424
414 0 119.382 12.9333 1544 122.017 805.398 431.723
415 1 55.3209 14.5876 807 112.437 805.623 463.045
416 0 56.1753 14.2233 799 113.28 807.481 456.3
417 0 58.1248 13.7807 801 115.12 805.956 460.639
418 0 58.1163 13.6623 794 139.305 805.965 460.656
419 0 58.1163 13.7999 802 138.43 805.986 460.642
420 0 66.2545 16.18 1072 110.439 808.477 456.523
421 0 67.2881 15.0547 1013 113.045 809.87 454.643
422 0 69.6523 17.8458 1243 108.609 810.344 454.96
423 0 71.2642 15.1128 1077 113.121 811.339 451.428
424 0 72.3831 13.1384 951 112.186 811.282 450.12
425 0 76.1847 10.3302 787 114.142 811.69 454.306
426 0 79.1842 12.3888 981 111.452 812.272 452.862
427 0 80.1764 10.5018 842 115.895 812.502 447.341
428 0 85.1065 12.4785 1062 112.016 814.7 447.693
429 1 48.1037 13.6996 659 104.907 814.385 470.891
430 0 50.2178 10.4545 525 106.707 814.65 474.747
431 0 53.1528 15.3708 817 104.774 814.044 469.53
432 0 52.0407 15.9298 829 102.148 814.455 469.888
433 0 53.1038 11.6564 619 107.7 814.315 471.968
434 0 56.3489 13.7713 776 103.549 813.519 472.227
435 0 56.3228 13.032 734 105.711 814.045 469.648
436 0 59.2269 12.0891 716 105.332 813.145 474.751
437 0 60.0466 14.3888 864 105.258 813.586 470.958
438 0 62.2778 17.0687 1063 102.593 813.013 469.119
439 0 65.1426 13.647 889 109.919 812.39 470.708
440 0 64.1551 11.1137 713 110.871 811.85 471.175
441 0 70.3275 13.4798 948 109.361 811.575 465.744
442 0 70.2961 13.8272 972 109.271 810.522 467.787
443 0 76.3014 12.87 982 111.058 810.905 465.418
444 0 76.6208 12.973 994 112.053 810.912 465.122
445 0 80.5173 12.842 1034 113.189 809.037 462.919
446 1 38.0328 10.3595 394 111.368 808.815 482.81
447 0 39.0727 9.5975 375 113.229 808.389 482.176
448 0 41.1469 12.6863 522 110.253 807.376 481.615
449 0 41.1285 13.932 573 109.215 806.429 480.888
450 0 41.0922 14.358 590 109.959 805.588 479.863
451 0 44.2171 13.185 583 111.298 805.353 477.345
452 0 45.185 11.0878 501 115.198 805.174 475.667
453 0 47.1803 15.0062 708 109.343 805.01 473.66
454 0 50.2848 15.1537 762 108.012 805.092 474.613
455 0 49.4127 12.5271 619 115.152 804.738 470.163
456 0 51.1517 13.4306 687 113.121 804.675 469.496
457 0 53.3535 15.894 848 108.651 803.301 466.688
458 0 54.149 13.3336 722 113.993 803.068 466.176
459 0 57.3355 12.4356 713 115.689 802 464.983
460 0 57.1681 14.9384 854 111.689 803.433 465.992
461 0 61.1846 12.5032 765 115.162 804.429 463.092
462 0 62.161 12.5963 783 115.049 805.694 466.267
463 0 61.1534 13.5561 829 116.014 806.93 463.908
464 0 65.312 14.1628 925 115.996 806.757 460.121
465 0 68.4308 15.4901 1060 113.415 808.869 460.104
466 0 72.5408 14.709 1067 114.219 809.697 462.4
467 0 72.6232 14.1415 1027 117.498 809.22 455.408
468 0 75.404 14.2698 1076 116.896 810.565 457.994
469 0 75.1956 16.3307 1228 115.467 811.223 455.93
470 0 79.3283 14.1186 1120 122.164 811.645 456.424
471 0 80.5014 14.9066 1200 121.163 811.622 455.39
472 0 82.455 14.99 1236 120.71 811.993 454.523
473 0 86.4262 15.4583 1336 116.724 811.936 456.38
474 0 85.1932 14.3674 1224 120.31 812.547 452.748
475 1 47.286 15.5437 735 116.887 812.137 475.763
476 0 47.2929 11.0587 523 124.354 811.455 478.818
477 0 50.501 14.9304 754 117.492 810.512 478.532
478 0 51.2606 13.6752 701 118.639 809.807 476.126
479 0 54.1348 13.1893 714 123.119 809.578 478.994
480 0 55.2692 15.1984 840 118.701 808.942 477.42
481 0 60.3095 17.1449 1034 113.958 808.664 479.381
482 0 59.2897 14.3027 848 120.935 808.52 479.586
483 0 63.3998 14.4164 914 120.434 806.957 480.858
484 0 65.2309 14.579 951 120.68 806.76 475.306
485 0 66.2292 14.9934 993 120.233 803.881 473.066
486 0 68.0651 14.6037 994 120.934 802.524 472.297
487 0 70.107 13.1799 924 124.208 802.98 472.95
488 0 72.1351 12.7816 922 125.482 802.565 471.056
489 0 76.5336 13.9939 1071 123.345 802.505 470.19
490 0 78.3523 15.3537 1203 121.163 802.507 465.582
491 0 81.2182 14.0239 1139 122.737 802.092 467.121
492 0 82.2492 13.3618 1099 125.93 801.18 460.407
493 0 82.2492 13.4226 1104 150.252 800.208 460.438
494 1 44.0818 13.2481 584 114.432 800.146 482.586
495 0 45.1189 8.82114 398 121.729 799.651 483.01
496 0 48.1794 11.9138 574 122.974 798.582 484.146
497 0 47.0953 12.2093 575 118.939 799.409 482.343
498 0 49.0299 12.523 614 121.098 798.756 477.881
499 0 50.1054 12.5935 631 120.829 799.376 476.789
500 0 51.0575 11.3793 581 123.916 799.15 474.561
501 0 56.1845 13.4201 754 118.777 800.676 473.772
502 0 58.0509 12.6441 734 119.196 802.283 473.012
503 0 59.1519 17.1085 1012 112.957 802.938 469.144
504 0 61.0604 17.9167 1094 112.42 802.995 466.259
505 0 63.1705 15.6719 990 115.974 803.865 465.491
506 0 65.1316 16.505 1075 115.864 804.903 463.363
507 0 66.1638 15.4918 1025 118.796 804.97 462.049
508 0 69.243 13.9509 966 121.012 806.159 464.585
509 0 71.0982 16.5405 1176 121.023 806.971 461.09
510 0 74.1242 13.6528 1012 126.997 807.028 460.81
511 0 74.1616 14.1852 1052 122.874 807.403 459.727
512 0 80.1153 14.891 1193 122.718 809.911 459.853
513 1 39.1904 13.0134 510 123.092 810.102 475.973
514 0 42.0683 15.4035 648 118.455 810.105 475.694
515 0 42.2917 14.2108 601 121.008 811.842 474.536
516 0 45.0978 12.5505 566 125.244 811.475 479.364
517 0 46.1636 13.4738 622 126.151 811.646 480.593
518 0 49.151 13.7739 677 124.637 811.337 480.089
519 0 47.1973 15.361 725 123.575 811.335 480.181
520 0 49.0742 11.452 562 130.927 810.972 482.219
521 0 50.1902 14.186 712 126.701 810.202 477.301
522 0 53.4189 14.1336 755 125.714 809.678 479.321
523 0 53.4189 14.1523 756 137.696 808.704 479.339
524 0 58.5251 14.6262 856 123.638 807.86 479.324
525 0 59.359 12.9719 770 128.284 806.445 477.634
526 0 59.244 13.8579 821 128.005 807.348 478.096
527 0 62.2149 12.8104 797 130.374 806.335 475.826
528 0 65.2268 14.3806 938 126.674 805.548 476.451
529 0 70.4573 14.2924 1007 124.896 803.617 476.872
530 0 70.6188 14.727 1040 124.477 802.509 474.56
531 0 75.2941 18.2352 1373 118.295 803.32 470.971
532 0 76.4193 14.5775 1114 124.455 801.161 470.106
533 0 75.3771 14.2484 1074 126.448 800.894 468.737
534 0 82.1142 14.0658 1155 125.361 799.164 464.672
535 0 82.4608 16.0682 1325 122.19 797.198 464.045
536 0 85.496 13.486 1153 127.624 797.772 461.101
537 0 89.5609 14.5711 1305 124.914 797.189 457.972
538 0 92.4681 15.8541 1466 121.546 798.044 456.36
539 0 92.3595 13.7073 1266 124.075 797.225 457.263
540 0 97.9388 17.1025 1675 121.014 800.575 451.766
541 1 53.4739 15.1102 808 118.691 797.191 473.984
542 0 52.2878 14.0186 733 121.944 797.025 472.798
543 0 54.3528 13.5596 737 123.187 800.612 471.233
544 0 58.3423 14.9806 874 120.907 800.938 469.7
545 0 58.2455 13.2886 774 124.845 802.112 464.057
546 0 68.2606 18.7956 1283 109.939 801.786 468.864
547 0 67.4544 13.965 942 120.016 803.794 464.016
548 0 66.2635 15.2422 1010 119.675 803.889 458.728
549 0 66.3762 13.1523 873 123.247 804.16 460.561
550 0 70.5053 15.6158 1101 118.046 804.788 459.852
551 0 74.4724 16.4759 1227 115.886 804.189 456.844
552 0 76.5181 16.1792 1238 117.667 804.354 454.86
553 0 81.8382 15.6528 1281 117.04 805.6 456.247
554 0 83.7867 16.2914 1365 114.812 805.924 456.764
555 0 85.5534 13.7224 1174 119.145 806.488 456.182
556 0 89.8604 16.5145 1484 114.585 807.19 455.278
557 0 93.1995 19.3349 1802 110.277 809.222 452.684
558 0 94.3209 16.0728 1516 116.022 809.888 451.272
559 0 97.5706 14.1744 1383 118.727 809.464 450.657
560 0 102.592 14.0459 1441 117.874 809.728 453.668
561 0 106.351 15.6557 1665 115.4 809.415 451.208
562 0 110.34 15.1804 1675 115.257 809.635 451.382
563 0 116.377 15.7505 1833 113.857 808.638 449.534
564 1 61.1895 16.0975 985 111.52 808.23 475.1
565 0 62.1461 12.4062 771 112.279 808.595 473.227
566 0 67.1716 14.6193 982 109.398 807.579 477.189
567 0 67.0989 13.1746 884 112.639 808.351 474.106
568 0 72.1225 14.5308 1048 109.176 806.94 473.317
569 0 72.3086 11.119 804 110.729 807.194 474.944
570 0 77.0986 11.7512 906 110.843 805.956 471.608
571 0 80.154 13.8359 1109 108.086 804.668 467.503
572 0 81.2228 16.8179 1366 105.019 805.361 468.543
573 0 85.4909 13.3815 1144 109.456 804.097 467.896
574 0 87.4304 12.7644 1116 111.321 803.52 465.355
575 0 88.3809 12.0501 1065 112.675 802.571 460.931
576 1 47.1845 13.3094 628 104.866 802.116 479.508
577 0 49.3804 11.4823 567 105.448 801.578 479.914
578 0 50.1481 11.0672 555 107.941 800.722 478.852
579 0 51.4371 12.1119 623 107.992 800.586 476.457
580 0 53.1081 13.3501 709 105.829 800.316 476.676
581 0 56.2407 13.1399 739 106.421 800.944 477.62
582 0 57.2045 11.3627 650 108.468 800.338 474.515
583 0 59.2466 13.8405 820 106.182 801.121 470.55
584 0 63.196 12.8331 811 107.2 801.51 470.781
585 0 65.3261 19.2878 1260 99.8635 800.399 466.944
586 0 68.359 12.961 886 107.649 801.576 466.579
587 0 68.23 12.751 870 109.034 802.34 463.871
588 0 68.23 12.8536 877 125.784 803.379 463.814
589 0 73.2785 15.3933 1128 107.985 802.508 454.983
590 0 76.304 13.6297 1040 110.558 802.538 454.964
591 0 82.2679 15.1821 1249 107.828 803.416 455.255
592 0 80.1434 12.4402 997 112.099 804.068 456.101
593 0 83.1413 12.8456 1068 112.778 804.444 452.242
594 0 89.3274 15.5831 1392 108.787 804.94 453.812
595 0 88.0723 13.0234 1147 113.876 805.064 452.405
596 0 93.1305 16.2782 1516 108.467 806.676 453.175
597 0 95.54 14.4128 1377 112.882 806.787 450.41
598 0 98.4837 12.5401 1235 116.484 806.685 447.438
599 0 100.478 12.8486 1291 115.78 807.789 445.843
600 0 105.247 13.5775 1429 114.356 808.77 445.782
601 0 109.721 17.4807 1918 107.875 808.194 447.528
602 0 111.495 12.6821 1414 115.312 808.769 444.236
603 0 111.495 12.6463 1410 136.403 808.776 444.118
604 1 61.123 11.9595 731 108.283 807.674 474.762
605 0 61.2941 11.0451 677 110.725 806.95 476.247
606 0 64.1601 12.9208 829 108.46 807.783 474.825
607 0 65.2974 9.83193 642 113.125 807.798 471.657
608 0 68.4749 10.7193 734 111.244 806.207 474.982
609 0 72.4398 13.2938 963 108.037 806.443 473.464
610 0 75.3818 16.1312 1216 102.863 806.317 476.681
611 0 74.3894 9.07387 675 113.446 805.982 475.607
612 0 78.3111 12.0034 940 110.59 806.049 467.76
613 0 85.2761 14.1188 1204 109.138 805.488 468.775
614 0 87.3061 14.4205 1259 109.687 804.447 467.922
615 0 90.4676 15.6188 1413 107.084 804.04 468.695
616 0 92.3415 12.0747 1115 114.313 801.877 460.206
617 1 49.1913 10.9369 538 113.812 801.903 483.656
618 0 50.3147 10.5337 530 114.749 801.751 477.747
619 0 52.0715 16.0164 834 98.7626 803.005 479.916
620 0 54.2958 10.7191 582 105.055 799.268 476.06
621 0 55.0317 11.7387 646 110.598 799.861 477.785
622 0 59.0691 7.49969 443 117.551 800.002 478.447
623 0 59.244 12.4738 739 110.456 799.597 471.955
624 0 60.0445 11.0418 663 113.056 798.531 472.935
625 0 60.1794 11.6984 704 112.804 798.795 468.439
626 0 61.1602 9.6468 590 115.461 799.819 468.753
627 0 65.1576 12.4928 814 110.943 798.796 465.614
628 0 65.1141 9.95177 648 115.451 799.298 462.526
629 0 73.0781 19.6091 1433 99.6923 800.518 461.363
630 0 74.13 13.7596 1020 107.634 800.359 460.969
631 0 78.3295 15.9199 1247 103.97 800.696 462.791
632 0 76.1685 10.3061 785 114.248 800.536 457.638
633 0 82.3178 13.047 1074 110.277 802.541 455.647
634 1 45.0344 12.1907 549 104.623 800.093 478.976
635 0 42.0243 7.54325 317 114.536 801.868 475.599
636 0 45.3191 16.0639 728 103.242 804.044 472.956
637 0 48.3125 15.0479 727 103.157 805.116 471.055
638 0 50.1684 13.7338 689 106.1 803.689 470.241
639 0 51.0256 10.8769 555 111.87 803.64 469.939
640 0 52.1099 11.0344 575 110.831 804.296 468.793
641 0 56.2462 11.7341 660 108.791 805.853 470.435
642 0 57.199 12.1855 697 109.336 806.158 467.948
643 0 54.0695 8.87746 480 114.562 806.785 471.533
644 0 61.0792 11.1986 684 110.001 807.076 470.697
645 0 63.1825 11.7754 744 108.195 807.091 473.542
646 0 62.2411 10.6682 664 112.349 806.767 469.306
647 0 66.0328 12.6149 833 107.952 806.934 469.432
648 0 66.0415 11.7199 774 108.662 806.163 474.913
649 0 73.2478 10.6897 783 108.958 806.708 476.33
650 0 76.2241 14.4574 1102 104.503 806.414 472.322
651 0 72.0576 11.241 810 110.984 806.247 470.242
652 0 72.3221 8.62807 624 115.891 806.575 472.184
653 0 81.1765 13.2674 1077 108.141 806.881 466.991
654 0 81.1252 14.2619 1157 107.467 806.309 469.502
655 0 86.3781 13.522 1168 108.39 805.97 469.414
656 0 86.0664 9.96905 858 115.185 804.662 465.254
657 1 46.0478 12.031 554 109.025 802.449 483.372
658 0 46.1026 11.3226 522 110.623 803.27 488.54
659 0 49.0907 13.2 648 104.29 802.41 487.736
660 0 51.1245 13.3791 684 103.75 804.746 485.127
661 0 52.1007 13.973 728 103.418 802.996 480.701
662 0 55.1712 12.724 702 105.416 803.429 479.584
663 0 56.1686 13.9046 781 105.114 803.297 477.56
664 0 58.2198 14.7888 861 104.039 802.859 476.712
665 0 57.0716 13.8948 793 106.255 802.27 478.923
666 0 59.1659 11.1551 660 111.883 800.097 474.762
667 0 61.2082 11.0606 677 110.591 799.532 477.928
668 0 64.1377 13.9076 892 106.859 800.261 472.218
669 0 69.6425 15.2062 1059 103.924 799.528 467.111
670 0 67.211 16.0242 1077 104.02 800.558 470.639
671 0 67.211 16.039 1078 119.367 802.533 470.695
672 0 71.2144 10.7843 768 112.921 800.979 465.844
673 0 72.1078 13.563 978 109.948 801.513 465.221
674 0 78.2591 13.1742 1031 109.952 801.992 461.756
675 0 79.2695 11.7574 932 112.843 800.94 459.69
676 0 80.1911 11.3978 914 113.918 803.262 457.571
677 0 84.1276 14.2284 1197 110.381 804.201 459.601
678 0 88.4497 14.0984 1247 110.25 804.454 458.799
679 0 88.3249 12.8956 1139 113.636 805.054 453.105
680 1 51.215 14.8589 761 109.828 806.158 472.118
681 0 51.1606 12.9201 661 111.303 803.711 472.953
682 0 52.1562 13.613 710 112.145 803.88 470.79
683 0 55.1846 12.3766 683 112.092 805.943 473.498
684 0 57.0908 14.8711 849 107.565 806.349 472.87
685 0 55.1445 11.0619 610 114.338 806.407 473.682
686 0 58.1492 11.4017 663 116.029 807.012 472.459
687 0 59.1296 11.2127 663 115.356 807.195 473.858
688 0 60.1368 12.3552 743 116.052 807.16 471.74
689 0 67.3069 14.3967 969 110.9 806.769 473.567
690 0 67.3069 14.4859 975 141.931 806.718 473.686
691 0 69.3146 13.345 925 113.752 808.45 472.129
692 0 71.1943 13.414 955 113.385 807.254 472.169
693 0 74.292 14.9545 1111 111.122 808.304 472.401
694 0 75.0775 13.3728 1004 114.468 808.303 468.622
695 0 81.1926 15.4817 1257 108.998 808.664 471.677
696 0 83.1683 13.3344 1109 112.852 806.491 472.017
697 0 88.3038 17.4738 1543 106.546 807.946 468.439
698 0 92.2909 14.3459 1324 110.554 806.748 470.763
699 1 46.1301 14.1123 651 112.215 806.754 485.622
700 0 49.0581 13.963 685 112.092 805.384 487.829
701 0 52.1097 13.2413 690 113.338 804.803 487.865
702 0 53.1086 17.5866 934 103.328 804.147 486.594
703 0 54.1823 11.4244 619 113.024 804.213 486.212
704 0 53.2321 13.8262 736 109.659 803.114 484.518
705 0 53.2321 13.7699 733 131.551 802.126 484.554
706 0 58.2164 11.2168 653 111.977 803.061 481.81
707 0 59.0974 15.0768 891 106.846 801.971 476.295
708 0 60.0637 11.1881 672 111.903 802.909 477.196
709 0 61.2932 10.7516 659 113.305 801.923 474.971
710 0 64.0931 13.9953 897 108.215 798.765 477.586
711 0 66.1116 13.6587 903 109.055 799.415 470.715
712 0 67.171 15.334 1030 107.349 798.851 471.004
713 0 70.1884 14.2046 997 106.038 800.415 473.948
714 0 71.1654 13.0119 926 108.482 799.203 473.031
715 0 75.1218 15.8409 1190 105.789 799.829 461.667
716 0 77.0767 12.6757 977 109.806 800.509 460.127
717 0 80.1727 11.8868 953 110.002 800.379 462.012
718 0 82.0883 13.2297 1086 110.405 800.521 456.176
719 0 87.2278 14.273 1245 106.641 800.949 460.324
720 0 87.2758 9.55592 834 114.874 800.513 457.978
721 0 92.1844 14.4384 1331 108.515 802.017 454.192
722 0 96.498 11.6375 1123 112.932 802.183 453.954
723 0 98.3758 11.4154 1123 114.183 804.511 453.592
724 1 54.024 10.9396 591 114.58 804.552 476.597
725 0 53.2205 11.1611 594 116.31 805.82 470.039
726 0 60.4131 16.4534 994 106.406 804.248 471.559
727 0 59.1183 12.9402 765 114.45 805.183 466.092
728 0 63.1636 13.5838 858 112.022 805.856 471.742
729 0 64.1425 17.0558 1094 108.125 806.396 470.272
730 0 65.1161 14.6047 951 111.635 807.578 471.217
731 0 71.624 17.536 1256 106.507 807.16 468.954
732 0 67.3256 11.9865 807 115.884 807.364 472.491
733 0 71.0944 10.465 744 119.399 807.446 467.004
734 0 74.2321 12.9324 960 112.975 808.854 467.165
735 0 78.1996 11.9054 931 113.641 808.778 470.881
736 0 78.2085 13.0548 1021 114.715 807.224 467.54
737 0 80.3642 14.1357 1136 113.54 807.171 468.863
738 0 86.449 15.6162 1350 111.104 805.118 467.468
739 0 88.334 12.3961 1095 117.088 805.732 467.059
740 0 92.4258 15.0824 1394 111.642 804.301 471.122
741 0 93.5461 13.1914 1234 116.839 805.157 462.126
742 0 98.6339 14.0621 1387 115.45 804.236 463.435
743 1 49.0337 15.214 746 111.539 802.503 487.147
744 0 50.0567 14.0441 703 116.461 803.57 486.516
745 0 52.1058 13.0312 679 119.323 802.499 482.29
746 0 52.172 12.9955 678 119.869 801.85 481.541
747 0 57.1454 14.6118 835 115.533 801.388 481.765
748 0 57.1491 11.7937 674 121.625 800.975 480.177
749 0 59.1027 15.3123 905 116.017 801.28 479.614
750 0 60.1354 15.2822 919 116.66 801.497 475.268
751 0 61.047 14.2677 871 118.334 801.714 474.767
752 0 61.0813 12.4588 761 124.067 801.181 469.824
753 0 66.159 13.7094 907 119.178 800.912 471.706
754 0 69.1947 15.4347 1068 116.704 800.617 467.963
755 0 71.2974 13.058 931 121.241 800.694 465.876
756 0 74.1731 12.9292 959 122.504 801.498 464.999
757 0 76.0891 14.8904 1133 119.606 802.162 462.949
758 0 78.1276 16.5754 1295 116.912 802.666 461.636
759 0 80.1296 18.3827 1473 114.17 802.964 460.293
760 0 83.2994 15.5103 1292 120.339 804.584 454.769
761 0 84.3342 15.6757 1322 118.774 803.115 459.127
762 0 88.3108 15.4907 1368 119.591 805.14 452.808
763 0 93.3865 15.7089 1467 118.816 805.138 452.907
764 1 46.0679 10.8101 498 124.106 804.255 472.97
765 0 49.0546 11.0693 543 123.637 804.657 470.085
766 0 50.0618 13.1637 659 120.49 806.217 469.85
767 0 52.1199 12.759 665 120.292 806.077 469.574
768 0 55.0716 13.6368 751 119.397 806.462 468.799
769 0 57.1183 13.2007 754 120.603 806.747 469.903
770 0 57.1343 12.7069 726 120.866 807.055 470.229
771 0 60.0825 13.2984 799 120.026 806.955 469.01
772 0 63.0991 14.0256 885 119.27 807.772 469.867
773 0 65.094 14.7479 960 118.69 807.714 465.98
774 0 66.1844 15.3359 1015 116.573 808.223 471.014
775 0 68.0472 11.6537 793 125.303 808.522 469.328
776 0 71.0816 15.0672 1071 118.214 808.063 469.843
777 0 73.0828 12.2874 898 123.967 808.436 467.471
778 0 79.1633 14.388 1139 118.297 807.321 471.075
779 0 76.1838 12.5223 954 124.54 807.446 467.474
780 0 80.1534 13.811 1107 123.537 807.408 464.046
781 0 84.1379 13.0144 1095 122.131 806.346 468.574
782 0 88.1826 14.9236 1316 119.948 807.005 468.3
783 1 47.0359 12.3948 583 119.384 806.355 484.892
784 0 46.2475 15.0278 695 115.732 806.224 484.599
785 0 49.3417 11.998 592 116.135 805.551 483.159
786 0 49.1127 13.0109 639 113.609 804.731 484.228
787 0 49.3853 12.4126 613 114.307 803.356 484.618
788 0 52.0586 11.7944 614 115.751 803.441 481.99
789 0 54.2518 15.4465 838 108.759 802.948 481.403
790 0 55.2123 16.2102 895 108.762 803.257 479.715
791 0 57.1116 14.5504 831 113.075 801.953 477.137
792 0 57.1118 11.3987 651 118.843 802.86 475.078
793 0 61.0838 13.6043 831 114.112 802.794 475.045
794 0 63.1574 13.4426 849 114.989 801.902 469.898
795 0 67.0603 13.3015 892 120.278 802.144 471.16
796 0 66.0542 12.0356 795 124.483 802.039 468.713
797 0 66.0542 12.0053 793 134.644 802.019 468.681
798 0 73.0911 12.8059 936 121.691 800.817 465.043
799 1 36.0331 13.1546 474 112.58 799.825 483.981
800 0 38.1064 13.2786 506 114.597 801.362 480.589
801 0 37.0323 9.72124 360 120.897 800.4 480.425
802 0 39.0386 11.0147 430 118.153 801.695 479.081
803 0 42.0586 12.3637 520 112.852 802.685 477.656
804 0 43.0513 15.5164 668 113.527 802.777 472.332
805 0 45.0136 14.84 668 113.693 803.84 473.732
806 0 46.0436 15.1161 696 114.019 804.158 472.068
807 0 47.0812 13.0413 614 117.756 805.858 474.08
808 0 47.0795 12.9143 608 134.242 806.885 473.995
809 0 49.2462 12.8538 633 117.622 805.228 469.512
810 0 51.0534 15.0431 768 114.118 806.917 469.415
811 0 51.0971 13.2297 676 117.902 806.552 471.644
812 0 50.1639 11.2033 562 116.534 808.806 470.984
813 0 52.2383 11.5624 604 117.997 808.192 473.581
814 0 53.1458 13.9051 739 115.268 807.384 471.919
815 0 55.213 15.884 877 112.287 808.66 471.543
816 0 57.112 14.5153 829 115.144 808.11 470.466
817 0 61.1241 11.0431 675 120.476 808.402 472.782
818 0 61.1471 13.4757 824 115.08 807.319 476.135
819 0 62.1876 12.012 747 120.34 808.32 471.436
820 0 64.2376 12.4538 800 119.758 808.842 469.366
821 0 68.1693 11.3394 773 121.197 807.81 469.805
822 0 68.1693 11.4128 778 127.134 806.818 469.805
823 0 71.2467 9.48816 676 124.564 808.586 472.534
824 0 71.2467 9.31973 664 135.009 810.569 472.69
825 0 78.3101 13.9573 1093 117.967 806.686 465.407
826 0 83.4353 13.8431 1155 116.879 804.981 466.968
827 1 42.0606 10.1758 428 124.706 805.467 485.654
828 0 42.2005 11.5401 487 123.023 805.608 483.752
829 0 43.0663 10.8902 469 120.254 807.74 486.67
830 0 44.116 13.3512 589 114.818 806.375 483.766
831 0 48.263 14.8354 716 109.478 806.409 487.77
832 0 48.0454 13.9451 670 114.107 805.234 481.906
833 0 49.2075 13.6565 672 113.787 804.918 483.307
834 0 49.1958 11.3628 559 118.417 804.843 480.302
835 0 50.1532 11.0462 554 117.365 805.217 479.787
836 0 54.0384 16.0257 866 107.435 804.965 474.148
837 0 57.0452 16.7061 953 107.388 804.355 473.55
838 0 53.1162 10.0158 532 118.237 804.951 474.955
839 0 58.1196 12.8356 746 112.662 804.457 469.257
840 0 60.1402 12.105 728 114.918 804.625 472.765
841 0 64.1638 9.75628 626 116.775 803.629 467.569
842 0 66.1408 14.9832 991 108.721 803.707 465.97
843 0 66.0472 12.7939 845 111.161 804.344 468.258
844 0 70.0607 12.2751 860 112.594 804.346 462.949
845 0 74.178 14.263 1058 108.025 804.197 457.358
846 1 40.0275 11.9668 479 108.898 805.027 481.138
847 0 37.1084 11.1296 413 111.516 807.119 478.552
848 0 40.0388 13.1373 526 109.095 807.236 474.405
849 0 41.0792 10.6867 439 114.786 807.708 475.221
850 0 40.0747 11.8279 474 113.542 807.437 475.857
851 0 41.1139 12.6478 520 113.098 808.427 475.35
852 0 46.0123 13.1269 604 111.598 806.919 476.265
853 0 46.0867 14.1039 650 111.589 809.349 472.022
854 0 49.2388 12.2668 604 114.54 809.19 471.916
855 0 51.081 16.9535 866 105.143 810.801 475.083
856 0 52.156 14.495 756 111.433 810.276 470.734
857 0 51.0817 12.9401 661 116.062 810.964 472.141
858 0 53.0483 14.0061 743 112.883 811.3 474.77
859 0 52.1228 12.931 674 117.828 811.74 473.636
860 0 54.1393 12.2277 662 119.378 811.801 473.515
861 0 57.0746 12.9304 738 118.033 811.935 475.092
862 0 58.0561 16.8974 981 111.716 811.731 474.453
863 0 62.162 15.4274 959 114.1 810.843 472.118
864 0 63.0577 15.351 968 115.222 811.442 471.683
865 0 65.1438 14.8901 970 116.458 811.435 474.154
866 0 69.126 13.9311 963 118.044 810.671 471.765
867 0 71.0896 15.797 1123 115.224 810.164 472.175
868 0 71.1406 15.5888 1109 116.419 808.264 471.942
869 0 76.285 15.1799 1158 116.509 808.409 472.934
870 0 77.1706 13.6062 1050 121.901 807.586 468.19
871 1 39.0598 14.465 565 121.435 808.441 486.287
872 0 40.0549 10.211 409 130.807 808.103 488.31
873 0 41.1958 10.268 423 129.345 805.839 486.428
874 0 44.2005 12.6922 561 122.499 807.075 484.201
875 0 46.1408 14.2173 656 119.665 806.264 484.477
876 0 45.1762 13.06 590 121.637 802.11 483.519
877 0 46.2074 13.0931 605 123.574 802.438 479.745
878 0 47.1146 12.9471 610 124.141 800.692 477.554
879 0 49.1784 13.9492 686 122.724 802.98 477.965
880 0 52.0913 15.4536 805 118.137 802.661 475.635
881 0 52.1737 13.5317 706 121.861 803.197 475.671
882 0 53.0982 12.3356 655 124.54 802.362 476.594
883 0 57.1376 18.7267 1070 111.958 803.225 469.271
884 0 56.1342 12.1851 684 124.341 802.468 470.325
885 0 60.1118 14.3566 863 119.574 802.713 468.103
886 0 61.2403 10.9242 669 126.181 802.341 466.558
887 0 61.2403 10.8752 666 125.108 802.344 466.589
888 0 67.235 13.3115 895 117.193 804.712 464.971
889 0 69.1476 16.3708 1132 112.763 804.901 462.438
890 0 70.2317 13.3131 935 117.72 805.509 460.594
891 0 72.1114 12.0092 866 121.771 805.823 460.081
892 0 74.237 11.1669 829 122.441 805.735 459.828
893 0 77.1437 12.8591 992 120.05 807.285 456.205
894 0 79.1287 15.38 1217 116.51 807.397 454.457
895 0 83.1838 12.815 1066 127.438 807.8 452.017
896 0 87.1503 15.0544 1312 122.29 808.998 452.961
897 0 87.2243 12.3016 1073 128.341 808.652 454.176
898 0 93.1872 13.21 1231 123.639 809.027 452.055
899 0 94.179 12.2533 1154 124.99 809.484 449.646
900 1 51.0388 12.3239 629 115.714 809.736 475.329
901 0 52.0852 12.3068 641 117.925 810.557 473.649
902 0 51.0804 12.3335 630 117.167 810.611 471.567
903 0 53.044 14.0638 746 113.535 811.193 472.969
904 0 56.1946 11.3712 639 116.365 810.829 475.177
905 0 54.1533 6.99865 379 124.565 810.005 473.639
906 0 58.0731 11.0034 639 118.585 810.357 469.986
907 0 63.1082 13.976 882 112.845 810.071 473.413
908 0 66.2856 16.3987 1087 108.615 810.577 471.211
909 0 69.3374 13.5136 937 117.97 810.867 473.729
910 0 70.1151 12.0373 844 121.902 810.776 473.046
911 0 71.1987 11.1659 795 124.296 810.336 472.39
912 0 73.1532 12.2756 898 122.3 809.594 468.328
913 0 79.2982 17.7558 1408 111.423 808.996 471.686
914 0 81.4 11.5725 942 115.472 807.807 472.403
915 0 83.2373 13.8039 1149 114.061 808.234 461.452
916 0 88.2724 14.0361 1239 113.231 806.268 464.686
917 0 90.2404 15.4144 1391 113.362 806.142 461.452
918 0 93.1808 12.8996 1202 119.61 805.488 464.978
919 1 46.2986 10.2595 475 115.223 805.093 484.503
920 0 46.2164 13.3286 616 112.695 804.656 483.55
921 0 47.0338 14.4152 678 109.96 804.69 482.907
922 0 49.1449 12.3512 607 113.759 803.901 479.988
923 0 49.2078 12.1322 597 115.913 803.31 480.504
924 0 51.2304 15.85 812 108.479 803.259 481.664
925 0 50.1858 9.9829 501 120.629 803.85 476.79
926 0 50.1858 10.0626 505 141.921 804.848 476.731
927 0 56.1841 12.2633 689 118.21 803.729 471.358
928 0 59.3184 12.0873 717 116.947 804.068 476.838
929 0 63.1973 13.3234 842 114.882 804.127 473.16
930 0 62.2351 12.4688 776 119.37 804.385 468.282
931 0 64.2365 12.6097 810 118.628 803.23 466.511
932 0 69.2684 11.9535 828 119.552 804.731 464.559
933 0 70.1483 11.7465 824 118.301 805.512 467.305
934 0 70.1483 11.661 818 129.604 805.542 467.249
935 0 76.3106 14.3624 1096 115.442 805.692 460.424
936 0 78.4939 13.3641 1049 118.514 807.229 458.907
937 0 80.4988 16.286 1311 114.51 806.413 453.325
938 0 84.3962 13.6144 1149 120.431 806.862 451.172
939 1 45.3957 10.5737 480 115.452 807.396 478.631
940 0 44.1841 12.3574 546 119.491 807.128 473.78
941 0 46.1021 15.4874 714 110.315 808.148 469.207
942 0 46.1368 12.9181 596 113.309 808.711 469.77
943 0 46.1458 11.7237 541 120.811 808.447 471.726
944 0 51.2445 13.0746 670 117.203 809.731 474.228
945 0 46.0841 9.98174 460 127.124 809.239 469.17
946 0 53.266 15.7511 839 112.722 809.746 476.611
947 0 54.198 11.5502 626 121.802 808.891 473.994
948 0 54.1645 11.6128 629 123.741 810.536 474.943
949 0 56.1237 11.4212 641 123.841 809.342 475.167
950 0 60.1283 12.8891 775 119.894 810.192 476.115
951 0 62.0598 12.0529 748 122.131 810.378 475.553
952 0 63.1469 11.7029 739 122.478 808.088 477.349
953 0 66.1679 12.831 849 122.503 809.052 474.57
954 0 67.2271 12.1826 819 123.194 808.238 476.36
955 0 71.0955 13.5874 966 121.445 807.102 474.776
956 0 74.1469 13.7295 1018 120.862 807.512 475.082
957 0 81.1993 14.4582 1174 119.58 806.171 472.696
958 0 82.1855 12.8368 1055 121.851 806.361 472.911
959 1 41.0871 10.9767 451 118.761 805.492 491.364
960 0 44.1298 12.3273 544 118.528 805.244 487.776
961 0 43.3944 12.3057 534 123.185 803.685 486.506
962 0 46.2315 16.1578 747 111.357 805.277 487.4
963 0 47.2611 14.0496 664 115.551 803.259 485.149
964 0 47.1329 12.836 605 117.62 804.769 484.102
965 0 51.3276 16.7162 858 110.146 803.723 481.161
966 0 51.406 11.38 585 119.368 803.403 483.697
967 0 51.0892 12.7229 650 117.766 803.246 480.189
968 0 53.2889 13.3611 712 116.247 802.656 480.271
969 0 55.1715 12.724 702 116.895 802.376 476.825
970 0 57.1399 17.9209 1024 108.487 803.137 473.843
971 0 57.3044 15.1821 870 114.23 802.486 473.886
972 0 60.1602 14.6442 881 113.637 803.048 468.544
973 0 62.2868 15.0754 939 113.257 803.509 467.347
974 0 67.1665 16.8983 1135 108.228 804.023 467.437
975 0 67.3193 17.0233 1146 109.426 804.207 467.675
976 0 67.0965 14.6356 982 116.99 804.782 465.043
977 0 70.3247 12.7551 897 118.728 804.82 459.576
978 0 73.2191 14.5454 1065 113.932 805.558 461.285
979 0 75.1849 14.4045 1083 114.657 806.648 459.454
980 0 78.5249 14.7469 1158 112.789 807.534 457.702
981 0 81.2501 14.8185 1204 112.131 807.244 454.44
982 0 84.3156 12.3346 1040 117.742 807.762 454.455
983 0 87.3953 12.4606 1089 111.333 808.408 458.807
984 0 91.446 14.227 1301 109.873 808.448 453.674
985 1 47.0658 12.4082 584 109.63 809.82 478.06
986 0 50.3086 16.7764 844 103.41 810.086 474.129
987 0 50.3086 16.7367 842 115.201 811.137 474.192
988 0 51.4134 13.9263 716 109.933 809.286 469.187
989 0 55.1088 16.6398 917 106.327 810.078 471.18
990 0 55.2643 11.9788 662 116.931 810.354 471.588
991 0 56.4399 14.6705 828 110.354 810.556 474.326
992 0 59.3819 14.1289 839 109.977 809.814 471.605
993 0 58.2311 9.75424 568 115.924 809.923 476.738
994 0 57.2758 9.6725 554 121.394 809.933 476.632
995 0 65.8369 13.2904 875 108.825 808.623 470.25
996 0 70.3987 13.9065 979 112.977 809.481 470.927
997 0 72.3098 13.4422 972 112.566 808.205 472.057
998 0 75.3738 13.6652 1030 113.84 807.352 466.604
999 0 73.3481 10.1298 743 117.902 807.707 469.284
1000 0 80.2964 13.1513 1056 114.92 806.404 466.739
1001 1 44.577 11.4857 512 115.277 805.221 484.25
1002 0 44.3544 9.28881 412 117.745 804.954 486.966
1003 0 44.3544 9.35645 415 134.653 802.983 487.012
1004 0 47.0964 15.7124 740 109.101 805.261 484.432
1005 0 51.2093 14.5872 747 110.548 804.534 478.44
1006 0 51.2093 14.5677 746 134.188 803.503 478.343
1007 0 52.0251 15.7616 820 109.795 803.7 479.074
1008 0 52.161 14.877 776 112.562 803.415 478.018
1009 0 55.0755 16.087 886 108.835 802.861 479.344
1010 0 55.1265 13.3148 734 116.069 801.91 476.061
1011 0 55.2224 13.4004 740 115.924 802.959 473.208
1012 0 61.1505 13.1479 804 117.932 802.825 469.547
1013 0 62.1011 12.2864 763 117.721 802.742 472.518
1014 0 63.091 11.3962 719 119.876 802.682 470.223
1015 0 62.1934 11.7376 730 120.238 802.31 466.07
1016 0 68.4407 16.0577 1099 112.684 803.642 463.636
1017 0 67.071 13.0757 877 117.303 804.066 462.312
1018 0 69.1443 13.8261 956 116.793 803.707 459.96
1019 0 76.1466 14.6428 1115 112.907 804.259 461.67
1020 0 76.4021 10.183 778 121.97 805.868 451.279
1021 0 79.1888 11.6809 925 117.707 806.219 456.009
1022 0 82.2418 13.8737 1141 114.486 805.952 457.214
1023 0 84.2507 12.3797 1043 118.467 806.758 451.678
1024 0 88.3707 12.391 1095 118.447 806.09 450.654
1025 0 94.7104 14.4229 1366 115.051 807.579 450.624
1026 1 48.1672 12.685 611 112.419 806.643 471.137
1027 0 52.2743 14.2709 746 110.961 807.043 469.613
1028 0 50.0579 12.8451 643 111.607 805.138 471.742
1029 0 53.1358 13.7384 730 110.044 805.581 472.234
1030 0 53.2131 14.8648 791 109.986 806.479 471.445
1031 0 54.1938 14.319 776 110.881 805.215 474.621
1032 0 55.1309 12.5882 694 112.765 805.445 475.215
1033 0 55.1217 12.1005 667 118.121 806.705 473.361
1034 0 56.1919 11.2294 631 120.471 805.693 472.41
1035 0 60.1452 13.0351 784 116.116 806.112 471.787
1036 0 61.1132 12.256 749 118.781 804.198 473.945
1037 0 63.215 12.4338 786 117.654 805.533 470.684
1038 0 66.1157 12.8714 851 117.667 805.443 472.405
1039 0 71.2295 16.524 1177 111.574 805.508 470.225
1040 0 72.3042 14.4666 1046 115.326 804.388 473.118
1041 0 73.1121 15.1138 1105 115.462 803.881 470.391
1042 0 75.1243 11.9934 901 121.478 803.779 469.761
1043 0 81.4416 16.7973 1368 113.737 802.548 469.499
1044 0 80.1448 11.5541 926 122.712 801.676 463.821
1045 0 85.1484 12.7542 1086 119.335 801.741 469.195
1046 0 85.231 15.2996 1304 117.398 801.465 466.547
1047 1 43.1558 13.3702 577 118.281 801.255 484.277
1048 0 47.1437 13.0664 616 116.57 801.422 482.201
1049 0 47.1544 14.3359 676 113.549 800.667 482.605
1050 0 47.2177 12.8342 606 116.228 799.444 481.173
1051 0 51.1427 11.7905 603 118.39 800.023 479.69
1052 0 53.188 14.6085 777 113.489 800.368 476.564
1053 0 54.1525 11.9108 645 116.208 800.364 478.093
1054 0 56.1035 13.689 768 115.217 799.553 474.117
1055 0 57.271 14.8243 849 113.218 799.204 471.961
1056 0 59.1106 15.4456 913 113.333 800.343 471.865
1057 0 62.222 12.5518 781 117.839 800.876 469.315
1058 0 63.2039 13.5435 856 116.27 800.359 469.568
1059 0 64.1086 17.486 1121 110.852 800.822 462.721
1060 0 67.3013 12.9418 871 117.951 801.402 463.326
1061 0 71.2115 16.458 1172 111.887 801.796 463.478
1062 0 71.123 12.1058 861 119.599 801.433 461.76
1063 0 74.2429 13.9273 1034 117.204 801.172 460.152
1064 0 76.1927 14.3977 1097 116.282 802.497 457.403
1065 0 78.155 13.678 1069 118.25 802.899 456.705
1066 0 78.155 13.55 1059 129.583 802.911 456.66
1067 0 84.2604 14.3721 1211 117.296 803.344 453.931
1068 0 86.4548 15.5688 1346 116.207 805.298 451.972
1069 0 87.2361 10.5805 923 126.131 806.068 451.032
1070 0 94.3363 13.8547 1307 120.41 807.66 456.177
1071 0 93.4918 13.5734 1269 121.322 808.245 454.971
1072 0 99.2795 14.988 1488 120.05 808.153 450.249
1073 1 52.1162 11.8197 616 119.302 809.906 475.154
1074 0 52.1464 10.6815 557 123.86 811.007 475.652
1075 0 55.1692 11.4194 630 121.827 809.702 473.119
1076 0 57.2003 13.4964 772 115.385 811.299 471.99
1077 0 61.1897 14.5613 891 112.961 810.94 474.443
1078 0 63.2354 13.0149 823 115.565 810.464 474.892
1079 0 61.2992 9.95119 610 122.246 810.623 476.108
1080 0 66.4008 14.3071 950 114.68 808.796 475.349
1081 0 70.1955 12.8356 901 116.382 809.619 475.448
1082 0 69.2718 10.4083 721 121.522 809.255 473.566
1083 0 76.1691 12.8661 980 116.954 809.065 473.21
1084 0 78.298 15.16 1187 112.527 808.637 474.445
1085 0 82.1681 13.1438 1080 117.512 807.748 470.234
1086 0 85.1866 13.8167 1177 117.498 807.372 468.697
1087 0 87.279 13.2105 1153 119.914 807.247 467.258
1088 1 43.1124 9.30128 401 124.96 804.354 489.377
1089 0 48.1068 13.9481 671 117.431 804.514 482.38
1090 0 48.219 12.2358 590 121.532 803.156 482.308
1091 0 51.0461 15.5154 792 114.91 804.636 487.384
1092 0 52.0565 12.0062 625 122.64 804.709 482.562
1093 0 50.2185 11.1114 558 126.944 803.932 482
1094 0 54.2439 12.0751 655 124.235 803.014 484.235
1095 0 55.2134 11.9355 659 125.255 802.995 481.364
1096 0 58.1135 13.1639 765 122.988 802.82 481.42
1097 0 56.1113 13.3306 748 123.408 803.731 481.894
1098 0 60.2495 11.386 686 127.542 802.898 476.515
1099 0 62.2012 11.8165 735 125.658 802.442 475.873
1100 0 66.1623 16.2026 1072 116.997 802.718 472.224
1101 0 71.2338 13.9821 996 117.673 803.643 471.196
1102 0 71.2338 14.0102 998 128.165 804.64 471.14
1103 0 73.1984 14.3036 1047 118.331 803.487 465.16
1104 0 76.2497 11.7246 894 124.886 802.657 464.761
1105 0 80.2132 17.3912 1395 113.621 802.734 461.265
1106 0 81.2198 13.445 1092 122.319 803.579 459.29
1107 0 83.2111 11.2004 932 125.959 803.03 459.044
1108 0 87.184 13.1332 1145 125.872 804.81 455.388
1109 0 90.4665 11.1533 1009 129.246 805.037 450.703
1110 1 49.1177 12.1748 598 120.572 807.244 475.283
1111 0 50.25 11.8408 595 123.282 807.368 474.319
1112 0 51.4197 14.3914 740 118.797 808.258 474.311
1113 0 56.3175 14.9154 840 116.655 808.117 475.249
1114 0 56.3925 11.9874 676 123.093 807.617 474.796
1115 0 57.2636 12.9227 740 121.801 808.455 473.368
1116 0 57.2168 13.5974 778 120.973 808.879 475.159
1117 0 60.1852 12.5114 753 122.741 807.356 471.502
1118 0 62.4781 13.3807 836 122.039 809.579 472.171
1119 0 63.2427 15.2112 962 119.605 807.717 467.991
1120 0 65.4234 13.6648 894 121.092 809.294 473.122
1121 0 68.1768 16.4425 1121 116.031 809 473.115
1122 0 70.2202 16.1634 1135 117.896 809.269 472.675
1123 0 72.1459 12.7381 919 124.596 809.182 473.492
1124 0 75.6686 14.101 1067 122.933 807.744 471.464
1125 0 78.4351 12.6856 995 125.65 807.949 468.962
1126 0 80.391 14.7156 1183 121.782 807.443 469.316
1127 0 83.276 13.2811 1106 124.446 807.895 469.094
1128 0 86.2782 14.4301 1245 122.627 806.57 466.178
1129 1 44.2786 10.9082 483 127.975 805.774 484.288
1130 0 47.382 14.3725 681 120.858 804.643 485.091
1131 0 49.1687 12.63 621 123.879 804.13 488.048
1132 0 49.2664 15.1422 746 120.755 803.519 485.004
1133 0 51.3107 13.0772 671 123.502 803.844 488.998
1134 0 52.0853 13.4971 703 123.839 802.129 485.512
1135 0 50.2194 11.4497 575 128.958 802.73 485.007
1136 0 54.2726 11.8292 642 126.396 801.346 484.646
1137 0 55.1627 12.1459 670 125.29 801.969 482.122
1138 0 58.1302 12.5064 727 125.409 801.783 478.396
1139 0 59.1919 11.9273 706 126.212 801.021 481.305
1140 0 63.1424 15.6155 986 120.088 800.993 476.882
1141 0 65.1101 14.0378 914 121.85 801.538 479.467
1142 0 67.2947 12.6013 848 127.175 800.284 473.545
1143 0 70.141 12.703 891 126.943 799.91 470.987
1144 0 70.0808 15.8674 1112 123.868 799.648 465.889
1145 0 72.2424 12.3058 889 129.955 800.588 468.286
1146 0 75.2831 12.7652 961 129.387 801.148 466.041
1147 0 80.2862 13.5889 1091 126.697 801.896 463.298
1148 0 83.3679 14.2021 1184 123.614 801.65 464.453
1149 1 40.0588 13.2056 529 126.14 802.953 481.673
1150 0 41.0892 11.1708 459 130.261 802.675 481.536
1151 0 43.0736 15.9959 689 121.186 804.171 474.994
1152 0 44.2015 12.6466 559 122.771 805.229 471.708
1153 0 45.208 15.5061 701 117.08 804.195 467.82
1154 0 47.123 12.3082 580 121.557 805.212 471.826
1155 0 47.1146 13.2231 623 129.096 805.923 475.396
1156 0 48.1478 13.3339 642 130.305 806.788 473.768
1157 0 48.1453 12.7115 612 132.449 806.384 469.864
1158 0 49.0599 13.1268 644 130.964 805.585 469.469
1159 0 53.0554 13.9665 741 127.332 807.417 468.841
1160 0 53.0554 14.0042 743 132.77 809.416 468.95
1161 0 54.1267 12.1197 656 132.811 809.264 471.409
1162 0 58.2142 12.4712 726 129.258 807.13 467.222
1163 0 59.0947 11.71 692 129.441 808.449 469.684
1164 0 64.2142 13.891 892 123.457 808.861 467.835
1165 0 65.1045 14.423 939 122.61 808.084 468.569
1166 0 67.1365 11.2606 756 127.95 808.161 473.224
1167 0 71.1186 14.6938 1045 122.68 808.486 466.402
1168 0 76.1524 14.9174 1136 121.042 807.437 466.053
1169 1 39.1382 12.5197 490 125.435 806.992 486.082
1170 0 40.1017 12.0943 485 126.647 805.833 484.425
1171 0 43.0997 12.3203 531 124.424 806.861 484.537
1172 0 43.3536 12.894 559 124.592 805.925 484.315
1173 0 42.2071 12.6519 534 126.526 805.822 486.639
1174 0 44.3468 12.515 555 124.528 804.807 481.223
1175 0 45.1075 11.7497 530 123.804 803.326 480.753
1176 0 49.0319 15.3778 754 118.358 802.887 481.747
1177 0 48.1876 13.3437 643 123.524 802.233 479.718
1178 0 49.0903 11.6927 574 125.648 801.838 483.169
1179 0 51.1088 12.5027 639 124.362 801.135 480.003
1180 0 52.1089 12.5506 654 122.784 800.734 481.526
1181 0 54.2514 13.6586 741 123.054 799.526 476.706
1182 0 56.0762 18.029 1011 114.794 799.039 475.229
1183 0 58.2322 14.2704 831 122.202 798.943 469.426
1184 0 59.382 10.7272 637 129.25 799.239 466.272
1185 0 59.2616 11.3564 673 128.889 799.048 464.55
1186 0 62.2077 9.91839 617 131.428 798.564 460.731
1187 0 66.516 14.3274 953 121.716 799.955 459.887
1188 0 67.2464 14.3799 967 122.666 799.504 456.106
1189 0 71.4332 13.8731 991 122.207 800.27 455.533
1190 0 73.3734 13.9015 1020 119.437 800.147 455.118
1191 0 77.3414 12.2573 948 122.943 802.566 453.277
1192 1 42.1444 10.2979 434 120.323 802.2 470.359
1193 0 40.2183 10.3933 418 122.435 801.976 467.091
1194 0 39.1499 11.6476 456 119.581 803.43 468.178
1195 0 44.0342 10.8098 476 120.393 802.248 464.683
1196 0 44.0262 11.5386 508 117.961 802.937 462.988
1197 0 46.0121 9.41057 433 120.141 803.64 464.63
1198 0 48.0945 12.1012 582 116.821 804.357 461.897
1199 0 49.089 12.182 598 117.331 805.256 461.05
1200 0 54.1409 12.5783 681 113.502 805.515 465.021
1201 0 56.0955 13.4948 757 111.395 806.272 464.585
1202 0 60.1072 15.4723 930 108.787 807.06 461.105
1203 0 55.117 18.2158 1004 106.226 808.222 463.616
1204 0 60.1617 12.0176 723 115.791 807.545 457.964
1205 0 61.1136 10.7014 654 113.887 808.677 462.624
1206 0 63.1518 14.6314 924 110.238 809.565 461.914
1207 0 65.1084 14.5296 946 111.039 809.035 461.784
1208 0 69.3047 13.217 916 112.799 809.007 462.728
1209 0 66.2547 12.0746 800 118.541 808.835 460.172
1210 0 71.095 14.0657 1000 114.88 808.504 463.631
1211 0 74.1067 11.9287 884 119.687 808.08 462.577
1212 0 75.3255 10.3551 780 123.928 808.081 453.104
1213 0 75.3255 10.3816 782 144.491 808.079 453.064
1214 0 82.1404 12.1134 995 119.534 807.595 457.449
1215 0 84.2737 10.6558 898 121.473 806.324 460.071
1216 0 87.0879 11.276 982 120.289 805.191 457.951
1217 1 48.1068 8.48112 408 106.863 805.586 485.424
1218 0 50.1576 9.0714 455 109.848 803.635 485.754
1219 0 53.1 13.371 710 109.565 805.401 482.262
1220 0 53.21 9.05844 482 116.085 802.025 481.409
1221 0 57.2359 11.1469 638 112.572 800.201 479.257
1222 0 59.2114 13.0887 775 109.87 801.779 473.813
1223 0 57.1268 10.503 600 114.75 800.597 478.623
1224 0 63.1015 16.7033 1054 104.167 801.658 479.303
1225 0 63.1124 11.8043 745 119.573 800.219 474.599
1226 0 65.103 12.749 830 116.935 800.304 475.707
1227 0 68.1372 11.4035 777 120.668 799.79 470.651
1228 0 69.092 15.0669 1041 114.882 799.943 466.571
1229 0 72.0947 12.5252 903 118.687 799.925 466.289
1230 0 74.0868 12.0804 895 119.23 800.027 466.036
1231 0 79.2581 11.696 927 119.996 801.124 462.077
1232 0 78.2563 11.7179 917 134.78 802.101 461.859
1233 0 83.0829 12.1926 1013 120.289 801.435 459.112
1234 0 87.191 11.6411 1015 120.537 801.519 458.684
1235 0 89.3312 9.88456 883 122.196 802.658 460.76
1236 0 88.1965 14.1275 1246 112.079 802.404 457.242
1237 0 90.5043 10.7398 972 123.221 804.228 449.44
1238 0 90.5043 10.8172 979 134.901 805.231 449.266
1239 0 96.5454 12.7298 1229 118.104 805.378 454.903
1240 0 98.7468 12.8004 1264 118.792 805.846 453.691
1241 0 98.3908 12.1454 1195 121.914 806.208 449.48
1242 0 102.753 10.8221 1112 124.691 806.723 447.402
1243 0 106.562 13.2411 1411 120.792 808.249 445.237
1244 1 54.0991 9.88926 535 118.925 807.006 472.727
1245 0 58.1872 13.0097 757 113.911 808.309 472.901
1246 0 57.1303 13.2854 759 113.934 808.88 472.708
1247 0 60.116 12.6921 763 115.552 809.079 470.582
1248 0 62.1504 11.4561 712 117.542 808.951 473.713
1249 0 64.1352 12.0682 774 116.297 808.191 471.049
1250 0 66.2017 10.2112 676 120.118 808.907 476.396
1251 0 70.2781 14.2861 1004 114.011 808.967 472.508
1252 0 70.2274 9.51196 668 121.728 809.621 472.248
1253 0 75.3179 11.5112 867 117.965 808.403 470.63
1254 0 76.3646 13.5534 1035 114.414 807.828 473.487
1255 0 78.195 9.75766 763 119.453 807.218 472.152
1256 0 82.356 12.5552 1034 115.464 807.55 471.023
1257 0 83.2874 12.691 1057 115.329 807.045 469.215
1258 0 90.3047 11.4944 1038 117.039 806.978 464.54
1259 0 92.2883 11.7025 1080 118.263 806.618 465.632
1260 0 99.3147 11.1565 1108 118.893 804.809 466.709
1261 0 98.5962 13.7936 1360 115.089 804.2 463.322
1262 1 52.068 10.8512 565 117.657 803.269 482.534
1263 0 52.2233 10.4743 547 120.154 802.201 483.671
1264 0 54.1134 12.0118 650 118.511 801.906 484.106
1265 0 59.1044 12.4356 735 117.769 800.31 477.959
1266 0 57.1772 11.6305 665 119.46 800.474 477.677
1267 0 61.2476 14.1393 866 115.017 800.737 478.349
1268 0 63.1761 13.2012 834 116.133 801.308 478.092
1269 0 64.1898 12.65 812 117.72 800.538 473.201
1270 0 63.0865 10.874 686 119.889 800.501 474.684
1271 0 67.0853 11.1351 747 120.195 800.791 468.872
1272 0 70.394 9.53206 671 121.247 800.709 468.648
1273 0 71.3659 10.6073 757 115.835 800.68 469.642
1274 0 78.6129 12.0845 950 114.02 801.119 466.653
1275 0 76.559 8.08527 619 144.042 801.155 463.819
1276 0 81.5689 11.1317 908 115.986 801.566 457.611
1277 0 83.2891 17.037 1419 107.916 803.218 454.191
1278 0 83.2891 17.049 1420 118.443 804.234 454.191
1279 1 45.4258 12.0636 548 112.628 802.783 470.659
1280 0 44.3067 9.79536 434 117.371 803.924 471.233
1281 0 49.4608 13.1013 648 112.227 804.793 467.758
1282 0 49.3809 12.3124 608 114.558 805.829 466.479
1283 0 50.206 13.843 695 112.173 806.468 470.046
1284 0 51.1182 14.9653 765 112.996 807.258 466.308
1285 0 53.3229 14.6466 781 114.335 808.682 468.681
1286 0 53.3229 14.6466 781 134.321 809.695 468.74
1287 0 57.185 16.2105 927 111.683 808.995 467.395
1288 0 55.2766 12.6998 702 118.929 809.132 468.481
1289 0 57.1197 10.1716 581 123.453 809.75 468.442
1290 0 62.3153 14.6513 913 115.181 809.056 469.508
1291 0 64.2167 13.1741 846 118.137 809.469 467.074
1292 0 65.3624 14.2131 929 116.521 808.646 466.566
1293 0 68.1296 15.4705 1054 115.908 808.633 471.622
1294 0 70.0759 15.7829 1106 115.221 807.916 468.222
1295 0 71.2462 12.127 864 122.799 808.485 470.848
1296 0 75.2174 13.9595 1050 118.76 808.318 468.568
1297 0 78.3216 13.9936 1096 118.669 808.315 467.306
1298 0 81.3217 14.9653 1217 116.211 808.474 468.047
1299 0 82.158 14.4843 1190 116.783 807.9 467.13
1300 0 88.4005 14.7171 1301 116.027 807.666 466.283
1301 0 88.4005 14.6605 1296 134.176 806.663 466.37
1302 0 92.3706 13.0669 1207 119.033 804.547 462.439
1303 0 92.3706 13.1644 1216 130.293 802.548 462.348
1304 0 98.5169 12.2517 1207 119.906 803.626 456.646
1305 1 54.1876 10.6113 575 119.332 803.741 481.13
1306 0 53.3733 11.4851 613 115.622 802.915 483.377
1307 0 58.1891 13.3015 774 110.598 803.34 481.826
1308 0 62.3627 11.4652 715 115.415 801.994 473.239
1309 0 65.2366 15.9573 1041 110.256 801.915 467.226
1310 0 65.3648 12.2849 803 116 800.908 468.319
1311 0 69.327 13.2272 917 113.844 800.784 469.475
1312 0 72.2509 13.3286 963 114.843 800.6 461.532
1313 0 74.2606 12.887 957 114.933 800.541 461.022
1314 0 82.8651 18.6689 1547 105.591 800.842 466.293
1315 0 82.2025 19.233 1581 107.637 801.257 459.425
1316 0 83.2026 11.3698 946 120.327 801.706 454.795
1317 0 85.4805 11.7805 1007 119.289 801.339 454.332
1318 0 88.3093 13.3621 1180 116.431 802.187 454.012
1319 0 92.2797 14.4452 1333 116.965 802.08 448.825
1320 0 97.2923 15.7566 1533 113.32 802.53 449.087
1321 1 43.1034 10.092 435 125.018 804.352 469.469
1322 0 47.6635 13.4694 642 118.031 803.755 468.927
1323 0 50.1342 15.4585 775 116.392 805.874 466.439
1324 0 51.1238 12.6947 649 125.2 807.8 468.385
1325 0 54.7328 13.9404 763 118.097 806.267 467.725
1326 0 56.1671 14.7061 826 118.408 807.578 465.013
1327 0 58.216 15.0818 878 117.443 807.033 465.227
1328 0 57.1337 13.2671 758 123.14 807.828 464.194
1329 0 62.2812 16.2328 1011 116.332 809.148 466.741
1330 0 61.2504 12.0652 739 125.1 808.786 465.706
1331 0 67.2174 13.5828 913 121.249 809.451 464.688
1332 0 77.5344 19.4623 1509 107.125 808.573 462.078
1333 0 82.3346 16.5544 1363 112.174 810.273 465.725
1334 0 82.4823 18.4888 1525 110.169 809.098 459.558
1335 0 85.4043 18.2426 1558 111.248 810.169 462.686
1336 1 43.1248 13.3334 575 120.256 809.798 484.329
1337 0 44.2192 13.7723 609 120.722 809.122 484.842
1338 0 43.1019 9.58195 413 129.893 809.753 484.128
1339 0 46.1232 12.6401 583 124.455 810.005 484.322
1340 0 46.293 11.6 537 127.475 808.942 483.4
1341 0 49.0844 14.4241 708 122.27 808.822 483.362
1342 0 47.2184 12.0504 569 129.712 806.088 480.566
1343 0 49.4312 11.7942 583 129.966 807.358 479.94
1344 0 49.1524 12.8173 630 128.767 805.773 480.722
1345 0 51.0994 11.1547 570 131.304 805.954 479.084
1346 0 57.0765 13.2103 754 125.021 804.627 478.069
1347 0 59.11 14.0585 831 123.215 805.001 477.36
1348 0 60.1817 14.7055 885 123.681 804.844 476.281
1349 0 60.087 13.597 817 125.129 803.835 478.187
1350 0 61.1504 12.0686 738 129.467 803.286 472.772
1351 0 61.0713 13.0831 799 128.303 802.885 472.851
1352 0 63.1543 13.855 875 127.038 802.861 471.539
1353 0 66.2039 13.8512 917 126.931 803.131 471.034
1354 0 67.1838 13.9766 939 127.209 802.325 466.573
1355 0 71.2278 15.4013 1097 123.207 801.087 465.267
1356 0 72.1942 14.3502 1036 126.253 802.12 464.537
1357 0 73.2556 13.6918 1003 128.718 803.261 459.554
1358 0 76.1814 12.6934 967 129.731 802.435 460.731
1359 0 83.168 17.2182 1432 119.99 803.428 460.821
1360 0 81.2757 13.7926 1121 127.287 803.236 457.255
1361 0 85.1187 14.8381 1263 124.706 803.051 454.346
1362 0 85.2355 12.4596 1062 132.858 804.504 452.737
1363 0 90.1758 14.4717 1305 128.124 804.621 450.832
1364 0 89.1667 13.929 1242 128.884 805.775 448.766
1365 0 95.181 14.1835 1350 129.35 806.692 444.644
1366 0 99.0996 16.0949 1595 125.574 807.144 442.401
1367 0 103.204 15.2997 1579 126.376 807.564 441.908
1368 0 108.32 16.0266 1736 124.538 807.56 440.202
1369 0 113.34 15.1051 1712 126.203 808.133 436.694
1370 0 118.242 13.1679 1557 128.899 808.033 434.443
1371 0 118.181 13.3524 1578 130.089 808.722 433.504
1372 0 127.234 15.4598 1967 125.044 809.27 432.516
1373 0 130.339 16.4417 2143 124.013 809.82 425.371
1374 1 71.1598 13.4627 958 122.365 809.307 464.888
1375 0 71.146 10.4995 747 130.131 810.838 460.866
1376 0 74.2371 13.7398 1020 122.738 810.709 460.467
1377 0 76.135 13.3972 1020 124.38 810.244 458.656
1378 0 81.1055 13.8092 1120 122.147 809.499 462.539
1379 0 84.2053 13.3364 1123 123.413 809.915 461.137
1380 0 86.2498 13.7392 1185 122.591 808.868 461.445
1381 0 89.1532 14.3685 1281 120.699 808.235 458.503
1382 0 93.0928 14.1472 1317 119.708 807.169 458.668
1383 0 94.3247 13.2309 1248 123.448 808.538 455.523
1384 0 95.105 11.1771 1063 129.712 807.685 446.911
1385 0 96.1864 10.6148 1021 130.976 808.01 451.301
1386 0 100.353 11.9777 1202 129.686 805.397 446.607
1387 0 107.139 16.0352 1718 121.225 804.962 450.186
1388 0 108.15 11.9463 1292 127.772 803.699 447.255
1389 0 109.254 16.5302 1806 120.896 803.224 443.488
1390 0 114.291 12.6169 1442 126.836 803.162 435.934
1391 1 66.1133 9.57447 633 118.311 803.564 469.006
1392 0 64.4643 9.3385 602 112.266 801.985 464.364
1393 0 67.494 11.4973 776 110.86 802.026 463.835
1394 0 72.2348 11.8226 854 116.737 801.984 467.124
1395 0 78.2436 15.8096 1237 110.724 799.806 465.61
1396 0 77.1505 12.6247 974 116.557 798.418 461.755
1397 0 81.2536 15.9501 1296 110.126 799.948 466.846
1398 0 81.0803 11.4208 926 119.359 798.882 459.603
1399 0 84.3007 14.4601 1219 113.928 799.149 455.208
1400 0 86.2014 10.6495 918 120.452 798.685 450.122
1401 0 91.2278 13.6362 1244 114.66 798.986 449.17
1402 0 88.3257 9.64612 852 123.074 799.506 447.525
1403 0 96.3362 13.7954 1329 114.696 799.612 449.486
1404 0 98.4111 15.3031 1506 112.492 799.818 446.092
1405 0 98.4111 15.3031 1506 116.886 800.827 445.981
1406 0 106.352 13.916 1480 114.237 801.764 444.873
1407 1 56.0806 6.02704 338 125.05 801.399 465.331
1408 0 57.1558 8.97547 513 119.618 802.747 468.854
1409 0 59.2869 10.0359 595 117.329 802.901 462.163
1410 0 64.325 14.0536 904 107.043 805.246 462.39
1411 0 63.0941 13.6146 859 108.404 805.205 468.71
1412 0 65.0251 10.6882 695 114.765 805.23 462.223
1413 0 68.0271 10.0695 685 114.904 805.759 464.304
1414 0 69.0759 8.9322 617 116.699 806.186 464.011
1415 0 72.0355 14.3818 1036 109.075 807.551 461.74
1416 0 74.1011 9.93238 736 116.344 807.857 461.842
1417 0 73.0851 10.0568 735 121.638 808.835 461.742
1418 0 81.1453 12.8658 1044 111.89 807.856 461.329
1419 0 82.074 10.7342 881 113.756 808.726 468.224
1420 0 79.1368 10.3113 816 118.273 808.58 461.597
1421 0 83.088 7.30551 607 122.979 808.585 464.669
1422 0 83.0818 8.64209 718 123.131 809.049 461.171
1423 0 90.2416 11.2919 1019 118.42 808.65 458.61
1424 0 92.1065 11.2587 1037 117.823 809.646 460.48
1425 0 96.0903 10.6046 1019 118.661 808.513 460.033
1426 1 54.2426 11.0061 597 115.3 808.33 480.618
1427 0 52.167 7.84021 409 122.242 808.77 477.78
1428 0 57.0618 13.3715 763 111.921 807.329 476.83
1429 0 57.4425 11.2983 649 117.824 806.627 478.575
1430 0 55.0578 9.75339 537 124.311 802.616 476.885
1431 0 59.0565 13.5633 801 113.699 804.221 482.442
1432 0 63.1353 12.1644 768 119.999 802.93 473.233
1433 0 65.0757 12.2319 796 118.583 802.349 471.528
1434 0 69.1633 14.6754 1015 112.497 801.641 475.118
1435 0 67.1558 8.99401 604 125.03 802.371 466.887
1436 0 71.1089 14.752 1049 114.064 801.619 469.333
1437 0 73.1044 11.9281 872 120.197 802.88 462.06
1438 0 73.1694 11.4939 841 120.79 801.66 464.564
1439 0 78.1812 15.4769 1210 114.494 801.469 460.335
1440 0 80.313 11.1065 892 121.722 801.919 460.624
1441 0 83.1216 11.9463 993 121.471 802.051 458.616
1442 0 84.2902 12.5993 1062 118.708 801.323 454.725
1443 0 89.1764 12.4921 1114 118.067 803.116 452.991
1444 0 91.2033 10.9645 1000 121.391 803.268 449.946
1445 0 96.5328 13.2287 1277 117.092 803.338 448.605
1446 1 50.408 11.6648 588 114.872 801.978 468.963
1447 0 51.0831 12.4699 637 114.121 804.834 462.634
1448 0 54.0884 11.5736 626 115.569 805.043 467.188
1449 0 52.1052 9.96062 519 116.177 804.998 468.938
1450 0 53.1581 8.95442 476 116.855 805.882 467.941
1451 0 57.1554 11.6524 666 112.077 806.018 465.215
1452 0 57.2339 10.7279 614 114.647 807.186 467.156
1453 0 57.2339 10.6231 608 126.664 808.207 467.189
1454 0 60.1486 11.4882 691 114.522 807.952 468.842
1455 0 66.3074 13.8597 919 109.322 808.166 466.812
1456 0 63.1269 9.21952 582 117.62 808.538 468.656
1457 1 123.379 9.77479 1206 127.717 807.183 430.582
1458 1 70.2292 11.7615 826 114.255 809.736 461.679
1459 0 70.0477 9.05098 634 119.117 808.782 463.714
1460 0 73.3409 13.9349 1022 111.944 809.284 464.43
1461 0 76.2952 10.0137 764 117.616 808.997 464.042
1462 0 76.2446 10.0466 766 118.687 808.975 463.228
1463 0 83.2004 15.9374 1326 108.534 808.752 458.553
1464 0 82.1717 10.8797 894 118.85 808.979 458.529
1465 0 84.289 11.9944 1011 119.44 808.56 460.622
1466 0 85.2275 10.3018 878 121.629 809.028 462.433
1467 0 93.2023 11.8881 1108 117.956 808.174 461.152
1468 0 90.28 7.60966 687 128.049 808.817 449.051
1469 0 98.4627 11.3139 1114 119.714 806.427 457.129
1470 0 102.751 9.56678 983 124.699 805.892 451.595
1471 0 104.621 10.648 1114 123.241 805.163 448.506
1472 0 106.397 10.4796 1115 125.513 805.858 460.955
1473 0 106.317 8.62517 917 130.986 804.701 450.841
1474 0 113.412 10.819 1227 127.716 804.489 448.997
1475 0 121.329 9.51135 1154 129.045 804.455 448.328
1476 0 121.458 9.36128 1137 129.004 803.924 450.453
1477 0 123.234 13.6651 1684 121.614 803.603 450.374
1478 0 128.438 13.3528 1715 122.515 802.367 443.937
1479 0 130.395 10.1998 1330 128.091 802.042 439.397
1480 0 131.312 11.6364 1528 127.785 802.25 435.807
1481 0 139.465 11.4366 1595 127.716 800.576 424.349
1482 0 143.238 9.47377 1357 131.567 800.652 428.999
1483 0 150.423 12.651 1903 125.37 800.614 425.319
1484 0 153.416 10.4031 1596 129.331 800.674 423.238
1485 1 47.2639 9.69027 458 119.618 801.976 476.083
1486 0 47.1078 9.29782 438 120.466 802.368 475.795
1487 0 47.1213 8.80706 415 123.072 802.889 473.125
1488 0 50.0745 11.6427 583 119.317 802.63 470.516
1489 0 53.119 11.8602 630 118.181 803.033 468.538
1490 0 54.3086 12.1159 658 120.389 802.915 468.951
1491 0 54.3107 12.9993 706 119.506 804.026 466.467
1492 0 55.1018 10.9615 604 124.296 805.063 463.882
1493 0 60.1924 12.4933 752 119.261 804.757 466.739
1494 0 61.5287 13.8309 851 117.578 805.58 466.633
1495 0 62.2392 13.4803 839 119.128 806.072 463.8
1496 0 64.2788 14.7638 949 117.487 807.208 463.496
1497 0 66.3523 12.5693 834 121.541 807.309 462.968
1498 0 66.3666 11.0146 731 125.524 807.784 463.617
1499 0 69.3226 13.6319 945 120.923 808.915 460.571
1500 0 69.1948 11.8506 820 123.851 808.582 463.268
1501 0 72.3694 14.122 1022 120.278 809.4 462.334
1502 0 73.4728 13.243 973 121.203 809.281 460.882
1503 0 76.3647 12.1915 931 123.711 809.135 458.737
1504 0 83.3533 12.2011 1017 122.435 809.675 459.061
1505 0 81.5408 11.4544 934 124.041 808.876 458.12
1506 0 87.5825 11.7375 1028 122.693 810.869 461.899
1507 1 44.355 8.74761 388 123.858 809.397 482.814
1508 0 46.2791 10.4367 483 120.352 808.75 484.598
1509 0 50.5734 13.1888 667 116.603 807.252 477.322
1510 0 53.4909 8.41265 450 122.327 806.998 479.993
1511 0 52.3853 12.1217 635 119.246 807.038 479.334
1512 0 54.2642 11.444 621 120.707 806.058 479.858
1513 0 53.5101 9.04502 484 126.905 807.138 478.26
1514 0 54.2292 11.5436 626 122.984 807.979 477.778
1515 0 54.3208 8.52344 463 128.365 805.946 481.441
1516 0 60.0936 11.6152 698 121.725 805.168 479.262
1517 0 64.1835 14.4741 929 115.99 804.268 480.218
1518 0 62.1826 11.5949 721 123.519 804.259 476.771
1519 0 59.1418 10.1282 599 126.865 803.304 474.461
1520 0 63.2305 10.2166 646 125.537 802.926 474.367
1521 0 67.2268 10.3233 694 124.379 803.937 473.566
1522 0 70.1428 11.8187 829 121.767 803.238 470.435
1523 0 73.1126 11.2293 821 122.685 802.946 467.421
1524 0 75.2729 11.0133 829 122.147 801.206 466.071
1525 0 73.2534 11.2077 821 122.063 801.229 461.465
1526 0 81.2372 11.5464 938 119.425 802.688 468.915
1527 0 81.1825 14.4243 1171 117.412 802.721 458.152
1528 0 86.1773 15.677 1351 113.531 802.624 460.579
1529 0 88.2669 11.7145 1034 120.574 802.521 455.995
1530 0 90.3396 10.9919 993 120.455 802.201 453.967
1531 0 91.1825 12.5901 1148 117.846 799.485 450.599
1532 0 97.3135 14.1399 1376 115.037 801.116 447.79
1533 1 53.2976 10.7885 575 117.393 799.266 466.835
1534 0 53.2976 10.7322 572 131.481 798.259 466.82
1535 0 56.1306 11.5089 646 117.672 800.799 464.715
1536 0 62.2698 16.6694 1038 107.339 802.578 464.85
1537 0 60.1155 12.8087 770 116.114 803.409 464.625
1538 0 61.1071 14.6137 893 114.06 804.171 464.251
1539 0 64.0842 12.1247 777 117.062 804.174 463.834
1540 0 64.1007 12.886 826 117.695 805.314 462.004
1541 0 62.1262 8.40225 522 126.364 805.822 459.967
1542 0 68.1106 13.2138 900 116.67 805.723 463.396
1543 0 69.1352 15.1153 1045 114.02 806.279 461.571
1544 0 71.1074 12.9663 922 116.919 806.536 463.281
1545 0 72.1486 11.6704 842 119.197 807.013 461.449
1546 0 73.3332 11.8091 866 118.904 807.282 462.48
1547 0 74.2071 13.2467 983 117.368 807.206 462.15
1548 0 81.3583 12.9796 1056 115.399 808.122 465.49
1549 0 82.22 14.668 1206 113.41 807.469 463.277
1550 0 83.117 12.8253 1066 116.988 807.453 458.946
1551 0 85.3459 13.7089 1170 115.397 806.735 456.94
1552 0 88.3947 14.2542 1260 114.339 806.802 453.879
1553 0 91.5132 11.1022 1016 118.306 807.189 459.766
1554 0 98.4315 13.0852 1288 114.666 806.973 458.009
1555 0 102.482 16.2761 1668 109.52 805.833 455.285
1556 1 55.1451 10.554 582 115.612 805.588 475.706
1557 0 51.0991 10.098 516 118.279 804.395 475.419
1558 0 56.2208 11.277 634 106.148 804.853 478.511
1559 0 58.3805 9.91769 579 113.686 803.364 477.447
1560 0 60.0449 10.9085 655 113.363 802.168 468.053
1561 0 61.1455 9.60005 587 115.826 802.247 465.153
1562 0 61.2936 12.2199 749 111.973 801.495 467.882
1563 1 85.2938 8.39451 716 112.742 801.98 473.02
1564 0 80.3638 11.647 936 108.001 801.597 457.76
1565 0 76.2542 13.0485 995 106.872 800.328 459.482
1566 0 77.3346 10.2929 796 111.103 801.854 454.475
1567 0 75.208 11.8205 889 110.718 801.82 457.233
1568 1 153.419 11.8173 1813 111.018 800.323 431.515
1569 0 150.391 8.80374 1324 114.688 800.72 433.264
1570 0 149.317 8.47192 1265 113.559 799.82 438.722
1571 0 147.582 4.93285 728 120.159 800.184 424.772
1572 1 165.488 8.5142 1409 111.671 800.998 440.571
1573 0 161.313 3.5583 574 122.174 801.279 432.814
1574 1 56.1808 12.7268 715 103.196 801.527 471.874
1575 0 56.1914 9.85915 554 107.374 802.328 467.818
1576 0 55.5121 6.53911 363 113.512 802.499 463.22
1577 0 59.211 11.0284 653 107.323 802.184 467.492
1578 0 58.2381 9.40964 548 111.575 801.932 463.969
1579 0 60.5792 10.0199 607 107.949 804.26 461.919
1580 0 63.3405 13.4985 855 103.774 805.191 463.92
1581 0 66.1974 8.88252 588 111.158 805.151 455.003
1582 0 67.177 11.5665 777 109.26 804.737 461.726
1583 0 71.2588 12.1529 866 105.35 805.818 457.614
1584 0 76.3298 11.3848 869 106.48 806.854 457.747
1585 0 80.2331 10.7312 861 107.064 807.049 467.235
1586 0 79.2795 12.3866 982 106.534 807.422 458.411
1587 0 81.3239 10.575 860 110.05 806.983 453.902
1588 0 87.4665 10.8956 953 109.746 807.897 453.902
1589 0 89.5743 12.939 1159 108.072 808.218 456.043
1590 0 91.3011 11.5442 1054 109.805 807.848 459.129
1591 0 93.3088 9.82758 917 114.527 808.525 456.138
1592 1 50.3816 5.79576 292 116.329 809.003 477.325
1593 0 55.2166 10.3773 573 108.618 808.262 478.934
1594 0 56.1614 12.2326 687 105.854 809.003 477.231
1595 0 56.2557 10.79 607 107.787 808.713 476.745
1596 0 54.1472 9.01247 488 111.139 806.654 476.258
1597 0 56.1709 9.36429 526 110.831 805.498 477.112
1598 0 60.0713 7.64092 459 114.255 805.762 476.656
1599 0 61.1696 9.85784 603 111.541 805.789 477.202
1600 0 58.1506 5.2794 307 118.091 806.202 471.114
1601 0 64.1679 6.31156 405 115.151 804.62 474.588
1602 0 70.1518 9.8073 688 109.712 805.744 472.228
1603 0 72.1988 10.6096 766 109.025 804.136 470.176
1604 0 68.1038 9.45615 644 113.536 802.769 467.238
1605 0 74.1276 9.5376 707 113.498 801.976 465.024
1606 0 83.4787 12.5421 1047 107.824 802.461 464.664
1607 0 84.3516 13.1474 1109 109.562 802.766 456.901
1608 0 85.3839 13.8317 1181 109.094 801.224 462.559
1609 0 87.2048 10.2517 894 115.112 801.102 457.943
1610 0 93.4233 14.9963 1401 106.895 801.488 458.085
1611 0 95.3937 13.764 1313 110.158 801.064 453.062
1612 0 97.4334 11.3411 1105 112.767 800.928 451.752
1613 0 102.674 11.8628 1218 112.534 800.267 450.047
1614 1 54.2369 9.73506 528 106.244 801.089 474.208
1615 0 58.3716 11.0499 645 106.287 799.512 467.189
1616 0 58.3716 10.93 638 119.35 798.531 467.177
1617 0 61.2186 11.5324 706 106.404 801.629 467.003
1618 0 64.4171 12.7606 822 104.749 801.298 466.943
1619 0 62.1306 10.5262 654 109.792 801.628 459.164
1620 0 68.2199 13.5005 921 104.835 803.076 458.524
1621 0 69.1726 9.74374 674 108.334 803.365 461.672
1622 0 69.2779 10.6961 741 109.891 803.158 454.382
1623 0 73.17 10.7421 786 110.167 802.847 453.346
1624 0 77.2158 9.1432 706 111.599 804.04 452.167
1625 0 77.2131 9.64862 745 112.113 805.676 454.593
1626 0 81.4266 12.3793 1008 108.455 805.921 452.185
1627 0 81.1275 9.55286 775 113.321 806.706 446.674
1628 0 85.1967 10.8103 921 111.683 807.059 449.643
1629 0 91.2859 13.025 1189 108.262 807.059 448.472
1630 1 49.2473 9.38122 462 109.169 807.249 471.695
1631 0 54.2566 12.6621 687 105.044 807.166 471.215
1632 0 53.1704 9.87391 525 108.343 806.065 468.97
1633 0 56.1058 11.8526 665 103.559 805.544 473.263
1634 0 58.4516 11.548 675 104.966 807.827 470.29
1635 0 58.218 10.5294 613 106.261 805.56 472.098
1636 0 56.1218 16.9453 951 102.629 806.438 472.532
1637 0 60.1911 14.1051 849 105.186 805.244 473.034
1638 0 60.1326 11.1753 672 110.298 805.381 476.28
1639 0 64.0464 13.3497 855 107.229 804.91 470.956
1640 0 65.0787 12.7538 830 108.124 804.275 472.347
1641 0 68.0302 12.7443 867 107.776 803.481 475.374
1642 0 69.1436 13.6094 941 107.214 803.019 471.423
1643 0 72.0918 12.6921 915 108.368 802.698 474.832
1644 0 72.0918 12.7615 920 115.708 801.677 474.858
1645 0 76.1234 20.8083 1584 98.9444 801.533 469.756
1646 0 77.1198 14.7174 1135 107.869 801.207 470.433
1647 0 80.1602 11.6018 930 111.967 801.124 467.481
1648 0 82.2137 14.0974 1159 108.595 800.408 460.548
1649 0 85.2731 12.1844 1039 112.417 800.398 461.373
1650 1 47.0794 10.8753 512 110.018 798.74 486.191
1651 0 50.0789 10.144 508 111.106 799.762 484.157
1652 0 51.0942 10.0207 512 114.596 800.584 479.15
1653 0 50.3731 9.74727 491 108.523 799.629 474.328
1654 0 49.2543 10.2529 505 112.596 797.204 466.299
1655 0 54.1574 10.3033 558 108.075 800.478 477.925
1656 0 57.1967 13.2875 760 105.062 799.625 473.988
1657 0 54.0941 9.52045 515 110.668 799.565 472.922
1658 0 60.1538 12.3683 744 104.702 799.922 472.706
1659 0 60.1659 9.97242 600 109.008 800.147 471.827
1660 0 60.1062 9.00074 541 112.444 799.159 468.348
1661 0 63.1532 10.8466 685 107.571 799.197 467.464
1662 0 66.289 12.6265 837 106.714 799.848 461.999
1663 0 67.3009 10.2525 690 109.819 800.336 462.083
1664 0 73.2467 15.5502 1139 103.319 799.205 452.154
1665 0 72.3667 11.4832 831 107.378 800.851 459.657
1666 0 76.2862 12.5055 954 107.528 802.513 455.503
1667 0 77.2819 13.1467 1016 106.888 803.423 454.082
1668 0 79.3945 13.4896 1071 107.348 803.254 448.764
1669 0 84.2817 13.3481 1125 106.787 804.516 449.502
1670 0 84.2817 13.2532 1117 119.453 805.525 449.428
1671 1 48.2143 9.76889 471 112.219 804 468.352
1672 0 46.1197 11.0365 509 111.99 804.405 471.725
1673 0 51.0157 12.0159 613 110.533 809.605 471.553
1674 0 52.0555 10.1814 530 116.366 809.868 471.028
1675 0 57.1189 15.6866 896 107.787 810.065 472.51
1676 0 59.0929 12.7596 754 112.629 809.426 473.025
1677 0 60.0635 11.954 718 114.66 807.997 474.089
1678 0 59.1077 14.1944 839 113.549 809.188 474.554
1679 0 61.0552 11.9236 728 118.147 808.57 472.026
1680 0 64.2184 13.7344 882 113.698 807.991 474.671
1681 0 65.1863 14.6043 952 113.655 807.564 471.311
1682 0 68.0447 14.2994 973 114.29 807.64 472.332
1683 0 68.366 11.2775 771 120.307 806.769 474.293
1684 0 73.0747 13.7804 1007 117.495 806.695 470.039
1685 0 75.163 14.4486 1086 115.861 806.369 472.262
1686 0 80.0482 18.4389 1476 108.596 805.048 470.402
1687 0 79.1587 13.4792 1067 118.301 804.814 466.769
1688 0 80.118 12.0947 969 120.738 804.626 467.938
1689 0 84.1086 13.7798 1159 118.443 803.25 462.74
1690 0 85.2192 17.367 1480 112.762 803.062 459.066
1691 1 43.0835 10.4448 450 118.769 802.48 480.733
1692 0 47.1292 12.4127 585 114.814 801.157 481.853
1693 0 47.2606 8.08285 382 121.602 799.801 478.128
1694 0 49.2858 16.8 828 104.708 798.659 477.122
1695 0 49.044 12.9068 633 111.6 798.245 479.453
1696 0 51.0708 12.003 613 111.842 798.117 478.051
1697 0 54.1632 12.13 657 111.752 798.12 475.624
1698 0 56.0919 13.4601 755 109.697 797.901 475.053
1699 0 56.2118 12.4885 702 110.815 798.251 472.501
1700 0 52.1019 9.75013 508 115.935 798.717 465.563
1701 0 61.1146 12.1084 740 111.55 799.614 468.132
1702 0 63.1694 11.3029 714 113.811 799.064 464.473
1703 0 64.0803 10.1123 648 115.894 799.873 466.918
1704 0 67.1363 12.1544 816 110.706 799.045 460.636
1705 0 69.1535 14.0268 970 107.403 801.497 452.94
1706 0 73.1523 14.2306 1041 108.389 801.99 459.385
1707 0 70.1788 12.1262 851 112.015 802.78 453.659
1708 0 76.2784 13.2148 1008 108.73 803.727 451.175
1709 0 79.1351 12.5355 992 110.137 804.678 448.699
1710 0 80.2835 11.858 952 110.584 804.431 454.275
1711 0 84.1661 14.2219 1197 108.673 805.42 450.165
1712 0 85.0978 10.8346 922 116.392 805.809 450.169
1713 0 92.4021 13.4196 1240 110.914 805.761 450.769
1714 0 96.4444 12.3076 1187 110.539 806.292 457.095
1715 1 51.1081 12.4638 637 107.78 805.452 476.104
1716 0 53.3457 12.3909 661 110.268 807.399 470.16
1717 0 57.1828 15.5116 887 104.777 806.719 474.285
1718 0 57.0983 12.207 697 112.001 806.382 471.237
1719 0 59.0445 12.6176 745 110.897 807.232 473.521
1720 0 63.0923 13.4406 848 109.474 807.691 473.984
1721 0 63.3236 11.1333 705 113.389 806.814 471.045
1722 0 66.1222 11.2065 741 111.596 806.198 471.29
1723 0 69.266 17.3823 1204 101.998 805.89 480.263
1724 0 71.162 12.3802 881 110.538 805.269 472.85
1725 0 72.2089 12.5469 906 110.766 805.14 471.062
1726 0 77.2514 14.5758 1126 107.871 806.362 470.231
1727 0 79.1794 13.8293 1095 109.343 805.863 470.237
1728 0 83.2474 13.9103 1158 109.845 804.876 469.299
1729 0 85.2701 16.6764 1422 105.963 804.369 470.508
1730 0 88.1636 14.1215 1245 111.496 801.402 465.345
1731 1 50.1436 11.7263 588 110.855 801.384 486.473
1732 0 50.1161 13.3291 668 110.35 801.121 481.617
1733 0 51.0246 13.6993 699 110.831 801.3 480.502
1734 0 50.028 10.694 535 119.837 799.72 480.204
1735 0 55.0901 14.8121 816 113.424 800.221 477.403
1736 0 56.0698 14.1074 791 114.276 798.291 474.743
1737 0 59.0826 11.5262 681 118.959 798.551 476.311
1738 0 58.0548 18.8098 1092 108.199 798.263 474.281
1739 0 61.0616 15.0176 917 114.924 798.262 473.749
1740 0 61.0585 13.1513 803 119.768 798.584 469.384
1741 0 64.0427 11.5079 737 122.056 798.4 471.03
1742 0 64.0823 10.8298 694 125.037 797.984 466.63
1743 0 67.1617 13.4749 905 118.377 798.512 468.868
1744 0 71.2789 14.324 1021 117.989 798.483 464.375
1745 0 73.1412 15.641 1144 115.868 799.031 461.147
1746 0 75.126 16.2394 1220 115.811 799.07 460.607
1747 0 79.1934 15.3674 1217 116.838 798.242 458.651
1748 0 81.1126 14.523 1178 118.138 800.359 456.677
1749 0 83.119 15.7004 1305 116.253 800.787 455.996
1750 0 84.3279 15.1077 1274 119.075 800.786 453.319
1751 0 87.1801 14.4987 1264 120.442 801.916 454.842
1752 0 88.0486 12.0842 1064 126.175 802.418 451.45
1753 0 94.1935 15.723 1481 118.875 802.456 446.379
1754 0 96.3289 12.5507 1209 125.088 803.503 449.385
1755 0 97.1375 12.0345 1169 127.606 804.107 444.329
1756 0 96.1473 12.148 1168 148.27 805.115 444.502
1757 1 59.1028 9.6442 570 121.511 803.725 471.084
1758 0 61.1944 12.6646 775 115.603 803.866 472.556
1759 0 62.2384 12.0183 748 116.865 805.861 469.89
1760 0 61.1615 13.4235 821 113.834 806.747 469.307
1761 0 61.1615 13.5216 827 129.187 807.747 469.294
1762 0 69.2128 13.0901 906 112.935 806.088 470.041
1763 0 71.2862 15.5009 1105 109.221 806.443 469.107
1764 0 74.3754 14.6419 1089 109.324 806.526 472.139
1765 0 76.1752 16.462 1254 107.816 806.621 469.345
1766 0 77.1277 17.1274 1321 108.378 806.251 465.136
1767 0 79.1566 11.9384 945 117.356 805.546 465.995
1768 0 81.2361 12.5068 1016 116.651 806.017 466.303
1769 0 86.189 12.9831 1119 115.194 805.962 465.648
1770 0 91.0909 14.7984 1348 111.266 804.84 466.147
1771 0 93.1378 15.1818 1414 110.898 804.727 462.849
1772 0 97.215 14.2159 1382 112.423 803.316 460.541
1773 0 101.283 18.1472 1838 107.253 803.208 459.139
1774 0 104.388 13.2965 1388 114.187 803.057 458.151
1775 0 109.291 14.96 1635 110.761 802.576 458.766
1776 0 108.274 18.2961 1981 116.435 801.571 455.984
1777 1 62.3804 11.8627 740 111.999 800.677 474.549
1778 0 66.0412 14.597 964 110.152 801.187 476.301
1779 0 67.1003 13.1445 882 111.766 801.397 477.364
1780 0 68.1094 12.3771 843 114.8 801.107 472.456
1781 0 69.1912 12.7906 885 114.486 801.429 471.753
1782 0 73.0533 14.2225 1039 112.151 801.22 466.518
1783 0 74.0443 13.762 1019 111.763 801.254 468.353
1784 0 76.1474 14.7083 1120 110.537 800.367 466.5
1785 0 78.0735 13.1927 1030 112.864 800.126 463.174
1786 0 82.3679 14.5081 1195 109.606 801.385 466.428
1787 0 81.1801 13.932 1131 112.094 801.002 461.606
1788 0 86.2414 13.5434 1168 112.125 801.875 457.269
1789 0 88.1372 13.6378 1202 112.065 801.843 456.567
1790 0 90.291 12.3822 1118 114.241 801.727 455.311
1791 0 95.3061 16.3683 1560 107.487 802.647 451.314
1792 0 96.3365 13.7954 1329 112.41 802.614 448.798
1793 0 98.2284 10.5774 1039 117.723 803.784 445.405
1794 0 103.218 12.8563 1327 113.487 803.757 445.298
1795 0 107.165 13.3626 1432 112.091 804.736 444.591
1796 1 59.2892 8.83803 524 114.548 803.847 467.364
1797 0 61.24 9.81384 601 114.626 805.383 461.985
1798 0 62.1988 9.82334 611 113.722 804.288 463.247
1799 0 64.3278 12.9027 830 109.184 805.028 457.833
1800 0 65.7338 11.5466 759 112.25 804.399 461.325
1801 0 70.3681 14.8789 1047 106.638 804.543 462.873
1802 0 71.2686 14.3962 1026 107.458 805.487 462.469
1803 0 73.3343 12.9135 947 109.905 806.037 456.683
1804 0 78.4786 14.9977 1177 105.771 805.333 464.67
1805 0 79.9331 10.5838 846 113.963 806.441 460.152
1806 0 83.5129 12.6328 1055 110.898 806.715 460.305
1807 0 85.4199 10.9459 935 114.288 806.471 460.175
1808 0 89.703 12.1847 1093 111.761 806.712 458.652
1809 0 95.7625 17.2823 1655 104.574 806.048 455.443
1810 0 96.8681 12.3467 1196 112.827 805.407 449.836
1811 0 100.728 15.1001 1521 108.684 805.401 447.753
1812 0 107.679 13.9953 1507 110.052 805.384 452.38
1813 0 106.358 13.9152 1480 108.886 804.842 449.047
1814 0 108.539 17.2473 1872 104.021 804.297 451.765
1815 1 58.2956 10.9614 639 107.933 802.341 470.28
1816 0 62.2292 13.7234 854 103.745 802.145 471.152
1817 0 64.2064 11.1048 713 102.067 802.163 473.487
1818 0 66.3379 11.1852 742 102.31 802.453 470.755
1819 0 65.124 10.3648 675 104.665 801.403 464.828
1820 0 69.2036 13.3374 923 100.579 800.992 465.458
1821 0 72.2884 12.2565 886 101.814 801.187 462.773
1822 0 74.3734 11.1061 826 102.11 800.385 465.565
1823 0 76.1815 10.9607 835 103.188 799.705 461.339
1824 0 80.3286 11.2413 903 103.047 798.998 456.927
1825 0 81.2656 14.8895 1210 98.2628 799.889 458.249
1826 0 85.2681 12.3258 1051 101.72 799.528 454.638
1827 0 85.3315 10.2658 876 106.014 798.718 450.123
1828 0 89.2642 14.149 1263 100.836 798.888 452.207
1829 0 91.2018 15.7453 1436 99.7033 799.928 446.568
1830 0 95.2808 11.5448 1100 105.825 799.846 444.315
1831 0 97.2264 13.7 1332 102.935 799.222 445.839
1832 0 100.173 10.8213 1084 107.27 800.214 438.078
1833 1 55.1698 10.7486 593 102.528 800.373 450.582
1834 0 57.179 10.7907 617 101.284 800.674 451.827
1835 0 61.122 14.561 890 97.4438 801.018 450.209
1836 0 59.0669 11.5293 681 102.305 800.558 444.197
1837 0 61.2555 17.3209 1061 95.3544 802.154 448.887
1838 0 64.3906 12.5018 805 102.053 802.63 449.097
1839 0 62.0992 12.319 765 102.892 803.783 451.574
1840 0 65.2183 10.1812 664 106.905 803.556 450.768
1841 0 67.205 10.401 699 106.668 804.904 454.941
1842 0 66.2052 11.5852 767 121.79 804.858 453.807
1843 0 73.5372 14.1561 1041 100.768 805.913 452.979
1844 0 74.2257 12.4889 927 103.724 806.396 450.367
1845 0 75.1523 13.9317 1047 102.84 807.052 451.707
1846 0 81.4721 14.5817 1188 101.234 806.463 452.348
1847 0 82.4871 12.9475 1068 104.313 808.042 453.812
1848 0 85.3217 12.5994 1075 105.13 806.639 450.33
1849 0 86.1808 10.8029 931 107.669 806.87 450.061
1850 0 84.501 10.6863 903 109.406 806.318 451.061
1851 0 93.218 12.3045 1147 106.309 806.153 448.904
1852 0 94.3546 11.266 1063 110.116 805.755 447.643
1853 1 50.1827 8.22993 413 110.867 804.712 474.828
1854 0 55.0886 11.0186 607 109.427 805.911 477.969
1855 0 57.0237 12.714 725 107.139 805.963 478.328
1856 0 58.0762 13.2757 771 106.134 805.567 474.676
1857 0 61.0449 11.6308 710 108.389 805.532 476.437
1858 0 63.2137 15.2973 967 104.311 803.878 474.201
1859 0 66.1653 10.8818 720 109.925 802.882 477.657
1860 0 67.1893 11.609 780 108.892 802.406 475.759
1861 0 70.2447 16.7272 1175 102.26 801.142 471.983
1862 0 72.1991 14.5016 1047 105.583 801.135 473.245
1863 0 73.2746 13.4835 988 107.562 799.188 471.006
1864 0 76.2174 12.2019 930 110.006 799.436 468.585
1865 0 77.1672 14.8249 1144 107.589 799.419 464.749
1866 0 82.0772 19.2014 1576 101.145 799.507 466.374
1867 0 82.1777 17.9976 1479 101.932 799.052 467.727
1868 0 85.1077 12.0201 1023 111.327 799.136 459.672
1869 0 88.2593 14.684 1296 106.345 799.054 463.977
1870 0 86.3413 8.99917 777 115.035 799.06 462.874
1871 0 90.1832 11.4988 1037 113.455 799.833 452.426
1872 0 97.1555 14.8216 1440 108.571 798.927 451.476
1873 0 98.2146 13.3178 1308 111.125 799.742 451.58
1874 1 54.0367 11.1036 600 111.89 798.482 472.2
1875 0 57.0338 12.5715 717 105.859 798.293 472.859
1876 0 59.1018 10.9472 647 106.909 800.717 472.665
1877 0 59.2001 16.2669 963 100.202 801.192 470.701
1878 0 59.2461 12.6759 751 105.658 800.842 467.113
1879 0 63.1088 16.7489 1057 100.199 801.319 462.542
1880 0 64.1032 12.6203 809 106.265 801.339 465.939
1881 0 67.0993 15.3057 1027 103.753 802.474 461.719
1882 0 69.2246 15.9192 1102 102.953 802.44 463.476
1883 0 73.1935 17.0234 1246 102.213 803.367 458.049
1884 0 73.1935 16.8321 1232 115.787 804.406 458.194
1885 0 75.1443 16.0092 1203 105.051 804.727 459.947
1886 0 79.2252 13.7204 1087 106.742 805.09 464.191
1887 0 86.3079 13.9153 1201 106.231 805.39 460.465
1888 0 83.1178 10.84 901 113.495 806.268 457.232
1889 0 84.1145 14.9915 1261 108.154 806.429 459.573
1890 0 89.2161 14.4705 1291 107.874 806.835 459.273
1891 0 93.3711 17.9713 1678 102.25 806.373 462.02
1892 0 98.1503 11.7167 1150 111.993 807.382 456.896
1893 0 96.1907 13.546 1303 111.206 807.998 452.082
1894 0 103.19 13.5188 1395 110.496 807.832 456.702
1895 0 104.302 12.6268 1317 112.528 807.01 456.306
1896 0 106.231 11.1267 1182 113.633 806.835 460.494
1897 0 110.225 17.1921 1895 104.817 806.041 459.814
1898 1 64.1506 10.0233 643 114.781 806.645 476.9
1899 0 63.2174 13.3666 845 110.749 806.03 476.17
1900 0 67.1866 16.0151 1076 107.116 805.329 474.414
1901 0 69.2343 16.1481 1118 111.057 804.513 471.628
1902 0 71.1381 14.3664 1022 113.153 803.672 470.839
1903 0 75.1699 14.8065 1113 113.305 803.332 469.845
1904 0 79.2077 15.352 1216 111.865 802.555 469.586
1905 0 78.1544 13.2942 1039 116.984 802.438 467.498
1906 0 82.216 16.8215 1383 111.356 801.371 464.37
1907 0 84.1439 13.6076 1145 115.877 800.415 469.25
1908 0 86.1991 15.8122 1363 113.988 799.676 465.573
1909 0 87.2441 14.7976 1291 116.61 799.266 457.305
1910 0 91.3398 15.0208 1372 116.757 798.478 457.87
1911 0 91.3932 11.1059 1015 124.317 799.533 454.936
1912 0 96.3598 17.6214 1698 112.592 798.768 453.245
1913 0 97.2621 15.1549 1474 116.267 798.778 453.85
1914 0 99.4255 12.5521 1248 122.487 798.671 447.611
1915 0 102.282 10.3439 1058 125.184 798.615 446.936
1916 1 55.3791 8.81199 488 121.432 797.57 469.301
1917 0 58.3283 10.2352 597 118.002 797.828 468.693
1918 0 58.2373 12.5864 733 110.471 796.932 466.445
1919 0 61.2259 9.8161 601 114.393 798.296 466.198
1920 0 64.1153 11.3857 730 111.971 799.075 465.04
1921 0 65.1677 12.9666 845 109.845 799.574 463.549
1922 0 67.1114 14.1407 949 108.248 800.55 459.244
1923 0 72.2141 11.4659 828 112.19 801.913 457.72
1924 0 70.1302 14.9436 1048 107.968 801.412 456.734
1925 0 73.5733 12.6405 930 111.374 804.973 458.155
1926 0 73.5733 12.6541 931 123.028 805.93 458.08
1927 0 78.1372 13.2075 1032 110.063 805.508 452.914
1928 0 80.2227 12.0166 964 111.531 805.446 446.465
1929 0 81.2195 11.8198 960 112.679 806.28 452.17
1930 0 87.2378 14.4777 1263 108.553 806.546 451.16
1931 0 89.4546 11.9614 1070 112.659 807.053 448.397
1932 0 92.1449 13.3268 1228 111.234 807.138 447.887
1933 0 93.4488 13.3335 1246 111.892 807.318 447.315
1934 0 99.2231 20.2372 2008 100.915 807.288 454.444
1935 0 98.1895 14.6044 1434 110.98 807.1 447.672
1936 0 103.307 17.9175 1851 105.254 807.386 453.155
1937 0 101.151 11.7449 1188 114.88 806.925 452.958
1938 1 60.0763 11.8017 709 111.843 807.323 472.495
1939 0 58.0919 10.4662 608 127.941 808.253 474.158
1940 0 61.2506 10.6121 650 115.018 805.905 473.183
1941 0 63.1896 13.4674 851 110.022 803.85 478.519
1942 0 67.2351 12.5976 847 112.047 805.86 474.357
1943 0 70.0898 14.5813 1022 108.347 804.252 476.008
1944 0 70.0898 14.6098 1024 122.808 802.219 476.055
1945 0 73.3445 13.348 979 110.18 803.278 474.576
1946 0 78.1952 13.3128 1041 110.12 802.184 472.463
1947 0 75.2884 11.1704 841 115.084 802.036 466.045
1948 0 79.2048 14.1784 1123 109.37 800.267 465.191
1949 0 83.2289 13.2045 1099 110.418 800.266 465.146
1950 0 88.2588 12.4067 1095 110.999 800.121 464.912
1951 0 91.3907 18.12 1656 102.072 798.801 464.868
1952 0 91.3312 14.4857 1323 108.672 798.314 459.135
1953 0 96.4353 14.9116 1438 107.853 798.878 454.582
1954 0 98.3454 13.0967 1288 109.738 799.153 456.053
1955 0 97.5688 13.2214 1290 107.647 797.549 457.489
1956 0 105.641 13.2145 1396 107.247 798.12 452.337
1957 1 53.2388 9.95514 530 112.226 798.585 470.762
1958 0 56.2388 9.29963 523 111.201 797.981 474.707
1959 0 59.0803 11.222 663 109.354 799.905 469
1960 0 62.0759 13.1452 816 107.156 799.672 470.528
1961 0 64.2621 14.223 914 106.787 799.545 465.481
1962 0 65.1448 13.6158 887 108.417 800.17 466.061
1963 0 66.1036 12.5863 832 110.423 800.803 462.718
1964 0 67.091 12.4458 835 110.629 801.417 461.79
1965 0 72.1803 17.013 1228 103.499 801.234 461.957
1966 0 69.0662 10.2076 705 116.332 802.686 455.675
1967 0 72.081 12.1807 878 113.393 803.509 457.915
1968 0 76.1088 13.4807 1026 111.606 804.595 456.585
1969 0 77.0693 11.8595 914 116.213 804.321 453.588
1970 0 80.1464 14.5609 1167 111.225 805.138 454.519
1971 0 85.1734 13.584 1157 113.27 806.347 452.715
1972 0 85.1251 15.3774 1309 111.118 806.045 455.885
1973 0 85.119 13.7337 1169 114.731 807.164 454.923
1974 0 89.0958 13.435 1197 115.612 807.475 450.579
1975 1 50.1769 8.15116 409 121.095 806.976 471.161
1976 0 52.0656 10.8517 565 116.034 806.993 472.251
1977 0 53.1206 12.8199 681 113.032 807.354 474.305
1978 0 55.1726 11.4368 631 111.122 805.959 472.984
1979 0 56.1456 12.3785 695 110.557 806.245 474.176
1980 0 56.1849 11.6579 655 113.111 805.382 474.536
1981 0 58.2214 10.357 603 115.501 804.788 472.29
1982 0 61.1574 10.939 669 115.846 804.499 475.025
1983 0 61.1028 11.1615 682 117.636 803.909 473.251
1984 0 66.1683 14.8863 985 109.541 803.422 473.071
1985 0 65.0896 10.0016 651 118.129 803.353 471.3
1986 0 69.2141 11.4139 790 116.191 802.271 472.115
1987 0 73.1611 13.1217 960 113.625 801.445 470.234
1988 0 75.1073 15.6576 1176 110.063 799.718 469.372
1989 0 77.1691 12.1292 936 116.307 800.846 469.392
1990 0 80.2272 16.1541 1296 109.77 800.007 467.322
1991 0 81.2769 13.3617 1086 115.146 799.538 463.76
1992 0 86.2294 15.4588 1333 110.241 800.094 465.791
1993 0 90.1983 14.3905 1298 112.369 799.691 463.515
1994 0 90.1983 14.3018 1290 142.446 799.705 463.538
1995 0 93.2971 13.3016 1241 116.031 798.963 459.75
1996 0 96.2422 12.9777 1249 116.824 796.97 456.987
1997 0 97.3268 11.6823 1137 120.067 798.294 452.729
1998 1 54.1389 12.2832 665 118.033 796.762 475.092
1999 0 55.2421 11.875 656 118.107 797.979 476.399
2000 0 58.0864 12.0166 698 118.203 798.311 474.444
2001 0 58.2154 14.1371 823 116.921 797.498 466.151
2002 0 58.2107 11.7676 685 120.819 796.8 466.842
2003 0 62.098 13.7847 856 117.63 798.704 466.985
2004 0 65.2112 14.154 923 116.928 800.066 467.678
2005 0 65.2812 13.0972 855 119.299 801.054 467.404
2006 0 66.2646 13.9743 926 117.649 801.64 466.514
2007 0 69.1377 13.1477 909 119.605 801.012 463.238
2008 0 75.6579 17.6452 1335 111.628 802.182 457.035
2009 0 72.4117 12.0975 876 124.936 801.662 451.422
2010 0 73.2925 14.4626 1060 120.682 802.464 453.676
2011 0 78.3244 16.4444 1288 116.832 803.8 451.339
2012 0 80.5861 15.0274 1211 118.993 804.207 449.671
2013 0 82.3681 12.9055 1063 122.287 804.628 451.47
2014 0 83.5294 14.7014 1228 120.631 804.122 450.121
2015 0 86.593 10.8092 936 126.25 805.747 450.163
2016 0 90.1599 12.5887 1135 119.504 805.598 453.474
2017 0 91.1929 13.8169 1260 117.64 805.821 450.267
2018 0 94.2151 13.9256 1312 117.718 805.962 449.806
2019 0 95.3811 12.0569 1150 121.035 806.023 452.232
2020 0 100.299 11.715 1175 121.81 806.958 452.104
2021 0 100.299 11.6353 1167 141.716 806.954 452.013
2022 0 107.253 13.4262 1440 119.671 806.019 450.128
2023 1 61.3243 11.3169 694 116.148 806.532 477.876
2024 0 62.0832 10.8403 673 122.569 804.676 470.774
2025 0 67.1653 15.916 1069 113.025 803.717 473.133
2026 0 69.2633 13.8457 959 116.212 803.552 470.716
2027 0 72.3622 12.5065 905 119.663 804.239 470.863
2028 0 73.1193 13.225 967 119.134 803.9 469.555
2029 0 74.2183 12.4093 921 121.105 803.433 464.988
2030 0 78.1731 14.4039 1126 118.76 803.451 467.227
2031 0 81.1261 14.9397 1212 116.7 802.254 468.7
2032 0 81.1822 11.7267 952 125.607 800.975 465.667
2033 0 85.3818 13.3167 1137 122.159 800.829 461.073
2034 0 86.2579 12.8916 1112 124.112 799.973 460.165
2035 0 91.3571 12.8835 1177 123.517 799.95 457.448
2036 1 50.4307 10.212 515 123.021 799.606 477.817
2037 0 48.2449 10.8198 522 123.648 798.948 475.72
2038 0 51.291 9.41685 483 123.565 799.716 474.975
2039 0 52.2972 9.88581 517 120.528 799.89 469.091
2040 0 53.2529 10.3844 553 118.55 800.045 469.674
2041 0 56.1193 11.0657 621 117.089 798.955 468.055
2042 0 56.1356 10.4034 584 119.555 799.896 471.176
2043 0 57.1214 12.4297 710 116.108 799.869 470.818
2044 0 60.2138 12.7213 766 115.034 799.332 469.739
2045 0 60.1075 10.1984 613 119.917 799.852 468.129
2046 0 63.1177 12.9441 817 113.837 800.576 464.459
2047 0 68.1443 12.7377 868 113.384 800.614 463.8
2048 0 68.1487 12.5021 852 114.049 801.663 463.942
2049 0 72.12 13.1864 951 112.609 801.287 461.976
2050 0 73.2418 12.4792 914 115.065 801.479 454.856
2051 0 76.1937 13.6232 1038 113.196 802.099 453.99
2052 0 79.26 15.9475 1264 109.976 803.828 452.874
2053 0 82.2504 13.313 1095 113.489 803.86 453.533
2054 0 83.1599 12.1212 1008 116.761 804.94 449.832
2055 0 86.1283 10.7746 928 117.453 804.111 451.532
2056 0 88.4184 12.8819 1139 114.247 805.34 449.518
2057 0 90.2068 14.3116 1291 112.864 805.514 449.048
2058 0 94.1893 17.6029 1658 106.85 805.883 449.973
2059 0 98.3016 11.7699 1157 115.69 807.807 447.48
2060 0 99.2007 10.6652 1058 117.888 807.711 444.803
2061 1 55.1182 10.16 560 113.073 808.1 465.711
2062 0 54.183 10.5753 573 110.532 807.953 464.223
2063 0 60.4029 8.87374 536 112.16 807.91 466.112
2064 0 59.3014 9.88172 586 110.877 806.109 464.589
2065 0 59.0918 11.4737 678 110.581 807.836 469.959
2066 0 62.1399 11.5063 715 113.124 805.705 476.389
2067 0 67.2846 9.89826 666 115.602 806.917 468.722
2068 0 69.1565 11.8138 817 114.131 805.941 467.497
2069 0 69.3855 10.5209 730 116.442 806.451 465.395
2070 0 75.2551 11.5474 869 113.212 805.576 467.643
2071 0 78.3837 12.2219 958 112.058 804.706 467.578
2072 0 81.2656 13.5974 1105 109.896 804.925 467.486
2073 0 80.1917 11.9339 957 114.932 803.633 459.748
2074 0 80.1535 9.70638 778 118.694 802.436 459.501
2075 0 88.2038 13.5708 1197 111.536 801.393 456.142
2076 0 90.2862 12.6376 1141 114.065 800.777 452.893
2077 0 93.4747 12.6558 1183 112.225 800.888 462.258
2078 0 97.3236 18.2381 1775 105.529 800.296 452.839
2079 0 97.352 18.428 1794 104.366 800.291 452.692
2080 0 101.189 13.9936 1416 112.681 798.592 453.751
2081 0 104.152 11.1375 1160 117.657 798.298 451.551
2082 0 106.298 11.7783 1252 117.221 798.278 454.191
2083 0 107.259 9.87328 1059 120.707 798.752 450.409
2084 0 112.285 12.3169 1383 117.997 799.295 440.174
2085 0 112.642 11.2302 1265 119.8 799.336 436.741
2086 1 65.4681 11.013 721 113.315 799.142 462.322
2087 0 71.4065 14.0884 1006 106.754 799.776 461.772
2088 0 72.5976 12.8103 930 108.257 799.478 461.452
2089 0 72.5976 12.769 927 120.353 799.462 461.28
2090 0 73.1775 8.47255 620 113.915 801.297 457.742
2091 0 80.2595 14.0295 1126 105.787 800.933 456.518
2092 0 79.5937 12.7397 1014 109.306 802.234 451.328
2093 0 82.1809 12.9714 1066 107.816 802.349 454.146
2094 0 83.2066 11.826 984 111.561 803.285 448.714
2095 0 85.1233 11.4775 977 113.025 802.948 445.686
2096 0 90.2354 11.7692 1062 111.161 804.17 445.532
2097 0 91.3011 9.1127 832 116.042 804.258 444.916
2098 0 93.1669 11.4096 1063 112.599 804.58 447.515
2099 0 95.3 12.8646 1226 110.947 803.086 444.76
2100 0 100.544 13.606 1368 109.031 804.2 445.696
2101 0 102.526 11.1875 1147 112.112 804.214 443.242
2102 0 108.696 11.6103 1262 113.06 805.956 437.899
2103 0 110.412 13.1508 1452 111.481 805.826 435.241
2104 0 111.463 11.6541 1299 113.37 804.908 433.819
2105 1 63.1449 11.3865 719 107.273 804.63 464.887
2106 0 65.3998 11.6667 763 105.568 805.446 460.207
2107 0 67.1196 12.0084 806 103.702 805.805 459.032
2108 0 64.1737 6.03051 387 112.323 806.01 458.413
2109 0 67.2186 14.1925 954 101.194 805.107 458.906
2110 0 68.5083 10.2615 703 106.686 804.952 458.491
2111 0 74.3093 11.1561 829 104.478 804.212 461.035
2112 0 74.1309 12.2486 908 104.041 804.356 458.409
2113 0 75.2294 10.6873 804 105.989 803.955 459.158
2114 0 76.2994 15.1771 1158 101.753 803.688 454.072
2115 0 79.2456 10.1078 801 107.511 802.396 452.815
2116 0 80.1164 8.33786 668 111.246 802.198 455.593
2117 1 96.2423 13.9648 1344 106.112 801.078 460.711
2118 0 95.2938 15.0902 1438 105.663 799.94 456.157
2119 0 100.388 12.7505 1280 109.068 800.224 450.279
2120 0 103.28 17.3702 1794 101.696 799.635 456.011
2121 0 100.364 13.3713 1342 110.002 799.078 447.317
2122 0 106.272 16.1378 1715 105.788 798.153 447.966
2123 0 111.405 13.249 1476 109.478 798.084 447.038
2124 0 115.311 14.8468 1712 107.4 798.693 439.137
2125 0 110.393 11.5859 1279 111.801 798.5 438.476
2126 1 66.2002 10.2568 679 102.798 798.433 461.988
2127 0 61.0927 13.5368 827 100.954 799.278 461.619
2128 0 68.2227 13.7051 935 98.3337 798.656 458.844
2129 0 69.1723 13.7483 951 98.0252 799.21 461.052
2130 0 69.2372 11.3956 789 102.264 798.008 452.352
2131 0 74.1385 14.0143 1039 98.0481 798.379 455.209
2132 0 79.3382 11.2934 896 101.335 799.387 454.969
2133 0 76.2669 15.1704 1157 98.1409 800.156 453.073
2134 0 79.2854 10.0775 799 104.399 800.114 448.745
2135 0 80.1748 11.0508 886 101.828 800.428 453.184
2136 0 84.1372 12.8837 1084 101.148 801.218 444.192
2137 0 88.1819 20.2196 1783 92.8435 801.916 442.716
2138 0 88.2784 9.31145 822 106.077 802.202 446.366
2139 0 88.279 9.25475 817 136.949 802.219 446.421
2140 0 96.286 10.6973 1030 105.71 803.166 440.116
2141 0 97.2469 12.9361 1258 103.454 804.537 438.647
2142 0 102.183 9.58089 979 108.046 804.617 436.662
2143 0 107.425 13.1347 1411 102.57 805.948 436.215
2144 0 111.137 16.0343 1782 98.2727 806.162 439.834
2145 0 115.225 14.2331 1640 101.228 805.304 430.823
2146 0 115.225 14.2591 1643 127.417 804.292 430.875
2147 1 69.161 11.8275 818 99.2005 804.666 463.681
2148 0 73.0704 7.78702 569 104.112 805.114 463.728
2149 0 74.1107 11.9551 886 99.6219 805.368 456.4
2150 0 77.148 12.2362 944 98.9947 804.976 460.408
2151 0 82.1515 9.55552 785 102.724 805.371 454.907
2152 0 82.2127 11.4338 940 101.566 804.705 457.634
2153 0 85.1192 11.6542 992 101.4 804.758 461.125
2154 0 88.3757 11.9377 1055 101.562 804.905 459.003
2155 0 90.4086 15.1977 1374 97.9658 804.428 454.801
2156 0 97.7243 14.1009 1378 99.8933 803.696 455.507
2157 1 50.3152 10.9112 549 99.9964 802.102 476.211
2158 0 52.3468 9.80003 513 100.639 801.657 477.248
2159 0 53.1296 8.09342 430 105.658 800.063 471.802
2160 0 56.1161 8.33986 468 105.759 799.726 473.739
2161 0 57.1488 10.2889 588 99.3758 799.458 474.65
2162 0 58.2161 9.7224 566 101.171 798.947 471.451
2163 0 59.1866 11.2188 664 99.1175 799.535 471.071
2164 0 61.0572 9.25362 565 107.522 797.389 476.26
2165 0 63.137 11.578 731 108.398 797.194 472.62
2166 0 60.0846 9.45334 568 112.306 796.537 473.588
2167 0 69.3334 13.5 936 105.221 797.3 469.697
2168 0 72.0837 12.7352 918 106.28 796.343 467.093
2169 0 74.139 15.2821 1133 102.747 797.023 465.848
2170 0 77.0989 14.6824 1132 104.142 796.626 461.377
2171 0 77.1462 9.79957 756 111.491 796.61 462.979
2172 0 81.2205 12.0536 979 108.359 796.514 458.964
2173 0 82.1136 12.3609 1015 107.473 796.264 461.562
2174 0 82.1136 12.3609 1015 140.057 795.289 461.481
2175 0 90.5681 14.7513 1336 102.65 797.879 460.893
2176 0 86.1046 11.7764 1014 110.414 798.499 453.355
2177 0 84.2048 7.89741 665 114.462 798.956 459.714
2178 0 93.2697 16.3826 1528 103.369 799.139 453.753
2179 0 95.2237 13.7886 1313 107.733 801.145 451.313
2180 0 99.1091 14.9835 1485 106.059 801.358 449.197
2181 0 99.2185 16.4485 1632 104.942 801.279 442.841
2182 0 103.25 14.3631 1483 108.085 802.383 442.057
2183 0 107.421 13.4052 1440 109.282 802.694 441.401
2184 0 106.369 13.1805 1402 109.698 803.585 444.237
2185 0 113.683 14.4964 1648 107.555 804.2 442.258
2186 0 109.726 13.798 1514 137.686 805.088 439.758
2187 0 115.25 10.0998 1164 115.838 804.913 428.073
2188 0 123.387 14.6369 1806 108.534 806.032 430.908
2189 0 128.371 14.9177 1915 107.761 806.624 437.333
2190 0 128.371 14.9956 1925 131.312 806.64 437.306
2191 1 73.2244 14.1756 1038 103.617 806.752 465.445
2192 0 70.3297 9.46969 666 109.647 806.776 455.159
2193 0 73.2259 9.90087 725 108.764 807.488 458.695
2194 0 79.1133 9.63176 762 107.808 808.332 462.316
2195 0 84.2593 9.32835 786 107.655 807.267 465.917
2196 0 84.082 11.2747 948 107.484 805.976 462.13
2197 0 88.0817 14.0438 1237 103.286 805.356 464.998
2198 0 89.2672 10.519 939 108.509 805.804 466.523
2199 0 96.2621 10.4818 1009 108.201 804.548 462.942
2200 0 95.1808 13.0909 1246 105.489 803.788 462.874
2201 0 102.127 12.3376 1260 106.782 801.777 458.89
2202 0 105.165 11.2205 1180 109.112 802.389 456.209
2203 0 108.287 10.7307 1162 109.491 801.96 457.12
2204 0 111.063 13.6409 1515 106.397 801.534 451.846
2205 0 113.457 10.9645 1244 106.691 800.483 459.545
2206 0 117.358 14.4174 1692 104.815 800.391 451.294
2207 1 70.1532 15.6515 1098 98.9554 799.235 474.027
2208 0 70.1335 11.4924 806 105.638 800.332 470.309
2209 0 72.1377 15.1377 1092 100.083 799.448 470.797
2210 0 76.2833 12.6895 968 103.908 798.898 464.157
2211 0 79.1955 12.7659 1011 103.648 799.414 462.354
2212 0 79.2504 14.1829 1124 101.866 799.509 457.8
2213 0 81.2337 14.3044 1162 102 800.058 458.309
2214 0 83.3158 11.9785 998 104.664 799.155 459.928
2215 0 85.3139 12.0848 1031 105.757 800.812 452.967
2216 0 87.1618 13.5725 1183 102.916 799.159 456.99
2217 0 90.2522 11.1244 1004 105.758 800.583 456.459
2218 0 91.192 12.6546 1154 104.725 800.669 449.085
2219 0 100.252 10.7529 1078 104.954 802.21 456.198
2220 0 96.1386 13.3973 1288 104.475 801.866 451.643
2221 0 99.3332 13.5302 1344 105.282 802.539 443.424
2222 0 99.2719 9.09623 903 111.32 803.544 440.906
2223 0 106.541 13.3563 1423 104.219 803.568 443.226
2224 0 109.342 13.7093 1499 104.167 803.971 439.251
2225 0 109.342 13.6453 1492 117.385 804.978 439.131
2226 0 118.323 14.8661 1759 100.748 804.75 442.101
2227 1 64.2716 15.6212 1004 96.8337 804.941 464.235
2228 0 66.318 9.22826 612 103.959 806.062 456.774
2229 0 70.1325 11.5781 812 101.783 805.668 462.788
2230 0 72.4087 13.2581 960 98.1094 807.453 459.042
2231 0 76.1651 10.254 781 101.151 807.726 463
2232 0 74.1864 6.01189 446 107.984 807.155 459.155
2233 0 77.2684 15.2067 1175 96.1736 807.732 457.609
2234 0 82.2622 10.3814 854 101.2 808.351 462.259
2235 0 82.2582 10.6372 875 102.21 806.803 456.281
2236 0 90.4072 12.2888 1111 98.7687 806.663 453.16
2237 0 90.1527 12.024 1084 100.254 805.257 458.569
2238 0 92.2366 8.72756 805 105.169 806.678 460.868
2239 0 94.1847 13.7814 1298 100.029 806.23 460.018
2240 0 101.241 12.7813 1294 102.221 805.8 456.699
2241 0 97.2225 9.18511 893 106.029 804.635 464.184
2242 0 104.093 13.1325 1367 101.565 804.639 455.912
2243 0 109.331 13.8296 1512 100.276 802.642 455.401
2244 0 112.23 8.34892 937 108.582 803.296 456.122
2245 1 63.1752 9.48157 599 104.963 802.442 476.684
2246 0 63.1752 9.33911 590 115.68 801.466 476.686
2247 0 67.1412 10.3662 696 104.057 798.522 469.728
2248 0 69.1484 13.2758 918 101.337 798.324 466.382
2249 0 74.1344 16.4971 1223 96.8283 798.052 464.618
2250 0 73.1812 12.9405 947 102.143 797.886 463.671
2251 0 78.4104 13.8247 1084 100.05 797.205 465.351
2252 0 77.1761 8.7851 678 108.208 797.08 464.093
2253 0 80.2558 14.9148 1197 100.256 797.268 457.904
2254 0 83.1535 12.1823 1013 103.764 796.771 463.036
2255 0 83.1535 12.0861 1005 126.721 796.795 463.119
2256 0 88.134 15.5332 1369 100.833 796.986 452.888
2257 0 90.1873 13.3167 1201 104.744 797.526 452.167
2258 0 90.1873 13.3056 1200 130.832 798.554 451.958
2259 0 92.2122 18.9021 1743 98.9684 797.25 452.534
2260 0 95.1354 14.2849 1359 106.774 798.559 444.567
2261 0 97.2384 15.5494 1512 105.835 798.502 445.401
2262 0 99.1652 11.3951 1130 112.921 799.595 441.209
2263 0 102.221 13.4415 1374 110.059 799.584 440.243
2264 0 106.301 16.8578 1792 104.167 799.739 442.876
2265 0 108.231 16.8344 1822 104.355 801.109 442.521
2266 0 111.386 13.3589 1488 111.3 801.384 436.659
2267 0 113.389 12.9289 1466 112.359 803.122 436.911
2268 0 115.197 11.6497 1342 112.886 802.39 441.434
2269 0 120.418 12.7472 1535 113.044 802.814 438.212
2270 0 127.414 14.1586 1804 109.784 803.082 435.719
2271 1 68.1305 12.1238 826 110.684 802.775 461.207
2272 0 69.2391 12.9984 900 110.497 803.119 457.447
2273 0 71.1446 13.1422 935 111.205 804.173 458.544
2274 0 77.1547 15.942 1230 105.997 805.348 460.737
2275 0 78.1403 11.7481 918 113.359 804.81 457.744
2276 0 80.3279 16.2584 1306 106.931 804.98 457.162
2277 0 83.1551 13.4929 1122 112.294 805.094 454.24
2278 0 87.3134 13.8009 1205 111.995 804.379 455.341
2279 0 90.178 12.553 1132 114.282 805.183 453.205
2280 0 93.1484 14.9009 1388 111.293 803.969 452.698
2281 0 96.3002 14.0706 1355 111.616 803.897 460.248
2282 0 99.298 14.4817 1438 112.899 802.406 456.314
2283 0 100.17 16.1127 1614 111.377 802.662 452.849
2284 0 105.169 15.632 1644 112.15 802.458 450.705
2285 0 109.239 15.3333 1675 114.052 801.327 448.949
2286 0 112.333 15.2938 1718 113.853 801.129 439.899
2287 0 112.333 15.2048 1708 131.706 802.149 439.915
2288 1 70.1968 9.70129 681 118.019 799.891 464.417
2289 0 72.2181 8.57126 619 119.149 800.659 463.64
2290 0 71.1003 9.98589 710 116.134 798.508 462.765
2291 0 71.0772 10.8896 774 112.791 799.899 461.398
2292 0 75.2235 11.3661 855 112.221 798.972 457.134
2293 0 78.1518 11.7336 917 108.17 799.764 460.67
2294 0 79.2656 11.1902 887 110.306 798.315 455.369
2295 0 79.2656 11.1398 883 124.79 796.305 455.448
2296 0 83.327 10.9568 913 111.376 798.492 452.508
2297 0 88.2844 12.018 1061 111.041 799.151 445.39
2298 0 88.2658 11.1142 981 114.313 798.803 446.54
2299 0 91.0924 12.921 1177 111.807 799.054 445.438
2300 0 97.1549 11.3942 1107 113.397 799.556 444.199
2301 0 99.3243 10.9842 1091 114.702 800.278 441.078
2302 0 100.173 12.9276 1295 115.868 801.115 435.883
2303 0 101.456 13.395 1359 114.673 801.661 431.397
2304 0 108.113 15.9555 1725 109.637 801.22 435.901
2305 0 109.087 17.3531 1893 108.776 801.819 426.326
2306 0 112.311 14.9317 1677 111.831 801.871 430.218
2307 0 113.662 13.5666 1542 114.743 801.734 431.755
2308 0 122.293 15.3892 1882 110.71 801.843 429.808
2309 0 122.2 15.4746 1891 112.287 803.294 421.34
2310 0 129.409 14.5353 1881 113.499 803.744 419.028
2311 0 130.411 13.0203 1698 114.984 803.554 426.579
2312 0 137.335 15.1601 2082 112.646 805.036 414.224
2313 1 76.1679 11.921 908 112.165 804.145 450.14
2314 0 79.1606 14.5906 1155 102.44 804.808 447.933
2315 0 81.2341 13.2334 1075 105.953 804.803 449.976
2316 0 85.1918 13.0881 1115 112.546 803.731 449.107
2317 0 89.0805 10.6757 951 116.718 804.842 452.302
2318 0 92.1854 11.8674 1094 115.286 804.867 449.457
2319 0 100.304 16.6394 1669 107.478 805.293 449.049
2320 0 100.28 16.4041 1645 108.79 805.106 451.083
2321 0 100.173 14.5049 1453 112.308 804.724 448.508
2322 0 106.225 13.5185 1436 114.928 804.221 444.712
2323 0 108.183 14.1243 1528 114.315 803.719 446.195
2324 0 113.175 16.0813 1820 112.188 803.431 441.245
2325 0 117.286 13.4884 1582 116.824 803.04 447.641
2326 0 120.302 13.8401 1665 117.071 803.39 446.398
2327 0 125.265 13.6431 1709 116.515 802.434 445.551
2328 0 132.252 15.2133 2012 115.334 800.98 440.275
2329 1 75.1414 11.8177 888 114.91 800.635 467.001
2330 0 72.1179 12.119 874 114.074 800.89 462.713
2331 0 74.2076 11.077 822 115.456 800.355 455.899
2332 0 78.2854 11.7391 919 107.332 799.566 463.708
2333 0 82.126 16.2312 1333 101.532 799.62 460.248
2334 0 85.3836 12.4848 1066 107.204 799.129 453.314
2335 0 87.3778 13.1384 1148 106.527 797.446 452.159
2336 0 92.3122 15.3176 1414 102.788 798.018 454.205
2337 0 95.3018 14.4908 1381 104.387 798.317 451.577
2338 0 94.4286 14.7625 1394 105.609 798.034 445.178
2339 0 99.267 15.0302 1492 105.28 797.52 442.456
2340 0 100.274 12.4958 1253 109.055 798.638 439.786
2341 0 101.388 12.2697 1244 109.848 797.88 435.434
2342 0 107.48 12.7187 1367 108.87 798.822 438.014
2343 0 107.182 11.5038 1233 110.432 798.771 436.286
2344 0 112.374 12.049 1354 109.226 798.855 433.905
2345 0 115.307 17.7179 2043 102.031 800.052 428.838
2346 0 121.409 16.8603 2047 101.831 799.961 433.154
2347 0 120.48 12.8071 1543 108.469 800.714 421.357
2348 0 125.468 13.1667 1652 108.858 800.187 419.422
2349 1 73.0953 7.15504 523 114.342 800.696 449.029
2350 0 73.0953 7.22344 528 146.39 802.693 449.142
2351 0 79.2285 14.0353 1112 101.231 803.433 450.613
2352 0 82.1347 12.6621 1040 103.092 803.43 447.167
2353 0 78.1447 11.082 866 105.906 804.667 445.836
2354 0 84.2763 12.459 1050 104.791 805.046 443.231
2355 0 88.1702 11.3757 1003 105.215 805.964 442.83
2356 0 93.2389 10.2854 959 106.459 805.625 442.045
2357 0 95.3109 15.4547 1473 100.573 806.141 443.359
2358 0 92.1517 9.80992 904 109.666 805.59 439.437
2359 0 99.2749 10.6875 1061 106.565 806.916 443.034
2360 0 106.311 16.3953 1743 99.9243 806.465 441.221
2361 0 108.38 12.327 1336 105.884 805.332 436.006
2362 0 107.274 8.82785 947 109.309 804.866 443.223
2363 0 117.351 12.6458 1484 104.195 805.859 440.964
2364 0 122.183 13.0705 1597 106.725 804.533 443.775
2365 0 124.371 11.924 1483 107.76 804.354 440.204
2366 1 223.482 9.39226 2099 117.872 804.853 389.159
2367 0 225.588 7.93481 1790 113.277 804.41 420.351
2368 1 78.1994 11.0743 866 105.338 802.43 466.654
2369 0 82.1323 13.1982 1084 104.405 802.409 462.005
2370 0 87.3589 13.5075 1180 103.936 800.689 468.26
2371 0 86.4443 12.3895 1071 106.58 799.522 462.124
2372 0 92.5572 12.5436 1161 105.129 799.174 460.197
2373 0 98.3049 15.3095 1505 101.302 798.217 465.023
2374 0 97.3858 14.9816 1459 103.361 798.897 456.554
2375 0 101.488 20.8792 2119 95.9693 797.525 454.205
2376 0 105.234 14.0734 1481 104.181 797.633 447.698
2377 0 105.49 16.4376 1734 101.818 797.341 450.063
2378 0 108.395 12.1223 1314 108.235 797.266 450.052
2379 0 112.476 13.9585 1570 105.831 797.423 445.924
2380 0 114.46 15.6211 1788 104.185 797.594 447.663
2381 0 121.421 15.3763 1867 103.31 797.206 448.458
2382 0 121.371 14.0396 1704 107.003 796.364 439.511
2383 0 122.371 15.7226 1924 103.024 797.885 431.438
2384 0 129.434 15.2742 1977 103.438 798.071 432.188
2385 0 134.746 14.1526 1907 105.384 798.444 423.068
2386 1 72.5468 10.1314 735 106.446 798.95 453.091
2387 0 75.4253 10.0099 755 105.856 797.751 457.603
2388 0 78.318 11.249 881 105.314 797.939 460.396
2389 0 81.1821 13.4882 1095 103.471 797.384 453.129
2390 0 84.3599 10.7041 903 106.791 797.58 453.121
2391 0 85.2976 14.1856 1210 102.663 798.215 452.239
2392 0 91.4543 16.1392 1476 100.342 799.652 452.178
2393 0 93.3424 18.6946 1745 98.004 799.326 447.864
2394 0 95.3028 11.8884 1133 107.522 801.019 448.388
2395 0 99.3343 13.9126 1382 105.01 800.967 446.836
2396 0 104.074 17.4299 1814 101.442 802.065 439.944
2397 0 105.374 14.216 1498 108.047 802.11 442.446
2398 0 108.357 14.8214 1606 109.611 803.599 444.298
2399 0 109.202 11.8771 1297 114.435 804.237 447.823
2400 0 114.522 13.3861 1533 112.51 804.834 442.875
2401 1 61.6286 7.82104 482 114.189 804.469 467.635
2402 0 64.3904 11.6943 753 109.082 804.272 464.997
2403 0 70.3188 12.8131 901 107.176 803.996 468.706
2404 0 71.3897 14.8761 1062 104.188 802.659 470.929
2405 0 72.3617 11.0832 802 111.887 802.485 466.005
2406 0 78.3831 11.4183 895 109.504 801.447 469.31
2407 0 80.4622 12.8135 1031 107.942 802.347 466.46
2408 0 84.2897 11.4723 967 108.796 802.825 470.547
2409 0 86.3653 14.9481 1291 104.978 801.917 465.63
2410 0 88.3787 13.5214 1195 107.277 800.945 459.76
2411 0 92.5362 12.9787 1201 108.013 799.559 463.462
2412 0 96.2675 14.4389 1390 105.927 799.658 459.512
2413 0 101.512 18.7367 1902 99.9569 798.323 454.366
2414 0 103.425 11.1386 1152 111.269 797.949 451.898
2415 1 61.1411 7.86704 481 110.771 796.898 481.208
2416 0 62.121 13.7635 855 102.274 799.491 477.77
2417 0 66.1802 11.8162 782 103.799 798.363 477.728
2418 0 64.2473 10.5063 675 108.597 797.704 474.578
2419 0 69.2616 14.3514 994 100.872 798.11 472.421
2420 0 68.2236 10.0991 689 104.103 797.286 468.48
2421 0 72.3847 15.0722 1091 98.165 798.314 469.446
2422 0 73.1752 10.3587 758 106.148 797.488 463.557
2423 0 76.1889 12.2984 937 104.715 797.79 463.498
2424 0 82.112 10.437 857 106.333 797.531 462.784
2425 0 81.1104 15.2138 1234 100.922 797.775 460.885
2426 0 83.2139 12.0893 1006 106.652 797.718 457.874
2427 0 86.2383 14.2396 1228 104.248 798.992 457.12
2428 0 89.2402 13.8503 1236 105.104 798.985 454.396
2429 0 92.4786 13.5599 1254 105.49 799.555 453.893
2430 0 94.4299 14.0104 1323 105.217 799.98 449.785
2431 0 96.3362 14.958 1441 104.808 800.402 451.545
2432 0 99.4542 14.2679 1419 107.724 801.105 446.631
2433 0 101.153 11.7149 1185 112.843 801.867 439.625
2434 0 106.19 12.1292 1288 113.768 803.536 446.904
2435 0 106.192 15.5756 1654 110.447 804.132 439.839
2436 0 108.314 12.4176 1345 115.098 803.268 445.899
2437 0 108.314 12.3068 1333 142.302 802.258 445.993
2438 1 69.1997 12.4278 860 108.435 804.509 462.03
2439 0 72.2506 11.7369 848 110.756 805.158 462.406
2440 0 69.1733 10.7122 741 111.856 804.046 459.885
2441 0 77.1331 14.4296 1113 105.701 805.08 460.04
2442 0 77.1463 11.1217 858 113.082 804.121 459.365
2443 0 81.1962 13.0055 1056 109.721 805.312 462.437
2444 0 84.2085 10.3077 868 114.961 803.976 463.576
2445 0 88.2912 14.271 1260 109.938 805.169 462.078
2446 0 88.3166 14.3688 1269 124.622 807.159 462.047
2447 0 89.1278 11.8257 1054 115.56 804.169 463.206
2448 0 96.118 13.7643 1323 113.978 803.882 459.54
2449 0 98.1696 11.4394 1123 118.256 803.917 460.441
2450 0 103.144 14.2326 1468 114.36 802.143 456.234
2451 0 106.245 13.5347 1438 115.643 802.948 458.092
2452 0 109.226 14.7126 1607 116.269 801.111 453.997
2453 0 112.18 11.2319 1260 121.9 800.818 454.91
2454 0 119.283 14.9644 1785 114.843 800.412 452.484
2455 0 123.307 14.2084 1752 117.649 799.321 444.954
2456 0 126.361 15.6377 1976 115.534 799.006 441.597
2457 0 129.591 14.6692 1901 116.4 798.481 446.191
2458 1 70.0847 10.416 730 117.31 799.014 476.026
2459 0 74.122 11.8184 876 111.049 797.444 473.671
2460 0 75.1162 13.4325 1009 108.884 797.455 464.469
2461 0 77.0999 11.1025 856 110.922 797.486 468.3
2462 0 78.4012 10.2167 801 112.738 797.01 465.431
2463 0 83.2262 14.6949 1223 107.465 797.73 461
2464 0 86.148 13.117 1130 110.475 795.376 461.662
2465 0 86.2459 14.1688 1222 109.619 796.786 453.872
2466 0 88.3558 14.5887 1289 109.455 796.545 454.469
2467 0 89.305 12.183 1088 114.634 796.653 452.106
2468 0 94.3463 11.9348 1126 116.272 796.87 451.561
2469 0 96.4064 14.8642 1433 111.984 797.221 449.994
2470 0 99.3477 14.3738 1428 114.392 798.118 445.216
2471 0 102.195 14.2277 1454 114.77 798.552 446.646
2472 0 102.304 13.5478 1386 116.286 799.403 440.3
2473 0 107.327 14.973 1607 113.222 800.215 443.062
2474 0 110.373 14.2516 1573 116.531 799.251 445.621
2475 0 112.393 11.8513 1332 119.54 800.659 439.459
2476 0 115.193 13.1258 1512 118.505 802.141 441.226
2477 0 120.439 14.6464 1764 116.22 802.104 439.032
2478 0 124.283 14.0968 1752 119.682 803.973 436.15
2479 1 71.442 11.6878 835 118.996 802.305 459.772
2480 0 75.1829 11.5319 867 120.732 804.093 459.166
2481 0 80.2456 14.493 1163 115.789 803.668 461.75
2482 0 80.2456 14.5802 1170 130.064 803.688 461.833
2483 0 84.1595 13.8309 1164 120.127 802.997 459.809
2484 0 91.2878 18.3595 1676 109.885 804.183 463.044
2485 0 92.2311 13.3577 1232 118.765 802.352 461.939
2486 0 94.2457 13.6876 1290 116.191 802.673 462.608
2487 0 97.219 13.4233 1305 117.559 802.973 457.302
2488 0 101.256 12.5721 1273 118.335 802.595 459.512
2489 0 101.318 12.4657 1263 119.118 803.397 458.539
2490 0 108.191 14.7239 1593 116.013 803.264 457.255
2491 0 111.206 12.6882 1411 119.317 803.648 456.48
2492 0 114.234 14.3478 1639 117.412 803.032 451.174
2493 0 120.308 14.0057 1685 118.054 802.028 451.08
2494 1 64.2256 6.1502 395 123.316 801.549 484.724
2495 0 64.2737 6.1456 395 150.544 801.58 484.638
2496 0 73.1415 9.8576 721 119.92 799.7 478.204
2497 0 73.2554 12.4086 909 116.397 797.821 480.358
2498 0 82.3134 16.2428 1337 110.63 798.925 475.081
2499 0 79.239 13.2132 1047 116.267 798.147 471.88
2500 0 82.0915 15.5924 1280 112.224 798.037 469.138
2501 0 84.2944 14.568 1228 115.696 797.52 463.136
2502 0 86.2929 13.6628 1179 118.791 797.618 459.376
2503 0 94.1722 17.0539 1606 110.538 797.174 462.098
2504 0 93.3443 17.6122 1644 113.001 797.457 444.352
2505 0 96.3876 16.5996 1600 114.795 797.028 444.284
2506 0 98.2597 16.8431 1655 116.214 797.538 439.857
2507 0 101.389 14.6959 1490 121.142 798.263 438.261
2508 0 105.273 13.8972 1463 122.939 797.534 421.66
2509 0 107.228 16.9451 1817 119.143 799.105 419.63
2510 0 109.267 15.2928 1671 125.078 799.862 417.578
2511 0 115.199 16.1373 1859 122.29 800.391 420.906
2512 0 116.117 15.183 1763 126.153 800.129 416.246
2513 0 118.163 15.6055 1844 126.187 800.862 414.673
2514 0 121.32 17.4497 2117 120.514 800.791 421.491
2515 0 127.171 14.2092 1807 128.349 801.981 417.999
2516 0 129.365 16.1713 2092 125.308 802.617 417.308
2517 1 72.2603 14.4478 1044 121.894 803.081 452.103
2518 0 72.1033 14.4238 1040 127.93 803.118 424.612
2519 0 76.1698 16.3844 1248 124.093 803.107 427.778
2520 0 80.0883 19.1788 1536 119.368 802.602 427.732
2521 0 81.1842 14.8551 1206 128.336 802.513 433.091
2522 0 82.0972 13.5449 1112 131.256 803.147 437.755
2523 0 85.12 13.0052 1107 132.54 802.911 436.168
2524 0 90.1994 15.9314 1437 126.381 803.784 443.285
2525 0 94.1374 17.0602 1606 123.158 802.734 444.06
2526 0 94.1372 16.9965 1600 144.266 801.726 443.874
2527 0 102.146 14.822 1514 127.027 802.688 447.16
2528 0 103.265 13.3346 1377 130.793 803.272 449.413
2529 0 105.264 15.7129 1654 123.736 802.584 456.882
2530 0 113.317 16.2818 1845 122.698 801.577 458.131
2531 0 118.143 15.5828 1841 122.393 802.414 453.624
2532 0 121.366 17.3524 2106 120.781 801.468 451.826
2533 0 121.366 17.4678 2120 129.827 800.435 451.697
2534 1 69.3645 16.4205 1139 120.918 800.312 472.871
2535 0 71.1062 12.7556 907 125.971 799.897 462.171
2536 0 76.1576 14.8508 1131 120.436 799.692 463.289
2537 0 75.2228 15.7798 1187 120.288 798.74 460.003
2538 0 78.2063 12.8378 1004 124.369 798.82 465.899
2539 0 83.202 17.2592 1436 115.743 798.359 463.488
2540 0 85.2688 16.1255 1375 117.882 797.756 463.588
2541 0 87.1229 15.4609 1347 119.399 797.133 462.365
2542 0 89.3204 16.2785 1454 118.019 796.847 458.419
2543 0 92.1334 15.8032 1456 118.925 796.644 456.574
2544 0 92.1334 15.8357 1459 135.901 797.625 456.374
2545 0 98.433 19.465 1916 112.88 797.586 452.29
2546 0 101.274 14.0313 1421 121.016 796.135 452.611
2547 0 106.211 17.7007 1880 115.238 797.22 448.682
2548 0 106.269 15.3196 1628 119.446 796.426 443.423
2549 0 112.397 16.3972 1843 118.018 796.394 441.359
2550 0 116.382 14.4008 1676 119.984 796.973 446.917
2551 0 119.646 14.568 1743 121 797.216 439.522
2552 1 68.1764 11.8663 809 125.129 798.366 465.257
2553 0 71.1395 15.5469 1106 116.902 797.288 462.351
2554 0 73.1229 15.9868 1169 116.516 800.182 457.115
2555 0 75.128 14.7615 1109 118.382 798.944 457.53
2556 0 82.186 16.1706 1329 114.813 800.181 458.559
2557 0 84.4733 20.6929 1748 107.568 800.47 453.542
2558 0 85.2014 15.6453 1333 117.088 802.299 456.614
2559 0 88.409 15.1795 1342 117.837 801.815 452.848
2560 0 91.1542 14.3383 1307 118.738 803.278 455.693
2561 0 97.4068 14.1777 1381 119.854 802.778 449.8
2562 0 100.153 16.9939 1702 114.797 803.479 450.2
2563 1 53.0875 14.8058 786 119.519 804.331 472.943
2564 0 54.3632 14.2008 772 122.619 803.922 473.561
2565 0 57.085 15.0653 860 122.95 804.631 470.862
2566 0 61.2157 14.3754 880 122.403 803.54 471.515
2567 0 58.2062 12.7306 741 126.209 803.165 472.447
2568 0 67.2145 15.1604 1019 121.005 802.912 470.864
2569 0 66.1779 17.9667 1189 119.01 803.355 466.823
2570 0 71.0602 15.9864 1136 121.959 802.662 467.198
2571 0 73.2904 15.268 1119 123.693 803.195 469.423
2572 0 75.1698 15.8308 1190 123.019 802.829 470.266
2573 0 79.248 21.8428 1731 112.787 802.462 472.178
2574 0 84.3697 14.235 1201 125.307 801.467 466.553
2575 0 86.2603 16.1372 1392 122.73 800.66 463.899
2576 0 90.3028 15.2708 1379 124.045 799.133 461.55
2577 0 91.4288 18.2109 1665 119.841 799.865 461.745
2578 0 93.3711 13.6766 1277 127.034 798.236 460.381
2579 0 97.206 16.9743 1650 120.838 797.648 460.527
2580 0 104.27 18.7974 1960 117.509 797.97 452.45
2581 0 105.219 15.9097 1674 122.378 796.808 452.33
2582 1 56.1039 13.2789 745 125.623 796.486 474.358
2583 0 60.1227 15.3686 924 120.39 796.417 472.655
2584 0 60.0485 14.9046 895 121.678 795.842 470.555
2585 0 64.1231 14.6593 940 119.122 795.987 470.202
2586 0 65.0825 13.7364 894 120.768 795.912 468.318
2587 0 70.094 22.0989 1549 105.187 795.759 468.891
2588 0 69.1307 14.1905 981 120.588 796.046 462.167
2589 0 74.1792 17.1477 1272 113.518 796.222 461.672
2590 0 78.371 16.1922 1269 114.365 796.876 459.596
2591 0 81.2345 16.9632 1378 113.192 798.086 459.592
2592 0 84.3283 17.2066 1451 112.656 797.585 458.22
2593 0 82.4003 13.5922 1120 120.038 798.694 453.345
2594 0 86.1868 17.056 1470 115.073 798.428 450.852
2595 0 90.3804 14.5717 1317 119.907 798.412 448.086
2596 0 92.2735 15.1073 1394 118.542 799.645 450.155
2597 0 97.2553 17.5929 1711 113.911 800.355 446.165
2598 0 101.379 16.2755 1650 113.504 800.125 445.298
2599 0 103.065 16.6691 1718 113.459 802.46 440.093
2600 0 108.484 14.6565 1590 115.761 802.196 440.709
2601 0 114.237 18.5578 2120 109.111 802.413 442.28
2602 0 119.243 16.4874 1966 112.817 802.363 433.644
2603 0 123.257 18.5954 2292 108.316 803.193 442.75
2604 1 66.2421 10.6277 704 122.926 803.412 459.294
2605 0 72.1445 14.6234 1055 113.898 802.834 462.247
2606 0 76.1192 13.7416 1046 112.153 802.907 462.476
2607 0 76.2021 14.0022 1067 114.591 802.772 458.877
2608 0 79.1732 15.5229 1229 113.13 802.16 459.187
2609 0 82.1037 13.7509 1129 116.066 802.709 459.435
2610 0 90.225 20.4821 1848 102.769 803.15 465.201
2611 0 89.224 13.1579 1174 115.773 801.577 457.694
2612 0 97.3988 15.6059 1520 108.831 801.68 460.332
2613 0 97.3734 14.8398 1445 113.899 802.531 455.626
2614 0 101.357 19.821 2009 106.065 801.458 451.35
2615 0 106.179 15.9541 1694 111.142 801.046 457.358
2616 0 111.192 18.9762 2110 106.997 799.487 447.138
2617 0 116.603 16.2346 1893 110.352 798.827 447.188
2618 0 122.268 19.31 2361 105.388 798.487 448.195
2619 1 68.2292 11.3001 771 113.715 798.054 471.641
2620 0 71.1062 12.5446 892 113.389 796.989 466.665
2621 0 74.3264 14.6516 1089 111.68 797.156 463.328
2622 0 78.1134 11.9186 931 114.737 795.911 458.792
2623 0 82.191 14.9286 1227 109.611 795.976 462.386
2624 0 81.1946 14.4468 1173 112.928 795.747 456.216
2625 0 82.33 12.4135 1022 116.335 795.498 452.06
2626 0 90.4568 15.0569 1362 110.421 795.872 452.335
2627 0 94.2134 19.0631 1796 103.343 795.361 457.999
2628 0 95.141 19.676 1872 104.991 795.832 448.307
2629 0 97.3327 15.1234 1472 111.129 795.875 441.512
2630 0 99.3378 13.6907 1360 114.579 796.017 443.61
2631 0 102.129 14.4915 1480 113.239 796.57 439.599
2632 0 107.205 14.0198 1503 113.059 796.633 440.88
2633 0 112.15 19.5185 2189 103.858 796.814 438.549
2634 0 114.279 16.0397 1833 111.245 797.307 434.919
2635 0 122.457 18.7413 2295 106.529 797.644 433.333
2636 0 125.544 19.4672 2444 105.878 798.221 427.709
2637 0 129.34 15.7182 2033 111.495 799.66 425.255
2638 0 133.428 13.1981 1761 116.129 800.764 419.588
2639 0 133.428 13.1981 1761 150.614 800.764 419.588
2640 0 138.198 10.4415 1443 120.662 801.613 431.522
2641 0 136.153 8.50513 1158 119.332 802.456 440.806
2642 1 98.3146 13.0906 1287 110.07 804.406 447.606
2643 0 102.468 15.0095 1538 107.795 804.598 446.042
2644 0 105.372 16.1998 1707 109.542 805.091 444.162
2645 0 105.389 13.3695 1409 112.674 803.539 443.097
2646 0 116.445 15.3205 1784 107.981 803.188 443.985
2647 0 118.365 18.6456 2207 102.89 802.053 450.646
2648 0 119.256 11.4292 1363 114.908 802.871 439.828
2649 0 124.284 15.4325 1918 109.971 803.007 438.08
2650 0 130.509 23.1478 3021 96.6266 800.859 451.856
2651 0 133.502 14.6216 1952 110.303 802.029 435.636
2652 0 143.904 19.096 2748 101.667 800.062 438.693
2653 0 147.253 24.4545 3601 98.0539 799.111 437.758
2654 1 84.2044 11.0683 932 109.028 796.442 460.464
2655 0 82.3033 11.5062 947 109.301 795.484 454.998
2656 0 88.1786 12.8376 1132 106.585 795.002 455.57
2657 0 93.1221 13.7239 1278 103.668 794.298 456.836
2658 0 98.3433 12.1818 1198 105.203 793.071 449.101
2659 0 95.2763 12.2696 1169 106.186 793.196 450.291
2660 0 94.2266 7.7685 732 111.383 792.249 447.495
2661 0 104.514 17.854 1866 99.5129 793.807 445.598
2662 0 107.171 20.444 2191 96.9959 794.182 441.72
2663 0 107.384 12.1899 1309 105.142 792.38 442.115
2664 0 104.361 12.4855 1303 102.608 792.929 447.394
2665 0 108.341 10.79 1169 96.8443 792.961 461.663
2666 0 96.2753 4.70526 453 117.508 792.563 435.472
2667 1 127.225 13.0713 1663 104.771 792.71 423.031
2668 1 59.2655 12.5199 742 92.5094 793.702 464.348
2669 0 58.1432 6.86236 399 100.341 794.687 463.757
2670 0 61.3723 17.8745 1097 88.8423 793.92 464.041
2671 0 63.3075 11.2625 713 94.4614 794.452 464.282
2672 0 61.2088 8.49552 520 98.3788 795.117 460.7
2673 0 65.2355 9.71864 634 96.9164 796.437 459.784
2674 0 63.249 13.771 871 93.6648 795.812 463.625
2675 0 68.2099 10.6876 729 99.7064 797.868 454.38
2676 0 72.2035 11.8138 853 96.9472 796.971 462.338
2677 0 72.1994 7.96406 575 103.317 797.284 456.534
2678 0 75.3345 8.99987 678 101.603 798.152 459.204
2679 0 77.1154 14.9905 1156 96.4576 799.284 456.52
2680 0 79.1555 10.3215 817 102.143 799.541 456.683
2681 0 77.1888 8.61524 665 105.496 799.239 455.614
2682 0 83.3197 11.8579 988 102.076 799.119 453.272
2683 0 84.2257 11.2911 951 107.997 799.925 457.291
2684 0 88.1055 11.1003 978 106.273 799.318 460.673
2685 0 92.1412 14.9879 1381 102.245 800.205 457.941
2686 0 93.2532 12.643 1179 105.453 799.868 461.999
2687 0 92.5457 10.8055 1000 109.064 800.148 457.896
2688 0 96.2943 10.8418 1044 109.015 800.115 460.004
2689 0 101.363 15.2028 1541 103.924 798.409 458.157
2690 0 107.409 14.7194 1581 104.016 799.498 454.282
2691 0 107.335 15.7171 1687 103.208 799.791 457.539
2692 1 280.083 14.967 4192 111.734 799.045 374.977
2693 0 289.781 18.2793 5297 106.68 798.994 374.602
2694 0 298.127 22.7956 6796 102.558 798.048 357.424
2695 0 298.059 12.3331 3676 110.374 797.856 389.251
2696 0 298.059 12.3398 3678 139.471 797.864 389.958
2697 1 73.1974 11.9266 873 99.4422 796.684 476.59
2698 0 74.2843 10.204 758 99.1069 797.243 469.073
2699 0 78.2716 13.9131 1089 92.8834 796.714 472.342
2700 0 81.422 16.1504 1315 91.2297 795.042 471.391
2701 0 83.2181 18.3013 1523 92.7085 794.666 465.659
2702 0 85.2905 15.0193 1281 85.8564 793.852 468.993
2703 0 91.7822 23.3052 2139 80.418 793.991 467.375
2704 0 90.2986 12.514 1130 88.562 793.049 460.687
2705 0 92.1276 14.4691 1333 86.2033 793.401 468.462
2706 0 97.4084 12.8223 1249 87.9672 792.985 460.543
2707 0 99.2627 15.4338 1532 86.47 793.351 460.989
2708 0 102.489 13.8649 1421 88.589 793.997 454.671
2709 0 102.254 10.0338 1026 93.3441 793.906 441.358
2710 0 104.402 9.80824 1024 92.1123 793.551 453.312
2711 0 113.347 15.307 1735 89.3856 794.167 441.224
2712 0 111.641 11.0354 1232 94.5187 794.674 443.26
2713 0 113.518 12.6764 1439 92.877 794.031 441.01
2714 0 116.523 12.0406 1403 95.1803 795.147 433.617
2715 1 134.806 4.07993 550 97.5436 794.94 459.242
2716 0 131.421 8.682 1141 97.9895 796.676 431.085
2717 0 135.734 13.3644 1814 90.425 796.139 442.044
2718 0 134.802 14.0058 1888 92.4714 797.229 426.628
2719 0 138.647 11.5329 1599 93.3821 797.114 437.577
2720 0 139.677 11.9132 1664 93.6562 798.441 428.261
2721 1 79.2903 14.3145 1135 86.5656 797.459 468.432
2722 0 82.6938 12.77 1056 90.0909 796.578 458.582
2723 0 86.3937 14.8738 1285 87.2226 798.094 463.586
2724 0 84.1519 11.1109 935 93.093 799.604 452.523
2725 0 90.3367 16.7595 1514 87.7781 799.566 457.801
2726 0 91.2593 15.6148 1425 89.8344 800.411 449.49
2727 0 93.3934 13.8232 1291 91.3703 799.775 451.621
2728 0 95.3545 11.7771 1123 93.5957 799.514 453.029
2729 0 100.461 14.6823 1475 89.7519 800.163 453.182
2730 0 105.449 18.0751 1906 87.7482 800.292 452.685
2731 0 109.518 25.3566 2777 82.641 800.569 459.972
2732 0 105.25 9.26366 975 98.0687 799.869 452.024
2733 0 113.297 24.8814 2819 83.9074 800.272 449.798
2734 0 114.443 12.2943 1407 93.3945 800.598 448.352
2735 0 123.874 14.3775 1781 90.8551 800.308 441.752
2736 0 123.416 11.9676 1477 92.8578 800.779 454.439
2737 0 127.187 13.0202 1656 93.1045 799.748 441.043
2738 0 127.187 13.0202 1656 121.324 799.768 440.805
2739 1 80.417 12.9326 1040 89.3519 799.35 470.883
2740 0 82.2961 16.3434 1345 87.6736 799.259 465.276
2741 0 85.3891 11.8399 1011 90.7221 798.249 469.801
2742 0 83.5147 11.5549 965 91.4984 797.125 468.403
2743 0 87.3883 8.6396 755 94.7748 797.881 461.238
2744 0 94.3959 9.16354 865 92.859 795.995 471.362
2745 0 96.3605 16.9883 1637 86.843 795.75 466.781
2746 0 93.1932 16.6858 1555 89.2244 795.496 456.097
2747 0 94.4572 6.19328 585 98.3744 795.472 463.947
2748 0 105.653 13.1562 1390 92.5806 794.544 452.572
2749 0 109.681 14.5513 1596 91.1742 792.859 457.335
2750 0 111.695 15.0947 1686 92.0925 794.875 445.808
2751 0 112.526 14.2723 1606 93.4738 794.174 454.014
2752 0 116.251 14.0386 1632 95.8395 795.366 442.866
2753 1 68.2533 14.0359 958 92.8476 795.564 469.933
2754 0 72.3314 17.7101 1281 96.1116 795.543 468.973
2755 0 71.4053 11.7358 838 103.2 795.944 464.154
2756 0 73.2135 14.0958 1032 100.951 796.183 465.155
2757 0 76.2514 15.2259 1161 97.3342 796.652 471.62
2758 0 78.3768 15.451 1211 99.8324 797.321 463.239
2759 0 83.5275 20.7836 1736 94.6411 798.187 454.695
2760 0 81.4504 15.445 1258 101.366 797.929 455.603
2761 0 86.3206 15.0138 1296 101.407 799.423 455.174
2762 0 86.3825 12.7456 1101 104.898 799.701 452.929
2763 0 90.5264 11.2785 1021 105.896 799.419 453.582
2764 0 91.376 13.3843 1223 103.965 799.758 453.831
2765 0 92.6387 11.9065 1103 106.327 800.403 453.375
2766 0 97.8804 13.5778 1329 105.865 801.764 449.855
2767 0 100.419 15.5848 1565 102.85 800.641 445.72
2768 0 103.52 14.5189 1503 100.663 802.242 447.067
2769 0 103.52 14.6252 1514 129.468 804.266 447.03
2770 0 109.329 19.3361 2114 97.3922 801.99 446.885
2771 0 110.338 14.3468 1583 103.326 802.071 443.804
2772 0 115.527 14.1698 1637 101.03 802.721 446.298
2773 0 117.483 13.27 1559 102.727 802.317 443.416
2774 0 124.558 13.2308 1648 102.371 802.457 443.991
2775 0 125.519 10.9306 1372 105.552 801.829 441.059
2776 0 132.553 14.4169 1911 101.25 800.721 441.78
2777 0 136.427 13.2672 1810 103.288 800.898 438.663
2778 0 140.797 13.6721 1925 101.943 801.392 438.185
2779 0 140.249 11.4867 1611 105.317 802.184 429.019
2780 1 79.2955 11.6652 925 100.862 799.285 466.265
2781 0 82.3016 11.3242 932 100.232 799.343 469.784
2782 0 86.4598 18.39 1590 94.3648 799.556 464.1
2783 0 85.4229 12.2918 1050 101.758 798.406 453.162
2784 0 92.3904 16.2246 1499 97.1201 798.003 459.788
2785 0 92.3585 9.76629 902 103.099 797.979 461.456
2786 0 97.7255 13.323 1302 100.544 797.719 456.451
2787 0 99.3526 17.5033 1739 96.931 796.217 452.081
2788 0 102.307 15.1896 1554 100.384 797.104 449.66
2789 0 106.305 15.7847 1678 99.9952 795.759 445.321
2790 0 107.434 12.0632 1296 104.37 795.489 447.902
2791 0 109.299 11.9488 1306 104.688 795.52 444.809
2792 0 117.559 21.0958 2480 93.7226 794.462 450.936
2793 0 118.605 20.7412 2460 94.2699 794.269 441.47
2794 0 125.213 13.8484 1734 101.099 795.143 439.349
2795 0 128.619 23.7757 3058 91.2054 794.673 444.609
2796 0 133.535 11.5775 1546 102.136 795.147 440.86
2797 0 134.378 18.3215 2462 97.3209 795.037 436.319
2798 0 140.539 15.042 2114 99.9007 796.371 433.677
2799 1 80.2901 12.6292 1014 98.4793 796.686 459.456
2800 0 83.7013 17.658 1478 95.113 796.536 455.206
2801 0 83.4904 14.0974 1177 100.792 796.777 454.969
2802 0 87.4282 16.4707 1440 98.0417 797.319 449.769
2803 0 89.2902 16.3624 1461 98.8658 798.446 442.858
2804 0 89.2902 16.3288 1458 132.695 798.464 442.704
2805 0 96.1729 18.6123 1790 98.0525 800.77 421.865
2806 0 100.345 16.7721 1683 98.3553 800.449 426.393
2807 0 98.1567 17.6758 1735 100.352 801.093 418.732
2808 0 102.318 14.4941 1483 103.844 801.326 412.911
2809 0 105.355 14.0098 1476 100.557 802.572 412.099
2810 0 109.323 14.2147 1554 100.631 803.391 414.454
2811 0 110.125 15.4188 1698 98.6796 803.935 420.144
2812 0 117.379 14.6875 1724 99.674 803.839 418.583
2813 0 117.279 11.6134 1362 105.035 804.758 408.701
2814 0 123.474 15.6308 1930 99.7508 804.25 409.11
2815 0 130.269 15.8211 2061 98.9952 803.873 413.022
2816 0 132.583 15.364 2037 102.216 804.896 407.578
2817 0 135.311 13.65 1847 104.792 803.7 404.522
2818 0 138.448 15.0309 2081 101.668 804.351 418.788
2819 0 142.5 14.821 2112 104.811 803.135 413.819
2820 1 85.28 17.6243 1503 93.5802 802.469 450.451
2821 0 83.5844 20.1473 1684 93.9881 801.912 445.479
2822 0 85.394 11.8392 1011 104.275 804.002 440.244
2823 0 84.3987 11.8841 1003 145.533 805.014 440.145
2824 0 94.1104 17.3838 1636 97.7573 802.147 450.959
2825 0 96.2567 15.2509 1468 100.306 802.356 450.883
2826 0 99.3141 14.8418 1474 99.808 801.351 459.03
2827 0 102.505 15.0529 1543 99.7829 800.379 457.503
2828 0 104.251 14.4171 1503 104.056 799.204 456.011
2829 0 108.216 13.852 1499 104.973 799.062 449.759
2830 0 114.264 16.4181 1876 98.492 798.119 454.442
2831 1 64.2371 11.5977 745 102.536 798.24 466.803
2832 0 68.2132 13.7657 939 99.1246 797.798 467.135
2833 0 69.1605 13.7362 950 100.392 798.1 462.834
2834 0 73.3002 12.7285 933 97.8199 796.52 463.145
2835 0 74.3236 13.0779 972 97.0031 796.304 464.71
2836 0 78.3056 15.2224 1192 96.2827 796.844 456.088
2837 0 80.4562 12.5534 1010 98.6376 796.757 451.725
2838 0 78.2701 12.3419 966 99.766 797.037 451.911
2839 0 87.3343 12.6182 1102 98.1189 797.015 448.112
2840 0 87.2127 15.1469 1321 94.3611 797.747 454.628
2841 0 88.2002 11.3832 1004 99.8396 796.586 442.644
2842 0 95.4257 12.0093 1146 98.2731 797.777 448.14
2843 0 96.2743 16.4634 1585 95.0448 798.389 436.197
2844 0 102.469 22.1238 2267 88.9669 797.878 444.703
2845 0 105.503 15.7531 1662 95.8586 798.661 435.102
2846 0 106.314 13.2815 1412 98.6523 799.545 436.501
2847 0 107.528 11.9317 1283 102.976 800.436 429.342
2848 0 110.38 11.3698 1255 104.241 800.862 425.759
2849 0 117.2 12.8839 1510 102.193 801.906 428.471
2850 0 121.38 11.9872 1455 101.616 802.61 430.502
2851 0 125.462 17.1208 2148 96.7612 802.551 431.547
2852 0 129.336 12.1853 1576 100.784 803.421 437.471
2853 1 80.1484 15.7832 1265 92.8577 803.699 464.61
2854 0 83.1627 19.8286 1649 90.9278 803.262 463.11
2855 0 84.1246 14.1694 1192 97.5419 803.948 461.44
2856 0 90.4897 16.9522 1534 94.7406 803.396 459.009
2857 0 85.253 10.9439 933 103.362 804.736 455.09
2858 0 91.2702 13.6737 1248 100.231 804.573 459.49
2859 0 98.3414 22.4931 2212 91.2925 804.447 443.431
2860 0 98.3414 22.5236 2215 106.283 804.408 443.288
2861 0 101.186 14.4783 1465 102.275 803.848 448.827
2862 1 179.778 16.4425 2956 100.839 804.237 421.871
2863 1 108.407 14.1965 1539 102.235 804.386 454.758
2864 0 110.225 14.1983 1565 103.687 804.081 451.712
2865 0 114.379 17.477 1999 99.8684 803.894 454.234
2866 0 118.635 16.0745 1907 102.139 803.348 450.695
2867 1 169.447 16.5479 2804 103.488 803.575 417.742
2868 1 127.518 12.9628 1653 107.143 803.185 440.344
2869 0 130.405 15.7892 2059 102.674 802.123 449.681
2870 0 136.324 16.4168 2238 103.582 802.169 441.084
2871 1 77.3194 12.8816 996 104.182 800.25 468.267
2872 0 77.1573 14.0233 1082 101.304 800.863 474.572
2873 0 77.1695 13.1529 1015 101.64 799.147 471.391
2874 0 85.2659 14.3199 1221 98.9631 798.83 468.681
2875 0 85.1902 15.6708 1335 98.7423 798.683 468.114
2876 0 88.175 15.3558 1354 99.5199 798.307 464.555
2877 0 95.222 19.2393 1832 94.7025 798.552 458.854
2878 0 91.1383 15.2954 1394 100.892 798.427 455.707
2879 0 98.6727 15.07 1487 99.9489 797.884 460.241
2880 0 99.182 13.9945 1388 102.722 798.447 454.752
2881 0 103.112 16.5257 1704 101.025 796.9 449.94
2882 0 106.266 14.2943 1519 104.409 797.35 448.687
2883 0 110.256 15.201 1676 104.407 796.433 443.057
2884 0 114.238 13.9533 1594 105.691 798.534 441.434
2885 0 114.465 15.8302 1812 103.454 798.288 440.249
2886 0 118.285 14.4988 1715 105.321 798.591 437.522
2887 0 123.223 13.017 1604 107.661 798.388 432.501
2888 0 128.42 13.705 1760 105.454 799.595 430.607
2889 1 76.1796 13.1269 1000 98.916 799.888 463.063
2890 0 78.3465 14.0402 1100 99.5991 800.454 454.3
2891 0 80.2668 15.1121 1213 98.8392 802.091 441.21
2892 0 81.3333 13.2049 1074 101.579 802.636 434.261
2893 0 82.4776 11.5304 951 102.881 803.206 436.144
2894 0 89.1991 17.0293 1519 96.8637 803.623 437.682
2895 0 92.163 16.5034 1521 97.8678 803.831 434.149
2896 0 96.4282 15.1304 1459 96.9267 805.041 440.397
2897 0 95.3848 13.5032 1288 102.337 804.337 428.946
2898 0 102.329 19.4667 1992 93.999 804.828 439.255
2899 0 104.137 11.1775 1164 100.546 805.037 446.251
2900 0 106.426 15.4004 1639 99.1275 805.268 440.864
2901 0 110.362 15.3858 1698 98.4146 806.05 445.348
2902 0 114.383 16.4098 1877 96.2046 804.987 456.085
2903 0 114.412 11.0391 1263 107.352 806.028 443.591
2904 0 120.472 14.4432 1740 102.688 805.764 443.635
2905 0 124.455 13.981 1740 101.928 803.928 447.562
2906 0 130.573 15.9221 2079 101.938 805.486 443.079
2907 0 137.427 19.1083 2626 97.4059 805.514 444.778
2908 0 138.638 14.8949 2065 102.19 804.442 442.351
2909 0 142.539 14.9502 2131 103.858 804.619 432.886
2910 0 147.363 15.6281 2303 100.705 804.026 441.821
2911 0 146.34 14.0836 2061 135.771 802.999 437.851
2912 1 86.3234 9.74243 841 97.7539 803.939 481.837
2913 0 89.1643 13.2116 1178 98.8565 803.14 469.945
2914 0 95.3123 16.1469 1539 98.0676 801.404 470.877
2915 0 95.2408 11.6337 1108 105.511 801.152 464.241
2916 0 99.3452 20.9673 2083 94.8262 799.949 466.866
2917 0 102.392 14.2882 1463 102.957 800.445 459.39
2918 0 107.313 21.2557 2281 96.6791 798.865 452.596
2919 0 108.345 13.7339 1488 104.59 799.213 454.702
2920 0 105.7 15.8656 1677 103.451 798.558 452.651
2921 0 101.41 11.2119 1137 110.275 799.325 449.452
2922 1 119.843 17.548 2103 102.048 797.881 446.621
2923 0 119.283 11.3427 1353 111.107 798.268 444.31
2924 0 127.417 16.7403 2133 104.032 799.428 436.878
2925 1 74.4659 16.3699 1219 100.492 797.754 466.301
2926 0 74.2378 14.9789 1112 105.326 798.59 460.551
2927 0 78.3845 16.8146 1318 102.31 797.476 457.253
2928 0 79.3178 13.8052 1095 107.246 798.121 454.481
2929 0 83.4262 17.6803 1475 102.342 798.142 454.308
2930 0 87.4062 24.8266 2170 95.3972 797.758 451.63
2931 0 88.3788 16.169 1429 103.451 798.592 455.463
2932 0 89.4828 13.3322 1193 107.735 799.659 451.958
2933 0 94.5861 14.5582 1377 107.447 798.725 448.007
2934 0 94.1873 13.6006 1281 108.454 800.481 444.723
2935 0 101.436 18.4945 1876 103.437 801.547 444.793
2936 0 101.729 20.6725 2103 101.204 800.851 443.681
2937 0 105.36 19.4382 2048 103.592 801.734 444.158
2938 0 105.677 17.9604 1898 106.157 800.969 443.556
2939 0 110.39 14.6572 1618 111.742 803.422 438.846
2940 0 121.766 19.2253 2341 103.207 803.777 431.546
2941 0 126.979 33.2102 4217 90.3737 802.601 433.896
2942 0 121.585 17.2637 2099 108.51 805.401 437.191
2943 0 126.816 17.1981 2181 107.062 805.332 443.229
2944 1 69.6736 16.3477 1139 108.507 805.205 464.22
2945 0 71.525 15.0297 1075 108.367 805.86 467.195
2946 0 75.5173 14.0233 1059 110.858 805.191 462.253
2947 0 78.2824 14.2305 1114 109.32 805.505 462.905
2948 0 79.3423 14.658 1163 109.062 805.384 462.766
2949 0 83.7207 18.6214 1559 103.271 804.927 464.443
2950 0 84.6728 15.0225 1272 107.853 804.464 464.181
2951 0 86.3255 18.8009 1623 104.629 804.967 462.617
2952 0 92.6533 18.6502 1728 103.751 804.575 461.988
2953 0 92.6533 18.6825 1731 145.117 803.594 462.128
2954 0 96.6688 17.0686 1650 107.068 803.655 460.776
2955 0 101.814 18.1803 1851 106.521 802.385 456.659
2956 0 102.58 21.7391 2230 101.963 802.84 459.196
2957 0 102.763 12.8451 1320 115.148 801.371 451.895
2958 0 109.9 15.9691 1755 109.976 801.883 452.298
2959 0 113.691 16.7911 1909 108.326 800.778 446.918
2960 0 118.547 18.3894 2180 105.399 800.47 447.065
2961 0 122.983 18.4334 2267 104.883 800.087 443.436
2962 0 128.433 21.0226 2700 100.016 800.128 445.421
2963 1 66.5332 8.74751 582 109.256 798.256 467.545
2964 0 68.3456 11.9832 819 106.063 799.32 466.291
2965 0 73.3516 19.536 1433 95.5694 797.28 470.149
2966 0 80.4041 21.8521 1757 92.9499 797.312 461.632
2967 0 78.3295 13.4815 1056 103.011 797.888 461.151
2968 0 85.4854 28.3908 2427 88.8253 797.184 457.767
2969 0 85.4052 14.4722 1236 102.251 797.488 457.06
2970 0 84.4221 14.2498 1203 102.707 796.862 458.822
2971 0 89.739 14.2636 1280 104.328 798.541 451.859
2972 0 92.7937 14.6023 1355 102.314 798.359 455.365
2973 0 93.5297 16.0805 1504 101.986 798.997 451.441
2974 0 96.283 15.7141 1513 101.261 799.266 452.43
2975 0 99.4418 16.3714 1628 102.391 799.442 449.173
2976 0 99.5178 13.6056 1354 106.77 801.557 445.838
2977 0 99.5178 13.5453 1348 136.844 803.569 445.533
2978 0 110.572 18.7208 2070 100.73 802.181 442.956
2979 0 110.609 15.5231 1717 106.57 802.483 434.285
2980 0 116.796 19.975 2333 100.075 802.05 439.835
2981 0 119.822 16.3493 1959 105.217 802.804 434.185
2982 0 124.47 15.4656 1925 105.928 803.425 435.767
2983 0 127.545 13.509 1723 109.525 803.871 429.666
2984 0 130.487 11.779 1537 111.568 803.701 430.39
2985 0 135.389 16.1313 2184 106.294 805.045 433.218
2986 0 140.425 11.3299 1591 113.412 804.916 427.482
2987 0 147.578 13.5047 1993 110.607 805.18 423.193
2988 0 152.744 15.7388 2404 108.584 805.176 426.672
2989 0 155.705 12.1512 1892 112.642 805.077 428.658
2990 1 95.5516 15.8239 1512 99.2335 805.145 468.206
2991 0 96.3962 12.4382 1199 109.19 805.689 456.084
2992 0 103.464 13.9856 1447 106.551 804.036 458.364
2993 0 103.246 12.1845 1258 108.994 804.74 459.961
2994 0 107.19 17.2403 1848 102.239 804.986 464.15
2995 0 109.148 15.456 1687 107.33 803.671 457.475
2996 0 115.453 15.1404 1748 108.222 804.565 455.197
2997 0 116.336 12.6272 1469 113.944 803.706 444.498
2998 0 121.181 12.2049 1479 115.32 802.488 446.201
2999 0 127.433 18.6372 2375 104.946 802.637 448.754
3000 0 131.376 15.3757 2020 109.219 801.816 444.02
3001 0 134.545 15.6008 2099 109.332 800.659 441.102
3002 0 142.361 17.0974 2434 104.786 800.391 448.252
3003 0 144.209 13.3834 1930 112.851 800.87 435.243
3004 0 149.41 11.9202 1781 111.288 798.717 444.669
3005 0 155.498 15.2928 2378 110.525 799.355 428.053
3006 1 95.2138 13.9266 1326 108.619 799.048 457.136
3007 0 96.1528 12.9065 1241 107.974 797.798 465.53
3008 0 98.294 11.6487 1145 113.086 797.762 454.797
3009 0 103.294 13.0598 1349 111.236 797.19 451.739
3010 0 105.206 12.8795 1355 111.76 797.657 451.641
3011 0 107.294 11.2215 1204 114.922 797.269 446.953
3012 0 116.264 15.6884 1824 108.029 797.636 449.323
3013 0 120.595 13.8148 1666 110.164 797.648 450.142
3014 0 121.343 12.3617 1500 112.832 798.421 448.274
3015 0 122.396 13.44 1645 115.288 797.968 437.333
3016 0 127.484 19.0926 2434 107.24 799.007 440.828
3017 0 130.475 15.0297 1961 113.805 799.188 433.386
3018 0 133.413 17.1273 2285 110.865 800.01 436.219
3019 0 137.323 12.3869 1701 117.372 798.806 432.199
3020 0 145.687 22.0336 3210 101.76 799.847 440.076
3021 0 147.547 11.8878 1754 119.18 801.415 422.38
3022 0 153.631 13.5129 2076 116.226 801.789 424.982
3023 1 88.365 8.98546 794 107.481 801.63 457.771
3024 0 91.2787 9.79418 894 107.4 802.031 455.042
3025 0 95.1289 13.3398 1269 101.55 803.336 460.704
3026 0 99.3481 13.1155 1303 102.797 804.84 452.018
3027 0 98.3354 11.8879 1169 105.437 804.577 452
3028 0 102.25 14.1124 1443 102.204 803.444 454.949
3029 0 104.291 13.8075 1440 103.536 802.724 448.622
3030 0 104.291 13.8266 1442 120.632 800.763 448.398
3031 0 111.333 12.6827 1412 106.911 804.738 451.254
3032 0 113.362 12.2793 1392 108.284 804.083 445.591
3033 0 118.348 13.0547 1545 107.53 804.647 445.805
3034 0 121.458 12.7534 1549 108.152 803.828 444.629
3035 0 121.49 11.0544 1343 124.836 804.004 440.481
3036 0 129.446 13.9518 1806 107.352 803.535 446.966
3037 0 133.718 16.5498 2213 105.898 802.418 447.291
3038 0 136.623 15.034 2054 107.092 802.824 444.69
3039 0 142.649 15.3524 2190 106.756 803.709 438.098
3040 0 145.477 11.5895 1686 111.663 803.094 435.876
3041 0 150.371 15.2756 2297 107.057 802.219 429.365
3042 0 150.371 15.2689 2296 136.609 802.213 429.521
3043 0 157.85 11.2449 1775 113.028 800.393 421.825
3044 0 166.738 16.0852 2682 105.87 800.39 419.762
3045 0 169.894 15.1565 2575 104.828 799.233 433.67
3046 0 174.543 12.9137 2254 110.629 799.163 416.775
3047 0 182.848 17.4899 3198 104.558 798.783 418.966
3048 1 108.491 16.1212 1749 99.8685 798.26 456.079
3049 0 110.392 15.7258 1736 100.793 798.715 452.306
3050 0 117.482 15.381 1807 100.806 797.515 453.763
3051 0 117.445 14.7728 1735 103.351 797.689 440.428
3052 0 121.909 11.7875 1437 107.906 796.369 438.209
3053 0 122.529 9.96498 1221 111.052 796.541 432.292
3054 0 126.7 11.1444 1412 109.215 796.586 434.385
3055 0 131.783 10.8284 1427 109.576 796.817 430.972
3056 0 137.539 15.7701 2169 102.303 797.029 441.495
3057 1 82.4729 14.6836 1211 100.936 795.406 459.938
3058 0 86.3288 15.3946 1329 100.974 796.646 456.093
3059 0 87.2821 16.3378 1426 98.0919 796.046 459.502
3060 0 92.2566 12.4761 1151 102.852 795.674 460.576
3061 0 94.461 14.0058 1323 103.181 796.744 453.072
3062 0 96.2455 18.1203 1744 98.1881 796.35 453.427
3063 0 98.2026 13.4009 1316 104.236 798.49 448.061
3064 0 100.268 12.1674 1220 104.862 797.517 453.092
3065 0 105.246 11.2308 1182 107.943 798.937 441.063
3066 0 107.135 13.0023 1393 105.612 800.513 444.934
3067 0 106.41 13.1285 1397 106.686 800.674 441.333
3068 0 115.351 10.2036 1177 110.188 802.238 438.308
3069 0 116.282 9.39093 1092 109.81 802.095 440.045
3070 0 122.34 12.6614 1549 107.39 802.19 435.31
3071 0 126.308 12.5962 1591 106.751 801.575 438.599
3072 0 128.529 13.7867 1772 104.95 800.977 440.13
3073 0 132.397 12.6438 1674 106.455 802.584 436.983
3074 0 135.372 11.4278 1547 107.981 802.951 438.937
3075 1 77.1121 11.5935 894 108.378 803.142 470.991
3076 0 79.4565 12.3967 985 106.533 801.784 469.564
3077 0 83.2717 12.9456 1078 104.515 800.931 468.659
3078 0 86.4008 12.2568 1059 107.493 801.562 466.401
3079 0 88.3309 15.2381 1346 103.412 800.793 464.435
3080 0 94.2762 14.7333 1389 102.963 800.61 468.514
3081 0 99.3588 21.7796 2164 93.5892 800.643 474.151
3082 0 96.497 17.5757 1696 99.204 801.735 468.642
3083 0 100.408 12.8276 1288 105.436 800.175 463.787
3084 0 103.407 17.7067 1831 101.774 799.57 460.434
3085 0 105.188 12.2732 1291 108.781 798.998 460.198
3086 0 108.346 18.2379 1976 101.595 799.013 455.897
3087 0 113.378 14.5178 1646 106.204 797.678 454.281
3088 0 116.144 15.6185 1814 104.478 796.488 456.77
3089 0 117.113 14.0462 1645 106.055 797.033 448.65
3090 0 120.4 17.4419 2100 101.842 796.765 456.229
3091 0 123.369 14.7201 1816 105.991 796.699 449.096
3092 0 126.365 15.02 1898 105.774 796.14 445.092
3093 0 131.375 17.4082 2287 101.837 795.393 450.09
3094 0 130.675 14.7771 1931 105.748 795.909 445.48
3095 0 138.373 14.7138 2036 100.574 795.069 456.823
3096 0 143.472 13.8076 1981 106.25 795.499 434.933
3097 1 160.325 8.99424 1442 108.207 793.638 450.901
3098 0 160.235 13.6549 2188 107.192 795.44 432.154
3099 0 159.441 25.6835 4095 95.0918 795.055 425.476
3100 0 163.504 21.1861 3464 98.4394 795.125 422.179
3101 0 169.579 15.8333 2685 101.806 797.43 420.723
3102 0 172.742 15.9371 2753 102.179 797.708 419.072
3103 0 182.556 14.2422 2600 106.865 797.994 410.243
3104 1 105.305 13.1048 1380 101.79 797.344 451.467
3105 0 111.544 14.7924 1650 100.541 798.86 448.739
3106 0 115.305 20.9532 2416 95.589 798.796 441.068
3107 0 116.349 14.1385 1645 101.98 799.184 446.808
3108 0 120.364 14.1571 1704 104.063 800.508 439.939
3109 0 121.404 9.38187 1139 110.116 801.507 434.6
3110 0 125.461 11.669 1464 108.119 801.1 432.807
3111 0 130.476 12.3625 1613 107.015 801.458 439.435
3112 0 130.476 12.2782 1602 124.22 802.466 439.44
3113 0 143.462 17.4401 2502 101.458 802.853 428.953
3114 0 143.352 14.7958 2121 104.941 802.917 423.178
3115 0 147.471 13.2432 1953 107.522 802.535 427.124
3116 0 150.825 9.10991 1374 114.608 800.996 416.925
3117 0 159.589 20.1894 3222 99.2976 803.015 428.329
3118 0 164.375 12.289 2020 110.164 802.134 420.51
3119 0 172.604 11.3091 1952 110.198 801.471 429.017
3120 1 101.138 9.07667 918 108.29 801.593 457.209
3121 0 100.307 9.65034 968 107.602 802.343 446.853
3122 0 110.376 12.7383 1406 103.504 802.3 451.929
3123 0 113.328 15.9625 1809 98.2239 801.188 444.366
3124 0 119.22 13.169 1570 100.868 800.547 454.413
3125 0 120.228 12.4763 1500 101.757 798.865 452.925
3126 0 124.248 14.1893 1763 100.772 800.212 444.243
3127 1 10.0024 6.89831 69 97.4493 798.275 505.377
3128 0 13.0114 8.22358 107 97.6916 798.579 503.822
3129 0 14.026 6.84445 96 91.7083 797.729 507.333
3130 0 13.0169 3.99482 52 94.5577 797.865 501.981
3131 0 12.0134 4.16203 50 93.02 796.86 502.96
3132 0 16.0042 1.06222 17 99.3529 796.529 499.529
3133 0 15.0016 13.9319 209 83.8421 795.603 501.368
3134 0 8.01719 4.36562 35 95.0857 795.943 502.171
3135 0 3 10.6667 32 90.875 793.781 499.75
3136 1 147.249 7.73518 1139 110.153 797.294 402.382
3137 1 175.578 13.6406 2395 100.699 796.428 419.185
3138 1 187.569 19.001 3564 94.8353 796.425 420.962
3139 0 185.763 13.824 2568 100.443 796.562 411.838
3140 0 190.564 11.7231 2234 103.326 795.665 395.27
3141 0 198.37 11.5592 2293 103.96 795.944 390.822
3142 0 202.53 9.36158 1896 106.386 796.244 394.569
3143 0 209.578 15.6505 3280 99.6305 796.491 403.813
3144 0 207.82 14.6232 3039 104.121 795.357 396.109
3145 0 208.769 11.2804 2355 107.891 797.139 399.144
3146 1 175.502 14.3531 2519 101.249 797.822 419.265
3147 0 177.81 12.9071 2295 105.709 798.507 399.729
3148 0 182.866 13.015 2380 105.176 798.304 405.963
3149 0 188.83 15.7073 2966 101.905 798.703 408.404
3150 0 193.837 15.5491 3014 104.257 799.006 397.779
3151 0 196.848 9.97219 1963 111.979 799.775 390.271
3152 0 206.106 15.2252 3138 105.26 800.146 385.959
3153 0 215.299 19.5774 4215 99.7616 800.202 402.279
3154 0 221.947 16.0128 3554 106.403 801.188 381.71
3155 0 227.913 14.7468 3361 108.184 801.326 381.197
3156 0 234.155 13.7174 3212 109.977 802.106 372.954
3157 0 242.266 17.0556 4132 103.214 801.816 397.445
3158 0 248.996 17.0204 4238 105.203 801.554 374.5
3159 0 257.336 15.3302 3945 107.531 801.592 367.495
3160 0 264.806 12.3524 3271 110.511 801.674 375.409
3161 1 192.02 17.5503 3370 98.4543 801.627 421.751
3162 0 193.817 16.0512 3111 101.428 801.972 411.35
3163 0 198.022 12.0239 2381 107.728 803.207 386.59
3164 0 201.814 9.30066 1877 110.379 802.124 394.803
3165 1 243.182 14.2568 3467 100.81 802.105 414.764
3166 0 241.007 11.1574 2689 108.841 801.315 390.822
3167 0 243.209 10.6452 2589 105.094 800.321 410.363
3168 0 244.769 11.1861 2738 106.2 800.842 402.184
3169 0 247.498 21.4547 5310 96.454 800.754 393.864
3170 1 190.01 14.5308 2761 101.339 800.524 408.865
3171 0 192.741 14.8282 2858 100.686 799.824 412.854
3172 0 197.533 9.54778 1886 106.505 799.444 406.148
3173 0 203.402 6.38636 1299 113.259 798.539 368.561
3174 0 207.505 13.3443 2769 104.329 798.338 382.952
3175 0 217.876 16.4313 3580 100.982 797.26 380.994
3176 0 220.767 11.1701 2466 107.804 796.829 369.498
3177 0 228.665 11.073 2532 107.829 795.78 374.211
3178 1 242.01 11.5408 2793 106.572 796.149 380.707
3179 0 247.808 14.3498 3556 104.246 794.985 369.32
3180 0 254.909 11.7179 2987 108.676 795.596 364.279
3181 0 265.957 16.717 4446 100.885 796.09 386.292
3182 0 273.976 14.4137 3949 104.901 795.515 363.452
3183 0 281.399 18.01 5068 99.9367 796.239 370.495
3184 0 318.317 18.2114 5797 99.1527 795.401 337.053
3185 0 313.277 24.4735 7667 93.6009 794.52 321.058
3186 1 16.0145 5.3077 85 85.2118 793.4 490.271
3187 0 13.0024 7.15253 93 82.6559 793.527 494.699
3188 0 19.2383 4.73014 91 83.5604 797.088 496.308
3189 1 80.2082 10.3979 834 93.1499 797.299 463.709
3190 0 85.3994 13.0446 1114 92.6553 797.507 459.174
3191 0 85.2883 13.1906 1125 92.76 798.508 457.813
3192 0 87.2844 14.0575 1227 93.3814 798.619 457.27
3193 0 89.4791 10.8517 971 97.5839 798.923 455.793
3194 0 91.223 8.28738 756 101.278 799.054 450.114
3195 0 104.257 15.4906 1615 92.5672 800.202 454.265
3196 0 104.79 12.9115 1353 94.629 800.378 443.447
3197 0 100.318 14.1151 1416 94.2684 801.27 458.927
3198 0 106.598 13.3493 1423 95.2537 800.859 457.907
3199 0 100.396 7.53018 756 102.558 801.278 457.467
3200 0 102.335 10.2702 1051 100.954 801.234 452.18
3201 0 112.268 11.5438 1296 99.8148 800.325 444.989
3202 0 115.345 12.0074 1385 100.033 801.42 450.071
3203 0 115.245 9.22384 1063 105.262 801.151 437.285
3204 0 120.323 13.1314 1580 100.968 801.236 442.401
3205 0 126.66 14.6455 1855 98.876 801.433 444.171
3206 0 124.494 7.80758 972 109.122 799.663 439.55
3207 0 133.559 14.8025 1977 100.754 801.155 444.007
3208 0 139.465 18.3702 2562 96.4157 800.34 438.949
3209 1 351.18 16.7805 5893 93.7103 800.861 362.248
3210 0 352.169 18.3094 6448 92.62 799.899 330.423
3211 0 351.864 23.7734 8365 89.0197 799.425 329.459
3212 0 353.306 22.247 7860 90.4433 799.458 320.226
3213 1 162.489 19.8722 3229 96.6182 800.124 427.366
3214 0 154.621 14.0731 2176 105.669 799.523 430.808
3215 0 161.541 17.9273 2896 101.304 799.539 426.811
3216 0 167.443 13.1687 2205 108.056 798.728 416.024
3217 0 172.57 16.6715 2877 103.812 798.901 425.669
3218 0 177.42 16.1425 2864 105.035 797.067 424.281
3219 0 179.574 15.431 2771 106.698 797.541 415.453
3220 0 187.577 22.1615 4157 98.3312 797.571 420.206
3221 0 199.013 21.9484 4368 99.1433 796.071 411.641
3222 0 200.795 17.0572 3425 104.056 796.346 413.606
3223 0 204.765 15.2272 3118 107.048 796.718 405.399
3224 0 209.617 15.8384 3320 107.438 796.614 397.448
3225 0 217.566 17.3649 3778 106.501 795.755 393.711
3226 0 221.528 14.725 3262 108.573 796.478 405.039
3227 0 233.75 22.9433 5363 100.868 796.035 382.31
3228 0 235.897 16.8676 3979 107.314 796.585 379.506
3229 0 241.634 14.7496 3564 112.089 796.522 373.653
3230 0 248.735 15.3698 3823 111.939 797.169 361.019
3231 0 315.818 14.6983 4642 111.051 796.139 345.911
3232 0 328.057 18.4298 6046 107.359 797.807 329.916
3233 1 277.179 18.8362 5221 108.668 797.521 353.162
3234 0 285.778 16.2469 4643 111.103 796.201 348.579
3235 0 295.136 15.4573 4562 113.847 798.251 330.145
3236 0 304.956 18.8093 5736 108.896 798.491 345.55
3237 0 315.091 31.1529 9816 95.8288 798.39 332.242
3238 0 333.933 27.6822 9244 98.3169 798.718 326.801
3239 0 331.579 16.2706 5395 112.658 800.325 314.745
3240 0 333.741 14.4184 4812 115.628 800.789 314.11
3241 0 335.648 13.8687 4655 113.71 801.109 338.376
3242 1 292.923 15.6594 4587 109.331 802.048 364.108
3243 0 297.598 11.9389 3553 117.982 802.134 344.384
3244 0 306.725 13.0019 3988 115.31 802.531 333.863
3245 0 317.687 13.0537 4147 114.981 803.377 340.847
3246 0 329.155 15.6036 5136 111.676 802.101 332.961
3247 1 30.0765 7.58067 228 94.2456 801.658 490.548
3248 0 361.197 25.9194 9362 100.442 801.81 320.511
3249 0 370.365 18.047 6684 109.704 802.724 314.423
3250 0 367.983 10.0032 3681 119.627 802.118 298.106
3251 1 168.387 10.1077 1702 107.202 800.986 409.667
3252 0 177.398 12.0351 2135 107.341 802.571 422.63
3253 0 178.659 11.8494 2117 109.741 800.985 407.08
3254 0 187.43 13.2263 2479 108.565 802.781 404.199
3255 0 191.492 10.3085 1974 109.386 800.952 404.99
3260 0 362.028 11.8969 4307 110.033 799.468 284.335
3261 0 239.408 27.0459 6475 91.4899 798.109 370.622
3262 0 246.12 24.3499 5993 93.6147 798.764 361.823
3263 0 243.615 24.629 6000 93.3288 798.52 371.41
3264 0 255.88 28.0405 7175 90.7664 798.495 370.687
3265 0 261.423 20.8436 5449 96.9961 798.425 348.587
3266 0 274.858 27.1449 7461 92.1824 797.972 350.274
3267 0 275.019 21.3985 5885 97.5611 796.13 354.725
3268 0 290.159 25.2654 7331 94.2035 796.633 341.621
3269 0 302.002 25.778 7785 94.7719 797.181 343.072
3270 0 305.262 17.4375 5323 103.791 797.362 339.424
3271 1 79.3757 8.52906 677 94.8139 796.394 465.359
3272 0 81.1562 10.03 814 93.6978 796.499 458.505
3273 0 85.3299 12.4458 1062 91.3917 797.728 459.867
3274 0 85.4611 7.30157 624 97.1138 797.569 454.109
3275 0 88.2706 15.4638 1365 90.3744 797.08 452.144
3276 0 91.3371 14.1782 1295 92.5351 797.767 456.875
3277 0 91.3371 14.1563 1293 113.022 798.751 456.958
3278 0 94.5235 8.53756 807 102.836 798.321 450.327
3279 0 97.4364 13.886 1353 96.4457 799.603 449.344
3280 0 96.421 6.67904 644 101.699 798.832 455.311
3281 0 96.5712 10.6554 1029 99.2187 800.444 449.225
3282 1 111.746 21.9694 2455 87.0477 801.084 432.374
3283 0 105.363 9.80423 1033 100.626 802.466 442.377
3284 0 112.322 13.5503 1522 96.6971 803.531 442.62
3285 0 112.581 9.45984 1065 101.103 803.6 436.459
3286 1 194.978 11.2679 2197 101.772 803.574 402.127
3287 0 201.153 17.1163 3443 96.3697 803.689 394.791
3288 0 205.872 13.6687 2814 98.7974 803.232 408.946
3289 0 208.148 12.837 2672 99.0049 804.454 407.514
3290 0 143.61 17.1923 2469 92.2337 804.968 422.596
3291 0 139.058 23.1415 3218 88.7178 804.526 422.518
3292 0 138.705 20.2876 2814 91.6443 804.592 429.48
3293 0 134.38 9.77081 1313 103.918 804.443 430.925
3294 0 142.531 12.8744 1835 98.6981 804.483 434.149
3295 0 147.042 18.1649 2671 94.2404 804.515 433.079
3296 0 148.575 14.2218 2113 97.6858 803.834 434.407
3297 0 150.842 13.4578 2030 98.6044 803.443 432.386
3298 0 154.493 13.4569 2079 99.2511 804.745 431.506
3299 0 159.64 10.129 1617 102.659 803.866 427.67
3300 0 160.224 16.0463 2571 96.9553 803.79 423.194
3301 0 165.757 16.8681 2796 94.407 802.399 433.076
3302 0 168.849 11.0632 1868 102.433 800.796 417.638
3303 0 174.829 19.991 3495 92.9631 801.492 422.099
3304 0 178.637 19.4249 3470 94.4844 800.143 409.629
3305 0 183.616 15.9899 2936 97.8096 800.43 406.738
3306 0 187.833 12.7134 2388 101.204 799.322 410.572
3307 1 270.32 17.6791 4779 98.0056 798.837 360.286
3308 1 198.714 16.5564 3290 98.3 798.023 402.32
3309 0 203.68 16.3737 3335 99.746 798.76 392.491
3310 0 206.514 23.9693 4950 91.6895 798.871 403.967
3311 0 212.438 14.5219 3085 102.078 798.325 386.288
3312 0 219.701 17.0687 3750 98.4192 798.855 391.878
3313 0 226.85 17.2845 3921 98.795 798.208 388.043
3314 0 233.941 19.1031 4469 97.6661 797.966 375.781
3315 1 239.896 11.7926 2829 107.131 798.884 357.99
3316 0 247.794 14.2215 3524 102.521 798.689 364.63
3317 0 256.714 18.5615 4765 97.8357 800.323 346.995
3318 1 183.672 7.78561 1430 101.448 799.835 403.224
3319 0 189.605 11.0335 2092 99.4493 801.282 390.521
3320 0 194.595 11.9016 2316 98.5522 800.641 379.418
3321 0 205.786 13.4606 2770 96.7498 800.712 392.204
3322 0 208.631 15.5155 3237 96.9824 801.601 381.019
3323 0 212.482 9.34195 1985 104.164 801.982 366.499
3324 0 224.361 16.7275 3753 93.5028 802.845 396.798
3325 0 232.297 13.6033 3160 98.0171 803.174 386.76
3326 0 233.761 15.3148 3580 96.1008 804.722 387.452
3327 0 240.697 16.34 3933 96.7315 803.792 368.696
3328 0 250.706 13.4859 3381 99.8376 803.915 369.391
3329 0 256.523 12.4044 3182 101.779 804.657 368.286
3330 0 262.048 14.2836 3743 100.991 804.9 358.242
3331 0 268.817 11.3051 3039 105.437 805.628 344.734
3332 1 207.711 10.115 2101 101.309 803.514 399.45
3333 0 215.846 9.50214 2051 103.747 806.163 383.375
3334 0 221.551 10.246 2270 103.493 803.954 374.719
3335 0 232.834 14.9849 3489 99.8888 805.248 380.959
3336 1 8.00836 10.1144 81 84.7284 803.827 493.58
3337 0 17.0705 9.49005 162 86.6111 803.716 492.852
3338 0 11.0018 2.18146 24 94.0833 802.5 494.333
3339 0 12.0038 6.49796 78 86.1538 802.205 489.756
3340 0 11.0052 5.9063 65 88.9692 800.923 492.969
3341 0 14.0038 8.49771 119 85.1597 802.555 493.076
3342 0 12.0202 7.4874 90 87.1333 800.611 494.078
3343 0 16.1915 8.64652 140 86.1714 801.493 493.621
3344 0 17.4693 9.04444 158 85.3101 801.354 491.835
3345 0 310.784 21.2398 6601 98.8874 801.885 330.723
3346 0 318.254 16.0563 5110 105.479 801.959 321.781
3347 0 328.158 19.5302 6409 101.831 800.896 330.906
3348 0 341.399 25.8378 8821 96.6345 800.027 310.782
3349 0 347.634 22.0433 7663 101.231 799.768 299.529
3350 0 360.5 23.742 8559 99.594 799.685 301.414
3358 0 49.2843 16.9425 835 87.9904 801.532 471.196
3359 0 46.2854 21.4754 994 85.9386 801.238 471.005
3360 0 44.2458 15.3235 678 93.5826 802.025 471.302
3361 0 39.1101 13.6282 533 99.1238 800.921 475.957
3364 0 376.07 15.888 5975 111.901 803.259 271.492
3367 0 382.667 30.3057 11597 88.4819 801.779 288.976
3368 0 172.67 10.9689 1894 89.5708 805.108 413.71
3369 1 123.915 27.0427 3351 71.5279 803.813 435.839
3370 0 126.032 17.2655 2176 77.7335 803.703 462.907
3371 0 124.284 12.3829 1539 82.7284 805.266 448.734
3372 0 121.191 20.9586 2540 76.3004 803.802 457.785
3373 0 113.531 25.8785 2938 73.5725 803.389 441.022
3374 0 113.522 23.8808 2711 75.6857 803.61 456.805
3375 0 178.297 9.46736 1688 96.6789 805.265 409.103
3376 0 179.075 19.3215 3460 84.9139 805.522 410.777
3377 0 177.327 15.8577 2812 88.042 805.924 421.967
3378 0 165.237 24.359 4025 83.4323 805.399 423.404
