time division length width area intensity CMx CMy
0 0 55.0521 12.8969 710 127.283 663.701 467.569
1 0 60.0664 12.8691 773 122.88 663.693 470.928
2 0 59.0858 11.6779 690 126.875 662.952 467.677
3 0 63.1132 12.7549 805 120.483 662.155 470.486
4 0 65.2176 14.9959 978 116.672 661.896 466.732
5 1 34.1596 11.0364 377 121.936 660.695 481.515
6 0 35.0424 10.5586 370 125.041 659.351 481.33
7 0 39.0215 11.0196 430 122.167 657.805 480.984
8 0 38.0328 16.6435 633 113.354 658.231 477.913
9 0 39.1576 15.0673 590 112.756 656.966 477.981
10 0 39.0572 14.7732 577 113.258 657.3 477.997
11 0 43.0432 13.7072 590 112.82 656.542 477.515
12 0 43.1532 14.0662 607 113.954 657.519 474.952
13 0 44.1956 15.3635 679 108.92 657.149 474.464
14 0 47.1119 14.5823 687 115.632 657.326 473.221
15 0 47.0816 13.6359 642 116.516 656.872 470.791
16 0 47.2619 13.8378 654 115.791 657.017 470.017
17 0 49.0559 13.7394 674 115.089 656.556 468.834
18 0 49.0858 12.7328 625 120.442 656.552 468.094
19 0 52.0751 15.036 783 115.875 655.167 465.158
20 0 53.1291 12.6673 673 115.811 656.058 464.505
21 0 56.1098 11.6379 653 116.671 656.381 462.976
22 0 54.1612 13.3306 722 115.554 657.377 461.774
23 0 54.1612 13.0906 709 144.324 658.333 462.016
24 0 61.068 14.23 869 115.699 660.552 461.152
25 0 60.0636 16.7656 1007 129.955 662.772 459.697
26 0 63.0854 16.5966 1047 112.431 662.937 454.252
27 0 62.1062 14.5396 903 117.514 662.785 454.388
28 0 69.1232 14.8286 1025 115.017 662.911 453.563
29 0 69.113 15.9449 1102 112.325 664.113 453.305
30 0 71.1041 15.9766 1136 112.684 663.895 449.452
31 0 76.1401 11.991 913 117.578 665.895 451.346
32 0 80.3553 15.9292 1280 111.324 666.391 449.916
33 0 79.1104 13.4748 1066 114.616 666.213 449.089
34 0 85.0895 12.9041 1098 114.46 666.684 449.493
35 0 85.0805 14.2806 1215 114.797 666.365 448.34
36 0 89.2467 13.3114 1188 112.986 667.951 450.327
37 1 47.1712 12.8892 608 111.138 666.938 466.317
38 0 50.1025 12.5343 628 114.317 667.64 467.435
39 0 52.13 12.91 673 110.279 667.511 468.223
40 0 54.1064 14.8966 806 103.772 667.746 468.966
41 0 56.0622 11.5943 650 108.597 667.089 469.968
42 0 57.0336 10.8357 618 108.296 666.968 471.303
43 0 57.2231 11.4464 655 109.507 666.649 465.983
44 0 66.0768 17.7521 1173 98.4084 665.659 468.939
45 0 66.2101 18.1996 1205 103.061 664.699 471.839
46 0 67.1215 14.0641 944 117.779 664.276 467.377
47 0 69.0732 14.2313 983 118.54 664.247 469.198
48 0 70.1417 14.5848 1023 120.468 663.982 467.781
49 0 72.0831 13.5816 979 125.695 663.46 464.375
50 0 76.1044 13.7049 1043 129.614 661.761 464.145
51 0 78.1705 16.2849 1273 124.805 661.743 462.533
52 0 81.2364 12.9991 1056 130.936 660.763 461.391
53 0 85.0301 15.665 1332 125.912 660.583 459.628
54 0 86.0896 15.3212 1319 128.954 660.227 459.18
55 1 46.0614 12.4182 572 125.904 659.399 476.649
56 0 47.0807 12.1281 571 128.375 659.608 473.275
57 0 48.1365 11.9867 577 127.757 659.182 472.927
58 0 48.1394 13.0039 626 126.442 657.936 471.316
59 0 50.2507 11.9401 600 120.902 659.21 467.487
60 0 52.0759 13.5187 704 120.865 658.016 466.037
61 0 56.0572 13.7181 769 124.194 657.367 466.849
62 0 54.0862 12.4431 673 123.884 656.877 467.574
63 0 57.1336 12.8821 736 122.72 657.511 465.713
64 0 59.0644 13.3922 791 120.341 656.697 464.855
65 0 63.0789 13.3325 841 120.143 657.392 463.743
66 0 65.1431 13.0329 849 121.164 657.574 462.204
67 0 65.0471 12.9291 841 123.005 658.342 456.81
68 0 68.1253 11.5963 790 124.311 658.334 457.767
69 0 71.1714 15.2449 1085 117.675 658.567 454.149
70 0 73.1658 16.1414 1181 116.565 658.343 453.928
71 0 76.2597 15.6046 1190 118.228 660.108 450.356
72 0 77.2396 14.6298 1130 119.642 660.281 451.667
73 0 81.3141 14.0566 1143 119.29 661.539 453.137
74 0 83.2179 14.2157 1183 121.571 661.784 445.939
75 0 85.3169 14.5575 1242 123.371 661.887 443.98
76 1 43.1075 11.0886 478 122.996 662.416 466.002
77 0 46.044 13.8129 636 116.986 662.89 468.385
78 0 45.0553 10.5648 476 125.744 662.769 467.733
79 0 48.1079 12.2225 588 119.413 665.857 472.003
80 0 47.0259 11.6744 549 123.752 665.749 468.942
81 0 49.1041 12.667 622 120.593 665.822 470.246
82 0 51.2662 13.3811 686 119.362 665.162 470.844
83 0 53.0413 11.4439 607 121.007 664.748 471.787
84 0 53.0429 14.5354 771 115.86 664.684 468.955
85 0 55.0604 12.5862 693 122.924 663.609 468.234
86 0 56.0532 13.0769 733 122.491 663.641 469.603
87 0 58.0928 11.9808 696 121.908 663.598 475.55
88 0 61.1428 11.4977 703 123.202 663.747 471.011
89 0 62.2335 11.1194 692 123.646 663.358 471.981
90 0 63.1086 11.9477 754 123.389 662.743 471.532
91 0 67.0787 12.1052 812 123.039 662.664 471.219
92 0 69.2957 10.8665 753 125.56 662.186 467.08
93 0 70.1756 12.0127 843 123.839 661.153 469.024
94 0 75.246 13.6087 1024 120.29 661.025 468.445
95 0 77.2054 12.3437 953 123.165 658.98 465.442
96 1 44.1026 10.9064 481 122.892 659.852 483.264
97 0 44.0603 10.2587 452 122.903 659.113 484.029
98 0 47.1509 13.1917 622 119.066 658.937 478.931
99 0 50.1563 13.0991 657 119.046 658.167 476.104
100 0 50.0367 9.63294 482 125.745 657.253 477.496
101 0 51.0929 11.8608 606 123.238 655.47 473.969
102 0 51.0535 12.6338 645 121.172 655.749 475.347
103 0 53.1213 12.2926 653 121.458 655.854 471.802
104 0 54.043 12.5826 680 120.94 655.906 472.481
105 0 57.1844 11.4891 657 123.298 655.886 469.441
106 0 58.1062 12.133 705 121.858 655.152 467.261
107 0 60.2044 12.7233 766 121.174 655.933 464.854
108 0 62.1944 12.5413 780 120.638 656.246 464.082
109 0 65.1009 14.0705 916 119.036 655.784 461.035
110 0 67.1803 14.8109 995 117.598 656.029 459.894
111 0 69.1698 11.2477 778 121.299 656.004 462.323
112 0 71.0493 14.8911 1058 115.863 658.404 457.543
113 0 75.4314 15.2324 1149 115.568 658.571 456.043
114 0 75.2318 15.0734 1134 117.011 659.658 453.616
115 0 77.1397 11.4468 883 123.032 659.292 449.95
116 0 81.1498 13.1608 1068 119.788 660.56 450.207
117 0 84.1113 12.1625 1023 121.799 660.569 451.188
118 0 88.0898 14.8485 1308 118.729 660.674 445.872
119 1 47.0475 12.1792 573 120.536 660.452 465.23
120 0 48.0303 12.7211 611 117.802 660.941 466.637
121 0 50.2164 13.9994 703 115.34 662.098 466.772
122 0 53.1592 13.4502 715 116.256 662.631 466.138
123 0 55.0883 16.5915 914 111.289 663.45 464.748
124 0 55.0846 12.2176 673 118.357 662.795 466.758
125 0 57.2051 14.9287 854 113.207 663.536 468.048
126 0 60.1066 14.7738 888 113.396 663.198 468.001
127 0 62.0844 15.5756 967 113.131 663.842 465.298
128 0 63.1688 13.7884 871 116.548 664.083 467.082
129 0 64.1466 14.6851 942 116.174 662.895 463.617
130 0 66.1321 13.8813 918 116.584 663.328 466.645
131 0 68.2407 13.6282 930 117.491 663.424 465.86
132 0 72.1622 14.2873 1031 115.319 663.26 465.809
133 0 72.1651 13.9264 1005 117.208 662.058 463.177
134 0 73.1354 11.2531 823 121.556 659.857 464.584
135 0 77.1846 15.6897 1211 114.081 660.822 465.524
136 0 80.0808 15.4219 1235 115.443 660.133 460.507
137 0 82.2501 13.6048 1119 119.517 660.89 463.53
138 0 83.1125 11.8755 987 123.316 658.724 459.647
139 0 88.1944 15.0803 1330 116.926 658.92 457.615
140 1 44.1881 11.0437 488 119.113 656.736 480.385
141 0 45.1233 11.1029 501 119.096 655.766 478.261
142 0 45.2674 9.38866 425 121.979 655.459 475.195
143 0 48.1926 12.367 596 116.732 655.186 474.582
144 0 48.0493 14.0481 675 113.73 654.255 474.077
145 0 48.0609 11.3814 547 118.048 654.165 472.633
146 0 51.0959 11.6643 596 117.555 653.624 471.733
147 0 52.1131 10.7842 562 117.904 653.422 469.318
148 0 56.1764 13.2974 747 112.763 654.098 470.103
149 0 59.1745 11.7787 697 114.773 653.034 468.745
150 0 59.077 13.8802 820 111.901 654.33 464.645
151 0 60.1913 11.2641 678 113.239 654.192 468.153
152 0 64.1481 13.1882 846 110.736 654.369 463.713
153 0 64.0745 9.8011 628 117.115 654.865 456.863
154 0 66.1322 11.0385 730 113.073 655.651 460.762
155 0 71.0678 14.5917 1037 108.296 655.547 457.457
156 0 71.1244 14.088 1002 110.33 656.132 451.69
157 0 72.1457 12.7104 917 112.124 656.557 453.055
158 0 75.2491 12.8905 970 111.026 657.02 453.782
159 0 76.1653 11.0943 845 114.207 658.372 454.26
160 0 81.1587 16.3137 1324 106.847 658.314 449.874
161 0 83.1203 12.2353 1017 113.028 659.355 445.868
162 1 45.0314 11.9916 540 110.356 659.833 467.557
163 0 46.0466 12.4005 571 111.87 660.771 464.832
164 0 51.0985 15.93 814 103.9 660.73 467.295
165 0 51.1781 13.2479 678 108.037 660.678 463.23
166 0 50.0769 11.9616 599 106.629 661.516 470.855
167 0 53.1303 11.9706 636 106.123 660.934 471.932
168 0 57.0697 20.6765 1180 96.9949 661.666 469.59
169 0 57.1432 13.2299 756 108.143 662.173 467.446
170 0 61.2941 14.357 880 106.176 661.498 469.902
171 0 61.2941 14.4386 885 125.99 661.476 470.056
172 0 63.1638 13.1879 833 109.22 661.585 469.473
173 0 65.2312 13.8277 902 108.665 660.998 471.5
174 0 64.0852 13.1856 845 112.602 661.369 466.856
175 0 68.108 16.5766 1129 106.526 660.5 471.058
176 0 72.1646 15.7418 1136 108.832 660.445 468.48
177 0 72.1789 12.3859 894 114.19 659.973 469.691
178 0 75.1903 13.0602 982 114.954 659.172 466.423
179 0 78.2118 15.522 1214 111.661 659.416 464.807
180 0 86.7988 16.8781 1465 104.855 657.47 473.957
181 0 82.1791 14.5901 1199 115.037 656.914 463.619
182 0 80.202 11.5833 929 120.89 656.449 465.17
183 0 85.1795 12.8552 1095 120.886 656.676 457.127
184 1 51.1643 13.2319 677 115.721 654.514 479.867
185 0 50.281 13.0666 657 117.563 654.533 475.201
186 0 54.3173 13.0713 710 117.797 653.958 475.362
187 0 56.1721 18.924 1063 108.638 653.332 474.166
188 0 58.0872 14.7192 855 115.775 653.609 471.345
189 0 58.1338 13.8474 805 118.221 652.36 467.322
190 0 64.1438 15.4496 991 113.138 652.419 470.081
191 0 63.3058 14.4694 916 117.12 651.449 467.445
192 0 63.114 15.7017 991 116.162 652.233 463.555
193 0 64.1629 14.8996 956 126.282 652.155 463.815
194 0 68.3667 11.6577 797 121.861 652.009 462.309
195 0 70.277 12.7353 895 121.696 653.057 459.375
196 0 70.2128 13.1315 922 122.792 653.125 458.709
197 0 75.119 15.2159 1143 118.687 654.097 456.72
198 0 78.1368 14.1291 1104 119.404 654.188 456.134
199 0 78.1368 14.1419 1105 142.077 655.182 456.32
200 0 84.3521 17.913 1511 115.471 656.043 449.656
201 0 87.2259 12.9319 1128 122.116 654.942 450.967
202 0 88.2206 17.8076 1571 115.37 656.301 448.502
203 1 48.0709 11.587 557 120.102 656.856 468.571
204 0 48.0709 11.5662 556 139.234 657.833 468.664
205 0 52.1519 15.2248 794 112.441 659.171 467.188
206 0 52.4199 14.0405 736 116.185 659.815 467.527
207 0 52.0796 15.7259 819 115.125 660.134 464.683
208 0 55.0928 15.1381 834 114.675 661.278 467.938
209 0 54.1298 13.0797 708 118.799 661.903 469.766
210 0 56.0995 13.8326 776 120.36 661.357 466.595
211 0 60.0932 15.1265 909 114.606 662.104 469.86
212 0 62.1736 16.0197 996 114.657 662.057 469.102
213 0 62.167 11.3565 706 124.042 661.118 468.676
214 0 65.2779 12.2093 797 120.614 661.066 469.837
215 0 67.3194 14.9585 1007 118.038 661.534 466.059
216 0 70.0918 17.3772 1218 114.167 661.593 468.052
217 0 73.1801 14.5258 1063 118.143 660.561 468.291
218 0 75.1356 12.4841 938 122.294 660.434 468.438
219 0 79.201 12.0201 952 121.778 659.905 469.696
220 0 81.0535 15.1135 1225 119.216 658.926 461.878
221 0 87.2041 15.3089 1335 117.616 658.847 464.763
222 1 43.2183 12.7492 551 114.457 658.552 482.88
223 0 45.0314 11.7251 528 117.426 657.301 482.729
224 0 47.1541 13.1484 620 119.065 656.303 483.1
225 0 47.1541 13.0636 616 134.766 655.304 483.029
226 0 47.2025 10.2749 485 120.996 654.932 483.507
227 0 48.0701 10.9631 527 121.383 653.875 483.129
228 0 48.0772 10.0671 484 122.194 652.969 482.231
229 0 52.0842 13.7278 715 116.752 652.252 478.611
230 0 54.0878 12.1099 655 118.507 651.305 478.006
231 0 53.1362 12.5715 668 120.169 650.311 476.109
232 0 55.1964 11.1602 616 121.709 650.914 476.435
233 0 56.2769 12.5096 704 120.07 651.101 475.581
234 0 59.0964 12.9788 767 120.116 649.896 468.87
235 0 63.1021 11.3942 719 119.339 650.86 474.562
236 0 65.1191 14.3583 935 117.588 650.584 466.521
237 0 66.1092 11.0121 728 122.791 650.206 463.155
238 0 69.454 10.2946 715 122.565 650.368 463.938
239 0 76.1581 13.17 1003 116.627 649.988 461.811
240 0 75.2107 13.4024 1008 119.79 651.955 457.495
241 0 74.3002 11.8304 879 123.238 651.38 456.356
242 0 80.2153 13.8502 1111 119.688 652.577 457.231
243 0 84.3801 14.0792 1188 119.918 653.076 450.87
244 0 86.1516 11.1896 964 122.392 652.085 458.037
245 1 48.1084 14.301 688 115.253 653.84 469.385
246 0 48.0712 11.5246 554 122.392 653.433 469.375
247 0 51.2694 13.3608 685 119.196 654.207 467.553
248 0 51.0567 11.6341 594 117.357 655.059 469.99
249 0 53.0897 12.0739 641 116.864 655.894 469.744
250 0 54.0377 13.7497 743 115.059 656.579 467.178
251 0 55.2188 13.9626 771 115.546 656.292 467.075
252 0 62.0584 12.2626 761 115.011 657.884 469.227
253 0 60.1125 11.4951 691 118.077 658.506 467.327
254 0 63.1844 14.8929 941 111.947 658.531 469.647
255 0 64.0658 13.5173 866 116.793 658.769 465.164
256 0 69.2222 14.8363 1027 113.035 658.184 465.862
257 0 67.0834 13.6695 917 116.604 659.639 464.718
258 0 71.2589 14.8052 1055 114.207 659.072 465.675
259 0 74.0968 14.4676 1072 114.35 660.184 466.746
260 0 79.2936 17.0127 1349 108.948 659.477 469.772
261 0 79.2084 16.2735 1289 111.493 658.684 466.357
262 0 81.253 12.8857 1047 116.91 658.794 463.077
263 0 83.2344 11.81 983 117.182 657.656 467.909
264 0 87.2755 18.3213 1599 109.138 658.674 462.543
265 0 91.3125 12.7365 1163 116.638 657.33 464.245
266 0 92.1202 11.2679 1038 119.837 657.239 460.408
267 1 50.0218 12.8144 641 113.501 655.608 482.838
268 0 50.0908 12.0781 605 115.056 655.17 482.246
269 0 49.1091 11.3625 558 134.185 655.077 481.652
270 0 55.09 15.9194 877 108.979 653.123 478.707
271 0 54.061 13.8732 750 112.195 653.063 480.257
272 0 57.2546 14.2172 814 111.934 653.614 474.859
273 0 57.2546 14.4093 825 139.984 654.598 474.747
274 0 60.109 14.4571 869 111.61 652.016 474.676
275 0 61.0444 14.0881 860 112.41 651.034 472.224
276 0 66.2613 18.3063 1213 105.913 651.819 468.878
277 0 70.1014 16.0054 1122 107.749 651.032 468.071
278 0 71.1483 15.1936 1081 109.177 650.996 465.698
279 0 73.0944 14.2418 1041 114.255 651.308 463.801
280 0 76.1273 14.3838 1095 115.119 650.705 461.96
281 0 78.1285 15.9097 1243 113.862 650.5 455.456
282 0 82.198 13.796 1134 116.496 650.028 456.307
283 0 83.1692 13.5387 1126 117.428 651.532 454.176
284 1 47.2531 14.6445 692 108.835 651.434 476.152
285 0 45.0337 14.4114 649 113.513 651.9 471.273
286 0 45.0687 12.248 552 118.938 651.904 468.143
287 0 47.1765 13.3541 630 111.989 653.173 466.179
288 0 49.0854 13.833 679 112.04 653.512 466.474
289 0 49.0496 13.7004 672 114.466 654.366 466.716
290 0 47.0747 12.2571 577 118.395 655.279 463.399
291 0 52.057 13.5428 705 115.207 656.237 464.363
292 0 54.0906 14.6976 795 112.996 656.448 465.262
293 0 57.1943 15.6309 894 108.305 658.239 467.384
294 0 57.1521 11.4781 656 117.837 657.308 462.831
295 0 56.1451 11.595 651 119.525 658.704 463.636
296 0 59.1117 12.248 724 118.023 659.425 461.365
297 0 63.0891 12.839 810 116.079 660.011 461.611
298 0 66.158 14.0421 929 112.325 661.485 463.574
299 0 71.3454 13.1053 935 113.838 660.882 462.59
300 0 72.2553 13.0786 945 116.246 661.45 462.358
301 0 75.1944 13.8441 1041 113.737 660.627 460.575
302 1 40.163 13.7938 554 113.744 660.475 477.975
303 0 44.2172 14.4288 638 110.317 659.765 479.759
304 0 44.0917 13.3585 589 113.781 659.757 480.309
305 0 45.058 15.0251 677 110.897 660.394 481.709
306 0 46.1227 12.8136 591 116.244 658.577 480.937
307 0 47.0386 13.0531 614 115.956 659.366 481.651
308 0 48.1297 12.5702 605 117.129 658.131 479.831
309 0 49.1634 11.4109 561 120.184 658.287 481.255
310 0 52.0926 13.572 707 116.709 657.982 479.982
311 0 53.2964 13.2842 708 117.821 657.011 478.494
312 0 56.1446 15.0504 845 113.812 656.445 478.404
313 0 57.0912 13.7324 784 117.059 655.795 474.686
314 0 57.3232 14.0781 807 116.206 655.955 476.16
315 0 59.1444 15.4875 916 114.415 654.801 475.037
316 0 61.0459 14.6611 895 116.834 655.591 472.172
317 0 63.1147 12.9605 818 119.765 653.553 472.05
318 0 63.1147 12.9764 819 141.901 651.563 472.059
319 0 67.3051 15.1252 1018 117.114 652.665 469.506
320 0 68.1202 17.9536 1223 113.635 652.716 462.633
321 0 73.2256 22.5331 1650 105.644 653.096 465.942
322 0 72.2916 15.2438 1102 118.333 652.774 460.996
323 0 74.2815 13.9469 1036 121.277 653.03 459.619
324 0 75.2356 15.0859 1135 119.261 652.35 459.528
325 0 78.4635 14.8859 1168 119.949 653.124 456.219
326 0 83.5913 19.4996 1630 111.725 653.661 452.748
327 0 83.5913 19.392 1621 131.674 654.65 452.787
328 1 39.0339 10.0938 394 125.774 654.467 469.645
329 0 42.0353 12.0375 506 121.476 654.02 469.565
330 0 46.0599 13.5693 625 115.251 655.571 468.734
331 0 45.1747 11.7544 531 118.793 656.094 466.874
332 0 48.0532 14.0053 673 115.547 656.993 466.334
333 0 52.1295 13.1979 688 116.196 657.186 467.439
334 0 51.1388 14.0207 717 115.517 657.35 466.589
335 0 52.2453 15.1401 791 113.272 658.231 466.212
336 0 51.3684 12.9068 663 119.789 659.326 463.726
337 0 55.1149 12.2471 675 118.61 659.136 465.36
338 0 55.044 13.3348 734 117.869 660.08 463.967
339 0 60.2639 15.8138 953 112.627 661.306 465.431
340 0 60.1153 12.7255 765 120.212 662.267 462.08
341 0 63.2656 16.897 1069 113.297 661.353 462.687
342 0 63.2259 13.4755 852 121.133 662.167 461.69
343 0 66.1226 15.6225 1033 117.927 663.171 459.097
344 0 68.3446 13.8709 948 121.885 662.449 461.384
345 0 71.0909 14.3056 1017 122.664 663.314 461.156
346 0 72.176 14.9496 1079 120.999 663.181 463.677
347 0 77.5133 16.7713 1300 117.428 662.572 464.391
348 0 78.1884 14.8104 1158 123.403 662.087 458.491
349 0 80.5301 16.9005 1361 120.805 662.404 456.467
350 1 42.291 12.6504 535 122.841 660.864 477.086
351 0 45.255 13.2582 600 122.067 660.575 476.592
352 0 49.0542 15.4727 759 113.765 660.461 477.406
353 0 49.0804 15.3626 754 112.389 660.346 481.025
354 0 46.0554 13.7877 635 119.37 660.238 478.717
355 0 51.1344 12.9463 662 118.248 658.545 478.269
356 0 51.2006 14.4725 741 116.718 657.818 474.945
357 0 53.1599 12.3589 657 120.008 657.569 476.37
358 0 55.2438 12.7073 702 118.979 657.613 474.198
359 0 59.1759 14.4654 856 115.056 657.611 473.456
360 0 59.4172 17.5707 1044 109.753 657.617 473.587
361 0 60.093 12.9466 778 119.608 655.718 469.156
362 0 63.1614 19.5531 1235 109.383 655.828 463.908
363 0 65.1404 16.2265 1057 114.804 655.36 464.053
364 0 70.0813 15.6247 1095 114.157 655.131 461.47
365 0 71.1707 15.6525 1114 115.531 655.589 458.436
366 0 72.509 14.3155 1038 117.949 656.532 455.942
367 0 72.509 14.4396 1047 135.661 658.487 455.973
368 0 77.2323 15.0067 1159 116.412 655.644 457.082
369 1 39.0837 11.4114 446 119.493 655.401 470.049
370 0 42.1418 9.94262 419 119.446 655.847 473.129
371 0 44.2085 14.6578 648 114.779 655.955 468.157
372 0 46.0356 18.1816 837 109.619 656.029 467.1
373 0 46.0839 15.602 719 111.993 655.516 465.179
374 0 46.0373 12.2727 565 118.112 656.506 466.246
375 0 49.1225 12.2144 600 117.898 656.82 466.092
376 0 51.0538 14.7687 754 114.98 657.903 463.31
377 0 55.184 17.9219 989 112.355 659.868 464.415
378 0 55.1577 17.8035 982 129.804 661.942 464.411
379 0 56.0657 13.609 763 121.071 661.026 461.037
380 0 58.0967 13.7874 801 119.492 662.036 460.956
381 0 61.089 12.1953 745 120.907 662.124 460.634
382 0 60.1158 13.0914 787 122.578 664.009 456.508
383 0 67.1211 15.1815 1019 117.057 664.373 456.746
384 0 69.3116 16.5052 1144 115.324 663.2 458.605
385 0 69.1411 13.8847 960 121.035 663.778 457.091
386 0 72.2557 14.6978 1062 119.573 663.676 457.379
387 0 72.3052 14.3973 1041 118.59 664.454 460.516
388 0 72.3052 14.425 1043 133.142 664.446 460.616
389 1 40.2234 12.182 490 119.514 664.063 476.027
390 0 41.0674 12.9543 532 117.991 663.632 478.32
391 0 45.1582 18.9999 858 106.779 663.85 477.494
392 0 45.1527 14.5949 659 115.149 663.794 477.804
393 0 43.023 11.5752 498 119.175 661.775 479.902
394 0 45.0926 11.3766 513 118.105 662.942 480.205
395 0 46.1359 12.94 597 117.631 661.399 478.117
396 0 48.0677 14.2091 683 114.912 661.751 478.878
397 0 48.1373 11.4256 550 120.405 661.742 479.564
398 0 51.3577 14.2919 734 116.681 659.725 476.35
399 0 52.2705 11.517 602 120.424 658.552 478.116
400 0 53.1202 12.8765 684 117.914 658.276 478.798
401 0 56.0853 12.7306 714 117.655 658.657 473.368
402 0 57.0524 12.9355 738 119.061 657.711 469.434
403 0 60.1403 14.9983 902 115.405 657.518 470.674
404 0 62.3352 15.1921 947 114.881 656.267 471.562
405 0 64.2435 13.2154 849 118.722 655.251 469.122
406 0 65.4196 12.6262 826 119.351 654.484 469.315
407 0 68.565 13.5054 926 119.491 654.102 464.019
408 0 71.2631 14.7201 1049 116.98 653.007 463.156
409 0 72.2762 12.4937 903 121.226 654.296 462.151
410 0 76.2122 14.6433 1116 116.97 654.529 462.199
411 0 76.3512 11.0018 840 125.823 654.87 457.595
412 1 37.1292 10.2076 379 126.087 655.475 478.05
413 0 39.065 11.3913 445 124.076 655.364 473.728
414 0 39.0777 12.4879 488 123 655.627 472.537
415 0 42.013 12.9484 544 120.086 655.75 470.281
416 0 44.0848 13.6101 600 119.125 656.578 468.693
417 0 43.0824 12.1627 524 120.975 654.943 469.569
418 0 43.0775 12.2338 527 129.237 653.926 469.571
419 0 43.0775 12.2106 526 128.776 652.937 469.587
420 0 47.1033 15.3705 724 118.195 657.318 464.902
421 0 49.0333 12.5425 615 121.351 658.732 467.915
422 0 52.1547 15.5307 810 116.519 658.868 466.495
423 0 52.0449 13.7189 714 121.338 659.968 464.468
424 0 54.1884 14.5972 791 117.947 659.7 466.44
425 0 56.1104 14.7923 830 118.902 660.729 462.567
426 0 59.1678 14.6532 867 119.045 661.557 462.784
427 0 61.1875 17.6997 1083 113.574 661.987 463.16
428 0 64.1741 11.9207 765 122.54 663.737 465.859
429 0 64.2924 15.6317 1005 117.763 663.993 462.102
430 0 65.2412 13.3811 873 120.263 663.967 465.011
431 0 69.2505 16.6064 1150 114.388 663.33 464.804
432 0 70.0959 18.5032 1297 111.455 663.464 464.454
433 0 70.1083 13.0227 913 121.926 663.289 462.458
434 0 75.2935 13.7329 1034 119.184 662.42 465.832
435 0 79.151 13.0763 1035 117.494 662.819 464.625
436 0 82.1826 16.4512 1352 112.728 662.415 464
437 1 44.1417 12.4825 551 117.051 662.446 484.757
438 0 43.1611 11.5845 500 119.018 661.652 483.822
439 0 44.1247 14.527 641 115.956 661.031 480.819
440 0 46.0918 13.6033 627 116.568 661.53 483.496
441 0 46.0804 13.1509 606 120.167 661.246 479.601
442 0 49.2607 14.677 723 115.882 660.126 480.776
443 0 49.1288 14.2279 699 117.386 660.289 479.312
444 0 54.3097 15.9088 864 111.924 660.081 479.522
445 0 55.1918 14.0057 773 115.639 658.063 477.295
446 0 54.2115 15.1444 821 112.599 658.039 478.7
447 0 57.2492 13.7295 786 114.939 657.952 475.882
448 0 60.214 14.4152 868 113.295 657.554 473.441
449 0 61.2715 13.5789 832 112.857 656.502 469.853
450 0 61.2348 16.4286 1006 109.433 655.567 466.252
451 0 67.2208 14.9507 1005 110.664 655.281 467.629
452 0 66.2117 13.4266 889 113.962 655.171 465.733
453 0 68.2215 15.5816 1063 110.627 654.783 462.371
454 0 71.1307 16.4064 1167 108.699 654.979 460.171
455 0 74.1755 13.7377 1019 111.701 654.527 460.825
456 0 75.1011 15.4059 1157 110.895 654.658 455.607
457 1 37.0572 7.17809 266 118.598 653.771 478.041
458 0 38.0488 9.93461 378 115.646 653.415 475.595
459 0 42.0505 12.8655 541 111.124 652.074 471.673
460 0 42.0581 12.6254 531 110.578 653.35 471.441
461 0 45.1951 14.0944 637 108.411 654.615 470.67
462 0 47.1778 13.057 616 109.731 655.445 469.857
463 0 50.2232 14.1767 712 108.596 656.636 468.778
464 0 51.1674 12.7229 651 111.128 656.234 469.189
465 0 53.0901 12.5259 665 110.806 658.39 469.021
466 0 54.0879 12.8679 696 109.443 659.254 470.453
467 0 59.1332 15.8456 937 104.979 658.561 467.912
468 0 59.1434 14.2535 843 108.921 660.074 468.591
469 0 60.3254 11.4877 693 112.131 661.118 469.163
470 0 65.1339 13.2343 862 109.474 661.019 467.835
471 0 62.2512 8.0641 502 118.197 661.145 469.681
472 0 70.1038 16.6182 1165 104.947 661.176 468.454
473 0 71.2584 15.1982 1083 106.565 661.507 465.576
474 0 76.2845 14.4459 1102 106.705 662.017 468.928
475 0 75.2316 17.9313 1349 104.219 661.457 466.46
476 0 79.2328 13.8074 1094 109.767 661.121 468.583
477 0 83.3126 17.8604 1488 104.011 660.19 464.657
478 0 85.4815 12.7864 1093 111.78 659.455 464.375
479 1 42.1102 12.3723 521 102.731 660.148 494.929
480 0 43.0472 11.801 508 112.136 659.211 487.778
481 0 44.0364 11.5359 508 112.512 658.547 491.039
482 0 47.0918 12.0403 567 111.337 658.459 491.547
483 0 47.1916 13.371 631 111.081 656.483 488.404
484 0 53.2591 20.8227 1109 99.8061 654.479 488.772
485 0 52.1799 17.248 900 105.96 652.287 486.349
486 0 53.0262 14.4268 765 110.924 650.918 484.667
487 0 54.1641 14.1422 766 110.918 651.58 486.08
488 0 55.1716 10.4401 576 118.278 650.944 483.964
489 0 61.1376 14.4101 881 109.507 650.636 482.006
490 0 61.1997 12.7452 780 113.106 650.609 478.226
491 0 63.2843 11.7723 745 114.004 650.16 479.136
492 0 69.1553 14.5614 1007 108.278 649.292 477.524
493 0 69.1553 14.6482 1013 122.28 648.292 477.557
494 0 73.207 15.8455 1160 110.566 649.666 470.841
495 0 72.125 14.4749 1044 114.217 649.273 467.135
496 0 75.4615 15.3323 1157 110.721 648.567 470.445
497 0 79.2162 14.4667 1146 112.494 649.779 461.645
498 0 83.3856 16.3338 1362 110.043 648.673 461.088
499 0 84.3168 12.9512 1092 116.138 649.688 455.646
500 1 43.0727 12.4673 537 113.423 649.501 475.663
501 0 47.2565 11.8714 561 112.818 651.152 475.426
502 0 50.1217 10.275 515 109.186 651.697 475.895
503 0 50.2833 14.4382 726 103.982 652.333 476.365
504 0 51.088 11.7836 602 109.522 652.503 470.482
505 0 58.6514 20.4599 1200 95.4833 653.642 470.243
506 0 54.1636 19.1088 1035 98.0937 654.264 472.387
507 0 57.1395 14.5259 830 106.242 654.688 466.529
508 0 57.1383 13.6511 780 107.987 656.117 465.337
509 0 60.115 17.1172 1029 101.547 656.819 463.12
510 0 62.2264 16.665 1037 103.144 657.055 462.733
511 0 65.1814 12.9485 844 106.275 657.286 464.332
512 0 67.2008 15.1635 1019 103.824 658.497 458.245
513 0 69.0908 15.5592 1075 103.98 659.179 457.147
514 0 75.3242 15.2541 1149 102.287 659.127 465.395
515 0 77.1834 15.8972 1227 102.549 660.901 459.365
516 0 76.228 12.8562 980 107.539 660.679 459.594
517 0 80.2074 13.0537 1047 106.542 661.303 464.77
518 0 83.2095 22.3051 1856 95.1686 660.996 463.13
519 1 41.0481 13.9105 571 103.949 661.904 482.525
520 0 41.1065 9.73082 400 112.355 661.858 481.055
521 0 44.0274 11.4928 506 109.348 661.605 482.267
522 0 47.1818 13.2254 624 104.107 661.181 485.21
523 0 50.2762 20.0095 1006 96.7346 659.978 478.768
524 0 51.4525 11.5058 592 109.242 659.468 484.704
525 0 50.1496 15.3939 772 104.759 657.865 484.273
526 0 54.0903 11.2405 608 109.952 658.812 484.942
527 0 52.3064 11.2223 587 111.809 657.901 483.472
528 0 52.1482 11.5248 601 110.948 656.839 483.953
529 0 54.0571 12.5978 681 110.58 654.728 482.092
530 0 55.1538 18.5119 1021 100.393 653.53 485.17
531 0 54.048 11.6748 631 111.203 654.219 480.247
532 0 61.1955 12.9258 791 107.85 652.478 477.247
533 0 62.2422 11.1179 692 110.217 652.075 476.623
534 0 64.0426 14.1 903 105.941 650.072 473.12
535 0 66.0684 14.5758 963 105.31 648.151 471.858
536 0 68.1167 15.0917 1028 104.726 648.563 471.866
537 0 67.217 11.4554 770 110.316 647.322 466.405
538 0 73.305 12.3457 905 103.354 648.234 469.988
539 0 71.1278 12.6673 901 104.346 647.467 464.676
540 0 78.292 13.1431 1029 104.19 650.47 462.365
541 0 79.3427 13.5362 1074 103.494 647.29 461.336
542 0 82.1599 12.0618 991 107.108 647.343 457.143
543 1 43.0964 14.1543 610 100.484 650.43 477.715
544 0 46.1235 12.6833 585 101.335 649.747 479.986
545 0 46.1573 13.1724 608 100.893 651.301 479.02
546 0 47.0419 10.1399 477 104.801 651.117 478.18
547 0 53.1991 12.8762 685 100.343 654.606 475.385
548 0 52.0778 13.5182 704 99.3253 654.727 473.93
549 0 52.0824 11.3858 593 103.305 654.928 471.658
550 0 57.3157 13.539 776 100.13 655.554 469.858
551 0 57.1408 19.2507 1100 95.1173 654.891 466.098
552 0 59.173 12.4888 739 102.126 654.897 466.79
553 0 60.0929 13.2794 798 102.068 655.95 466.234
554 0 60.0929 13.2961 799 129.364 657.917 466.034
555 0 65.3544 14.4596 945 100.451 656.871 463.699
556 0 68.0663 12.8845 877 101.976 657.366 467.447
557 0 70.1929 11.5111 808 102.469 658.98 470.589
558 0 71.1242 11.7822 838 105.047 659.382 463.871
559 0 76.1407 14.9985 1142 101.053 658.936 461.615
560 0 79.0895 14.5278 1149 100.889 658.789 466.956
561 0 80.0501 17.6764 1415 97.8544 658.316 467.5
562 0 80.1241 10.8082 866 107.371 658.81 464.466
563 0 84.2141 13.5369 1140 104.509 657.994 464.446
564 0 87.1653 12.3444 1076 105.046 657.973 468.261
565 1 45.0687 11.2051 505 104.863 658.323 484.428
566 0 46.1221 9.62662 444 107.009 658.119 485.471
567 0 50.283 11.6341 585 101.839 658.386 488.089
568 0 51.0989 14.56 744 98.4987 656.812 485.763
569 0 52.2148 10.227 534 103.208 656.848 486.848
570 0 51.1071 10.3313 528 104.383 655.485 483.35
571 0 56.1404 13.8937 780 98.85 654.132 484.799
572 0 57.1264 14.004 800 98.88 655.004 484.941
573 0 59.2189 14.0496 832 99.1779 652.802 482.364
574 0 60.2564 16.4962 994 97.5463 652.095 479.129
575 0 61.1221 18.2422 1115 94.965 651.187 475.267
576 0 64.1773 12.2785 788 101.831 651.071 475.074
577 0 67.294 12.8986 868 100.725 651.031 471.776
578 0 71.459 16.6249 1188 96.8855 650.799 473.252
579 0 72.1336 13.8909 1002 100.934 651.348 469.167
580 0 73.2091 16.7466 1226 98.3703 649.814 471.629
581 0 74.4684 12.6228 940 105.277 650.403 464.561
582 0 78.1243 12.8001 1000 104.534 650.534 465.459
583 0 82.1419 10.4332 857 108.033 651.251 461.683
584 0 85.1854 14.0165 1194 104.78 651.312 461.507
585 0 90.3769 18.0909 1635 98.2991 650.667 463.557
586 1 43.1439 9.38719 405 107.753 652.259 482.319
587 0 42.1038 10.9491 461 109.165 652.963 477.794
588 0 46.2282 14.9692 692 103.591 653.003 475.876
589 0 46.093 10.9127 503 110.137 649.58 472.594
590 0 46.0621 11.3325 522 110.686 650.151 475.069
591 0 50.041 14.3682 719 105.775 650.905 472.989
592 0 53.1426 15.3549 816 103.188 651.947 473.814
593 0 51.1535 10.185 521 112.925 652.273 472.958
594 0 53.0966 15.4435 820 107.272 652.744 471.727
595 0 56.1204 15.6628 879 107.67 653.403 467.45
596 0 57.077 12.5795 718 110.309 654.532 472.741
597 0 59.2049 11.5024 681 114.366 654.912 468.883
598 0 59.2098 11.7717 697 114.859 655.043 468.287
599 0 63.1583 11.4316 722 114.568 656.4 468.765
600 0 64.1557 11.2539 722 113.734 657.165 472.794
601 0 66.2176 12.5948 834 111.674 656.815 473.397
602 0 68.2383 13.9218 950 111.753 657.634 466.761
603 0 68.2554 13.8597 946 132.422 659.654 466.752
604 0 74.221 12.9343 960 111.692 657.05 469
605 0 75.2252 14.4898 1090 111.265 656.417 466.117
606 0 79.2526 12.9964 1030 112.167 656.93 470.607
607 0 81.2436 11.3855 925 116.764 656.735 467.504
608 1 44.3138 11.4186 506 114.271 655.281 486.253
609 0 44.0696 10.5288 464 116.33 655.265 486.957
610 0 50.1192 12.0513 604 113.944 655.119 484.012
611 0 46.049 10.0111 461 108.746 655.375 483.171
612 0 47.1558 11.4726 541 106.37 654.983 479.519
613 0 47.0823 9.38782 442 109.038 655.048 480.314
614 0 48.0832 13.4142 645 108.783 653.794 484.74
615 0 50.1094 9.04022 453 114.839 653.815 483.018
616 0 52.2625 6.29515 329 117.86 650.392 481.568
617 0 56.1255 11.2248 630 109.871 650.862 480.078
618 0 58.3197 10.9397 638 108.94 650.611 480.144
619 0 61.3952 13.7959 847 105.213 650.871 475.694
620 0 59.1474 9.62004 569 110.301 648.91 477.696
621 0 63.3608 10.7795 683 109.586 649.851 470.236
622 0 65.3386 11.295 738 107.659 649.468 475.976
623 0 71.1011 12.8831 916 106.334 649.373 471.633
624 0 68.1634 12.4554 849 109.225 648.299 467.264
625 0 71.161 12.816 912 108.474 648.743 467.326
626 0 72.1871 11.0823 800 112.27 649.926 466.169
627 0 74.2125 8.43524 626 113.92 648.003 467.829
628 0 79.3541 12.753 1012 109.093 649.083 459.149
629 0 81.3045 11.8936 967 110.001 649.854 459.798
630 0 85.3245 14.0288 1197 107.06 649.83 459.088
631 1 44.1366 13.7074 605 109.813 649.545 475.301
632 0 47.1091 13.4794 635 109.78 649.378 473.022
633 0 46.0351 11.0785 510 113.935 653.882 472.427
634 0 49.252 13.1568 648 110.218 651.972 474.248
635 0 52.1243 13.4294 700 108.627 654.727 470.866
636 0 51.212 13.0633 669 110.891 654.886 470.291
637 0 53.0768 14.4319 766 109.396 654.935 469.057
638 0 52.0494 10.9703 571 115.392 655.068 472.375
639 0 56.1915 11.5676 650 114.203 655.135 471.138
640 0 56.2364 10.0291 564 116.374 655.872 470.459
641 0 59.079 12.6102 745 110.507 657.076 474.495
642 0 61.1547 12.591 770 111.469 656.236 471.086
643 0 65.0968 13.5183 880 109.947 656.325 467.673
644 0 67.2323 11.4379 769 112.202 657.449 468.243
645 0 70.2097 10.7677 756 112.558 657.455 470.585
646 0 72.293 12.5185 905 111.608 657.056 466.916
647 0 78.1764 12.216 955 110.046 657.11 467.459
648 0 81.3224 14.67 1193 107.098 656.511 465.438
649 0 81.3298 11.7423 955 118.092 656.665 467.673
650 0 85.3421 14.4712 1235 115.558 656.163 460.777
651 1 42.0263 9.89856 416 117.558 655.784 486.012
652 0 45.0905 10.9779 495 117.204 656.448 485.002
653 0 45.1595 11.4705 518 115.768 658.415 485.527
654 0 47.0684 12.5562 591 113.643 658.629 486.509
655 0 47.1582 10.7935 509 114.804 658.065 484.369
656 0 48.1702 12.9748 625 109.542 654.846 486.71
657 0 48.067 8.65458 416 114.983 652.411 489.57
658 0 51.1625 10.7305 549 114.74 653.599 483.898
659 0 54.1044 13.1228 710 110.983 652.008 481.393
660 0 54.1156 11.7896 638 112.98 652.044 484.447
661 0 55.1165 11.8113 651 112.287 650.719 483.645
662 0 58.0595 12.7972 743 111.934 651.16 480.001
663 0 59.0375 11.6028 685 114.715 651.134 478.985
664 0 64.0594 12.8631 824 110.432 650.902 479.258
665 0 61.1474 9.5834 586 117.159 650.128 478.517
666 0 64.1581 13.5914 872 111.483 649.875 472.13
667 0 66.2195 13.0626 865 111.649 649.56 472.156
668 0 68.1342 11.3893 776 114.232 650.742 471.826
669 0 72.1602 16.8375 1215 106.807 650.123 463.374
670 0 75.141 14.9718 1125 108.691 651.08 467.81
671 0 75.2023 13.856 1042 111.269 652.23 463.831
672 0 79.3055 11.0711 878 114.219 651.745 463.039
673 0 80.1578 10.7288 860 115.073 652.024 462.266
674 0 81.0878 10.9758 890 116.155 652.602 459.261
675 0 87.2587 13.3282 1163 112.674 651.125 454.042
676 0 91.2419 14.8068 1351 110.819 653.11 456.547
677 0 91.3138 12.6815 1158 117.673 654.166 453.333
678 0 95.3253 14.3823 1371 113.317 653.414 454.283
679 1 46.0877 10.48 483 115.257 652.735 473.598
680 0 51.0355 12.3052 628 110.033 654.479 471.927
681 0 52.2378 11.0456 577 109.917 653.13 475.73
682 0 55.0678 11.8763 654 112.35 653.09 469.636
683 0 52.0828 11.7505 612 112.458 655.863 471.967
684 0 59.1297 8.81114 521 114.555 654.992 475.013
685 0 61.2273 13.2457 811 109.875 655.732 468.512
686 0 63.0557 13.3691 843 109.68 655.333 470.826
687 0 61.1653 11.3954 697 113.928 655.818 469.978
688 0 64.3082 11.476 738 113.749 655.566 473.806
689 0 67.1926 9.4058 632 115.207 655.585 478.343
690 0 67.1926 9.31651 626 128.637 655.621 478.291
691 0 71.204 13.8194 984 109.375 657.433 474.156
692 0 77.2569 13.9276 1076 110.228 656.244 472.486
693 0 78.1406 14.2436 1113 110.04 656.394 468.279
694 0 79.1795 10.2804 814 115.329 656.329 475.053
695 0 84.2823 13.4904 1137 110.478 655.916 471.454
696 1 44.1175 12.6934 560 112.988 653.757 487.255
697 0 45.2438 15.2728 691 108.916 655.465 489.065
698 0 47.1587 13.9317 657 110.693 653.953 488.504
699 0 48.069 13.8967 668 108.675 654.154 489.331
700 0 46.0329 11.1442 513 111.947 653.955 487.292
701 0 50.3323 13.9672 703 106.501 652.36 486.536
702 0 51.0596 10.5955 541 111.562 651.579 487.758
703 0 50.0375 9.81265 491 113.1 650.851 485.591
704 0 52.1012 10.2301 533 112.218 649.797 482.724
705 0 53.0872 13.1859 700 94.3986 650.1 480.109
706 0 59.1559 12.8981 763 106.598 649.885 481.869
707 0 59.1818 12.0307 712 108.662 649.184 473.167
708 0 59.2705 11.8609 703 109.989 650.319 477.203
709 0 61.2093 11.2728 690 110.771 649.306 476.935
710 0 65.0545 12.4204 808 110.507 648.082 473.783
711 0 70.3489 12.8787 906 102.965 649.042 473.139
712 0 69.2629 11.3625 787 107.243 648.504 466.221
713 0 71.1661 7.02582 500 112.272 650.134 469.96
714 0 74.1977 10.809 802 113.728 648.244 468.721
715 0 78.2626 13.2503 1037 106.638 649.7 455.51
716 0 82.3895 13.594 1120 106.157 650.571 457.472
717 0 84.2064 11.8993 1002 108.802 650.655 455.861
718 1 42.2429 11.6706 493 108.355 650.641 478.85
719 0 45.234 13.1317 594 108.278 651.749 481.921
720 0 44.0453 10.8071 476 115.62 651.198 477.99
721 0 49.1162 12.8471 631 108.759 650.948 478.609
722 0 52.123 13.3338 695 107.046 650.695 477.318
723 0 51.1192 15.0824 771 106.458 653.371 473.616
724 0 52.2184 11.8924 621 110.874 653.071 476.638
725 0 54.214 13.3729 725 109.152 653.841 472.69
726 0 56.1642 12.7661 717 109.318 654.844 470.42
727 0 56.084 14.3 802 107.773 655.118 473.88
728 0 60.1115 15.6542 941 106.569 656.133 468.075
729 0 61.1955 11.5368 706 112.796 656.465 470.942
730 0 65.075 14.9212 971 108.2 657.995 473.357
731 0 65.1214 12.1312 790 111.723 657.21 470.325
732 0 67.097 11.2524 755 114.203 657.69 470.562
733 0 71.193 12.5012 890 111.539 657.374 472.749
734 0 73.1302 11.9103 871 112.212 657.106 473.67
735 0 74.1592 10.6258 788 114.067 658.187 471.464
736 0 79.4474 13.8708 1102 110.112 656.707 471.67
737 0 81.2761 15.2197 1237 108.23 657.018 468.56
738 0 83.1999 11.8029 982 114.063 655.91 470.431
739 0 87.3158 13.2737 1159 115.292 656.758 465.851
740 1 42.0217 10.2566 431 120.014 655.824 491.824
741 0 48.1486 16.0337 772 107.576 656.06 487.749
742 0 48.0736 14.145 680 111.137 655.113 488.843
743 0 48.2063 13.0896 631 113.141 653.903 487.048
744 0 49.1185 12.6632 622 114.648 653.989 487.677
745 0 52.3401 15.0745 789 110.549 653.399 481.271
746 0 51.3319 9.81846 504 119.98 653.577 484.06
747 0 56.069 15.8911 891 109.82 652.669 481.432
748 0 59.3079 16.2542 964 108.818 651.941 480.533
749 0 59.2142 13.4089 794 115.193 652.339 479.934
750 0 60.1842 13.7744 829 114.63 652.271 479.96
751 0 64.4306 16.4363 1059 110.281 652.498 474.461
752 0 67.2068 14.5967 981 112.458 651.985 469.567
753 0 70.2575 13.8348 972 113.122 651.785 470.688
754 1 33.1551 11.7026 388 115.709 651.348 486.918
755 0 32.1203 11.1767 359 118.752 651.574 484.816
756 0 37.2813 10.7292 400 112.808 650.708 484.142
757 0 39.268 15.4579 607 108.69 651.377 482.445
758 0 39.3979 10.8635 428 117.593 651.603 480.932
759 0 44.0971 12.8126 565 112.349 651.496 480.846
760 0 44.0554 13.1652 580 111.909 652.969 479.002
761 0 43.1691 15.613 674 107.147 651.723 481.113
762 0 45.0307 14.9676 674 108.792 653.65 477.163
763 0 46.1171 17.0436 786 105.749 653.686 478.042
764 0 47.0322 15.9465 750 108.848 654.087 474.709
765 0 49.0362 15.2744 749 110.146 654.332 473.166
766 0 51.1163 12.6379 646 114.858 655.231 471.845
767 0 52.1755 13.4354 701 111.894 655.739 470.99
768 0 53.1602 12.246 651 113.639 656.488 474.026
769 0 56.226 14.8686 836 110.523 656.488 472.641
770 0 55.1488 10.6621 588 117.124 656.4 472.23
771 0 59.2486 13.6374 808 112.588 657.043 471.674
772 0 62.0726 14.5475 903 111.161 657.901 471.595
773 0 65.0661 14.7696 961 111.122 657.751 468.52
774 0 66.2417 15.6548 1037 109.711 658.064 472.221
775 0 68.0859 12.6605 862 115.587 658.423 470.545
776 0 72.2716 14.3348 1036 112.895 657.947 471.751
777 0 75.2192 14.4245 1085 112.152 658.462 471.533
778 1 38.0267 10.966 417 117.005 657.29 490.197
779 0 39.0802 13.8177 540 112.598 657.089 489.257
780 0 39.1205 11.9119 466 118.135 658.47 485.738
781 0 39.1334 10.5025 411 119.178 657.803 488.557
782 0 40.2116 13.2549 533 114.946 657.754 488.493
783 0 44.3535 13.7306 609 112.246 657.447 488.934
784 0 43.1752 13.6884 591 114.041 657.386 486.54
785 0 44.2795 12.6469 560 115.271 656.334 487.493
786 0 46.1219 15.7192 725 111.126 655.274 488.143
787 0 47.2829 12.5415 593 116.565 654.017 485.42
788 0 52.3948 16.0894 843 109.346 654.012 483.724
789 0 55.3217 16.9915 940 105.57 653.717 484.781
790 0 54.2133 12.8566 697 115.481 653.825 479.26
791 0 55.2128 13.457 743 116.44 652.526 477.287
792 0 58.1766 13.184 767 117.407 653.66 476.16
793 0 59.2113 12.0754 715 119.543 653.393 472.352
794 0 61.2113 13.6903 838 116.381 652.395 475.144
795 0 66.1544 12.1383 803 118.346 653.341 471.898
796 0 66.2112 15.8734 1051 113.517 652.648 466.5
797 0 66.2112 15.8583 1050 126.169 652.682 466.564
798 1 34.1654 7.58078 259 122.764 652.556 483.93
799 0 35.1079 10.2541 360 118.739 651.367 480.281
800 0 39.3522 12.2484 482 114.695 652.813 476.965
801 0 40.0812 10.853 435 115.809 651.956 477.894
802 0 43.1236 11.0844 478 113.46 653.19 479.711
803 0 43.3858 13.3223 578 112.647 653.285 473.453
804 0 41.4015 9.08179 376 120.42 654.282 471.957
805 0 45.236 17.7513 803 105.543 654.797 468.732
806 0 47.0878 12.3386 581 114.893 655.272 470.702
807 0 50.4664 9.92741 501 118.679 657.256 472.351
808 0 49.1538 12.349 607 115.759 655.684 468.942
809 0 53.2626 12.1286 646 113.865 656.639 469.271
810 0 51.1797 11.4694 587 116.642 658.351 470.559
811 0 55.22 12.7309 703 114.725 657.943 471.257
812 0 56.3585 11.9769 675 115.695 659.471 469.477
813 0 58.3906 12.913 754 117.568 659.277 468.143
814 0 60.1558 14.4458 869 115.184 658.335 467.596
815 0 63.1817 15.4 973 111.303 659.419 472.939
816 0 69.2501 15.2924 1059 110.668 658.936 470.84
817 0 67.1736 11.9839 805 120.472 659.087 468.691
818 0 69.2695 12.3431 855 118.614 658.336 471.682
819 1 37.1247 12.2829 456 114.73 659.811 485.899
820 0 38.0222 9.70486 369 118.753 660.428 486.827
821 0 36.094 9.30903 336 120.705 659.449 485.637
822 0 36.094 9.25362 334 124.988 657.44 485.638
823 0 43.1487 12.399 535 115.978 660 486.131
824 0 43.1487 12.3294 532 131.934 661.959 486.141
825 0 42.0638 11.2448 473 122.996 658.097 483.641
826 0 45.1274 12.2542 553 116.136 655.92 484.877
827 0 49.0673 14.2865 701 112.31 657.549 484.455
828 0 49.0881 12.6507 621 116.931 657.039 482.713
829 0 50.0522 11.5879 580 119.434 655.134 483.912
830 0 52.228 13.4602 703 116.031 653.164 482.312
831 0 53.1408 13.0408 693 116.7 653.069 481.007
832 0 53.0962 10.189 541 122.56 651.974 480.501
833 0 54.1205 10.4581 566 121.869 651.588 479.274
834 0 57.133 12.2871 702 118.413 651.715 476.651
835 0 61.157 11.3805 696 119.217 651.924 476.619
836 0 62.1182 10.7215 666 120.459 651.851 470.76
837 0 64.079 14.014 898 114.794 651.697 467.991
838 0 66.0717 11.0183 728 118.587 651.676 468.148
839 0 68.0879 13.321 907 114.453 651.571 465.81
840 0 74.2314 13.7273 1019 112.488 652.096 469.038
841 0 76.2565 16.4838 1257 107.615 650.897 465.5
842 0 77.3117 13.6202 1053 113.356 651.309 459.755
843 0 80.2148 13.9251 1117 111.882 651.888 456.894
844 0 80.2755 11.336 910 116.693 651.874 453.387
845 0 81.6313 9.98392 815 118.744 652.222 453.174
846 1 49.4369 12.0558 596 114.091 653.331 470.802
847 0 51.5806 11.3608 586 114.411 655.208 468.621
848 0 51.5926 11.8622 612 114.44 655.64 467.621
849 0 55.4523 12.1546 674 114.16 655.966 466.534
850 0 54.364 10.4297 567 118.273 655.473 466.762
851 0 56.5917 12.3516 699 113.675 656.751 467.558
852 0 57.3262 14.1646 812 113.35 655.383 464.102
853 0 59.5719 13.2109 787 115.432 657.446 461.963
854 0 62.3831 13.4491 839 114.448 657.323 460.9
855 0 62.5022 11.6636 729 118.069 659.08 462.343
856 0 65.5364 14.2059 931 113.345 658.676 461.713
857 0 65.3195 11.2524 735 119.253 659.324 461.615
858 0 69.3591 15.8162 1097 111.744 659.413 456.348
859 0 72.346 15.9649 1155 110.015 660.378 464.192
860 0 72.2265 12.8485 928 117.136 660.235 464.246
861 0 72.2933 11.2874 816 120.952 658.705 466.049
862 0 76.2344 13.5503 1033 116.56 658.761 465.955
863 0 75.2413 11.4166 859 122.891 657.788 464.384
864 0 77.403 10.0384 777 123.727 658.478 467.902
865 0 79.2015 12.1715 964 121.743 658.537 464.885
866 0 86.3211 15.7435 1359 115.049 657.972 462.756
867 0 86.3679 12.4468 1075 122.111 658.676 456.271
868 0 90.5035 12.5078 1132 120.892 656.778 456.236
869 0 91.2471 10.9921 1003 118.386 656.552 454.544
870 0 93.2237 11.3276 1056 123.129 655.045 453.312
871 0 100.268 13.9027 1394 118.608 656.211 453.091
872 0 108.513 11.7774 1278 122.051 656.189 449.965
873 0 104.367 13.5579 1415 116.674 654.054 447.043
874 0 106.188 10.5285 1118 123.134 655.487 443.205
875 1 54.0614 8.8788 480 113.171 653.669 472.388
876 0 51.1161 11.4445 585 112.009 652.431 466.901
877 0 59.1416 9.40117 556 112.313 653.318 467.085
878 0 57.2819 9.26994 531 113.544 651.435 463.394
879 0 60.1545 9.9577 599 112.564 653.461 459.245
880 0 65.2163 7.95813 519 111.541 653.601 466.871
881 0 64.1455 8.48072 544 112.844 653.812 460.169
882 0 67.3519 8.46302 570 111.911 653.379 464.575
883 0 69.485 9.59919 667 111.195 653.655 456.546
884 0 70.3489 14.1722 997 104.201 653.397 460.648
885 0 73.4361 12.5824 924 108.271 653.616 453.446
886 0 73.1998 7.4727 547 116.201 652.93 452.91
887 0 73.1998 7.65029 560 120.33 651.961 453.22
888 0 81.2796 12.1433 987 110.298 654.587 446.484
889 0 81.3335 11.9754 974 111.147 654.627 448.272
890 0 86.3809 11.2293 970 112.812 655.35 444.102
891 0 87.2567 13.7067 1196 113.366 655.477 442.565
892 0 87.3476 9.79993 856 119.027 655.593 442.986
893 0 92.5778 10.7909 999 118.088 657.001 441.622
894 0 98.2386 13.1618 1293 114.552 656.278 443.758
895 0 103.149 12.6129 1301 120.108 656.118 445.426
896 0 104.365 15.3882 1606 111.542 657.102 444.458
897 1 54.3294 12.2585 666 109.79 655.577 468.647
898 0 52.1165 8.48101 442 115.719 655.833 469.208
899 0 55.1203 10.1596 560 112.696 656.329 467.479
900 0 58.1651 11.5877 674 109.76 657.347 469.533
901 0 60.1643 10.9035 656 111.881 658.329 467.992
902 0 60.2708 12.0788 728 110.636 658.412 466.935
903 0 64.1773 13.1666 845 108.447 658.391 467.179
904 0 66.252 12.5128 829 109.261 658.38 464.738
905 0 67.152 11.3772 764 112.288 657.644 467.927
906 0 70.312 12.2028 858 111.316 658.16 464.705
907 0 73.1405 13.4809 986 109.308 657.814 464.406
908 0 75.2378 12.6931 955 111.117 657.897 467.623
909 0 77.2306 14.9682 1156 107.847 657.74 465.855
910 0 76.3374 9.9689 761 116.347 657.105 468.089
911 0 81.2366 12.7159 1033 112.224 656.899 465.661
912 0 87.2511 13.9941 1221 108.521 656.362 467.675
913 0 87.2139 13.2433 1155 110.724 655.72 465.092
914 0 91.234 13.0763 1193 110.754 654.628 465.686
915 0 89.137 8.05501 718 120.331 655.195 464.843
916 1 47.0463 10.9254 514 115.095 652.623 482.578
917 0 48.0636 11.1727 537 115.635 652.236 480.588
918 0 49.2411 10.3166 508 116.301 652.236 479.866
919 0 52.02 9.95771 518 117.376 650.537 479.297
920 0 55.0693 10.8409 597 114.883 650.514 480.667
921 0 53.196 9.77517 520 117.763 650.319 479.083
922 0 58.0797 15.8575 921 106.441 650.208 474.546
923 0 59.0961 14.3664 849 110.66 649.399 474.51
924 0 59.1053 13.2306 782 112.839 649.271 473.987
925 0 62.1177 13.9252 865 110.04 649.817 472.573
926 0 62.1177 14.0218 871 128.661 649.819 472.613
927 0 65.1036 13.947 908 111.185 650.469 464.137
928 0 69.1751 13.0972 906 112.332 650.181 466.419
929 0 71.1647 15.6679 1115 108.607 650.382 462.933
930 0 70.1073 11.3398 795 117.635 651.127 460.902
931 0 74.2075 14.5807 1082 111.097 650.069 459.13
932 0 75.0817 13.3188 1000 114.443 652.074 458.629
933 0 76.1959 10.4205 794 119.249 653.128 458.54
934 0 74.185 10.5277 781 128.835 655.1 458.476
935 1 45.0504 14.6947 662 107.234 652.517 472.332
936 0 44.0636 9.14588 403 118.439 653.568 471.705
937 0 48.1171 11.5551 556 109.84 653.703 474.007
938 0 46.0718 10.1364 467 110.951 654.415 473.353
939 0 48.1641 11.793 568 106.961 655.998 474.845
940 0 51.0697 11.8857 607 106.703 655.315 474.417
941 0 49.1237 9.66946 475 111.829 655.893 476.173
942 0 53.155 12.4165 660 107.747 656.03 471.689
943 0 50.2631 11.4796 577 111.513 656.652 474.267
944 0 52.0784 11.0026 573 111.735 657.192 477.621
945 0 54.0594 9.97051 539 112.056 656.703 478.019
946 0 54.0764 12.2419 662 111.133 657.34 473.792
947 0 56.1707 10.7707 605 113.536 656.491 475.301
948 0 59.1206 10.7577 636 113.423 658.371 475.162
949 0 61.159 11.4456 700 111.264 657.237 475.471
950 0 65.1759 11.3079 737 111.14 658.045 474.134
951 0 70.2445 12.5561 882 108.085 658.539 475.957
952 0 69.1964 12.0382 833 107.987 656.228 477.301
953 0 71.1864 11.0414 786 112.399 657.178 476.302
954 0 72.1731 10.3085 744 114.86 656.583 471.711
955 1 37.0943 7.97966 296 122.189 654.632 487.888
956 0 39.2914 9.28956 365 117.685 655.926 488.827
957 0 37.1268 9.02312 335 114.313 654.027 481.316
958 0 45.0916 11.8869 536 100.078 655.418 483.425
959 0 43.1388 13.6304 588 100.044 653.57 480.748
960 0 42.2124 7.55703 319 108.84 654.257 476.229
961 0 47.1567 13.2113 623 107.615 653.371 485.388
962 0 46.1585 10.6806 493 111.822 654.894 481.329
963 0 48.4195 11.5036 557 110.287 652.736 480.761
964 0 53.184 9.55174 508 111.789 654.894 484.587
965 0 52.1894 11.2092 585 110.552 653.66 481.015
966 0 50.0213 10.1557 508 114.581 652.968 478.935
967 0 54.2443 10.6186 576 115.191 652.781 479.47
968 0 57.1736 13.7651 787 110.095 652.687 478.848
969 0 62.1826 15.4706 962 107.326 653.427 468.398
970 0 61.1911 12.0279 736 113.997 653.567 465.969
971 0 58.2862 11.821 689 116.151 652.27 470.215
972 0 62.2515 12.6583 788 112.739 652.334 473.227
973 0 66.2761 16.1144 1068 109.963 652.306 466.131
974 1 131.811 12.8972 1700 115.886 651.968 433.162
975 1 72.5012 14.3722 1042 109.197 652.012 464.409
976 0 71.1976 14.7477 1050 112.2 653.214 464.855
977 0 74.4682 13.8046 1028 112.621 653.475 460.151
978 0 75.5656 12.4528 941 115.117 654.189 456.159
979 0 80.3274 12.1627 977 114.592 655.641 457.224
980 0 83.2349 15.258 1270 108.513 656.271 455.806
981 1 44.1792 11.4307 505 113.073 654.467 475.527
982 0 47.4887 11.4975 546 108.284 655.293 479.368
983 0 47.0898 14.9289 703 100.619 656.644 477.451
984 0 45.07 16.0195 722 99.3795 657.213 478.298
985 0 46.0277 13.9699 643 102.605 658.589 477.585
986 1 100.461 12.5223 1258 106.952 658.744 451.588
987 0 100.461 12.5322 1259 131.157 659.74 451.473
988 0 105.272 12.6814 1335 109.045 658.569 446.863
989 1 52.1025 10.7288 559 108.648 659.966 475.066
990 0 56.0597 9.98935 560 111.307 660.621 473.646
991 0 57.0989 11.699 668 107.666 659.235 474.121
992 0 59.0433 13.3292 787 104.044 658.244 474.112
993 0 62.1475 12.4381 773 104.94 658.49 476.45
994 0 61.1392 10.8768 665 125.699 658.4 478.759
995 0 66.1082 7.83564 518 106.035 656.888 478.751
996 0 72.2238 13.6935 989 103.754 658.356 474.589
997 0 71.1065 12.4461 885 104.112 656.989 476.432
998 0 74.1059 12.2392 907 105.859 655.982 474.003
999 0 80.1657 13.1602 1055 102.878 656.369 471.406
1000 0 83.2166 10.5147 875 101.742 655.91 468.149
1001 0 80.339 7.59282 610 108.418 655.161 463.234
1002 0 89.4914 14.4707 1295 98.5042 653.695 464.248
1003 0 90.6523 14.3184 1298 124.75 652.685 464.341
1004 0 94.2312 15.5681 1467 97.9373 654.097 464.051
1005 0 95.181 11.9982 1142 105.755 652.843 447.478
1006 0 93.1666 10.4222 971 129.272 651.979 445.532
1007 0 101.327 11.981 1214 107.872 652.541 444.703
1008 0 104.394 13.0946 1367 106.268 652.303 452.143
1009 1 59.3517 16.8824 1002 102.116 650.904 473.926
1010 0 57.1881 13.5168 773 111.244 650.019 468.308
1011 0 59.1424 15.3697 909 107.275 651.085 464.451
1012 0 59.217 15.2997 906 107.95 650.988 464.155
1013 0 65.2121 14.8285 967 106.402 650.627 467.932
1014 0 65.2819 14.3838 939 108.466 651.294 462.627
1015 0 66.1832 14.0368 929 108.72 650.221 459.454
1016 0 67.1106 11.9355 801 107.171 652.752 462.024
1017 0 66.1306 17.7225 1172 101.13 653.454 455.506
1018 0 68.0543 10.0067 681 111.044 652.985 455.984
1019 0 73.0773 13.5747 992 106.47 653.664 455.239
1020 0 74.1461 11.0458 819 111.201 654.405 452.337
1021 0 77.3278 13.1518 1017 108.372 654.792 447.533
1022 0 80.206 10.5478 846 112.275 654.648 451.096
1023 0 84.2575 10.8714 916 112.665 655.853 443.761
1024 0 86.3934 12.8482 1110 116.127 655.958 452.942
1025 0 90.3681 13.9098 1257 114.403 657.041 451.785
1026 0 95.6377 12.5578 1201 117.168 655.799 443.512
1027 1 49.4693 12.2096 604 115.28 655.467 469.882
1028 0 51.5007 11.6503 600 117.96 654.32 469.115
1029 0 52.0968 12.6687 660 112.392 653.886 471.918
1030 0 56.209 15.6025 877 105.223 654.552 471.495
1031 0 57.1715 14.028 802 108.173 654.185 472.657
1032 0 58.1478 12.709 739 109.82 655.112 471.146
1033 0 58.3037 11.4401 667 115.06 655.315 468.961
1034 0 62.3567 13.6473 851 112.121 654.609 469.022
1035 0 61.3313 13.5657 832 111.542 654.791 468.34
1036 0 66.3478 12.6756 841 112.331 653.07 470.546
1037 0 66.12 11.7211 775 113.502 655.907 470.277
1038 0 71.1885 11.8558 844 112.59 655.258 472.633
1039 0 74.2762 16.2098 1204 105.934 655.45 468.145
1040 0 75.2496 14.6047 1099 108.248 654.487 472.586
1041 0 76.1293 12.2817 935 112.526 653.918 469.749
1042 0 80.1733 12.6351 1013 111.502 653.6 471.58
1043 0 81.1704 12.1842 989 113.703 652.583 466.381
1044 0 84.2676 13.6351 1149 111.339 651.352 464.961
1045 0 87.2168 14.9856 1307 110.13 651.491 463.683
1046 0 86.3928 13.7859 1191 111.535 651.121 463.185
1047 0 89.2799 11.2455 1004 116.78 650.452 459.64
1048 0 93.5714 11.7878 1103 115.583 650.09 458.291
1049 0 97.4192 13.2109 1287 113.828 649.276 453.85
1050 0 100.457 13.9861 1405 114.742 648.023 455.072
1051 1 53.3848 11.8573 633 114.294 649.371 474.844
1052 0 55.1111 11.6855 644 112.439 649.158 479.526
1053 0 58.2399 14.7322 858 107.256 649.515 475.307
1054 0 59.2205 15.1468 897 107.39 648.87 473.669
1055 0 60.1666 12.6815 763 110.831 648.417 473.655
1056 0 61.1204 14.9705 915 108.145 649.333 468.566
1057 0 63.2954 13.0657 827 111.462 649.826 466.062
1058 0 63.1397 10.4055 657 116.397 649.128 464.184
1059 0 70.1442 16.5801 1163 106.042 650.258 466.292
1060 0 74.3274 16.5484 1230 105.528 650.586 459.803
1061 0 72.1787 10.3493 747 115.628 650.878 462.859
1062 0 75.3022 12.005 904 113.312 650.648 460.882
1063 0 80.1746 13.5953 1090 110.622 650.608 457.37
1064 0 83.0844 14.5394 1208 110.8 651.835 456.289
1065 0 84.261 13.8617 1168 113.926 652.164 452.246
1066 0 84.261 13.9448 1175 137.802 652.183 452.253
1067 1 43.1585 11.1681 482 111.544 653.434 473.89
1068 0 44.1763 12.02 531 111.179 654.998 472.974
1069 0 48.0643 14.3766 691 107.041 655.86 475.101
1070 0 46.0572 10.9863 506 114.381 657.239 476.87
1071 0 46.0321 8.71131 401 118.347 657.87 473.2
1072 0 49.1119 11.1378 547 114.777 657.538 475.517
1073 0 51.1488 11.8282 605 112.587 659.369 476.17
1074 0 53.1281 10.9735 583 114.566 660.494 477.365
1075 0 54.0816 11.1128 601 115.17 658.978 475.09
1076 0 56.16 9.29487 522 117.098 659.784 476.264
1077 0 58.2554 15.9642 930 106.033 659.361 478.516
1078 0 61.3144 16.5867 1017 105.68 658.957 476.736
1079 0 64.172 13.3392 856 109.893 658.86 475.72
1080 0 64.1683 14.4308 926 108.891 657.288 477.396
1081 0 66.2219 11.1897 741 114.007 657.839 475.536
1082 0 69.2236 10.56 731 114.059 657.483 474.285
1083 0 71.347 11.5632 825 111.347 657.355 476.936
1084 0 74.0648 11.733 869 113.14 656.842 471.134
1085 0 78.3443 14.3852 1127 109.192 656.325 471.673
1086 0 77.1917 9.28856 717 116.826 655.966 471.457
1087 1 35.0556 6.44691 226 122.881 655.465 488.115
1088 0 39.0384 10.938 427 115.696 654.396 489.672
1089 0 41.0247 10.4084 427 113.234 654.145 491.255
1090 0 43.0573 10.3351 445 116.609 652.96 486.396
1091 0 46.0951 12.0186 554 112.628 652.901 485.435
1092 0 46.0622 10.8766 501 116.467 653.174 485.271
1093 0 45.0461 11.3217 510 117.512 652.38 482.059
1094 0 44.1013 9.47817 418 120.739 651.828 484.237
1095 0 44.0254 9.06295 399 122.368 651.589 481.777
1096 0 51.0929 10.843 554 117.06 651.727 483.323
1097 0 53.0837 10.1726 540 117.228 652.93 482.543
1098 0 52.1076 11.7257 611 116.447 652.203 478.666
1099 0 51.0602 12.358 631 115.254 652.138 478.038
1100 0 57.0281 11.1875 638 117.257 652.489 472.633
1101 0 55.0981 10.3633 571 119.266 652.827 471.578
1102 0 60.1358 15.6646 942 110.254 651.839 471.667
1103 0 62.1998 10.3859 646 117.32 653.111 470.348
1104 0 64.179 11.5303 740 116.693 653.482 468.712
1105 0 67.2093 11.7395 789 115.28 653.436 468.939
1106 0 71.3019 13.9828 997 112.686 654.428 461.472
1107 1 146.679 12.4763 1830 122.588 652.817 421.438
1108 0 152.488 14.7094 2243 118.888 654.549 421.907
1109 0 157.475 9.64598 1519 124.508 654.208 430.126
1110 1 77.2583 9.11229 704 117.952 656.638 465.554
1111 0 79.4036 8.48828 674 120.604 656.611 464.255
1112 0 84.294 10.9498 923 114.954 657.79 463.079
1113 0 84.366 12.8014 1080 116.733 657.627 452.559
1114 0 84.192 10.2266 861 118.584 656.699 458.513
1115 0 89.4415 9.49224 849 118.24 657.604 461.495
1116 1 43.066 8.0574 347 115.986 658.847 477.02
1117 0 47.0793 10.0256 472 112.536 658.263 476.727
1118 0 50.0954 8.70339 436 114.649 659.883 478.202
1119 0 49.128 9.70933 477 113.547 658.834 477.042
1120 0 52.2527 7.92304 414 115.899 659.642 479.642
1121 0 51.0376 6.62257 338 117.553 659.024 479.672
1122 0 56.1323 10.4574 587 112.276 659.002 477.806
1123 1 113.257 11.4342 1295 116.792 658.534 448.08
1124 0 113.305 10.0525 1139 120.405 657.552 443.532
1125 0 122.374 10.4761 1282 119.867 657.925 442.328
1126 0 127.297 8.04417 1024 122.818 657.557 448.143
1127 0 129.328 6.58788 852 126.268 657.621 438.918
1128 0 133.362 8.00078 1067 121.48 656.471 451.673
1129 1 71.412 9.0601 647 114.913 655.849 476.32
1130 0 71.2182 6.27649 447 119.47 655.257 481.787
1131 0 79.3324 11.9245 946 111.887 654.502 475.037
1132 1 40.0826 13.0481 523 110.918 653.828 492.44
1133 0 41.1321 10.6729 439 115.485 653.071 491.442
1134 0 42.0579 8.46451 356 118.944 651.581 488.955
1135 0 42.0565 11.9839 504 113.145 651.698 490.042
1136 0 43.0715 8.93862 385 116.826 650.273 490.901
1137 0 41.0992 8.7593 360 118.689 650.408 487.956
1138 1 89.3547 9.17691 820 122.957 650.693 472.118
1139 0 89.4488 11.3137 1012 122.288 649.979 462.115
1140 0 93.3141 11.9167 1112 121.913 649.636 460.65
1141 0 96.2938 11.3818 1096 123.198 650.375 458.387
1142 0 96.2879 9.63776 928 127.028 649.113 455.069
1143 0 99.2438 7.94004 788 130.516 648.769 454.06
1144 0 104.441 9.51732 994 128.387 648.408 452.067
1145 0 107.426 11.4591 1231 125.252 649.55 451.49
1146 1 55.097 11.8337 652 116.282 650.218 477.485
1147 0 56.1446 10.1524 570 118.325 650.798 477.189
1148 1 115.484 13.1707 1521 122.475 650.794 440.894
1149 0 125.404 12.2006 1530 123.464 652.244 441.223
1150 1 63.0663 11.0519 697 117.463 651.577 471.951
1151 0 64.1629 8.33815 535 120.781 653.512 471.72
1152 0 65.2178 8.12662 530 123.904 654.721 465.655
1153 0 69.2264 10.5451 730 119.299 654.01 464.84
1154 0 69.2487 11.2637 780 119.746 655.228 462.845
1155 0 73.3344 11.1817 820 119.084 655.922 461.985
1156 0 75.1747 10.296 774 121.545 656.764 463.647
1157 0 79.2198 12.358 979 117.107 656.612 462.389
1158 0 80.2326 13.1119 1052 117.691 655.959 459.053
1159 0 82.432 13.4657 1110 115.312 658.247 464.019
1160 0 83.3661 13.6986 1142 120.925 660.204 463.295
1161 1 43.0358 10.2241 440 122.989 660.027 481.407
1162 0 47.0573 9.28655 437 123.048 658.568 481.439
1163 0 50.154 11.4448 574 118.774 659.683 481.693
1164 0 52.1281 12.3158 642 118.076 660.048 480.609
1165 0 54.1792 12.514 678 117.41 659.115 480.95
1166 0 54.1517 13.5176 732 115.011 659.276 483.21
1167 0 53.1173 8.05764 428 125.808 658.736 486.005
1168 0 56.1864 9.82445 552 121.647 657.971 488.208
1169 0 57.2861 12.0972 693 120.986 657.437 480.326
1170 0 59.1368 11.4142 675 120.834 656.118 483.344
1171 0 63.2988 11.0271 698 119.695 656.648 484.248
1172 0 64.1887 12.619 810 117.753 655.511 482.754
1173 0 65.1038 12.3342 803 120.321 655.694 481.887
1174 0 69.1161 13.2241 914 116.032 654.72 478.03
1175 0 71.2832 9.7779 697 121.456 653.67 480.422
1176 0 75.2435 12.4263 935 115.286 653.044 478.568
1177 0 74.163 11.2455 834 119.987 652.58 475.014
1178 0 77.5198 12.3065 954 115.636 652.356 480.912
1179 0 82.3075 11.3477 934 118.309 651.473 474.304
1180 1 164.596 9.99416 1645 125.337 651.061 435.441
1181 0 164.876 13.4465 2217 119.875 649.461 427.974
1182 0 167.665 8.70186 1459 124.838 649.018 440.755
1183 0 174.583 7.33177 1280 128.808 648.76 431.961
1184 0 177.676 11.9881 2130 122.582 649.001 420.504
1185 1 48.282 15.0366 726 114.09 649.139 480.835
1186 0 49.1945 10.3264 508 125.778 649.195 479.319
1187 0 47.108 13.2886 626 118.396 649.7 480.27
1188 0 50.109 11.7943 591 120.875 649.2 478.484
1189 0 52.1218 13.2574 691 117.556 649.842 478.709
1190 0 53.0907 13.7689 731 116.212 649.777 474.947
1191 0 54.128 10.5675 572 122.986 652.287 476.579
1192 0 55.0739 11.8023 650 122.705 652.318 471.178
1193 0 56.1621 10.6656 599 124.526 652.723 472.479
1194 0 59.103 11.15 659 123.061 653.815 469.964
1195 0 57.2322 9.34788 535 123.727 653.634 472.88
1196 0 61.0604 12.9544 791 118.393 654.225 470.549
1197 0 65.1127 13.2693 864 118.751 655.012 464.433
1198 0 67.146 12.3611 830 119.735 655.368 466.408
1199 0 68.2044 10.0873 688 125.116 656.478 464.052
1200 0 70.2896 11.4384 804 122.743 656.511 460.193
1201 0 72.4089 12.3327 893 120.872 657.415 461.875
1202 0 74.1897 9.13873 678 126.311 657.737 463.158
1203 0 81.4493 12.6336 1029 118.188 659.038 463.704
1204 0 83.6136 12.3903 1036 120.139 658.28 461.525
1205 0 83.2139 12.2215 1017 121.403 659.037 457.814
1206 0 87.1935 11.6867 1019 121.924 659.884 462.303
1207 0 90.226 9.23237 833 124.306 659.306 464.303
1208 0 93.377 12.3799 1156 122.04 659.508 457.776
1209 0 98.3791 13.9257 1370 120.107 659.22 460.829
1210 0 101.388 14.5678 1477 119.077 658.766 462.09
1211 0 101.356 11.3658 1152 125.364 657.786 458.03
1212 1 57.1212 10.9942 628 119.546 657.678 482.839
1213 0 57.1212 11.0467 631 123.672 658.661 482.731
1214 0 59.0814 11.8311 699 118.68 656.436 480.04
1215 0 62.0972 12.2228 759 117.65 655.36 480.486
1216 0 64.077 11.6891 749 118.78 654.128 478.939
1217 0 64.0387 10.3063 660 121.542 653.997 479.95
1218 0 68.1137 12.6847 864 117.186 653.073 474.1
1219 0 70.0631 11.7608 824 119.498 653.266 471.242
1220 0 72.1927 10.8875 786 119.23 653.467 475.955
1221 0 78.1652 13.9192 1088 113.861 651.088 469.892
1222 0 80.0702 13.4132 1074 114.802 652.404 468.357
1223 0 83.1661 12.7937 1064 114.809 651.811 470.239
1224 0 84.2433 14.2682 1202 114.294 652.031 465.325
1225 0 86.1516 10.9922 947 119.924 650.772 464.729
1226 1 47.0191 13.3137 626 116.099 650.95 481.893
1227 0 46.0422 10.7727 496 119.591 650.554 482.968
1228 0 48.0411 13.3427 641 112.794 650.802 478.395
1229 0 48.0162 11.6003 557 118.235 649.977 477.592
1230 0 51.123 11.2474 575 118.751 650.148 477.64
1231 0 54.1065 9.7955 530 118.996 651.034 478.602
1232 0 52.0364 11.6841 608 118.538 650.709 473.518
1233 0 54.1087 11.5139 623 119.467 651.44 472.231
1234 0 56.1029 12.6731 711 118.162 651.703 469.707
1235 0 56.1351 11.4723 644 122.637 653.238 469.41
1236 0 55.0319 9.19466 506 124.99 651.644 470.372
1237 1 125.427 13.9444 1749 124.902 653.756 434.795
1238 0 125.426 13.8648 1739 128.664 655.762 434.795
1239 0 132.555 12.161 1612 127.924 654.883 433.725
1240 0 136.461 11.3366 1547 130.255 655.437 427.674
1241 0 139.307 10.5307 1467 131.777 655.593 431.536
1242 1 72.0738 12.2652 884 121.093 656.006 461.488
1243 0 74.1465 12.6506 938 121.561 657.403 461.622
1244 0 76.1279 11.0735 843 124.311 657.062 463.04
1245 0 82.0918 11.7308 963 122.286 658.323 464.066
1246 1 39.0676 8.26771 323 130.353 659.025 479.05
1247 0 44.0315 14.3988 634 118.375 658.669 478.514
1248 0 45.0305 11.5033 518 126.691 658.876 481.824
1249 0 46.0493 12.5735 579 122.069 659.482 481.095
1250 0 46.2138 10.6245 491 130.277 660.226 482.132
1251 0 51.0511 12.6932 648 124.528 659.673 482.415
1252 0 51.0874 11.2552 575 127.685 660.137 484.341
1253 0 48.1229 10.016 482 133.454 658.693 483.585
1254 0 53.218 12.3642 658 129.053 658.401 484.301
1255 0 53.0557 11.9309 633 131.398 658.01 482.289
1256 0 53.167 11.9435 635 132.496 658.302 482.935
1257 0 54.1073 13.3254 721 131.455 657.391 481.386
1258 0 56.062 12.1651 682 133.217 657.466 482.897
1259 0 57.0616 12.5829 718 132.734 657.258 482.187
1260 0 59.1657 13.3861 792 131.842 654.797 480.606
1261 0 62.1018 12.5761 781 132.059 654.269 481.133
1262 0 61.0755 11.3302 692 136.277 654.205 477.669
1263 0 66.3233 13.8564 919 130.267 653.289 475.552
1264 0 68.2162 13.9556 952 129.746 652.967 476.936
1265 0 69.0595 14.2341 983 129.336 651.072 473.5
1266 0 67.0831 11.6423 781 132.087 650.9 471.971
1267 0 71.1353 9.89663 704 133.266 651.03 475.74
1268 0 73.0875 12.5603 918 128.58 651.84 471.955
1269 0 74.1009 13.5356 1003 126.598 651.174 470.013
1270 0 78.0708 10.4136 813 129.581 650.898 470.684
1271 0 81.225 10.5632 858 128.943 650.993 467.133
1272 1 40.0667 9.35938 375 131.248 651.104 479.453
1273 0 43.0453 9.339 402 128.249 651.157 479.301
1274 0 47.0655 11.3884 536 128.203 650.795 476.632
1275 0 47.0655 11.4521 539 134.54 650.785 476.592
1276 0 49.0644 12.9625 636 119.294 651.398 474.697
1277 0 48.0518 12.653 608 120.26 652.885 474.638
1278 0 49.0367 11.9095 584 120.954 654.894 474.932
1279 0 53.1788 12.8435 683 118.102 652.878 473.742
1280 0 53.1737 11.6975 622 122.076 653.677 471.831
1281 0 55.0749 14.6891 809 117.964 654.752 467.074
1282 0 57.1215 11.9395 682 122.383 655.723 469.356
1283 0 59.1867 12.8238 759 121.838 656.045 466.497
1284 0 59.5471 11.6379 693 125.127 657.11 468.556
1285 0 62.3868 12.2141 762 123.776 658.462 467.891
1286 0 62.3868 12.1821 760 135.129 659.475 467.866
1287 0 65.1872 11.7354 765 125.81 658.771 463.737
1288 0 67.158 12.0016 806 124.591 659.292 467.313
1289 0 70.345 11.0882 780 125.773 659.835 468.718
1290 0 73.2798 12.541 919 124.147 659.029 467.32
1291 0 75.2224 12.6425 951 123.771 659.356 465.726
1292 0 76.1794 12.3393 940 124.133 658.688 466.352
1293 1 42.0403 9.96662 419 127.053 659.57 483.58
1294 0 44.1773 11.1369 492 123.13 658.815 483.15
1295 0 43.2466 9.54989 413 126.298 659.617 485.709
1296 0 44.0671 10.0528 443 126.391 658.709 484.747
1297 0 47.0345 11.6936 550 124.973 658.815 482.431
1298 0 46.0137 10.8446 499 121.527 658.541 483.593
1299 0 47.0681 10.0918 475 120.935 658.03 481.381
1300 0 49.261 10.4342 514 120.66 657.551 484.115
1301 0 49.245 10.5797 521 100.507 657.53 484.019
1302 0 48.07 8.23799 396 124.109 655.164 482.646
1303 0 50.0693 8.54815 428 101.082 652.1 481.841
1304 0 60.1672 10.4043 626 118.919 653.631 481.273
1305 0 59.0862 7.58215 448 123.645 653.438 478.08
1306 0 59.0876 9.4436 558 120.536 652.43 476.597
1307 0 63.342 11.7458 744 116.266 652.681 478.896
1308 0 69.2618 9.86114 683 121.132 651.217 471.047
1309 0 70.2394 8.01545 563 123.973 651.471 471.014
1310 1 39.1714 9.13931 358 118.494 651.078 486.807
1311 0 39.1125 10.1246 396 118.654 650.457 484.098
1312 0 41.0642 12.103 497 116.27 650.499 479.785
1313 0 40.0643 10.4332 418 117.349 649.909 478.78
1314 0 39.0646 5.81089 227 123.313 648.969 481.696
1315 1 94.4943 8.1698 772 124.922 650.181 460.62
1316 0 91.2541 7.0901 647 127.399 650.663 457.708
1317 0 93.4096 12.5362 1171 120.101 649.969 453.94
1318 0 93.3173 13.3737 1248 118.97 650.252 454.575
1319 0 98.4323 13.4509 1324 118.597 649.875 451.433
1320 0 98.3357 10.9421 1076 124.301 650.436 448.006
1321 0 101.334 10.2236 1036 126.02 652.191 445.571
1322 1 53.1101 12.7659 678 114.392 651.732 468.227
1323 0 54.0857 13.7929 746 114.67 653.717 469.255
1324 0 54.1268 9.3669 507 122.041 654.392 467.832
1325 0 56.1809 11.5876 651 118.704 654.083 467.51
1326 0 58.2105 11.5271 671 119.607 655.285 468.04
1327 0 61.3039 12.6419 775 116.677 654.596 465.886
1328 0 64.1681 14.1347 907 114.6 655.548 463.444
1329 0 66.1241 12.0229 795 117.44 656.862 466.601
1330 1 37.0807 11.5963 430 112.623 656.186 483.933
1331 0 35.0522 10.4701 367 116.937 656.599 481.902
1332 0 37.0222 10.129 375 115.848 655.891 485.773
1333 0 40.0664 13.1781 528 110.57 657.924 488.021
1334 0 41.0319 10.309 423 115.657 656.563 483.518
1335 0 38.1127 8.57981 327 121.095 657.37 487.349
1336 0 43.0844 10.6535 459 117.285 657.183 485.871
1337 0 45.0819 11.3793 513 114.992 656.394 486.782
1338 0 45.0735 12.3576 557 115.754 657.262 486.53
1339 0 44.098 9.11607 402 122.893 657.271 488.771
1340 0 46.2113 12.1615 562 118.665 656.445 487.667
1341 0 48.0742 9.29813 447 122.962 656.157 488.425
1342 0 46.0238 11.1029 511 122.669 653.675 487.327
1343 0 49.0709 10.169 499 124.387 654.782 486.399
1344 0 51.0936 11.3517 580 122.579 653.059 487.491
1345 0 51.1255 10.2102 522 125.086 653.201 484.87
1346 0 53.089 10.6237 564 123.748 651.927 482.007
1347 0 58.0891 11.2413 653 121.626 652.421 482.337
1348 0 57.153 11.093 634 123.063 652.241 482.897
1349 0 59.0503 11.1769 660 124.635 651.138 477.555
1350 0 62.0632 12.02 746 119.729 650.637 481.118
1351 0 64.1687 14.0411 901 119.769 650.079 474.983
1352 0 64.1502 11.816 758 124.453 650.051 474.164
1353 0 68.2352 11.475 783 123.899 650.397 472.401
1354 0 70.139 12.4325 872 122.655 649.662 470.345
1355 0 73.1438 10.869 795 125.444 648.599 467.487
1356 1 39.0588 12.2892 480 119.581 649.4 483.54
1357 0 41.1061 10.2905 423 121.662 650.65 483.825
1358 0 39.0521 9.34649 365 126.025 649.66 478.526
1359 0 40.029 9.41817 377 124.918 650.43 479.684
1360 0 42.0882 9.57514 403 121.007 650.122 478.767
1361 0 45.0641 10.1855 459 121.275 650.78 476.656
1362 0 46.0895 11.5211 531 119.222 652.145 478.143
1363 0 46.1314 11.1204 513 122.454 652.52 473.729
1364 0 49.264 10.8193 533 123.475 653.628 474.31
1365 0 49.1802 12.2407 602 127.321 655.046 472.636
1366 0 51.109 11.6418 595 127.886 655.469 470.992
1367 0 54.146 11.7276 635 128.124 655.876 470.501
1368 0 54.1706 12.6822 687 125.627 656.048 469.582
1369 0 55.1209 12.5905 694 125.997 656.781 468.192
1370 0 57.1836 12.1713 696 124.688 656.553 468.451
1371 0 61.1213 12.2707 750 123.301 657.363 472.064
1372 0 63.1056 10.4745 661 126.716 658.104 469.657
1373 0 64.1172 13.8964 891 120.834 658.524 468.455
1374 0 67.1579 9.79781 658 128.489 657.684 467.983
1375 0 67.1385 10.322 693 128.11 659.362 465.848
1376 0 69.1236 9.56258 661 127.48 659.278 471.07
1377 0 71.1429 11.4418 814 124.383 659.237 466.224
1378 0 75.134 12.6042 947 122.174 658.586 466.559
1379 0 77.0844 9.9631 768 125.549 658.991 468.625
1380 1 40.2116 11.0167 443 115.492 656.795 489.255
1381 0 43.0817 15.2733 658 107.723 655.296 487.538
1382 0 41.1167 10.2635 422 116.818 655.118 489.941
1383 0 40.0948 10.2008 409 118.164 656.073 490.572
1384 0 44.0926 10.1831 449 118.849 655.884 489.421
1385 0 46.1125 12.4695 575 115.374 655.996 488.513
1386 0 46.1552 12.133 560 115.779 653.988 485.559
1387 0 47.1642 12.5519 592 115.792 653.586 488.404
1388 0 50.1342 9.63414 483 118.621 651.605 489.012
1389 0 51.1014 12.622 645 114.645 651.498 486.648
1390 0 52.1502 9.53016 497 119.708 651.177 485.531
1391 0 53.1012 10.9414 581 118.072 651.076 483.231
1392 0 54.1883 12.0321 652 116.79 650.939 480.896
1393 0 57.0904 11.9985 685 115.231 650.603 480.987
1394 0 57.0746 12.2822 701 116.027 650.255 478.417
1395 0 58.2142 9.41352 548 120.35 649.524 479.473
1396 0 63.155 11.1947 707 118.516 648.269 473.958
1397 0 65.1564 11.3726 741 116.586 649.47 476.664
1398 0 65.147 8.7034 567 123.425 648.644 470.621
1399 0 67.2606 11.1358 749 119.393 648.753 468.514
1400 0 68.1289 12.6672 863 117.389 648.315 466.676
1401 0 71.1697 11.2829 803 118.285 648.422 465.432
1402 0 71.1565 8.65698 616 122.278 648.683 467.359
1403 0 72.2079 10.7468 776 118.934 648.832 466.195
1404 0 80.2557 9.38251 753 120.279 648.95 461.234
1405 1 39.059 10.4201 407 112.088 648.172 478.425
1406 0 41.1146 12.8908 530 112.636 650.504 479.115
1407 0 41.0861 10.7822 443 118.786 650.761 477.187
1408 0 41.1622 10.981 452 119.757 652.035 479.48
1409 0 41.126 13.4465 553 116.524 652.25 474.089
1410 0 43.2228 10.5269 455 120.771 653.6 477.092
1411 0 45.0833 9.4048 424 120.856 654.656 478.998
1412 0 44.0877 9.54914 421 122.99 654.62 474.532
1413 0 47.0722 13.0225 613 116.806 655.129 474.476
1414 0 45.0619 7.19011 324 125.864 655.09 478.503
1415 0 50.159 13.0585 655 117.444 656.672 475.131
1416 0 50.0382 12.0508 603 119.073 657.046 476.698
1417 0 51.0406 10.2468 523 122.73 657.008 478.277
1418 0 55.0851 9.73039 536 122.091 657.834 479.192
1419 0 56.1475 11.4342 642 121.933 657.696 472.914
1420 0 55.1503 9.41066 519 125.723 657.435 472.773
1421 0 52.1589 7.1704 374 130.615 657.112 473.283
1422 0 56.218 9.78335 550 125.425 656.951 476.176
1423 0 60.1265 10.2284 615 123.272 656.728 476.029
1424 0 63.2126 13.6682 864 117.824 656.331 472.002
1425 0 67.1783 10.6284 714 120.655 655.814 478.024
1426 0 69.1692 9.52737 659 123.402 655.604 473.663
1427 0 71.1764 10.8041 769 122.287 655.215 471.908
1428 0 72.1979 9.4324 681 124.424 654.092 470.512
1429 1 39.1263 8.30644 325 127.172 653.502 489.957
1430 0 39.0388 10.6817 417 123.3 652.412 487.592
1431 0 40.024 9.49429 380 124.984 652.313 486.353
1432 0 45.1937 11.9043 538 119.42 651.216 485.571
1433 0 46.0288 11.7101 539 114.597 651.852 486.098
1434 0 46.1172 11.796 544 116.509 650.754 483.649
1435 0 47.0601 10.2422 482 118.878 650.927 483.048
1436 0 53.1376 9.8612 524 117.218 649.401 487.729
1437 0 49.1558 10.9855 540 118.159 649.824 480.981
1438 0 49.1897 13.0515 642 113.972 649.729 481.201
1439 0 54.1626 11.5578 626 117.251 649.655 477.778
1440 0 54.0512 11.8591 641 116.716 649.917 475.09
1441 0 54.1511 8.84562 479 121.9 649.29 472.33
1442 0 61.1997 10.8987 667 116.915 649.334 469.204
1443 0 61.1178 12.7459 779 113.381 649.829 471.145
1444 0 65.1392 11.9283 777 113.444 649.897 471.834
1445 0 66.0951 10.6513 704 118.034 649.778 464.73
1446 0 67.0655 10.6612 715 117.355 649.573 467.968
1447 0 67.2036 7.46984 502 121.944 650.898 466.416
1448 0 72.1689 9.50548 686 117.847 651.029 464.638
1449 1 38.0249 7.78437 296 121.024 651.777 478.963
1450 0 42.1448 11.8639 500 112.334 652.836 476.138
1451 0 42.1617 9.65331 407 116.791 652.602 477.034
1452 0 42.0335 9.30211 391 120.926 654.67 473.138
1453 0 42.0335 9.25453 389 131.165 655.694 473.231
1454 0 46.0134 8.73659 402 122.012 655.177 477.219
1455 0 44.0654 9.93977 438 122.014 655.763 474.945
1456 0 46.0247 12.8627 592 116.157 655.666 475.855
1457 0 45.0803 10.8695 490 119.927 655.549 476.888
1458 0 50.0708 10.7048 536 119.427 657.466 476.215
1459 0 50.212 12.6464 635 117.269 657.195 475.324
1460 0 49.2065 8.98256 442 124.158 658.195 474.33
1461 0 53.041 12.085 641 117.46 657.983 476.755
1462 0 54.0542 10.9705 593 119.695 657.73 477.752
1463 0 55.1246 8.87082 489 123.885 657.301 478.29
1464 0 57.0313 12.1688 694 119.232 657.415 478.244
1465 0 58.2792 10.0207 584 123.37 656.937 475.971
1466 1 125.344 13.8977 1742 122.447 657.49 446.905
1467 0 128.237 13.7714 1766 123.108 656.514 441.996
1468 1 67.065 13.6137 913 115.537 657.132 474.536
1469 0 68.1609 12.089 824 118.155 655.498 473.551
1470 0 72.1573 11.669 842 118.975 655.384 471.247
1471 0 72.1554 8.1075 585 125.074 654.855 471.615
1472 1 37.034 8.28969 307 127.205 653.505 491.208
1473 0 40.0175 10.4954 420 123.674 652.012 487.881
1474 0 40.0301 9.318 373 127.399 652.311 484.823
1475 0 44.0297 10.6292 468 125.573 652.981 486.303
1476 0 43.0508 12.1252 522 122.736 652.835 487.41
1477 0 46.0667 11.3314 522 125.642 652.663 483.755
1478 0 47.2366 12.0881 571 123.676 651.592 484.193
1479 0 50.2019 14.1429 710 118.497 651.355 481.607
1480 0 51.2791 13.1828 676 121.475 651.324 479.22
1481 0 53.1018 16.4401 873 115.331 650.111 478.828
1482 0 53.142 13.4357 714 122.513 649.859 474.87
1483 0 55.1003 11.7059 645 125.433 650.312 474.276
1484 0 56.1167 12.5987 707 123.204 650.192 473.818
1485 0 58.0433 11.9566 694 118.886 649.931 472.631
1486 0 58.1748 12.514 728 118.997 650.269 468.587
1487 1 117.539 10.3965 1222 126.013 650.211 447.492
1488 0 122.192 11.5392 1410 125.376 649.894 439.982
1489 0 127.352 13.1368 1673 122.515 650.622 437.096
1490 0 132.408 12.5673 1664 123.635 650.361 437.738
1491 0 133.475 8.67581 1158 131.567 651.383 429.882
1492 0 141.496 13.4845 1908 122.632 652.548 430.655
1493 1 40.0671 12.6039 505 113.032 653.194 477.057
1494 0 36.1051 7.11811 257 121.938 653.77 479.152
1495 0 41.0506 11.5954 476 112.122 654.168 477.521
1496 0 43.1287 12.2656 529 109.654 655.081 478.274
1497 1 83.5807 12.0602 1008 119.092 655.037 453.209
1498 0 85.1331 11.3822 969 120.282 655.402 455.268
1499 0 89.2772 13.1613 1175 117.55 656.557 453.74
1500 0 95.4882 12.7869 1221 117.159 656.337 453.616
1501 1 45.1026 11.5514 521 113.298 657.09 478.044
1502 0 47.1022 12.1863 574 113.22 657.751 477.28
1503 0 49.1715 9.00929 443 117.894 657.688 479.07
1504 0 50.026 8.43561 422 119.806 657.758 479.209
1505 0 54.128 12.9877 703 110.77 656.979 478.528
1506 0 52.1435 9.62729 502 116.956 658.448 480.761
1507 0 55.0627 12.4585 686 113.649 657.152 477.529
1508 0 55.2557 9.50128 525 117.85 656.979 480.171
1509 1 122.508 12.9297 1584 118.491 656.304 452.712
1510 0 122.694 10.1472 1245 125.837 656.92 446.567
1511 0 127.284 9.78916 1246 127.26 656.536 444.051
1512 0 135.555 8.19594 1111 128.055 655.493 449.266
1513 0 138.104 10.8397 1497 124.272 655.952 446.412
1514 0 138.837 12.5975 1749 121.025 655.332 447.896
1515 0 144.778 9.49733 1375 127.171 653.669 446.067
1516 0 151.918 10.7295 1630 125.709 652.856 442.177
1517 1 37.0381 10.9887 407 120.179 650.862 491.4
1518 0 38.0184 7.7068 293 124.174 650.341 489.174
1519 0 39.0369 11.1177 434 118.659 651.154 488.972
1520 0 38.1295 12.3264 470 115.94 651.292 490.034
1521 0 38.0147 9.31219 354 123.48 651.082 487.144
1522 0 42.0845 10.4076 438 121.114 650.539 486.486
1523 0 43.2809 11.8759 514 118.969 650.249 485.837
1524 0 43.1178 11.2251 484 120.477 649.205 485.74
1525 0 41.0967 11.1201 457 122.604 649.354 482.656
1526 0 44.0837 12.1133 534 121.526 649.837 483.184
1527 0 47.0998 16.2634 766 114.748 649.927 479.033
1528 0 47.0697 13.4269 632 119.897 649.862 478.514
1529 0 48.0464 10.6356 511 123.908 649.522 478.309
1530 0 50.0663 10.6059 531 124.211 650.192 475.151
1531 0 54.1452 9.47453 513 122.614 648.626 476.341
1532 0 55.1245 13.0976 722 119.096 650.15 470.65
1533 0 58.1334 13.1766 766 117.931 649.526 472.251
1534 0 57.1457 10.622 607 129.448 649.409 470.769
1535 0 60.2448 12.3662 745 121.005 650.917 467.38
1536 0 64.1662 14.2287 913 118.116 652.614 464.08
1537 0 66.2428 10.2049 676 124.868 653.614 463.783
1538 0 70.2527 14.092 990 117.572 654.222 466.658
1539 0 72.2564 12.2619 886 121.518 654.415 461.604
1540 0 73.1582 10.1834 745 126.201 655.76 456.338
1541 0 77.2238 11.7192 905 123.736 656.16 458.771
1542 0 79.1591 13.0876 1036 120.2 655.811 461.41
1543 0 79.1384 13.1542 1041 117.867 654.842 461.281
1544 1 42.0606 10.9128 459 125.135 655.671 478.985
1545 0 44.0464 12.2598 540 122.189 656.296 478.102
1546 0 45.1012 13.5917 613 119.757 656.561 479.979
1547 0 45.1189 13.808 623 123.329 656.231 481.409
1548 0 48.0591 11.7772 566 121.293 657.399 482.14
1549 0 48.0514 10.7177 515 123.4 656.961 481.829
1550 0 50.0642 11.0658 554 121.623 657.289 484.493
1551 0 51.0741 11.6889 597 120.992 657.008 481.879
1552 0 53.2667 13.2541 706 117.803 656.752 481.51
1553 0 56.1952 13.6844 769 117.528 656.977 481.566
1554 0 56.0434 7.42282 416 127.608 656.897 479.781
1555 0 57.0857 10.1777 581 122.89 655.509 480.952
1556 0 61.1234 11.3541 694 122.056 655.545 478.938
1557 0 61.2159 8.33117 510 126.631 654.561 479.127
1558 0 65.2686 10.7709 703 122.586 653.738 476.984
1559 0 70.4894 12.6118 889 118.039 653.05 476.281
1560 1 37.124 9.58947 356 121.469 652.41 492.062
1561 0 39.1086 12.3246 482 116.932 652.023 489.332
1562 0 41.012 12.7768 524 115.834 651.193 489.454
1563 0 41.1133 13.1344 540 117.454 652.113 486.843
1564 0 41.0824 11.6352 478 118.856 650.996 485.638
1565 0 44.1567 11.5498 510 118 649.908 485.867
1566 0 45.2318 12.1817 551 117.138 649.673 483.824
1567 0 44.1904 11.2242 496 118.7 649.994 483.649
1568 0 49.1642 12.082 594 116.402 649.03 484.286
1569 0 50.1882 11.5963 582 118.39 649.426 481.586
1570 0 51.1249 9.7604 499 120.824 648.555 479.637
1571 0 52.1144 12.9139 673 113.339 648.632 481.383
1572 0 55.1697 12.8875 711 114.526 649.437 476.03
1573 0 55.2969 11.1941 619 118.635 649.79 473.808
1574 0 56.1177 11.4224 641 117.445 649.894 473.626
1575 0 57.1163 12.6584 723 117.48 650.974 468.607
1576 0 62.1242 11.3804 707 119.226 650.97 468.395
1577 0 65.1984 13.4513 877 116.257 651.571 464.997
1578 0 65.1925 14.3115 933 115.731 651.404 461.945
1579 0 68.1463 11.2699 768 118.969 652.363 465.232
1580 0 69.1686 11.9129 824 117.817 653.358 464.32
1581 0 71.2779 11.392 812 119.659 653.659 459.43
1582 0 72.0973 9.62588 694 122.252 653.442 462.705
1583 0 80.1958 13.4296 1077 115.279 654.235 459.373
1584 0 81.1784 11.6533 946 118.718 654.989 459.124
1585 1 41.0316 9.50487 390 118.354 654.218 481.328
1586 0 44.0275 10.7887 475 117.564 654.773 477.905
1587 0 47.091 13.0173 613 111.762 654.71 480.76
1588 0 49.0255 12.2997 603 114.891 655.851 479.33
1589 0 50.153 12.8806 646 114.817 656.002 478.128
1590 0 50.1166 13.1493 659 113.29 656.426 479.917
1591 0 50.0308 12.6522 633 115.487 657.229 478.578
1592 0 51.0819 8.90726 455 121.466 657.347 482.266
1593 0 50.0979 8.08416 405 124.264 657.042 479.57
1594 0 51.093 8.86619 453 122.817 658.154 481.139
1595 0 55.0568 11.1521 614 118.546 657.697 481.389
1596 1 118.619 15.0397 1784 116.568 655.331 455.41
1597 0 123.348 13.6687 1686 120.77 655.174 446.713
1598 0 123.351 11.4146 1408 125.07 655.166 452.34
1599 1 61.1896 9.74022 596 122.272 655.889 478.904
1600 0 67.0474 13.483 904 114.367 655.951 476.876
1601 0 68.1066 11.1002 756 118.896 654.168 477.864
1602 0 67.1387 11.2007 752 118.043 654.763 478.308
1603 0 73.1584 11.1402 815 118.432 652.963 474.098
1604 0 73.217 12.6064 923 115.339 652.468 475.532
1605 0 77.2088 11.3588 877 118.274 651.686 470.166
1606 0 82.1309 9.75272 801 119.593 651.152 470.986
1607 0 81.1793 12.2445 994 116.353 651.366 467.015
1608 0 85.2055 14.0484 1197 113.86 650.727 464.318
1609 1 43.0753 10.0754 434 118.454 650.316 484.585
1610 0 41.1044 9.99892 411 117.44 650.338 485.389
1611 0 44.1551 16.5779 732 106.796 650.27 481.966
1612 0 46.1138 14.4642 667 110.529 648.832 479.289
1613 0 45.0996 9.68967 437 117.716 648.956 481.819
1614 0 47.1577 12.49 589 111.616 648.862 479.599
1615 0 48.0761 13.5618 652 111.204 647.592 476.798
1616 0 48.0761 13.437 646 118.72 646.531 476.811
1617 0 51.1997 13.418 687 112.53 649.668 472.953
1618 0 53.1422 12.4948 664 115.099 650.011 472.45
1619 0 55.1346 13.984 771 111.281 650.001 470.147
1620 0 56.1473 10.5437 592 117.307 651.463 469.738
1621 0 58.0636 13.1235 762 112.672 651.465 467.529
1622 0 60.1379 11.8228 711 116.442 651.536 464.335
1623 0 59.0637 10.6495 629 119.057 651.154 463.496
1624 0 63.1957 15.2384 963 111.089 653.019 463.888
1625 0 65.2647 11.6296 759 116.688 654.08 465.103
1626 0 66.1047 10.3018 681 119.608 654.568 464.041
1627 0 66.1697 9.6721 640 120.844 655.17 463.045
1628 0 70.0933 11.6844 819 118.155 655.713 462.719
1629 1 40.1135 12.4397 499 112.507 655.527 478.535
1630 0 37.0664 8.87597 329 119.264 655.511 480.34
1631 0 39.119 8.33355 326 119.454 656.31 480.543
1632 0 42.1263 12.9135 544 112.765 656.985 480.211
1633 0 45.1612 12.3779 559 113.263 656.143 480.703
1634 0 45.0866 11.7773 531 116.397 658.25 480.678
1635 0 47.1049 13.2895 626 113.289 657.104 481.995
1636 0 47.1235 13.4752 635 116.573 657.638 480.041
1637 0 50.1266 12.4684 625 115.979 656.088 484.186
1638 0 50.0892 11.4995 576 120.536 656.424 482.995
1639 0 51.1334 11.9687 612 121.052 655.845 481.255
1640 0 54.1184 13.6922 741 116.169 654.915 482.96
1641 0 55.1369 12.5143 690 118.323 654.542 483.132
1642 0 55.1267 13.5869 749 117.804 653.726 482.332
1643 0 56.1298 11.5981 651 122.301 653.556 481.822
1644 0 58.176 12.6169 734 129.658 653.514 480.148
1645 0 59.0386 12.1785 719 121.675 652.099 480.869
1646 0 62.1498 10.1046 628 124.861 651.889 481.599
1647 0 64.2107 11.5557 742 122.102 651.612 479.493
1648 0 67.2961 12.5862 847 121.621 651.027 474.841
1649 0 70.1607 13.8254 970 120.058 650.853 474.977
1650 0 69.3079 12.7835 886 123.076 649.44 472.061
1651 0 72.2642 11.9008 860 125.528 649.858 473.942
1652 0 76.2088 12.4133 946 125.746 650.637 470.705
1653 0 76.4325 11.8798 908 127.525 649.623 466.818
1654 0 80.192 13.6921 1098 123.552 647.734 466.291
1655 1 44.1244 10.5384 465 129.131 648.875 482.695
1656 0 45.1018 11.9729 540 127.15 648.206 479.967
1657 0 49.1839 14.7812 727 118.754 647.985 479.495
1658 0 48.1135 13.7384 661 122.412 647.495 478.002
1659 0 43.0581 10.6368 458 128.799 648.328 478.105
1660 0 46.168 10.8084 499 127.918 648.892 476.206
1661 0 48.1164 12.3451 594 126.034 649.95 472.386
1662 0 48.134 11.1356 536 129.269 650.231 473.851
1663 0 51.13 11.1676 571 128.305 650.7 472.956
1664 0 52.1029 11.3621 592 129.336 649.062 468.814
1665 0 56.1327 11.2947 634 126.901 651.385 471.756
1666 0 57.0757 13.3857 764 124.534 652.643 468.979
1667 0 59.2057 12.3806 733 126.454 653.325 466.263
1668 0 62.1959 13.4414 836 123.934 652.75 465.605
1669 0 64.0959 14.8372 951 123.124 654.087 463.986
1670 0 64.0886 14.8076 949 132.975 655.084 464.023
1671 0 65.0808 11.5395 751 130.431 654.955 466.302
1672 0 69.0632 12.4668 861 128.693 654.932 465.524
1673 0 72.1301 14.8759 1073 121.894 656.837 467.278
1674 0 73.2114 13.181 965 125.555 656.89 468.04
1675 0 78.1554 11.9378 933 129.061 656.98 464.87
1676 0 79.2212 11.6383 922 130.48 656.488 465.23
1677 1 43.0347 9.59691 413 133.777 654.7 482.293
1678 0 45.099 11.6189 524 130.109 655.861 483.424
1679 0 47.2653 13.6887 647 125.348 655.121 482.91
1680 0 42.0404 10.6802 449 128.056 656.194 484.261
1681 0 48.058 13.6086 654 119.861 655.448 486.153
1682 0 48.1618 12.3542 595 124.602 655.797 484.21
1683 0 48.0227 11.4113 548 128.883 654.996 483.81
1684 0 50.1148 9.19889 461 131.527 654.772 486.92
1685 0 53.0629 13.4369 713 123.491 654.607 484.957
1686 0 54.0755 13.3517 722 122.766 653.362 485.521
1687 0 57.0757 13.3332 761 123.108 653.334 483.116
1688 0 58.1388 9.76972 568 131.241 653.313 480.824
1689 0 61.0354 12.9924 793 124.792 651.926 479.049
1690 0 62.2114 11.2037 697 126.311 651.779 478.831
1691 0 64.215 11.6172 746 124.143 651.44 478.359
1692 0 65.1593 13.2752 865 122.26 650.045 473.21
1693 0 67.1585 10.9443 735 126.053 649.37 474.058
1694 0 71.158 11.0318 785 124.387 649.135 474.982
1695 0 73.1011 13.6523 998 120.679 649.203 469.091
1696 0 75.0786 9.90961 744 125.897 648.776 474.172
1697 0 76.2692 11.8265 902 124.419 648.759 467.955
1698 0 80.098 12.7594 1022 121.411 648.446 466.345
1699 0 82.5224 10.6759 881 124.412 648.678 464.885
1700 0 85.1983 10.7631 917 121.944 649.047 462.58
1701 0 91.3494 14.4828 1323 116 649.96 459.09
1702 0 91.1545 9.32483 850 126.424 649.386 456.531
1703 1 49.0857 9.88068 485 125.06 650.177 475.043
1704 0 52.1002 11.19 583 122.038 648.895 471.882
1705 0 55.2455 12.2725 678 120.04 651.09 470.04
1706 0 56.2396 13.5847 764 118.69 651.541 470.342
1707 0 59.2528 16.8431 998 111.607 652.561 466.508
1708 0 59.292 13.0709 775 118.014 652.96 467.634
1709 0 60.2773 11.978 722 120.479 653.938 464.648
1710 0 62.2189 13.0025 809 118.37 654.042 463.352
1711 0 66.1774 10.6079 702 120.638 654.705 466.989
1712 0 70.1735 12.9536 909 116.318 655.344 463.529
1713 0 72.1656 16.4898 1190 110.796 655.372 460.187
1714 0 75.1269 13.6303 1024 114.974 656.186 460.011
1715 0 78.0839 14.3563 1121 112.384 656.441 463.03
1716 0 80.1227 11.0955 889 117.327 657.72 462.515
1717 0 85.1059 13.0191 1108 113.343 657.22 462.711
1718 0 85.1113 11.1384 948 116.611 656.181 459.86
1719 0 88.1144 13.142 1158 112.528 656.952 460.388
1720 0 95.1632 13.2194 1258 111.813 657.577 459.998
1721 0 97.2413 11.4046 1109 113.914 656.692 457.16
1722 1 50.1104 10.9358 548 113.469 656.064 483.527
1723 0 52.1228 11.6456 607 112.562 655.45 484.906
1724 0 55.1384 10.7366 592 114.311 654.845 480.007
1725 0 56.0914 14.102 791 110.292 654.446 480.468
1726 0 58.023 11.4265 663 113.818 655.398 480.744
1727 0 58.172 12.0505 701 113.248 654.826 480.994
1728 0 63.066 12.0033 757 113.083 653.856 481.34
1729 0 65.1205 11.9932 781 113.526 653.461 479.465
1730 0 68.1432 10.4486 712 114.822 650.341 479.626
1731 0 75.2828 10.1883 767 113.22 651.413 480.308
1732 0 75.0576 13.2698 996 110.61 651.166 473.541
1733 0 75.1202 13.099 984 112.454 651.348 470.404
1734 0 79.0818 13.897 1099 110.452 650.279 470.823
1735 0 82.1937 13.9305 1145 111.51 650.733 468.289
1736 0 80.2557 13.2576 1064 111.617 648.949 470.641
1737 0 85.2103 11.0081 938 116.765 649.144 466.189
1738 0 87.1973 12.3284 1075 116.65 648.8 459.985
1739 0 91.2724 10.8686 992 118.061 648.797 464.06
1740 0 95.2071 12.142 1156 116.469 648.801 458.498
1741 0 96.1094 12.4962 1201 116.162 648.27 459.281
1742 1 54.0777 12.9628 701 112.832 648.401 476.987
1743 0 55.1315 11.1551 615 113.603 648.911 478.166
1744 0 58.1513 13.0006 756 113.282 648.792 473.169
1745 0 59.0404 14.8881 879 109.506 649.403 470.614
1746 0 62.1092 14.3135 889 109.774 649.305 471.827
1747 0 63.1529 12.7785 807 113.259 648.617 469.051
1748 0 68.238 18.5527 1266 101.092 650.85 471.047
1749 0 68.0625 12.0478 820 112.743 651.254 464.856
1750 0 68.0853 14.0559 957 111.26 651.34 463.637
1751 0 70.1661 11.8861 834 115.958 652.219 460.524
1752 0 73.113 12.6927 928 114.218 653.048 459.477
1753 0 76.3025 14.2459 1087 110.893 653.491 455.165
1754 0 79.4179 12.4279 987 114.611 654.721 443.867
1755 0 83.1385 14.6743 1220 111.775 655.216 443.859
1756 0 83.1385 14.6142 1215 135.547 655.207 443.834
1757 0 90.3965 13.1642 1190 114.912 655.524 443.003
1758 0 91.354 15.3578 1403 113.708 655.527 441.622
1759 0 95.3277 16.438 1567 111.785 657.546 434.053
1760 0 98.298 13.4896 1326 118.704 657.865 438.192
1761 1 50.0607 11.3063 566 114.576 658.452 462.378
1762 0 53.1197 10.9752 583 114.389 657.273 463.645
1763 0 56.1311 10.4755 588 116.366 657.218 466.439
1764 0 58.2129 12.0592 702 116.272 657.514 472.499
1765 0 59.1417 14.1694 838 110.649 657.025 477.696
1766 0 60.1666 10.687 643 117.841 656.611 475.067
1767 0 61.2388 12.5737 770 117.751 656.043 475.782
1768 0 67.2315 12.0033 807 116.33 656.561 477.776
1769 0 67.2445 13.2799 893 112.027 656.148 477.355
1770 0 73.1953 12.7057 930 112.599 655.153 474.191
1771 0 72.0929 13.871 1000 110.26 654.428 473.087
1772 0 77.2439 11.6643 901 114.413 652.811 469.202
1773 0 78.1443 12.0034 938 113.619 653.052 472.178
1774 0 83.1462 13.1094 1090 111.766 652.163 468.822
1775 0 86.2107 13.5366 1167 109.535 651.373 469.761
1776 0 92.2504 13.9078 1283 109.869 650.68 460.861
1777 1 49.1235 11.1352 547 107.654 649.91 485.333
1778 0 49.0355 12.6439 620 107.432 649.756 481.473
1779 0 50.1007 11.2773 565 109.285 649.384 483.299
1780 0 51.248 10.615 544 112.665 647.553 480.489
1781 0 52.2465 14.6804 767 106.323 648.048 480.076
1782 0 52.1152 13.1248 684 108.367 648.013 476.412
1783 0 54.1909 13.7477 745 107.737 648.196 476.357
1784 0 56.3263 14.0609 792 107.362 647.502 472.955
1785 0 55.1695 11.9088 657 113.161 646.887 473.609
1786 0 58.197 11.5642 673 113.437 648.107 473.217
1787 0 58.1251 13.9011 808 108.754 647.905 474.277
1788 0 62.147 14.4013 895 107.779 648.999 470.887
1789 0 62.2252 18.9955 1182 102.471 648.988 466.856
1790 0 64.1737 11.6091 745 114.537 648.945 465.871
1791 0 66.2072 14.4093 954 109.395 649.966 463.217
1792 0 68.1476 13.0599 890 112.334 649.8 462.66
1793 0 68.0961 12.2621 835 114.776 650.936 463.428
1794 0 71.1936 16.1672 1151 109.336 651.339 460.923
1795 0 78.1392 16.1507 1262 105.836 652.419 464.033
1796 0 76.1399 12.477 950 114.747 651.808 461.112
1797 0 78.1442 16.1752 1264 110.811 653.218 457.363
1798 0 81.3494 12.7475 1037 115.85 653.075 460.651
1799 0 81.1924 12.2425 994 118.126 653.773 456.874
1800 0 86.1902 15.5702 1342 112.777 654.045 457.393
1801 1 46.0183 14.4942 667 112.702 653.48 476.741
1802 0 46.0623 10.6812 492 121.191 654.307 477.1
1803 0 48.1233 12.1978 587 117.835 654.618 480.509
1804 0 49.071 13.4091 658 116.267 654.839 479.391
1805 0 50.0893 16.8898 846 108.896 656.54 480.694
1806 0 50.1406 11.9265 598 119.333 656.836 480.276
1807 0 54.121 13.6546 739 115.893 656.683 470.014
1808 0 55.0837 14.0513 774 116.058 656.713 463.846
1809 0 58.364 12.9361 755 118.815 655.566 461.775
1810 0 58.1573 14.2544 829 117.391 655.256 461.573
1811 0 62.2018 14.26 887 116.415 655.039 460.965
1812 0 64.1644 15.1953 975 116.16 654.871 462.309
1813 0 65.1985 13.8653 904 119.294 654.732 463.919
1814 0 68.0551 15.7813 1074 115.149 654.113 468.725
1815 0 70.1331 14.444 1013 119.376 652.643 459.623
1816 0 72.2088 13.7102 990 121.558 652.637 457.02
1817 0 72.2257 11.0764 800 128.74 650.914 453.634
1818 1 40.2037 13.2824 534 122.116 651.966 463.109
1819 0 41.2649 12.5288 517 122.139 651.037 464.673
1820 0 44.2124 11.7614 520 120.665 650.846 465.921
1821 0 43.14 11.822 510 122.588 650.096 467.992
1822 0 44.0542 11.5993 511 130.738 649.102 473.137
1823 0 48.1861 13.1573 634 127.514 648.675 477.076
1824 0 47.3566 12.332 584 131.048 648.235 477.694
1825 0 49.3077 12.3713 610 129.892 648.972 477
1826 0 51.5692 14.1945 732 125.16 648.719 477.877
1827 0 50.1901 10.7591 540 135.246 647.985 474.567
1828 0 54.5397 19.9121 1086 115.534 647.881 469.663
1829 0 55.2141 15.2497 842 125.531 648.985 468.47
1830 0 58.2974 13.9457 813 128.664 648.684 468.293
1831 0 60.5114 13.1545 796 129.322 648.178 470.028
1832 0 61.5675 16.3885 1009 123.877 649.281 465.478
1833 0 63.3541 15.1845 962 126.109 649.323 465.117
1834 0 65.4111 14.3401 938 127.968 649.833 462.727
1835 0 68.4596 12.9712 888 129.472 650.349 460.019
1836 0 71.5001 15.8461 1133 123.104 650.269 454.635
1837 0 70.1441 11.9183 836 129.829 651.505 459.966
1838 0 74.2869 15.0767 1120 122.458 651.62 459.704
1839 0 77.3853 13.155 1018 123.084 653.804 456.555
1840 0 81.2127 14.4189 1171 120.741 653.467 456.869
1841 1 40.072 10.7057 429 126.026 654.564 475.685
1842 0 40.072 10.9802 440 138.189 655.568 475.932
1843 0 44.0545 10.714 472 123.941 655.532 469.761
1844 0 47.171 15.094 712 116.914 656.239 468.388
1845 0 49.0907 14.626 718 119.585 657.017 465.301
1846 0 49.1404 13.3698 657 123.726 656.426 465.498
1847 0 49.1174 11.8288 581 127.145 658.132 469.444
1848 0 51.0239 15.5025 791 119.71 656.875 468.439
1849 0 53.132 12.6666 673 125.257 657.125 470.037
1850 0 54.1122 13.4535 728 124.87 656.832 465.952
1851 0 56.0427 12.4548 698 126.898 656.716 471.047
1852 0 58.0704 12.5365 728 125.334 656.305 473.31
1853 0 61.0811 12.9336 790 126.124 654.663 470.296
1854 0 63.0414 12.8646 811 125.21 654.381 467.186
1855 0 64.134 11.5539 741 128.287 654.734 470.536
1856 0 70.088 13.5258 948 122.87 654.172 469.1
1857 0 69.1408 12.7276 880 126.411 653.968 469.985
1858 0 70.1089 11.8245 829 128.969 653.281 471.288
1859 0 77.2789 14.273 1103 123.077 652.359 466.628
1860 0 79.2421 13.7301 1088 121.688 652.003 464.22
1861 0 87.3934 14.5778 1274 116.805 650.663 461.465
1862 0 90.3346 19.2285 1737 108.981 650.565 451.712
1863 0 88.0978 12.8267 1130 123.794 648.759 447.448
1864 1 46.0782 11.5673 533 124.696 649.092 464.433
1865 0 48.2513 11.6681 563 126.964 649.133 463.817
1866 0 53.1521 12.8687 684 116.686 649.206 465.734
1867 0 54.3601 12.1413 660 116.909 649.73 468.362
1868 0 52.167 10.1788 531 120.701 649.298 468.945
1869 0 54.2395 12.4264 674 118.352 649.157 466.899
1870 0 55.169 13.4858 744 114.712 649.199 470.677
1871 0 56.32 13.7429 774 111.655 648.999 471.191
1872 0 58.2755 15.4439 900 108.688 648.696 469.912
1873 0 58.3192 11.197 653 117.291 649.152 465.453
1874 0 60.3474 12.3618 746 113.704 649.105 469.247
1875 0 59.2647 10.4447 619 118.638 648.956 463.246
1876 0 64.221 12.5815 808 112.814 650.292 465.337
1877 0 65.3153 11.9727 782 113.986 650.491 459.012
1878 0 70.5437 14.4166 1017 107.881 650.432 455.854
1879 0 69.3847 12.2794 852 112.417 650.971 455.701
1880 0 74.2579 15.123 1123 108.205 651.036 453.23
1881 0 79.5128 15.0542 1197 107.397 652.63 455.042
1882 0 76.1338 11.887 905 114.213 652.414 453.467
1883 0 80.1881 12.8323 1029 114.443 653.029 450.757
1884 0 80.1881 12.8074 1027 138.771 653.045 450.857
1885 0 85.1486 15.5728 1326 110.854 653.966 448.779
1886 0 89.1148 11.9733 1067 115.492 653.831 454.003
1887 1 50.045 15.0065 751 105.196 655.561 471.108
1888 0 54.0391 9.69668 524 112.912 656.601 470.59
1889 0 51.1097 10.2524 524 118.24 656.985 462.052
1890 0 55.1177 11.0309 608 113.202 656.998 468.048
1891 0 58.2786 11.9255 695 108.612 655.478 465.515
1892 0 59.2292 12.8822 763 106.975 656.844 468.676
1893 0 58.1623 13.5311 787 107.952 656.027 462.601
1894 0 62.1581 10.0228 623 114.406 655.693 466.774
1895 0 62.1426 13.3564 830 108.857 655.025 468.866
1896 0 66.1548 11.5638 765 110.733 654.82 468.186
1897 0 69.2792 14.1312 979 107.013 654.297 466.297
1898 0 70.2824 11.9802 842 110.238 654.367 466.342
1899 0 76.9895 12.9758 999 106.092 654.258 470.898
1900 0 73.3248 10.8695 797 113.999 653.156 466.271
1901 0 78.2459 11.3744 890 113.018 652.322 471.247
1902 0 77.1451 10.1756 785 113.976 652.428 463.28
1903 0 81.4303 12.919 1052 112.295 652.159 457.959
1904 0 85.2744 13.8729 1183 110.32 651.423 457.546
1905 0 86.2414 11.6186 1002 115.922 651.317 457.041
1906 1 49.1457 11.4761 564 109.635 649.942 482.592
1907 0 53.5461 9.71126 520 117.46 648.325 483.204
1908 0 55.297 14.3227 792 112.359 647.771 477.396
1909 0 56.4766 13.3152 752 116.16 647.935 473.328
1910 0 56.393 13.9556 787 117.034 646.929 471.675
1911 0 56.1642 11.5376 648 119.469 646.898 472.647
1912 0 59.1223 11.2817 667 120.523 646.324 475.219
1913 0 60.0283 12.3275 740 120.931 646.236 471.084
1914 0 62.3332 10.8449 676 122.015 646.25 473.141
1915 0 64.1239 14.5811 935 116.297 646.909 469.507
1916 0 64.1143 12.9924 833 120.043 646.403 468.49
1917 0 66.0558 11.7325 775 123.582 646.631 464.737
1918 0 71.1446 16.7546 1192 112.73 646.006 462.643
1919 0 73.0778 14.984 1095 114.834 647.326 464.108
1920 0 75.1695 14.3808 1081 117.266 648.054 461.314
1921 0 75.0388 15.2055 1141 115.803 648.635 461.387
1922 0 80.2263 14.2223 1141 117.522 649.224 457.961
1923 0 82.1913 15.3909 1265 115.73 651.005 451.956
1924 0 82.1126 15.1134 1241 117.412 650.323 451.309
1925 1 46.0328 12.8387 591 117.186 651.063 472.937
1926 0 50.1001 13.7924 691 111.836 651.667 475.501
1927 0 52.0572 15.0412 783 111.995 652.028 472.041
1928 0 51.1112 12.0521 616 118.599 652.19 471.752
1929 0 56.0718 17.9056 1004 107.123 652.615 469.18
1930 0 56.1516 14.6568 823 113.882 653.035 468.183
1931 0 55.0526 11.8614 653 120.666 653.559 472.291
1932 0 57.0909 11.2452 642 122.182 653.639 472.307
1933 0 59.0932 12.6918 750 120.165 653.94 470.796
1934 0 59.0821 12.3726 731 122.531 653.829 471.048
1935 0 64.1845 14.6297 939 115.801 654.002 465.745
1936 0 66.0969 14.4939 958 117.654 654.157 469.444
1937 0 66.0402 13.2344 874 123.003 653.436 471.43
1938 0 67.1227 13.7658 924 122.492 653.565 472.5
1939 0 67.1227 13.8403 929 150.799 653.566 472.52
1940 0 72.1018 13.8277 997 122.289 653.16 472.276
1941 0 75.1252 17.8768 1343 114.446 652.905 472.839
1942 0 77.0861 12.6352 974 124.504 652.483 472.849
1943 0 82.1132 15.6613 1286 117.339 651.171 469.654
1944 0 83.1219 14.8096 1231 120.057 649.988 469.126
1945 1 47.1056 11.8245 557 120.196 650.151 487.943
1946 0 48.0577 12.6098 606 114.853 649.051 490.657
1947 0 51.0451 10.4026 531 122.454 649.028 484.463
1948 0 47.0966 9.76715 460 125.217 647.094 481.609
1949 0 52.1832 13.9317 727 115.444 647.484 480.364
1950 0 55.1043 15.5705 858 110.259 647.685 480.852
1951 0 57.1618 13.3306 762 113.311 645.97 479.283
1952 0 57.2074 12.1313 694 116.664 645.739 476.324
1953 0 58.1457 14.928 868 112.083 646.43 475.305
1954 0 59.0631 13.4941 797 115.051 646.74 473.891
1955 0 63.125 12.6416 798 115.054 645.759 474.123
1956 0 65.0772 16.4881 1073 106.955 646.35 474.065
1957 0 66.146 14.6797 971 110.942 646.613 471.136
1958 0 67.1127 14.1702 951 112.053 645.874 468.272
1959 0 71.1495 15.6853 1116 107.589 646.38 469.262
1960 0 73.1761 16.0435 1174 108.09 646.413 462.545
1961 0 74.2504 16.3501 1214 108.616 646.683 463.066
1962 0 76.0632 12.9629 986 114.938 646.536 461.573
1963 0 78.0668 14.4492 1128 112.747 647.392 457.468
1964 0 81.1366 10.7966 876 119.027 648.071 455.96
1965 0 84.0656 12.4784 1049 116.771 647.816 455.233
1966 1 43.0255 11.9232 513 117.136 648.628 471.801
1967 0 45.0598 13.0049 586 114.608 649.892 471.722
1968 0 47.0975 12.782 602 113.748 651.907 471.683
1969 0 47.2271 13.3186 629 115.461 652.059 471.789
1970 0 49.2011 13.4347 661 115.592 653.168 470.97
1971 0 49.1197 13.6198 669 116.543 654.067 470.155
1972 0 50.1798 15.3249 769 113.681 653.999 470.925
1973 0 53.2543 12.5436 668 118 654.796 470.671
1974 0 53.1744 11.8854 632 119.794 655.038 469.506
1975 0 55.3232 18.7263 1036 107.41 655.15 471.992
1976 0 57.3036 14.3098 820 115.568 655.182 469.037
1977 0 61.1815 15.7237 962 111.359 655.353 470.928
1978 0 61.1568 15.7791 965 112.041 655.869 470.854
1979 0 62.1177 16.1629 1004 109.966 654.904 473.129
1980 0 64.2736 14.236 915 113.411 653.941 474.379
1981 0 67.0673 13.0019 872 116.036 653.445 471.125
1982 0 66.0605 13.6541 902 117.022 653.33 471.313
1983 0 73.0706 15.314 1119 113.153 653.064 470.912
1984 0 74.0923 14.3605 1064 116.421 651.95 469.977
1985 0 74.0825 15.0103 1112 114.888 652.236 466.976
1986 0 79.1485 13.6452 1080 117.4 651.202 467.435
1987 0 84.2474 14.0064 1180 116.696 650.255 465.975
1988 0 86.1181 17.6386 1519 110.326 648.54 466.211
1989 0 89.4126 13.8683 1240 118.323 650.234 459.863
1990 0 93.3409 14.8488 1386 114.815 649.305 460.128
1991 1 50.2554 11.2625 566 120.97 648.346 478.721
1992 0 51.083 9.69012 495 125.234 648.473 477.513
1993 0 55.151 12.4748 688 117.404 647.967 475.705
1994 0 55.151 12.5111 690 133.11 647.99 475.614
1995 0 59.0614 14.1209 834 113.572 647.354 475.177
1996 0 60.0502 13.1557 790 114.522 645.414 473.301
1997 0 60.2018 10.8967 656 119.732 646.755 472.474
1998 0 63.2508 15.8259 1001 111.361 646.191 468.544
1999 0 64.1452 12.8926 827 113.949 647.053 474.758
2000 0 68.408 14.2381 974 113.804 646.945 464.999
2001 0 71.5555 14.101 1009 111.662 647.665 469.677
2002 0 70.1286 14.8584 1042 112.527 647.004 465.216
2003 0 70.2806 9.63281 677 121.223 648.03 467.505
2004 0 73.2521 14.7846 1083 113.331 648.226 460.607
2005 0 77.2317 13.4142 1036 115.802 648.873 458.737
2006 0 80.1115 13.1442 1053 116.599 649.46 456.764
2007 0 81.2636 13.9423 1133 116.427 649.924 453.238
2008 0 84.2469 12.1785 1026 119.116 649.991 454.268
2009 0 89.257 15.629 1395 112.123 650.355 452.667
2010 1 48.0379 12.511 601 118.042 650.378 470.614
2011 0 48.2106 13.1506 634 118.407 651.219 467.309
2012 0 52.1421 13.1947 688 115.919 652.086 464.369
2013 0 53.1324 14.4356 767 114.452 651.863 461.36
2014 0 52.0508 13.7366 715 118.159 651.327 460.059
2015 0 54.1305 13.7815 746 118.269 652.814 462.165
2016 0 58.0521 13.6257 791 117.19 653.073 461.802
2017 0 59.0464 12.2277 722 119.72 653.314 463.172
2018 0 60.078 12.8999 775 118.757 653.422 458.23
2019 0 60.0514 13.1387 789 119.877 653.646 456.627
2020 0 63.0802 15.4882 977 115.223 654.386 462.088
2021 0 64.056 13.2384 848 120.558 652.797 462.689
2022 0 66.0417 14.9905 990 115.633 653.75 464.324
2023 0 70.0964 14.1519 992 116.982 653.795 462.589
2024 0 72.1355 16.6908 1204 113.231 653.882 458.803
2025 0 74.1067 11.9557 886 121.796 652.616 462.667
2026 0 77.046 13.5114 1041 118.139 652.171 465.002
2027 0 78.0464 13.4279 1048 121.29 652.906 459.453
2028 0 83.1363 12.8945 1072 120.72 652.652 454.178
2029 0 84.115 10.9017 917 124.028 652.121 461.739
2030 0 84.0685 10.4439 878 126.776 652.226 459.295
2031 1 46.056 12.5934 580 117.11 650.834 480.929
2032 0 52.1694 11.1176 580 121.493 649.979 478.047
2033 0 49.1029 9.57175 470 124.898 649.632 478.074
2034 0 52.0433 9.62659 501 124.431 648.455 476.966
2035 0 56.1672 14.9375 839 117.765 647.889 477.266
2036 0 57.0694 11.8102 674 126.598 647.315 478.175
2037 0 60.0374 14.6076 877 119.246 646.848 478.152
2038 0 60.1134 14.5226 873 121.765 646.557 477.005
2039 0 60.1002 15.4742 930 121.731 646.452 472.094
2040 0 61.065 12.1182 740 128.396 646.554 472.814
2041 0 68.1083 16.0773 1095 117.647 645.584 472.699
2042 0 67.0603 12.9734 870 127.347 646.758 468.594
2043 0 68.1547 13.0439 889 127.436 646.583 468.058
2044 0 68.1761 14.1692 966 126.414 646.294 466.734
2045 0 71.1242 14.552 1035 125.793 646.758 463.961
2046 0 74.0679 14.6487 1085 124.894 647.544 464.422
2047 0 76.2319 14.4034 1098 123.884 647.896 461.284
2048 0 78.2496 15.7828 1235 120.751 648.782 462.595
2049 0 78.2253 12.6941 993 127.824 648.663 459.67
2050 0 84.1692 14.6253 1231 124.985 649.395 454.96
2051 0 83.2087 11.7416 977 131.156 649.642 454.376
2052 0 92.1827 19.9061 1835 114.029 651.092 454.837
2053 0 91.0915 14.8312 1351 126.909 651.307 448.152
2054 1 51.1709 11.1391 570 129.975 651.97 466.221
2055 0 52.1044 13.0123 678 127.72 651.758 438
2056 0 53.3087 14.5567 776 122.858 654.093 428.932
2057 0 56.1706 12.3196 692 120.043 654.471 432.163
2058 0 56.0677 10.7548 603 122.476 654.652 441.405
2059 0 59.65 12.0536 719 119.819 656.127 442.408
2060 0 60.2487 17.6269 1062 110.22 655.654 450.505
2061 0 62.3168 13.5918 847 116.633 655.655 455.878
2062 0 60.2471 12.4985 753 118.942 655.611 462.633
2063 0 66.1433 13.758 910 116.103 655.777 461.57
2064 0 66.302 12.066 800 120.021 654.365 461.451
2065 0 72.3382 14.211 1028 116.131 655.91 462.447
2066 0 70.2307 10.8357 761 125.464 654.164 462.694
2067 0 75.4834 13.4599 1016 120.273 654.47 462.718
2068 0 77.5732 15.2888 1186 116.862 653.832 462.946
2069 0 81.182 13.6607 1109 120.528 654.436 461.562
2070 0 83.1331 13.1115 1090 121.221 653.744 461.323
2071 0 86.2361 16.2809 1404 114.986 652.788 463.391
2072 0 87.1376 14.7697 1287 120.211 653.159 462.12
2073 0 87.1376 14.9075 1299 134.005 654.159 462.102
2074 1 50.2759 10.3827 522 125.504 650.826 477.044
2075 0 48.3234 9.99515 483 129.729 650.232 471.36
2076 0 53.1754 9.55328 508 129.118 649.917 473.156
2077 0 55.2189 11.9343 659 123.939 649.801 472.158
2078 0 57.166 13.4695 770 120.182 650.099 471.486
2079 0 59.1275 11.5513 683 123.299 649.524 472.922
2080 0 57.081 11.9304 681 123.015 649.068 472.05
2081 0 61.107 14.3682 878 119.289 649.109 468.972
2082 0 63.1673 12.3007 777 122.942 648.686 472.726
2083 0 68.0485 15.7241 1070 114.964 649.021 463.826
2084 0 63.0901 11.4598 723 124.743 649.061 465.571
2085 0 69.0935 11.3325 783 123.52 649.383 461.734
2086 0 71.2004 12.0645 859 121.569 649.002 460.234
2087 0 71.181 11.6885 832 121.742 649.6 457.577
2088 0 78.1566 14.1639 1107 115.11 648.842 453.558
2089 0 78.327 15.4991 1214 112.531 649.413 455.215
2090 0 80.1391 11.9168 955 118.269 649.997 450.181
2091 0 83.3184 12.4462 1037 118.033 649.484 450.497
2092 0 84.2684 13.2671 1118 118.563 650.11 443.111
2093 0 90.3173 13.6187 1230 117.334 649.868 443.633
2094 1 48.1745 8.65603 417 120.269 650.05 462.412
2095 0 50.1669 8.65111 434 118.438 649.968 464.293
2096 0 52.1445 10.8161 564 111.495 651.773 463.736
2097 0 54.1415 12.4489 674 106.135 653.116 464.598
2098 0 50.2506 8.67652 436 113.615 653.057 460.493
2099 0 58.2432 12.5508 731 103.709 653.315 457.977
2100 0 56.1755 11.1971 629 107.903 654.253 465.032
2101 0 57.0708 12.8963 736 105.982 654.206 464.511
2102 0 60.1787 10.6848 643 116.652 654.275 467.575
2103 0 63.0221 9.93303 626 115.692 654.042 471.775
2104 0 66.1815 9.92725 657 114.476 652.939 468.396
2105 0 69.1648 13.7209 949 110.238 653.978 463.452
2106 0 71.2186 13.9711 995 110.694 654.572 464.417
2107 0 75.1402 15.3979 1157 107.604 654.74 462.893
2108 0 78.1177 14.0301 1096 109.491 654.332 467.922
2109 0 79.1553 13.0124 1030 113.061 653.409 465.396
2110 0 84.3547 14.6761 1238 110.627 653.482 462.958
2111 1 44.0738 10.3917 458 116.437 651.594 486.081
2112 0 47.0589 12.8562 605 112.845 652.06 485.241
2113 0 46.0505 11.3137 521 114.962 651.712 487.587
2114 0 48.0419 11.823 568 116.199 651.002 483.289
2115 0 48.1037 12.1612 585 115.533 649.67 482.562
2116 0 51.0899 16.4807 842 107.917 649.329 482.559
2117 0 52.0838 12.3071 641 115.694 648.833 481.44
2118 0 55.0165 13.8322 761 112.59 647.756 481.158
2119 0 56.0482 13.2386 742 114.523 647.782 479.329
2120 0 59.0456 14.8191 875 110.729 647.681 477.015
2121 0 59.1995 12.5846 745 116.212 646.785 477.866
2122 0 60.1486 19.3188 1162 105.058 645.842 478.158
2123 0 59.059 13.0547 771 116.371 646.144 475.09
2124 0 65.1108 15.1434 986 111.496 646.599 472.487
2125 0 68.0495 16.4733 1121 107.642 646.32 473.348
2126 0 68.2734 14.4126 984 112.461 646.252 468.904
2127 0 70.1052 13.494 946 114.784 647.158 468.758
2128 0 72.1369 12.9199 932 114.885 646.343 468.426
2129 0 74.1051 12.9681 961 116.95 647.427 462.686
2130 0 78.1306 12.9271 1010 116.528 645.96 461.337
2131 0 81.0995 16.5476 1342 109.732 646.546 458.375
2132 0 84.0653 16.8321 1415 109.465 647.774 460.281
2133 1 43.1019 11.1364 480 120.412 647.733 476.675
2134 0 43.057 9.47582 408 125.078 647.733 474.453
2135 0 47.1118 11.2498 530 117.14 648.102 476.426
2136 0 50.2561 13.1327 660 114.898 649.03 472.491
2137 0 50.0809 11.5613 579 116.503 649.817 474.694
2138 0 52.1616 14.34 748 112.118 650.114 470.992
2139 0 52.1616 14.2825 745 144.805 650.137 470.958
2140 0 57.2422 18.2034 1042 105.342 650.688 471.488
2141 0 59.219 16.9709 1005 108.532 652.314 465.098
2142 0 60.32 16.5617 999 110.337 652.289 466.92
2143 0 62.1799 15.3426 954 110.558 653.561 469.395
2144 0 64.394 16.5233 1064 107.836 654.042 470.268
2145 0 63.134 13.3842 845 116.149 653.263 464.562
2146 0 63.134 13.3684 844 143.005 652.251 464.579
2147 0 69.135 16.8077 1162 109.807 653.698 468.661
2148 0 74.113 14.262 1057 113.134 654.172 467.753
2149 0 75.1328 16.5174 1241 109.145 654.26 469.294
2150 0 80.244 13.3966 1075 114.627 653.847 466.119
2151 0 82.3878 13.1451 1083 115.57 654.242 465.793
2152 0 85.2496 13.9355 1188 113.84 653.522 466.718
2153 1 45.0776 8.74049 394 123.591 653.086 486.464
2154 0 47.1612 10.6019 500 120.702 653.142 485.548
2155 0 50.1555 13.3385 669 115.656 652.679 484.952
2156 0 52.0992 15.5665 811 111.03 651.785 485.386
2157 0 54.1682 13.1996 715 114.673 650.776 484.438
2158 0 54.1222 15.2248 824 110.044 650.595 487.047
2159 0 55.3898 13.3779 741 115.756 649.506 483.159
2160 0 56.1772 14.9883 842 113.749 649.891 479.411
2161 0 57.2795 13.5302 775 116.734 648.537 479.861
2162 0 61.2761 15.4383 946 112.811 648.096 477.504
2163 0 64.2512 17.774 1142 108.979 648.787 477.453
2164 0 63.2333 11.165 706 120.153 647.731 477.232
2165 0 67.1133 17.2246 1156 109.778 647.939 473.657
2166 0 68.3264 14.7527 1008 114.968 647.491 470.527
2167 0 73.2512 18.8666 1382 105.991 647.896 473.498
2168 0 74.2171 15.6837 1164 112.924 646.982 468.077
2169 0 76.3182 14.9375 1140 114.124 647.663 466.768
2170 0 78.2933 19.197 1503 107.451 647.374 466.969
2171 0 81.2529 18.0671 1468 109.417 647.428 462.481
2172 0 82.2756 16.7243 1376 112.01 647.368 458
2173 0 85.2364 15.0523 1283 112.819 646.971 462.114
2174 0 85.2364 15.1578 1292 145.896 646.974 462.17
2175 0 89.3903 15.5945 1394 113.12 648.423 452.276
2176 0 93.2413 17.1705 1601 110.334 649.204 453.25
2177 0 98.2067 18.6545 1832 108.181 650.049 451.582
2178 0 99.4246 16.2032 1611 111.629 650.225 451.079
2179 0 101.323 14.0442 1423 115.96 651.882 447.694
2180 1 59.2137 17.4284 1032 105.618 651.979 471.168
2181 0 58.3147 14.8847 868 113.177 651.416 463.962
2182 0 62.3354 15.6893 978 107.082 652.93 467.504
2183 0 64.2773 15.2931 983 109.784 652.844 466.182
2184 0 64.3008 13.779 886 113.51 653.397 463.918
2185 0 66.2046 17.6574 1169 107.327 654.04 463.689
2186 0 66.2046 17.8084 1179 123.567 655.018 463.729
2187 0 72.2923 20.7629 1501 102.401 654.939 463.881
2188 0 71.2963 13.7034 977 114.35 655.442 461.122
2189 0 77.2915 13.158 1017 115.068 656.117 461.434
2190 0 77.2915 15.7326 1216 137.874 657.388 464.122
2191 0 80.3424 15.1103 1214 112.501 656.556 462.306
2192 0 84.2298 13.0833 1102 114.725 656.192 465.328
2193 0 86.3125 14.8994 1286 110.194 655.686 457.329
2194 0 86.1078 11.3811 980 115.605 656.467 461.193
2195 0 92.3066 12.036 1111 115.051 655.379 460.463
2196 0 98.2907 14.9353 1468 110.764 654.351 462.202
2197 0 100.309 11.993 1203 117.904 653.659 457.53
2198 1 57.0814 13.7348 784 109.849 653.95 477.7
2199 0 56.1354 10.9557 615 114.933 652.447 476.621
2200 0 61.0651 14.2143 868 109.675 652.258 478.859
2201 0 63.1351 12.7188 803 110.276 650.38 476.098
2202 0 67.0998 12.0865 811 110.486 650.856 476.39
2203 0 67.0314 13.1133 879 110.874 650.454 473.827
2204 0 70.1063 13.3939 939 110.748 649.937 467.448
2205 0 72.1328 14.002 1010 108.895 648.934 464.65
2206 0 75.1072 11.5302 866 113.754 648.682 464.591
2207 0 78.1894 14.7718 1155 107.411 647.497 464.957
2208 0 78.1796 12.7143 994 111.874 648.408 460.866
2209 0 82.262 12.5696 1034 112.378 647.361 456.54
2210 0 85.2928 12.1347 1035 113.995 647.095 453.791
2211 0 84.4278 12.6972 1072 113.763 647.665 454.513
2212 0 91.3348 14.0034 1279 110.925 647.607 451.658
2213 0 92.2771 13.2536 1223 112.913 648.294 447.264
2214 0 96.1602 14.8814 1431 111.333 647.442 436.448
2215 0 98.2304 10.964 1077 118.343 649.087 436.497
2216 0 101.227 12.6547 1281 114.796 647.25 430.873
2217 1 54.1465 12.4662 675 110.85 649.286 456.193
2218 0 55.1183 15.8387 873 106.907 649.28 454.658
2219 0 56.2025 13.7183 771 111.009 650.585 456.738
2220 0 56.0835 14.5497 816 110.438 650.147 445.581
2221 0 60.0983 15.0587 905 108.418 651.059 449.324
2222 0 62.1423 15.0783 937 108.657 651.77 451.072
2223 0 62.0784 11.5982 720 114.383 651.924 453.919
2224 0 65.084 15.9947 1041 107.804 652.697 447.604
2225 0 63.0885 12.8233 809 129.748 653.492 451.404
2226 0 69.1653 12.94 895 112.044 653.249 455.669
2227 0 72.101 12.2745 885 113.927 653.11 450.933
2228 0 72.0534 13.9619 1006 112.578 654.175 449.529
2229 0 75.1486 13.9723 1050 112.469 653.971 454.449
2230 0 78.169 13.7778 1077 113.991 655.488 452.805
2231 0 82.1204 14.6249 1201 113.043 655.697 454.018
2232 0 85.1315 14.8241 1262 112.409 655.334 454.714
2233 0 88.095 15.4606 1362 111.228 655.911 453.549
2234 0 91.1979 15.5925 1422 117.791 655.928 456.148
2235 0 93.2547 14.8625 1386 118.88 655.177 458.712
2236 0 98.2297 15.5248 1525 117.044 655.045 458.387
2237 0 99.2479 13.7232 1362 122.429 653.439 451.727
2238 0 105.339 16.3378 1721 118.412 654.629 454.852
2239 1 58.0902 12.2396 711 124.854 653.36 476.61
2240 0 63.1665 11.6201 734 125.605 653.061 478.64
2241 0 62.1858 15.1803 944 120.265 651.789 474.619
2242 0 63.0913 12.9812 819 116.864 653.198 464.723
2243 0 66.1437 11.9739 792 117.492 651.54 467.215
2244 0 69.3468 12.9782 900 113.902 651.548 467.143
2245 0 72.3688 14.0254 1015 114.212 650.537 462.198
2246 0 72.3688 13.9563 1010 134.337 650.524 462.146
2247 0 76.2502 13.4295 1024 118.362 648.892 462.848
2248 0 81.0868 13.7384 1114 120.721 648.811 461.904
2249 0 84.1916 15.8686 1336 116.375 648.478 458.32
2250 0 85.2199 13.342 1137 122.573 648.219 454.318
2251 0 88.1736 12.9177 1139 123.855 647.455 454.167
2252 0 89.1265 15.248 1359 119.75 646.748 453.599
2253 0 92.1542 13.4666 1241 123.745 646.687 452.502
2254 0 93.1189 15.6896 1461 120.491 646.443 453.317
2255 0 92.1172 16.7721 1545 136.944 646.461 452.694
2256 0 100.12 13.8034 1382 124.332 646.37 444.344
2257 0 103.265 16.1042 1663 119.375 647.209 446.115
2258 0 105.42 14.8833 1569 122.98 646.666 441.124
2259 1 54.109 7.65122 414 130.403 646.696 465.237
2260 0 57.1901 10.1416 580 126.99 647.86 462.902
2261 0 57.3174 10.6076 608 127.079 648.168 461.793
2262 0 58.2008 12.4397 724 124.068 649.612 460.699
2263 0 63.2285 13.1903 834 123.661 649.331 452.995
2264 0 64.1454 11.9416 766 125.58 649.589 453.664
2265 0 66.1676 15.4608 1023 118.656 650.922 453.017
2266 0 68.2733 13.0066 888 123.617 651.145 455.357
2267 0 71.2439 14.4153 1027 119.68 652.473 454.435
2268 0 74.3006 14.1049 1048 120.33 652.297 455.842
2269 0 74.1636 14.4815 1074 122.077 652.479 451.769
2270 0 76.1218 12.8478 978 125.329 652.333 452.513
2271 0 79.3173 14.877 1180 120.486 652.514 453.203
2272 0 82.1564 13.6204 1119 123.388 653.358 451.196
2273 0 85.1719 14.4414 1230 123.296 654.382 441.614
2274 0 90.1627 14.7289 1328 121.225 655.396 446.352
2275 1 51.1965 10.8797 557 125.19 653.926 470.487
2276 0 52.0919 10.9806 572 124.392 654.448 471.287
2277 0 52.0218 12.0334 626 124.206 654.637 470.653
2278 0 55.1578 11.9294 658 124.191 653.815 470.09
2279 0 56.133 10.5998 595 126.44 654.459 476.566
2280 0 59.1351 11.33 670 124.948 653.564 472.472
2281 0 63.1728 12.4421 786 121.761 653.56 473.723
2282 0 64.2432 12.8263 824 121.843 652.135 474.176
2283 0 65.4042 9.32661 610 127.187 652.826 466.231
2284 0 70.3095 15.1758 1067 116.227 652.794 467.604
2285 0 72.5887 14.2309 1033 119.416 651.607 466.688
2286 0 75.5042 11.7609 888 122.556 651.391 469.141
2287 0 78.5727 12.1671 956 122.103 650.599 465.255
2288 0 80.4165 15.9171 1280 116.577 648.656 463.379
2289 0 84.3165 12.8089 1080 122.196 648.811 466.481
2290 0 84.5624 14.2025 1201 120.796 646.85 461.366
2291 0 85.1876 12.0323 1025 124.293 647.617 460.618
2292 0 90.1046 14.1391 1274 120.367 646.743 460.333
2293 1 47.0143 11.1881 526 121.464 647.068 477.684
2294 0 51.0991 9.15867 468 128.143 645.756 477.842
2295 0 54.0879 13.3302 721 114.63 646.763 478.825
2296 0 56.3489 11.1449 628 117.904 648.474 477.734
2297 0 56.2144 11.6162 653 118.671 649.161 468.801
2298 0 57.3006 11.5182 660 119.385 648.383 469.402
2299 0 58.0628 11.2464 653 121.032 648.519 471.524
2300 0 63.2194 13.1447 831 117.058 649.106 467.214
2301 0 62.1375 13.0356 810 118.207 649.52 463.773
2302 0 65.1401 12.9106 841 118.883 649.866 461.357
2303 0 68.1887 12.8027 873 118.021 650.446 460.345
2304 0 71.3582 13.9437 995 115.5 650.269 460.008
2305 0 72.2345 13.2208 955 118.284 651.038 458.419
2306 0 72.255 11.7916 852 122.176 651.198 457.06
2307 0 74.1993 12.2912 912 121.106 651.668 457.445
2308 0 76.1731 11.7889 898 122.943 651.719 453.225
2309 0 84.1531 13.5705 1142 117.621 653.202 455.843
2310 0 83.1733 16.2793 1354 114.33 653.346 452.244
2311 0 86.1308 13.5259 1165 119.651 653.049 451.1
2312 0 91.2416 14.9932 1368 115.332 654.506 451.552
2313 0 92.172 13.0951 1207 119.08 654.849 446.225
2314 1 51.1079 8.1005 414 118.884 654.623 451.498
2315 0 58.3244 11.6589 680 110.013 655.025 457.916
2316 0 56.0923 11.4098 640 111.323 654.311 462.916
2317 0 61.1247 12.5481 767 113.14 656.849 465.381
2318 0 63.1066 11.3776 718 116.577 653.859 470.946
2319 0 65.275 13.9104 908 112.543 654.192 469.102
2320 0 66.2644 13.3254 883 113.678 654.171 470.476
2321 0 68.1959 9.53136 650 119.686 653.878 466.511
2322 0 70.2289 12.8864 905 114.36 653.34 467.596
2323 0 76.2643 13.545 1033 111.693 653.008 468.491
2324 0 76.1971 14.1344 1077 111.346 652.665 464.231
2325 0 79.288 12.9149 1024 112.836 652.534 466.962
2326 0 81.4458 12.9534 1055 112.783 652.973 465.912
2327 0 85.4875 13.8383 1183 111.184 652.144 460.145
2328 0 88.4861 15.1549 1341 109.593 650.491 459.953
2329 0 89.8297 12.212 1097 113.635 650.674 455.265
2330 0 96.7816 14.3829 1392 113.938 650.382 452.844
2331 0 96.163 10.4198 1002 117.697 650.377 439.495
2332 0 100.116 9.42909 944 118.579 649.811 439.882
2333 1 55.1633 7.28745 402 113.701 649.341 466.998
2334 0 60.2252 13.5491 816 105.355 648.988 460.377
2335 0 63.2618 12.1875 771 106.848 647.566 468.899
2336 0 65.2552 13.0411 851 104.877 648.959 469.906
2337 0 64.1351 11.9747 768 107.501 649.371 466.888
2338 0 65.0782 7.8982 514 112.786 649.111 466.173
2339 0 69.2022 10.3176 714 110.438 648.35 461.329
2340 0 71.1538 11.8897 846 108.538 649.148 459.963
2341 0 71.2034 10.0417 715 111.557 648.408 458.257
2342 0 76.1309 11.6116 884 108.621 649.531 456.854
2343 0 78.2533 9.54592 747 110.894 649.511 453.49
2344 0 82.2416 12.2323 1006 107.623 649.43 452.356
2345 0 82.2418 12.1714 1001 106.912 650.488 454.609
2346 0 84.1531 10.16 855 109.07 650.58 454.616
2347 0 88.3023 12.7743 1128 106.849 651.216 449.463
2348 0 87.5296 8.27148 724 114.704 649.939 443.482
2349 0 95.3096 11.0902 1057 110.498 651.778 445.47
2350 0 95.3931 11.049 1054 110.838 652.398 443.213
2351 0 100.469 12.561 1262 108.133 653.414 446.001
2352 0 103.462 12.565 1300 109.631 653.106 440.471
2353 1 54.2735 11.9948 651 105.243 654.693 461.826
2354 0 53.2268 10.9155 581 107.578 655.26 468.652
2355 0 58.3774 10.1066 590 107.803 656.13 467.242
2356 0 60.1765 13.9755 841 102.127 655.919 463.973
2357 0 59.1541 12.8309 759 105.834 656.324 465.182
2358 0 61.131 10.0767 616 110.394 654.657 466.008
2359 0 62.2347 12.4047 772 106.488 656.914 465.544
2360 0 64.1936 10.2347 657 110.636 656.44 466.128
2361 0 67.4139 12.0005 809 106.799 655.519 470.581
2362 0 71.4237 14.953 1068 102.706 655.085 468.803
2363 0 74.202 11.7517 872 107.539 655.312 467.276
2364 0 76.3696 12.3347 942 106.933 654.985 470.441
2365 0 80.213 13.1026 1051 105.927 653.715 468.268
2366 0 83.544 14.7707 1234 103.888 654.235 467.47
2367 0 84.2986 9.98831 842 112.418 653.574 462.824
2368 0 90.4624 12.3366 1116 107.845 651.899 466.828
2369 0 92.1874 14.4163 1329 106.789 651.987 463.312
2370 0 93.1979 12.7793 1191 109.317 650.419 464.788
2371 0 96.4738 14.6257 1411 106.764 649.365 464.694
2372 0 99.2884 12.2774 1219 109.958 649.039 461.298
2373 0 104.164 14.7652 1538 107.479 648.108 460.28
2374 0 105.173 11.8852 1250 112.562 648.576 458.112
2375 0 110.5 15.1946 1679 107.614 647.325 450.354
2376 0 111.194 12.06 1341 114.677 646.992 449.242
2377 1 60.2227 9.04974 545 114.028 646.936 477.888
2378 0 60.0714 11.2699 677 112.171 647.764 472.276
2379 0 63.0809 15.9161 1004 103.497 644.975 472.838
2380 0 68.262 13.5068 922 108.193 646.232 464.833
2381 0 67.2913 13.0032 875 109.674 646.281 468.527
2382 0 70.0768 13.3425 935 109.543 644.187 465.794
2383 0 70.0628 10.0338 703 114.868 644.646 466.747
2384 0 74.1679 17.7435 1316 102.742 645.386 458.321
2385 0 77.1526 18.4051 1420 101.809 645.532 458.92
2386 0 76.15 14.8917 1134 109.304 646.288 459.105
2387 0 79.1626 13.6175 1078 111.494 645.484 456.447
2388 0 82.0767 14.1209 1159 110.616 645.983 457.841
2389 0 82.0578 14.7335 1209 111.917 645.952 453.149
2390 0 84.2059 18.3954 1549 103.897 646.842 455.872
2391 0 85.0706 16.6097 1413 107.495 647.595 453.2
2392 0 89.2387 13.5367 1208 111.16 649.06 457.102
2393 0 92.2683 14.6421 1351 110.917 648.669 453.035
2394 0 93.1579 11.3141 1054 116.069 650.215 456.786
2395 0 99.6764 14.1859 1414 109.506 650.097 458.041
2396 0 98.2126 11.9333 1172 116.745 650.527 448.818
2397 0 103.17 13.0852 1350 114.681 650.871 450.048
2398 0 105.311 11.7936 1242 118.506 651.756 447.367
2399 0 109.368 12.938 1415 116.011 653.033 448.372
2400 1 62.0793 10.3255 641 117.955 653.351 471.232
2401 0 63.3256 11.6225 736 117.094 654.654 467.462
2402 0 68.2199 14.6292 998 112.045 654.461 464.419
2403 0 70.3573 12.0812 850 116.558 654.795 469.129
2404 0 72.2785 12.0229 869 116.628 653.878 470.002
2405 0 76.2012 12.7032 968 115.956 653.161 470.08
2406 0 78.312 14.2252 1114 114.57 652.407 468.663
2407 0 84.2582 14.3488 1209 113.455 652.856 462.682
2408 0 88.2245 15.4719 1365 112.382 653.555 453.706
2409 0 90.2008 14.4345 1302 114.733 652.053 454.118
2410 0 93.2079 14.2155 1325 115.356 651.228 453.538
2411 0 95.1213 17.3147 1647 110.522 650.095 459.512
2412 1 52.1725 9.52609 497 119.915 651.127 481.998
2413 0 54.0646 18.8848 1021 104.845 649.306 480.965
2414 0 55.2298 10.1213 559 113.36 648.465 479.236
2415 0 56.1847 12.8683 723 106.949 646.799 476.102
2416 0 56.2837 11.5842 652 110.023 647.376 475.468
2417 0 57.2629 11.0368 632 111.828 646.441 472.079
2418 0 62.1736 12.0791 751 109.985 645.694 471.558
2419 0 62.2208 13.3878 833 108.005 646.108 469.048
2420 0 64.1672 9.83369 631 113.721 645.642 465.425
2421 0 66.1118 11.4957 760 111.326 646.318 465.467
2422 0 70.2694 15.7394 1106 104.014 645.872 466.949
2423 0 69.3032 11.7743 816 112.853 646.091 460.4
2424 0 73.2306 11.4979 842 110.855 645.648 464.485
2425 0 75.1636 14.7146 1106 108.28 645.952 459.776
2426 0 77.1913 13.4601 1039 110.232 645.774 459.333
2427 0 77.4615 10.6246 823 115.281 646.732 458.396
2428 0 84.1967 13.2903 1119 111.003 646.827 454.535
2429 0 85.2626 13.3939 1142 112.301 647.856 453.673
2430 0 87.3314 12.4239 1085 114.943 648.66 448.532
2431 0 90.2199 12.1148 1093 115.291 649.502 447.142
2432 1 49.0614 10.9862 539 109.343 649.857 470.122
2433 0 54.0883 12.6275 683 114.709 651.818 472.239
2434 0 54.0472 12.9701 701 115.959 652.474 471.107
2435 0 57.1135 15.0052 857 111.534 653.104 468.368
2436 0 60.0906 13.5629 815 113.49 653.09 468.588
2437 0 58.1866 12.1506 707 116.467 653.004 465.856
2438 0 63.1551 12.8097 809 114.666 654.192 468.846
2439 0 68.0897 14.9362 1017 110.172 655.132 470.003
2440 0 69.2187 16.6285 1151 106.488 653.818 468.805
2441 0 70.0713 14.7564 1034 110.699 654.132 469.894
2442 0 75.1107 15.0711 1132 111.402 653.666 469.731
2443 0 75.1085 11.5566 868 119.296 654.577 468.538
2444 0 79.1517 15.7167 1244 112.202 653.104 466.296
2445 0 80.1996 17.2944 1387 110.697 654.449 469.6
2446 0 85.1456 15.1505 1290 114.719 653.117 462.265
2447 0 89.2705 18.2591 1630 109.239 653.269 463.976
2448 0 89.2814 15.7592 1407 115.271 653.104 464.272
2449 0 93.2105 15.0949 1407 117.158 652.706 465.743
2450 0 90.5541 9.94985 901 124.605 650.312 469.708
2451 1 54.3309 11.4852 624 124.724 649.954 480.875
2452 0 58.461 12.7948 748 121.59 648.413 482.68
2453 0 56.4164 12.6913 716 123.109 648.258 479.328
2454 0 60.3848 15.3681 928 117.584 648.125 475.945
2455 0 63.3121 13.9152 881 119.916 646.663 476.82
2456 0 62.307 12.7594 795 123.638 646.721 477.686
2457 0 65.1558 12.5238 816 122.803 646.455 477.009
2458 0 70.2183 15.1812 1066 116.096 645.806 478.125
2459 0 74.592 16.2886 1215 113.495 645.783 476.396
2460 0 73.1978 15.7518 1153 116.287 645.526 472.918
2461 0 77.2475 11.7026 904 122.231 645.403 472.847
2462 0 78.3762 15.8849 1245 115.773 645.488 469.547
2463 0 81.2674 11.4806 933 123.513 645.761 467.661
2464 0 85.2355 14.2664 1216 118.537 644.661 464.726
2465 0 87.5856 15.208 1332 116.6 645.3 462.791
2466 0 87.3734 15.1305 1322 118.747 645.204 459.533
2467 0 91.3413 13.9367 1273 120.582 645.295 458.166
2468 0 91.39 13.6448 1247 123.501 645.582 456.026
2469 0 96.4988 12.539 1210 124.7 645.828 455.023
2470 1 48.1597 11.1712 538 122.704 646.719 474.801
2471 0 54.2412 10.9327 593 124.044 648.056 469.18
2472 0 56.4518 12.8251 724 119.04 648.597 455.528
2473 0 53.1536 10.5543 561 124.631 649.474 445.348
2474 0 58.1716 13.7009 797 115.7 649.985 445.287
2475 0 58.0962 14.4071 837 112.376 651.102 451.95
2476 0 58.0801 12.3278 716 117.366 652.179 451.592
2477 0 61.2232 12.1686 745 117.471 651.628 449.279
2478 0 62.1269 16.6112 1032 109.715 653.055 449.354
2479 0 66.1029 14.4774 957 111.575 651.666 451.68
2480 0 68.1588 12.8523 876 115.664 653.395 451.41
2481 0 70.1073 13.137 921 116.777 653.534 449.457
2482 0 70.1073 13.1227 920 131.267 653.511 449.342
2483 0 77.1153 12.6434 975 116.032 653.253 449.125
2484 0 79.2187 15.2742 1210 111.441 654.369 450.815
2485 0 78.3002 10.9067 854 120.429 652.397 447.384
2486 0 83.2539 14.0294 1168 115.932 652.831 446.824
2487 0 87.2068 13.6687 1192 116.096 652.659 441.102
2488 0 90.3118 13.398 1210 117.527 652.152 444.241
2489 0 93.354 13.5291 1263 116.85 652.9 440.74
2490 0 97.2259 13.5766 1320 117.793 652.387 440.317
2491 0 101.321 14.9722 1517 116.336 652.506 437.773
2492 0 103.599 14.5465 1507 118.205 651.733 437.808
2493 0 109.215 13.4597 1470 121.262 650.826 443.718
2494 1 58.1458 9.87173 574 119.118 651.244 482.209
2495 0 58.1458 9.88893 575 132.515 651.257 482.369
2496 0 67.2496 10.6023 713 115.265 647.442 480.694
2497 0 69.2769 11.62 805 114.748 645.189 476.447
2498 0 71.2466 15.5657 1109 107.451 646.205 478.178
2499 0 73.438 12.4459 914 113.467 645.759 471.714
2500 0 76.2725 13.006 992 113.046 645.645 468.741
2501 0 79.3151 12.8601 1020 114.414 645.331 463.367
2502 0 81.3723 15.6196 1271 109.369 645.457 468.504
2503 0 80.2096 11.5946 930 116.5 645.359 464.123
2504 0 82.2746 12.9445 1065 114.874 645.278 463.399
2505 0 86.1458 13.2218 1139 114.599 645.188 461.828
2506 0 90.0789 12.8665 1159 115.946 645.684 457.918
2507 0 93.2206 15.3507 1431 111.487 646.934 458.026
2508 0 95.3623 13.2652 1265 114.288 644.829 456.415
2509 0 96.2829 13.076 1259 116.049 646.36 449.004
2510 0 101.384 15.4462 1566 111.267 647.354 450.027
2511 0 103.491 10.5806 1095 118.831 648.054 448.425
2512 0 106.497 11.6435 1240 118.695 647.852 443.564
2513 0 109.459 14.3433 1570 114.249 648.48 442.946
2514 0 114.448 13.9976 1602 113.814 648.672 440.188
2515 1 64.2212 9.79427 629 115.033 649.426 464.692
2516 0 66.1982 12.1907 807 110.198 650.17 467.284
2517 0 67.1729 11.5076 773 111.049 651.568 464.898
2518 0 70.1115 9.89852 694 111.611 650.996 462.732
2519 0 73.218 12.456 912 107.686 651.195 463.112
2520 0 75.0517 12.4981 938 107.684 651.762 463.209
2521 0 79.1456 11.0303 873 109.613 651.661 462.577
2522 0 80.175 10.5394 845 112.142 652.573 460.228
2523 0 84.3133 14.2563 1202 106.185 652.379 456.981
2524 0 84.3444 11.9392 1007 110.744 653.13 459.597
2525 0 91.4068 13.2047 1207 108.063 652.026 457.991
2526 0 91.4068 13.1828 1205 118.949 651.018 457.89
2527 0 97.4099 12.9453 1261 108.966 652.146 458.587
2528 0 102.172 12.1853 1245 110.32 652.611 455.363
2529 1 55.1544 11.1324 614 108.48 650.889 479.265
2530 0 59.1048 10.1176 598 111.547 649.666 481.403
2531 0 62.259 11.9983 747 108.1 650.427 479.66
2532 0 64.1036 12.667 812 108.251 649.073 481.372
2533 0 64.1036 12.6046 808 128.489 648.1 481.582
2534 0 64.1791 10.6733 685 115.139 647.673 475.518
2535 0 69.1711 14.775 1022 106.588 647.706 478.001
2536 0 70.1321 9.78154 686 115.153 647.488 476.622
2537 0 76.3278 17.8703 1364 102.207 646.857 470.802
2538 0 80.7183 18.3354 1480 101.239 647.397 467.029
2539 0 77.2186 12.1344 937 112.277 646.999 472.786
2540 0 81.4285 12.7965 1042 112.542 646.456 466.701
2541 0 83.4942 14.7675 1233 107.774 645.993 470.632
2542 0 86.5187 12.4482 1077 112.11 645.552 463.357
2543 0 87.1556 11.8524 1033 112.529 645.378 463.802
2544 0 90.4109 14.4452 1306 109.864 645.591 457.457
2545 0 91.3107 11.0283 1007 115.255 646.127 456.742
2546 0 91.1857 10.4622 954 116.65 644.549 449.134
2547 0 97.1575 12.8142 1245 111.794 645.798 446.806
2548 1 54.2195 8.46559 459 111.691 645.553 457.155
2549 0 52.2082 7.35517 384 115.854 646.768 465.32
2550 0 58.1557 12.6729 737 105.616 645.771 468.099
2551 0 61.1261 11.5499 706 111.119 645.351 469.483
2552 0 62.252 12.5458 781 108.776 647.225 468.528
2553 0 66.2783 11.0594 733 109.171 646.15 462.49
2554 0 69.2696 14.393 997 104.498 648.592 464.485
2555 0 71.3795 13.3792 955 105.525 647.687 464.238
2556 0 72.2537 13.5772 981 105.789 648.615 464.275
2557 0 77.163 12.8948 995 106.116 648.977 460.798
2558 0 81.2298 13.5911 1104 106.135 650.944 462.175
2559 0 81.2919 12.2275 994 108.584 650.412 456.346
2560 0 85.2289 11.9208 1016 108.938 651.816 456.217
2561 0 91.3042 12.7267 1162 107.354 651.333 456.572
2562 0 93.2606 9.67182 902 111.195 651.871 458.01
2563 0 96.2949 11.1117 1070 110.543 653.618 454.327
2564 1 53.0746 12.4165 659 106.015 654.127 476.558
2565 0 51.083 11.8043 603 109.348 654.748 473.522
2566 0 56.1628 12.6418 710 106.725 651.806 474.627
2567 0 60.2009 13.1559 792 105.125 651.432 478.251
2568 0 59.1384 12.7497 754 107.523 650.984 477.704
2569 0 63.2076 11.6284 735 109.223 651.274 479.189
2570 0 65.134 14.9077 971 104.76 651.041 475.489
2571 0 67.1578 14.384 966 106.358 651.552 475.76
2572 0 70.1091 11.7246 822 110.29 651.079 474.754
2573 0 74.1109 14.168 1050 107.334 650.688 475.264
2574 0 74.2868 13.9998 1040 107.323 649.784 473.089
2575 0 75.2469 12.1998 918 110.576 649.13 472.279
2576 0 78.3188 14.6197 1145 107.143 648.166 467.406
2577 0 83.2314 14.4657 1204 107.207 648.233 467.42
2578 0 84.1542 11.3126 952 111.355 646.874 467.608
2579 0 87.3155 13.0217 1137 110.213 646.464 467.491
2580 0 91.34 13.8822 1268 109.059 646.881 462.253
2581 0 94.4692 12.7449 1204 110.626 645.669 466.173
2582 0 98.5227 14.7174 1450 108.583 646.174 459.319
2583 0 101.414 10.5015 1065 114.81 646.085 456.334
2584 1 56.1645 17.6268 990 101.073 645.575 480.098
2585 0 57.3302 13.5531 777 108.051 645.757 475.851
2586 0 56.3377 10.0466 566 114.03 645.083 474.53
2587 0 58.2062 11.4249 665 113.451 643.946 474.555
2588 0 59.1826 11.6081 687 113.132 644.272 475.16
2589 0 62.1034 15.1199 939 107.403 644.47 473.368
2590 0 61.2209 15.1419 927 108.859 645.036 471.019
2591 0 64.1381 10.9607 703 112.64 646.118 472.737
2592 0 68.1333 15.4844 1055 107.171 645.64 468.29
2593 0 69.2748 14.0888 976 108.165 647.002 467.763
2594 0 72.1464 14.3181 1033 107.712 646.622 467.22
2595 0 74.2124 16.6953 1239 105.287 646.777 459.837
2596 0 78.1923 15.2573 1193 106.798 647.946 464.417
2597 0 82.3839 13.7405 1132 108.348 648.64 461.345
2598 0 84.208 15.4261 1299 104.489 648.625 457.94
2599 0 88.2285 14.6778 1295 104.978 650.674 460.229
2600 0 88.2704 14.1271 1247 104.115 650.592 457.601
2601 0 95.2476 13.7641 1311 103.494 650.949 457.686
2602 0 95.3056 14.7735 1408 104.895 651.078 455.539
2603 0 98.2121 15.8534 1557 103.263 651.859 452.856
2604 0 104.231 14.0265 1462 105.115 651.596 456.417
2605 1 62.1074 15.441 959 101.389 650.898 476.797
2606 0 64.1598 13.7625 883 100.187 650.322 478.045
2607 0 63.2418 12.5075 791 106.88 651.918 471.612
2608 0 66.3132 12.8481 852 106.689 650.655 474.168
2609 0 70.24 15.2904 1074 102.763 651.232 473.366
2610 0 74.2355 12.9453 961 105.308 651.544 475.722
2611 0 79.3271 15.1272 1200 101.132 649.664 477.205
2612 0 79.1244 16.3414 1293 100.541 650.124 472.041
2613 0 83.4368 15.8204 1320 102.461 650.892 475.185
2614 0 87.2228 16.1082 1405 103.225 650.095 468.077
2615 0 89.2684 13.0393 1164 108.259 649.627 466.698
2616 0 92.2192 12.3835 1142 108.96 647.786 467.951
2617 0 98.3178 14.1887 1395 106.513 647.54 462.326
2618 0 100.315 13.6968 1374 107.245 647.087 456.971
2619 0 105.428 16.2671 1715 102.69 646.81 462.745
2620 0 109.296 15.3254 1675 104.431 645.687 458.738
2621 1 58.1847 12.4947 727 106.155 645.164 480.703
2622 0 62.1886 13.2661 825 103.097 644.365 480.927
2623 0 64.2076 13.908 893 104.183 644.68 476.148
2624 0 64.5132 15.2837 986 102.47 645.002 473.9
2625 0 65.2081 14.7988 965 103.859 644.314 473.678
2626 0 67.4119 13.4991 910 104.722 644.052 475.135
2627 0 73.3531 15.1186 1109 101.484 643.647 474.396
2628 0 75.301 13.8112 1040 104.86 644.365 470.654
2629 0 74.4252 12.1061 901 106.945 644.606 469.374
2630 0 76.2166 13.9865 1066 104.658 644.771 465.792
2631 0 77.1004 15.2917 1179 100.953 644.675 469.61
2632 0 80.1943 14.2903 1146 102.677 644.796 467.709
2633 1 169.81 17.8906 3038 101.274 645.973 416.848
2634 0 166.934 13.748 2295 110.861 646.54 413.614
2635 0 174.74 14.5187 2537 109.403 646.64 417.105
2636 0 180.415 16.4898 2975 106.801 647.633 413.196
2637 1 96.6201 14.0964 1362 103.89 648.159 458.642
2638 0 98.4153 14.6928 1446 104.33 649.147 452.151
2639 0 98.4153 14.7132 1448 133.188 650.164 452.3
2640 0 106.385 12.53 1333 107.8 649.496 450.249
2641 0 109.373 10.9259 1195 110.172 650.162 448.068
2642 1 76.3944 10.629 812 102.539 653.111 464.913
2643 0 79.2606 11.5064 912 100.905 653.43 466.236
2644 0 84.3561 12.791 1079 101.486 654.258 470.366
2645 0 81.4105 11.3499 924 101.688 652.893 468.354
2646 0 87.1044 10.4128 907 98.5502 652.589 466.378
2647 0 91.2534 12.7995 1168 96.0565 651.538 465.676
2648 0 97.3997 13.1828 1284 95.2967 651.8 460.253
2649 0 95.331 8.0981 772 101.681 652.034 464.882
2650 0 98.3864 6.69808 659 102.587 649.851 461.566
2651 0 101.35 6.24566 633 101.246 650.739 459.749
2652 0 106.311 13.1595 1399 94.4996 648.216 455.047
2653 1 151.316 9.21249 1394 105.643 647.34 426.093
2654 1 110.411 10.5334 1163 98.0954 646.304 435.993
2655 0 120.474 14.0943 1698 93.2468 645.039 439.051
2656 0 121.302 11.0056 1335 96.988 644.873 445.836
2657 1 59.2424 9.40205 557 96.6517 643.928 473.045
2658 0 63.1809 9.46488 598 96.7391 642.699 470.426
2659 0 67.1537 14.2211 955 92.7571 643.072 471.293
2660 0 68.2245 12.1657 830 92.9265 641.932 473.695
2661 0 69.214 7.75855 537 96.6704 643.656 472.836
2662 0 73.169 12.8333 939 93.1672 643.312 466.364
2663 0 75.1721 10.2831 773 95.7141 642.038 463.75
2664 0 78.1743 13.0733 1022 90.6791 643.028 470.605
2665 0 82.2257 12.2225 1005 95.4239 642.433 457.865
2666 0 83.1989 8.01693 667 98.4992 642.946 464.826
2667 0 85.3769 10.4244 890 96.4427 642.214 454.774
2668 0 91.5593 17.3439 1588 91.6568 642.336 442.324
2669 1 185.633 20.7453 3851 93.2316 643.438 393.182
2670 0 191.606 14.6603 2809 99.6533 643.196 387.695
2671 1 95.3672 13.988 1334 98.4093 643.766 435.118
2672 0 100.312 17.4455 1750 95.1149 644.452 435.054
2673 0 106.293 17.1225 1820 95.1698 645.498 435.556
2674 0 108.374 15.2159 1649 98.3008 645.39 426.5
2675 1 60.1546 15.0944 908 94.0848 647.587 454.873
2676 0 62.1789 11.676 726 97.2727 646.807 460.96
2677 0 64.4592 14.4898 934 95.5353 646.803 457.569
2678 0 65.4095 13.3773 875 97.2354 647.961 459.897
2679 0 64.0922 12.9189 828 99.2597 648.909 459.58
2680 0 67.1723 12.6689 851 99.4254 649.138 459.134
2681 0 71.2377 16.3958 1168 95.5591 648.944 461.003
2682 0 71.2329 13.491 961 98.0656 648.402 465.271
2683 0 78.3667 14.4577 1133 97.0335 650.094 468.561
2684 0 76.458 14.4131 1102 99.2759 649.909 469.477
2685 0 82.3813 14.1294 1164 98.2637 650.422 466.457
2686 0 82.3364 13.3112 1096 100.899 649.998 464.846
2687 0 85.2093 14.8341 1264 96.7769 650.215 468.535
2688 0 87.1586 13.2058 1151 100.982 650.04 461.958
2689 0 89.2884 14.2236 1270 99.8882 648.344 464.527
2690 0 95.2572 12.2825 1170 101.551 649.579 466.89
2691 0 95.1867 14.5503 1385 99.6679 650.066 461.471
2692 1 53.225 9.24378 492 106.063 648.404 487.045
2693 0 56.1909 12.8668 723 98.6293 648.71 477.956
2694 0 56.2605 13.7397 773 94.3583 647.12 477.538
2695 0 59.4176 22.7542 1352 86.3817 647.038 477.813
2696 0 58.1935 13.4551 783 95.1928 647.3 474.14
2697 0 59.1275 11.5513 683 97.2445 646.593 475.96
2698 0 62.2666 13.0407 812 99.3719 647.238 477.196
2699 0 63.1438 11.8618 749 99.7984 646.931 476.21
2700 1 128.58 19.5131 2509 90.7126 645.506 454.256
2701 0 131.308 19.0316 2499 96.0848 644.432 431.581
2702 0 142.063 19.3013 2742 85.1193 643.742 441.731
2703 1 67.2108 12.4682 838 90.4678 644.501 469.783
2704 0 73.1993 19.1259 1400 84.7879 643.099 472.523
2705 0 72.535 15.9509 1157 88.6085 643.395 461.234
2706 0 80.4653 19.3748 1559 86.0552 643.285 461.166
2707 0 72.1223 14.8775 1073 90.8835 643.509 454.155
2708 1 83.5122 13.3753 1117 92.4056 642.973 456.396
2709 0 86.0957 12.579 1083 91.2918 643.162 469.121
2710 0 88.1463 14.7142 1297 92.5883 643.629 444.416
2711 0 94.5563 17.8941 1692 88.711 644.025 451.171
2712 0 99.6253 17.887 1782 89.4663 644.685 448.874
2713 1 188.811 15.4123 2910 92.3536 644.181 410.189
2714 1 50.1967 11.953 600 92.93 644.323 475.207
2715 0 49.1478 8.30149 408 100.174 644.547 472.828
2716 0 54.1503 13.6841 741 94.9582 646.39 471.163
2717 0 55.6577 13.5291 753 92.992 645.789 461.88
2718 0 44.1534 12.8642 568 95.257 646.382 458.164
2719 1 59.1607 15.8044 935 91.1262 646.433 461.631
2720 0 62.1465 13.5969 845 92.6237 647.552 468.472
2721 0 63.0854 18.2768 1153 88.6453 647.559 470.321
2722 0 66.1641 12.5446 830 94.653 646.658 465
2723 0 69.3785 16.446 1141 90.2533 648.243 461.076
2724 0 73.2847 12.2809 900 95.6922 649.303 460.614
2725 0 76.5324 14.1509 1083 93.4857 649.524 464.748
2726 0 80.3039 22.3526 1795 87.1131 650.003 459.207
2727 0 78.354 9.76338 765 100.548 649.627 456.724
2728 1 169.563 18.5949 3153 92.3273 649.818 418.929
2729 0 171.857 14.3317 2463 95.6849 650.213 412.426
2730 1 141.04 17.0093 2399 91.08 650.281 443.286
2731 1 95.2938 17.4618 1664 91.0926 650.983 459.559
2732 0 97.1698 15.7559 1531 94.0209 649.576 456.788
2733 0 100.711 14.0103 1411 94.5358 650.181 456.936
2734 0 101.261 20.1064 2036 88.5049 649.543 460.912
2735 0 107.834 18.7603 2023 91.2847 649.538 451.388
2736 0 110.375 11.8415 1307 96.8026 650.107 457.904
2737 0 122.086 12.4503 1520 96.3112 648.918 451.337
2738 0 118.787 13.1243 1559 97.0577 648.422 449.369
2739 0 123.44 15.2787 1886 94.3839 647.392 444.757
2740 0 130.806 17.0099 2225 93.2679 647.471 448.071
2741 0 130.503 11.9384 1558 100.67 646.202 439.653
2742 0 140.38 27.6392 3880 85.3165 645.012 440.19
2743 0 148.879 22.0111 3277 89.9829 645.748 429.564
2744 1 64.2152 11.7885 757 97.4214 644.001 471.684
2745 0 66.2268 14.7976 980 93.0204 643.983 470.53
2746 0 66.2838 13.4271 890 96.6685 644.29 466.626
2747 0 67.2127 15.756 1059 94.169 643.647 466.641
2748 0 72.2631 14.724 1064 95.8618 643.336 465.133
2749 0 75.7324 15.4095 1167 93.7532 641.477 466.003
2750 0 73.528 15.6539 1151 94.7402 643.402 464.692
2751 0 80.5242 17.9698 1447 93.9627 643.05 457.345
2752 0 83.1433 15.4312 1283 97.714 643.976 455.912
2753 0 85.4334 15.9305 1361 96.4938 644.284 454.446
2754 0 87.3288 11.554 1009 111.01 644.399 452.158
2755 0 88.5534 15.3467 1359 103.148 645.23 451.406
2756 0 91.1958 10.8996 994 111.027 645.474 441.01
2757 0 99.3028 17.361 1724 100.193 646.109 436.501
2758 0 102.283 13.8341 1415 105.134 646.627 440.317
2759 1 244.802 16.8504 4125 105.856 647.826 373.561
2760 1 108.34 13.2269 1433 106.136 647.319 437.388
2761 0 110.247 19.6015 2161 99.1684 648.475 436.537
2762 1 55.1737 11.3641 627 105.482 649.049 458.204
2763 0 58.0882 14.3919 836 99.2321 648.232 462.456
2764 0 64.5542 11.928 770 102.396 648.536 458.025
2765 0 66.3274 15.122 1003 95.4885 649.559 466.1
2766 0 68.1611 15.8448 1080 98.7843 650.707 460.219
2767 0 70.2657 12.1112 851 102.215 649.984 458.959
2768 0 74.079 12.6487 937 102.187 651.873 458.562
2769 0 73.2255 13.9159 1019 102.299 652.238 455.537
2770 0 74.1029 10.5124 779 107.335 651.176 456.659
2771 0 77.1037 16.2379 1252 100.415 651.229 459.871
2772 0 79.4505 14.7765 1174 100.801 651.98 458.115
2773 0 82.2151 14.2674 1173 101.315 651.724 455.936
2774 0 84.1378 15.0111 1263 100.888 651.744 451.599
2775 0 85.2552 11.0492 942 105.103 651.112 455.228
2776 0 92.2984 12.9688 1197 104.414 649.983 457.745
2777 0 98.2122 15.2018 1493 102.047 650.301 455.367
2778 0 103.217 12.1297 1252 106.445 650.504 453.022
2779 0 104.33 15.4222 1609 102.874 650.806 457.567
2780 0 106.218 11.7306 1246 108.23 648.806 449.677
2781 0 108.252 14.5494 1575 103.545 649.54 436.19
2782 0 107.184 16.9335 1815 98.7923 649.39 455.213
2783 1 72.2272 8.52865 616 102.495 648.412 468.143
2784 0 74.156 16.8968 1253 99.5882 647.001 467.944
2785 0 76.1772 13.1273 1000 104.194 647.092 467.063
2786 0 80.1565 10.7041 858 106.162 646.746 471.767
2787 0 79.1729 11.5065 911 106.929 645.16 466.151
2788 0 84.768 12.1862 1033 106.258 646.023 466.172
2789 0 84.2507 11.8812 1001 106.902 644.778 466.319
2790 0 87.3929 14.1888 1240 105.896 644.634 464.234
2791 0 88.2918 10.6239 938 110.279 644.892 461.341
2792 0 91.2753 12.7745 1166 107.768 643.751 457.639
2793 0 98.3531 15.9629 1570 101.531 643.645 453.955
2794 0 101.549 20.0396 2035 98.3464 644.853 448.752
2795 0 103.45 16.2204 1678 101.869 644.855 448.005
2796 0 104.359 15.8491 1654 103.423 644.836 446.618
2797 0 109.252 13.7389 1501 105.975 644.413 446.893
2798 0 118.051 18.4836 2182 99.626 646.117 444.268
2799 0 115.359 10.1683 1173 107.88 646.923 437.831
2800 0 121.526 13.207 1605 104.698 646.672 431.485
2801 0 124.695 15.5659 1941 102.694 647.514 426.982
2802 0 131.485 14.3515 1887 101.928 648.036 429.871
2803 1 78.3129 11.6584 913 99.8182 648.349 460.096
2804 0 78.3129 11.6711 914 127.794 649.326 459.914
2805 0 80.1824 11.1745 896 104.337 650.21 450.434
2806 0 86.1979 17.8659 1540 95.0558 649.928 453.043
2807 0 88.1367 15.1129 1332 98.979 650.405 448.932
2808 0 93.2441 11.915 1111 101.522 650.861 453.491
2809 0 95.2413 10.8356 1032 103.587 651.674 442.712
2810 0 98.2215 15.3836 1511 97.9596 652.269 451.737
2811 0 101.291 13.7919 1397 99.0487 652.727 452.143
2812 0 100.231 11.9025 1193 103.334 652.731 442.979
2813 0 106.464 12.3892 1319 102.381 653.417 443.128
2814 0 105.238 14.909 1569 98.441 653.062 451.252
2815 0 112.412 12.6143 1418 99.842 652.595 451.442
2816 0 113.286 11.0252 1249 102.118 653.721 450.946
2817 0 120.26 14.5269 1747 98.2507 652.904 450.038
2818 0 122.397 12.1245 1484 101.847 653.83 443.283
2819 0 125.37 12.5229 1570 99.5764 652.111 447.625
2820 0 127.472 10.7866 1375 103.817 651.846 439.573
2821 0 133.365 14.6965 1960 98.1112 651.888 442.14
2822 0 132.529 13.0387 1728 101.255 653.064 440.938
2823 0 133.529 13.3454 1782 130.201 654.106 439.786
2824 0 143.5 15.4913 2223 97.9438 651.312 445.911
2825 1 86.3468 15.403 1330 96.3586 651.604 469.173
2826 0 84.1317 6.83452 575 108.188 650.92 462.852
2827 0 90.2482 17.1527 1548 95.7351 649.795 463.528
2828 0 90.5481 12.9324 1171 98.573 648.689 469.86
2829 0 94.4046 8.33646 787 105.255 648.696 465.037
2830 0 98.237 11.6046 1140 102.981 647.581 455.013
2831 0 106.491 18.5743 1978 94.1972 646.931 452.138
2832 0 106.357 14.2539 1516 99.248 646.665 449.883
2833 0 111.461 11.107 1238 102.606 646.566 450.761
2834 0 113.532 13.1681 1495 99.8094 645.825 436.244
2835 1 67.3058 10.5637 711 100.595 645.165 471.039
2836 0 62.3752 8.73745 545 102.606 647.103 457.598
2837 0 60.2109 16.5917 999 94.3343 646.762 462.179
2838 0 63.1574 11.5901 732 99.3784 647.041 458.111
2839 0 69.2024 12.4851 864 97.6782 646.97 458.417
2840 0 75.4586 10.8801 821 99.5189 648.1 451.889
2841 0 74.3366 16.7481 1245 93.4161 646.445 455.695
2842 0 75.1548 5.4288 408 107.206 647.789 449.87
2843 0 80.3168 19.0745 1532 93.3061 647.972 453.47
2844 0 81.1522 14.3557 1165 99.8532 647.914 444.477
2845 0 87.2272 12.6566 1104 100.915 648.034 446.984
2846 0 89.4353 12.7131 1137 100.974 649.061 447.493
2847 0 89.3168 11.8231 1056 103.206 650.01 448.574
2848 0 91.2285 13.4936 1231 103.061 650.309 437.431
2849 0 95.4322 14.1462 1350 101.74 651.107 437.481
2850 0 103.305 13.039 1347 101.319 651.728 442.902
2851 0 101.292 13.8708 1405 102.535 651.844 432.645
2852 0 106.29 12.8611 1367 101.488 652.424 438.119
2853 0 108.256 14.0408 1520 100.216 652.821 438.249
2854 0 111.241 15.8215 1760 98.4477 652.456 433.937
2855 0 115.306 18.1864 2097 95.5026 652.99 440.476
2856 0 117.39 16.6625 1956 98.3052 652.597 432.458
2857 0 119.247 13.2246 1577 102.349 654.114 433.367
2858 0 122.329 8.86953 1085 108.55 653.988 426.805
2859 0 126.286 15.5283 1961 99.5105 654.612 435.652
2860 1 70.3131 10.3395 727 100.227 653.389 464.675
2861 0 73.2162 13.9587 1022 101.881 653.524 461.046
2862 0 72.1764 11.8598 856 100.708 653.662 455.268
2863 0 76.0973 10.8677 827 100.64 653.808 458.944
2864 0 80.4866 12.5487 1010 99.2257 653.404 458.92
2865 0 82.3488 13.0664 1076 99.4201 653.473 454.385
2866 0 85.1453 13.7999 1175 98.7311 652.894 456.077
2867 0 92.4196 14.445 1335 97.367 652.675 456.39
2868 0 91.2398 17.4814 1595 94.4777 652.63 459.326
2869 0 89.4096 13.8911 1242 100.111 651.824 454.983
2870 0 95.2556 12.9441 1233 101.491 651.187 451.959
2871 0 97.1322 13.7442 1335 100.956 649.476 449.345
2872 0 102.248 13.213 1351 101.53 649.902 447.846
2873 0 108.137 14.269 1543 99.6131 648.623 446.944
2874 0 107.112 11.446 1226 103.131 648.268 439.247
2875 0 112.474 12.3406 1388 103.452 648.156 436.299
2876 1 60.2529 16.0988 970 93.6557 647.371 472.038
2877 0 64.1984 10.2962 661 101.147 647.657 465.728
2878 0 70.234 12.9424 909 98.8955 648.014 463.691
2879 0 72.1997 11.0942 801 102.04 647.28 452.674
2880 0 75.3818 15.6006 1176 96.7849 647.933 458.498
2881 0 73.1581 13.341 976 100.74 646.48 454.825
2882 0 77.2578 11.1186 859 103.488 646.941 453.38
2883 0 80.1279 11.5191 923 102.588 646.358 453.417
2884 0 85.8282 13.0493 1120 100.52 648.574 453.592
2885 0 85.2334 10.6883 911 102.962 648.506 452.398
2886 0 85.2176 12.1571 1036 102.91 648.514 443.138
2887 0 90.1568 11.4911 1036 103.509 648.364 446.334
2888 0 97.2704 20.7874 2022 92.4268 649.193 443.722
2889 0 96.3481 18.1426 1748 96.3484 649.969 443.587
2890 0 97.2562 14.8782 1447 99.3642 650.22 438.296
2891 0 100.432 12.8046 1286 101.336 651.119 440.192
2892 0 107.297 17.4096 1868 93.5701 651.582 446.514
2893 0 104.418 13.1395 1372 102.805 651.993 439
2894 0 106.42 12.3473 1314 101.909 652.321 434.786
2895 0 112.595 11.457 1290 101.75 652.747 439.905
2896 1 131.504 9.551 1256 102.708 654.222 441.568
2897 0 133.327 9.14292 1219 100.17 653.685 449.564
2898 0 133.457 11.7191 1564 98.2698 654.279 445.831
2899 0 130.191 8.77938 1143 103.423 654.42 439.251
2900 0 131.602 16.1699 2128 97.4008 654.427 427.526
2901 0 137.403 13.9954 1923 99.1056 655.149 421.142
2902 0 146.434 13.2552 1941 98.6347 654.392 419.524
2903 1 84.3019 14.6497 1235 92.9441 655.59 449.186
2904 0 88.1805 16.9652 1496 91.3342 655.286 446.741
2905 0 87.235 14.1686 1236 93.9199 653.462 445.183
2906 0 92.2932 13.0562 1205 96.0124 654.918 439.584
2907 0 95.4355 13.5484 1293 94.4486 654.674 446.756
2908 0 101.451 13.0802 1327 92.8244 654.241 454.251
2909 0 105.6 13.5796 1434 92.6604 654.774 450.705
2910 0 103.484 13.4997 1397 94.078 653.762 443.499
2911 0 108.331 14.4188 1562 91.5307 653.368 460.396
2912 0 108.459 16.9834 1842 91.5505 653.349 447.026
2913 0 113.656 12.7842 1453 94.7385 652.611 451.663
2914 0 114.427 9.91897 1135 98.4247 651.644 441.623
2915 0 125.254 20.0792 2515 87.4469 651.53 452.688
2916 0 119.27 10.9584 1307 95.4246 650.399 451.145
2917 0 130.547 18.2157 2378 89.1476 650.736 446.73
2918 0 126.572 13.992 1771 94.9334 649.242 436.018
2919 0 136.44 10.5541 1440 97.0722 649.723 436.387
2920 0 141.375 12.2864 1737 96.8238 648.797 424.774
2921 0 148.45 20.4514 3036 89.0346 649.408 432.346
2922 0 150.851 11.3754 1716 99.4423 647.105 419.449
2923 0 157.709 15.9534 2516 95.7921 647.636 419.127
2924 0 163.043 22.8713 3729 87.4693 648.235 433.522
2925 0 170.747 22.6592 3869 87.6348 647.566 429.428
2926 1 104.405 24.2614 2533 84.8101 647.571 451.73
2927 0 102.37 13.9397 1427 92.4982 646.527 453.233
2928 0 105.251 23.4961 2473 85.5208 647.263 451.285
2929 0 107.305 15.414 1654 92.1245 647.222 450.608
2930 0 108.456 19.0584 2067 90.5506 647.186 442.95
2931 0 117.55 18.0264 2119 91.8594 647.768 436.992
2932 0 118.362 15.4357 1827 95.3727 649.191 428.486
2933 0 120.534 12.3285 1486 99.3567 648.018 427.162
2934 0 123.463 11.9145 1471 98.8851 649.729 434.423
2935 0 131.457 15.3434 2017 96.5979 652.1 430.453
2936 0 128.439 11.5542 1484 103.137 651.189 421.743
2937 0 136.613 14.9401 2041 100.716 652.238 416.308
2938 0 144.975 15.9958 2319 99.2091 651.119 420.729
2939 0 147.398 16.2757 2399 100.597 653.599 412.668
2940 1 83.4174 8.13978 679 108.383 654.236 442.029
2941 0 89.4101 13.0746 1169 101.686 654.926 440.573
2942 0 96.3096 16.7377 1612 96.139 654.344 448.694
2943 0 98.6124 17.8274 1758 97.0751 654.741 440.857
2944 0 98.4031 11.5139 1133 105.763 654.803 443.943
2945 0 102.239 11.2873 1154 106.169 655.373 440.241
2946 0 107.446 13.309 1430 103.643 654.866 440.342
2947 0 111.321 17.0858 1902 98.4522 655.107 442.528
2948 0 113.315 13.6787 1550 102.934 654.864 439.409
2949 0 123.719 18.1945 2251 94.4225 654.494 450.43
2950 0 123.317 14.5966 1800 102.059 654.233 437.346
2951 0 126.378 17.8037 2250 96.8942 654.391 444.351
2952 1 72.3591 12.3827 896 99.9342 653.459 460.817
2953 0 72.3591 12.4242 899 140.562 653.418 460.86
2954 0 82.0802 14.4493 1186 95.7116 653.246 465.245
2955 0 79.5969 13.7694 1096 98.1004 651.797 463.427
2956 0 81.4916 13.756 1121 98.1864 652.931 464.299
2957 0 83.3709 11.6707 973 102.725 650.691 458.707
2958 0 80.3785 12.8019 1029 102.604 651.078 458.914
2959 0 88.2926 11.5865 1023 104.445 650.314 435.505
2960 0 89.5133 11.8753 1063 104.785 649.791 429.621
2961 0 94.4406 15.8089 1493 98.2686 649.403 432.492
2962 0 96.4065 13.8372 1334 102.034 649.735 428.314
2963 0 98.7219 16.9669 1675 97.6555 647.983 435.406
2964 0 102.29 14.9379 1528 99.8456 649.056 436.944
2965 0 103.548 9.82156 1017 108.838 647.609 428.791
2966 0 106.394 10.3578 1102 107.965 647.692 427.825
2967 0 110.313 13.1717 1453 103.701 648.29 432.508
2968 0 114.33 11.9216 1363 105.584 647.637 427.445
2969 0 118.35 12.1166 1434 104.418 648.116 426.557
2970 0 122.753 13.6045 1670 103.923 647.302 428.874
2971 1 59.1853 7.02878 416 111.394 647.176 456.695
2972 0 62.2009 9.80693 610 106.244 646.928 455.495
2973 0 66.2789 18.3165 1214 93.6565 648.418 461.579
2974 0 64.3216 11.6757 751 103.447 648.735 453.023
2975 0 73.3448 12.0936 887 102.156 648.9 454.072
2976 0 76.1498 16.7433 1275 96.8306 650.827 451.996
2977 0 76.1498 16.9272 1289 125.058 652.828 451.997
2978 0 79.3163 14.2468 1130 100.935 651.474 447.12
2979 0 78.6163 12.5419 986 104.204 651.501 446.041
2980 0 81.4216 12.2572 998 103.832 651.157 444.254
2981 0 85.1978 11.2679 960 105.946 651.515 444.538
2982 0 88.3516 9.1 804 109.455 652.386 441.101
2983 0 94.4087 10.8359 1023 105.621 652.679 442.604
2984 0 94.3829 14.5789 1376 101.554 652.532 445.312
2985 0 97.3076 14.3976 1401 102.543 653.776 442.919
2986 0 99.5902 15.6341 1557 101.654 653.815 439.517
2987 0 100.358 14.2091 1426 103.254 653.95 442.371
2988 0 105.335 23.2971 2454 93.5958 653.671 443.062
2989 0 108.156 13.9798 1512 104.224 653.821 444.901
2990 0 108.629 11.9858 1302 103.813 654.191 451.618
2991 0 115.37 13.3224 1537 104.953 654.774 442.844
2992 0 111.211 12.5077 1391 107.927 653.144 436.867
2993 1 123.545 13.6793 1690 103.69 653.912 441.274
2994 0 125.531 12.483 1567 105.2 654.56 443.003
2995 0 135.612 20.1899 2738 96.4083 653.352 431.164
2996 1 77.29 11.3857 880 100.803 654.79 466.99
2997 0 83.4847 15.0447 1256 91.1982 652.639 470.984
2998 0 81.3488 9.58834 780 98.8885 651.931 464.787
2999 0 85.1761 10.6016 903 98.2292 651.951 463.689
3000 0 85.2957 14.7487 1258 93.5238 651.383 464.301
3001 0 91.3063 11.4559 1046 98.2533 650.637 458.755
3002 0 87.1742 9.47528 826 102.439 650.624 453.499
3003 0 92.4484 16.539 1529 93.601 650.986 455.462
3004 0 99.2552 18.7396 1860 89.0936 649.08 465.275
3005 0 100.453 16.6247 1670 94.2736 648.865 446.763
3006 0 102.757 12.0965 1243 99.6162 648.342 447.698
3007 0 99.9148 12.0002 1199 101.038 647.028 442.507
3008 0 105.306 14.0733 1482 97.0945 646.642 448.733
3009 0 111.54 10.5702 1179 101.573 646.676 443.277
3010 0 110.28 20.3664 2246 92.6941 646.801 434.051
3011 0 117.483 11.9762 1407 100.479 646.488 437.226
3012 0 118.351 13.3924 1585 99.6019 646.647 436.187
3013 0 121.314 11.4002 1383 102.341 646.56 435.012
3014 0 126.75 14.7929 1875 98.3323 647.347 429.327
3015 0 120.478 11.6038 1398 102.678 647.266 424.607
3016 1 138.302 13.109 1813 99.7297 648.236 428.84
3017 0 134.375 14.0503 1888 99.7161 648.511 417.565
3018 0 142.343 21.3709 3042 91.5418 648.903 428.847
3019 0 147.555 14.1777 2092 99.3834 647.861 408.676
3020 0 154.294 11.4133 1761 101.363 649.84 411.084
3021 0 162.616 17.9379 2917 94.1886 649.817 419.29
3022 0 169.489 12.9153 2189 99.3961 650.48 410.023
3023 1 89.4954 11.509 1030 98.5913 650.375 445.407
3024 0 94.501 10.0211 947 98.4361 650.396 452.116
3025 0 101.153 21.5318 2178 89.0028 651.519 448.672
3026 0 104.173 17.2597 1798 93.8771 652.879 439.269
3027 0 107.232 13.578 1456 97.0776 652.669 446.723
3028 0 109.312 13.5576 1482 98.2955 652.676 440.941
3029 0 109.434 12.2631 1342 100.197 651.629 442.078
3030 0 109.434 12.2631 1342 128.659 650.642 441.872
3031 0 119.49 16.1938 1935 96.1085 653.59 450.627
3032 0 120.27 14.2762 1717 100.422 652.75 444.899
3033 0 123.419 12.3158 1520 103.659 653.301 440.666
3034 0 129.223 13.5348 1749 102.396 652.707 437.826
3035 0 129.223 13.6431 1763 136.193 651.695 437.842
3036 0 140.473 17.8184 2503 97.0623 652.322 432.803
3037 0 144.328 18.0353 2603 97.4714 651.507 426.812
3038 1 212.703 11.4385 2433 103.984 651.48 415.387
3039 1 13.0098 10.7612 140 81.1214 654.893 500.807
3040 0 13.0022 13.2285 172 80.1454 653.314 499.204
3041 1 90.1083 12.9622 1168 98.4341 650.624 459
3042 0 90.1083 13.0177 1173 138.073 649.637 459.188
3043 0 94.5125 10.4113 984 102.205 648.596 455.092
3044 0 100.924 9.97776 1007 99.7746 648.958 463.054
3045 0 104.604 14.5692 1524 94.5669 647.775 465.485
3046 0 105.336 15.8446 1669 96.7753 647.439 455.295
3047 0 111.549 11.4927 1282 100.509 647.026 455.588
3048 0 107.319 10.5573 1133 104.327 646.249 441.27
3049 0 108.502 8.00903 869 108.525 647.079 439.949
3050 0 119.742 11.6083 1390 101.825 646.805 446.329
3051 0 120.521 14.3295 1727 99.5466 646.909 443.275
3052 0 125.837 20.0895 2528 92.2096 646.492 452.062
3053 0 129.402 21.5376 2787 92.7513 646.262 433.25
3054 0 132.814 10.9025 1448 101.365 646.615 445.35
3055 0 134.45 17.0249 2289 95.7414 647.002 439.294
3056 0 142.881 16.4893 2356 95.8285 647.3 436.139
3057 0 146.164 15.6126 2282 97.362 645.849 432.435
3058 0 150.776 15.0621 2271 96.454 646.864 442.328
3059 0 152.947 18.7319 2865 94.399 646.942 435.914
3060 0 156.794 16.3144 2558 97.3937 646.454 433.218
3061 0 160.954 16.6445 2679 98.8063 647.477 425.939
3062 0 166.811 15.1849 2533 101.556 647.255 418.263
3063 0 175.747 12.0742 2122 106.743 649.135 405.8
3064 0 176.724 11.6226 2054 107.013 648.359 414.605
3065 0 181.762 12.8134 2329 106.545 649.208 405.627
3066 1 196.906 11.9701 2357 104.684 650.754 419.212
3067 0 195.643 11.3012 2211 109.049 650.64 401.804
3068 0 198.95 10.5504 2099 111.633 651.881 388.221
3069 0 209.192 18.3802 3845 100.48 651.99 400.443
3070 0 213.07 15.2814 3256 106.214 651.826 387.818
3071 0 221.14 15.0809 3335 106.768 651.623 387.177
3072 0 222.981 15.2838 3408 106.383 651.002 388.109
3073 1 239.872 22.1701 5318 97.6707 652.1 390.998
3074 1 55.7318 8.30764 463 94.635 652.045 477.114
3075 0 57.3142 6.61267 379 94.0449 653.815 481.596
3076 0 62.2056 9.64544 600 93.2083 652.998 480.253
3077 0 52.3457 8.48207 444 95.5676 652.095 477.329
3078 0 61.2916 9.12034 559 93.4902 652.632 471.519
3079 0 66.3906 7.47094 496 93.4698 651.867 485.673
3080 0 67.2238 10.6956 719 92.8136 651.435 474.412
3081 1 8.00055 1.62489 13 97.6923 651.231 506.231
3082 0 6 6.5 39 88.4872 652.538 509.769
3083 0 5 2.2 11 99.5455 650.636 506.909
3084 0 8.00101 7.24908 58 92.7414 648.897 508.103
3085 1 31.2554 7.32673 229 91.6288 649.83 497.118
3086 0 31.2554 7.39072 231 91.2597 648.836 496.983
3087 0 28.1838 8.1607 230 94.7478 647.322 498.183
3088 0 26.0246 1.65229 43 104.558 646.023 497.605
3089 0 27.0265 7.14115 193 96.2073 646.591 496.28
3090 0 19.0236 6.62334 126 98.0794 646.175 500.016
3091 0 23.0298 3.73428 86 101.43 646.093 496.233
3092 0 21.0036 3.14232 66 103.258 645.03 492.788
3093 0 27.0262 2.55308 69 104.638 644.42 495.493
3094 0 30.0632 8.24928 248 93.5403 644.774 502.56
3095 0 33.0586 12.1602 402 92.2512 643.858 494.301
3096 1 92.5486 11.5075 1065 101.562 645.842 464.808
3097 0 95.3324 11.0036 1049 103.381 644.374 458.011
3098 1 31.0935 11.385 354 95.3983 644.418 493.593
3099 0 30.0402 12.45 374 94.5588 644.249 488.019
3100 0 29.0294 10.9199 317 96.9117 644.164 492.249
3101 0 29.2332 9.50972 278 98.1259 644.752 485.932
3102 0 36.1888 6.65952 241 101.008 648.008 489.336
3103 0 31.1161 4.24217 132 98.7273 647.947 484.22
3104 0 36.1153 13.18 476 91.376 648.305 483.559
3105 0 37.3028 10.1065 377 96.7321 649.658 484.769
3106 0 35.2376 9.50689 335 97.791 650.149 487.197
3107 1 121.826 14.808 1804 101.741 649.477 442.472
3108 0 127.763 25.876 3306 91.6425 649.937 438.361
3109 0 126.686 23.9805 3038 93.7643 651.074 437.087
3110 1 35.0318 9.96236 349 98.7135 650.837 488.484
3111 0 38.5994 11.6323 449 93.1292 650.873 492.688
3112 0 36.0238 11.0483 398 97.7312 650.231 487.95
3113 0 34.228 10.9267 374 98.9572 652.406 489.615
3114 0 35.0797 8.55195 300 101.207 651.987 488.943
3115 0 32.0837 8.69601 279 102.333 651.806 489.814
3116 0 30.0151 8.59568 258 103.167 650.802 491.516
3117 0 30.075 11.6376 350 99.7657 652.929 491.5
3118 0 26.0063 7.07522 184 104.261 652.375 490.739
3119 0 18.0381 3.82524 69 108.493 651.71 498.783
3120 1 36.1185 12.1267 438 96.484 651.712 490.991
3121 0 36.2442 8.91177 323 100.783 651.483 494.697
3122 0 34.0323 12.1649 414 96.7754 651.867 492.213
3123 0 37.3451 10.7913 403 97.2134 652.318 494.63
3124 0 35.3992 8.10754 287 101.387 651.554 495.641
3125 0 38.1816 11.5501 441 96.5896 650.05 494.696
3126 0 38.2335 12.0836 462 95.7251 651.113 494.574
3127 0 36.0972 18.1732 656 89.3689 650.285 497.657
3128 0 37.1303 12.6312 469 94.4776 650.107 497.853
3129 0 34.01 8.40929 286 101.08 647.57 495.878
3130 0 34.0383 12.5153 426 96.507 646.843 497.746
3131 0 37.0292 12.9357 479 94.4217 645.491 492.063
3132 0 39.2203 13.7939 541 93.353 645.061 492.867
3133 0 39.144 15.7368 616 91.6396 644.865 490.617
3134 0 39.0839 13.535 529 95.0888 644.081 494.042
