time division length width area intensity CMx CMy
0 0 70.5158 15.727 1109 129.938 59.5158 451.652
1 1 35.2233 14.6494 516 122.946 59.7074 470.781
2 0 36.3039 14.5714 529 124.616 58.7032 467.586
3 0 39.2493 16.5608 650 118.548 57.8462 467.628
4 0 41.2409 11.7117 483 124.275 57.6377 469.497
5 0 37.348 14.1105 527 125.797 56.0987 466.696
6 0 40.304 13.3486 538 126.242 54.8457 466.019
7 0 42.2357 16.7157 706 118.004 53.17 468.847
8 0 41.4497 11.9422 495 130.471 53.604 467.455
9 0 44.4873 12.7902 569 126.58 52.2285 466.125
10 0 46.2866 16.0738 744 118.813 52.7124 466.187
11 0 45.4165 17.4606 793 114.131 52.1286 469.363
12 0 48.3198 17.8809 864 116.289 52.8275 466.241
13 0 50.3791 14.6886 740 113.122 52.7068 468.697
14 0 50.082 18.8291 943 112.85 52.0817 463.411
15 0 50.1959 14.6028 733 118.78 51.5102 461.714
16 0 52.2524 18.2958 956 112.294 51.909 459.343
17 0 53.1133 15.0998 802 116.485 51.5387 460.418
18 0 55.1371 19.7689 1090 112.433 51.4119 459.216
19 0 55.1431 14.4352 796 120.236 50.0465 458.129
20 0 56.103 16.5588 929 113.942 50.8041 455.878
21 0 61.1493 15.5685 952 114.764 51.3866 452.66
22 0 62.1513 20.1444 1252 107.063 52.3059 453.933
23 0 63.2776 17.7314 1122 115.053 55.0062 450.045
24 0 65.1112 19.3669 1261 114.273 55.7613 449.697
25 0 67.221 17.078 1148 116.579 56.0436 447.549
26 0 71.2342 17.3793 1238 114.07 57.9265 450.044
27 0 71.2254 17.7745 1266 116.184 57.8373 445.152
28 0 75.2697 17.3642 1307 115.627 58.0306 446.344
29 0 77.3819 16.0115 1239 117.056 59.3228 443.703
30 0 80.2136 18.4632 1481 112.447 58.9919 447.874
31 0 79.195 15.8848 1258 118.132 61.0938 445.033
32 0 84.1832 17.8539 1503 114.09 61.4025 447.182
33 0 87.3138 15.1408 1322 117.483 61.4244 446.098
34 0 89.1601 15.2759 1362 116.752 61.79 451.033
35 0 95.1281 17.9337 1706 114.04 61.5528 448.416
36 0 101.203 17.4105 1762 112.663 63.0017 444.501
37 0 101.398 16.9431 1718 112.597 62.2061 447.182
38 0 102.278 15.3405 1569 119.54 62.9477 442.886
39 0 107.384 14.695 1578 115.214 63.1103 443.058
40 0 117.454 25.4567 2990 99.6428 62.6017 443.672
41 0 115.462 17.0013 1963 112.578 62.5405 440.416
42 0 119.658 15.77 1887 113.454 62.2825 439.725
43 1 58.0754 16.0998 935 109.67 61.9893 473.408
44 0 61.1957 15.0011 918 112.657 60.8333 465.968
45 0 63.3361 13.7836 873 121.493 60.1306 469.581
46 0 64.1718 12.9029 828 131.738 59.7005 468.359
47 0 70.1627 16.3335 1146 124.328 59.5567 469.707
48 0 67.2129 12.8993 867 130.827 58.865 466.48
49 0 73.2245 15.9919 1171 126.064 58.5704 465.566
50 0 77.1822 15.0942 1165 130.766 56.8154 467.86
51 0 80.3352 18.1863 1461 124.092 56.486 464.946
52 0 81.2318 15.2403 1238 130.64 56.0727 462.648
53 0 84.2066 16.2339 1367 128.774 55.7915 462.494
54 1 44.0382 13.6018 599 129.017 56.2437 483.008
55 0 44.082 16.0383 707 126.091 55.3635 479.506
56 0 47.3289 14.1351 669 128.034 55.6203 478.839
57 0 46.0629 13.4816 621 131.221 54.6796 476.68
58 0 50.1774 12.695 637 130.666 53.7724 477.655
59 0 51.1176 14.359 734 128.763 55.1035 475.722
60 0 53.0901 13.1475 698 131.181 53.2908 472.136
61 0 55.0973 17.95 989 119.203 52.8129 473.707
62 0 54.0914 16.8049 909 123.7 53.0704 470.209
63 0 58.0958 12.2728 713 128.955 53.8962 470.828
64 0 58.0624 14.7428 856 126.516 52.7769 466.294
65 0 60.2288 15.2917 921 124.759 53.4463 464.253
66 0 61.0772 15.6196 954 124.764 53.5419 461.284
67 0 64.2896 13.8903 893 126.495 53.9989 460.129
68 0 67.0935 12.5795 844 128.876 53.987 459.015
69 0 71.1283 17.3911 1237 119.335 54.2611 456.766
70 0 74.2309 15.5057 1151 121.696 53.8167 457.466
71 0 76.1823 15.988 1218 121.225 55.633 457.261
72 0 76.1509 12.8167 976 129.738 55.9713 451.149
73 0 79.1189 15.3314 1213 124.272 57.0124 453.43
74 1 47.1565 15.3531 724 117.279 57.8881 472.209
75 0 46.0993 11.0414 509 127.381 58.0432 471.308
76 0 48.0493 12.6745 609 126.112 58.7488 469.42
77 0 46.1873 12.3844 572 128.021 59.3811 468.378
78 0 49.0937 15.0121 737 122.548 59.4288 469.289
79 0 50.2566 15.5005 779 122.761 61.0539 468.573
80 0 51.0709 13.0211 665 125.317 60.9429 472.323
81 0 54.2857 15.05 817 122.323 61.0269 468.963
82 0 54.1344 12.783 692 127.198 60.0419 467.991
83 0 56.3011 11.847 667 126.673 59.6972 470.274
84 0 60.491 11.3075 684 124.44 60.1111 473.766
85 0 62.2695 12.9598 807 124.916 59.2664 470.094
86 0 62.2761 14.3233 892 123.202 59.1906 469.118
87 0 64.1449 10.9128 700 127.704 59.4629 471.427
88 0 68.5245 13.8636 950 122.529 59.0663 468.54
89 0 70.1112 15.2472 1069 119.528 58.4397 469.321
90 0 72.2308 13.9691 1009 122.815 57.6036 468.554
91 0 75.3963 14.2049 1071 122.005 57.6704 468.147
92 0 76.2697 13.2818 1013 124.113 57.0217 468.196
93 0 80.3012 13.6735 1098 123.876 56.1138 465.231
94 0 85.3264 17.099 1459 115.321 55.8677 469.915
95 0 87.1951 15.9986 1395 118.48 53.7319 465.832
96 1 42.0247 10.0893 424 124.276 54.9057 482.408
97 0 45.2395 13.7933 624 115.779 53.9327 483.09
98 0 47.0716 12.1305 571 119.785 54.063 482.103
99 0 48.3547 12.4083 600 119.747 53.4117 479.882
100 0 48.0568 14.4412 694 115.725 52.3055 479.986
101 0 50.0727 11.6031 581 121.275 51.5112 478.098
102 0 55.4468 16.358 907 110.47 51.7255 477.006
103 0 52.3332 12.0382 630 119.062 51.6175 472.625
104 0 55.5334 14.7659 820 114.887 51.6341 472.715
105 0 55.3028 14.5562 805 115.08 51.9342 473.996
106 0 58.2832 13.3314 777 117.425 51.0257 468.681
107 0 62.4497 15.7727 985 113.029 51.3401 464.465
108 0 60.3478 7.02594 424 125.632 52.0542 468.005
109 0 65.175 14.438 941 116.244 51.2731 461.747
110 0 69.1134 15.3516 1061 113.726 51.4119 462.205
111 0 68.2776 11.9805 818 119.126 51.7848 459.573
112 0 72.4682 13.054 946 116.192 53.2241 460.618
113 0 79.4781 16.0547 1276 110.893 53.3111 456.792
114 0 79.4393 20.1663 1602 105.853 53.9139 456.922
115 1 41.2429 13.1659 543 111.341 54.6796 471.646
116 0 41.0669 10.5681 434 115.532 55.8525 472.806
117 0 40.2108 10.7931 434 116.581 56.4585 474.023
118 0 43.3277 13.4094 581 112.532 56.3477 472.94
119 0 44.084 11.5008 507 115.359 56.8659 470.751
120 0 46.072 13.4572 620 111.91 56.7806 470.66
121 0 46.1546 13.6715 631 110.916 57.9493 471.599
122 0 48.0718 18.5972 894 104.474 58.4251 471.569
123 0 48.0771 14.3103 688 111.003 59.7093 471.746
124 0 47.1441 12.8542 606 116.038 59.0314 468.84
125 0 49.0886 11.6524 572 117.437 59.6941 471.087
126 0 51.1108 12.3849 633 116.921 59.2575 471.916
127 0 54.1836 14.0818 763 114.165 59.5465 472.128
128 0 52.357 11.1733 585 120.28 60.2427 474.721
129 0 57.0434 13.5862 775 116.321 58.8219 473.945
130 0 59.1797 15.3938 911 113.48 58.9495 473.1
131 0 60.2173 16.4238 989 111.569 58.9949 476.429
132 0 61.1446 13.9342 852 117.415 58.9401 472.992
133 0 63.3226 13.5023 855 118.273 57.5591 474.053
134 0 65.2814 15.0885 985 114.417 55.4609 473.778
135 0 69.1327 17.0686 1180 111.006 56.0864 472.427
136 0 70.2348 14.5939 1025 114.799 55.2771 474.983
137 0 71.2398 12.5772 896 120.221 55.6138 470.564
138 0 75.1666 14.4745 1088 117.391 53.398 469.118
139 0 73.1266 12.1433 888 123.216 53.7275 467.922
140 0 77.305 15.4065 1191 118.547 51.5256 464.341
141 0 80.3823 16.3842 1317 116.196 51.123 466.468
142 0 85.3139 18.977 1619 112.709 51.2656 460.786
143 0 88.8252 16.1553 1435 116.698 50.7122 460.627
144 1 46.2126 11.7284 542 121.72 50.0627 477.578
145 0 48.3031 13.7465 664 117.265 49.878 475.77
146 0 50.1455 13.1218 658 116.824 49.5258 478.28
147 0 51.0784 12.0599 616 119.516 49.2192 474.562
148 0 53.0409 14.1966 753 116.092 50.1049 471.543
149 0 54.198 11.2735 611 120.791 49.2308 469.928
150 0 56.3701 13.3582 753 115.983 50.0916 468.713
151 0 59.1324 13.4613 796 114.771 49.9171 467.314
152 0 64.0723 17.4802 1120 107.573 49.9205 466.083
153 0 62.1936 11.9787 745 116.319 50.4215 465.779
154 0 64.0616 16.1407 1034 109.882 50.8694 464.864
155 0 69.5818 19.5597 1361 104.982 50.6539 461.539
156 0 67.1895 17.2944 1162 110.48 51.1644 458.836
157 0 72.5352 15.1513 1099 111.817 51.7116 459.101
158 0 71.2884 15.1497 1080 113.5 52.138 455.633
159 0 74.2472 12.7951 950 116.893 53.4758 455.861
160 0 77.2206 14.1413 1092 114.287 53.6621 456.731
161 0 82.4347 18.5844 1532 109.751 54.282 452.685
162 0 83.3272 14.7491 1229 115.718 54.8527 452.657
163 0 85.3288 17.1337 1462 112.22 55.8297 451.233
164 1 46.1735 11.9116 550 114.369 56.4473 472.305
165 0 47.0886 11.5527 544 116.754 57.2702 468.222
166 0 49.1155 15.9624 784 109.96 57.4592 472.31
167 0 49.1816 12.1793 599 115.766 56.9866 473.818
168 0 50.2227 14.4954 728 114.949 57.4299 469.624
169 0 54.4348 13.1534 716 116.527 57.8869 470.682
170 0 57.1788 13.589 777 112.873 57.5058 475.586
171 0 54.1058 13.6584 739 117.484 57.2977 471.945
172 0 57.222 14.2253 814 115.483 57.2924 473.268
173 0 57.3538 13.5998 780 116.851 56.8718 474.262
174 0 62.2659 12.0933 753 118.426 57.1262 475.25
175 0 63.1259 15.6513 988 114.998 56.1285 470.845
176 0 63.1458 14.5378 918 116.313 55.9466 473.879
177 0 68.3731 17.0535 1166 109.932 55.5755 477.914
178 0 70.1313 17.2534 1210 112.045 54.6347 473.288
179 0 71.1947 15.4787 1102 116.262 54.5662 470.749
180 0 73.3033 15.1835 1113 117.013 53.4169 470.793
181 0 76.239 19.2815 1470 111.062 51.8687 468.067
182 0 78.2834 16.4786 1290 115.865 51.7527 466.215
183 0 81.1371 15.5662 1263 118.051 51.7546 464.58
184 0 84.2096 17.1477 1444 114.344 50.0194 466.461
185 0 86.2083 15.6829 1352 118.124 49.8047 462.627
186 0 89.188 16.1232 1438 117.051 49.5376 458.081
187 1 49.1229 15.3289 753 108.193 49.0385 483.566
188 0 49.0401 11.5824 568 117.894 49.493 478.604
189 0 50.0634 14.0622 704 114.371 47.7713 475.091
190 0 56.1028 13.6178 764 112.414 47.9647 476.673
191 0 53.0554 13.665 725 114.295 47.3655 475.021
192 0 51.0801 12.2357 625 118.469 48.2064 469.445
193 0 58.0476 11.9385 693 115.97 47.7648 471.231
194 0 59.101 12.2333 723 117.741 47.9765 467.531
195 0 58.0833 11.9484 694 118.722 48.9741 466.581
196 0 61.086 13.1781 805 116.303 49.1478 463.965
197 0 67.1311 12.6767 851 114.564 49.8331 464.3
198 0 66.1101 15.0053 992 112.57 50.0413 459.231
199 0 68.0537 14.8853 1013 112.235 50.8095 459.179
200 0 70.2187 13.6004 955 115.026 51.934 458.452
201 0 74.1247 18.6038 1379 106.909 50.7781 457.397
202 0 76.303 15.1632 1157 111.169 52.21 456.785
203 0 76.106 12.338 939 117.149 52.9989 455.432
204 0 79.3136 13.806 1095 114.389 53.0219 453.975
205 0 81.2814 16.5721 1347 110.858 53.5895 450.137
206 0 86.2663 16.8316 1452 110.712 54.2335 450.116
207 0 90.1678 14.5063 1308 112.784 54.7729 450.753
208 0 90.2117 10.7525 970 117.437 56.1206 452.169
209 1 50.155 15.153 760 106.086 57.371 471.729
210 0 48.0926 9.89757 476 116.395 57.0777 471.109
211 0 52.0862 12.4793 650 110.651 57.9231 471.891
212 0 52.0878 14.1684 738 110.707 58.0339 470.046
213 0 56.0678 10.5587 592 114.11 57.3801 473.828
214 0 56.0616 10.7382 602 113.171 57.0415 474.292
215 0 62.2792 15.9604 994 105.109 57.5241 474.793
216 0 59.1293 12.7179 752 111.144 57.5558 474.819
217 0 65.0681 16.3214 1062 103.78 56.2891 476.432
218 0 66.238 14.9008 987 108.551 56.3273 469.958
219 0 68.2555 12.2481 836 111.786 56.0431 469.542
220 0 68.0805 12.1474 827 111.617 55.0883 472.337
221 0 73.5468 14.5078 1067 109.497 54.8051 468.267
222 0 75.15 17.1923 1292 105.936 54.2221 469.543
223 0 78.1617 14.841 1160 109.357 52.9491 471.008
224 0 79.1543 14.0864 1115 110.874 51.7004 465.819
225 0 82.1215 15.9763 1312 108.588 50.7896 465.319
226 0 76.1126 12.8625 979 113.762 50.8733 460.877
227 0 83.315 12.8308 1069 114.39 49.7399 461.748
228 0 80.2201 8.6512 694 119.239 49.2104 463.161
229 0 82.0889 10.2694 843 115.586 48.2728 466.112
230 1 50.0638 12.2244 612 109.422 47.4657 480.539
231 0 51.0469 17.6308 900 102.017 46.3822 480.506
232 0 52.11 14.9492 779 107.352 46.9987 475.442
233 0 54.0931 12.7743 691 109.511 47.6715 475.476
234 0 55.066 13.1479 724 109.959 46.192 476.173
235 0 59.0971 13.9262 823 108.287 47.3597 474.142
236 0 59.0748 16.0644 949 105.585 46.7439 472.678
237 0 63.1305 12.9731 819 109.734 46.6068 467.952
238 0 63.1297 12.9416 817 110.596 46.8164 465.102
239 0 65.1164 17.3228 1128 104.756 46.0488 465.334
240 0 68.2025 16.7589 1143 106.419 47.7769 465.535
241 0 69.1675 15.5709 1077 108.153 47.4726 462.868
242 0 76.1855 16.9192 1289 104.655 48.2715 463.801
243 0 76.1134 15.7003 1195 109.178 48.769 455.707
244 0 75.2372 17.0926 1286 108.491 47.3989 456.715
245 0 80.2443 16.8984 1356 107.053 49.0531 457.273
246 0 82.18 10.7934 887 115.253 49.301 457.1
247 0 84.0807 15.3424 1290 111.106 50.3078 451.574
248 0 88.5874 14.0991 1249 112.705 50.5364 452.362
249 0 88.2535 15.7501 1390 113.142 51.2978 444.622
250 0 92.1527 14.6605 1351 113.531 51.6936 450.869
251 0 94.2949 15.5046 1462 112.32 51.3988 451.922
252 0 97.3895 15.0838 1469 113.138 53.1396 450.046
253 0 101.307 14.8656 1506 115.147 53.585 445.904
254 0 100.317 11.9521 1199 121.254 53.8666 443.561
255 1 60.0726 12.6514 760 113.732 54.5803 468.163
256 0 58.1731 11.9299 694 115.774 53.9798 470.467
257 0 63.1615 14.8983 941 110.802 55.3613 469.49
258 0 64.0992 12.5275 803 114.13 54.9714 471.596
259 0 67.2904 15.0096 1010 111.156 55.7634 470.682
260 0 65.1671 12.2915 801 116.642 54.794 470.129
261 0 68.1176 14.7979 1008 113.87 54.6994 467.682
262 0 75.8527 20.2761 1538 102.014 54.4369 476.291
263 0 74.1654 16.6924 1238 110.803 53.21 468.263
264 0 74.1419 13.0426 967 115.6 54.1582 469.564
265 0 77.0811 14.8285 1143 113.308 52.8075 467.518
266 0 80.425 12.3593 994 118.573 52.6992 467.498
267 0 82.2314 14.7754 1215 116.24 50.9029 462.658
268 0 88.1514 17.1069 1508 111.662 50.4257 462.725
269 0 90.2645 15.5764 1406 114.507 48.409 460.135
270 0 93.2669 15.8148 1475 113.225 48.1925 455.62
271 0 96.3324 17.2009 1657 111.677 48.2842 453.686
272 1 52.1722 14.3563 749 109.581 49.2417 478.597
273 0 53.1315 14.0218 745 108.746 48.1651 479.424
274 0 56.0659 14.1797 795 109.364 47.6566 476.889
275 0 57.1029 13.0992 748 112.286 46.893 472.766
276 0 55.2468 13.9013 768 112.022 46.7747 469.789
277 0 60.3764 14.774 892 107.928 45.9742 470.696
278 0 59.2075 12.4646 738 112.23 45.832 467.816
279 0 62.1955 14.6634 912 106.444 47.0373 471.451
280 0 64.2176 16.6621 1070 105.658 45.9841 466.818
281 0 64.4371 13.8895 895 109.99 45.8626 461.893
282 0 64.1291 9.90191 635 115.978 45.8425 459.365
283 0 69.1893 12.1984 844 110.719 47.481 460.925
284 0 72.1965 13.2693 958 110.683 47.4739 457.486
285 0 74.1996 11.9542 887 111.759 48.2007 456.857
286 0 79.5247 16.234 1291 104.243 47.8675 459.062
287 0 80.211 14.9979 1203 107.105 49.1746 453.972
288 0 84.309 21.3144 1797 99.31 48.936 454.23
289 0 83.2495 15.8199 1317 105.969 50.0524 455.289
290 0 87.1639 18.2989 1595 104.563 50.6382 446.187
291 0 89.3366 13.8801 1240 110.353 52.5637 444.798
292 0 95.2671 13.5514 1291 109.544 52.371 447.082
293 1 46.0973 12.6255 582 105.988 54.7577 468.808
294 0 48.1527 13.0626 629 105.987 54.008 466.868
295 0 50.2259 13.9769 702 105.618 54.8604 467.397
296 0 52.1298 12.7566 665 105.699 55.3338 466.361
297 0 54.3894 14.341 780 104.019 55.8974 467.106
298 0 57.2632 16.9917 973 99.8993 57.0524 468.593
299 0 57.2131 20.2576 1159 96.8309 56.3175 470.585
300 0 61.2034 14.2312 871 104.349 56.9392 470.325
301 0 58.3012 11.8522 691 109.02 56.1158 466.569
302 0 62.3996 16.0257 1000 103.006 56.386 468.983
303 0 67.2237 19.9037 1338 97.6846 55.2945 470.478
304 0 67.574 22.1535 1497 96.7882 55.0461 468.556
305 0 70.1243 14.2604 1000 104.929 56.007 470.742
306 0 69.2458 13.6759 947 108.335 54.2482 469.952
307 0 74.2037 18.7322 1390 101.607 55.1662 467.591
308 0 77.2576 14.704 1136 106.344 53.7077 466.452
309 0 78.5058 18.5464 1456 101.65 53.5536 468.741
310 0 81.2318 15.3758 1249 105.541 53.3034 469.807
311 0 81.2609 13.4382 1092 109.574 52.3736 464.363
312 0 86.4072 17.5564 1517 104.299 51.4871 463.763
313 0 87.2631 14.7256 1285 108.096 50.8428 460.025
314 0 89.3471 15.076 1347 107.728 50.8025 457.994
315 0 90.3944 13.3305 1205 110.271 49.8108 457.835
316 0 95.4657 14.5497 1389 107.977 50.7113 459.276
317 0 97.2065 14.0011 1361 110.107 48.4489 453.514
318 0 101.275 15.0383 1523 108.687 47.2416 449.152
319 0 104.386 14.5039 1514 109.476 47.8217 451.307
320 0 111.32 16.8254 1873 106.012 47.0956 447.815
321 0 115.238 17.8587 2058 105.503 47.3678 443.587
322 0 117.268 16.0146 1878 108.288 47.2023 442.609
323 1 72.7915 13.6967 997 104.368 48.1595 467.805
324 0 66.1519 10.1584 672 112.626 47.4866 463.382
325 0 72.2641 14.9175 1078 106.419 47.7069 461.517
326 0 73.3064 12.3318 904 110.348 48.4889 459.459
327 0 74.3591 14.2955 1063 109.88 48.825 452.756
328 0 76.0391 14.6635 1115 108.999 49.0888 452.607
329 0 81.3082 17.3291 1409 104.533 48.4642 453.586
330 0 82.173 13.642 1121 110.229 50.1588 449.363
331 0 86.4945 17.1918 1487 104.673 50.4667 450.798
332 0 88.2832 15.2464 1346 110.133 51.6174 442.917
333 0 92.2192 15.2137 1403 109.819 51.335 444.845
334 0 95.2671 12.4912 1190 112.592 51.9966 445.082
335 0 95.3455 16.9804 1619 106.986 52.7492 444.536
336 0 101.376 12.7151 1289 112.37 53.7036 442.967
337 0 105.33 13.4719 1419 111.003 53.7153 440.418
338 0 108.398 14.6313 1586 110.195 54.5454 436.259
339 1 59.2681 14.7297 873 103.822 56.1913 463.219
340 0 61.0942 12.5708 768 107.724 57.3333 461.139
341 0 62.1824 10.1315 630 113.333 56.5032 461.816
342 0 64.2008 12.6167 810 110.628 57.7025 461.616
343 0 68.1376 14.2653 972 104.705 58.4126 463.948
344 0 70.318 14.6477 1030 103.364 57.3369 465.213
345 0 72.1882 13.1185 947 107.569 58.4509 460.89
346 0 74.1488 12.6368 937 108.073 58.5422 462.104
347 0 77.2162 13.1061 1012 108.282 57.9516 458.559
348 0 80.162 10.4414 837 111.53 57.6798 459.978
349 0 81.3262 12.9847 1056 108.82 58.0994 461.024
350 0 85.1365 11.0998 945 109.916 57.5228 462.622
351 0 87.3127 14.156 1236 107.658 56.7945 460.336
352 0 89.2767 13.7438 1227 109.241 55.6789 456.952
353 0 94.5426 13.3379 1261 109.395 55.8049 454.434
354 0 95.4118 13.8872 1325 108.843 55.1985 456.733
355 0 101.388 14.9426 1515 107.195 53.429 454.113
356 0 102.428 13.9415 1428 108.843 52.437 449.294
357 0 105.595 12.9836 1371 109.602 52.4398 447.514
358 0 109.69 14.6778 1610 106.31 52.2957 445.584
359 1 57.0802 12.1058 691 104.886 52.8972 471.107
360 0 61.1194 12.9255 790 103.844 53.043 472.1
361 0 62.2449 12.7079 791 107.131 51.019 469.167
362 0 63.4394 12.3583 784 107.622 51.5855 466.597
363 0 67.2123 16.0387 1078 103.649 51.1104 462.533
364 0 69.1442 15.1857 1050 103.514 50.5676 463.227
365 0 70.2085 11.9359 838 108.918 51.0465 461.986
366 0 74.278 14.0284 1042 106.023 51.7745 458.308
367 0 76.2196 13.6841 1043 106.685 52.0671 455.191
368 0 81.3684 16.2471 1322 102.574 50.4766 456.775
369 0 80.341 14.5629 1170 106.117 50.3607 449.909
370 0 84.1718 12.1181 1020 110.17 51.299 449.309
371 0 88.1711 17.9651 1584 101.773 51.108 452.285
372 0 90.1515 17.0713 1539 103.719 52.2476 446.022
373 0 91.2991 15.9804 1459 105.686 51.5607 444.959
374 0 96.2831 12.806 1233 110.698 52.6245 441.656
375 0 102.177 22.7643 2326 98.04 52.1784 443.357
376 1 53.1181 10.2602 545 109.679 53.6789 463.547
377 0 57.058 15.2652 871 101.476 54.2813 465.362
378 0 56.2741 14.2339 801 105.536 53.8227 461.111
379 0 54.092 11.6838 632 104.72 55.6424 465.896
380 0 61.4757 14.2983 879 101.14 56.6178 462.18
381 0 59.0583 9.70227 573 110.562 57.1361 462.913
382 0 60.0928 13.9617 839 107.752 59.2014 458.222
383 0 66.077 15.7392 1040 104.682 58.8837 459.386
384 0 67.1513 14.3705 965 107.253 58.1326 461.771
385 0 67.1976 12.9171 868 110.432 58.9816 458.366
386 0 70.1189 12.3077 863 109.487 58.7184 462.297
387 0 71.6402 12.8419 920 110.837 59.8163 459.385
388 0 76.0912 15.0083 1142 106.609 60.4658 458.782
389 0 78.0855 14.8171 1157 107.307 59.9473 459.865
390 0 78.1912 14.3878 1125 108.972 59.5911 459.242
391 0 82.1783 25.0796 2061 94.8966 58.362 465.655
392 0 84.3184 12.3935 1045 111.389 59.1177 462.658
393 0 87.2368 21.0806 1839 100.372 57.3295 462.795
394 0 88.139 12.1966 1075 113.179 58.4233 456.536
395 1 43.0651 11.3549 489 115.096 56.8037 476.806
396 0 47.1331 16.2519 766 103.128 56.4922 483.986
397 0 51.2019 14.1206 723 107.461 56.379 479.367
398 0 51.25 14.2439 730 108.745 53.611 474.555
399 0 51.17 11.2175 574 114.274 53.6568 478.399
400 0 55.06 14.8565 818 108.874 53.1846 479.317
401 0 57.2808 15.2058 871 106.882 53.4363 472.233
402 0 58.0875 13.7723 800 109.829 52.8825 476.718
403 0 58.0769 16.8397 978 105.27 52.2423 475.259
404 0 58.0509 14.2117 825 109.063 51.4873 473.535
405 0 63.0549 11.1807 705 112.227 51.617 474.841
406 0 64.1017 13.151 843 112.618 50.3464 469.075
407 0 66.1014 12.8288 848 112.096 50.3797 469.132
408 0 69.1009 16.0779 1111 106.864 48.8119 466.169
409 0 69.1284 14.7262 1018 109.697 49.8399 460.609
410 0 72.0837 16.8277 1213 106.749 49.6315 460.34
411 0 74.1071 14.5195 1076 110.93 50.1942 457.656
412 0 77.1941 16.0634 1240 106.805 50.4685 460.532
413 0 79.2311 14.2873 1132 111.143 50.235 452.761
414 0 84.1946 17.5308 1476 106.713 50.4302 448.656
415 0 83.2024 13.9179 1158 111.622 50.9931 448.421
416 0 88.2363 14.0645 1241 109.928 51.751 448.098
417 0 92.2263 13.5211 1247 110.446 51.6945 444.764
418 1 46.3087 11.6609 540 111.648 52.237 463.402
419 0 51.4719 16.4362 846 103.812 52.922 460.617
420 0 51.1575 12.6668 648 109.889 53.5833 466.103
421 0 52.1053 12.897 672 110.22 55.3423 463.979
422 0 54.088 15.1235 818 107.885 55.11 461.241
423 0 53.0453 12.9889 689 110.807 56.5399 463.305
424 0 59.127 13.4626 796 109.392 56.2977 462.413
425 0 57.1622 11.5636 661 114.027 57.5416 463.427
426 0 59.0546 15.9175 940 108.087 57.9723 459.106
427 0 62.0644 15.2583 947 108.08 58.4129 460.695
428 0 63.0707 12.2719 774 109.838 60.3501 467.078
429 0 65.1118 15.8957 1035 107.504 60.2918 458.562
430 0 70.2851 17.0022 1195 104.147 60.1305 463.455
431 0 70.1427 14.6416 1027 108.305 59.5735 460.167
432 0 73.1709 15.6893 1148 105.916 59.8589 461.53
433 0 75.2394 16.4276 1236 104.744 59.716 460.985
434 0 78.3469 15.9164 1247 103.824 58.8605 464.878
435 0 80.126 15.0014 1202 105.755 59.2937 459.679
436 0 82.2752 15.6548 1288 104.1 58.5699 464.219
437 0 84.2213 15.9461 1343 103.985 58.7022 462.597
438 0 89.3296 16.4447 1469 102.943 57.7359 459.428
439 0 91.3152 16.339 1492 103.444 57.1883 459.578
440 0 95.4002 16.761 1599 102.053 56.6442 460.899
441 0 97.3596 13.6915 1333 106.828 56.2806 458.932
442 0 100.237 14.8348 1487 106.531 54.7384 452.833
443 0 103.302 12.4102 1282 108.324 54.9368 457.75
444 1 54.0567 10.859 587 107.491 55.3578 481.382
445 0 55.0234 15.2117 837 102.035 53.2652 479.603
446 0 57.0731 11.8094 674 106.257 53.5059 475.436
447 0 59.0882 10.3405 611 107.232 53.4534 477.088
448 0 59.1613 10.1249 599 108.591 53.0117 471.776
449 0 62.1155 14.0545 873 103.735 52.0939 469.874
450 0 66.2938 17.6487 1170 98.1872 51.0094 472.685
451 0 68.226 15.4926 1057 101.326 50.5676 464.614
452 0 67.2222 11.6926 786 107.454 50.57 461.95
453 0 74.2016 11.9404 886 107.052 50.1456 460.599
454 0 78.4042 13.5579 1063 103.623 50.1787 462.889
455 0 78.2891 14.0633 1101 105.024 49.7793 457.528
456 0 84.5052 17.8687 1510 99.1874 49.5583 459.105
457 0 84.2457 14.8494 1251 103.709 48.0232 452.44
458 0 87.2466 16.1955 1413 101.144 47.8861 453.049
459 0 91.4384 20.5275 1877 96.9014 46.5434 452.461
460 0 92.1886 20.035 1847 98.5474 47.4705 447.208
461 0 99.6559 19.0455 1898 97.441 48.7687 450.172
462 0 103.619 18.5198 1919 96.6399 50.3028 453.145
463 0 110.545 16.2378 1795 100.27 51.7081 445.074
464 1 55.3171 12.0758 668 104.524 52.003 468.512
465 0 57.2782 14.3161 820 103.246 54.1305 466.573
466 0 59.0497 15.3261 905 103.628 54.7923 467.128
467 0 62.1205 13.6509 848 105.336 54.6462 466.383
468 0 61.1689 14.6316 895 106.004 55.9162 461.817
469 0 70.5929 17.863 1261 99.9968 56.7597 465.779
470 0 66.1822 14.1126 934 107.547 56.4968 460.738
471 0 71.2082 11.3189 806 109.145 56.6811 466.578
472 0 72.1157 12.9791 936 108.467 56.8985 463.864
473 0 76.1417 19.49 1484 99.9454 56.4151 464.675
474 0 76.6507 12.8505 985 108.757 57.198 467.207
475 1 35.1553 8.04999 283 111.809 57.1519 484.632
476 0 42.689 12.5091 534 105.33 56.5955 484.165
477 0 41.0891 11.1465 458 108.469 55.5917 486.683
478 0 43.0828 10.1433 437 111.851 54.6842 488.725
479 0 44.0586 16.183 713 105.205 54.2987 486.025
480 0 48.059 12.5055 601 109.536 54.0067 486.527
481 0 49.1451 15.9731 785 104.382 53.4446 490.983
482 0 48.2582 13.3449 644 110 53.5016 489.728
483 0 52.1357 12.0838 630 111.902 51.9683 488.492
484 0 53.112 16.2487 863 105.181 51.4936 489.562
485 0 54.4366 20.6479 1124 100.895 48.3407 482.754
486 0 55.2938 15.2097 841 107.845 47.3448 486.395
487 0 59.2 14.1216 836 108.939 47.9833 487.169
488 0 59.1454 14.7095 870 109.621 47.2425 485.009
489 0 58.1601 11.9498 695 116.121 46.9137 481.755
490 0 63.1514 16.1833 1022 107.134 45.9853 480.086
491 0 63.4408 15.5105 984 109.46 45.498 473.998
492 0 65.0983 12.3659 805 113.271 44.6186 475.094
493 0 70.3008 15.2772 1074 106.687 44.7905 476.874
494 0 74.3354 14.5691 1083 106.786 44.0295 476.287
495 0 71.3174 13.6993 977 111.003 43.4575 468.913
496 0 75.1857 19.0595 1433 102.847 42.7976 472.29
497 0 77.1761 15.6136 1205 108.051 43.6822 466.856
498 0 82.3621 15.1283 1246 109.069 43.0088 461.636
499 0 83.3404 13.9428 1162 111.707 43.327 458.33
500 1 44.0585 14.0268 618 107.337 44.1375 479.929
501 0 48.139 15.019 723 105.959 45.3485 480.149
502 0 49.109 12.4824 613 112.183 46.23 475.817
503 0 50.2831 14.657 737 104.339 46.7205 478.172
504 0 51.3748 11.9514 614 114.322 46.6857 469.795
505 0 53.1501 14.8824 791 109.679 47.6978 466.222
506 0 54.3158 13.7897 749 111.092 48.8678 469.579
507 0 57.2709 15.4878 887 107.868 48.7475 467.929
508 0 56.3471 13.0619 736 112.586 50.2038 466.554
509 0 61.1487 11.562 707 110.601 51.2659 468.235
510 0 61.5588 12.151 748 113.441 51.1832 462.711
511 0 62.1654 17.8556 1110 104.506 51.5198 459.161
512 0 64.3757 16.4969 1062 105.781 52.8738 461.886
513 0 66.2308 13.7096 908 109.861 53.8249 459.367
514 0 69.3049 13.9528 967 108.58 53.5315 460.846
515 0 77.496 15.2137 1179 104.112 55.8142 462.382
516 0 76.133 13.6734 1041 108.336 55.1979 461.708
517 0 76.303 13.5643 1035 109.575 55.972 458.884
518 0 81.4419 13.3101 1084 109.054 55.4852 459.693
519 0 81.3455 12.9079 1050 110.337 55.6933 459.633
520 1 41.0426 7.89423 324 111.969 56.5216 484.117
521 0 46.1142 11.4498 528 106.159 55.9242 486.602
522 0 48.0647 11.6718 561 105.08 55.0481 488.481
523 0 49.0897 11.2855 554 107.942 53.9693 484.092
524 0 51.1872 13.2064 676 104.626 53.0252 485.086
525 0 49.4572 14.3761 711 106.076 51.4135 486.52
526 0 52.263 15.3646 803 104.479 52.2167 485.995
527 0 54.3057 12.5217 680 109.771 51.6176 483.31
528 0 54.1674 10.9291 592 113.093 50.5878 483.919
529 0 59.2645 16.5529 981 103.7 48.3588 483.853
530 0 59.3889 14.4471 858 108.364 46.9441 481.061
531 0 60.2989 12.4546 751 111.531 47.9387 480.503
532 0 63.2853 11.3454 718 112.972 46.1866 477.056
533 0 67.2135 14.0448 944 108.245 45.8517 476.657
534 0 68.171 12.6447 862 110.937 43.7274 472.938
535 0 71.2813 15.039 1072 107.557 41.9935 470.202
536 0 72.2657 13.4227 970 109.255 42.4237 473.258
537 0 77.3365 12.7107 983 109.553 41.8769 469.473
538 0 82.297 15.6992 1292 104.831 42.3173 466.828
539 0 82.5979 15.3757 1270 105.524 41.7772 460.31
540 0 83.2845 13.724 1143 108.78 44.6789 463.254
541 1 42.2244 12.0546 509 105.055 42.3595 482.538
542 0 45.2784 18.1102 820 97.6512 42.0976 479.876
543 0 44.1778 10.6388 470 107.019 46.0553 479.862
544 0 47.0952 14.269 672 102.685 46.5372 480.487
545 0 46.0441 11.4673 528 107.907 47.5852 472.83
546 0 52.2155 18.1747 949 96.8746 47.0653 476.317
547 0 48.0685 8.73754 420 110.286 49.2881 472.776
548 0 55.259 10.1522 561 105.686 49.2727 472.977
549 0 53.0758 12.3597 656 105.069 49.6204 470.11
550 0 54.1992 13.7272 744 103.544 50.0941 466.712
551 0 60.2971 15.3075 923 101.063 48.8072 469.275
552 0 58.4504 11.6851 683 106.045 48.7906 467.454
553 0 62.1767 13.3169 828 104.775 49.849 465.403
554 0 66.2199 10.0272 664 107.377 50.1446 464.434
555 0 65.1942 11.9182 777 106.449 50.8623 464.714
556 0 69.4178 13.642 947 104.03 51.2883 464.661
557 0 72.5342 18.9841 1377 97.403 52.6536 464.903
558 0 73.3303 15.1779 1113 103.036 53.4555 462.667
559 0 73.556 11.651 857 107.435 52.986 462.741
560 0 77.5408 16.0303 1243 101.904 52.9002 463.556
561 0 83.3312 15.1324 1261 102.878 52.7534 462.778
562 0 81.4979 12.1966 994 108.137 53.2978 462.515
563 0 90.6485 18.0698 1638 99.8926 52.2204 463.302
564 1 43.2198 7.88991 341 108.716 52.3666 487.595
565 0 48.4021 11.6731 565 104.37 52.7416 484.795
566 0 49.2801 9.71996 479 106.891 52.1336 486.221
567 0 49.0702 11.0454 542 105.659 52.5277 485.76
568 0 52.2784 10.9032 570 106.54 51.8737 479.553
569 0 54.1386 14.2228 770 102.564 51.313 484.748
570 0 56.2336 12.9638 729 103.975 50.2483 484.043
571 0 57.0992 13.2226 755 103.94 48.8384 480.579
572 0 59.3771 13.49 801 102.734 49.6742 482.843
573 0 57.3295 15.9429 914 98.7374 48.6258 483.51
574 0 62.2067 14.2428 886 101.46 48.0677 480.316
575 0 64.2468 13.775 885 101.263 46.8418 477.035
576 0 66.1928 17.3131 1146 98.1623 46.3429 477.668
577 0 69.508 14.6889 1021 101.547 46.2047 473.959
578 0 74.2946 12.7196 945 103.884 45.4434 472.983
579 0 73.2956 14.5302 1065 102.491 45.9455 469.552
580 0 77.2261 15.1762 1172 101.027 44.2901 472.154
581 0 79.5003 13.6981 1089 104.185 44.8705 468.496
582 0 80.271 13.5043 1084 104.969 44.4972 463.674
583 0 87.3252 15.322 1338 101.895 45.1338 461.682
584 0 86.3164 10.1719 878 110.08 45.2847 459.511
585 1 43.147 16.015 691 97.7323 44.8669 484.14
586 0 43.2938 15.9376 690 98.1116 46.2275 480.014
587 0 47.1156 11.7796 555 102.71 47.5892 479.71
588 0 47.0418 13.2648 624 102.111 47.742 476.688
589 0 49.137 15.7315 773 98.8939 47.1669 475.375
590 0 50.1079 12.3933 621 102.673 47.3221 475.519
591 0 51.263 18.3368 940 94.216 47.9755 478.571
592 0 50.055 10.0889 505 107.455 49.2416 468.81
593 0 59.3558 19.1894 1139 94.4012 49.302 467.153
594 0 55.0194 12.7046 699 104.702 50.083 469.506
595 0 57.2304 15.1668 868 102.233 50.3917 464.083
596 0 59.2107 13.68 810 102.931 51.7074 466.206
597 0 59.1716 10.7991 639 106.967 52.1455 466.541
598 0 63.1101 11.2502 710 105.458 52.0648 468.613
599 0 68.3977 13.904 951 101.403 53.4637 466.293
600 0 67.3189 14.9587 1007 101.129 54.2294 462.772
601 0 71.2017 14.466 1030 100.351 53.7019 466.479
602 0 71.1847 13.6265 970 102.538 54.368 461.739
603 0 75.232 11.644 876 104.435 53.774 460.774
604 0 76.5261 13.5117 1034 102.703 53.5764 460.549
605 0 84.2656 19.1062 1610 94.0155 52.9478 466.816
606 0 82.2468 11.2831 928 102.351 53.9052 467.671
607 1 42.1247 10.184 429 103.163 53.8904 484.751
608 0 47.0866 12.339 581 99.9673 52.4389 483.372
609 0 48.0568 14.2748 686 98.8265 52.2318 483.978
610 0 52.1896 13.7001 715 97.8084 52.2979 484.736
611 0 49.1291 12.3348 606 100.054 52.2195 487.868
612 0 53.1233 13.1016 696 98.4856 51.8218 481.787
613 0 54.2171 14.6448 794 96.6499 51.6801 483.724
614 0 53.0758 13.6974 727 100.323 50.6974 481.739
615 0 56.1263 13.1489 738 99.2561 49.7412 482.015
616 0 57.0586 12.8114 731 100.17 47.5499 481.259
617 0 57.1803 12.3294 705 100.83 46.8312 481.152
618 0 60.3171 10.5277 635 101.126 46.9622 481.775
619 0 64.3747 19.4486 1252 92.266 46.7005 476.012
620 0 59.1925 9.64649 571 103.058 45.331 472.897
621 0 69.8575 15.7607 1101 93.7175 45.8765 477.284
622 0 68.1331 14.7505 1005 97.7532 45.5512 470.853
623 0 72.3086 12.5158 905 100.842 45.1779 468.958
624 0 75.5238 17.6765 1335 95.6352 43.809 467.861
625 0 79.4681 17.6045 1399 95.0665 44.4467 468.828
626 1 43.1765 12.252 529 97.9376 45.9395 482.531
627 0 43.1876 11.67 504 97.5873 45.1052 483.77
628 0 42.0727 13.0013 547 99.4534 45.808 477.366
629 0 44.1106 12.3553 545 99.5156 46.6385 479.185
630 0 44.0841 10.5026 463 102.501 46.8855 478.374
631 0 48.1912 14.6915 708 98.6398 47.0805 474.336
632 0 52.4164 19.1352 1003 93.5783 46.9352 474.857
633 0 52.4164 19.3069 1012 118.963 45.9901 474.848
634 0 50.07 12.5624 629 105.548 47.5183 470.645
635 0 50.0872 12.7378 638 105.973 49.7085 471.918
636 0 55.0954 15.1192 833 101.435 49.7347 471.212
637 0 55.2625 12.1963 674 106.2 50.6098 470.497
638 0 56.2153 17.8599 1004 99.6584 50.5857 466.766
639 0 60.281 12.4583 751 106.454 50.759 467.691
640 0 62.302 15.9545 994 100.593 51.2334 469.212
641 0 66.3379 16.9436 1124 99.3141 52.4048 470.687
642 0 67.0558 24.1888 1622 93.0284 52.2121 469.491
643 0 71.34 23.1707 1653 93.2613 52.3146 468.816
644 0 71.1613 12.4084 883 106.963 53.6251 467.001
645 0 73.4829 12.9146 949 105.667 53.3678 467.269
646 0 80.811 16.9036 1366 100.111 53.1266 467.348
647 0 78.216 16.5184 1292 102.806 52.9574 461.594
648 1 42.1259 11.1095 468 103.111 53.297 488.098
649 0 42.0589 11.1748 470 104.234 53.0064 487.336
650 0 42.046 8.82368 371 108.057 52.2668 488.671
651 0 46.192 12.9243 597 102.896 52.5595 486.363
652 0 48.0841 16.2216 780 98.7962 52.9077 485.587
653 0 48.0573 14.4203 693 101.912 52.9076 484.722
654 0 49.0608 14.4718 710 100.683 52.669 488.552
655 0 51.083 19.3215 987 96.076 51.8207 485.24
656 0 52.1147 13.5662 707 102.014 51.2574 488.313
657 0 51.1558 13.195 675 102.557 48.6785 486.707
658 0 56.1108 14.0436 788 101.036 49.7348 486.159
659 0 59.1792 15.2249 901 100.137 48.1643 485.45
660 0 58.1281 15.397 895 101.931 48.1832 481.336
661 0 58.122 11.4415 665 105.752 46.9293 483.604
662 0 63.1258 15.6196 986 101.85 47.3529 478.716
663 0 63.2579 15.666 991 103.491 47.1483 474.016
664 0 65.2509 14.6358 955 105.137 46.6419 473.269
665 0 70.2981 21.2097 1491 97.6358 45.493 472.928
666 0 71.1745 16.2558 1157 103.309 45.3665 469.669
667 0 73.1722 19.092 1397 99.3851 44.7931 471.881
668 0 74.167 16.8404 1249 102.934 46.0937 467.54
669 0 78.307 16.0905 1260 103.821 44.8167 463.856
670 0 81.1568 14.7985 1201 105.66 45.98 463.692
671 0 85.3317 17.9066 1528 102.603 46.3128 461.433
672 1 46.0682 15.2383 702 102.551 46.094 479.752
673 0 48.078 12.5837 605 106.774 46.3934 477.564
674 0 46.0679 10.0721 464 111.263 47.0819 474.884
675 0 53.1475 13.0204 692 106.201 45.7702 475.191
676 0 52.3546 14.9748 784 106.411 47.4247 468.747
677 0 52.4621 10.8269 568 111.875 48.7377 470.356
678 0 56.4329 13.9103 785 108.061 48.349 470.004
679 0 60.5867 14.6402 887 105.643 49.1094 471.055
680 0 60.3884 13.3966 809 108.609 50.1731 467.506
681 0 62.2127 11.9911 746 109.621 49.2038 465.954
682 0 65.2585 16.7335 1092 104.06 49.0504 464.643
683 0 66.2069 13.1859 873 108.877 51.5819 462.394
684 0 71.1755 16.6068 1182 102.821 51.1235 467.958
685 0 72.2028 15.6227 1128 104.583 51.8014 465.539
686 0 72.4979 13.9314 1010 107.544 51.3634 461.705
687 0 76.3949 15.7471 1203 104.132 52.0299 462.149
688 0 81.6403 12.8735 1051 106.375 51.5852 468.031
689 0 83.3922 14.0421 1171 106.417 51.3971 462.664
690 0 84.4499 14.3162 1209 106.308 52.8114 460.313
691 0 89.3416 12.2004 1090 107.45 53.3495 467.002
692 0 91.4132 12.9084 1180 107.576 52.111 461.446
693 0 91.1989 10.987 1002 110.894 52.6916 459.229
694 1 47.0749 9.64421 454 108.055 53.0154 488.491
695 0 53.1438 19.0991 1015 95.3517 51.8138 488.835
696 0 52.2254 11.2397 587 107.365 50.3271 484.237
697 0 54.1821 13.3993 726 104.163 50.9614 484.953
698 0 55.1272 11.41 629 107.944 49.8235 481.545
699 0 58.2004 15.2061 885 101.62 49.5186 486.373
700 0 58.3239 9.4301 550 110.035 48.1 483.4
701 0 60.3623 11.8948 718 108.173 47.8635 477.788
702 0 66.2831 13.1708 873 103.962 46.8923 481.191
703 0 67.4183 14.6993 991 103.009 46.89 477.741
704 0 68.109 14.0216 955 104.753 46.2461 473.728
705 0 72.4059 15.9932 1158 102.352 46.5233 472.097
706 0 75.293 13.2416 997 105.767 46.2207 469.875
707 0 77.2597 14.3801 1111 103.986 45.2106 467.779
708 0 80.2309 12.5014 1003 105.943 45.9422 466.832
709 0 84.3588 15.0666 1271 102.548 45.0008 465.739
710 0 83.3806 8.75504 730 111.078 44.3356 466.444
711 0 89.5116 8.59106 769 109.804 44.9649 462.642
712 0 92.3926 10.3255 954 109.297 44.2296 455.218
713 1 46.1772 10.8495 501 103.896 45.8383 481.361
714 0 48.0572 11.8192 568 103.952 45.1673 480.058
715 0 52.2792 11.9933 627 102.316 44.9378 480.52
716 0 50.0603 10.1478 508 106.652 46.6575 476.02
717 0 54.0372 19.394 1048 95.0448 46.2567 477.468
718 0 55.0712 11.6395 641 105.399 46.7301 475.306
719 0 58.0522 17.0364 989 99.2204 46.8443 473.292
720 0 59.1875 11.472 679 107.191 46.4728 471.864
721 0 59.082 12.5419 741 106.364 47.5708 469.035
722 0 61.1276 13.0547 798 104.954 47.5952 467.135
723 0 62.3104 11.0094 686 108.411 50.1443 470.003
724 0 66.1315 12.2181 808 105.968 50.0136 464.078
725 0 68.1674 15.6086 1064 101.944 50.5254 467.848
726 0 69.1956 11.6626 807 107.144 51.3123 462.963
727 0 71.1444 9.33313 664 111.039 51.8584 466.172
728 0 75.2686 13.3256 1003 107.375 52.6291 463.23
729 0 77.1954 12.5785 971 109.503 52.9351 462.186
730 0 80.1782 13.0958 1050 108.352 54.2752 467.463
731 0 82.1727 12.7536 1048 109.034 53.7071 466.62
732 0 87.2472 23.1297 2018 98.2889 53.4058 461.203
733 0 90.1611 13.9639 1259 109.714 53.8094 461.43
734 0 93.1736 17.2045 1603 105.145 53.481 462.578
735 0 93.185 13.7469 1281 111.522 53.434 460.464
736 0 98.384 14.6874 1445 110.266 51.7578 459.444
737 0 99.431 11.2239 1116 116.144 51.431 457.212
738 0 105.534 14.1945 1498 110.812 50.472 458.664
739 0 106.381 12.0604 1283 115.935 50.8675 452.528
740 0 108.341 11.233 1217 117.253 49.2843 454.822
741 0 109.311 13.3106 1455 113.807 50.1189 456.114
742 0 118.573 13.8395 1641 112.035 49.2882 454.474
743 0 120.354 13.6016 1637 111.869 48.2065 453.844
744 0 125.405 15.1828 1904 109.734 48.2715 450.896
745 1 61.175 14.2215 870 104.664 47.9575 478.436
746 0 63.1646 10.5439 666 111.584 48.3559 480.977
747 0 66.0906 13.7236 907 107.305 47.8809 476.162
748 0 68.2478 11.6341 794 111.637 47.2544 474.524
749 0 70.3967 11.2505 792 112.616 47.4369 475.282
750 0 72.3465 13.4906 976 108.945 46.6168 471.929
751 0 76.2352 13.6813 1043 108.639 46.9099 469.236
752 0 77.2769 13.4452 1039 108.93 46.5082 466.495
753 0 81.3798 17.0435 1387 103.923 46.1161 466.169
754 0 83.3741 14.6328 1220 107.295 46.6525 463.429
755 1 41.0509 13.2275 543 104.718 47.0829 484.105
756 0 44.128 8.76994 387 109.416 48.3359 485.421
757 0 47.021 10.4634 492 108.248 48.2256 479.461
758 0 45.0849 13.3748 603 106.124 48.2421 476.204
759 0 45.1329 10.4358 471 111.367 49.8854 475.293
760 0 47.0325 13.9478 656 106.316 50.7698 474.37
761 0 47.1053 10.6145 500 111.34 49.51 475.608
762 0 49.2611 12.5251 617 106.807 51.3679 472.365
763 0 50.1315 11.8488 594 108.854 51.2929 473.492
764 0 56.128 13.1485 738 104.995 51.2846 472.762
765 0 55.0652 12.803 705 107.555 51.7745 468.854
766 0 57.1262 14.1966 811 105.536 52.3366 471.588
767 0 61.1499 16.6967 1021 102.551 52.8668 465.583
768 0 64.0664 14.5474 932 105.294 53.4678 465.018
769 0 63.2103 12.3398 780 108.901 53.6474 470.58
770 0 68.3812 17.7534 1214 101.24 53.467 466.799
771 0 67.1368 17.3824 1167 103.59 53.8372 463.98
772 0 71.1298 17.6157 1253 102.616 54.3432 469.475
773 0 71.2163 12.8903 918 110.512 54.1492 465.101
774 0 75.4829 13.7382 1037 109.352 54.7869 462.829
775 0 79.081 14.9846 1185 106.832 55.3747 466.845
776 1 43.1264 10.3649 447 104.485 55.5682 489.687
777 0 41.125 9.14287 376 109.545 55.258 488.213
778 0 42.0563 13.0302 548 104.677 54.1369 488.12
779 0 46.2735 10.157 470 106.04 53.7936 489.649
780 0 46.1242 14.3309 661 104.395 54.3359 486.631
781 0 44.1707 12.3385 545 108.609 53.2477 485.384
782 0 46.0463 9.44701 435 111.255 53.2184 489.352
783 0 49.2154 14.914 734 102.465 52.8311 488.428
784 0 54.1239 16.7394 906 99.16 52.8234 486.93
785 0 51.0546 18.8817 964 98.1328 51.4098 485.466
786 0 52.088 12.4981 651 106.055 51.0676 487.598
787 0 53.0925 12.0168 638 107.704 49.9922 483.031
788 0 54.0863 12.2212 661 107.324 49.8457 479.378
789 0 56.2192 14.5502 818 104.2 49.0086 480.015
790 0 63.1527 17.5764 1110 99.0514 48.9216 479.591
791 0 60.1043 11.0142 662 110.048 47.6692 478.113
792 0 62.0308 10.9462 679 110.236 48.7113 476.698
793 0 64.0997 13.947 894 107.041 48.8915 471.493
794 0 66.1743 14.8547 983 105.393 47.7803 473.812
795 0 70.2154 17.1045 1201 101.775 48.5928 473.298
796 0 76.2473 14.9382 1139 104.034 48.0571 470.419
797 0 73.2866 14.3 1048 106.347 47.5506 464.904
798 0 76.1813 12.0896 921 108.999 47.3996 461.689
799 0 77.1618 12.895 995 108.239 46.3729 461.055
800 0 78.1743 12.0116 939 109.521 47.869 459.716
801 0 82.3766 12.0301 991 108.809 46.8981 460.048
802 0 85.6167 15.3124 1311 105.819 47.9207 451.641
803 0 92.1012 14.5058 1336 104.906 48.3046 457.726
804 0 93.3875 12.839 1199 108.655 48.5171 449.55
805 1 49.1146 11.6666 573 103.279 50.2147 476.979
806 0 51.154 14.0947 721 101.667 50.2122 473.182
807 0 54.2416 12.6656 687 104.884 52.0073 472.83
808 0 53.2865 12.0481 642 107.438 50.715 470.176
809 0 52.1293 12.7184 663 106.725 51.736 466.995
810 0 57.3311 12.5412 719 106.017 53.178 468.053
811 0 60.3535 15.1607 915 102.581 53.2907 468.195
812 0 61.4348 11.7686 723 106.73 54.9613 469.719
813 0 63.3158 13.8196 875 105.613 54.6194 470.738
814 0 65.3278 18.9506 1238 99.7722 53.1478 467.844
815 0 65.3068 12.9696 847 108.6 54.3412 466.969
816 0 68.3724 17.5217 1198 100.808 53.4482 471.143
817 0 74.3742 17.4254 1296 101.129 53.686 472.312
818 0 73.437 12.9226 949 110.422 52.901 467.128
819 0 80.2845 14.2618 1145 106.913 53.5598 468.231
820 0 79.4804 12.1791 968 112.47 53.9484 464.077
821 1 42.1024 16.9349 713 103.053 53.54 483.82
822 0 42.2385 13.2817 561 107.604 53.9055 486.635
823 0 45.0876 14.1946 640 107.244 54.0922 488.606
824 0 49.1633 11.5127 566 110.276 52.7244 488.191
825 0 47.1901 11.6974 552 114.518 51.7446 485.437
826 0 51.1165 12.3052 629 112.014 51.1256 483.361
827 0 49.1471 11.6182 571 114.799 52.7058 486.701
828 0 48.0781 10.4621 503 118.509 52.4274 483.712
829 0 52.3154 11.6983 612 116.395 51.451 482.253
830 0 52.1404 11.4307 596 116.864 50.2215 480.898
831 0 59.3624 14.1335 839 110.609 49.8439 480.176
832 0 57.2259 11.8478 678 115.314 48.6962 480.889
833 0 61.4632 15.1147 929 109.374 48.296 479.322
834 0 62.4203 15.0111 937 110.79 48.3778 475.64
835 0 67.3972 16.7366 1128 107.131 48.6658 473.874
836 0 65.2833 13.0049 849 111.921 48.6113 475.79
837 0 68.0832 17.4199 1186 107.702 48.2445 469.543
838 0 71.2352 14.2345 1014 111.322 48.3176 470.16
839 0 72.2974 14.2882 1033 111.523 48.2401 466.249
840 0 73.3073 12.0452 883 114.724 48.573 471.708
841 0 77.4467 13.9451 1080 109.578 47.0148 469.167
842 0 80.2481 17.3088 1389 106.839 47.4687 462.543
843 0 82.3482 15.2037 1252 109.227 47.8107 457.457
844 0 84.2549 13.2811 1119 111.691 47.9634 458.042
845 0 89.3936 15.538 1389 106.994 48.0007 455.131
846 0 92.4778 12.4462 1151 111.198 48.7289 454.916
847 0 95.1672 13.9439 1327 110.723 50.2283 445.645
848 1 50.1773 12.5555 630 108.092 50.246 471.127
849 0 53.1884 11.6943 622 106.889 50.7379 473.251
850 0 53.2684 10.6817 569 111.374 50.3234 470.253
851 0 56.3926 14.4345 814 105.853 51.2162 467.37
852 0 57.2502 11.3886 652 111.819 50.9264 464.73
853 0 56.0996 11.6222 652 113.465 52.9586 460.796
854 0 56.1704 11.6431 654 113.696 52.9832 459.584
855 0 59.1985 12.4328 736 111.427 54.5353 460.326
856 0 61.4456 12.7593 784 111.575 53.8686 460.76
857 0 63.0649 14.604 921 107.419 54.7275 464.275
858 0 67.1552 11.6298 781 111.398 54.895 462.54
859 0 73.3512 15.3372 1125 105.148 55.1316 463.594
860 0 71.2677 17.5956 1254 104.041 55.0112 461.624
861 0 73.4538 15.52 1140 106.611 54.9746 464.339
862 0 74.3128 14.8158 1101 108.052 54.9264 464.427
863 0 78.3762 14.4942 1136 108.68 54.0907 461.677
864 0 79.3804 14.6762 1165 109.175 54.5107 458.84
865 0 78.4506 11.1153 872 114.272 55.1892 456.271
866 0 82.163 12.743 1047 111.802 54.4508 454.326
867 0 87.0897 15.0075 1307 107.974 54.1331 457.031
868 0 89.1576 13.0892 1167 110.01 52.0968 457.85
869 0 95.1859 13.9937 1332 109.498 52.2275 456.798
870 0 94.2387 16.0019 1508 107.403 51.4423 456.282
871 0 97.1921 12.6965 1234 112.679 51.8444 448.938
872 0 100.111 12.5261 1254 112.755 51.6443 449.619
873 0 100.195 11.1882 1121 115.465 49.2614 442.334
874 0 105.259 12.2079 1285 113.811 50.477 441.842
875 0 109.257 11.3859 1244 114.794 50.0024 444.236
876 0 116.156 17.2182 2000 106.279 48.365 438.312
877 0 123.307 12.4081 1530 113.421 48.4654 438.389
878 1 60.0668 12.5027 751 108.015 47.5433 459.802
879 0 64.0662 13.1114 840 106.305 49.3512 463.681
880 0 66.0607 13.2757 877 106.643 48.984 462.331
881 0 73.2086 12.9083 945 106.623 49.1344 464.582
882 0 75.1728 15.7371 1183 102.423 48.4091 463.877
883 0 80.3325 15.4234 1239 104.405 48.5835 461.362
884 0 79.4981 10.7298 853 112.41 48.4338 457.014
885 0 85.3755 13.1419 1122 107.51 48.3841 457.207
886 0 85.3485 11.0957 947 111.464 47.9842 453.436
887 0 88.3236 13.7449 1214 107.632 48.0453 452.929
888 0 92.4516 17.4578 1614 100.994 48.8897 457.405
889 0 95.4139 13.9288 1329 107.183 49.5553 450.244
890 0 97.3138 12.1257 1180 109.941 50.1602 445.879
891 0 101.502 12.2067 1239 110.525 50.272 444.399
892 0 102.495 11.1908 1147 111.806 50.1709 444.065
893 0 110.426 13.5476 1496 108.535 51.5548 441.454
894 1 56.2275 10.3686 583 107.868 52.3825 465.017
895 0 59.1205 11.3835 673 105.163 52.477 466.771
896 0 60.1755 12.9621 780 106.699 53.9103 466.595
897 0 63.2103 11.7228 741 108.251 53.6316 465.278
898 0 62.1405 10.3797 645 110.383 54.1411 462.645
899 0 65.188 14.0056 913 104.366 54.0986 464.41
900 0 68.2693 10.0045 683 108.955 55.0542 467.52
901 0 69.1849 13.3122 921 106.438 56.4832 464.571
902 0 73.1455 9.4606 692 110.477 55.7139 468.101
903 0 75.1537 12.0553 906 109.768 56.8378 460.834
904 0 79.23 14.1234 1119 106.28 56.487 460.534
905 0 80.1055 12.6084 1010 108.761 56.0366 461.71
906 0 81.1193 11.8837 964 110.895 55.916 459.423
907 0 86.2029 15.2083 1311 106.108 54.7002 462.166
908 0 87.2611 9.71796 848 114.058 54.9729 466.171
909 1 48.0591 11.1529 536 106.953 53.9907 485.826
910 0 49.0987 10.9982 540 111.507 54.0593 482.324
911 0 52.2892 13.3871 700 107.957 53.1771 482.331
912 0 52.0393 10.838 564 106.94 53.0106 486.376
913 0 53.0723 10.156 539 114.453 53.8924 479.078
914 0 55.0489 9.19183 506 112.379 51.3241 485.794
915 0 58.0959 13.6154 791 104.176 51.9393 486.689
916 0 59.1621 13.0996 775 106.275 49.8645 482.546
917 0 63.1755 14.7051 929 104.524 50.8235 477.423
918 0 59.2231 10.0636 596 113.242 50.1829 480.237
919 0 66.1408 21.4089 1416 98.1942 48.9936 477.821
920 0 64.1122 11.2615 722 115.035 49.3615 471.965
921 0 69.2245 13.8679 960 109.329 48.9062 472.241
922 0 71.128 13.3421 949 110.084 48.3414 470.148
923 0 72.2872 13.5709 981 111.781 47.4546 468.877
924 0 76.1726 12.813 976 111.459 47.7377 469.847
925 0 81.0855 12.0613 978 111.263 48.3313 469.868
926 0 81.245 13.9824 1136 112.004 48.3838 463.407
927 0 80.1179 14.0668 1127 113.222 48.3878 460.003
928 0 82.2727 13.6862 1126 114.009 48.3703 456.336
929 0 88.1743 17.5675 1549 107.219 48.1382 456.479
930 1 44.0535 10.4419 460 115.33 49.7565 476.076
931 0 46.0662 11.8091 544 114.866 46.443 473.154
932 0 47.0443 14.0506 661 111.297 47.761 474.003
933 0 50.1898 9.02573 453 113.918 48.7439 473.031
934 0 50.4104 10.7121 540 110.58 49.687 460.219
935 0 52.4688 12.5789 660 113.27 50.0121 467.924
936 0 52.364 9.87319 517 117.489 51.147 472.34
937 0 53.0776 13.6969 727 112.219 50.1155 468.103
938 0 57.2308 13.2796 760 112.899 50.4829 470.72
939 0 56.0686 13.4835 756 111.889 51.746 472.011
940 0 58.2081 14.3623 836 111.281 51.1663 470.013
941 0 61.2275 24.6784 1511 98.0139 51.6287 470.946
942 0 62.1145 11.8008 733 114.795 51.6371 471.181
943 0 64.1364 13.6428 875 112.993 51.7314 466.747
944 0 67.1213 12.902 866 113.936 53.1732 469.618
945 0 71.3018 11.5986 827 115.36 53.9903 468.398
946 0 72.5824 17.2494 1252 108.252 53.9297 465.148
947 0 73.3179 10.7614 789 118.741 53.512 468.42
948 0 77.608 14.7279 1143 113.274 54.7559 465.336
949 0 79.1918 11.0112 872 118.164 53.8005 468.454
950 0 83.3328 15.4921 1291 110.72 54.4772 466.731
951 0 86.4494 13.3604 1155 113.096 54.4372 470.322
952 1 46.2809 13.5261 626 109.74 52.722 486.361
953 0 45.2915 8.78751 398 115.246 53.2161 490.148
954 0 51.2281 13.2154 677 109.746 52.7312 482.366
955 0 51.2177 15.971 818 106.489 51.6174 485
956 0 51.1936 10.431 534 115.787 53.2434 486.056
957 0 55.0784 12.2371 674 115.163 51.6691 483.022
958 0 57.093 15.3083 874 109.14 51.8364 484.423
959 0 54.0771 11.7795 637 118.126 50.8163 482.275
960 0 58.0882 14.3575 834 112.504 50.4808 482.43
961 0 58.135 12.9354 752 113.449 48.8936 481.415
962 0 61.0712 13.0995 800 115.812 50.4575 476.208
963 0 62.1019 13.5423 841 112.799 48.3734 480.685
964 0 65.1206 15.0029 977 111.485 49.6612 474.472
965 0 69.4018 16.1523 1121 107.904 48.9224 476.19
966 0 68.1879 13.1108 894 115.135 48.6376 474.608
967 0 70.1591 14.0965 989 113.194 48.6168 470.354
968 0 73.0747 14.191 1037 112.6 48.0405 472.284
969 0 69.114 11.2568 778 120.51 47.9794 467.283
970 0 77.1794 16.0535 1239 110.092 48.1711 467.098
971 0 77.2181 14.4267 1114 115.046 47.8348 461.681
972 0 81.162 13.701 1112 114.237 48.5522 461.57
973 0 85.0667 18.3268 1559 108.954 47.975 459.43
974 0 87.1859 11.8024 1029 118.813 48.1205 460.803
975 0 91.4922 15.5751 1425 113.7 48.0814 457.695
976 0 93.3596 12.8107 1196 118.384 48.9666 454.276
977 1 51.0724 14.0976 720 110.188 49.1264 475.122
978 0 49.2601 12.8299 632 114.465 50.0364 468.437
979 0 52.0702 14.8838 775 111.628 51.0968 469.305
980 0 56.037 13.0985 734 113.888 52.2057 468.838
981 0 58.0687 15.0856 876 109.726 52.1393 470.154
982 0 60.1015 17.8198 1071 106.688 52.7311 470.291
983 0 62.1378 15.1116 939 106.234 53.2119 471.976
984 0 65.1283 19.5307 1272 99.8695 52.8412 469.11
985 0 65.176 13.0723 852 109.538 54.3697 471.62
986 0 70.2298 15.7198 1104 100.959 54.6603 473.669
987 0 73.4536 17.494 1285 102.819 54.9105 466.268
988 0 74.1702 25.7381 1909 95.5966 54.242 464.192
989 0 75.1412 13.2018 992 109.988 55.8186 461.425
990 0 75.157 12.3209 926 111.806 56.2473 466.637
991 0 81.1692 13.9462 1132 108.754 56.386 462.724
992 0 83.1888 15.8555 1319 105.44 55.2388 466.566
993 0 85.2221 15.0548 1283 106.554 54.9751 464.558
994 0 88.1388 22.544 1987 99.622 54.3181 461.262
995 0 90.241 17.3424 1565 103.564 53.1744 460.029
996 0 93.1817 13.6293 1270 110.028 54.8528 465.517
997 0 97.3539 13.2814 1293 112.364 53.2769 460.427
998 0 99.3619 13.7679 1368 111.688 52.4956 463.306
999 0 105.16 14.2354 1497 109.747 52.7134 458.204
1000 1 53.4381 12.332 659 113.018 51.5357 477.504
1001 0 54.3355 16.1036 875 105.433 50.0434 470.462
1002 0 60.4638 14.9842 906 106.61 48.6181 471.404
1003 0 58.4466 15.8093 924 109.211 48.9946 467.646
1004 0 60.4462 14.6908 888 111.256 48.759 468.668
1005 0 60.4865 16.0201 969 111.372 47.2446 465.607
1006 0 63.4232 16.1455 1024 110.943 47.2373 466.407
1007 0 63.6422 13.8273 880 115.434 46.8625 463.752
1008 0 68.4156 17.1598 1174 109.22 46.8484 466.651
1009 0 68.3902 14.3734 983 114.465 46.4262 463.807
1010 0 71.4759 15.5017 1108 114.005 45.8971 461.625
1011 0 70.7349 14.5331 1028 115.956 47.3346 458.538
1012 0 75.5051 14.9394 1128 115.061 47.258 458.369
1013 0 78.857 19.5163 1539 107.031 46.3814 459.665
1014 0 78.8572 16.8913 1332 112.871 46.5068 453.742
1015 0 84.7667 15.6311 1325 114.017 45.714 451.04
1016 0 86.7889 19.219 1668 109.197 47.1787 451.092
1017 0 87.7793 14.5251 1275 116.021 47.5992 451.177
1018 1 47.954 10.7812 517 116.091 48.2398 472.17
1019 0 46.6459 14.4707 675 114.827 48.1452 465.901
1020 0 46.4231 12.063 560 119.041 49.0804 464.195
1021 0 52.7862 14.5303 767 113.654 49.1604 464.455
1022 0 53.5192 14.8358 794 112.916 49.2872 466.275
1023 0 53.3801 18.0779 965 108.663 51.4321 468.22
1024 0 55.1568 16.5528 913 110.623 51.0142 468.39
1025 0 58.2137 14.7732 860 113.68 52.3291 468.071
1026 0 57.2828 13.5992 779 117.847 51.2285 461.891
1027 0 60.1984 14.5186 874 115.286 51.7735 464.486
1028 0 63.5776 17.1601 1091 109.554 49.7571 463.944
1029 0 65.7065 14.793 972 113.148 50.0751 463.773
1030 0 64.5197 12.9883 838 118.89 50.2255 460.378
1031 0 67.8933 15.0678 1023 114.595 49.7898 463.954
1032 0 71.759 16.862 1210 110.665 50.3926 463.922
1033 0 73.6755 14.2924 1053 116.492 51.0361 459.156
1034 0 72.876 12.3772 902 120.361 49.9069 456.82
1035 0 76.5596 17.3329 1327 110.056 50.4695 462.008
1036 0 76.6657 14.8176 1136 115.608 48.4991 460.911
1037 0 78.5134 13.2461 1040 119.687 49.5635 458.906
1038 0 81.5441 12.5944 1027 120.266 49.5239 458.179
1039 0 87.6998 14.6979 1289 115.51 49.5888 461.13
1040 1 42.4652 10.3379 439 117.353 48.7768 478.576
1041 0 41.3814 8.55456 354 122.206 48.2797 478.737
1042 0 48.2426 11.8775 573 117.866 48.5061 485.892
1043 0 46.0748 9.37605 432 125.319 47.287 484.359
1044 0 50.0858 14.1956 711 116.529 46.2813 483.997
1045 0 53.0814 18.6506 990 107.626 46.1808 485.265
1046 0 55.1147 15.8397 873 111.9 46.0183 484.885
1047 0 53.088 12.451 661 119.651 45.8638 481.557
1048 0 56.0733 11.0748 621 116.894 45.9275 482.538
1049 0 60.2 12.5249 754 115.151 44.9005 479.899
1050 0 59.0442 12.9733 766 114.087 43.0222 480.693
1051 0 61.0989 11.6369 711 118.08 44.6146 477.523
1052 0 66.271 12.645 838 117.091 43.6527 476.431
1053 0 68.1471 14.0285 956 115.287 44.6328 472.951
1054 0 69.3213 12.6368 876 117.047 44.1221 472.949
1055 0 69.324 12.6075 874 118.483 43.6087 467.801
1056 0 74.4585 11.2412 837 120.114 44.5018 466.613
1057 0 76.4038 14.0307 1072 115.634 44.8591 465.816
1058 0 78.4328 12.635 991 118.569 44.3946 463.307
1059 0 80.2284 13.8854 1114 116.061 45.0916 464.905
1060 0 84.2766 13.1116 1105 119.24 45.7466 454.816
1061 1 46.0877 14.646 675 111.286 45.84 476.773
1062 0 48.1765 12.0391 580 114.678 45.3293 476.816
1063 0 49.3376 12.6881 626 114.425 45.5224 476.136
1064 0 52.3008 13.4606 704 112.989 47.1634 474.384
1065 0 51.2362 11.4177 585 117.998 47.5795 473.173
1066 0 51.109 14.6354 748 114.59 49.016 470.392
1067 0 56.1299 14.0032 786 112.71 48.8511 471.562
1068 0 54.1955 10.5913 574 120.366 50.5244 472.571
1069 0 56.2256 13.9083 782 115.134 51.2366 470.666
1070 0 62.2871 16.0547 1000 109.4 52.425 474.292
1071 0 61.2934 13.0193 798 116.891 53.5263 469.177
1072 0 61.0908 11.753 718 119.283 53.1504 468.27
1073 0 64.1885 15.1585 973 112.267 54.9116 468.543
1074 0 66.1717 14.0392 929 114.168 56.254 470.977
1075 0 68.1724 12.6297 861 116.245 54.7468 471.015
1076 0 71.1164 12.4444 885 115.91 55.2701 470.593
1077 0 72.3508 11.4028 825 118.216 55.1576 469.885
1078 0 76.3751 12.9361 988 115.922 53.753 471.378
1079 0 79.2692 13.8515 1098 115.014 53.5929 464.921
1080 0 82.2776 17.3923 1431 109.477 51.9532 464.55
1081 0 85.4162 16.9991 1452 109.486 52.9318 464.574
1082 1 40.1287 10.3916 417 114.806 53.0648 488.767
1083 0 44.0491 11.8504 522 111.184 53.9579 486.987
1084 0 44.1675 10.7319 474 111.072 52.3481 490.175
1085 0 44.2155 12.0094 531 110.637 51.8324 487.154
1086 0 47.3367 11.7668 557 112.255 51.8618 487.476
1087 0 48.1924 10.6033 511 115.403 51.9785 486.562
1088 0 50.2133 13.9604 701 108.92 50.5321 489.525
1089 0 52.3278 13.6065 712 108.618 50.1404 487.683
1090 0 52.3063 13.1533 688 110.711 48.6904 483.833
1091 0 54.2042 12.582 682 110.33 48.6701 487.399
1092 0 56.1331 12.7198 714 110.636 48.5714 482.24
1093 0 58.175 14.9549 870 108.054 47.646 479.868
1094 0 59.2534 12.7081 753 111.636 47.1979 479.054
1095 0 59.1401 12.4281 735 112.777 47.219 477.709
1096 0 65.2675 15.4441 1008 106.818 46.8899 479.041
1097 0 64.1374 13.627 874 110.669 47.7929 476.582
1098 0 66.1046 13.872 917 110.896 47.1614 473.01
1099 0 69.2183 12.1789 843 111.651 46.8885 472.703
1100 0 72.0902 14.0796 1015 109.319 47.0404 471.381
1101 0 76.374 13.6696 1044 111.08 46.8103 468.942
1102 0 73.5226 10.7178 788 118.269 45.835 465.753
1103 0 81.6595 15.3075 1250 108.289 46.2832 466.877
1104 0 86.9795 17.3949 1513 103.612 46.9531 470.383
1105 1 46.1048 11.2136 517 111.511 47.7621 482.857
1106 0 49.2176 15.9089 783 105.602 48.3602 480.093
1107 0 48.3015 11.1591 539 115.618 48.0074 476.176
1108 0 54.1886 11.9767 649 112.273 49.5177 477.402
1109 0 51.1785 11.1179 569 117.262 49.8489 474.944
1110 0 55.1462 13.9085 767 112.197 50.9009 474.076
1111 0 56.2133 12.0256 676 116.812 51.2189 473.821
1112 0 58.3608 12.5598 733 115.04 52.3247 474.297
1113 0 60.3647 12.2423 739 116.092 52.1096 471.061
1114 0 61.412 11.089 681 114.288 51.9809 477.884
1115 0 66.1082 17.7739 1175 105.978 52.9472 474.04
1116 0 64.113 11.9477 766 116.935 53.5144 469.288
1117 0 70.2372 14.7073 1033 109.717 52.7686 472.105
1118 0 70.2311 16.1467 1134 110.245 54.4691 470.677
1119 0 72.249 12.6922 917 115.745 53.1145 471.058
1120 0 74.28 13.8395 1028 114.693 54.1012 468.536
1121 0 77.3679 12.46 964 115.254 53.5249 472.699
1122 0 79.2698 14.293 1133 113.185 53.5763 468.149
1123 0 81.2776 10.7533 874 118.173 53.9073 468.248
1124 0 85.405 14.6127 1248 112.599 52.867 465.885
1125 1 45.0833 11.6008 523 112.434 53.4073 492.323
1126 0 43.1948 15.951 689 103.614 53.1582 488.109
1127 0 47.0926 9.38576 442 110.941 54.0339 488.848
1128 0 45.1133 9.68672 437 117.222 52.8833 490.332
1129 0 51.0828 11.5499 590 111.444 51.739 490.376
1130 0 52.0602 13.3883 697 110.575 50.5897 489.55
1131 0 53.1051 15.0268 798 106.084 49.5915 490.015
1132 0 52.1122 10.8036 563 117.037 49.3233 487.7
1133 0 53.1465 12.0422 640 111.875 47.9766 491.162
1134 0 52.0742 10.7347 559 114.163 47.1878 488.538
1135 0 53.054 10.9323 580 112.798 48.1672 487.586
1136 0 58.1116 12.8546 747 110.054 46.5502 482.545
1137 0 61.1118 11.1926 684 112.789 47.1257 483.42
1138 0 63.1626 17.2095 1087 104.311 46.5363 483.959
1139 0 63.2064 12.5304 792 110.804 45.7854 483.096
1140 0 66.1202 13.8384 915 110.621 45.5268 474.996
1141 0 66.1248 11.2514 744 114.538 46.4153 476.157
1142 0 67.1841 16.745 1125 106.554 44.0889 474.837
1143 0 70.1298 14.8867 1044 108.163 44.2988 473.725
1144 0 70.1143 13.2926 932 112.849 44.0676 465.792
1145 0 73.0694 11.9065 870 114.352 45.3586 467.333
1146 0 74.0593 13.7592 1019 110.63 45.8891 465.407
1147 0 76.2965 14.6271 1116 108.867 46.0672 464.084
1148 0 75.1068 14.4994 1089 107.566 45.9247 465.778
1149 0 80.0935 12.835 1028 109.431 47.4572 459.535
1150 0 81.137 11.0924 900 112.502 47.1344 455.924
1151 0 85.2346 10.8641 926 112.081 48.8931 458.024
1152 0 90.148 12.9343 1166 110.22 49.9554 453.437
1153 0 93.1658 12.73 1186 110.251 49.3735 451.904
1154 0 98.2905 16.5733 1629 104.153 50.4346 455.613
1155 0 98.1615 13.2944 1305 109.491 51.2368 450.299
1156 1 51.1618 14.2294 728 106.157 52.4354 474.604
1157 0 53.1226 12.7253 676 110.543 52.1346 470.411
1158 0 53.2016 12.7816 680 110.504 51.7412 475.416
1159 0 57.12 13.7605 786 107.204 53.8575 475.557
1160 0 59.1458 15.7915 934 104.626 52.5835 478.15
1161 0 59.0348 14.0595 830 107.264 55.0169 477.39
1162 0 64.1424 12.8152 822 109.602 53.3759 473.197
1163 0 64.2864 14.4354 928 108.186 54.6606 472.581
1164 0 66.2401 11.3526 752 111.898 54.6676 474.061
1165 0 69.2365 14.3133 991 107.914 54.002 473.588
1166 0 72.0805 13.8873 1001 107.928 54.3007 473.942
1167 0 72.1122 10.7887 778 113.549 54.2455 475.174
1168 0 73.1395 11.2798 825 112.701 53.0412 476.939
1169 0 75.0852 10.548 792 114.715 52.8775 475.394
1170 0 82.294 14.8978 1226 107.52 51.5057 473.215
1171 0 86.1934 16.0453 1383 104.545 51.9053 475.808
1172 1 45.2922 11.1498 505 109.024 51.2535 493.273
1173 0 44.1388 14.0919 622 106.688 50.7219 492.712
1174 0 49.2442 14.0118 690 103.671 49.6826 491.12
1175 0 46.1664 10.982 507 110.227 48.8757 488.667
1176 0 49.1088 12.6861 623 109.258 49.0963 487.525
1177 0 51.062 12.9646 662 109.974 48.5181 484.823
1178 0 53.0932 16.6876 886 104.295 47.8172 488.621
1179 0 55.0443 15.8236 871 105.083 47.0999 487.512
1180 0 53.2514 14.4409 769 107.698 46.8179 485.217
1181 0 55.1831 12.6669 699 110.059 45.1788 482.05
1182 0 59.1553 9.75399 577 113.296 44.8215 482.797
1183 0 59.1151 12.6871 750 110.457 44.5733 478.939
1184 0 63.3157 15.9044 1007 105.581 44.4916 477.471
1185 0 64.5089 13.9981 903 109.597 44.2038 474.997
1186 0 71.3897 23.3787 1669 96.9131 43.4494 473.285
1187 0 69.2416 13.7201 950 110.784 45.0632 470.281
1188 0 74.1867 16.5394 1227 104.828 44.1011 473.451
1189 0 74.2199 13.5543 1006 112.272 43.7425 464.372
1190 0 78.529 15.9432 1252 107.14 43.6701 462.498
1191 1 40.0924 9.82729 394 114.048 47.1954 483.411
1192 0 44.1438 18.485 816 101.441 47.0012 480.385
1193 0 43.2028 10.7863 466 114.605 47.4657 477.661
1194 0 45.3001 9.82339 445 114.578 48.4449 479.865
1195 0 47.1696 16.3029 769 107.233 47.827 472.93
1196 0 49.306 12.3312 608 112.523 48.3668 475.294
1197 0 52.3728 17.3182 907 104.089 49.1279 475.343
1198 0 50.6337 9.69709 491 116.503 49.6028 475.283
1199 0 55.6187 19.5438 1087 101.73 50.3073 473.509
1200 0 58.4958 13.9668 817 107.218 50.9106 475.721
1201 0 59.4382 14.5193 863 108.017 51.5261 473.448
1202 0 59.4805 16.8963 1005 104.566 51.6915 474.994
1203 0 60.282 13.7023 826 108.9 53.3087 472.651
1204 0 62.5742 12.1296 759 111.81 52.5692 471.937
1205 0 65.4785 15.3638 1006 106.382 53.1402 473.167
1206 0 65.3936 12.8606 841 110.616 53.9524 474.706
1207 0 66.2898 12.0984 802 111.935 53.4626 471.431
1208 0 71.514 13.6896 979 109.171 53.4842 471.889
1209 0 75.5009 17.2978 1306 104.126 52.9701 472.705
1210 0 72.318 11.6983 846 114.099 52.8534 468.332
1211 0 79.81 12.417 991 111.141 52.1746 473.227
1212 1 40.208 12.1618 489 108.881 52.454 490.699
1213 0 41.4346 8.59186 356 114.961 52.3062 487.388
1214 0 45.1904 11.0643 500 110.244 51.518 489.778
1215 0 48.2898 13.2533 640 109.022 50.6797 490.392
1216 0 48.2778 16.3429 789 105.137 49.3574 488.071
1217 0 51.1521 12.5313 641 111.053 49.4649 487.587
1218 0 51.3418 15.017 771 108.389 48.6757 481.891
1219 0 55.2448 16.0015 884 107.472 48.4548 481.913
1220 0 54.1874 15.0773 817 108.436 48.47 482.858
1221 0 55.3423 14.6904 813 109.18 46.1685 479.598
1222 0 57.1725 13.2931 760 111.658 47.6026 478.775
1223 0 57.3414 12.9575 743 112.954 46.9987 476.328
1224 0 62.2198 13.1469 818 111.355 47.1222 478.268
1225 0 63.2991 12.6226 799 112.456 45.9124 475.931
1226 0 64.1163 13.0232 835 113.218 46.1988 471.49
1227 0 68.6412 13.0971 899 112.628 45.5695 472.158
1228 0 71.3511 15.5429 1109 108.824 45.6592 468.054
1229 0 76.4499 20.1962 1544 102.086 45.035 463.014
1230 0 73.2157 14.6963 1076 111.285 44.8178 462.437
1231 0 77.5152 13.3006 1031 112.572 45.9079 459.151
1232 0 80.5558 13.9531 1124 111.496 45.4671 456.62
1233 0 84.7205 13.3026 1127 111.707 46.142 457.141
1234 0 85.6137 11.7505 1006 114.702 46.5418 455.612
1235 1 45.2859 10.6876 484 115.306 48.6116 473.3
1236 0 47.4316 12.0595 572 110.993 46.8916 475.899
1237 0 49.1742 14.6418 720 107.046 48.5403 473.489
1238 0 50.3979 13.5323 682 109.787 48.9721 474.827
1239 0 52.4096 13.032 683 112.568 50.5417 471.35
1240 0 54.3894 12.2083 664 113.36 50.8057 472.233
1241 0 56.2253 13.8016 776 112.371 50.9575 470.018
1242 0 58.537 13.2395 775 112.226 51.8658 466.994
1243 0 64.41 16.7676 1080 105.335 52.8583 466.943
1244 0 62.3887 15.0829 941 109.569 52.7577 468.438
1245 0 63.3495 11.6339 737 114.168 53.9715 471.262
1246 0 66.4032 13.0415 866 112.055 54.4203 467.513
1247 0 68.4126 12.0884 827 114.274 54.4885 467.632
1248 0 72.485 13.2165 958 112.59 54.3946 468.838
1249 0 75.437 16.0531 1211 106.983 52.7836 468.822
1250 0 78.3596 11.7407 920 113.923 53.6489 470.07
1251 0 76.2874 14.4847 1105 110.047 52.9267 464.835
1252 0 86.59 13.408 1161 108.503 53.6184 468.905
1253 0 87.3596 15.1557 1324 108.736 52.1571 461.694
1254 0 90.3788 12.7132 1149 112.44 51.7972 463.857
1255 1 47.476 13.1435 624 104.716 51.8093 489.389
1256 0 48.1833 13.843 667 105.118 52.0165 487.022
1257 0 52.3667 11.1521 584 110.421 52.512 488.082
1258 0 52.3836 16.5128 865 104.395 51.7931 482.81
1259 0 54.4094 11.6156 632 112.066 51.7547 484.114
1260 0 55.3393 15.5224 859 104.923 49.4191 487.783
1261 0 57.4091 13.1164 753 110.214 48.5976 482.989
1262 0 56.2729 9.66717 544 115.96 48.7923 483.241
1263 0 59.3077 10.2853 610 115.318 47.7623 481.425
1264 0 61.4079 13.0114 799 112.17 47.3705 481.844
1265 0 61.2522 12.7506 781 113.384 45.4763 475.141
1266 0 63.6803 11.8247 753 113.888 46.004 476.596
1267 0 65.3817 12.97 848 112.645 46.0731 475.833
1268 0 69.1851 12.4304 860 112.937 46.657 475.743
1269 0 70.2744 14.358 1009 110.894 45.7988 473.089
1270 0 71.7112 12.9826 931 113.166 45.2868 469.1
1271 0 73.6022 13.5322 996 112.72 45.3082 466.874
1272 0 77.2039 16.8903 1304 108.27 44.888 463.494
1273 0 78.7145 12.5517 988 114.211 45.003 464.65
1274 0 86.2937 13.7785 1189 109.346 45.2002 462.247
1275 1 45.1708 10.9584 495 107.905 46.2768 480.309
1276 0 47.0987 14.8836 701 103.971 45.7504 475.957
1277 0 46.1454 11.5938 535 109.093 47.2262 473.974
1278 0 49.1305 12.1106 595 107.652 46.8639 478.296
1279 0 47.0837 12.4247 585 110.855 48.3932 473.607
1280 0 51.0848 12.5869 643 109.008 49.6998 474.788
1281 0 51.1923 14.2404 729 108.377 50.1399 470.244
1282 0 54.5479 14.4277 787 106.39 50.4041 474.764
1283 0 54.3753 13.131 714 105.782 50.8095 474.385
1284 0 55.159 11.7841 650 113.757 52.5385 472.395
1285 0 55.1057 10.8156 596 116.512 53.5034 468.169
1286 0 58.1289 12.8507 747 113.067 52.2972 467.993
1287 0 60.3037 11.4752 692 113.627 53.7399 470.53
1288 0 62.1231 12.0728 750 113.529 53.98 471.483
1289 0 64.2137 15.6197 1003 108.415 54.4865 469.128
1290 0 66.2598 14.5941 967 110.305 53.9835 469.239
1291 0 68.1085 14.7412 1004 109.883 54.0608 468.087
1292 0 69.2812 14.4339 1000 110.526 53.348 469.327
1293 0 72.1485 15.8839 1146 109.236 53.7077 467.88
1294 0 72.2237 13.9566 1008 112.123 52.9018 469.11
1295 0 74.0959 12.5378 929 115.146 53.0022 469.159
1296 0 78.1092 13.0714 1021 113.756 51.9256 469.076
1297 0 80.2357 13.1862 1058 113.259 52.0803 474.15
1298 0 84.2763 16.2798 1372 110.165 52.4468 469.805
1299 0 84.137 13.1571 1107 115.64 51.9557 467.801
1300 0 87.3029 13.3902 1169 116.16 52 467.201
1301 1 47.1204 10.9295 515 114.311 51.0447 488.843
1302 0 48.0689 12.4405 598 112.903 50.6187 488.574
1303 0 48.0839 10.2113 491 117.104 50.5784 486.982
1304 0 51.1341 11.7925 603 114.041 49.1128 485.857
1305 0 52.0977 15.3941 802 108.349 48.3441 484.315
1306 0 53.1674 13.4669 716 112.57 47.426 481.728
1307 0 58.1585 16.4722 958 107.523 47.4645 482.372
1308 0 60.0872 11.8162 710 116.886 47.062 474.635
1309 0 62.0773 11.7918 732 117.309 47.0724 475.51
1310 0 68.1348 17.5681 1197 106.537 46.2598 474.213
1311 0 67.1552 14.2952 960 112.607 45.926 468.807
1312 0 69.2272 14.7196 1019 112.655 45.7429 468.248
1313 0 71.0541 14.2708 1014 110.8 45.2209 467.958
1314 0 73.1655 14.1187 1033 112.385 44.7686 464.981
1315 0 77.0829 14.8801 1147 109.961 45.6321 463.492
1316 0 79.1905 12.552 994 114.389 45.7686 463.375
1317 0 82.0329 20.4918 1681 103.908 45.1237 453.532
1318 0 84.1546 13.9386 1173 111.898 46.5865 456.668
1319 0 86.1141 14.4808 1247 111.184 45.9126 454.192
1320 0 92.3307 13.7766 1272 111.873 46.5825 451.247
1321 1 47.0992 10.8707 512 112.068 48.5488 472.424
1322 0 45.2392 10.3892 470 112.074 47.7723 471.617
1323 0 43.0303 6.9486 299 117.184 49.8127 476.525
1324 0 47.1484 12.6197 595 112.141 49.4807 471.222
1325 0 47.2991 10.6979 506 114.516 49.2154 474.605
1326 0 52.1725 14.5862 761 109.547 50.6675 471.9
1327 0 54.1571 12.7592 691 112.038 50.3517 471.771
1328 0 55.1319 13.5493 747 109.319 51.0321 475.029
1329 0 61.1826 14.4976 887 105.975 52.2931 473.753
1330 0 60.065 13.6685 821 108.855 52.3216 472.594
1331 0 59.1646 11.3582 672 113.061 53.1577 473.688
1332 0 64.2622 13.3671 859 109.37 51.9965 472.747
1333 0 64.1015 12.2774 787 112.822 53.8742 477.356
1334 0 65.1305 10.5327 686 114.504 52.4286 474.528
1335 0 67.1444 13.2103 887 112.231 53.3912 473.392
1336 0 69.0324 13.6313 941 112.412 52.7439 470.662
1337 0 74.1527 15.9671 1184 107.485 52.2829 468.327
1338 0 72.1889 13.2569 957 113.721 53.1912 470.748
1339 0 77.0548 15.5214 1196 109.543 52.8144 472.568
1340 0 79.1347 14.0015 1108 111.729 51.8132 472.923
1341 0 82.096 13.1919 1083 112.671 50.7775 470.886
1342 0 84.1738 13.2226 1113 114.306 48.5795 465.387
1343 0 86.4792 13.8762 1200 113.456 49.7342 468.131
1344 1 44.2437 11.8661 525 113.51 48.4629 490.648
1345 0 47.2025 14.4907 684 108.696 49.1009 487.633
1346 0 50.1732 12.1778 611 112.227 47.7823 485.313
1347 0 55.0904 17.3896 958 103.546 48.0752 486.186
1348 0 51.3164 11.7701 604 114.899 48.2781 483.5
1349 0 54.0972 15.5461 841 109.296 47.1272 480.446
1350 0 61.4237 15.7594 968 106.43 46.9442 481.481
1351 0 57.0984 15.482 884 109.35 46.2149 480.34
1352 0 58.1244 14.0905 819 111.349 46.2381 482.216
1353 0 63.242 23.8607 1509 97.8688 45.3632 478.857
1354 0 61.1366 12.742 779 114.594 45.7754 473.507
1355 0 63.0833 13.9339 879 111.453 44.4994 475.033
1356 0 71.3616 14.3495 1024 108.214 45.6152 474.553
1357 0 69.1234 14.5826 1008 111.13 46.6607 467.86
1358 0 71.2412 14.121 1006 111.408 45.7773 466.663
1359 0 77.206 13.4057 1035 111.339 46.771 467.039
1360 0 77.1626 19.6209 1514 101.337 46.1413 463.31
1361 0 80.213 14.5363 1166 107.048 46.2264 459.634
1362 0 81.1482 15.6011 1266 108.051 47.4313 459.675
1363 1 42.0396 11.394 479 113.833 48.6764 474.981
1364 0 45.2239 13.9749 632 110.948 49.6677 471.331
1365 0 50.1763 12.4561 625 109.179 50.9152 478.187
1366 0 47.0598 12.8985 607 113.282 50.8896 474.384
1367 0 53.1116 13.6129 723 111.325 51.3762 474.094
1368 0 51.2284 12.1222 621 115.108 51.3639 472.535
1369 0 53.1901 15.4916 824 110.415 51.9709 471.092
1370 0 55.0807 15.3956 848 108.8 51.7453 472.81
1371 0 58.0911 15.3724 893 109.404 52.6529 473.636
1372 0 60.4088 19.0204 1149 103.139 52.7285 473.789
1373 0 59.0385 13.0085 768 115.04 53.5378 471.253
1374 0 61.122 12.2869 751 115.703 52.6272 471.142
1375 0 68.1153 15.5031 1056 107.732 54.3494 476.741
1376 0 67.134 11.2015 752 116.715 54.5585 475.527
1377 0 69.2058 15.1866 1051 110.221 54.0932 474.735
1378 0 73.2669 18.8216 1379 105.151 53.2197 472.848
1379 0 74.2904 13.3126 989 114.571 53.1699 473.016
1380 0 76.252 14.2554 1087 114.269 51.7755 472.732
1381 0 80.2776 13.3287 1070 115.802 50.8813 469.992
1382 0 87.3278 24.2878 2121 99.6855 49.5389 468.151
1383 0 85.3067 17.5719 1499 109.336 50.9013 469.247
1384 0 89.3839 15.8642 1418 111.865 50.7962 468.258
1385 0 91.3357 14.6383 1337 115.413 50.6372 467.515
1386 1 46.0953 12.5826 580 113.26 50.1086 491.309
1387 0 45.0894 14.2606 643 111.521 49.8554 489.062
1388 0 47.0331 16.7754 789 107.108 48.2864 487.772
1389 0 49.1331 15.7328 773 109.702 47.8486 484.492
1390 0 47.0332 13.246 623 115.159 47.9262 486.578
1391 0 51.1699 11.8625 607 116.241 47.8221 483.061
1392 0 53.2239 13.0768 696 114.418 47.8233 479.58
1393 0 58.3885 12.845 750 113.223 47.4253 480.828
1394 0 57.289 12.9519 742 114.981 46.7898 479.647
1395 0 59.1382 20.2069 1195 104.39 45.6644 475.411
1396 0 60.1044 15.0904 907 113.705 44.9008 467.547
1397 0 63.1642 15.5468 982 112.634 45.9633 470.826
1398 0 62.1796 14.1365 879 116.374 44.8623 467.241
1399 0 67.5485 16.6103 1122 109.652 44.9724 467.79
1400 0 68.1424 15.541 1059 112.582 44.4967 464.172
1401 0 72.2572 14.6006 1055 114.881 44.5848 460.073
1402 0 74.2427 14.493 1076 115.371 44.5465 458.814
1403 0 72.5326 15.3035 1110 116.366 44.3667 454.235
1404 0 76.3814 13.9825 1068 117.831 44.6311 454.741
1405 0 78.438 13.4756 1057 119.458 45.6216 455.237
1406 0 82.7171 13.4555 1113 118.682 46.5382 453.636
1407 0 83.7924 15.6816 1314 117.697 46.6035 449.594
1408 0 86.6364 15.3054 1326 117.711 47.6735 456.155
1409 0 92.6632 14.0077 1298 119.07 47.7935 452.025
1410 0 90.4918 14.8522 1344 119.549 49.4427 448.819
1411 1 50.1957 12.4911 627 116.282 51.075 476.616
1412 0 49.1019 10.6513 523 120.273 51.26 476.662
1413 0 49.071 11.2286 551 121.245 51.5717 475.975
1414 0 52.1402 11.8143 616 121.92 51.9286 470.805
1415 0 55.1552 16.0275 884 114.373 53.0758 473.699
1416 0 59.2305 14.7559 874 114.835 53.5092 475.954
1417 0 57.1449 11.8121 675 122.799 54.2326 476.116
1418 0 60.0256 13.2777 797 121.102 54.463 472.222
1419 0 61.0454 12.3187 752 123.066 54.2354 474.944
1420 0 62.1748 15.1026 939 118.395 53.934 472.735
1421 0 66.0971 12.7842 845 121.316 53.368 473.412
1422 0 70.174 16.5303 1160 115.388 53.1621 470.755
1423 0 70.1521 15.1813 1065 117.863 53.1671 469.585
1424 0 71.1232 12.9072 918 121.328 52.732 473.088
1425 0 74.2565 14.6519 1088 117.065 52.5496 475.233
1426 0 77.2502 15.4951 1197 116.659 52.0159 468.396
1427 0 81.2766 13.9154 1131 118.946 51.4668 469.844
1428 0 82.2079 13.2591 1090 119.933 50.3147 465.831
1429 0 87.1862 14.9565 1304 118.067 50.3949 469.538
1430 0 89.1867 13.2531 1182 122.798 49.5076 464.61
1431 1 45.0355 12.1904 549 124.087 49.8761 486.086
1432 0 46.1213 11.7733 543 125.083 48.6538 484.035
1433 0 49.1289 12.2535 602 123.978 48.0133 481.571
1434 0 51.144 13.5304 692 120.792 46.8324 481.27
1435 0 54.108 13.1404 711 120.809 47.0605 479.359
1436 0 56.2184 14.5148 816 118.411 45.2476 479.618
1437 0 57.2619 15.0886 864 118.392 45.5463 475.866
1438 0 61.3297 17.4467 1070 113.163 45.2729 472.941
1439 0 62.2079 12.3457 768 122.639 45.1432 474.345
1440 0 65.18 15.4649 1008 117.011 45.6181 473.248
1441 0 64.255 13.5554 871 123.344 44.9874 469.01
1442 0 71.2255 15.2614 1087 117.767 45.2079 464.074
1443 0 71.1605 16.3293 1162 114.913 45.6179 468.524
1444 0 74.1752 16.1779 1200 116.439 45.7983 460.996
1445 0 74.3539 14.821 1102 121.064 45.9456 462.314
1446 0 75.2694 11.8242 890 127.422 46.1708 461.803
1447 0 83.1904 17.478 1454 116.47 47.3783 459.164
1448 1 41.0593 11.7148 481 122.852 48.1975 478.089
1449 0 44.2026 13.0535 577 119.666 49.0832 476.364
1450 0 45.0727 14.0218 632 117.155 50.1677 474.032
1451 0 46.0936 11.8238 545 124.406 49.7578 474.752
1452 0 47.0889 12.487 588 125.633 51.0187 473.185
1453 0 47.0506 13.4323 632 123.467 51.4098 474.975
1454 0 49.0305 16.3164 800 118.554 51.6712 472.675
1455 0 50.1037 13.8313 693 123.442 52.1414 473.055
1456 0 52.1937 15.2509 796 120.244 52.0176 474.481
1457 0 55.2454 14.9515 826 119.507 51.8789 474.8
1458 0 60.2824 14.6809 885 118.149 53.6565 475.538
1459 0 61.5075 16.8272 1035 114.906 53.314 475.707
1460 0 57.1308 15.3682 878 122.492 54.1173 470.659
1461 0 57.2037 12.2545 701 128.585 54.0171 473.271
1462 0 69.1929 21.3172 1475 106.634 53.181 464.13
1463 0 65.1984 16.2121 1057 119.589 52.982 470.658
1464 0 64.1074 13.0406 836 127.672 53.366 473.794
1465 0 66.2926 14.3455 951 124.073 52.6688 473.889
1466 0 67.1914 13.6327 916 127.119 53.0491 471.897
1467 0 70.2505 12.9109 907 127.379 52.065 472.323
1468 0 72.064 12.6277 910 126.533 52.9538 474.457
1469 0 73.1768 13.9388 1020 124.779 51.4598 472.573
1470 0 76.3705 14.6784 1121 124.695 51.3122 470.359
1471 0 82.1965 16.57 1362 119.177 50.4706 473.667
1472 0 81.2097 17.3255 1407 121.544 49.3902 467.046
1473 0 83.2945 13.0981 1091 129.274 48.2961 465.095
1474 0 87.6744 13.4589 1180 127.594 47.8847 462.136
1475 1 45.1597 10.7175 484 128.343 47.9091 484.975
1476 0 51.5937 12.831 662 123.707 47.1586 479.195
1477 0 53.4927 12.0016 642 123.855 46.8551 480.408
1478 0 54.4564 14.1948 773 120.639 45.4851 480.238
1479 0 55.4587 11.4319 634 123.596 45.0347 479.932
1480 0 56.1872 12.3516 694 121.713 44.9395 479.839
1481 0 59.2322 11.3958 675 124.493 43.483 474.766
1482 0 62.4025 12.6437 789 121.157 43.1812 473.578
1483 0 63.4871 15.1369 961 117.386 43.5526 471.44
1484 0 65.4746 11.4701 751 123.912 43.5486 468.585
1485 0 66.2342 20.0953 1331 109.226 43.9324 469.11
1486 0 67.4764 11.7523 793 124.125 44.1551 462.166
1487 0 73.5292 15.708 1155 116.062 44.6944 460.119
1488 0 73.5448 12.8085 942 121.908 44.482 456.352
1489 0 76.6827 13.6015 1043 120.415 45.0144 455.814
1490 0 80.6334 15.8991 1282 116.495 44.5881 455.797
1491 0 81.6948 14.9336 1220 117.929 45.8607 452.498
1492 0 85.7172 13.0546 1119 120.967 47.1171 450.656
1493 0 88.5941 14.5495 1289 119.327 47.339 449.374
1494 1 47.2982 11.1421 527 117.438 48.0133 473.404
1495 0 49.5643 14.5871 723 111.254 48.5851 471.422
1496 0 51.2627 11.7239 601 114.023 49.8819 473.982
1497 0 54.3516 11.6832 635 114.441 50.2173 473.216
1498 0 55.2784 13.5315 748 116.366 50.6805 469.037
1499 0 59.477 13.148 782 113.868 52.0754 471.194
1500 0 59.316 12.7622 757 117.543 51.7583 468.367
1501 0 59.5172 12.2822 731 119.952 52.5349 468.033
1502 0 62.4873 12.6426 790 117.118 53.2253 470.492
1503 0 64.3725 13.5462 872 115.994 53.1204 471.412
1504 0 65.45 11.6272 761 118.848 53.4297 473.531
1505 0 68.2034 13.621 929 116.74 52.7169 467.05
1506 0 69.4951 12.9649 901 119.221 54.2098 467.289
1507 0 72.3974 12.5557 909 119.757 52.6744 466.845
1508 0 74.7036 11.9673 894 119.834 52.5828 470.301
1509 0 77.6152 11.8018 916 120.427 51.5764 468.122
1510 0 81.3654 12.5729 1023 119.842 52.0665 465.242
1511 0 82.4068 13.7731 1135 118.192 51.4256 470.768
1512 0 89.6624 13.5843 1218 118.004 50.3982 467.254
1513 0 89.3722 12.3864 1107 121.049 50.9955 468.454
1514 1 48.1795 12.3704 596 117.977 51.1728 482.398
1515 0 48.3214 9.64375 466 121.667 49.1867 488.524
1516 0 49.444 12.8024 633 116.425 47.8878 487.384
1517 0 50.2925 14.2367 716 114.078 47.3925 487.233
1518 0 50.3594 12.8874 649 119.059 47.5023 483.065
1519 0 53.2193 12.5894 670 119.363 47.003 483.204
1520 0 54.1866 13.3797 725 117.743 47.1628 483.124
1521 0 54.3578 11.3323 616 122.997 47.4188 477.476
1522 0 57.2912 15.8314 907 113.982 46.4311 477.368
1523 0 59.3879 12.6288 750 119.401 46.248 477.551
1524 0 60.2341 11.6545 702 121.474 45.3063 475.214
1525 0 64.4231 13.1785 849 116.76 45.1837 475.751
1526 0 65.221 12.9099 842 118.84 46.1093 473.525
1527 0 66.3201 13.4047 889 119.969 46.1541 469.814
1528 0 68.3754 13.3966 916 118.34 46.1146 468.707
1529 0 71.3635 13.2561 946 118.385 45.9577 465.672
1530 0 74.1474 15.6715 1162 113.603 46.6188 463.417
1531 0 74.2231 12.2334 908 118.695 44.6432 463.141
1532 0 78.4193 12.7647 1001 118.855 46.041 459.638
1533 0 80.3932 10.6352 855 123.398 45.4433 459.691
1534 0 80.5383 11.7087 943 120.735 46.1676 459.297
1535 0 85.4478 14.898 1273 114.747 46.7306 457.861
1536 0 84.6386 9.86547 835 123.629 48.3317 456.432
1537 1 48.4897 7.2799 353 122.487 48.5071 477.365
1538 0 50.2713 11.3385 570 119.54 49.9719 471.361
1539 0 52.0907 12.1135 631 115.155 50.8051 468.081
1540 0 55.02 13.3588 735 114.97 52.4748 466.204
1541 0 56.1275 13.2734 745 117.821 51.8792 468.068
1542 0 59.1155 8.81326 521 124.722 51.6833 469.031
1543 0 60.1041 14.6246 879 115.17 51.9488 466.469
1544 0 62.1852 13.2668 825 116.893 52.2279 471.016
1545 0 64.1872 12.9153 829 116.834 52.8963 468.148
1546 0 66.2086 14.0465 930 115.03 53.2086 469.105
1547 0 65.0771 10.2955 670 123.201 53.3358 470.445
1548 0 68.2675 9.18446 627 124.855 53.6906 469.195
1549 0 72.2634 12.1362 877 116.36 53.6328 466.964
1550 0 77.2314 9.98299 771 119.982 53.1141 470.3
1551 0 76.1663 12.8535 979 114.574 52.9571 466.306
1552 0 80.1114 14.9916 1201 110.112 52.7952 464.001
1553 0 85.2724 15.257 1301 111.478 51.7264 466.157
1554 0 83.4038 10.3353 862 120.877 52.3794 464.664
1555 0 89.5303 14.9447 1338 111.921 51.0277 464.419
1556 0 91.3166 11.2575 1028 117.984 51.0934 463.558
1557 0 94.3457 11.9878 1131 117.345 49.6233 459.821
1558 0 99.4348 12.6314 1256 114.869 49.1314 461.238
1559 1 51.0226 11.4263 583 111.295 48.5026 489.443
1560 0 52.0439 10.6833 556 114.092 48.3633 482.968
1561 0 53.0394 11.9157 632 113.408 48.0443 479.543
1562 0 57.3012 13.8915 796 108.967 46.5515 483.263
1563 0 60.0938 12.4306 747 112.616 47.9746 478.451
1564 0 60.1893 10.9654 660 114.935 47.3621 479.733
1565 0 64.058 14.44 925 108.796 46.187 477.208
1566 0 62.0701 13.082 812 111.409 46.186 472.144
1567 0 67.0519 12.4829 837 109.971 46.3716 478.217
1568 0 71.5277 16.7488 1198 102.331 45.4549 479.082
1569 0 67.2638 12.9936 874 112.525 45.722 469.413
1570 0 70.3122 14.5921 1026 109.386 44.7242 469.691
1571 0 74.1074 15.3561 1138 106.532 44.7873 467.75
1572 0 74.0878 15.2117 1127 107.468 45.6264 464.102
1573 0 78.2029 13.6696 1069 109.464 45.9158 462.645
1574 0 79.309 13.4285 1065 110.461 46.0808 457.135
1575 0 84.066 13.6797 1150 107.629 47.1374 461.358
1576 0 86.222 17.6985 1526 103.009 46.7267 452.233
1577 0 90.4057 12.5656 1136 110.501 47.7456 451.955
1578 1 44.1286 10.2201 451 109.452 47.2661 474.572
1579 0 45.1122 10.3963 469 108.834 48.2409 473.608
1580 0 45.2017 10.8182 489 108.448 49.2618 473.243
1581 0 49.1474 12.1471 597 105.248 49.8978 470.571
1582 0 50.153 14.2564 715 102.842 50.6881 470.38
1583 0 49.0559 11.8844 583 107.497 51.3791 468.455
1584 0 55.142 19.0599 1051 96.4558 51.8792 467.189
1585 0 54.0901 13.2557 717 105.035 52.4798 469.718
1586 0 56.1675 15.3113 860 101.326 52.4349 471.514
1587 0 55.0947 12.5239 690 105.175 52.2087 473.813
1588 0 58.052 12.6783 736 106.454 53.0571 469.471
1589 0 60.2484 13.378 806 104.555 52.9864 472.336
1590 0 59.0312 11.909 703 107.855 52.6871 469.93
1591 0 64.0968 14.6497 939 102.993 53.1842 472.488
1592 0 66.0994 12.8292 848 105.939 53.2594 471.226
1593 0 70.26 13.265 932 103.836 52.3305 471.929
1594 0 72.3434 13.4498 973 103.307 53.3618 473.269
1595 0 75.355 15.8716 1196 100.921 52.8403 471.461
1596 0 79.6369 15.6837 1249 101.122 50.8279 467.726
1597 0 80.3191 13.7701 1106 104.259 50.811 466.718
1598 0 82.3639 12.2869 1012 107.109 50.8775 469.202
1599 1 45.0457 13.6528 615 101.278 50.9561 488.802
1600 0 45.0575 10.8528 489 104.84 50.8712 488.342
1601 0 46.1319 10.3182 476 106.578 48.8571 487.59
1602 0 48.0574 12.8388 617 100.293 49.4619 488.18
1603 0 51.1177 12.1876 623 102.443 48.9454 480.34
1604 0 52.0777 15.7265 819 98.8913 48.2601 479.065
1605 0 54.0707 11.1151 601 103.676 47.3594 485.877
1606 0 54.0407 12.5831 680 102.532 46.9324 479.937
1607 0 57.0355 13.1848 752 101.467 47.234 479.892
1608 0 58.2331 20.5553 1197 93.2665 46.1019 477.224
1609 0 60.0842 14.2966 859 98.7194 46.0908 481.065
1610 0 60.0932 12.8134 770 102.714 46.287 476.625
1611 0 64.0342 17.3345 1110 96.7874 45.6784 472.58
1612 0 65.1294 13.5116 880 100.939 45.4898 471.143
1613 0 69.1144 13.7019 947 101.029 44.7962 471.925
1614 0 69.2698 12.7761 885 101.834 44.9096 471.728
1615 0 72.1588 13.7197 990 101.745 43.4576 466.31
1616 0 76.0946 12.4582 948 102.618 45.6002 466.658
1617 0 75.1726 14.7261 1107 100.961 45.5718 463.487
1618 0 76.0763 13.3813 1018 103.766 46.0088 462.646
1619 0 82.2749 14.3543 1181 101.837 45.7798 460.682
1620 0 83.2185 14.6842 1222 101.921 47.1817 456.614
1621 0 85.0696 13.918 1184 103.107 47.163 454.714
1622 0 87.1394 13.553 1181 105.141 47.2964 451.011
1623 0 91.0864 15.403 1403 101.367 46.7192 454.577
1624 0 91.1546 14.7113 1341 104.12 48.7069 450.643
1625 0 94.2379 16.9889 1601 100.892 49.4891 451.979
1626 0 99.4282 14.2817 1420 103.603 49.9937 455.699
1627 0 100.38 13.6979 1375 105.336 50.5258 452.319
1628 1 56.4536 15.836 894 100.503 50.4183 473.625
1629 0 58.3655 14.9403 872 102.985 51.289 468.827
1630 0 58.5049 12.5972 737 107.628 50.8426 470.246
1631 0 62.4404 11.6111 725 108.371 51.7614 469.808
1632 0 63.3141 14.2306 901 104.772 51.9534 470.346
1633 0 65.3098 10.81 706 110.221 51.8683 469.806
1634 0 66.3149 12.7875 848 108.054 53.3278 468.296
1635 0 68.3394 10.8429 741 110.474 51.9865 472.53
1636 0 72.2426 15.6417 1130 104.974 52.0894 468.993
1637 0 78.2595 16.4836 1290 101.736 50.7954 472.215
1638 0 80.4612 16.2439 1307 102.531 51.1454 473.174
1639 0 80.4199 13.6036 1094 107.282 50.6152 471.86
1640 0 82.256 16.473 1355 103.844 49.8406 469.675
1641 0 83.3623 12.7156 1060 108.68 49.4783 470.629
1642 0 89.5332 17.4795 1565 102.64 48.5284 467.709
1643 0 90.5974 17.484 1584 103.342 48.2008 463.508
1644 0 94.5482 16.5524 1565 103.53 47.8518 467.751
1645 0 96.4251 14.0835 1358 108.116 46.5795 462.054
1646 0 99.3514 16.0843 1598 104.69 46.2478 464.937
1647 0 104.476 15.4007 1609 106.28 46.1659 456.176
1648 1 55.054 10.6259 585 111.462 45.9966 480.009
1649 0 61.3452 14.8667 912 103.947 45.5055 476.784
1650 0 60.5297 13.4975 817 108.687 44.1922 475.82
1651 0 61.3247 11.6919 717 111.332 44.5732 478.162
1652 0 64.7416 14.581 944 108.587 45.2956 475.089
1653 0 67.3079 15.0354 1012 106.61 44.1354 474.518
1654 0 70.5653 17.3882 1227 102.086 42.335 475.37
1655 0 71.5164 13.8989 994 110.053 43.4507 465.524
1656 0 75.3501 14.2667 1075 107.969 42.6986 465.506
1657 0 73.4575 11.6122 853 112.79 42.9742 464.3
1658 0 78.5614 16.7003 1312 104.125 42.6707 465.723
1659 0 83.508 23.6504 1975 97.6299 42.9215 456.687
1660 0 83.7868 11.577 970 112.745 43.9165 458.352
1661 0 86.6628 13.0275 1129 112.28 44.814 451.201
1662 0 92.621 15.558 1441 107.064 44.8744 452.201
1663 1 47.3369 4.62642 219 115.913 45.4566 476.795
1664 0 47.3803 10.6584 505 109.303 44.0099 471.517
1665 0 50.616 10.2734 520 113.288 46.8058 468.767
1666 0 52.1819 11.0958 579 109.993 48.5751 470.703
1667 0 53.1854 12.8607 684 106.525 48.9781 470.731
1668 0 52.1511 12.8473 670 107.272 48.6702 468.025
1669 0 55.1862 10.9629 605 109.879 50.086 467.841
1670 0 57.2693 13.4452 770 102.843 49.4987 476.392
1671 0 60.116 13.1246 789 108.24 50.8403 469.554
1672 0 61.3138 13.4227 823 108.224 50.3074 468.87
1673 0 65.2792 14.798 966 106.438 52.3747 467.28
1674 0 68.2828 15.1283 1033 106.326 52.4956 464.683
1675 0 71.4285 14.476 1034 107.075 52.6605 467.846
1676 0 70.5987 12.139 857 111.648 52.4422 465.658
1677 0 73.5442 11.4217 840 112.437 50.9869 469.336
1678 0 76.6322 13.0624 1001 111.087 52.024 465.638
1679 0 79.6072 14.2826 1137 109.395 51.1117 467.025
1680 0 81.4953 13.2523 1080 110.792 50.5685 461.021
1681 0 85.4751 14.4136 1232 108.434 50.336 467.546
1682 0 87.6121 13.0804 1146 111.804 50.5175 464.766
1683 1 49.1351 13.8394 680 107.062 50.5971 485.804
1684 0 50.0808 13.618 682 109.585 50.2801 485.387
1685 0 52.2171 14.1142 737 108.286 49.4179 482.824
1686 0 51.2585 11.7639 603 113.544 48.1841 484.206
1687 0 56.1821 14.186 797 108.141 48.0088 484.206
1688 0 56.2469 13.0496 734 110.995 47.6989 482.531
1689 0 57.289 12.1315 695 113.365 46.3741 480.656
1690 0 58.3828 14.7989 864 109.213 45.9479 477.808
1691 0 61.4586 13.8142 849 108.86 45.6302 479.491
1692 0 62.2324 15.7956 983 107.226 44.0417 475.908
1693 0 64.3798 11.6341 749 112.943 43.8905 474.766
1694 0 67.2177 16.3052 1096 105.932 42.9763 474.3
1695 0 67.1918 12.0402 809 112.827 43.1817 469.436
1696 0 70.2119 14.7838 1038 108.987 42.9326 470.837
1697 0 70.2999 15.1636 1066 109.934 42.3959 465.273
1698 0 73.2347 10.9921 805 114.894 42.7267 469.814
1699 0 80.1764 16.6134 1332 105.28 42.6074 469.569
1700 0 79.4275 14.6297 1162 109.052 43.1721 464.477
1701 0 80.4841 12.7976 1030 114.014 44.2757 460.141
1702 0 80.2259 11.5424 926 116.538 43.5832 457.616
1703 0 86.2243 12.6762 1093 114.218 44.6157 459.427
1704 1 44.2411 12.8387 568 111.653 44.6109 475.882
1705 0 47.1012 13.7151 646 110.752 46.6006 473.41
1706 0 48.1931 13.0724 630 112.119 47.1159 476.402
1707 0 51.1307 14.5314 743 108.926 47.7402 474.697
1708 0 52.0704 15.5366 809 107.931 48.0878 475.141
1709 0 53.3268 13.2579 707 112.494 49.5912 472.506
1710 0 54.4115 14.8682 809 108.661 49.3276 474.532
1711 0 55.1623 13.7231 757 112.83 50.5588 468.996
1712 0 56.255 14.3632 808 112.355 50.646 469.736
1713 0 59.1039 14.906 881 110.46 50.7253 470.955
1714 0 59.1651 12.6933 751 115.434 51.4887 468.361
1715 0 62.2078 15.2714 950 110.694 51.7421 468.978
1716 0 64.1404 15.6999 1007 110.774 53.1072 467.885
1717 0 66.18 15.3823 1018 111.282 52.8487 468.312
1718 0 71.2576 23.1554 1650 98.7885 51.6794 472.712
1719 0 71.1208 13.3576 950 114.406 53.161 470.167
1720 0 77.2365 22.6965 1753 100.374 52.8728 467.893
1721 0 74.1141 15.1118 1120 112.529 52.7545 467.771
1722 0 84.757 17.9336 1520 104.975 52.2013 472.034
1723 1 43.0521 10.917 470 116.119 52.4426 489.317
1724 0 43.124 14.5858 629 106.639 50.6343 492.997
1725 0 45.0789 12.1343 547 115.682 51.3583 487.055
1726 0 46.15 14.3662 663 111.834 52.0845 488.946
1727 0 47.062 13.8541 652 113.5 52.0491 486.84
1728 0 48.1616 12.5619 605 115.268 51.1273 489.397
1729 0 54.1287 15.2969 828 109.954 50.4517 487.572
1730 0 49.0695 13.756 675 115.607 46.6667 484.76
1731 0 54.1235 13.5431 733 112.565 48.457 486.383
1732 0 53.0859 13.0355 692 116.371 47.9494 483.051
1733 0 56.2854 15.7945 889 110.043 47.8853 484.968
1734 0 57.0591 14.4762 826 113.616 46.9346 481.263
1735 0 57.0493 12.5155 714 118.242 47.3473 479.126
1736 0 60.079 14.431 867 113.57 45.534 477.833
1737 0 61.0585 15.3623 938 113.808 45.3433 475.748
1738 0 64.1548 15.2911 981 113.498 45.2487 477.211
1739 0 64.1359 14.2198 912 117.31 45.0055 474.129
1740 0 66.3238 15.1982 1008 115.429 44.9097 471.711
1741 0 67.0819 13.6251 914 119.116 44.4223 469.508
1742 0 73.2417 14.4999 1062 115.819 44.8004 470.015
1743 0 75.1218 18.5432 1393 110.682 44.8428 461.551
1744 0 78.1874 15.7314 1230 114.786 45.0789 464.542
1745 0 80.1437 16.4704 1320 113.998 45.3318 461.906
1746 0 82.0927 13.0462 1071 119.496 45.3978 461.304
1747 0 85.1842 15.9654 1360 113.886 44.3566 461.535
1748 0 88.1753 15.3444 1353 116.557 46.5174 452.392
1749 0 91.2307 13.0877 1194 118.843 46.9724 457.69
1750 0 93.1381 16.4809 1535 115.96 46.8156 448.777
1751 1 50.1368 12.4858 626 114.947 48.3658 477.28
1752 0 50.159 14.0154 703 114.499 48.6743 473.936
1753 0 49.0818 11.3077 555 119.912 48.3496 471.623
1754 0 52.434 11.7672 617 118.433 49.5008 473.31
1755 0 55.4277 14.9564 829 113.592 49.6031 470.908
1756 0 55.4164 14.9775 830 114.252 49.0795 469.036
1757 0 60.4853 15.3756 930 111.731 50.1763 473.892
1758 0 60.3932 16.7734 1013 111.512 49.996 470.715
1759 0 62.2659 16.3813 1020 111.238 51.7765 473.579
1760 0 62.1582 12.8704 800 119.678 52.235 472
1761 0 65.1539 14.4734 943 117.286 52.5938 469.721
1762 0 68.1335 14.4863 987 116.316 51.4539 471.918
1763 0 71.2215 17.9159 1276 111.118 51.5517 470.242
1764 0 72.2837 14.9135 1078 116.974 51.7505 470.932
1765 0 76.1598 16.6755 1270 113.617 51.3425 471.486
1766 0 78.1212 16.9608 1325 113.8 50.9909 470.22
1767 0 80.1156 14.1171 1131 119.294 50.2706 470.492
1768 0 84.209 17.8247 1501 111.993 50.986 473.372
1769 0 88.182 13.9031 1226 119.268 50.7659 471.523
1770 0 87.2517 17.5126 1528 113.898 49.2317 466.696
1771 0 96.3804 18.8939 1821 109.483 48.8902 463.779
1772 0 96.1681 18.0829 1739 111.629 47.3134 465.857
1773 0 95.302 13.4625 1283 120.46 47.5238 467.763
1774 0 100.182 14.5135 1454 118.372 46.5977 464.784
1775 0 104.305 16.7586 1748 114.828 45.6836 459.933
1776 0 106.582 17.8079 1898 112.575 44.7186 460.252
1777 0 110.433 22.1491 2446 106.53 43.6926 454.593
1778 0 113.367 16.945 1921 113.529 43.4196 452.864
1779 0 116.38 16.0251 1865 115.57 43.6676 451.05
1780 0 120.684 17.434 2104 113.156 43.2818 450.547
1781 0 122.407 15.767 1930 116.821 43.7 442.641
1782 0 124.672 15.1116 1884 118.113 43.5494 439.759
1783 0 128.771 15.9275 2051 116.481 43.4525 439.326
1784 0 134.413 15.192 2042 117.113 42.7703 439.858
1785 0 138.398 15.3905 2130 116.355 42.3094 439.598
1786 0 141.513 18.2951 2589 112.952 43.4793 431.756
1787 0 143.542 14.1353 2029 119.179 43.3026 432.066
1788 0 151.544 19.4662 2950 109.26 43.9203 437.634
1789 0 157.964 17.8332 2817 113.728 44.18 428.903
1790 0 159.407 15.2628 2433 119.346 44.0427 417.852
1791 0 167.572 17.7476 2974 114.745 44.9684 419.081
1792 0 172.071 16.2433 2795 117.376 44.7202 414.255
1793 0 178.618 17.697 3161 115.969 45.987 410.335
1794 0 182.818 13.6748 2500 122.186 46.3432 411.003
1795 0 190.665 17.2921 3297 116.767 47.1911 399.463
1796 0 196.701 15.7599 3100 117.339 46.8313 407.855
1797 0 201.563 15.4294 3110 120.493 48.21 402.433
1798 0 207.629 15.966 3315 119.352 48.0232 400.318
1799 1 158.807 14.2374 2261 120.509 48.6409 424.827
1800 0 163.891 15.0588 2468 119.998 49.113 417.389
1801 0 167.804 13.6766 2295 122.939 49.3089 410.947
1802 0 181.736 18.3453 3334 112.616 50.2412 420.064
1803 0 182.084 13.8617 2524 121.323 50.7139 414.945
1804 0 190.795 13.5171 2579 121.292 50.3342 412.482
1805 0 196.504 11.8522 2329 125.667 51.307 408.234
1806 0 204.707 14.1568 2898 121.787 51.2516 406.05
1807 0 211.585 16.3716 3464 117.205 50.97 406.978
1808 0 220.63 17.3957 3838 115.15 50.6853 405.107
1809 0 226.748 14.558 3301 120.843 49.8915 395.804
1810 0 235.643 15.6211 3681 118.974 49.5841 388.703
1811 0 244.746 15.6938 3841 118.676 49.2505 386.022
1812 1 54.2795 12.3988 673 111.04 49.1798 482.012
1813 0 57.4201 11.3549 652 112.232 49.1503 483.4
1814 0 59.1373 15.743 931 106.375 48.464 482.407
1815 0 62.1543 12.2437 761 111.841 46.5125 484.172
1816 0 63.1658 11.8735 750 113.404 46.192 481.987
1817 0 67.2508 13.8883 934 109.54 44.7794 481.226
1818 0 67.269 11.2831 759 114.456 45.4506 479.895
1819 0 69.2625 12.2 845 113.753 45.7964 475.657
1820 0 71.5777 12.5458 898 112.582 45.4321 476.298
1821 0 71.3481 9.69892 692 115.908 45.1546 476.095
1822 0 77.2463 12.6349 976 109.725 44.8197 472.795
1823 1 44.0328 9.99255 440 108.536 45.3955 490.107
1824 0 41.0921 11.6567 479 111.104 44.6347 483.497
1825 0 45.1555 13.6639 617 104.87 43.9935 487.029
1826 0 46.1607 10.9834 507 110.018 43.3708 484.077
1827 0 47.0218 12.3985 583 108.122 43.0549 482.441
1828 0 50.0716 15.5178 777 101.758 43.1506 481.93
1829 0 53.1694 12.7705 679 104.786 44.6951 480.907
1830 0 50.2706 13.129 660 108.061 43.0227 476.165
1831 0 50.1174 11.7125 587 111.974 42.2164 477.274
1832 0 54.1971 13.1741 714 109.049 43.1905 475.284
1833 0 61.5319 13.8302 851 106.499 42.9624 467.86
1834 0 58.2413 16.1226 939 105.515 43.5122 471.911
1835 0 61.1294 14.9683 915 107.23 43.9607 466.097
1836 0 61.1549 12.4602 762 111.15 43.8884 468.937
1837 0 65.1802 12.7953 834 110.825 45.8046 466.596
1838 0 67.1509 16.7682 1126 104.845 45.9734 462.591
1839 0 66.1456 12.8656 851 112.667 47.3854 460.208
1840 0 69.248 15.1051 1046 108.199 47.0583 466.431
1841 0 78.2036 16.521 1292 104.55 48.418 458.455
1842 0 83.1351 15.3004 1272 104.479 48.8302 461.995
1843 0 85.259 17.875 1524 100.242 48.628 453.375
1844 0 85.1395 21.9522 1869 96.8892 49.099 452.862
1845 0 80.3734 17.5431 1410 106.276 50.9603 459.042
1846 0 86.8378 18.4251 1600 103.586 50.205 456.345
1847 0 84.2294 14.5436 1225 110.823 52.1551 463.541
1848 1 42.0641 9.34289 393 114.644 51.4275 484.094
1849 0 43.0319 10.4806 451 115.004 52.2239 480.499
1850 0 45.0376 12.4119 559 112.163 51.805 477.097
1851 0 46.1816 13.88 641 109.406 51.1139 481.708
1852 0 46.1293 11.2293 518 113.639 50.8147 482.973
1853 0 51.1109 11.2696 576 113.01 48.8906 484.356
1854 0 52.0745 13.7111 714 109.431 48.8431 483.168
1855 0 55.2257 14.0333 775 106.679 49.0026 485.459
1856 0 55.1625 12.3997 684 110.529 48.769 482.434
1857 0 58.0404 17.3845 1009 101.609 48.7681 486.806
1858 0 59.0654 16.5579 978 104.377 47.7658 481.831
1859 0 60.0932 14.5108 872 106.799 47.0619 483.844
1860 0 62.0862 15.6879 974 105.658 46.8665 479.036
1861 0 61.0256 9.81556 599 113.87 45.7379 477.871
1862 0 66.0582 17.4089 1150 103.303 45.3887 477.485
1863 0 68.1892 12.7293 868 108.041 42.9758 477.791
1864 0 72.289 13.4737 974 108.309 42.9805 475.825
1865 0 70.1663 11.8148 829 111.908 43.2087 473.366
1866 0 75.4635 19.0423 1437 101.423 42.5164 467.788
1867 0 76.299 14.2204 1085 107.672 43.0378 470.278
1868 0 78.2585 13.7876 1079 107.564 42.6043 467.318
1869 0 80.2844 19.4309 1560 100.233 42.5397 465.086
1870 0 84.5438 18.9842 1605 100.436 42.3502 459.827
1871 0 84.2455 13.2589 1117 107.201 43.1155 466.081
1872 0 89.419 15.8803 1420 103.725 42.3993 459.558
1873 0 88.4751 14.117 1249 107.05 43.4099 459.142
1874 1 49.2655 11.3873 561 106.875 43.6863 480.383
1875 0 51.2792 13.9238 714 102.422 43.3936 476.627
1876 0 53.1132 16.3424 868 98.7385 44.6406 476.976
1877 0 55.4262 12.6474 701 102.228 45.1969 476.489
1878 0 59.1944 13.802 817 100.847 45.3084 469.258
1879 0 58.1582 12.1737 708 103.205 45.774 470.347
1880 0 62.1682 15.0237 934 100.21 46.0075 467.123
1881 0 65.1383 13.218 861 100.62 47.1591 470.934
1882 0 65.1159 13.0844 852 102.045 47.2512 467.164
1883 0 69.2396 12.7673 884 102.632 48.1833 465.198
1884 0 70.08 12.4287 871 102.437 49.062 466.633
1885 0 70.2535 14.647 1029 100.765 49.0748 466.948
1886 0 74.1716 12.9834 963 102.707 49.4154 465.809
1887 0 78.2189 16.7223 1308 97.1575 49.4954 466.986
1888 0 82.2184 17.3805 1429 97.6529 49.7054 460.985
1889 0 79.1609 12.2662 971 105.124 50.1658 463.173
1890 0 83.3293 15.7448 1312 101.303 50.3239 459.397
1891 0 88.6005 16.7381 1483 97.7384 50.4309 468.421
1892 0 90.4345 17.0289 1540 100.077 51.2039 458.849
1893 0 95.3872 14.9181 1423 101.73 50.9656 464.727
1894 0 95.4527 14.8031 1413 105.368 50.5414 459.083
1895 0 101.508 15.7427 1598 102.977 49.9161 463.245
1896 0 103.521 16.2382 1681 102.552 49.7174 461.83
1897 0 106.505 12.3187 1312 107.813 49.0846 460.972
1898 1 57.2646 15.3323 878 100 49.8907 485.177
1899 0 61.6862 14.4279 890 99.5315 50.0416 482.906
1900 0 61.1475 14.833 907 100.895 48.6571 480.139
1901 0 63.1413 13.0184 822 102.243 48.41 484.982
1902 0 67.2281 16.4217 1104 98.9103 47.6748 478.87
1903 0 69.1753 13.3863 926 104.217 47.3661 478.3
1904 0 72.0889 16.6184 1198 99.3247 46.4583 478.313
1905 0 77.1754 19.0605 1471 94.2971 46.3154 480.072
1906 0 76.4346 15.8044 1208 101.368 45.2566 475.038
1907 0 77.165 14.8254 1144 104.332 44.174 468.958
1908 0 81.1965 15.3455 1246 103.457 43.5072 467.888
1909 0 81.1565 13.6773 1110 105.426 43.4649 466.836
1910 0 86.1272 14.3741 1238 105.334 42.5549 461.477
1911 0 88.3397 14.9084 1317 104.203 43.716 463.465
1912 0 90.2363 13.509 1219 107.076 43.2305 461.439
1913 0 89.3329 13.8471 1237 109.579 43.4357 455.606
1914 0 93.1171 16.9249 1576 105 43.309 454.508
1915 0 97.2962 17.0613 1660 103.499 43.5976 456.751
1916 0 98.2267 13.0922 1286 110.546 43.3888 451.003
1917 0 99.334 13.7214 1363 109.916 43.642 448.532
1918 1 54.0875 13.6446 738 107.68 43.4986 470.996
1919 0 57.127 11.8858 679 109.349 45.0825 471.552
1920 0 57.106 13.5012 771 107.368 45.8846 472.672
1921 0 60.2697 11.5315 695 110.94 46.4719 469.911
1922 0 62.0366 13.1374 815 108.697 46.9669 469.558
1923 0 65.1487 13.9834 911 107.973 48.2316 465.015
1924 0 67.1079 14.3202 961 106.696 47.7555 468.052
1925 0 72.4956 16.2631 1179 103.533 48.7074 466.573
1926 0 72.1534 17.3381 1251 102.674 48.8377 465.691
1927 0 77.1344 16.8148 1297 103.411 49.4611 463.668
1928 0 75.2916 13.0559 983 110.061 49.6755 462.525
1929 0 76.1696 13.3518 1017 111.382 49.4641 455.528
1930 0 83.3696 16.133 1345 106.059 49.8126 457.287
1931 0 89.4975 14.2127 1272 108.502 50.2917 451.219
1932 0 85.4068 14.1675 1210 111.013 50.2298 452.211
1933 0 91.4259 15.4114 1409 107.865 50.3982 451.165
1934 1 47.1667 10.9611 517 114.211 49.8337 471.36
1935 0 50.1931 13.7469 690 110.635 49.8638 470.581
1936 0 51.3543 12.4819 641 111.598 49.986 474.484
1937 0 55.4007 17.581 974 105.36 49.2402 471.578
1938 0 54.4205 12.3667 673 113.988 49.5884 475.23
1939 0 56.2115 12.3462 694 113.527 48.6571 476.405
1940 0 60.2274 17.4505 1051 105.613 49.1893 475.059
1941 0 60.2636 13.3082 802 110.515 49.0636 479.342
1942 0 65.1814 14.6207 953 111.051 48.2518 472.843
1943 0 67.1732 12.892 866 113.931 46.6293 468.374
1944 0 69.2323 14.1697 981 111.246 45.4302 473.9
1945 0 70.3953 13.5946 957 113.79 46.094 471.4
1946 0 74.2398 18.6288 1383 106.067 45.0904 469.884
1947 0 76.219 15.2718 1164 110.403 45.2251 472.79
1948 0 79.322 19.5406 1550 104.526 43.369 464.969
1949 0 82.2519 15.7322 1294 109.58 43.7728 467.557
1950 0 87.4001 19.9313 1742 103.484 43.4311 464.439
1951 0 86.2741 12.6341 1090 114.883 43.0587 466.698
1952 1 46.0735 10.5266 485 116.056 42.9196 487.682
1953 0 46.0997 13.5359 624 113.369 43.2724 483.676
1954 0 49.1131 14.2325 699 111.285 43.6109 485.854
1955 0 50.1154 13.2095 662 113.512 42.4985 480.971
1956 0 53.4494 11.7869 630 112.262 43.0508 484.659
1957 0 52.3051 12.9815 679 114.029 42.7629 479.233
1958 0 55.374 14.6278 810 109.044 42.037 478.456
1959 0 59.4525 13.3552 794 110.6 42.3363 476.976
1960 0 60.2484 15.851 955 106.955 42.1476 475.328
1961 0 61.345 15.9915 981 108.094 42.6983 472.287
1962 0 67.4057 19.9538 1345 101.541 42.6416 471.18
1963 0 64.416 14.158 912 112.694 43.2072 465.16
1964 0 70.1744 14.8915 1045 109.241 44.0785 466.956
1965 0 72.24 18.6877 1350 105.53 43.5881 459.468
1966 0 72.3485 13.8358 1001 113.317 45.3047 459.936
1967 0 77.3324 16.8623 1304 108.548 46.0874 459.251
1968 0 81.5738 13.9138 1135 110.197 47.237 460.947
1969 0 81.4052 20.2567 1649 104.108 46.8629 457.466
1970 0 85.7981 12.9956 1115 113.917 47.8978 455.679
1971 0 89.7565 18.9736 1703 104.427 48.5467 449.351
1972 1 48.3128 11.7567 568 112.565 49.338 472.241
1973 0 50.253 14.5862 733 105.508 49.8513 476.819
1974 0 50.3392 12.7138 640 111.238 50.3359 471.6
1975 0 55.4774 14.907 827 105.272 50.2455 475.538
1976 0 55.218 15.8282 874 103.04 50.6831 479.219
1977 0 56.319 12.589 709 113.714 51.1284 470.791
1978 0 59.2014 14.6956 870 109.48 51.4678 471.844
1979 0 61.4029 14.4781 889 109.733 51.5129 471.037
1980 0 62.3415 14.9018 929 110.362 50.436 471.297
1981 0 67.4198 17.3688 1171 105.821 49.7062 472.18
1982 0 69.4185 12.259 851 115.592 49.6733 472.116
1983 0 70.5137 13.9264 982 114.131 49.2607 469.589
1984 0 72.5617 11.5488 838 118.005 48.4451 471.117
1985 0 75.2843 13.801 1039 114.53 48.3186 470.809
1986 0 78.386 13.7269 1076 114.846 47.2407 471.427
1987 0 81.6171 14.3107 1168 113.157 46.1447 471.326
1988 0 84.4148 13.8127 1166 114.414 44.4563 465.432
1989 1 42.0852 9.95599 419 118.153 46.1169 485.878
1990 0 46.0978 9.82693 453 117.324 45.1413 485.411
1991 0 43.1949 9.05199 391 119.547 44.4297 486.107
1992 0 47.0546 13.6862 644 110.444 45.9068 486.671
1993 0 48.104 10.5812 509 116.686 45.2338 483.352
1994 0 49.0712 12.4513 611 114.005 44.6416 482.548
1995 0 53.276 14.3404 764 110.017 44.2814 482.268
1996 0 53.0681 16.9593 900 107.063 42.27 477.516
1997 0 52.2561 13.7592 719 113.656 43.6314 476.702
1998 0 55.1475 16.9001 932 106.455 42.9303 476.749
1999 0 57.1777 15.2332 871 109.347 43.8071 474.199
2000 0 58.072 11.9335 693 113.899 43.6205 473.698
2001 0 60.1681 12.5482 755 112.797 44.1324 469.126
2002 0 62.0938 12.8998 801 112.171 43.7016 465.928
2003 0 61.2864 13.5593 831 112.425 44.7629 464.655
2004 0 64.0925 13.9174 892 111.07 44.5448 461.822
2005 0 68.1708 13.2021 900 110.958 45.4489 464.553
2006 0 75.4431 13.7057 1034 105.909 46.0029 466.919
2007 0 72.2013 14.418 1041 108.588 46.2959 460.604
2008 0 71.0968 11.2241 798 113.406 46.7206 460.137
2009 0 77.0638 12.5999 971 111.228 46.6663 458.797
2010 0 79.1384 14.0513 1112 110.637 47.2761 454.87
2011 0 81.1505 12.7664 1036 111.428 48.4633 455.779
2012 0 84.1006 15.9927 1345 106.343 48.7532 449.946
2013 0 86.4524 11.7406 1015 111.69 49.0552 452.954
2014 0 89.2044 14.1921 1266 108.321 48.3681 449.195
2015 1 47.3783 15.7034 744 100.167 50.4315 476.454
2016 0 50.0294 9.91418 496 111.597 50.7319 472.381
2017 0 50.126 15.1818 761 103.813 50.7359 472.808
2018 0 53.061 13.2677 704 107.233 50.5696 474.057
2019 0 49.0844 11.4497 562 112.246 50.7295 472.614
2020 0 55.0528 14.7858 814 106.349 51.6855 471.556
2021 0 57.1533 12.8776 736 109.065 49.8342 470.986
2022 0 60.3268 12.3494 745 108.031 50.4161 472.529
2023 0 61.4285 15.6605 962 104.71 50.4543 470.924
2024 0 62.2162 17.3267 1078 103.583 50.18 471.592
2025 0 64.2993 15.9566 1026 105.242 49.0887 472.273
2026 0 66.2804 11.4212 757 111.954 48.8639 470.999
2027 0 71.2614 14.8467 1058 107.281 49.4367 469.444
2028 0 70.311 13.3265 937 109.928 49.2497 471.319
2029 0 75.2165 14.7441 1109 107.754 48.5473 468.697
2030 0 77.2425 15.1859 1173 107.587 48.6854 464.658
2031 0 80.4553 14.8157 1192 107.878 47.2685 464.404
2032 0 86.422 16.188 1399 105.339 46.3696 465.212
2033 0 87.2295 13.9402 1216 109.647 46.0173 459.677
2034 0 91.1686 14.9832 1366 107.582 45.1018 458.39
2035 1 52.3084 17.7218 927 99.3916 44.8004 478.556
2036 0 49.0737 15.6499 768 103.87 44.1302 477.031
2037 0 51.2362 12.6863 650 108.478 42.7277 469.914
2038 0 54.4307 15.3039 833 104.747 42.8559 470.163
2039 0 52.2746 11.7074 612 110.908 42.7173 469.886
2040 0 53.2532 14.6658 781 107.593 42.6863 464.156
2041 0 56.2278 14.708 827 105.26 41.8658 467.776
2042 0 56.2263 14.1215 794 108.778 42.7103 467.162
2043 0 58.2332 12.9136 752 109.988 42.4109 465.04
2044 0 60.1306 14.535 874 107.554 42.1156 464.357
2045 0 62.3477 11.0349 688 112.414 42.7151 464.193
2046 0 64.1777 11.5149 739 112.31 43.6982 463.131
2047 0 69.2148 17.1062 1184 103.518 43.685 460.494
2048 0 69.2374 16.6384 1152 104.741 44.7274 460.607
2049 0 69.1411 15.6492 1082 107.157 44.354 456.106
2050 0 74.3804 12.5436 933 110.403 45.2229 458.066
2051 0 73.3996 10.9946 807 114.352 45.6208 456.693
2052 0 77.1945 16.7888 1296 106.047 46.8634 452.631
2053 0 80.3392 14.8869 1196 108.604 46.9707 446.606
2054 0 87.204 16.2951 1421 103.447 49.1429 452.728
2055 0 86.0756 14.6383 1260 108.164 48.2238 448.917
2056 1 45.0674 10.4732 472 112.534 50.1843 469.485
2057 0 47.0648 12.111 570 110.179 50.5649 469.005
2058 0 48.0348 11.4917 552 110.639 50.5018 470.438
2059 0 49.0596 13.1065 643 109.254 52.4603 467.11
2060 0 51.1242 14.5528 744 107.788 51.9852 468.597
2061 0 54.1979 16.2737 882 104.619 51.4354 467.578
2062 0 55.118 14.1333 779 107.601 51.6765 471.868
2063 0 61.0604 13.4948 824 108.039 51.3325 473.415
2064 0 60.4736 15.1471 916 107.781 49.6965 474.119
2065 0 64.2889 17.6858 1137 105.976 50.7924 475.749
2066 0 60.1087 12.2611 737 118.541 48.9986 472.248
2067 0 68.1909 14.0635 959 114.147 49.6204 471.754
2068 0 66.4643 13.0897 870 117.693 48.8839 471.618
2069 0 69.2182 13.4502 931 117.072 49.2889 470.743
2070 0 72.2397 12.2924 888 117.95 48.2962 470.158
2071 0 75.5991 13.9949 1058 114.983 47.242 469.882
2072 0 76.4395 12.4805 954 116.664 47.195 471.737
2073 0 80.3567 15.7547 1266 112.04 46.0016 465.892
2074 0 83.7023 12.9268 1082 115.192 44.939 467.353
2075 0 85.5513 13.6526 1168 115.032 43.8656 460.229
2076 0 86.2281 12.8844 1111 115.766 43.3942 461.292
2077 0 92.3219 14.2653 1317 112.86 43.183 462.623
2078 0 92.6394 10.7945 1000 118.761 43.279 458.767
2079 1 50.2504 7.50242 377 119.353 42.8462 480.533
2080 0 54.5515 11.9703 653 111.132 42.1746 479.839
2081 0 55.6544 11.9128 663 114.519 42.7376 475.671
2082 0 57.4708 15.4339 887 110.643 42.8219 474.405
2083 0 59.3923 15.5239 922 110.021 42.7505 473.547
2084 0 59.6262 14.0039 835 113.602 43.0275 470.425
2085 0 62.2992 14.2538 888 111.733 43.0428 472.066
2086 0 62.6229 12.7589 799 114.931 42.9687 468.611
2087 0 63.2203 13.0022 822 115.591 43.1496 465.613
2088 0 68.6608 14.1857 974 111.193 42.7115 466.147
2089 0 66.6769 14.5628 971 112.755 43.4696 464.191
2090 0 69.6695 13.6071 948 113.923 44.3555 463.001
2091 0 71.4656 15.0422 1075 112.542 44.0837 462.594
2092 0 74.7793 13.8808 1038 115.239 45.3892 458.387
2093 0 77.5605 13.0092 1009 115.333 45.2884 459.262
2094 0 79.5172 13.2676 1055 117.032 46.3071 452.844
2095 0 80.4428 14.5072 1167 114.975 46.1825 454.122
2096 0 84.6278 14.5579 1232 114.77 47.5763 450.952
2097 0 87.7409 14.6226 1283 113.418 47.6547 454.702
2098 1 49.2946 13.044 643 109.463 48.6019 471.484
2099 0 50.2957 11.6511 586 113.036 48.8771 472.398
2100 0 51.11 11.7981 603 112.498 49.8259 473.25
2101 0 53.33 13.0133 694 108.745 49.1974 473.399
2102 0 54.2224 11.5082 624 115.237 50.3045 470.726
2103 0 57.4745 13.867 797 111.041 50.0038 470.577
2104 0 59.5011 12.3191 733 112.127 49.4857 473.401
2105 0 59.4441 13.8786 825 111.267 49.8982 471.682
2106 0 62.5533 15.4748 968 109.621 50.2862 472.159
2107 0 64.4517 14.3053 922 110.563 50.5998 473.924
2108 0 63.5134 12.7532 810 115.547 50.1444 469.465
2109 0 70.5302 14.8022 1044 110.17 49.1073 471.032
2110 0 73.2267 15.7593 1154 109.05 49.1239 473.956
2111 0 76.738 13.0835 1004 112.601 48.3874 472.679
2112 0 74.4148 11.9062 886 116.161 48.3928 471.932
2113 0 80.6378 17.312 1396 106.133 47.5566 472.25
2114 0 82.6303 15.9627 1319 109.033 47.3237 469.428
2115 0 83.972 13.3021 1117 113.037 45.8827 464.886
2116 0 88.493 11.6506 1031 115.726 45.4704 465.125
2117 0 95.6398 19.4793 1863 102.778 44.6543 464.427
2118 1 52.3641 11.7256 614 110.238 44.2313 484.533
2119 0 50.7214 12.0462 611 111.422 44.2193 482.527
2120 0 53.4505 10.795 577 114.191 44.2478 478.556
2121 0 54.277 17.8713 970 102.868 43.4247 480.398
2122 0 55.096 12.6869 699 111.8 42.9127 479.352
2123 0 58.2411 13.3068 775 109.568 43.1174 479.432
2124 0 60.2205 15.0613 907 106.474 43.2415 477.9
2125 0 61.217 15.5349 951 108.13 42.6583 472.639
2126 0 61.149 14.4565 884 109.166 42.5464 471.439
2127 0 61.3325 14.56 893 111.026 43.4871 469.83
2128 0 63.4348 12.8951 818 113.121 42.9401 465.237
2129 0 67.749 14.5832 988 107.839 43.7955 472.521
2130 0 66.5508 10.2628 683 115.581 42.3675 468.508
2131 0 68.3297 14.6349 1000 109.372 42.6 465.927
2132 0 70.3087 12.3029 865 113.534 43.6243 462.934
2133 0 72.2214 10.8832 786 114.476 44.4555 463.644
2134 0 75.4363 12.7127 959 112.6 44.0407 459.161
2135 0 76.2743 12.6386 964 111.902 44.6317 459.342
2136 0 80.4231 14.5481 1170 110.112 45.1026 454.549
2137 0 82.328 14.8066 1219 108.219 45.8761 458.892
2138 0 82.4733 11.9796 988 113.638 46.33 453.699
2139 0 86.663 14.6429 1269 110.128 46.7266 453.192
2140 0 88.5726 15.1966 1346 109.94 47.0736 449.432
2141 0 92.5172 12.2464 1133 114.068 48.3327 451.742
2142 0 97.4472 16.0189 1561 108.954 48.5368 449.774
2143 0 99.7441 13.2439 1321 112.129 49.7684 451.965
2144 0 101.29 14.1771 1436 112.251 50.1504 447.824
2145 0 106.493 14.6018 1555 110.797 49.1016 447.675
2146 0 110.404 20.4793 2261 103.542 50.3958 447.67
2147 1 60.3088 12.4028 748 110.12 49.8222 472.733
2148 0 59.0706 10.6821 631 111.361 50.2552 474.968
2149 0 63.1637 9.95825 629 112.397 49.8442 474.711
2150 0 63.1382 11.5303 728 111.61 49.6607 473.576
2151 0 69.2672 13.946 966 109.292 49.2971 473.976
2152 0 71.0972 13.1791 937 110.651 48.5614 474.11
2153 0 73.1234 12.431 909 110.861 48.6381 475.65
2154 0 77.3122 12.65 978 110.352 49.5562 469.163
2155 0 78.2765 17.336 1357 103.799 48.9359 472.597
2156 0 84.4085 15.9226 1344 105.963 47.9546 470.248
2157 0 83.2843 17.6384 1469 104.559 46.8264 468.469
2158 0 87.2303 14.8572 1296 108.136 46.223 466.035
2159 0 87.2792 14.4021 1257 109.679 44.3373 466.658
2160 0 91.1462 13.6265 1242 110.833 44.5958 465.037
2161 0 98.3554 19.1042 1879 101.815 43.7408 464.828
2162 0 98.377 17.4736 1719 105.599 43.1344 459.583
2163 0 98.2795 18.6102 1829 105.083 43.4636 460.379
2164 0 101.294 13.3275 1350 112.467 42.8237 456.673
2165 0 105.493 13.3658 1410 111.865 42.761 453.406
2166 1 58.2816 11.8906 693 109.625 42.3593 479.203
2167 0 58.1042 10.6705 620 111.321 42.8726 478.331
2168 0 62.2765 13.0868 815 108.661 42.0908 475.438
2169 0 63.2231 12.5429 793 109.931 42.7793 473.873
2170 0 66.118 13.6876 905 108.597 43.4906 469.664
2171 0 68.0756 13.911 947 108.397 43.4139 468.766
2172 0 71.696 19.0527 1366 100.451 42.9451 466.742
2173 0 70.0918 16.4213 1151 104.328 42.5995 466.291
2174 0 78.2853 18.126 1419 99.9232 43.9782 466.93
2175 0 78.2853 17.9344 1404 126.338 44.9459 466.871
2176 0 79.1762 19.425 1538 101.291 44.5956 455.582
2177 0 82.1228 15.1846 1247 107.57 45.1876 457.73
2178 0 82.13 16.8878 1387 103.95 44.8385 461.413
2179 0 79.1522 10.663 844 117.178 47.1765 453.796
2180 0 85.1083 13.7354 1169 111.29 47.0881 454.537
2181 0 88.0866 16.0864 1417 107.702 46.8285 452.584
2182 0 93.3525 13.8293 1291 110.261 47.9597 455.072
2183 0 94.206 14.8186 1396 109.693 48.4613 454.845
2184 0 96.2569 15.9469 1535 109.397 48.6801 450.077
2185 0 99.2347 22.0387 2187 101.484 48.8651 447.895
2186 0 101.237 15.9131 1611 108.701 50.0466 454.23
2187 0 106.273 17.3233 1841 106.087 49.8284 443.974
2188 0 111.654 18.7007 2088 105.049 50.1624 444.176
2189 1 63.2874 13.573 859 108.199 51.7381 468.349
2190 0 61.3468 10.1065 620 112.592 50.7258 465.647
2191 0 65.2991 13.8134 902 106.532 51.5399 469.458
2192 0 68.31 12.2969 840 109.489 51.3036 468.975
2193 0 72.2878 12.2427 885 111.037 50.8316 470.541
2194 0 71.2594 11.3669 810 114.428 51.5432 467.743
2195 0 74.1786 14.182 1052 109.997 50.5314 470.259
2196 0 78.3187 15.986 1252 106.774 49.5192 469.873
2197 0 79.3372 14.4951 1150 110.657 48.5765 466.709
2198 0 84.2702 12.6854 1069 111.497 49.405 470.258
2199 0 85.3198 11.4042 973 114.334 47.7184 464.705
2200 0 89.191 13.8018 1231 110.308 47.134 466.359
2201 0 91.3461 12.9617 1184 111.523 44.9637 461.458
2202 0 94.5251 16.3026 1541 106.779 45.172 459.341
2203 0 94.3155 13.5927 1282 111.463 44.6591 456.828
2204 0 100.508 12.8447 1291 111.844 44.4802 459.053
2205 0 103.319 14.1891 1466 108.675 43.4536 457.089
2206 1 54.2792 8.80631 478 111.563 43.2301 482.398
2207 0 54.1076 10.4791 567 109.899 43.358 472.665
2208 0 61.2444 15.7402 964 101.89 44.444 474.811
2209 0 62.2278 12.7274 792 105.428 42.7361 478.557
2210 0 61.135 12.3497 755 107.482 42.4384 474.713
2211 0 63.184 10.8572 686 109.05 43.9927 470.875
2212 0 65.1319 11.7915 768 108.548 43.888 467.671
2213 0 69.1156 13.2676 917 106.38 44.4624 465.995
2214 0 70.2102 13.8869 975 106.295 43.5159 463.997
2215 0 70.2558 13.949 980 107.903 45.0827 459.911
2216 0 73.1357 11.1437 815 110.09 43.5117 460.337
2217 0 75.4136 13.5254 1020 106.802 44.9804 461.65
2218 0 77.1355 12.6271 974 109.897 44.9825 454.42
2219 0 79.4252 11.9358 948 110.398 46.365 456
2220 0 83.2107 15.3706 1279 105.511 45.749 457.176
2221 0 83.3516 13.9409 1162 110.238 46.4234 449.063
2222 0 85.2318 13.0585 1113 111.607 47.2983 447.455
2223 0 95.5695 17.0243 1627 102.899 47.5575 451.8
2224 1 49.4476 8.87809 439 110.85 48.5763 471.615
2225 0 51.2829 11.4658 588 108.597 46.6344 470.668
2226 0 52.1038 12.0337 627 108.246 47.6842 471.992
2227 0 55.0589 13.2949 732 106.982 47.5164 468.918
2228 0 59.4888 16.2216 965 100.442 48.6228 473.75
2229 0 57.107 11.96 683 109.398 48.0264 471.038
2230 0 58.2218 12.8818 750 108.808 49.5227 469.632
2231 0 59.3638 12.5834 747 110.383 50.2423 466.96
2232 0 62.1257 12.3942 770 110.014 49.1442 468.243
2233 0 64.7197 11.094 718 113.383 49.9638 464.322
2234 0 67.5778 10.9059 737 112.63 50.9606 469.077
2235 0 70.402 14.7297 1037 106.898 49.893 468.179
2236 0 79.4492 13.1153 1042 105.388 50.3071 474.441
2237 0 74.3848 11.5481 859 112.467 48.213 469.183
2238 0 77.2716 13.2649 1025 113.311 49.3659 466.677
2239 0 78.2705 15.9575 1249 109.107 48.9552 469.101
2240 0 83.2135 15.983 1330 109.525 48.8602 466.927
2241 0 88.2226 15.1548 1337 110.716 47.261 465.693
2242 0 91.38 15.4191 1409 110.649 47.9773 467.029
2243 0 92.4802 12.3594 1143 115.774 46.1514 464.521
2244 0 95.5931 12.6474 1209 114.42 46.4748 467.519
2245 1 52.2302 11.3344 592 113.09 46.7196 484.767
2246 0 52.194 8.64083 451 119.086 45.9224 479.874
2247 0 56.2295 13.8006 776 108.7 45.1624 483.89
2248 0 57.2388 12.4741 714 110.56 44.8866 483.227
2249 0 59.1637 12.9471 766 111.781 44.5183 483.698
2250 0 57.1518 10.1484 580 120.684 44.75 479.607
2251 0 63.2263 13.1907 834 113.905 43.7302 479.152
2252 0 62.1244 13.3442 829 115.692 43.7189 474.347
2253 0 68.3478 16.6355 1137 109.648 43.0616 475.157
2254 0 67.1348 13.7336 922 117.131 43.0358 471.082
2255 0 69.1067 12.951 895 117.078 43.3028 472.193
2256 0 70.2837 14.1 991 117.324 42.8032 468.51
2257 0 73.3542 15.7592 1156 114.785 43.3408 465.708
2258 0 75.35 13.4041 1010 119.956 43.096 464.658
2259 0 77.3007 16.7528 1295 112.89 42.9344 467.239
2260 0 77.384 13.3878 1036 122.905 44.3041 460.298
2261 0 79.5588 12.4059 987 126.624 44.6049 456.649
2262 0 79.3838 13.0127 1033 127.353 45.3369 455.26
2263 0 84.4303 14.284 1206 124.332 45.0945 455.524
2264 0 84.4303 14.2958 1207 147.331 46.0986 455.453
2265 0 89.3475 14.6283 1307 123.752 46.534 451.841
2266 0 91.2963 14.0312 1281 125.272 46.6456 453.422
2267 1 51.2099 11.8922 609 123.962 48.6388 473.675
2268 0 48.2566 8.14397 393 131.639 48.5394 473.674
2269 0 51.1184 9.64428 493 128.97 48.8986 472.588
2270 0 52.0686 12.1762 634 123.282 48.9984 474.194
2271 0 57.1464 13.6142 778 118.631 48.9653 470.64
2272 0 56.3862 12.0065 677 124.821 49.5436 470.495
2273 0 59.424 13.8328 822 123.005 50.2299 468.21
2274 0 61.3231 15.7526 966 119.012 51.2743 468.938
2275 0 62.4338 13.6465 852 123.973 50.716 470.035
2276 1 76.8555 20.6101 1584 102.867 50.1446 460.359
2277 0 75.7287 15.9649 1209 113.026 50.7692 466.026
2278 0 80.5229 23.6579 1905 100.772 49.7202 465.955
2279 0 83.7609 17.729 1485 109.702 50.6593 466.03
2280 0 81.5038 18.2077 1484 110.045 49.0162 465.535
2281 0 82.339 19.7355 1625 107.946 48.9532 465.845
2282 0 84.4407 22.0391 1861 105.765 47.5347 463.786
2283 0 83.5465 21.8441 1825 108.27 47.4932 467.609
2284 0 86.513 17.7892 1539 114.436 47.3379 466.912
2285 0 84.2926 13.5955 1146 125.57 46.5244 467.886
2286 0 88.3272 13.4726 1190 123.887 46.1487 470.092
2287 0 90.373 13.4996 1220 122.525 45.4467 468.365
2288 0 94.5307 15.8996 1503 118.168 43.523 463.438
2289 0 97.3612 15.7866 1537 118.605 43.9941 456.61
2290 0 100.431 17.9726 1805 114.09 41.8975 453.968
2291 0 107.617 15.6295 1682 116.115 43.217 454.194
2292 0 109.294 16.506 1804 114.813 42.4501 455.569
2293 1 58.2941 13.9122 811 114.612 43.7312 477.247
2294 0 60.2544 11.4349 689 115.324 42.1669 478.776
2295 0 62.1379 13.9206 865 113.097 43.0647 473.534
2296 0 62.3541 14.2412 888 115.5 42.3457 472.086
2297 0 65.3896 14.0236 917 114.833 42.7819 469.636
2298 0 66.4826 12.7703 849 116.929 42.3628 470.703
2299 0 71.3564 15.2054 1085 111.835 42.4756 467.364
2300 0 72.3908 12.2253 885 117.183 43.017 461.367
2301 0 74.333 13.5741 1009 114.624 43.8315 461.743
2302 0 74.3372 15.2414 1133 112.472 44.1015 461.387
2303 0 79.3338 13.3613 1060 114.95 44.6302 457.547
2304 0 82.2538 15.1239 1244 112.115 44.1166 454.814
2305 0 85.1433 14.411 1227 111.594 44.9976 457.915
2306 0 87.1415 13.8166 1204 113.682 45.2625 452.594
2307 0 91.3476 12.4689 1139 115.626 46.0939 451.658
2308 0 91.2119 13.9346 1271 113.69 46.0268 449.959
2309 1 49.0452 12.4171 609 110.88 48.1412 471.08
2310 0 49.2203 9.26447 456 118.522 48.1842 469.726
2311 0 54.0928 12.9777 702 110.403 48.1197 468.843
2312 0 55.0632 15.1644 835 104.454 49.3246 471.278
2313 0 59.2489 14.5825 864 108.381 50.1412 468.34
2314 0 57.2105 10.8372 620 114.048 50.3258 470.948
2315 0 60.0313 12.5601 754 112.836 50.7719 468.918
2316 0 61.2016 14.8526 909 110.063 50.6062 467.196
2317 0 66.0852 13.755 909 110.809 51.6964 470.153
2318 0 67.0625 12.0336 807 114.929 51.7336 469.032
2319 0 68.1855 12.3047 839 116.198 51.5375 468.21
2320 0 72.1359 13.9875 1009 113.581 51.3627 467.546
2321 0 73.1973 12.9786 950 114.767 50.9695 469.091
2322 0 78.2132 13.2842 1039 115.896 50.1396 469.974
2323 0 79.0811 14.6685 1160 113.507 49.5672 470.491
2324 0 83.1636 16.221 1349 112.11 49.1193 465.42
2325 0 87.165 14.3521 1251 114.992 48.8385 469.49
2326 0 90.134 12.3483 1113 118.481 49.1267 468.719
2327 0 93.1961 15.0543 1403 112.191 48.1632 468.735
2328 1 51.0595 14.6104 746 112.634 46.8874 483.804
2329 0 53.263 13.1799 702 115.513 46.2949 484.356
2330 0 57.2424 13.766 788 112.904 45.6675 485.61
2331 0 57.0695 11.9153 680 117.646 45.4632 483.499
2332 0 60.1514 15.7935 950 110.878 44.7389 483.739
2333 0 61.1062 14.7775 903 112.812 44.505 482.981
2334 0 62.0955 14.4455 897 115.064 44.3534 476.758
2335 0 64.1206 15.0498 965 114.446 42.7067 474.986
2336 0 66.0725 14.0603 929 115.718 43.1798 476.078
2337 0 70.194 15.3432 1077 112.489 43.6119 476.061
2338 0 73.1705 15.8807 1162 111.929 42.8589 471.46
2339 0 75.1096 15.0713 1132 114.352 42.4576 466.693
2340 0 78.274 20.6454 1616 105.477 42.8886 466.677
2341 0 81.0956 19.3105 1566 107.474 42.4438 463.282
2342 0 82.1382 14.6095 1200 115.418 43.665 461.73
2343 0 83.1792 12.8999 1073 118.098 43.3933 460.347
2344 0 88.091 16.7781 1478 112.294 43.2267 452.776
2345 0 91.2172 13.2322 1207 116.301 44.4134 458.822
2346 1 46.1215 10.8409 500 118.356 44.212 472.998
2347 0 50.235 14.1933 713 109.621 44.6648 474.247
2348 0 50.2555 14.1477 711 111.633 43.4444 471.684
2349 0 54.1836 16.7947 910 106.831 45.5385 472.12
2350 0 54.3458 16.0638 873 109.175 45.882 470.519
2351 0 55.352 16.3138 903 108.658 47.0476 472.032
2352 0 56.1144 12.225 686 116.27 46.8018 470.857
2353 0 56.3523 16.0597 905 108.869 47.8608 472.54
2354 0 60.3031 14.6924 886 111.915 48.0722 468.36
2355 0 62.237 15.9551 993 109.256 48.7049 468.545
2356 0 64.5147 15.9344 1028 109.414 48.6459 466.666
2357 0 67.3068 14.4711 974 111.358 48.9045 467.269
2358 0 70.3998 15.2699 1075 109.561 48.6372 467.745
2359 0 71.6136 12.8886 923 111.971 50.0715 469.255
2360 0 72.4627 14.0348 1017 113.083 49.3609 465.125
2361 0 79.5328 14.6103 1162 110.299 48.4157 465.853
2362 0 80.814 14.1065 1140 110.779 47.9789 461.232
2363 0 83.5389 16.8185 1405 106.846 48.4633 462.816
2364 0 87.7867 12.8493 1128 111.981 48.2615 463.676
2365 1 48.4442 8.79362 426 111.599 47.0399 488.458
2366 0 51.7708 10.0636 521 111.71 47.8733 484.115
2367 0 52.4465 12.5461 658 108.248 47.3845 484.654
2368 0 54.8455 11.578 635 110.006 45.7134 483.091
2369 0 58.162 12.1557 707 109.997 45.4752 483.488
2370 0 64.6138 12.7063 821 106.173 44.2899 484.452
2371 0 62.439 12.8605 803 108.183 43.2229 482.207
2372 0 65.3617 14.3509 938 104.61 42.6183 481.177
2373 0 65.5165 13.3859 877 106.965 41.6465 479.112
2374 0 66.7398 12.6911 847 107.426 42.5525 477.03
2375 0 66.6856 11.3218 755 111.332 41.4 473.037
2376 0 73.7778 19.9518 1472 96.6433 40.7582 477.134
2377 0 75.7278 12.4657 944 106.423 40.3845 475.289
2378 0 77.5252 20.058 1555 96.4315 40.0785 475.23
2379 0 77.4078 13.9004 1076 106.18 40.4535 468.02
2380 0 86.9069 18.7787 1632 98.5711 40.2739 464.086
2381 0 83.3475 16.0173 1335 104.62 40.1371 464.24
2382 0 84.6443 13.9525 1181 107.168 39.6435 462.011
2383 0 88.6942 13.8002 1224 106.32 40.9387 464.189
2384 0 91.699 15.071 1382 105.451 41.385 459.37
2385 0 90.4636 14.0941 1275 107.726 41.7176 460.293
2386 0 93.5558 15.2209 1424 107.741 42.3567 460.266
2387 0 96.4447 14.9205 1439 108.923 41.7213 450.017
2388 0 100.46 16.9222 1700 105.863 42.1118 454.411
2389 0 102.468 14.0824 1443 111.408 42.1635 450.062
2390 0 105.372 18.5344 1953 105.363 42.4885 447.378
2391 0 108.528 13.9226 1511 112.205 43.143 444.867
2392 0 110.578 15.1839 1679 110.266 44.6063 448.49
2393 1 64.3426 14.6559 943 105.942 44.2375 471.499
2394 0 64.4442 18.6052 1199 101.82 45.8957 471.613
2395 0 66.1893 15.5916 1032 108.497 45.9516 466.122
2396 0 67.3717 12.7799 861 111.84 47.2369 467.607
2397 0 73.4204 15.7177 1154 106.904 46.9809 464.951
2398 0 74.2184 14.2013 1054 110.322 47.8975 463.535
2399 0 77.3026 14.6955 1136 109.251 48.5026 467.121
2400 0 79.2741 13.2956 1054 110.957 49.8008 465.161
2401 0 82.2946 12.0421 991 113.193 49.7921 464.894
2402 0 84.2089 14.6422 1233 109.586 49.9473 464.289
2403 0 88.2772 14.8849 1314 110.225 49.6514 463.663
2404 0 91.199 17.7962 1623 105.527 48.5299 463.93
2405 0 92.2848 18.3996 1698 104.594 47.765 464.101
2406 0 96.3348 12.7991 1233 111.502 47.1241 468.431
2407 0 98.2365 13.6202 1338 111.617 47.7444 460.575
2408 0 104.232 14.9954 1563 108.571 48.2303 464.273
2409 1 205.541 13.8123 2839 115.088 46.721 408.972
2410 1 112.321 16.0344 1801 106.652 45.6835 457.338
2411 0 116.487 12.5336 1460 111.636 44.2842 458.09
2412 0 124.194 22.3683 2778 97.6285 44.1112 451.082
2413 1 64.2275 11.8174 759 108.538 43.3057 478.955
2414 0 68.0821 14.7763 1006 105.208 43.4245 467.895
2415 0 71.0907 13.0819 930 106.817 42.7828 474.995
2416 0 73.1798 11.9295 873 109.43 43.1077 470.127
2417 0 75.108 19.1857 1441 99.1318 42.0944 471.779
2418 0 79.1284 15.5064 1227 103.819 41.339 467.738
2419 0 81.3072 11.5611 940 108.937 41.6266 465.681
2420 0 83.1323 13.6048 1131 105.852 41.1415 465.576
2421 0 88.2392 15.6393 1380 102.26 41.8486 464.924
2422 0 91.5826 16.2258 1486 101.132 41.5585 464.022
2423 0 91.2045 15.5365 1417 104.414 41.6027 457.016
2424 0 94.346 16.9801 1602 101.742 40.9738 456.591
2425 0 97.178 14.3036 1390 107.33 40.7957 450.807
2426 0 100.194 15.3502 1538 105.244 41.1723 450.014
2427 0 103.32 13.4824 1393 108.421 42.0962 443.968
2428 0 106.365 13.2375 1408 107.753 41.5632 447.48
2429 1 60.147 11.0562 665 107.502 43.212 468.349
2430 0 61.1861 9.9369 608 107.567 43.8109 469.271
2431 0 67.216 13.8509 931 104.04 44.5392 465.656
2432 0 65.1865 15.5554 1014 104.004 45.2288 466.53
2433 0 67.271 12.2787 826 109.534 46.0157 462.778
2434 0 74.3227 14.8811 1106 104.705 46.6094 464.569
2435 0 73.2953 13.2341 970 108.681 47.4052 460.905
2436 0 76.2416 12.985 990 107.656 47.5899 464.234
2437 0 76.3596 16.2128 1238 103.15 47.2746 464.202
2438 0 81.3867 17.7056 1441 102.194 48.313 459.889
2439 0 85.5974 15.5963 1335 104.598 48.9985 460.796
2440 0 85.495 14.8547 1270 104.934 48.4433 460.52
2441 0 89.2437 17.1777 1533 100.315 48.4866 465.629
2442 0 94.4138 13.5997 1284 108.115 48.0436 459.002
2443 0 95.3472 12.187 1162 112.434 49.0146 455.745
2444 0 99.274 15.9055 1579 107.294 47.6232 455.13
2445 1 59.0879 9.71435 574 111.876 50.0906 479.632
2446 0 59.0839 5.61912 332 117.663 48.6325 482.304
2447 0 62.1391 13.0996 814 104.38 47.4496 485.263
2448 0 66.0484 15.201 1004 102.481 47.6335 478.575
2449 0 66.2442 13.2691 879 108.354 47.1866 478.072
2450 0 68.1269 14.3262 976 107.403 46.1404 479.655
2451 0 71.0489 13.3711 950 107.298 46.9147 481.506
2452 0 72.1384 13.5018 974 108.333 44.9292 478.407
2453 0 76.0966 16.7025 1271 101.729 44.7065 481.061
2454 0 77.1607 14.554 1123 105.865 44.4061 468.83
2455 0 80.2329 12.0898 970 108.206 43.034 474.413
2456 0 82.1723 11.269 926 109.464 43.1069 473.865
2457 0 87.1378 16.3534 1425 102.201 42.1698 469.102
2458 0 88.255 13.0757 1154 107.198 42.6075 463.117
2459 0 92.1506 16.6358 1533 101.917 42.1905 466.264
2460 0 98.3432 15.6289 1537 101.843 41.7476 462.61
2461 0 99.2651 21.1756 2102 95.9581 41.5899 461.176
2462 0 102.58 15.9095 1632 100.472 41.3254 464.788
2463 0 103.192 12.0843 1247 107.073 42.4675 457.103
2464 0 104.354 15.6008 1628 102.668 41.2101 452.85
2465 0 109.249 17.8492 1950 100.336 41.2267 446.226
2466 1 61.1516 12.6407 773 103.489 41.5576 472.085
2467 0 60.2923 11.2618 679 105.72 41.7526 472.726
2468 0 66.4206 10.5088 698 109.997 42.0544 470.635
2469 0 66.1444 12.4576 824 106.784 41.7342 466.4
2470 0 68.0451 13.2559 902 107.82 42.3126 468.139
2471 0 70.0605 13.7167 961 107.911 43.0135 466.878
2472 0 70.1412 11.3485 796 110.187 43.2952 463.755
2473 0 73.1294 13.2095 966 108.416 44.4369 465.294
2474 0 76.21 12.3081 938 110.893 44.6194 460.94
2475 0 79.3292 14.4839 1149 109.082 45.3325 457.037
2476 0 84.2302 11.0056 927 114.525 46.6634 459.571
2477 0 87.188 15.3691 1340 107.649 46.106 460.344
2478 0 88.1251 13.0496 1150 112.752 47.4548 457.815
2479 0 93.3084 13.1821 1230 112.067 45.8553 453.072
2480 0 98.4215 17.5267 1725 105.982 47.4336 451.51
2481 0 98.1625 18.1841 1785 107.245 47.4846 454.267
2482 0 103.191 16.6778 1721 109.009 48.2725 453.175
2483 0 105.244 14.6042 1537 112.927 47.4346 448.711
2484 0 109.167 14.8763 1624 111.852 48.3984 453.078
2485 0 113.649 12.6002 1432 114.683 46.8373 453.499
2486 1 61.1139 10.1123 618 113.04 47.5388 478.23
2487 0 65.306 13.5057 882 107.553 47.3673 477.015
2488 0 69.209 12.4261 860 106.841 47.0709 480.742
2489 0 73.229 11.7576 861 109.495 48.4274 474.577
2490 0 73.1758 10.5909 775 112.915 47.7819 470.925
2491 0 78.4904 16.9448 1330 102.579 47.7023 472.291
2492 0 80.235 15.4421 1239 105.377 46.4835 472.834
2493 0 83.2844 19.0312 1585 99.2965 45.5356 476.89
2494 0 86.7417 15.6211 1355 103.853 45.3956 473.934
2495 0 88.3853 16.1113 1424 104.636 43.2521 470.022
2496 0 95.6009 17.9078 1712 100.969 42.8119 467.14
2497 0 94.5234 13.8273 1307 108.224 40.8998 464.687
2498 0 96.6054 21.2721 2055 100.191 41.9504 463.86
2499 0 101.705 15.9383 1621 105.964 41.467 465.415
2500 0 102.594 12.9248 1326 110.53 40.9449 461.068
2501 0 109.735 15.6558 1718 105.051 40.4668 461.151
2502 0 113.567 16.6597 1892 104.807 40.6147 455.19
2503 1 59.2559 13.3151 789 108.65 40.5513 472.598
2504 0 64.4076 11.7067 754 108.584 41.1127 477.096
2505 0 66.1512 15.903 1052 103.057 40.0494 475.266
2506 0 68.358 14.9214 1020 104.975 40.4598 473.778
2507 0 68.2374 13.5703 926 108.776 40.8769 468.524
2508 0 71.2894 13.2979 948 109.305 40.0348 466.951
2509 0 75.5488 16.2014 1224 104.117 41.5106 464.877
2510 0 76.2642 16.9673 1294 105.047 42.1932 461.984
2511 0 78.4371 13.5268 1061 110.484 42.7352 461.127
2512 0 78.4381 13.5266 1061 112.254 42.4948 458.067
2513 0 84.3133 14.0547 1185 110.5 43.4515 457.965
2514 0 87.4095 16.8632 1474 106.849 43.4512 454.191
2515 0 90.3227 18.2568 1649 103.696 44.5616 458.224
2516 0 91.3241 15.4286 1409 109.906 45.296 448.983
2517 0 98.7726 21.4331 2117 100.718 46.6311 455.101
2518 0 97.3727 15.682 1527 110.902 47.1657 446.356
2519 0 102.375 15.0329 1539 112.269 46.6855 447.057
2520 0 106.725 17.6997 1889 107.8 47.1863 446.942
2521 0 110.655 17.4777 1934 108.813 46.9969 445.584
2522 1 61.7291 12.8465 793 111.618 48.1892 470.782
2523 0 61.7291 12.9437 799 147.826 49.1627 470.777
2524 0 62.3021 19.6462 1224 102.529 48.9428 474.888
2525 0 65.1801 14.9892 977 111.37 48.5036 468.014
2526 0 65.3554 11.7205 766 116.101 48.8564 471.35
2527 0 71.181 14.3859 1024 110.726 48.6553 472.574
2528 0 73.2902 16.7144 1225 107.909 49.1682 472.383
2529 0 78.1579 16.4155 1283 107.691 48.3102 470.716
2530 0 80.5401 16.0044 1289 107.936 47.4026 469.147
2531 0 82.3702 14.7383 1214 109.062 48.1359 469.858
2532 0 85.273 12.7356 1086 114.808 46.5101 465.651
2533 0 91.1981 13.1582 1200 114.251 45.9208 467.843
2534 0 93.335 14.3676 1341 113.188 44.6391 462.55
2535 0 96.5178 23.4154 2260 99.0243 44.1071 466.275
2536 0 100.351 14.0906 1414 112.569 44.1931 460.813
2537 0 103.863 15.2508 1584 113.134 41.815 449.04
2538 0 106.985 19.3486 2070 107.63 41.9039 448.143
2539 0 111.041 18.6418 2070 107.63 41.6203 446.551
2540 1 61.738 12.8284 792 110.149 41.0379 474.35
2541 0 62.1917 13.0564 812 112.713 40.2401 468.876
2542 0 61.3755 13.0834 803 114.148 40.0112 468.29
2543 0 64.6594 11.2281 726 116.73 39.6873 468.397
2544 0 67.4302 12.9319 872 114.108 40.5424 464.438
2545 0 72.7668 16.9171 1231 107.407 41.537 464.183
2546 0 71.3392 16.022 1143 108.702 40.3395 462.363
2547 0 74.4539 18.6156 1386 105.512 41.4228 458.522
2548 0 76.6343 15.3065 1173 109.909 40.7289 456.703
2549 0 83.265 19.4439 1619 101.305 40.8345 461.662
2550 0 81.4716 13.3298 1086 113.242 41.36 454.587
2551 0 85.7689 12.8951 1106 113.45 41.5669 453.358
2552 0 86.8089 14.1115 1225 111.931 42.6498 452.211
2553 0 89.6434 14.3123 1283 111.612 41.5853 449.351
2554 0 93.7828 15.9624 1497 109.249 44.3447 448.151
2555 0 94.992 14.4223 1370 111.657 43.2445 447.104
2556 0 99.5124 14.3701 1430 110.704 44.3483 449.481
2557 0 102.815 14.8228 1524 110.406 44.647 441.751
2558 1 55.3648 13.6368 755 112.377 45.8689 465.355
2559 0 57.4808 12.4389 715 113.129 45.242 465.059
2560 0 58.306 14.6469 854 110.742 47.0129 464.34
2561 0 62.3973 13.5583 846 114.301 46.3806 462.848
2562 0 61.6301 12.6237 778 115.499 47.2314 463.37
2563 0 70.9721 15.3159 1087 107.426 48.644 467.172
2564 0 70.5166 13.2593 935 113.537 47.9487 465.352
2565 0 70.8366 12.4371 881 117.509 48.6481 463.936
2566 0 67.5242 10.026 677 123.112 47.4978 463.13
2567 0 77.8064 14.716 1145 112.425 47.3415 465.969
2568 0 80.8173 15.999 1293 111.04 46.9505 465.002
2569 0 83.8788 13.5076 1133 115.322 47.2198 466.799
2570 0 86.5137 13.6163 1178 115.415 46.6341 464.971
2571 0 89.7432 12.9258 1160 117.375 46.8845 462.284
2572 0 96.7371 15.599 1509 111.84 46.5951 461.928
2573 0 98.7646 14.7117 1453 113.79 46.1308 462.3
2574 0 102.372 12.8844 1319 116.689 45.1175 458.267
2575 0 104.54 13.3537 1396 114.921 44.1211 460.067
2576 0 109.527 14.1061 1545 113.419 42.5864 455.96
2577 1 61.4195 12.1134 744 111.478 43.5134 481.263
2578 0 59.5106 11.3593 676 110.194 42.3609 482.373
2579 0 62.3962 12.0841 754 111.739 41.4098 473.777
2580 0 63.5268 15.2691 970 108.585 41.8845 470.509
2581 0 67.734 14.055 952 109.445 40.3193 474.653
2582 0 68.2821 11.7454 802 115.89 40.5598 470.087
2583 0 72.7602 13.194 960 111.272 40.575 468.885
2584 0 72.6263 10.6848 776 114.857 39.7113 470.303
2585 0 75.8657 13.8666 1052 109.781 40.174 465.477
2586 0 79.7133 12.7708 1018 109.735 40.225 468.013
2587 0 82.4742 15.811 1304 105.395 40.1258 465.931
2588 0 84.7928 15.9094 1349 106.456 40.2157 462.543
2589 0 84.8304 14.5113 1231 107.911 40.3274 463.246
2590 0 88.4527 20.282 1794 100.963 40.6516 458.126
2591 0 88.7976 12.8832 1144 112.521 42.0865 456.203
2592 0 93.4136 16.8284 1572 106.812 41.4141 451.228
2593 0 94.4916 14.4457 1365 109.367 42.896 453.716
2594 0 98.4187 16.2367 1598 107.551 42.5576 449.303
2595 0 102.308 14.8571 1520 110.259 42.5401 448.746
2596 0 100.358 13.9999 1405 112.371 43.8548 449.559
2597 0 107.557 20.6401 2220 102.3 44.3464 446.024
2598 0 109.358 15.4812 1693 107.623 44.2215 444.815
2599 0 113.43 13.1358 1490 111.833 46.3879 439.602
2600 0 117.238 14.8331 1739 108.462 46.1702 441.957
2601 0 123.519 14.2812 1764 108.765 46.3742 438.048
2602 1 71.1782 10.256 730 108.471 46.6137 463.416
2603 0 74.1684 12.4986 927 105.131 47.246 465.207
2604 0 78.3047 13.1537 1030 108.928 46.7155 462.779
2605 0 81.32 16.2814 1324 103.759 46.7002 461.61
2606 0 82.1862 14.5523 1196 105.312 45.735 459.358
2607 0 85.1905 13.2292 1127 109.576 45.7853 460.058
2608 0 88.1902 11.6793 1030 111.461 45.5573 457.106
2609 0 91.241 13.4917 1231 109.154 46.1357 458.886
2610 0 98.2217 12.8892 1266 109.793 46.3349 460.381
2611 0 101.36 12.8452 1302 109.366 44.768 458.222
2612 0 103.837 11.6625 1211 109.306 45.1412 453.2
2613 0 111.292 14.0531 1564 106.535 46.4271 462.061
2614 0 113.279 12.4471 1410 109.182 45.4043 458.952
2615 0 117.328 12.2477 1437 110.398 45.0536 450.228
2616 0 124.382 14.2866 1777 105.796 43.4603 450.823
2617 0 127.547 13.8146 1762 106.426 42.9257 450.447
2618 0 133.614 18.7256 2502 98.9001 42.1819 450.005
2619 0 135.404 15.5092 2100 104.368 42.1571 439.321
2620 0 139.531 11.6748 1629 108.875 40.9165 444.044
2621 0 143.436 10.625 1524 111.914 41.2769 442.667
2622 0 147.69 12.3908 1830 109.695 40.1913 439.619
2623 0 153.505 14.3969 2210 108.708 40.0738 429.128
2624 0 156.708 13.4454 2107 109.852 39.8794 429.824
2625 0 166.001 16.5662 2750 106.508 39.7695 418.954
2626 0 164.702 12.9567 2134 112.013 40.0712 419.098
2627 0 173.788 15.8239 2750 107.439 39.3887 418.033
2628 0 180.885 21.6713 3920 100.312 39.7342 410.798
2629 0 185.549 21.1265 3920 98.201 39.5321 417.906
2630 0 186.603 11.8326 2208 111.797 39.9669 408.324
2631 0 192.542 13.8152 2660 108.961 40.4286 400.917
2632 0 201.125 10.9235 2197 112.015 40.1985 403.488
2633 0 207.594 21.913 4549 97.9653 40.2211 398.75
2634 0 211.75 16.4109 3475 106.607 40.7407 393.199
2635 1 59.4376 12.4332 739 100.399 42.1218 471.662
2636 0 63.1657 12.8709 813 100.399 43.679 472.696
2637 0 61.2359 12.5417 768 98.418 44.1055 471.374
2638 0 63.1876 10.8091 683 102.518 45.0966 467.004
2639 0 68.1979 12.5077 853 102.828 44.3634 469.468
2640 0 67.1596 11.763 790 104.994 43.8392 465.484
2641 0 69.2009 9.75421 675 107.856 44.5541 465.684
2642 0 70.1706 8.79285 617 100.076 49.5041 466.788
2643 1 53.0999 12.5424 666 91.8919 49.4144 480.248
2644 0 50.1171 8.63976 433 96.8753 50.7714 485.12
2645 0 46.0686 10.1805 469 96.42 46.9403 481.245
2646 1 97.2624 14.6202 1422 93.289 47.2032 463.277
2647 0 99.5022 13.5977 1353 95.1685 46.646 455.416
2648 0 102.383 12.756 1306 97.0995 47.0505 456.076
2649 1 56.1315 14.2522 800 92.5125 46.9912 483.126
2650 0 55.134 5.47756 302 101.179 45.0364 478.606
2651 0 59.1471 10.4823 620 95.4661 46.3806 482.753
2652 0 63.3396 14.367 910 91.233 43.9209 479.586
2653 0 64.161 9.02417 579 98.6874 44.361 479.696
2654 0 67.4083 14.924 1006 92.8897 42.3211 479.878
2655 0 65.2724 10.0655 657 97.2588 40.7732 474.209
2656 0 67.404 8.26361 557 97.3573 40.9605 477.183
2657 1 127.484 8.39318 1070 99.1991 40.0411 459.525
2658 1 79.7375 13.6197 1086 93.7827 38.0884 464.306
2659 0 76.7136 15.786 1211 94.3138 38.3823 465.865
2660 0 76.3338 12.7728 975 96.88 37.2851 463.47
2661 0 81.6359 14.6504 1196 95.0008 38.7308 462.263
2662 0 85.4187 11.9646 1022 96.2094 38.7495 463.835
2663 0 84.3698 13.8912 1172 94.5111 37.0444 466.381
2664 0 88.9359 13.7515 1223 94.646 37.9501 462.383
2665 0 95.9008 19.5306 1873 89.9247 37.6097 462.593
2666 0 92.5419 20.0342 1854 91.117 37.5146 461.661
2667 0 94.4991 14.6033 1380 95.621 37.2261 452.104
2668 0 100.919 14.6553 1479 92.979 37.6234 463.205
2669 0 100.655 17.9822 1810 94.1459 38.1348 451.085
2670 0 102.643 14.8282 1522 97.8357 38.27 446.939
2671 0 110.649 22.1241 2448 90.6687 38.6973 449.564
2672 1 65.5595 13.7127 899 93.644 39.4372 469.301
2673 0 67.7141 18.0317 1221 89.1294 40.1998 472.676
2674 0 67.3284 11.6444 784 98.4043 40.7372 466.281
2675 0 72.2898 10.1674 735 97.415 42.4218 471.902
2676 0 70.2268 14.9231 1048 97.1508 42.0057 463.373
2677 0 70.4148 15.0111 1057 98.3179 41.8477 462.508
2678 0 72.5465 11.6477 845 101.253 43.116 466.296
2679 0 75.4045 12.8905 972 100.224 44.2006 462.836
2680 0 79.5959 19.3854 1543 93.7958 44.4076 460.379
2681 0 79.7937 13.961 1114 98.3716 44.5233 464.712
2682 0 84.5663 17.371 1469 95.3091 43.4826 462.421
2683 0 85.5473 11.5959 992 101.644 45.2329 463.333
2684 0 85.8655 11.4598 984 103.446 44.7419 457.158
2685 0 91.3192 12.3194 1125 99.3671 45.2604 463.82
2686 0 94.2801 13.1947 1244 101.219 44.8489 450.094
2687 0 95.4301 12.2708 1171 102.229 45.1699 455.039
2688 0 104.111 22.9178 2386 90.1861 44.4128 465.172
2689 0 101.903 12.3157 1255 101.359 43.1386 462.382
2690 0 104.722 12.5093 1310 103.203 44.4275 451.206
2691 0 110.688 16.5781 1835 97.3226 44.4752 455.823
2692 0 111.848 15.2886 1710 98.4099 43.4047 457.98
2693 0 116.897 12.7719 1493 101.145 43.3979 451.507
2694 0 120.491 16.7896 2023 96.9659 42.302 443.4
2695 0 124.826 14.6844 1833 98.4539 42.0229 445.995
2696 1 75.4385 9.00071 679 98.3667 42.5346 473.152
2697 0 79.6635 17.9128 1427 89.8753 41.7365 470.254
2698 0 82.6664 12.7621 1055 96.3147 41.6436 469.524
2699 0 84.4761 17.4842 1477 89.7698 40.9661 469.626
2700 0 87.6508 12.5498 1100 90.7527 39.6227 472.534
2701 0 87.7699 20.3259 1784 88.9277 38.7988 468.371
2702 0 92.7357 18.7738 1741 81.834 37.7904 465.203
2703 0 96.6146 12.2756 1186 86.2361 38.6273 463.161
2704 0 99.8156 15.0277 1500 85.4547 37.3493 457.684
2705 0 105.081 21.4216 2251 81.4811 36.988 461.109
2706 0 110.915 19.5646 2170 82.353 37.3641 460.154
2707 0 108.963 16.143 1759 85.6083 37.494 453.873
2708 0 113.875 16.2547 1851 84.7855 37.1064 456.976
2709 0 117.726 16.2921 1918 86.5678 37.451 443.648
2710 0 125.653 8.16534 1026 91.6832 38.1813 454.036
2711 0 120.722 12.6572 1528 89.8914 38.7166 440.405
2712 1 72.239 11.9603 864 85.7789 40.1366 473.69
2713 0 75.3514 13.4702 1015 86.8916 39.4956 465.948
2714 0 79.4877 18.3425 1458 83.6639 39.3978 462.056
2715 0 77.4025 12.7515 987 89.7234 40.4802 458.141
2716 0 88.211 16.5172 1457 85.1407 41.3219 460.17
2717 0 85.4663 16.1701 1382 83.2127 41.2402 469.502
2718 0 86.6359 12.8122 1110 88.7865 42.2045 455.415
2719 0 91.7327 16.4827 1512 85.6429 41.871 453.701
2720 0 90.8139 11.9916 1089 89.7135 43.0018 455.493
2721 0 92.5316 9.99658 925 92.8 43.1546 453.205
2722 0 94.3462 12.6873 1197 90.5614 41.6784 442.138
2723 0 101.95 11.28 1150 91.4626 43.3383 456.487
2724 0 103.612 19.7757 2049 85.2879 43.4822 451.114
2725 0 106.917 14.9275 1596 88.943 44.1742 452.722
2726 0 111.303 17.403 1937 87.4621 44.8844 447.339
2727 0 114.751 16.5314 1897 87.7275 44.5741 451.678
2728 0 120.294 17.2079 2070 87.0986 44.2952 452.967
2729 0 120.427 14.731 1774 88.9301 45.2198 438.541
2730 0 125.663 19.6398 2468 85.3059 44.7622 448.66
2731 1 73.2152 15.871 1162 87.3124 46.0869 474.111
2732 0 74.3858 18.6595 1388 86.5158 44.17 471.033
2733 0 80.8755 17.9659 1453 84.9924 44.9319 473.612
2734 0 80.5198 13.475 1085 89.8682 44.4811 470.484
2735 0 85.5046 16.4085 1403 87.3421 44.1889 468.775
2736 1 152.044 17.0872 2598 87.5146 44.3595 439.57
2737 0 159.979 12.2016 1952 92.1322 43.3863 428.79
2738 0 163.939 18.336 3006 87.3929 42.7744 431.502
2739 0 169.187 14.6938 2486 89.0644 41.926 440.663
2740 0 175.201 18.8298 3299 88.0212 42.0194 427.36
2741 0 173.165 12.1272 2100 93.1462 41.0857 434.202
2742 0 182.24 21.7461 3963 85.5705 39.9576 430.208
2743 0 383.41 32.5918 12496 78.8272 39.464 303.27
2744 1 109.091 21.5141 2347 85.2245 38.9702 459.784
2745 0 111.902 15.871 1776 89.5118 39.0771 456.608
2746 1 61.3743 10.9981 675 90.4207 39.4474 480.67
2747 0 60.3156 10.1135 610 93.2934 39.2279 476.659
2748 0 65.5674 15.77 1034 86.471 38.1074 482.1
2749 0 69.4774 15.0409 1045 86.7215 36.2612 478.566
2750 0 71.2331 15.2317 1085 86.4535 37.7972 479.216
2751 0 70.5189 14.9038 1051 88.9106 37.764 476.006
2752 0 73.8398 23.1853 1712 83.2605 37.7634 473.957
2753 0 81.1836 19.5975 1591 85.6838 38.4871 465.214
2754 0 77.4462 15.3526 1189 97.2178 38.8823 467.246
2755 0 80.3035 14.5324 1167 94.7918 39.5227 466.811
2756 0 82.1495 12.3799 1017 99.2153 39.8761 460.209
2757 0 82.5817 17.5342 1448 94.6934 40.1644 455.452
2758 0 85.7275 17.6723 1515 92.0238 40.7287 459.917
2759 0 91.6707 14.4757 1327 92.4408 41.9812 464.068
2760 0 93.514 16.9707 1587 93.2281 41.3264 456.4
2761 0 93.638 11.6192 1088 97.5156 43.2491 456.632
2762 0 100.667 22.2119 2236 89.2773 42.8895 454.589
2763 0 97.471 11.4906 1120 100.377 43.2277 449.423
2764 0 102.64 23.9186 2455 88.9747 42.8163 454.535
2765 0 97.6538 12.1654 1188 101.591 44.1431 442.986
2766 0 108.613 16.6095 1804 98.1131 45.6336 442.241
2767 0 108.248 11.9448 1293 101.721 44.6295 451.91
2768 0 110.205 14.2643 1572 100.251 46.4866 445.46
2769 0 119.415 16.5976 1982 97.5459 46.5903 448.427
2770 0 121.836 15.4224 1879 99.4976 46.0692 445.262
2771 0 124.508 17.1394 2134 97.8383 45.9962 445.541
2772 0 129.803 19.2677 2501 93.0232 46.4802 451.008
2773 0 136.667 17.0195 2326 95.5387 46.2532 445.27
2774 1 77.1937 14.8328 1145 93.1441 46.9493 472.597
2775 0 79.8293 14.3556 1146 96.699 46.6047 472.046
2776 0 80.4604 16.0203 1289 96.1171 45.9007 469.363
2777 0 85.4975 17.942 1534 94.2314 45.9413 465.795
2778 0 84.2491 9.11582 768 103.755 46.7331 465.113
2779 0 91.2531 15.1666 1384 96.9299 46.3548 464.318
2780 0 90.2169 12.5032 1128 100.504 44.6977 463.144
2781 0 94.3986 22.4474 2119 90.554 44.1 459.993
2782 0 97.6733 16.5449 1616 94.6324 44.7921 468.17
2783 0 100.53 13.8367 1391 97.8512 43.4515 458.991
2784 0 103.558 15.2765 1582 95.9829 43.024 460.552
2785 0 107.332 17.1711 1843 94.1514 42.8291 456.606
2786 0 114.484 13.9671 1599 95.384 42.6986 459.651
2787 1 63.2364 15.9718 1010 91.7535 41.1604 479.033
2788 0 64.1342 13.004 834 95.9952 42.735 474.447
2789 0 68.3249 20.7392 1417 88.3225 41.0805 472.938
2790 0 73.3217 13.7749 1010 94.7584 41.0129 473.085
2791 0 76.3217 26.991 2060 84.2374 39.2903 463.586
2792 0 77.431 14.3224 1109 93.1578 40.2101 470.225
2793 0 79.445 18.239 1449 89.8972 39.9082 462.27
2794 0 84.2615 10.6217 895 97.2458 40.6782 461.492
2795 0 78.2109 6.30347 493 103.651 40.6471 452.053
2796 0 89.327 16.5683 1480 92.5966 39.7135 454.855
2797 0 91.7189 12.0041 1101 96.9746 39.505 456.599
2798 0 95.3774 14.2906 1363 95.4395 40.6999 453.046
2799 0 92.3427 11.0783 1023 100.719 41.8964 446.878
2800 0 97.5952 13.3203 1300 97.54 41.4731 449.358
2801 0 98.5159 12.0691 1189 100.569 42.2321 444.498
2802 0 104.964 19.9973 2099 90.0729 42.4307 451.494
2803 0 105.606 13.5882 1435 97.2571 43.3993 441.837
2804 0 109.643 13.6352 1495 96.9752 43.8729 442.314
2805 0 113.551 13.9761 1587 97.8733 45.443 441.393
2806 0 118.697 21.0958 2504 91.2021 44.4513 438.979
2807 0 116.848 14.797 1729 97.6333 45.2244 431.668
2808 0 120.635 12.2684 1480 100.086 45.6547 437.015
2809 0 125.478 17.4532 2190 93.9886 46.0479 440.329
2810 0 129.941 11.4898 1493 101.313 47.2204 423.538
2811 0 134.868 15.8674 2140 95.8332 47.5523 435.378
2812 0 136.735 12.9887 1776 99.5602 47.5372 434.356
2813 0 142.989 18.8477 2695 94.6724 47.9069 425.517
2814 0 145.787 12.3674 1803 100.314 48.0355 428.286
2815 0 150.58 18.7342 2821 93.8284 47.184 435.499
2816 0 154.446 12.1272 1873 102.454 48.4298 425.899
2817 0 164.662 19.8528 3269 93.9529 46.9801 427.614
2818 1 98.7323 16.8638 1665 94.2162 48.233 460.554
2819 0 103.68 17.2936 1793 95.6598 46.3603 461.502
2820 0 100.894 10.407 1050 105.097 46.4771 453.776
2821 0 107.605 14.8227 1595 97.9699 45.3492 461.766
2822 0 113.611 18.3521 2085 93.9755 46.9655 462.894
2823 0 113.435 12.8179 1454 101.968 46.3315 457.155
2824 0 114.774 11.7623 1350 104.859 45.3756 455.315
2825 0 121.237 12.8921 1563 103.812 45.62 454.399
2826 0 125.951 16.0062 2016 100.53 44.7356 449.686
2827 0 128.888 15.5251 2001 102.259 43.7611 444.069
2828 0 130.764 13.3141 1741 105.149 42.5261 443.169
2829 0 136.018 21.8427 2971 95.5789 41.8694 445.807
2830 1 80.4226 12.9939 1045 100.614 41.7311 469.548
2831 0 81.734 16.2478 1328 98.0143 41.4194 461.947
2832 0 83.8295 13.8495 1161 98.6348 41.3308 470.936
2833 0 87.7477 15.1115 1326 95.1795 41.3967 473.889
2834 0 88.3961 12.1499 1074 102.303 40.6304 455.713
2835 0 92.816 12.2716 1139 100.687 40.6971 461.643
2836 0 98.6637 13.845 1366 99.9341 41.0293 457.094
2837 0 101.683 12.7553 1297 98.4657 40.771 464.476
2838 0 106.671 16.9681 1810 96.0978 40.9332 455.029
2839 0 108.641 14.9943 1629 97.0823 41.3094 458.239
2840 0 113.906 30.534 3478 86.72 40.4787 443.539
2841 0 114.633 23.3528 2677 91.6182 41.2682 444.033
2842 0 120.686 19.3892 2340 92.8718 41.7662 452.212
2843 0 117.802 15.8486 1867 101.271 42.2989 440.144
2844 0 128.467 28.4742 3658 88.8991 41.1457 436.596
2845 0 129.657 15.4254 2000 100.43 42.394 438.188
2846 0 133.792 15.128 2024 100.403 43.2169 438.436
2847 0 137.596 13.3725 1840 104.522 44.1837 428.717
2848 1 80.4812 12.8602 1035 100.795 44.7382 460.782
2849 0 79.7105 11.4038 909 103.325 45.7624 457.311
2850 0 87.3011 14.3297 1251 96.6771 46.4948 460.319
2851 0 90.3746 23.1149 2089 88.6539 46.2427 452.304
2852 0 94.2636 24.1663 2278 86.079 46.7647 460.189
2853 0 95.2801 18.2619 1740 90.4264 48.6368 458.294
2854 0 98.2579 16.0903 1581 94.0285 48.136 452.901
2855 0 98.2346 13.3354 1310 96.929 48.745 452.719
2856 0 104.258 15.6726 1634 95.4388 47.776 440.255
2857 0 104.236 23.5332 2453 88.2417 48.8231 447.62
2858 0 112.764 20.0773 2264 88.9099 49.2041 453.674
2859 0 113.62 16.388 1862 93.6251 50.2718 450.909
2860 1 211.949 19.7217 4180 95.5 48.4287 400.914
2861 1 120.472 20.9509 2524 91.3784 48.7104 443.434
2862 1 71.2416 15.286 1089 94.7025 49.3214 465.153
2863 0 71.1936 14.1726 1009 96.5054 50.0466 467.28
2864 0 75.2024 11.9943 902 98.6508 49.0965 474.376
2865 0 78.2685 18.4238 1442 92.2545 48.0902 477.217
2866 0 84.7062 15.1465 1283 95.8472 48.198 472.914
2867 0 82.3911 16.4702 1357 95.3235 47.8578 469.912
2868 0 83.2937 13.2543 1104 100.129 48.2754 470.402
2869 0 88.4886 13.8549 1226 99.6354 47.2227 467.042
2870 0 93.2618 13.06 1218 100.228 46.5394 466.243
2871 0 95.6359 17.5875 1682 95.6284 44.566 456.436
2872 0 101.516 18.9133 1920 92.7458 44.8422 466.95
2873 0 99.503 14.1704 1410 99.0255 44.2986 460.033
2874 0 100.395 9.11401 915 104.815 43.7486 455.845
2875 0 109.349 15.6654 1713 96.6696 43.5984 459.342
2876 0 114.235 25.5088 2914 88.0631 42.5309 457.243
2877 0 116.649 16.5368 1929 95.6729 43.3727 456.355
2878 0 114.433 12.8721 1473 100.492 42.6361 450.171
2879 0 123.484 19.1118 2360 91.7326 41.9161 447.347
2880 0 124.325 15.9662 1985 95.2343 42.4866 442.732
2881 0 131.523 18.9852 2497 91.5839 40.7645 443.975
2882 1 70.5378 12.1495 857 99.0035 41.8063 467.862
2883 0 74.1744 14.5198 1077 97.26 40.8403 462.415
2884 0 78.242 17.3947 1361 93.1308 43.7399 463.108
2885 0 82.3026 16.8403 1386 92.4401 44.0375 463.756
2886 0 84.4983 22.6277 1912 86.3065 43.2165 465.988
2887 0 84.409 19.6188 1656 91.0803 43.0531 459.386
2888 0 89.156 20.0884 1791 90.7219 43.8068 457.007
2889 0 93.3873 15.1948 1419 96.5039 44.74 452.442
2890 0 98.7866 23.9709 2368 87.7209 44.4358 447.807
2891 0 95.4083 13.1435 1254 98.6571 46.1053 449.77
2892 0 98.2875 14.0201 1378 98.143 46.8026 448.775
2893 0 101.319 19.1276 1938 93.5335 46.9066 442.882
2894 0 103.262 15.5914 1610 96.6764 47.4012 443.742
2895 0 107.396 17.9615 1929 93.3219 47.5811 450.959
2896 0 110.564 13.9015 1537 98.866 49.4561 444.658
2897 0 112.601 20.7902 2341 92.1158 48.2503 447.586
2898 0 118.552 25.0692 2972 88.6208 48.3577 445.425
2899 0 118.21 18.1964 2151 94.8526 49.2748 435.986
2900 0 123.636 17.8831 2211 94.3804 49.445 447.574
2901 0 129.56 14.364 1861 98.8243 50.3332 439.092
2902 0 134.868 15.5931 2103 95.0247 49.1165 447.642
2903 0 136.54 16.6325 2271 96.6262 49.9996 439.183
2904 0 144.559 26.9786 3900 86.7377 49.1382 437.62
2905 1 83.6419 16.0207 1340 92.0925 48.4657 465.013
2906 0 85.2548 14.2279 1213 95.8046 50.0519 466.714
2907 0 85.5644 16.1516 1382 92.1802 49.8582 469.176
2908 0 87.45 19.0052 1662 90.6703 48.9639 463.837
2909 0 94.2594 16.6456 1569 91.9337 49.0656 462.409
2910 0 96.7502 22.0568 2134 87.5314 47.4517 463.06
2911 0 94.4364 9.04312 854 99.4321 47.781 466.578
2912 0 98.7833 19.7908 1955 91.2573 47.2414 459.345
2913 0 99.5049 17.2755 1719 94.0506 46.7568 455.992
2914 0 107.899 20.6582 2229 89.1821 45.7335 462.37
2915 0 110.602 16.2203 1794 94.6996 45.8746 447.57
2916 0 108.644 19.8906 2161 89.9995 44.1911 461.845
2917 0 112.258 15.8742 1782 94.1089 44.5471 444.7
2918 0 117.354 16.5397 1941 92.4683 43.2112 452.221
2919 0 118.524 12.1831 1444 98.0485 43.4979 437.389
2920 0 128.484 13.239 1701 96.284 42.5985 434.974
2921 0 135.053 20.0366 2706 87.8008 43.2598 449.189
2922 1 77.6782 12.5389 974 93.9661 42.27 462.763
2923 0 80.9179 14.3602 1162 88.3709 43.3916 471.319
2924 0 82.3901 15.3174 1262 91.0555 43.981 456.955
2925 0 92.7719 25.9022 2403 80.7557 42.7054 463.394
2926 0 90.7253 20.9313 1899 85.3813 42.6203 445.214
2927 0 95.4247 23.1701 2211 84.3324 41.7897 446.503
2928 0 96.2049 15.1656 1459 90.891 42.9034 448.71
2929 0 97.4844 19.757 1926 87.7347 42.8525 453.355
2930 0 100.41 23.5534 2365 84.9011 42.1175 454.362
2931 0 104.678 21.0455 2203 87.4539 43.4825 450.062
2932 0 104.418 13.5322 1413 94.8868 45.4869 443.791
2933 0 110.542 23.5748 2606 86.9701 43.9102 443.405
2934 0 112.395 15.9437 1792 93.6853 45.6858 433.054
2935 0 114.202 13.2134 1509 97.395 46.7541 436.301
2936 0 118.264 14.5437 1720 96.539 45.8564 432.798
2937 1 71.3002 12.1037 863 96.5238 47.1553 459.431
2938 0 71.4275 12.3202 880 96.6477 45.683 460.288
2939 0 78.1913 14.6436 1145 93.0323 49.0009 464.538
2940 0 77.2472 13.8516 1070 95.5561 49.1439 456.357
2941 0 82.3179 15.1122 1244 93.1608 49.9791 460.674
2942 0 79.2137 13.5835 1076 96.856 50.9377 458.95
2943 0 82.1504 10.566 868 101.756 50.6325 455.184
2944 0 89.1444 13.5062 1204 96.809 51.0706 460.92
2945 0 88.2579 24.587 2170 87.1161 50.4461 461.944
2946 0 95.5657 20.3944 1949 89.1514 50.3987 459.228
2947 0 98.2112 17.3605 1705 91.6452 50.5894 456.042
2948 0 100.261 15.5893 1563 92.5803 50.5624 459.155
2949 0 100.341 14.2813 1433 92.9274 50.1975 464.822
2950 0 103.324 11.1494 1152 97.2977 49.6979 456.604
2951 0 109.219 16.6089 1814 91.5948 49.9432 459.612
2952 0 111.486 18.7467 2090 90.2038 49.1809 456.433
2953 0 111.335 14.4069 1604 95.3236 48.3423 448.962
2954 0 121.52 19.3548 2352 90.3699 47.807 453.792
2955 0 123.352 16.2462 2004 92.9376 46.3772 438.274
2956 0 128.336 18.6619 2395 90.7937 47.3779 448.262
2957 0 128.185 14.8613 1905 95.2546 45.3213 444.788
2958 0 134.402 19.531 2625 90.0705 45.4419 451.244
2959 1 81.1847 16.6041 1348 87.6558 45.7574 474.123
2960 0 79.1538 13.0253 1031 93.1125 45.291 468.208
2961 0 80.226 11.2806 905 96.4221 44.8066 461.212
2962 0 84.2144 17.8592 1504 88.6895 43.9987 470.85
2963 0 87.4857 10.7675 942 95.1231 42.4798 465.343
2964 0 91.7727 15.0154 1378 90.7046 43.4913 466.41
2965 0 93.1777 14.7246 1372 91.4847 42.0882 466.179
2966 0 92.4201 16.7821 1551 91.6273 42.1457 455.507
2967 0 95.6369 21.2366 2031 86.8356 41.7041 463.83
2968 0 101.33 18.5829 1883 90.0908 42.0181 452.492
2969 0 104.442 27.3167 2853 84.6092 41.4791 449.473
2970 0 104.598 16.3483 1710 92.679 41.7725 453.013
2971 0 106.541 21.5598 2297 89.7397 42.3988 441.292
2972 0 114.678 14.7282 1689 94.135 42.6838 445.899
2973 0 114.272 16.3732 1871 92.2443 43.2336 450.221
2974 0 114.398 14.1349 1617 95.9944 43.666 434.2
2975 0 118.623 20.5862 2442 91.251 43.8092 440.113
2976 0 123.836 16.1907 2005 95.4763 45.7611 440.921
2977 0 124.676 15.2635 1903 97.525 45.5728 435.389
2978 0 132.992 26.3023 3498 87.8759 45.3742 429.055
2979 0 133.726 17.8274 2384 95.3666 46.5432 430.424
2980 0 136.45 20.6376 2816 93.2965 45.9041 420.335
2981 0 141.917 16.4392 2333 95.7763 47.234 428.605
2982 1 81.1986 11.983 973 97.4162 48.8386 456.881
2983 0 86.3915 14.9899 1295 94.6749 49.1236 453.022
2984 0 91.1716 12.6794 1156 96.7033 49.0268 452.817
2985 0 91.2253 13.3077 1214 99.5239 50.4423 447.133
2986 0 98.1946 17.5061 1719 95.0931 50.1629 451.471
2987 0 99.292 26.5178 2633 87.6267 49.6506 450.73
2988 0 99.6268 13.5807 1353 99.2461 50.2757 453.398
2989 0 104.727 16.0608 1682 95.8288 50.2188 454.634
2990 0 110.342 14.3372 1582 97.3654 50.964 453.159
2991 0 114.525 28.9805 3319 85.8545 49.2251 455.454
2992 0 114.561 24.8428 2846 90.0123 48.1862 447.62
2993 0 116.274 13.6746 1590 100.96 48.8107 440.552
2994 0 120.297 17.0246 2048 98.3462 49.0732 440.35
2995 0 128.541 17.4652 2245 96.4771 47.9519 447.663
2996 0 130.439 17.8781 2332 96.0849 48.6334 451.857
2997 0 133.824 17.6575 2363 98.3639 47.5222 441.603
2998 0 138.592 16.1121 2233 99.099 46.4487 446.534
2999 1 77.3355 13.8617 1072 95.7929 46.5774 479.043
3000 0 81.8464 14.6738 1201 93.4763 46.2873 479.214
3001 0 82.3337 17.6356 1452 92.6722 44.9855 473.078
3002 0 87.3612 16.1857 1414 95.1867 44.7419 466.353
3003 0 90.3056 14.5506 1314 95.9703 44.9726 470.603
3004 0 90.0915 13.8859 1251 96.8569 42.2278 468.692
3005 0 94.52 12.865 1216 99.7179 42.6801 459.133
3006 0 103.438 17.9914 1861 92.8216 42.3272 465.317
3007 0 98.4357 14.4968 1427 97.7218 41.0589 461.993
3008 0 104.245 19.3582 2018 93.4172 40.3935 458.391
3009 0 106.383 19.1197 2034 93.8545 40.5718 454.749
3010 0 106.299 12.8976 1371 100.315 40.787 453.572
3011 0 111.447 16.7164 1863 96.2271 40.3714 447.443
3012 0 111.468 13.8963 1549 100.428 40.8179 443.181
3013 0 115.663 22.9892 2659 91.8838 40.3588 444.996
3014 0 119.354 15.7849 1884 98.4549 41.5663 438.51
3015 0 120.732 14.0642 1698 99.7391 41.2909 445.018
3016 0 123.696 14.0263 1735 101.471 42.5522 435.698
3017 0 130.848 20.5965 2695 93.4004 42.4965 445.846
3018 0 134.942 17.3852 2346 98.295 43.4834 433.838
3019 0 137.447 18.3707 2525 96.0867 41.9818 438.161
3020 0 140.54 13.7256 1929 102.199 44.254 427.134
3021 0 147.295 14.8274 2184 100.365 44.6754 432.162
3022 0 156.227 21.9104 3423 93.9389 44.6424 430.678
3023 0 157.86 17.4966 2762 98.7306 45.9247 423.249
3024 0 160.89 14.6249 2353 102.069 46.1866 416.306
3025 1 92.7114 13.2993 1233 96.6553 46.6642 461.21
3026 0 93.7063 15.1431 1419 95.6624 47.9739 459.001
3027 0 97.769 11.7624 1150 99.2913 47.8252 457.496
3028 0 101.444 22.3867 2271 89.4245 47.1057 462.253
3029 0 106.002 17.3298 1837 95.111 46.5678 452.764
3030 0 107.978 12.3822 1337 100.874 48.9252 452.15
3031 0 109.831 12.1823 1338 102.13 48.7123 452.803
3032 0 111.574 7.62723 851 106.092 47.9659 455.987
3033 0 118.327 14.1557 1675 100.284 48.4448 450.029
3034 0 117.891 13.3004 1568 100.665 47.764 450.182
3035 1 132.696 19.4429 2580 93.3151 46.5667 449.429
3036 0 128.541 15.5048 1993 98.0171 47.0346 443.37
3037 0 138.12 15.1246 2089 97.6266 46.0881 446.615
3038 0 138.705 12.9555 1797 99.3261 46.2037 445.58
3039 1 82.8868 16.3959 1359 91.4187 46.7454 475.113
3040 0 80.5602 15.777 1271 92.4194 46.2644 473.088
3041 0 81.5193 9.53148 777 99.7954 45.242 467.973
3042 0 85.6938 11.016 944 97.9396 45.3263 469.156
3043 0 90.9763 13.4321 1222 95.3625 43.6686 466.61
3044 0 93.5878 11.9246 1116 96.2437 43.7966 466.319
3045 0 98.1337 13.237 1299 94.6705 42.1085 468.222
3046 0 100.685 23.5387 2370 86.8203 41.7616 467.559
3047 0 100.558 19.2525 1936 91.3089 41.8058 462.74
3048 0 104.898 16.0537 1684 93.519 41.4406 460.402
3049 0 108.427 18.1135 1964 91.7851 41.4929 459.581
3050 0 112.677 13.6851 1542 93.5337 40.6492 462.621
3051 0 120.303 28.1124 3382 84.5473 39.801 450.267
3052 0 115.519 12.2837 1419 97.1261 40.3608 445.756
3053 0 126.001 17.5634 2213 92.047 40.1731 445.335
3054 0 133.188 20.2646 2699 89.2442 40.2705 443.658
3055 0 139.085 26.3939 3671 85.1817 39.8058 438.212
3056 0 135.772 22.9871 3121 87.802 40.6395 444.544
3057 0 144.699 17.3947 2517 92.3155 39.7191 432.422
3058 1 74.3853 11.2657 838 95.8878 41.5143 460.138
3059 0 81.8307 12.9902 1063 92.826 41.3942 463.979
3060 0 84.6966 18.5604 1572 90.8028 40.4656 461.562
3061 0 87.5123 12.284 1075 96.707 41.6437 460.812
3062 0 89.4995 13.6202 1219 95.5012 41.2034 458.556
3063 0 94.7376 12.5821 1192 95.7844 42.9916 458.436
3064 0 91.5671 12.8976 1181 97.597 42.486 455.745
3065 0 97.7805 13.9598 1365 96.8952 43.2762 454.377
3066 0 101.776 18.2657 1859 93.4072 44.8607 452.324
3067 0 103.967 13.36 1389 97.8128 44.9791 453.086
3068 0 106.459 19.3033 2055 92.3762 45.8165 453.372
3069 0 110.486 12.6713 1400 98.1757 45.9729 450.987
3070 0 116.77 18.772 2192 89.3704 45.4872 462.42
3071 0 122.588 14.9036 1827 97.4056 45.7247 437.643
3072 0 121.476 13.7805 1674 98.6063 45.4373 442.105
3073 0 125.553 19.5375 2453 92.0685 46.437 446.854
3074 1 78.2035 18.4902 1446 90.3223 46.565 473.56
3075 0 76.3456 21.1145 1612 89.4411 46.4857 473.58
3076 0 76.3295 13.0618 997 98.66 46.4945 468.333
3077 0 76.4085 16.0846 1229 93.8023 45.9284 475.76
3078 0 81.4097 26.8887 2189 86.3554 45.5299 474.04
3079 0 84.5751 21.1883 1792 90.2846 45.4124 474.197
3080 0 86.4956 14.4863 1253 97.7318 45.7039 471.883
3081 0 89.5813 12.0896 1083 98.6353 45.7793 476.609
3082 0 89.4401 18.996 1699 93.987 46.5091 466.353
3083 0 97.6854 16.7169 1633 94.771 45.3607 464.805
3084 0 101.245 25.8086 2613 88.8328 44.2338 466.905
3085 0 102.001 17.8233 1818 96.005 43.7662 467.472
3086 0 103.283 15.8594 1638 99.4194 44.0452 463.239
3087 1 53.6274 13.8922 745 97.8805 42.9906 487.983
3088 0 53.6274 13.8735 744 131.895 42.0108 487.882
3089 0 60.2689 12.494 753 101.663 42.0651 480.094
3090 0 65.6825 14.4788 951 99.0074 41.592 481.204
3091 0 64.3924 14.334 923 100.312 41.519 479.274
3092 0 72.4125 12.484 904 101.123 40.8927 477.311
3093 0 72.4334 24.5605 1779 90.525 39.5087 477.27
3094 0 70.6406 15.0622 1064 101.555 40.3797 470.51
3095 0 76.0048 13.5912 1033 101.315 39.302 472.166
3096 0 76.5651 14.6542 1122 101.348 39.9242 468.827
3097 0 78.6652 16.4495 1294 100.338 38.2883 467.459
3098 0 81.7517 17.2596 1411 98.348 39.18 474.977
3099 0 84.123 13.6467 1148 105.445 39.6934 464.758
3100 0 88.5923 15.3061 1356 103.529 39.5841 464.689
3101 0 89.5719 17.5166 1569 102.227 41.2371 461.159
3102 0 93.5434 18.6331 1743 100.735 41.6919 459.47
3103 0 93.7165 18.3532 1720 102.398 41.7721 458.296
3104 0 97.4986 19.59 1910 100.167 41.9225 461.017
3105 0 100.641 15.6199 1572 107.842 42.9599 453.013
3106 0 101.635 16.7068 1698 106.809 43.2132 453.422
3107 0 102.647 11.9147 1223 114.733 43.4914 449.662
3108 0 109.166 18.7054 2042 105.995 44.1063 448.422
3109 0 110.436 17.621 1946 107.865 45.0992 449.615
3110 0 116.586 16.6658 1943 107.761 44.7231 448.384
3111 0 117.906 15.1731 1789 110.442 45.1934 447.633
3112 0 119.43 14.2929 1707 112.897 44.5899 436.93
3113 0 128.455 18.4345 2368 105.823 46.0587 446.321
3114 1 74.4882 12.1898 908 109.275 46.0628 468.083
3115 0 78.3043 12.9367 1013 108.3 45.6555 468.275
3116 0 79.517 14.0222 1115 107.848 44.4466 468.513
3117 0 83.7094 12.7943 1071 109.859 46.7768 466.737
3118 0 87.5561 19.1763 1679 98.944 46.2936 475.06
3119 0 86.5264 13.5912 1176 110.622 45.4158 465.832
3120 0 90.3109 14.9484 1350 108.496 45.4289 467.176
3121 0 94.41 14.7972 1397 108.712 45.5741 466.99
3122 0 96.727 14.1946 1373 110.092 46.0736 461.007
3123 0 100.409 15.6859 1575 106.558 45.4483 467.776
3124 0 102.356 14.9284 1528 108.864 45.0164 461.123
3125 0 102.5 14.478 1484 109.929 43.4185 459.875
3126 0 107.224 13.1501 1410 111.479 44.5794 459.504
3127 0 112.441 14.9411 1680 107.457 43.8958 460.582
3128 0 116.291 12.6063 1466 110.69 43.5505 457.205
3129 0 118.498 15.5446 1842 106.783 42.4142 452.199
3130 0 123.433 15.4334 1905 106.943 42.3522 449.328
3131 0 130.62 22.9062 2992 96.7096 40.8717 454.878
3132 1 71.4331 10.6673 762 105.097 40.9173 478.08
3133 0 75.2219 14.3841 1082 102.365 40.0989 475.652
3134 0 81.4467 20.5288 1672 95.1053 39.5 477.365
3135 0 79.1596 14.0855 1115 106.274 38.8108 465.531
3136 0 86.1971 16.5203 1424 102.056 40.4501 470.393
3137 0 88.4997 17.1413 1517 101.301 39.7324 467.366
3138 0 90.4133 14.6217 1322 104.328 40.118 467.294
3139 0 93.4014 23.5971 2204 95.2527 39.8126 457.149
3140 0 96.3071 14.9833 1443 103.69 39.2134 460.082
3141 0 97.3855 13.3798 1303 105.242 39.7882 453.17
3142 0 101.753 14.7809 1504 103.088 40.2593 453.251
3143 0 99.2111 11.6318 1154 107.692 40.5754 451.672
3144 0 109.307 16.7968 1836 98.6318 39.8279 456.21
3145 0 110.34 12.8693 1420 103.747 41.5824 449.716
3146 0 106.696 13.1682 1405 104.048 41.7673 445.814
3147 1 118.789 14.7741 1755 99.9083 41.988 449.15
3148 0 119.417 14.9894 1790 99.3559 41.9514 449.572
3149 0 125.348 18.3808 2304 96.4384 42.2188 446.966
3150 0 132.804 13.9152 1848 101.863 42.5184 441.368
3151 0 131.744 12.7824 1684 105.079 43.326 435.049
3152 0 139.53 19.408 2708 97.2179 43.5705 430.399
3153 0 139.574 13.964 1949 103.542 43.6434 429.401
3154 1 86.7663 11.214 973 100.747 44.7431 464.89
3155 0 86.39 17.6757 1527 95.3759 44.6156 463.357
3156 0 88.488 13.5612 1200 101.612 45.6833 456.133
3157 0 88.6935 14.2626 1265 100.718 45.6245 460.904
3158 0 90.6706 16.5324 1499 98.99 45.2735 453.043
3159 0 99.6586 15.7939 1574 95.1455 44.8672 469.03
3160 0 97.5681 12.3504 1205 103.923 45.9469 455.272
3161 0 98.5094 11.9887 1181 105.29 46.1778 455.887
3162 0 101.432 15.9811 1621 100.483 46.0241 458.155
3163 0 105.288 14.655 1543 102.66 47.4109 453.769
3164 0 104.374 11.3534 1185 107.485 46.8675 447.516
3165 0 104.19 10.2025 1063 108.774 46.6209 445.248
3166 1 199.775 15.5124 3099 106.078 45.6499 398.811
3167 1 114.212 13.1247 1499 105.863 44.7945 442.243
3168 0 115.23 14.8139 1707 104.853 44.7551 440.814
3169 0 118.164 20.04 2368 98.3028 44.6993 439.903
3170 0 117.321 13.7741 1616 105.908 43.87 441.676
3171 1 132.33 13.7157 1815 103.76 43.2556 440.261
3172 0 131.694 11.5495 1521 107.183 42.9264 427.133
3173 0 144.519 14.2473 2059 101.757 41.7348 438.145
3174 1 82.1158 18.0842 1485 92.5677 41.3811 473.129
3175 0 82.0904 14.0211 1151 97.8931 40.2424 466.388
3176 0 86.3185 12.6161 1089 96.4573 40.1662 474.894
3177 0 88.3608 12.9356 1143 98.5713 39.2301 462.822
3178 0 95.233 20.5916 1961 91.0388 39.13 465.773
3179 0 96.2178 14.8413 1428 96.2402 38.3571 465.658
3180 0 98.4455 11.1737 1100 100.519 39.5973 462.792
3181 0 102.252 12.9582 1325 98.0279 40.0989 461.722
3182 0 105.352 16.5066 1739 94.4968 39.2243 460.681
3183 0 105.335 12.0662 1271 99.5696 40.6216 456.625
3184 1 196.561 16.7174 3286 101.338 39.5703 399.706
3185 1 111.403 20.0623 2235 91.7821 40.1128 447.467
3186 0 117.775 22.3816 2636 88.2796 39.9404 452.52
3187 0 119.644 15.7467 1884 94.7463 40.4602 440.119
3188 0 121.601 14.3502 1745 96.3748 41.5542 442.453
3189 0 129.199 14.3422 1853 95.5591 41.7625 443.831
3190 0 135.575 13.085 1774 97.6539 41.7565 439.601
3191 0 141.029 18.5494 2616 91.6269 42.4511 441.197
3192 0 137.347 12.341 1695 100.396 42.8024 429.268
3193 0 147.6 16.5922 2449 94.8069 42.8714 428.174
3194 0 152.708 18.591 2839 92.9134 43.0715 426.554
3195 0 153.639 14.0199 2154 97.9188 44.0158 420.401
3196 0 160.688 16.1679 2598 95.2202 44.6771 420.353
3197 0 167.5 18.3462 3073 92.9395 44.7107 415.848
3198 0 169.78 16.7275 2840 93.2901 44.844 427.514
3199 0 174.474 10.7122 1869 100.988 45.4548 407.832
3200 0 186.815 18.3551 3429 91.5214 45.5255 420.381
3201 0 186.605 13.2366 2470 96.6636 44.2036 415.237
3202 0 194.719 17.23 3355 94.2015 45.2945 402.476
3203 0 198.788 17.9387 3566 94.0446 45.2518 405.06
3204 0 204.723 12.495 2558 100.367 45.5262 398.226
3205 0 212.872 15.709 3344 97.2141 45.8786 397.287
3206 1 126.557 9.67157 1224 96.3717 44.5261 450.136
3207 0 129.359 11.3482 1468 93.799 45.6819 456.825
3208 0 130.306 17.4973 2280 89.961 44.6447 443.15
3209 0 134.402 15.2156 2045 91.1746 44.9609 451.672
3210 0 140.022 12.3481 1729 94.6466 43.9381 441.005
3211 0 144.346 19.8273 2862 89.088 44.0077 444.653
3212 0 147.634 9.61835 1420 100.003 43.8958 436.644
3213 0 150.868 8.46434 1277 102.657 44.6132 424.274
3214 0 153.908 10.7662 1657 100.276 43.6632 433.897
3215 0 163.493 18.5207 3028 92.9141 43.3299 437.013
3216 0 165.607 13.6226 2256 97.6352 42.5953 437.538
3217 0 174.007 13.5627 2360 98.7386 42.8805 430.771
3218 0 175.195 17.5234 3070 94.0795 41.0453 440.377
3219 1 102.391 12.2569 1255 97.3124 41.2534 457.015
3220 0 111.708 14.9497 1670 90.7126 41.7443 466.075
3221 0 109.057 12.599 1374 96.222 39.5473 448.576
3222 0 117.401 18.5688 2180 90.6138 39.611 444.611
3223 0 114.608 11.8927 1363 97.2194 40.3969 457.63
3224 0 118.416 28.1382 3332 85.1825 39.4487 456.359
3225 0 120.461 14.7682 1779 96.8488 39.1669 442.665
3226 0 120.871 9.70459 1173 102.585 39.8483 437.867
3227 0 130.862 18.3017 2395 93.2564 40.0405 442.244
3228 0 127.758 8.93097 1141 101.896 40.1499 444.993
3229 0 137.58 16.3687 2252 97.1448 40.1075 434.321
3230 0 140.628 13.4255 1888 100.791 40.5249 428.642
3231 0 143.687 12.4855 1794 102.387 39.8138 425.801
3232 0 145.969 12.1944 1780 103.401 41.3208 433.089
3233 0 150.866 16.4848 2487 98.854 41.121 430.935
3234 0 157.757 13.6856 2159 100.639 40.0977 431.283
3235 0 161.726 16.5033 2669 99.3754 42.0251 427.263
3236 0 164.974 13.4143 2213 103.745 42.2779 416.27
3237 0 171.872 18.1007 3111 97.2395 44.1601 423.872
3238 0 178.945 15.4349 2762 99.9298 43.6376 422.294
3239 1 102.533 14.1808 1454 98.0702 43.3693 449.232
3240 0 107.576 12.3447 1328 99.2952 43.6137 452.736
3241 0 110.817 16.1257 1787 96.5613 43.8271 445.346
3242 0 113.632 14.4326 1640 97.7445 44.389 451.356
3243 0 115.631 14.8057 1712 98.0456 44.604 447.81
3244 0 119.502 12.8115 1531 100.383 45.5225 444.77
3245 0 119.507 13.6729 1634 99.8348 46.1885 446.397
3246 0 124.658 14.1186 1760 98.55 44.8699 446.168
3247 0 124.42 14.4109 1793 98.8645 45.4741 446.915
3248 0 131.777 15.0178 1979 98.2476 45.1854 447.358
3249 0 134.722 19.0392 2565 94.1825 45.6729 447.778
3250 0 140.056 13.5946 1904 100.409 45.1817 442.952
3251 0 146.31 17.3194 2534 95.9274 44.0166 442.366
3252 0 147.224 14.0466 2068 100.476 45.2984 432.702
3253 0 151.816 14.0829 2138 100.884 44.1567 433.061
3254 0 158.64 13.2627 2104 101.853 45.8479 433.971
3255 0 163.511 18.1088 2961 97.4478 45.2435 429.825
3256 1 92.712 14.6799 1361 98.0683 43.817 458.858
3257 0 97.5177 15.0434 1467 97.8153 45.274 453.634
3258 0 102.536 18.2278 1869 93.222 45.0407 456.727
3259 0 99.6611 8.66938 864 105.078 43.875 447.2
3260 0 109.421 19.6124 2146 92.4823 43.5256 451.494
3261 0 110.732 13.5914 1505 98.9256 42.0199 450.469
3262 0 112.68 17.6163 1985 95.2368 42.7955 448.623
3263 0 114.677 12.1384 1392 100.727 42.5639 449.306
3264 0 120.519 13.5249 1630 98.2411 42.1853 452.525
3265 0 120.542 11.9211 1437 101.179 41.9569 445.798
3266 0 126.402 14.9049 1884 98.13 41.8424 441.488
3267 0 128.595 24.2545 3119 90.7605 40.3392 436.004
3268 0 135.824 26.3062 3573 88.7853 40.8578 437.341
3269 0 144.974 20.4382 2963 92.969 42.0608 442.771
3270 0 146.4 18.3402 2685 95.9363 41.4115 435.124
3271 0 150.395 17.2811 2599 97.1354 41.9692 437.309
3272 0 148.334 12.1415 1801 103.613 41.7463 427.744
3273 0 159.439 18.5902 2964 96.112 41.9001 428.894
3274 0 157.611 21.9718 3463 94.1019 42.1874 429.248
3275 1 95.3949 14.5081 1384 98.9494 42.3591 453.696
3276 0 97.3797 13.6579 1330 102.66 43.0008 448.094
3277 0 101.559 13.6374 1385 98.9892 44.0433 457.783
3278 0 104.585 14.2276 1488 102.227 43.6566 447.891
3279 0 103.447 16.4142 1698 101.208 44.7768 442.741
3280 0 112.512 23.0731 2596 93.176 44.2207 445.935
3281 0 113.978 13.9588 1591 103.002 45.7473 444.26
3282 0 113.224 19.3069 2186 97.8907 46.3683 443.604
3283 0 117.287 12.0559 1414 106.904 46.889 433.646
3284 0 121.582 17.7657 2160 99.9856 47.8593 435.499
3285 0 127.394 22.348 2847 95.1423 47.5286 433.622
3286 0 126.393 14.2888 1806 105.632 47.7785 427.098
3287 0 130.675 24.6949 3227 94.225 47.7205 430.822
3288 0 138.305 24.1568 3341 93.88 47.2236 434.557
3289 0 146.54 21.8029 3195 96.3311 48.3634 424.92
3290 0 145.44 20.5032 2982 98.2703 48.5131 421.583
3291 0 153.344 17.1966 2637 100.969 48.4516 427.858
3292 1 84.2715 10.8459 914 102.37 49.2724 456.148
3293 0 92.4199 14.8994 1377 96.0392 49.093 461.208
3294 0 95.8934 12.3783 1187 99.5922 49.0211 459.138
3295 0 94.1766 15.1205 1424 99.2114 48.8722 456.348
3296 0 95.1842 12.0818 1150 102.983 48.3852 453.162
3297 0 101.331 11.9904 1215 102.835 47.972 451.486
3298 0 100.442 12.2757 1233 104.019 49.0916 448.37
3299 0 103.268 13.8765 1433 101.754 48.0272 448.054
3300 0 106.223 13.9989 1487 101.153 47.6954 450.087
3301 0 103.18 12.7931 1320 104.782 46.3303 443.797
3302 0 114.439 11.1238 1273 105.858 45.0306 442.424
3303 0 114.836 15.3176 1759 100.779 45.5736 440.809
3304 0 119.56 12.362 1478 103.05 44.0677 440.79
3305 0 121.859 12.974 1581 103.025 44.241 439.562
3306 0 126.791 13.3843 1697 104.349 43.1544 430.23
3307 0 135.561 12.4151 1683 103.711 42.6809 433.84
3308 0 137.557 15.9279 2191 101.476 42.2857 432.276
3309 0 141.651 17.529 2483 100.44 42.9642 429.6
3310 0 146.184 13.8592 2026 103.823 43.3203 428.3
3311 0 148.038 8.94364 1324 112.451 42.5921 411.07
3312 0 152.974 16.1335 2468 101.621 42.8108 421.386
3313 0 161.691 15.1276 2446 104.346 42.3283 413.596
3314 0 162.977 13.689 2231 105.943 41.8153 411.358
3315 0 167.119 13.7268 2294 106.913 43.0013 406.578
3316 0 172.463 11.8924 2051 109.361 42.8835 400.178
3317 0 179.032 18.7117 3350 100.593 44.2928 403.96
3318 0 182.817 13.0349 2383 107.25 43.4754 393.888
3319 0 187.946 18.3084 3441 100.121 44.9567 398.688
3320 0 191.634 14.893 2854 105.907 45.0613 374.134
3321 0 201.122 16.4925 3317 103.897 45.0371 374.382
3322 0 206.012 16.3 3358 104.614 45.6042 389.179
3323 0 213.074 15.6894 3343 103.939 45.9713 388.466
3324 0 215.738 16.7796 3620 103.298 47.0696 383.614
3325 0 223.829 12.8938 2886 110.352 47.6414 367.119
3326 1 59.3614 7.24376 430 90.8837 46.8954 468.577
3327 0 60.6676 7.07132 429 90.2424 45.4709 468.359
3328 0 53.4683 8.11695 434 91.6958 46.0323 459.991
3329 1 21.1336 2.60249 55 90.5091 47.2727 490.345
3330 0 24.1741 7.0737 171 86.5146 46.8012 489.795
3331 0 22.0161 5.45055 120 90.1083 46.9083 486.192
3332 1 70.7127 13.2225 935 86.9123 46.4695 463.133
3333 0 66.5961 12.5383 835 89.0515 48.1401 465.193
3334 1 297.233 19.3922 5764 103.587 47.9523 349.035
3335 0 305.836 18.5818 5683 105.457 48.9099 345.604
3336 0 314.978 17.3949 5479 107.338 48.4672 325.066
3337 0 317.723 14.5567 4625 112.069 47.9498 323.823
3338 0 331.527 20.671 6853 104.117 48.1446 329.57
3339 0 344.844 19.055 6571 106.166 48.0945 306.571
3340 0 354.277 16.7327 5928 109.59 46.681 311.275
3341 0 364.61 18.4827 6739 106.937 47.8066 305.243
3342 1 145.814 7.61928 1111 102.282 46.7795 424.287
3343 0 146.788 5.95416 874 105.348 47.595 414.51
3344 0 156.95 13.2335 2077 95.4738 47.2022 414.198
3345 1 130.502 10.0151 1307 94.8914 45.394 447.132
3346 0 127.28 6.92172 881 97.4586 45.6572 451.834
3347 0 128.029 10.279 1316 95.731 44.7477 438.899
3348 1 96.9737 10.4255 1011 96.276 44.2532 452.099
3349 0 95.7503 11.2271 1075 93.9554 44.1563 455.829
3350 0 101.197 11.0379 1117 94.2972 44.0976 453.625
3351 0 97.8307 6.62369 648 99.9414 44.7731 449.821
3352 0 91.4282 6.28909 575 102.092 44.9426 440.19
3353 0 94.6058 11.1198 1052 96.7776 44.8802 445.641
3354 0 100.936 7.71773 779 98.552 44.0359 447.048
3355 0 102.192 12.0949 1236 94.589 44.1157 443.616
3356 0 105.227 14.4165 1517 91.793 43.8649 445.052
3357 0 101.118 10.1664 1028 96.1654 43.8765 445.916
3358 0 103.878 9.8096 1019 96.8312 44.7164 446.061
3359 0 106.48 13.5987 1448 91.5877 44.5318 448.599
3360 0 104.273 14.8073 1544 92.171 44.9579 445.433
3361 0 105.243 11.6112 1222 95.3764 44.3764 444.479
3362 0 105.836 13.7476 1455 92.3017 45.967 443.67
3363 0 107.102 13.1556 1409 93.6309 46.4791 439.862
3364 0 103.608 11.9489 1238 94.0687 47.7278 443.557
3365 0 105.614 17.706 1870 89.6925 46.9524 441.897
3366 0 109.309 18.2052 1990 88.1688 47.3266 442.61
3367 0 108.954 14.5566 1586 92.4174 48.3531 441.067
3368 0 107.126 12.1446 1301 95.2498 49.4658 438.586
3369 0 105.765 14.1068 1492 92.7011 47.9853 443.694
3370 0 105.833 9.8646 1044 97.6935 48.4732 440.978
3371 1 42.2794 11.4003 482 87.6784 50.0042 463.282
3372 0 39.3447 12.0219 473 88.2474 49.833 471.192
3373 0 49.2079 15.6072 768 82.3346 50.6641 472.259
3374 1 103.892 18.6444 1937 89.1957 48.906 443.701
3375 0 105.425 15.0819 1590 92.4692 49.2421 444.411
3376 0 108.684 16.1846 1759 89.7851 49.6822 447.108
3377 0 106.993 9.71095 1039 98.127 50.0096 442.398
3378 0 104.287 10.7396 1120 98.8616 49.558 439.993
3379 1 46.7041 13.3821 625 84.984 50.9488 477.078
3380 0 44.3843 7.72797 343 91.7726 49.9738 477.927
3381 0 44.7578 11.6628 522 88.2739 48.6973 478.534
3382 0 49.5697 9.78421 485 90.9856 48.1835 475.45
3383 1 106.726 8.44219 901 101.56 47.8613 443.867
3384 0 108.671 14.4933 1575 94.2375 48.1352 442.538
3385 0 105.789 8.85726 937 102.612 48.0587 435.608
3386 0 106.599 13.1052 1397 97.3214 47.6457 441.258
3387 0 107.948 12.6264 1363 96.0968 47.7095 450.274
3388 0 108.674 15.1922 1651 92.364 45.7286 451.822
3389 0 105.478 12.3817 1306 98.2711 46.791 442.441
3390 1 44.3522 12.1302 538 89.9424 45.1264 469.905
3391 0 44.6126 6.45557 288 94.25 45.8611 479.976
3392 1 102.49 9.89361 1014 102.724 44.9398 439.777
3393 0 101.623 10.6669 1084 98.0959 45.6614 447.53
3394 0 104.649 11.3044 1183 98.3364 43.8462 440.41
3395 0 109.371 19.7128 2156 88.9856 44.3488 443.73
3396 0 104.849 11.2543 1180 98.372 44.3407 442.422
3397 0 104.9 14.4709 1518 96.2642 44.0428 440.294
3398 1 46.5382 18.3076 852 83.3228 44.7946 473.19
3399 0 42.1526 11.5295 486 91.2696 44.4177 466.94
3400 1 107.103 14.6868 1573 95.0032 45.4151 438.344
3401 0 106.039 15.6169 1656 93.7995 43.8581 439.499
3402 0 105.038 10.4153 1094 100.793 46.1051 439.315
3403 0 105.919 13.5386 1434 97.5356 44.9609 438.35
3404 0 106.281 13.2573 1409 97.5408 45.775 441.957
3405 0 107.705 17.9101 1929 91.5194 45.5039 441.936
3406 0 105.199 12.3195 1296 97.8464 46.5556 442.814
3407 0 107.698 19.5083 2101 89.9324 47.3579 445.402
3408 0 110.581 17.4442 1929 90.5381 47.5495 448.216
3409 0 110.536 15.8953 1757 93.0165 48.5504 438.235
3410 1 47.5744 10.1525 483 91.528 47.8302 468.629
3411 0 46.8194 12.7511 597 90.2027 47.1524 466.343
3412 0 46.6608 9.92268 463 93.8121 49.2894 467.359
3413 0 45.4788 11.7197 533 90.8931 49.0056 469.42
3414 0 47.6336 12.5542 598 89.6739 50.7425 470.007
3415 0 43.3275 8.83966 383 94.7258 50.1488 465.339
3416 0 45.2927 8.21324 372 95.5806 50.1183 468.505
3417 0 49.8976 19.2394 960 82.7833 49.6375 475.073
