time division length width area intensity CMx CMy
0 0 35.0261 12.7048 445 126.036 431.791 485.384
1 0 36.0885 12.7464 460 128.139 431.161 485.076
2 0 38.0148 14.0471 534 127.092 430.511 485.131
3 0 39.1132 14.3686 562 116.512 428.705 485.646
4 0 38.0313 14.5932 555 125.072 428.899 484.142
5 0 40.0586 15.5772 624 122.038 428.912 484.138
6 0 42.0709 12.7642 537 126.959 426.777 484.233
7 0 43.1868 13.4069 579 127.415 425.922 483.907
8 0 44.054 14.4595 637 128.438 424.466 478.879
9 0 52.1593 21.0509 1098 111.378 423.648 473.425
10 0 51.1941 15.8612 812 121.584 423.268 475.917
11 0 54.0907 16.6757 902 118.666 423.278 474.938
12 0 52.1665 14.7029 767 127.064 423.115 475.568
13 0 53.1937 17.2577 918 122.717 424.367 473.556
14 0 55.0977 15.7901 870 122.354 423.078 474.582
15 0 56.1623 16.5414 929 125.612 423.024 469.981
16 0 57.1801 15.6873 897 128.162 422.621 468.982
17 0 60.0746 15.5806 936 129.455 422.677 466.99
18 0 59.0385 14.0248 828 132.742 423.221 463.979
19 0 63.0949 15.548 981 129.322 423.471 464.374
20 0 68.153 16.7417 1141 124.287 422.815 464.873
21 0 67.0914 15.6801 1052 123.343 423.185 463.163
22 0 70.1274 17.1402 1202 119.396 422.877 458.549
23 0 73.0901 17.1706 1255 126.736 424.117 455.668
24 0 72.2076 15.5662 1124 130.395 424.763 455.08
25 0 76.1105 17.9345 1365 123.892 425.416 453.082
26 0 75.3286 14.9744 1128 130.793 425.753 449.153
27 0 84.2885 16.1469 1361 127.094 427.609 451.561
28 0 86.1826 18.0547 1556 123.965 427.489 447.401
29 0 88.3359 17.2523 1524 125.224 427.192 445.754
30 0 92.4227 15.797 1460 126.781 430.164 446.447
31 0 92.4079 15.8644 1466 160.603 432.141 446.423
32 0 97.2874 17.8954 1741 120.803 429.934 447.896
33 0 102.288 13.6575 1397 128.345 432.405 446.493
34 0 105.304 17.6917 1863 120.176 432.186 444.011
35 0 110.281 17.5099 1931 122.37 433.671 441.795
36 0 112.395 15.7836 1774 122.915 433.127 439.414
37 1 60.1337 13.47 810 124.094 434.835 466.549
38 0 61.1154 16.3788 1001 118.695 432.746 465.313
39 0 64.1767 15.1924 975 120.162 434.578 464.186
40 0 69.1167 15.7994 1092 115.564 433.844 466.007
41 0 73.1137 15.1271 1106 118.59 434.299 465.197
42 0 72.1278 15.223 1098 120.939 433.149 462.455
43 0 74.0976 15.4526 1145 119.248 433.724 461.626
44 0 78.165 14.6997 1149 128.936 433.107 465.483
45 0 81.1186 15.5575 1262 134.928 433.471 465.116
46 0 82.146 15.4116 1266 136.944 431.247 462.547
47 0 85.2151 13.8825 1183 141.806 430.287 460.318
48 0 87.0993 13.387 1166 146.288 430.303 460.925
49 0 92.0561 16.0989 1482 133.978 427.802 458.97
50 0 95.1195 17.2415 1640 135.976 428.015 457.854
51 0 98.2229 15.6074 1533 139.855 426.764 454.334
52 0 102.247 16.0396 1640 138.672 426.401 452.184
53 0 105.319 14.6982 1548 140.818 425.941 451.821
54 0 113.289 15.6414 1772 136.248 426.199 450.936
55 0 117.356 17.4937 2053 132.345 426.809 447.468
56 1 57.1816 11.7171 670 137.133 425.84 473.3
57 0 57.1788 11.7351 671 141.972 424.827 473.168
58 0 66.0926 12.6187 834 134.56 424.402 466.683
59 0 66.2608 12.647 838 135.093 423.171 467.036
60 0 68.3604 13.0339 891 132.787 423.589 466.138
61 0 72.4104 13.1335 951 134.501 423.795 462.169
62 0 76.3208 15.4873 1182 128.279 423.12 462.329
63 0 77.1055 16.043 1237 126.673 422.813 461.061
64 0 81.1922 15.0507 1222 130.528 423.893 455.25
65 0 83.3489 12.8976 1075 132.689 424.128 453.846
66 0 86.2806 14.9976 1294 127.425 424.065 450.992
67 0 89.5393 16.2387 1454 125.672 424.302 445.032
68 0 91.3804 13.318 1217 128.3 425.744 448.272
69 0 95.4533 14.6983 1403 126.026 426.535 445.629
70 0 100.265 13.9132 1395 127.67 427.27 441.416
71 1 51.0672 12.3758 632 123.234 427.172 464.427
72 0 56.2512 12.622 710 125.683 428.165 466.358
73 0 55.1562 10.3705 572 131.343 428.818 463.594
74 0 59.2123 12.3961 734 124.834 429.407 464.832
75 0 62.1381 12.4239 772 124.62 429.896 464.714
76 0 62.1071 13.8632 861 122.724 430.602 459.985
77 0 64.4721 11.0435 712 125.333 431.767 463.431
78 0 68.146 11.2993 770 123.994 432.287 464.373
79 0 72.1972 14.1003 1018 119.653 432.561 461.072
80 0 72.2797 12.4101 897 123.798 433.892 461.409
81 0 74.3162 10.2939 765 125.958 432.984 464.848
82 0 79.2571 13.1345 1041 122.198 432.494 461.206
83 0 79.3465 12.061 957 126.277 432.399 458.139
84 0 82.3137 13.9223 1146 123.868 431.143 458.538
85 0 86.4054 13.101 1132 124.835 431.519 459.997
86 0 90.596 12.6054 1142 128.913 431.898 455.952
87 0 93.4841 16.099 1505 121.747 431.713 461.225
88 1 48.2759 13.0086 628 120.788 430.917 484.527
89 0 51.3471 11.432 587 126.559 432.378 482.516
90 0 53.1975 12.2562 652 123.61 431.431 482.207
91 0 52.2515 12.3441 645 119.014 428.767 480.984
92 0 56.0976 12.0148 674 124.104 429.478 484.215
93 0 57.1789 10.6333 608 130.882 429.469 479.924
94 0 58.0977 13.2191 768 125.486 427.473 479.74
95 0 61.3869 12.9669 796 126.413 427.216 477.651
96 0 64.2746 13.9091 894 123.444 424.983 479.233
97 0 66.2235 15.6893 1039 119.518 425.866 479.126
98 0 68.2968 12.2553 837 126.716 424.652 476.29
99 0 68.3781 13.5716 928 124.019 423.571 468.65
100 0 72.2203 14.5112 1048 121.405 424.202 470.415
101 0 75.2658 17.5511 1321 115.69 423.599 466.014
102 0 77.2623 14.5996 1128 120.927 423.385 465.99
103 0 77.2222 12.4187 959 126.69 423.047 463.324
104 0 82.201 13.2115 1086 123.938 422.38 465.482
105 0 82.1623 14.8365 1219 123.66 422.614 456.747
106 0 86.2147 14.3015 1233 123.049 423.418 459.564
107 0 88.3312 13.8117 1220 125.393 422.272 455.28
108 0 91.3649 15.0495 1375 121.992 422.321 453.871
109 0 92.4028 14.2528 1317 125.778 423.424 448.942
110 0 96.2421 13.944 1342 125.583 424.408 447.187
111 1 54.1541 13.9602 756 119.692 424.627 468.02
112 0 54.3344 12.5519 682 124.554 424.696 466.575
113 0 59.2733 12.552 744 122.21 424.935 464.563
114 0 58.1031 14.3538 834 116.486 426.514 466.158
115 0 60.0747 15.9302 957 114.781 427 464.073
116 0 62.1331 13.9861 869 119.198 427.673 462.062
117 0 64.1108 14.6465 939 118.326 427.468 462.234
118 0 67.1408 14.0898 946 117.975 428.642 465.311
119 0 63.1188 10.9476 691 150.31 429.57 461.113
120 0 63.1395 10.8648 686 150.117 430.541 461.036
121 0 72.1823 14.4218 1041 120.16 429.056 458.368
122 0 75.0889 13.5306 1016 119.663 431.001 462.709
123 0 78.1954 15.1032 1181 118.451 430.622 461.148
124 0 80.4058 15.7949 1270 117.413 430.882 457.699
125 0 82.3077 13.2794 1093 122.756 431.988 457.188
126 0 83.2231 12.8089 1066 124.532 432.474 455.798
127 0 88.4126 15.2354 1347 119.348 432.563 455.684
128 0 87.431 14.1254 1235 123.031 430.321 451.066
129 1 45.354 11.6418 528 120.318 432.273 477.992
130 0 50.2028 11.6527 585 118.735 431.144 478.897
131 0 50.2263 9.69612 487 123.522 430.084 479.998
132 0 51.1016 12.1914 623 118.653 429.552 479.374
133 0 53.0575 12.8163 680 117.938 429.106 478.875
134 0 53.1057 11.2606 598 121.458 428.94 480.48
135 0 55.0541 13.1144 722 118.291 427.882 478.126
136 0 56.181 11.9079 669 120.096 428.073 479.688
137 0 60.0766 16.7786 1008 110.351 426.448 482.202
138 0 60.0766 16.8618 1013 130.35 424.467 482.178
139 0 63.1288 13.4328 848 118.573 424.59 476.725
140 0 63.1288 13.4487 849 150.767 424.581 476.743
141 0 69.1652 13.1135 907 118.066 423.181 474.1
142 0 66.2551 11.4859 761 122.928 422.473 471.281
143 0 70.2147 13.9714 981 118.675 421.678 468.716
144 0 73.2686 11.7513 861 120.456 421.749 470.283
145 0 73.133 11.0894 811 123.48 420.221 464.756
146 0 74.1705 10.7455 797 123.532 419.343 462.675
147 0 81.3366 13.3888 1089 118.043 418.837 459.864
148 0 83.4479 13.6612 1140 117.991 419.469 459.22
149 0 86.4444 10.3303 893 123.454 420.55 459.012
150 1 42.0797 7.34321 309 119.754 419.019 479.926
151 0 44.0568 7.67191 338 118.997 421.033 478.76
152 0 50.1169 14.5659 730 107.722 423.005 475.355
153 0 50.1446 10.9085 547 117.514 423.079 474.267
154 0 50.1208 10.7939 541 118.274 423.288 474.163
155 0 52.0615 10.8333 564 117.835 422.473 470.154
156 0 54.0687 14.0747 761 112.292 423.601 468.188
157 0 51.0527 10.401 531 119.041 425.073 467.435
158 0 56.0768 13.9808 784 114.913 424.395 466.992
159 0 58.0723 10.177 591 121.003 424.296 466.076
160 0 61.0893 12.8664 786 115.527 426.471 465.789
161 0 61.2273 11.4165 699 119.694 426.225 460.953
162 0 65.2875 11.4723 749 118.511 427.762 464.666
163 0 66.087 14.723 973 115.547 427.464 459.687
164 0 69.1698 12.1151 838 115.945 428.339 464.249
165 0 70.2498 13.4805 947 116.671 429.061 459.231
166 0 75.1374 13.0428 980 114.247 430.626 464.148
167 0 77.1415 12.8336 990 118.732 430.92 459.032
168 0 77.1415 12.9373 998 143.276 430.93 459.013
169 0 75.1365 9.91528 745 124.926 430.389 454.101
170 0 73.128 9.2304 675 99.9941 429.39 453.268
171 1 43.0492 12.3347 531 110.139 428.682 475.75
172 0 43.1646 12.3018 531 112.932 430.017 481.507
173 0 44.0196 10.041 442 116.783 431.023 482.778
174 0 46.0174 10.3004 474 117.989 430.032 484.565
175 0 49.1572 15.9285 783 108.511 429.656 483.614
176 0 49.0182 11.6895 573 117.428 428.405 483.066
177 0 51.1723 13.0149 666 115.009 428.029 482.233
178 0 52.0565 13.1204 683 114.842 428.366 484.969
179 0 52.1337 11.7774 614 117.461 427.099 483.386
180 0 54.0903 13.8842 751 113.257 426.426 484.49
181 0 56.1062 14.5082 814 112.876 425.307 482.791
182 0 58.2175 16.9708 988 107.062 424.249 484.759
183 0 60.0984 14.1768 852 112.001 423.05 480.993
184 0 61.1967 14.625 895 112.306 423.765 481.147
185 0 63.0348 21.2264 1338 102.83 422.129 477.196
186 0 64.1687 15.4437 991 111.779 420.112 471.985
187 0 65.3631 12.3617 808 117.452 420.705 469.251
188 0 69.3268 13.5445 939 114.289 419.398 469.419
189 0 69.2699 14.3785 996 113.967 419.868 468.103
190 0 69.5014 13.6544 949 114.958 419.199 469.129
191 0 75.2304 14.2496 1072 112.698 419.454 466.453
192 0 76.3996 14.1231 1079 113.945 420.443 463.906
193 0 78.3143 15.1186 1184 113.903 419.661 457.813
194 0 79.215 11.8033 935 121.832 420.373 458.533
195 0 81.2762 13.1404 1068 119.723 420.752 460.682
196 0 85.3872 17.3445 1481 113.272 421.042 456.061
197 0 90.1168 16.7227 1507 114.366 421.894 453.258
198 0 94.2219 16.0472 1512 113.669 422.138 455.778
199 0 97.3136 14.9825 1458 116.85 422.55 450.145
200 0 96.3422 14.2409 1372 118.155 422.325 448.597
201 1 53.0658 11.9286 633 117.509 423.109 465.63
202 0 54.0705 11.0596 598 119.023 424.289 465.789
203 0 52.0788 11.4634 597 117.494 423.09 464.509
204 0 56.1566 12.8391 721 116.56 425.467 467.75
205 0 59.2155 12.6656 750 116.804 426.416 469.773
206 0 60.1048 12.5947 757 115.72 426.487 470.905
207 0 61.2625 13.2544 812 115.385 427.995 469.49
208 0 59.0917 13.0644 772 117.153 426.93 467.253
209 0 63.0606 16.9202 1067 111.458 428.807 466.303
210 0 64.0933 14.4477 926 115.285 429.502 469.56
211 0 69.2913 14.2731 989 114.257 428.931 470.982
212 0 70.2157 13.4585 945 115.286 428.346 466.83
213 0 72.0598 14.599 1052 115.798 428.857 464.383
214 0 76.1976 13.3206 1015 116.466 429.472 467.982
215 0 79.1904 14.3831 1139 115.371 428.928 469.067
216 0 83.2128 17.7737 1479 109.404 428.707 468.771
217 0 84.2121 17.1591 1445 111.644 428.287 468.645
218 0 87.0507 14.6926 1279 115.755 428.225 470.225
219 0 89.1756 13.008 1160 118.265 428.371 468.744
220 0 92.1783 14.0055 1291 117.819 427.319 467.944
221 0 94.3765 15.4488 1458 116.912 426.54 460.593
222 0 99.1479 13.9388 1382 120.171 426.449 463.695
223 1 49.0611 11.4755 563 115.183 425.536 491.123
224 0 51.2194 11.4995 589 118.355 422.565 476.869
225 0 54.1164 15.6699 848 112.416 422.788 483.518
226 0 57.242 16.0022 916 110.088 420.745 486.769
227 0 58.0873 14.8914 865 113.34 421.138 484.009
228 0 59.11 13.6525 807 115.597 419.286 482.926
229 0 62.293 13.3723 833 115.82 418.926 479.7
230 0 65.0811 14.336 933 114.145 417.574 478.622
231 0 67.1193 14.8244 995 114.57 418.613 475.779
232 0 73.1656 16.2508 1189 110.224 419.184 478.479
233 0 71.2223 14.2371 1014 115.835 417.737 473.45
234 0 76.3428 16.5438 1263 111.333 418.498 470.904
235 0 77.257 14.7171 1137 114.203 417.433 468.51
236 0 83.2089 14.7821 1230 111.712 417.484 467.907
237 1 41.0178 12.9212 530 107.283 417.849 488.16
238 0 41.0765 14.8016 608 108.446 417.24 481.905
239 0 42.0615 10.3896 437 117.808 418.064 480.531
240 0 42.0615 10.4133 438 144.548 419.05 480.527
241 0 46.0944 10.5219 485 110.528 418.586 483.268
242 0 46.1117 11.5372 532 113.062 418.679 478.628
243 0 50.0833 16.6922 836 105.615 419.215 475.362
244 0 48.0319 10.8261 520 113.006 420.69 478.452
245 0 51.0813 14.8391 758 108.425 420.532 475.339
246 0 56.3179 12.0388 678 108.114 421.64 478.558
247 0 55.1104 12.5385 691 112.027 422.136 471.579
248 0 58.1121 13.0782 760 110.016 422.392 469.847
249 0 59.0813 11.9327 705 113.498 424.652 470.16
250 1 126.35 14.0879 1780 116.031 424.755 438.133
251 0 130.146 13.3004 1731 117.712 425.422 436.531
252 0 135.349 13.0108 1761 118.627 426.187 437.138
253 0 140.368 14.9606 2100 114.294 426.552 439.84
254 0 142.836 16.4245 2346 114.708 427.454 430.478
255 1 73.2123 16.6229 1217 107.998 426.325 470.952
256 0 75.1511 13.6658 1027 113.915 426.683 468.757
257 0 76.2137 11.9664 912 116.512 427.572 471.026
258 0 80.207 14.8491 1191 114.995 427.731 466.196
259 0 86.4742 15.9354 1378 112.517 428.216 464.82
260 1 47.2462 10.1172 478 117.483 428.061 482.638
261 0 48.1484 13.6869 659 112.352 425.675 480.918
262 0 46.2337 12.1556 562 111.397 426.064 474.19
263 0 51.1437 14.0975 721 112.398 427.268 485.173
264 0 51.0758 12.2367 625 117.118 425.573 486.579
265 0 55.1223 14.3862 793 113.392 425.96 483.544
266 0 55.156 13.9967 772 115.449 424.859 482.12
267 0 58.2007 16.0823 936 110.237 424.376 484.429
268 0 58.152 12.347 718 117.903 423.451 481.511
269 0 61.2484 14.0412 860 117.212 422.737 478.643
270 0 64.1419 14.2964 917 117.434 421.096 477.24
271 0 67.1667 14.2928 960 116.828 420.538 476.816
272 0 68.0565 15.7369 1071 115.582 421.215 473.937
273 0 72.296 15.9483 1153 114.262 421.659 475.185
274 0 74.365 14.5633 1083 115.824 419.956 474.203
275 0 72.2376 14.2447 1029 119.128 419.047 470.08
276 0 77.314 14.8744 1150 117.413 418.441 466.461
277 0 78.1807 14.5688 1139 118.848 418.203 462.835
278 0 81.1459 13.4942 1095 120.361 418.2 461.725
279 0 84.08 13.9272 1171 119.445 416.301 458.299
280 0 89.1784 15.9568 1423 115.03 418.307 463.03
281 0 90.0717 13.5226 1218 119.758 417.754 455.127
282 0 94.1353 14.5216 1367 118.602 418.924 450.819
283 0 98.1611 15.9024 1561 114.578 419.024 456.409
284 0 101.383 15.2392 1545 115.778 420.017 451.795
285 1 50.1455 10.5094 527 117.292 420.759 469.205
286 0 52.0785 12.5964 656 111.857 422.059 471.646
287 0 54.1354 13.8726 751 114.012 421.827 472.459
288 0 58.0895 14.5465 845 113.181 422.551 471.334
289 0 55.2779 12.7357 704 118.884 422.841 465.651
290 0 59.0776 12.6613 748 117.88 423.965 466.508
291 0 58.0433 15.6435 908 112.865 423.882 467.391
292 0 62.0604 12.8423 797 118.533 426.407 464.437
293 0 64.0757 12.7661 818 118.52 426.285 462.669
294 0 64.1844 13.321 855 118.075 426.673 462.911
295 0 69.0972 12.7067 878 117.754 427.464 461.345
296 0 72.0613 13.6828 986 115.583 429.252 465.303
297 0 74.1643 15.5466 1153 112.308 430.258 461.942
298 0 78.0941 13.4709 1052 115.7 429.383 459.013
299 0 78.1679 11.616 908 118.511 430.36 463.133
300 0 83.2856 16.3534 1362 111.198 430.427 460.905
301 0 83.2395 13.4672 1121 115.919 429.924 462.209
302 0 87.1477 13.5747 1183 115.943 429.361 459.698
303 0 90.1451 13.7667 1241 114.66 428.229 460.4
304 0 91.3328 12.865 1175 118.866 427.98 455.281
305 0 96.2683 12.0497 1160 118.439 426.983 456.983
306 0 96.2987 13.8008 1329 116.531 427.136 457.885
307 1 49.1069 12.2386 601 113.09 425.517 482.694
308 0 51.1187 11.8156 604 114.747 425.106 483.576
309 0 54.2468 12.9224 701 113.894 424.779 481.492
310 0 56.252 11.6262 654 114.865 424.014 483.225
311 0 58.1903 14.9509 870 109.153 423.923 480.269
312 0 58.1954 15.173 883 109.325 422.442 481.837
313 0 62.1615 13.6901 851 111.606 422.376 478.694
314 0 64.2953 12.4582 801 112.773 422.662 477.308
315 0 64.1742 12.6063 809 112.714 421.902 476.494
316 0 67.0798 13.5808 911 111.175 420.677 474.025
317 0 66.0476 10.8104 714 115.885 418.098 470.38
318 0 71.1031 13.1077 932 111.214 417.992 471.658
319 0 73.0809 12.7393 931 113.305 418.465 470.466
320 0 76.1539 17.202 1310 107.731 418.188 466.013
321 0 77.128 16.3105 1258 110.184 418.737 464.335
322 0 82.3221 15.1964 1251 111.612 419.62 468.922
323 0 83.3315 17.7484 1479 107.279 419.886 469.011
324 0 85.1444 17.7933 1515 110.04 420.538 462.363
325 0 87.2661 12.6624 1105 119.214 420.326 455.727
326 0 92.2619 13.505 1246 117.453 420.52 456.796
327 0 97.2413 18.1199 1762 108.511 421.962 457.809
328 0 95.2262 14.3868 1370 118.432 421.321 445.656
329 0 99.1908 22.0484 2187 105.037 422.272 444.611
330 0 102.361 16.6567 1705 111.375 421.812 443.236
331 0 102.361 16.6762 1707 141.651 421.785 443.347
332 1 54.0738 11.1514 603 117.614 423.751 461.363
333 0 58.1917 14.2116 827 111.756 423.437 462.075
334 0 60.3078 12.4362 750 115.785 423.813 462.221
335 0 64.0922 13.7458 881 113.995 425.48 466.562
336 0 64.0965 11.3891 730 117.527 425.768 464.437
337 0 69.1247 13.0199 900 114.913 426.519 462.351
338 0 69.1731 13.4879 933 115.608 428.356 460.34
339 0 70.3094 13.9242 979 114.924 429.622 459.302
340 0 75.4449 14.1958 1071 113.564 428.538 462.804
341 0 76.108 13.31 1013 116.253 430.865 460.333
342 0 79.128 15.2032 1203 112.845 429.059 458.126
343 0 82.0891 15.0934 1239 113.266 429.437 457.779
344 0 84.3075 13.854 1168 114.192 431.364 462.11
345 0 87.305 13.6647 1193 115.332 431.519 456.753
346 0 90.2702 15.1434 1367 110.691 430.312 460.19
347 0 91.0869 15.6334 1424 110.038 430.747 457.303
348 0 95.2226 12.5915 1199 114.779 429.888 449.927
349 1 50.1318 11.3301 568 109.474 428.836 480.199
350 0 50.1318 11.4498 574 134.526 428.824 480.277
351 0 54.0907 12.3126 666 109.985 428.312 481.965
352 0 54.0907 12.2757 664 128.102 426.355 481.94
353 0 57.1325 12.3047 703 109.622 429.249 480.787
354 0 60.044 13.1071 787 109.432 427.662 479.341
355 0 64.3615 14.1078 908 106.317 427.037 481.326
356 0 63.1758 11.5234 728 112.527 426.158 475.973
357 0 65.0929 10.6156 691 114.065 424.971 478.622
358 0 70.1747 14.4069 1011 108.551 425.398 469.457
359 0 70.2601 13.0515 917 111.761 424.997 466.904
360 0 72.1287 13.1016 945 112.025 422.308 466.673
361 0 81.2438 19.94 1620 99.2019 424.014 471.711
362 0 78.228 12.911 1010 111.562 422.491 464.06
363 0 79.1712 13.2498 1049 112.336 422.264 461.041
364 0 81.1144 14.572 1182 109.629 421.129 461.641
365 0 83.1525 10.3424 860 117.966 421.215 454.214
366 0 88.239 15.5713 1374 109.505 421.712 454.86
367 0 91.1359 13.9352 1270 112.192 421.95 450.586
368 0 95.1548 14.0193 1334 111.052 421.352 452.591
369 1 51.0234 13.6996 699 106.268 421.31 473.904
370 0 54.4234 12.6233 687 107.729 421.891 469.493
371 0 53.1589 14.3908 765 108.635 422.593 469.46
372 0 54.1225 12.0652 653 110.845 422.389 467.504
373 0 60.107 13.4427 808 107.819 424.099 469.522
374 0 60.2165 15.6934 945 105.075 425.133 464.244
375 0 60.1702 14.1266 850 107.301 425.439 466.628
376 0 61.0454 17.8883 1092 103.58 426.695 462.651
377 0 64.1913 13.2261 849 109.544 426.273 464.497
378 0 66.138 14.3488 949 108.978 428.94 462.695
379 0 71.1804 12.9811 924 109.653 430.132 463.749
380 0 70.2959 16.4305 1155 107.326 430.152 459.401
381 0 75.1929 15.1743 1141 107.947 430.262 459.176
382 0 76.2471 13.3776 1020 110.8 431.818 462.76
383 0 76.1492 14.1564 1078 111.924 430.917 454.831
384 0 79.1513 12.533 992 113.298 432.493 457.423
385 0 78.2152 10.778 843 116.558 431.147 457.122
386 0 85.1158 14.8739 1266 110.512 432.096 454.93
387 0 88.2493 11.6828 1031 115.707 431.291 457.876
388 0 91.2004 13.2565 1209 114.178 432.149 457.234
389 1 48.1731 12.3513 595 108.415 432.002 479.603
390 0 49.0326 11.3598 557 110.594 433.68 482.038
391 0 50.0563 10.4282 522 113.72 433.241 478.523
392 0 52.0547 13.1784 686 109.418 431.754 479.106
393 0 51.1398 10.8722 556 113.178 431.707 480.811
394 0 53.0646 12.6638 672 109.932 430.353 480.664
395 0 55.182 12.9209 713 109.088 429.23 481.335
396 0 55.1157 11.9385 658 111.657 430.635 480.509
397 0 60.0939 13.9282 837 107.785 429.605 481.599
398 0 59.158 11.6975 692 111.919 428.277 479.223
399 0 60.1412 13.9671 840 109.594 427.01 479.501
400 0 62.3585 11.8508 739 112.965 426.211 476.34
401 0 64.4131 13.5687 874 110.516 425.301 473.986
402 0 65.2434 11.2808 736 114.601 424.993 473.98
403 0 68.2025 12.6828 865 112.169 423.437 472.692
404 0 72.5348 14.6826 1065 108.236 423.549 470.404
405 0 76.1547 14.9301 1137 107.401 422.141 465.938
406 0 78.1556 15.226 1190 105.659 423.295 468.683
407 0 79.0954 13.5406 1071 109.205 420.986 461.685
408 0 79.4195 10.9041 866 114.083 421.572 459.568
409 0 80.3642 11.9207 958 111.817 420.054 459.691
410 1 43.1801 9.65723 417 108.823 419.868 471.424
411 0 42.2262 10.1122 427 103.248 420.375 470.789
412 0 44.0421 9.8769 435 102.423 419.338 471.207
413 0 46.1357 10.2957 475 106.345 419.602 465.756
414 0 46.0466 8.51311 392 113.533 420.788 469.855
415 0 50.0244 10.7547 538 109.147 421.089 469.545
416 0 54.0751 15.9778 864 101.253 420.922 468.606
417 0 55.0918 12.343 680 106.609 421.081 465.813
418 0 57.0797 12.1409 693 107.756 423.229 466.193
419 0 60.133 13.3537 803 104.26 427.42 467.542
420 0 60.1716 12.8964 776 107.303 427.122 466.061
421 0 60.1513 10.5068 632 111.122 426.687 463.688
422 0 64.0446 10.7737 690 111.052 429.233 462.261
423 0 64.1191 11.7594 754 109.375 428.634 463.353
424 0 67.0772 10.8084 725 111.639 429.477 457.724
425 0 67.0772 10.7935 724 129.264 430.479 457.771
426 0 74.2252 14.1192 1048 106.584 431.428 460.788
427 0 74.2252 13.9979 1039 129.68 432.459 460.755
428 0 77.1165 11.2557 868 111.433 431.96 461.251
429 0 80.1162 17.6993 1418 102.319 431.41 460.02
430 0 80.2034 11.9945 962 109.733 430.194 455.357
431 0 84.1704 11.7025 985 110.769 431.488 453.446
432 1 47.2757 12.9242 611 103.049 431.137 480.571
433 0 49.1917 9.85938 485 107.546 431.707 480.953
434 0 51.1587 14.5625 745 100.885 431.024 477.824
435 0 52.101 14.184 739 102.89 429.602 475.719
436 0 53.1529 9.53852 507 108.12 427.925 479.706
437 0 58.2823 12.8512 749 102.609 427.814 480.081
438 0 58.0548 10.7829 626 106.08 427.051 479.912
439 0 59.1351 9.57131 566 108.783 427.519 476.905
440 0 62.0937 12.0624 749 105.971 426.507 476.943
441 0 63.1479 13.5238 854 105.275 426.289 472.206
442 0 65.1964 12.2093 796 107.153 425.702 471.288
443 0 64.037 13.1799 844 106.662 424.11 472.591
444 0 70.0596 17.899 1254 99.3684 423.132 473.078
445 0 72.1779 16.4178 1185 101.209 424.05 469.911
446 0 71.2915 10.1835 726 111.409 421.93 469.632
447 0 75.3354 14.0306 1057 105.118 422.778 466.71
448 0 77.2105 11.242 868 108.169 422.215 470.421
449 0 78.2547 13.6222 1066 106.737 422.492 463.896
450 0 83.3078 13.5642 1130 106.958 422.714 460.369
451 0 86.3017 16.593 1432 103.224 422.3 461.519
452 1 46.4732 12.6955 590 104.4 422.41 478.403
453 0 46.1545 13.3465 616 102.071 421.219 478.776
454 0 47.1114 13.1603 620 104.09 420.973 477.045
455 0 49.1178 11.1976 550 104.165 421.295 472.655
456 0 51.0649 11.9652 611 102.709 420.915 480.319
457 0 53.0851 14.2601 757 99.4954 422.708 480.539
458 0 55.1565 12.0203 663 105.703 422.092 472.653
459 0 57.1009 13.6951 782 103.147 422.763 474.293
460 0 59.3468 13.3284 791 106.645 423.718 468.918
461 0 62.3485 18.0918 1128 97.758 423.14 472.205
462 0 64.2454 15.1917 976 102.511 424.795 472.347
463 0 65.2675 13.4983 881 106.368 424.448 469.539
464 0 64.3353 11.7665 757 110.845 424.25 467.769
465 0 68.2748 14.3391 979 105.18 425.652 468.972
466 0 67.3534 11.0165 742 112.454 425.442 466.597
467 0 70.2825 11.2546 791 112.23 426.083 465.889
468 0 74.1679 12.0403 893 110.267 426.722 469.231
469 0 76.2924 14.8376 1132 107.756 427.127 463.837
470 0 79.1517 13.9858 1107 109.346 428.119 467.765
471 0 80.188 14.8651 1192 107.945 428.034 469.358
472 0 80.188 14.9648 1200 137.429 427.018 469.297
473 0 87.3073 13.2062 1153 111.901 428.189 465.398
474 0 89.2996 18.7123 1671 102.993 426.288 468.855
475 0 93.2664 15.0751 1406 109.503 427.62 461.178
476 1 48.1139 10.2673 494 112.682 427.694 489.634
477 0 50.1212 10.8537 544 112.7 425.392 487.95
478 0 50.0811 12.5796 630 109.886 425.284 489.276
479 0 52.2056 12.5082 653 106.044 425.358 485.257
480 0 54.1166 12.0665 653 108.358 425.156 479.698
481 0 53.1052 9.86721 524 113 424.784 479.916
482 0 56.1835 14.5772 819 105.176 424.462 480.784
483 0 59.1838 12.4189 735 107.83 424.244 485.937
484 0 60.0986 11.947 718 110.203 421.546 490.875
485 0 64.1434 13.4231 861 109.496 420.581 485.562
486 0 66.1598 12.8175 848 110.38 419.3 486.196
487 0 69.1198 13.4115 927 109.204 418.229 482.723
488 0 71.0635 21.5863 1534 98.4641 418.593 478.977
489 0 71.2571 14.146 1008 108.654 418.406 482.425
490 0 72.1866 12.0798 872 113.924 416.516 476.193
491 0 77.2085 19.6481 1517 101.914 417.474 480.897
492 0 79.0926 13.4399 1063 111.388 417.942 478.358
493 0 84.4375 17.1132 1445 104.835 418.057 475.48
494 0 83.1305 13.8818 1154 110.722 416.633 473.377
495 0 84.2363 14.3406 1208 110.286 415.371 468.371
496 0 86.1005 12.6945 1093 113.125 414.721 462.474
497 0 89.4302 13.6307 1219 112.704 415.802 456.989
498 0 95.2293 13.0737 1245 112.647 415.081 462.893
499 0 97.3308 15.7915 1537 108.824 415.099 457.63
500 0 102.247 25.7612 2634 96.5266 415.783 457.821
501 1 51.3749 14.2482 732 103.934 418.152 476.23
502 0 52.0703 10.5818 551 106.557 418.232 480.793
503 0 55.0976 15.0823 831 101.493 418.508 475.776
504 0 57.2103 12.8998 738 106.381 418.822 473.947
505 0 58.0665 14.8278 861 104.504 419.355 473.187
506 0 58.0676 8.93785 519 114.197 419.158 471.553
507 0 60.0776 11.0357 663 110.701 420.754 471.947
508 0 62.0672 12.3254 765 108.642 422.218 468.808
509 0 64.0249 11.1051 711 109.335 422.578 465.224
510 0 69.0783 15.7358 1087 100.968 424.348 469.061
511 0 70.2573 12.3119 865 106.338 425.362 467.065
512 0 71.3435 13.4841 962 106.187 426.187 469.266
513 0 74.3871 14.8413 1104 104.628 426.216 464.356
514 0 80.6716 18.5195 1494 99.4351 426.47 462.015
515 0 79.5102 13.6083 1082 106.615 427.37 462.219
516 0 84.2474 17.3655 1463 100.799 427.99 462.654
517 0 86.4322 18.1877 1572 100.582 427.623 464.057
518 0 85.1725 14.7818 1259 105.909 428.295 460.605
519 0 92.4069 16.3191 1508 102.57 428.034 466.96
520 0 94.2566 12.8161 1208 108.796 426.966 460.598
521 0 99.5829 11.2369 1119 107.453 426.239 469.365
522 0 100.345 13.2044 1325 105.506 425.346 466.205
523 1 50.1508 13.4993 677 100.994 424.603 487.068
524 0 55.1651 10.8402 598 103.013 422.903 490.319
525 0 58.1548 12.2432 712 100.662 423.691 490.515
526 0 57.108 13.5533 774 101.747 423.2 484.513
527 0 60.325 11.5209 695 104.505 423.063 482.36
528 0 61.1741 13.0774 800 103.27 421.948 481.978
529 0 63.1007 11.7431 741 104.725 421.707 484.785
530 0 65.2484 11.6784 762 105.925 420.879 479.513
531 0 68.248 13.1139 895 103.771 420.505 479.131
532 0 68.0973 10.1472 691 108.486 419.889 477.275
533 0 71.1938 14.5518 1036 104.538 418.329 476.46
534 0 76.3174 13.8632 1058 106.351 417.826 475.302
535 0 79.2785 13.5346 1073 107.558 418.829 472.075
536 0 80.2986 13.263 1065 108.898 417.734 470.273
537 0 82.3098 14.0323 1155 109.057 417.131 464.78
538 0 84.3366 12.6873 1070 112.065 417.751 464.676
539 1 42.2166 8.66957 366 113.74 417.525 485.413
540 0 43.3922 10.8545 471 111.2 417.467 479.565
541 0 47.2125 12.7085 600 109.585 417.887 480.903
542 0 51.2081 12.7909 655 107.757 416.041 481.325
543 0 49.2095 9.49004 467 114.578 418.058 478.15
544 0 52.1742 12.2474 639 109.487 418.728 478.44
545 0 54.1594 10.8014 585 113.234 417.938 475.518
546 0 54.1444 13.7595 745 108.077 419.216 477.243
547 0 58.2783 11.325 660 111.111 417.818 473.206
548 0 58.2731 12.819 747 110.124 420.699 470.862
549 0 59.1433 14.6255 865 108.314 420.083 469.765
550 0 62.1801 12.0778 751 112.146 420.458 467.389
551 0 65.2727 12.2256 798 111.624 422.325 471.035
552 0 65.2727 12.2563 800 146.265 424.316 471.13
553 0 70.2452 14.2216 999 109.085 421.818 467.091
554 0 71.2085 13.5939 968 112.013 422.219 464.304
555 0 73.1629 11.3309 829 116.304 422.754 468.139
556 0 77.2888 18.3468 1418 103.719 423.765 468.962
557 0 79.1584 14.3383 1135 112.287 425.787 462.685
558 0 82.3722 14.0096 1154 112.712 426.569 466.094
559 0 84.2864 12.3626 1042 116.103 426.484 465.866
560 0 88.2694 11.5555 1020 117.262 425.496 463.695
561 0 89.303 11.8585 1059 116.914 426.21 464.675
562 0 96.2456 15.8345 1524 110.606 425.467 463.233
563 1 51.1336 11.1473 570 112.626 424.928 487.689
564 0 52.1907 9.90597 517 115.265 425.35 487.048
565 0 55.4501 12.2092 677 113.09 423.743 486.443
566 0 54.1344 13.4295 727 110.417 423.297 485.359
567 0 58.3214 13.7342 801 110.881 422.919 484.375
568 0 59.1573 13.6416 807 111.949 422.39 482.311
569 0 63.1661 13.5832 858 111.162 422.127 486.664
570 0 63.291 12.6242 799 114.449 421.977 485.372
571 0 66.1552 14.7532 976 110.83 421.583 486
572 0 67.2165 12.1101 814 116.188 419.928 480.857
573 0 72.233 14.8132 1070 111.801 418.93 478.118
574 0 72.2003 13.7395 992 113.949 418.011 482.331
575 0 75.1523 16.2337 1220 110.723 418.365 475.24
576 0 75.1523 16.247 1221 129.253 418.343 475.041
577 0 81.0974 15.8575 1286 110.198 416.344 472.872
578 0 83.2178 13.699 1140 113.611 416.701 474.332
579 0 84.0971 12.9255 1087 114.683 415.819 471.33
580 0 87.1091 14.7057 1281 111.955 416.38 469.126
581 0 91.1803 19.2476 1755 104.595 416.334 469.64
582 0 91.1912 14.3435 1308 112.761 415.755 462.674
583 0 98.1492 15.6293 1534 109.489 415.69 459.823
584 0 100.252 13.5658 1360 112.187 416.888 461.536
585 0 104.161 16.1288 1680 109.175 417.155 457.317
586 0 108.373 14.7915 1603 110.229 417.58 454.842
587 1 51.0716 10.73 548 111.589 417.06 480.947
588 0 54.1522 14.8286 803 109.333 419.209 477.076
589 0 54.3085 14.123 767 109.729 418.413 476.511
590 0 57.2783 13.7225 786 112.519 419.421 475.467
591 0 59.6265 15.53 926 108.378 419.242 475.621
592 0 59.2742 12.8724 763 111.094 420.716 474.084
593 0 61.5328 14.3826 885 111.045 420.795 469.939
594 0 64.276 15.2934 983 108.033 420.515 469.035
595 0 67.3266 11.0209 742 113.352 421.788 470.225
596 0 70.4148 12.8524 905 109.278 421.603 471.988
597 0 71.3521 13.062 932 109.823 424.396 468.861
598 0 75.5569 15.6041 1179 105.255 425.069 472.021
599 0 72.5619 12.5686 912 111.777 424.846 468.648
600 0 78.1767 15.2475 1192 108.348 425.539 463.74
601 0 80.2565 17.1824 1379 106.141 427.177 466.228
602 0 83.3092 13.912 1159 110.128 426.474 466.931
603 0 86.4347 13.5015 1167 110.609 425.719 468.632
604 0 88.5764 14.9588 1325 110.676 426.046 467.909
605 0 90.3309 18.5319 1674 106.274 426.251 465.944
606 0 94.2639 16.2098 1528 109.245 426.061 460.142
607 1 53.1104 11.4855 610 109.513 425.754 491.39
608 0 50.3237 10.8895 548 112.546 426.1 489.657
609 0 51.1887 11.0571 566 112.62 425.412 487.438
610 0 51.189 13.8116 707 105.823 423.569 486.051
611 0 54.0443 14.081 761 106.259 422.995 486.963
612 0 57.4013 16.7418 961 103.92 423.881 488.946
613 0 58.0979 11.8765 690 111.738 422.836 484.891
614 0 61.103 13.1908 806 109.195 422.438 487.808
615 0 61.0869 13.7836 842 107.349 421.019 487.985
616 0 64.3273 14.535 935 107.143 420.657 483.896
617 0 66.1265 14.3815 951 107.157 418.797 484.428
618 0 66.2582 16.5112 1094 106.337 419.522 477.327
619 0 69.247 13.7334 951 109.008 419.019 481.651
620 0 76.3595 13.6329 1041 107.812 417.822 479.138
621 0 72.1585 15.5214 1120 107.776 417.034 473.041
622 0 74.0926 12.6598 938 111.053 416.241 475.095
623 0 78.3257 16.3803 1283 105.768 416.856 475.58
624 0 76.218 11.8345 902 114.235 416.696 472.081
625 0 81.1519 15.5757 1264 111.575 416.589 471.525
626 0 86.1303 17.2297 1484 108.449 415.654 470.287
627 0 89.283 15.7141 1403 111.195 417.364 467.367
628 0 90.2069 14.7439 1330 114.063 417.207 462.604
629 0 95.2268 20.4459 1947 105.513 416.209 460.484
630 1 49.0979 12.3427 606 113.876 418.95 482.63
631 0 50.0799 14.8962 746 109.488 417.591 481.603
632 0 54.213 12.5985 683 113.779 419.57 479.264
633 0 55.1407 15.4877 854 108.311 418.309 474.179
634 0 57.1794 13.4489 769 110.886 421.038 471.632
635 0 56.3667 13.7847 777 114.727 420.883 467.272
636 0 59.0578 11.9544 706 117.322 422.977 475.37
637 0 61.0729 12.4605 761 117.537 422.459 469.787
638 0 64.0912 15.1815 973 112.366 423.273 470.321
639 0 63.1036 12.2972 776 117.924 423.032 470.482
640 0 67.1336 12.8996 866 113.472 423.547 469.378
641 0 71.0911 15.9654 1135 109.256 423.33 471.02
642 0 73.0445 13.8135 1009 113.34 423.977 466.384
643 0 76.1524 13.8407 1054 112.537 423.779 465.751
644 0 79.1245 14.7995 1171 111.873 424.196 464.093
645 0 82.2012 13.6616 1123 113.12 424.084 466.045
646 0 86.1501 17.4347 1502 107.037 424.41 465.769
647 0 86.1626 11.78 1015 116.549 423.748 461.002
648 0 91.3179 13.6337 1245 112.434 424.763 465.732
649 0 94.1 14.3783 1353 111.65 423.999 463.429
650 0 98.1188 15.4099 1512 110.501 423.692 464.399
651 0 101.241 15.4582 1565 109.398 423.563 461.382
652 1 52.1408 16.7048 871 106.373 423.263 484.791
653 0 53.1652 17.3234 921 105.542 422.866 484.357
654 0 52.135 11.3168 590 114.922 422.722 487
655 0 56.08 13.6412 765 112.085 421.093 486.625
656 0 55.0636 12.2222 673 113.437 420.333 486.26
657 0 59.1749 12.8095 758 112.478 420.954 485.642
658 0 59.1448 11.7001 692 114.305 419.448 485.558
659 0 63.1532 13.966 882 112.107 420.092 481.557
660 0 64.4144 13.7392 885 113.125 419.611 480.615
661 0 66.2081 12.6118 835 115.346 418.257 481.656
662 0 69.0832 14.8082 1023 111.244 417.162 479.916
663 0 71.1817 15.3832 1095 109.257 417.81 479.795
664 0 75.1089 13.314 1000 112.396 416.976 476.165
665 0 75.2014 12.3402 928 114.142 417.154 475.267
666 0 77.2569 11.3776 879 117.023 416.561 473.776
667 0 82.1275 12.8702 1057 113.867 416.676 471.701
668 0 84.1394 12.8596 1082 114.082 415.738 471.172
669 0 86.1774 13.6927 1180 113.173 416.021 466.959
670 0 93.169 14.8225 1381 110.235 418.085 463.584
671 1 48.0861 16.928 814 102.475 417.095 485.493
672 0 49.1816 11.244 553 111.675 417.729 480.38
673 0 49.0498 10.4588 513 114.234 419.097 479.986
674 0 53.2734 12.2012 650 111.04 418.128 479.863
675 0 51.0929 12.0369 615 112.122 420.291 475.377
676 0 51.0929 12.0369 615 137.309 423.289 475.363
677 0 61.2115 17.5621 1075 104.212 422.133 471.369
678 0 60.1326 14.3017 860 109.516 422.488 473.444
679 0 62.3051 14.7339 918 108.545 423.007 471.4
680 0 64.0866 12.2178 783 110.939 423.281 473.098
681 0 68.0567 15.8691 1080 106.322 424.318 471.712
682 0 69.0636 13.5672 937 109.955 424.197 467.727
683 0 70.2471 12.271 862 112.177 424.302 467.526
684 0 74.1396 12.1527 901 113.337 425.483 469.39
685 0 76.2654 12.2598 935 113.466 426.35 466.641
686 0 79.2446 13.187 1045 111.406 426.411 468.722
687 0 79.2157 12.0431 954 114.53 426.329 468.8
688 0 85.7166 14.7929 1268 111.218 425.251 466.588
689 0 87.1426 13.3804 1166 113.294 425.917 463.978
690 0 88.2142 11.7101 1033 115.656 425.554 467.448
691 1 46.0391 10.3608 477 111.057 425.53 490.656
692 0 45.1132 13.2334 597 106.849 425.797 493.642
693 0 46.1466 9.77319 451 114.151 424.874 491.064
694 0 47.2503 12.8676 608 111.612 425.319 488.028
695 0 52.1117 12.8762 671 107.671 424.891 491.274
696 0 53.122 14.6267 777 105.678 425.172 489.839
697 0 51.1058 9.47056 484 115.977 422.157 490.762
698 0 54.1893 12.3641 670 113.097 423.482 490.843
699 0 56.1443 13.0022 730 112.29 422.556 489.495
700 0 56.2005 11.2455 632 116.967 421.302 487.081
701 0 62.2271 13.3061 828 112.408 420.425 486.96
702 0 62.1304 14.7593 917 112.323 420.504 483.459
703 0 65.1782 13.931 908 114.304 420.963 481.343
704 0 67.2185 12.9875 873 116.69 419.999 481.845
705 0 69.1743 15.1212 1046 113.619 418.971 478.756
706 0 69.1743 15.1212 1046 141.977 417.971 478.756
707 0 76.2411 13.6409 1040 114.803 418.736 477.812
708 0 77.1612 14.4244 1113 113.961 417.627 475.088
709 0 79.3632 16.267 1291 110.045 416.733 472.87
710 0 81.3913 13.5395 1102 115.829 417.86 469.24
711 0 85.0841 16.7364 1424 107.829 416.614 460.26
712 0 84.3789 14.2216 1200 112.481 417.095 457.907
713 0 87.0629 11.888 1035 115.122 415.616 462.451
714 0 87.0629 11.7961 1027 150.562 414.593 462.43
715 0 93.1814 13.1357 1224 115.918 416.967 453.615
716 0 96.3369 13.0064 1253 116.545 418.291 452.705
717 0 99.1506 15.2495 1512 112.895 418.308 452.962
718 0 100.257 13.4155 1345 116.506 419.281 445.314
719 0 103.22 13.1661 1359 116.559 418.309 447.123
720 0 105.29 13.6101 1433 117.022 420.562 443.832
721 0 110.293 14.8241 1635 114.007 421.051 447.946
722 0 112.236 15.5476 1745 113.648 421.555 441.778
723 0 116.358 24.2785 2825 101.902 421.578 441.205
724 0 120.373 15.992 1925 112.867 422.587 436.397
725 0 127.404 16.8205 2143 110.267 422.825 441.269
726 0 128.143 17.0123 2180 111.251 422.939 437.147
727 0 136.344 15.6589 2135 112.949 425.481 436.773
728 0 140.324 20.0679 2816 107.115 424.361 434.199
729 0 144.273 15.5539 2244 114.028 426.235 434.405
730 1 84.1947 10.0838 849 117.71 425.04 465.453
731 0 88.396 12.2064 1079 117.137 426.784 467.497
732 0 94.2074 14.3089 1348 115.163 427.188 468.957
733 0 98.199 16.7924 1649 109.887 427.56 470.951
734 0 101.241 14.3124 1449 113.524 426.839 468.78
735 0 102.257 14.1701 1449 115.642 425.482 464.71
736 0 108.295 14.599 1581 114.105 426.469 463.643
737 0 110.199 15.9257 1755 112.276 424.994 462.893
738 0 110.256 12.9607 1429 118.808 425.437 460.98
739 0 118.149 18.6037 2198 107.385 425.019 462.994
740 0 125.204 13.9293 1744 114.478 425.222 459.58
741 0 120.386 12.5928 1516 117.962 423.413 452.842
742 1 68.0922 12.204 831 112.892 423.532 481.667
743 0 72.312 13.4694 974 113.08 423.426 479.534
744 0 75.3322 14.8542 1119 113.898 422.674 479.519
745 0 77.1155 13.3047 1026 116.279 421.67 473.763
746 0 82.1538 15.398 1265 111.626 423.24 474.602
747 0 84.2212 17.3115 1458 108.518 421.295 470.787
748 0 87.2429 14.3507 1252 112.349 422.4 471.69
749 0 87.1817 11.1491 972 119.908 421.227 466.739
750 0 93.1521 13.5263 1260 114.886 420.979 469.13
751 0 95.234 12.9996 1238 116.271 420.13 464.235
752 0 96.238 14.2148 1368 115.471 419.969 459.898
753 0 100.114 14.953 1497 114.649 420.072 456.047
754 0 104.15 14.095 1468 116.597 420.402 453.903
755 0 107.171 17.1781 1841 111.987 420.514 450.566
756 0 111.428 19.0167 2119 106.895 420.626 457.69
757 1 58.2893 12.335 719 116.652 420.327 476.011
758 0 62.3015 14.3014 891 111.519 421.387 476.196
759 0 61.2613 10.2512 628 120.28 421.896 473.621
760 0 63.2614 13.3099 842 113.647 420.565 469.302
761 0 66.3514 12.901 856 114.713 421.377 470.796
762 0 67.1197 18.1914 1221 107.102 421.287 467.111
763 0 70.3383 14.7999 1041 111.813 423.69 469.179
764 0 71.303 13.1832 940 114.628 423.316 465.306
765 0 74.354 13.2205 983 116.034 424.327 464.838
766 0 80.3308 17.4528 1402 107.992 424.974 461.793
767 0 80.2449 13.0974 1051 115.19 426.108 462.361
768 0 81.2113 14.099 1145 113.949 426.12 461.066
769 0 87.1989 15.6768 1367 110.811 426.691 460.092
770 0 88.2482 16.5896 1464 110.316 427.581 460.189
771 0 92.3261 13.6039 1256 113.951 428.027 457.783
772 0 95.2162 16.9719 1616 107.752 427.108 462.191
773 0 101.244 16.89 1710 108.74 428.25 456.045
774 0 103.264 13.5962 1404 114.328 427.358 456.485
775 1 52.2459 10.776 563 113.258 427.869 484.149
776 0 57.2438 11.617 665 109.558 426.562 481.203
777 0 57.324 10.3796 595 108.261 426.005 478.103
778 0 53.2079 11.1826 595 109.802 426.277 471.968
779 0 60.2669 15.2488 919 103.696 426.331 476.468
780 0 62.1917 12.0273 748 110.541 426.85 474.743
781 0 64.2029 12.4761 801 115.914 425.881 479.152
782 0 67.1843 13.1132 881 113.518 426.35 479.219
783 0 70.1224 14.7029 1031 110.63 426.244 480.737
784 0 72.0914 12.5674 906 114.3 426.13 478.977
785 0 73.1191 11.8574 867 115.783 423.692 477.669
786 0 76.2246 12.8567 980 113.657 421.983 475.873
787 0 80.1964 16.709 1340 106.862 422.046 477.249
788 0 80.3172 13.3844 1075 113.206 421.133 474.164
789 0 82.3519 12.6287 1040 114.316 421.274 472.499
790 0 85.2673 16.4659 1404 108.171 420.061 471.851
791 0 88.2876 16.6388 1469 107.654 421.035 468.131
792 0 91.1662 14.9617 1364 108.845 419.828 468.857
793 0 95.2789 15.25 1453 109.045 421.19 465.789
794 1 50.1225 10.1751 510 112.833 419.796 483.743
795 0 52.1041 9.67294 504 111.135 418.692 483.659
796 0 53.2824 10.2848 548 113.038 419.655 478.093
797 0 55.2869 10.4546 578 117.573 420.407 480.735
798 0 57.2304 12.6157 722 113.996 419.134 479.102
799 0 57.2221 13.2117 756 114.222 419.901 476.266
800 0 57.2221 13.2466 758 122.962 420.906 476.313
801 0 62.2282 15.1378 942 111.005 420.251 469.738
802 0 66.1053 13.0096 860 113.574 419.891 470.393
803 0 68.3627 13.6917 936 112.433 420.36 469.349
804 0 67.2082 11.7396 789 115.882 420.62 467.564
805 0 71.2631 12.6713 903 114.71 422.162 463.379
806 0 74.2313 10.9253 811 115.794 422.688 464.618
807 0 77.2059 11.5276 890 113.164 422.684 463.798
808 0 80.1563 12.4881 1001 112.919 425.228 460.341
809 1 43.1252 10.1797 439 110.633 425.872 483.954
810 0 45.0672 12.8697 580 107.493 425.524 480.753
811 0 46.1809 11.7581 543 109.361 427.341 480.457
812 0 42.0864 7.38955 311 116.733 425.945 483.608
813 0 47.0902 12.5716 592 108.329 426.434 477.811
814 0 53.4843 12.714 680 106.541 427.282 479.476
815 0 53.4843 12.6579 677 138.818 427.261 479.421
816 0 52.128 11.2032 584 114.606 428.041 479.779
817 0 54.2186 12.0992 656 113.215 426.927 478.913
818 0 56.2524 13.7594 774 111.358 426.494 477.008
819 0 58.3745 12.1457 709 114.733 426.396 474.124
820 0 57.132 14.5978 834 112.36 426.752 478.35
821 0 61.071 13.9182 850 108.679 426.939 483.907
822 0 63.1459 13.1283 829 113.131 426.609 480.142
823 0 66.1769 14.6275 968 111.388 425.292 478.239
824 0 68.3875 13.2042 903 113.186 426.92 481.329
825 0 68.331 13.8883 949 114.257 425.532 476.631
826 0 71.2645 12.4466 887 116.852 425.211 480.629
827 0 77.2359 14.3975 1112 113.961 423.96 477.844
828 0 76.1657 15.2825 1164 113.645 424.311 474.023
829 1 40.0806 12.1505 487 116.593 422.877 491.842
830 0 42.1381 12.3167 519 114.129 422.046 495.543
831 0 43.3804 10.9266 474 119.684 422.405 491.323
832 0 44.2136 12.0325 532 118.724 422.032 488.464
833 0 47.1695 14.6493 691 113.415 421.161 488.103
834 0 47.1375 11.1588 526 121.105 420.101 486.901
835 0 51.1458 15.4265 789 112.811 419.776 484.423
836 0 51.0935 13.5046 690 117.02 420.275 482.729
837 0 52.258 14.4093 753 116.007 419.924 480.586
838 0 55.1086 14.0268 773 116.022 419.974 479.471
839 0 56.1118 13.3127 747 117.814 419.637 479.003
840 0 55.1041 12.1407 669 120.622 418.749 476.453
841 0 60.2017 14.468 871 115.766 419.499 476.18
842 0 60.0584 12.2381 735 119.958 420.039 474.259
843 0 60.0536 11.6896 702 120.973 420.531 473.698
844 0 64.0747 14.2178 911 116.863 420.461 469.902
845 0 65.3272 12.9196 844 118.705 421.051 468.852
846 0 72.5566 17.0488 1237 109.055 421.974 473.779
847 0 68.1592 13.1604 897 119.303 422.35 465.86
848 0 72.2966 14.5373 1051 116.578 423.774 464.838
849 0 75.2902 15.075 1135 115.81 423.967 464.083
850 0 77.1953 13.8091 1066 118.92 424.302 463.321
851 0 81.1645 15.4255 1252 116.051 424.812 460.112
852 0 84.2449 13.9118 1172 118.263 425.968 461.547
853 1 46.0769 10.6995 493 120.132 425.42 480.126
854 0 47.0647 12.0048 565 120 426.57 478.028
855 0 51.1494 13.9787 715 115.008 426.25 476.239
856 0 51.1494 13.8418 708 135.963 425.268 476.244
857 0 50.2887 11.4738 577 121.627 427.931 465.641
858 0 52.3407 13.3548 699 119.026 429.052 466.519
859 0 58.1822 12.6327 735 116.755 428.97 472.78
860 0 55.1927 13.8968 767 120.083 428.636 464.906
861 0 56.1886 13.6683 768 120.358 427.947 464.285
862 0 58.2133 16.7659 976 113.34 428.044 470.529
863 0 59.2695 12.3841 734 122.392 428.714 469.221
864 0 62.2201 12.3272 767 121.85 426.51 470.086
865 0 62.2652 13.4264 836 120.022 425.711 472.293
866 0 65.2051 14.5541 949 118.348 426.884 469.347
867 0 66.4288 14.5419 966 118.771 426.239 470.382
868 0 70.1681 13.0116 913 122.264 426.493 472.059
869 0 72.1878 21.264 1535 107.334 424.936 474.482
870 0 75.1364 13.6951 1029 121.042 425.309 468.916
871 0 75.3508 12.3423 930 124.098 424.565 465.652
872 0 80.1454 15.8088 1267 117.898 423.451 466.628
873 0 83.2325 17.0486 1419 115.239 422.204 466.736
874 0 86.4003 15.0347 1299 119.57 421.986 462.594
875 0 90.2058 21.3401 1925 109.571 421.475 456.643
876 1 44.2822 11.7429 520 121.031 421.585 470.721
877 0 49.1893 13.8851 683 113.985 421.637 475.176
878 0 47.1026 13.0566 615 117.324 421.273 471.19
879 0 52.1109 15.9276 830 111.153 420.359 468.761
880 0 44.0286 9.60738 423 126.163 420.61 461.012
881 1 53.0558 12.4209 659 117.807 419.825 467.476
882 0 57.1291 16.0864 919 109.725 420.487 473.952
883 0 56.0932 13.3349 748 114.394 419.591 469.104
884 0 61.0906 10.8855 665 118.22 420.105 467.612
885 0 61.345 13.3018 816 114.663 419.991 463.461
886 0 61.1762 11.7366 718 117.299 421.386 465.284
887 0 66.1208 11.6302 769 116.324 421.818 463.611
888 0 70.2518 14.9889 1053 110.619 422.244 463.297
889 0 75.2189 14.624 1100 110.449 422.769 461.046
890 0 75.1632 12.8919 969 115.061 421.367 458.524
891 0 79.0973 15.424 1220 110.433 421.786 458.653
892 0 79.1492 12.2427 969 115.696 423.779 457.535
893 0 82.2626 14.3929 1184 113.733 423.331 455.678
894 0 84.3483 12.3772 1044 117.834 424.648 453
895 0 86.3577 12.7725 1103 117.084 425.341 455.064
896 0 90.1153 10.7862 972 119.716 425.367 454.821
897 0 93.2048 12.274 1144 117.787 425.535 454.553
898 0 97.2452 14.6948 1429 114.152 426.923 452.049
899 1 51.0187 9.80032 500 116.906 426.856 479.134
900 0 52.2768 11.2096 586 114.616 428.567 476.247
901 0 56.2114 13.2535 745 110.647 427.809 475.922
902 0 57.2368 13.6975 784 113.781 429.218 474.383
903 0 60.297 13.5828 819 112.974 428.817 476.551
904 0 64.2329 13.9804 898 110.687 429.438 474.163
905 0 62.13 13.7132 852 111.655 428.153 478.903
906 0 66.1681 14.0551 930 110.461 427.949 476.749
907 0 71.3294 13.3185 950 111.323 427.708 475.655
908 0 72.1588 11.4885 829 113.41 427.324 478.846
909 0 74.4487 12.4247 925 113.519 427.995 475.771
910 0 78.163 11.8982 930 114.103 426.753 475.844
911 0 80.0935 11.524 923 114.438 427.085 474.06
912 0 82.4592 14.2737 1177 111.414 426.174 470.162
913 0 82.4592 14.3344 1182 115.611 425.18 470.208
914 0 89.1945 15.0121 1339 110.602 425.599 469.932
915 1 49.1274 11.5007 565 109.057 424.619 494.531
916 0 50.0972 10.0804 505 112.804 424.493 490.257
917 0 53.0322 9.69223 514 111.613 423.235 490.302
918 0 56.1739 12.2833 690 110.11 421.22 486.149
919 0 58.3061 14.9727 873 106.231 422.948 486.22
920 0 58.1953 12.5783 732 111.124 421.515 483.617
921 0 61.4033 15.1946 933 105.84 422.578 480.753
922 0 62.3332 12.4171 774 110.266 420.716 481.283
923 0 65.2617 11.8753 775 111.728 421.041 480.614
924 0 62.1976 10.7882 671 117.574 421.308 476.662
925 0 65.2943 12.5432 819 115.499 421.288 475.995
926 0 70.2519 13.295 934 114.404 420.157 473.868
927 0 68.2569 11.9695 817 120.202 420.654 469.928
928 0 73.4428 14.3649 1055 115.406 420.756 469.246
929 0 76.4233 13.8832 1061 115.337 421.373 468.657
930 0 84.2221 15.3404 1292 110.671 420.668 467.81
931 0 82.2948 18.6646 1536 108.001 421.82 463.389
932 0 84.3653 14.129 1192 116.789 420.815 457.924
933 1 43.299 12.9564 561 112.988 422.592 478.075
934 0 44.2839 8.46808 375 119.355 422.419 476.531
935 0 47.1426 10.9243 515 114.511 423.917 479.039
936 0 50.1617 13.4166 673 114.828 424.783 477.617
937 0 50.0345 14.7098 736 112.966 425.721 475.726
938 0 50.0947 11.1988 561 120.05 425.963 475.708
939 0 52.2239 11.2592 588 119.951 427.675 480.065
940 0 52.1574 9.14539 477 126.736 426.625 477.208
941 0 56.2408 13.1577 740 122.118 426.897 475.212
942 0 60.1111 13.7579 827 118.692 428.244 476.901
943 0 58.2556 11.4495 667 125.886 428.37 472.727
944 0 62.1659 14.4131 896 119.518 427.805 471.721
945 0 68.3139 14.4627 988 116.892 428.207 474.711
946 0 68.3876 14.681 1004 117.204 427.582 472.993
947 0 70.4851 14.4144 1016 117.415 428.283 475.524
948 0 72.5157 13.9694 1013 117.665 428.76 471.412
949 0 74.2139 11.925 885 120.835 428.316 473.589
950 0 75.3672 12.5386 945 121.186 428.35 472.726
951 0 79.4218 12.5029 993 120.221 427.973 471.542
952 0 83.258 12.143 1011 121.334 428.299 472.629
953 1 41.167 8.13759 335 121.94 426.782 495.776
954 0 43.1422 9.48028 409 123.606 427.692 488.144
955 0 42.1102 7.95532 335 126.558 427.481 488.272
956 0 48.1814 12.1624 586 116.21 425.923 491.102
957 0 50.1401 11.9266 598 118.067 425.657 490.823
958 0 52.0333 14.337 746 114.122 424.588 491.591
959 0 54.0615 16.8142 909 109.748 424.743 487.227
960 0 54.0803 13.6834 740 116.25 422.745 485.118
961 0 55.1139 12.701 700 117.447 422.786 487.033
962 0 56.0941 12.4077 696 118.072 421.059 482.32
963 0 59.0365 15.1432 894 112.9 422.962 480.855
964 0 61.2105 15.2262 932 111.795 421.391 481.771
965 0 64.1137 14.1 904 112.251 420.898 479.933
966 0 64.0464 12.9125 827 115.779 421.447 480.855
967 0 65.04 13.9606 908 114.617 421.883 479.291
968 0 67.1066 15.1252 1015 112.278 421.47 477.881
969 0 69.1228 15.3929 1064 112.448 421.59 473.333
970 0 73.0759 13.2328 967 115 421.108 470.786
971 0 72.1356 11.6863 843 118.955 422.389 472.077
972 0 76.0687 13.2117 1005 114.096 420.857 465.873
973 0 79.0578 12.4086 981 116.607 422.735 464.915
974 0 81.0951 14.0946 1143 115.004 422.53 461.711
975 0 84.0447 14.2067 1194 114.744 423.25 461.444
976 1 41.0479 11.2552 462 118.331 423.121 483.301
977 0 44.1902 14.5734 644 112.61 423.571 478.548
978 0 46.2451 12.304 569 114.214 424.45 480.768
979 0 47.3347 12.887 610 114.238 425.23 475.452
980 0 49.1917 19.4342 956 103.098 424.891 475.611
981 0 50.2482 15.1846 763 110.611 426.427 476.49
982 0 51.0756 14.1359 722 111.91 425.749 475.988
983 0 54.1256 13.3578 723 111.671 426.34 471.824
984 0 54.2736 13.2845 721 113.743 427.698 473.662
985 0 57.5187 12.7437 733 113.896 427.827 474.265
986 0 60.4316 15.29 924 108.999 428.466 474.171
987 0 60.2149 12.555 756 115.948 428.024 473.116
988 0 61.1686 17.5907 1076 107.112 427.776 473.356
989 0 67.1063 13.65 916 117.195 428.368 464.464
990 0 68.2421 14.683 1002 115.982 428.953 459.887
991 0 69.1588 12.3484 854 121.71 427.641 464.911
992 0 71.1293 16.941 1205 110.384 427.354 468.211
993 0 75.4046 16.6966 1259 109.581 427.56 471.197
994 0 77.3158 14.098 1090 114.973 427.586 471.447
995 0 76.2405 12.4081 946 117.58 427.959 471.033
996 0 83.1472 16.0198 1332 112.173 425.526 472.529
997 0 86.4235 14.8571 1284 114.138 424.886 469.288
998 0 95.451 16.9197 1615 108.894 425.81 464.175
999 1 50.1147 10.8152 542 117.528 425.675 486.638
1000 0 48.3298 9.99383 483 120.304 424.062 486.886
1001 0 51.2314 9.62301 493 117.302 422.306 488.28
1002 0 57.3308 9.15738 525 117.848 423.029 488.503
1003 0 54.6486 10.5218 575 118.543 422.485 482.61
1004 0 55.3191 16.5766 917 106.911 421.858 485.628
1005 1 108.492 16.0289 1739 113.701 421.148 453.84
1006 1 58.2905 11.3569 662 113.897 421.551 482.574
1007 0 60.4155 15.1451 915 108.962 421.469 480.313
1008 0 62.183 11.8843 739 113.456 420.713 479.585
1009 0 64.2881 15.4461 993 111.131 419.178 478.234
1010 0 65.2771 16.1619 1055 110.533 419.825 475.785
1011 0 68.2331 16.0772 1097 111.708 420.282 471.912
1012 0 70.4771 18.545 1307 108.685 419.208 466.204
1013 0 75.3565 15.9508 1202 111.473 419.449 467.833
1014 0 76.32 15.9984 1221 110.521 419.12 467.009
1015 0 77.3927 10.8667 841 119.738 420.891 463.866
1016 0 81.3905 13.2202 1076 113.748 422.102 467.319
1017 0 85.591 13.4477 1151 112.422 421.886 466.484
1018 0 87.4309 13.3706 1169 116.371 422.393 455.844
1019 0 88.4241 14.7245 1302 113.889 423.055 457.282
1020 0 94.5435 14.7868 1398 113.261 423.922 453.436
1021 1 50.298 12.0482 606 112.634 424.317 473.906
1022 0 53.2425 12.9596 690 110.364 424.133 476.367
1023 0 52.2042 11.9531 624 114.285 424.758 473.905
1024 0 55.0506 12.0616 664 113.563 426.392 472.658
1025 0 59.0918 11.8967 703 113.451 426.752 472.425
1026 0 60.0946 12.2473 736 112.168 427.079 472.246
1027 0 62.0911 12.53 778 112.184 427.288 472.594
1028 0 63.1104 14.0389 886 111.668 428.528 470.354
1029 0 66.3105 12.4867 828 112.663 428.833 467.04
1030 0 67.2869 12.9297 870 111.905 430.449 465.213
1031 0 71.2851 16.2867 1161 104.594 430.14 472.123
1032 0 71.1367 14.1558 1007 109.751 429.764 467.34
1033 0 74.3575 12.0633 897 114.068 429.648 464.477
1034 0 76.2207 13.7233 1046 111.576 429.908 463.9
1035 0 79.1269 12.4357 984 112.763 429.946 469.732
1036 0 83.3024 14.5734 1214 110.052 429.548 468.039
1037 0 83.3024 14.5974 1216 123.372 429.552 468.083
1038 0 87.4377 13.5525 1185 115.792 428.126 453.913
1039 0 92.3308 12.2278 1129 117.329 426.67 454.838
1040 0 93.3156 14.7671 1378 113.627 426.363 457.546
1041 0 98.3833 13.3458 1313 116.362 427.757 455.883
1042 1 47.0701 8.96534 422 121.166 427.358 480.87
1043 0 54.2113 11.6396 631 116.247 426.23 483.379
1044 0 52.0325 9.16735 477 120.709 424.901 484.721
1045 0 55.1481 12.3848 683 115.993 424.104 483.079
1046 0 58.1985 12.1653 708 115.403 421.065 479.64
1047 0 56.0265 11.8337 663 116.691 421.448 476.81
1048 0 59.187 14.564 862 111.281 420.314 477.754
1049 0 65.1265 12.8519 837 114.305 419.633 475.845
1050 0 69.187 15.2052 1052 109.083 420.048 475.149
1051 0 70.1943 16.9529 1190 107.305 418.37 471.945
1052 0 71.1024 13.0375 927 112.478 419.547 472.19
1053 0 72.1372 13.1971 952 113.704 419.041 467.548
1054 0 72.144 10.7285 774 117.593 418.77 468.394
1055 0 78.1433 13.0529 1020 114.14 419.707 466.771
1056 0 79.4428 13.4436 1068 113.233 419.541 468.405
1057 0 82.178 13.9088 1143 113.309 418.843 460.159
1058 0 84.2206 13.2153 1113 114.405 419.124 454.626
1059 0 85.197 14.4489 1231 111.567 420.412 459.998
1060 0 87.1563 11.313 986 116.76 421.407 455.122
1061 0 94.1803 11.5948 1092 114.816 423.029 459.536
1062 0 95.0926 15.8267 1505 109.964 423.094 454.113
1063 0 96.1297 12.5039 1202 115.567 423.367 449.171
1064 0 102.751 12.5936 1294 115.732 422.833 445.677
1065 1 53.2294 9.52481 507 117.694 422.554 466.586
1066 0 55.2095 8.8934 491 120.136 423.919 465.644
1067 0 57.155 11.88 679 114.498 425.281 466.676
1068 0 60.1339 11.2083 674 111.822 423.626 462.108
1069 0 64.0769 10.2221 655 115.217 425.438 459.537
1070 0 67.0961 14.0247 941 112.282 426.478 466.4
1071 0 73.2016 14.8767 1089 109.494 426.718 464.385
1072 0 75.3252 17.6169 1327 104.152 426.618 467.665
1073 0 77.254 14.3941 1112 110.528 427.308 466.275
1074 0 78.2012 12.2632 959 114.585 427.176 465.51
1075 0 79.2105 11.299 895 118.189 428.823 461.4
1076 0 77.2464 10.5507 815 119.774 427.8 458.536
1077 1 87.269 11.4817 1002 117.17 426.33 461.703
1078 0 87.2706 11.5045 1004 130.812 425.346 461.55
1079 0 90.1718 10.7018 965 120.049 426.59 459.52
1080 0 95.2515 15.2229 1450 112.719 427.561 457.852
1081 0 94.6698 12.6228 1195 118.334 425.908 456.01
1082 0 104.329 13.7642 1436 114.618 427.373 459.894
1083 0 104.329 13.745 1434 139.016 429.365 459.726
1084 0 110.612 13.588 1503 114.993 426.377 456.69
1085 0 114.506 11.7374 1344 117.222 425.705 455.397
1086 0 116.577 12.9013 1504 116.15 425.328 452.523
1087 0 122.617 11.3851 1396 117.063 423.696 454.13
1088 0 131.376 5.50328 723 118.606 424.058 465.545
1089 0 132.496 22.2497 2948 98.6096 422.558 444.911
1090 1 70.1442 12.8307 900 109.117 422.2 475.764
1091 0 69.2155 8.84194 612 116.531 421.059 470.757
1092 0 74.2047 15.6055 1158 105.945 420.068 474.06
1093 0 75.203 15.3983 1158 117.374 419.086 474.148
1094 0 80.2671 11.8729 953 112.525 418.453 473.36
1095 0 82.3044 12.7211 1047 111.455 419.62 470.268
1096 0 86.2505 14.3651 1239 108.91 420.023 468.266
1097 0 79.2802 10.507 833 116.756 418.86 463.222
1098 0 89.5358 12.6542 1133 112.852 418.423 461.15
1099 0 93.2684 16.5329 1542 105.985 418.362 463.919
1100 0 95.4839 13.7091 1309 111.359 419.97 459.325
1101 0 101.226 19.7676 2001 99.8381 418.972 467.255
1102 0 103.61 17.3535 1798 103.986 419.956 460.094
1103 0 106.54 14.389 1533 109.821 420.715 452.215
1104 0 110.781 24.4717 2711 96.2412 420.079 457.492
1105 0 107.465 12.069 1297 115.261 421.21 446.476
1106 0 114.604 15.1479 1736 110.532 420.431 443.291
1107 0 117.57 13.3707 1572 113.357 421.788 439.454
1108 1 60.1764 8.60803 518 112.668 421.396 475.643
1109 0 65.3457 13.7117 896 106.074 423.564 471.906
1110 0 70.4477 13.3432 940 107.429 424.048 471.729
1111 0 67.1677 14.0544 944 107.862 423.6 470.768
1112 0 72.1615 14.3428 1035 108.753 423.571 466.148
1113 0 70.3836 11.3237 797 115.245 424.531 464.486
1114 0 77.2599 14.0047 1082 108.591 424.177 469.07
1115 0 77.2806 13.0046 1005 111.873 425.387 464.8
1116 0 78.2851 12.0074 940 113.362 425.537 465.07
1117 0 80.2915 11.2216 901 115.189 425.974 462.625
1118 0 85.1671 13.5968 1158 110.58 424.581 466.655
1119 0 86.6083 12.7817 1107 111.881 425.231 467.766
1120 0 89.3004 13.7177 1225 111.894 426.013 462.609
1121 0 92.4337 13.2527 1225 112.236 425.731 463.049
1122 0 92.5079 10.7883 998 116.736 426.028 464.354
1123 0 95.5073 11.2871 1078 116.67 426.063 462.11
1124 0 101.471 12.0429 1222 114.507 424.631 462.854
1125 1 54.2213 8.15177 442 118.722 424.706 480.154
1126 0 57.1949 13.8299 791 109.585 424.181 485.035
1127 0 61.13 12.1872 745 112.085 423.091 483.886
1128 0 63.1061 12.8831 813 110.017 422.966 484
1129 0 63.1306 11.1515 704 112.915 422.915 481.405
1130 0 68.2179 12.7679 871 110.38 421.463 478.777
1131 0 68.2179 12.7679 871 128.76 420.463 478.777
1132 0 72.3564 12.8116 927 112.117 421.153 471.233
1133 0 73.4121 13.2812 975 112.263 419.338 473.139
1134 0 77.3196 14.1749 1096 110.443 420.615 474.497
1135 0 78.3598 13.4508 1054 113.62 420 478.834
1136 0 79.278 11.6047 920 114.978 419.687 475.045
1137 0 83.5014 13.3531 1115 111.589 418.799 470.659
1138 0 86.296 13.1408 1134 111.476 419.055 472.052
1139 0 86.2072 13.0848 1128 111.684 418.326 469.743
1140 0 90.3435 17.7213 1601 104.954 418.968 467.804
1141 0 90.3435 17.8209 1610 115.068 419.963 467.753
1142 0 95.3499 11.4526 1092 114.712 418.417 462.863
1143 0 97.4094 12.853 1252 111.978 418.24 460.953
1144 0 102.069 16.4203 1676 108.004 418.898 457.307
1145 1 55.2048 12.3178 680 105.268 418.646 484.428
1146 0 58.1091 12.5798 731 105.518 418.201 478.35
1147 0 59.1551 11.8333 700 107.557 418.85 477.059
1148 0 59.3917 9.47944 563 111.249 419.51 471.648
1149 0 62.351 9.23802 576 111.104 418.672 468.755
1150 0 67.2949 16.7918 1130 100.241 419.576 470.404
1151 0 61.2195 9.93148 608 112.322 420.676 464.801
1152 0 69.2068 14.8829 1030 105.098 421.369 472.474
1153 0 73.3602 18.5796 1363 100.525 423.401 469.852
1154 0 77.8996 17.7793 1385 100.939 423.193 470.557
1155 0 77.3509 11.2992 874 113.303 425.213 464.082
1156 0 79.379 12.7364 1011 109.059 424.984 468.189
1157 0 82.3174 14.5048 1194 107.7 424.513 462.45
1158 0 83.3998 12.9497 1080 109.351 425.279 464.69
1159 0 86.7262 16.3618 1419 106.6 426.378 459.717
1160 0 87.5609 13.6362 1194 110.972 427.718 464.375
1161 0 92.3991 16.6019 1534 106.304 427.073 460.51
1162 0 93.5117 11.7846 1102 114.569 428.104 457.358
1163 1 49.5408 11.4048 565 111.152 427.287 479.12
1164 0 51.2828 11.0368 566 111.8 428.717 480.06
1165 0 54.2843 12.8951 700 109.976 428.134 481.479
1166 0 55.2765 11.7591 650 111.898 427.269 484.112
1167 0 57.2182 10.4862 600 114.385 426.883 482.627
1168 0 61.2206 13.1492 805 110.569 426.39 482.938
1169 0 62.3607 14.3359 894 109.315 426.082 481.239
1170 0 62.3224 12.1947 760 112.971 425.741 479.614
1171 0 64.1517 15.0113 963 108.49 423.192 481.277
1172 0 68.1508 12.0028 818 111.501 424.803 480.927
1173 0 71.2169 11.7669 838 110.613 423.344 483.387
1174 0 73.2707 13.7708 1009 109.546 420.871 476.168
1175 0 74.2166 12.0593 895 111.853 421.615 476.884
1176 0 77.3898 12.4952 967 110.839 421.515 477.98
1177 0 79.2128 12.7378 1009 110.459 419.726 475.358
1178 0 83.1733 15.0048 1248 107.023 419.429 472.183
1179 0 85.2015 12.758 1087 110.631 419.919 467.917
1180 0 91.2685 15.3722 1403 105.254 419.823 471.16
1181 0 88.4977 11.9099 1054 112.464 420.506 459.849
1182 1 52.1022 9.71167 506 110.413 419.526 482.587
1183 0 52.2841 14.8229 775 103.017 418.826 483.215
1184 0 57.3704 14.7637 847 101.168 418.857 483.511
1185 0 56.4656 12.6626 715 107.427 418.098 479.278
1186 0 58.2619 14.2975 833 105.269 419.146 478.496
1187 0 59.2374 13.8088 818 106.608 417.918 475.358
1188 0 60.0837 12.6657 761 106.731 416.694 477.599
1189 0 63.1026 13.3275 841 106.164 418.927 477.114
1190 0 63.1168 15.4634 976 102.64 418.468 477.495
1191 0 64.1029 11.0915 711 111.707 417.897 467.098
1192 0 68.152 14.0128 955 107.03 419.184 467.236
1193 0 68.1313 12.4466 848 109.882 419.235 463.368
1194 0 72.1222 11.3696 820 110.571 419.638 464.38
1195 0 74.1246 12.7488 945 109.203 421.546 462.311
1196 0 74.0559 14.408 1067 107.025 420.918 462.256
1197 0 75.0787 12.2671 921 111.039 421.834 458.946
1198 0 79.0752 11.4827 908 110.435 422.63 461.132
1199 0 84.0691 17.0931 1437 101.793 422.529 460.406
1200 0 87.1907 13.9923 1220 106.39 424.394 457.334
1201 0 87.0942 16.9472 1476 102.868 425.164 453.203
1202 0 92.1167 12.1585 1120 108.379 425.912 456.413
1203 0 92.3444 11.7712 1087 109.669 425.269 453.627
1204 0 96.2165 14.6545 1410 105.409 426.66 456.59
1205 0 102.248 14.5626 1489 105.27 426.417 449.29
1206 1 54.0462 6.53145 353 113.816 425.782 475.309
1207 0 55.0668 9.58835 528 110.032 426.547 473.972
1208 0 58.0757 11.9499 694 105.461 426.604 475.575
1209 0 60.0866 11.6665 701 107.919 428.561 480.17
1210 0 62.1506 11.4239 710 108.838 426.686 482.363
1211 0 66.2419 10.4617 693 109.42 427.537 481.818
1212 0 67.2541 11.0774 745 109.452 426.761 482.867
1213 0 70.1896 12.281 862 106.669 426.216 481.332
1214 0 74.2908 13.5952 1010 104.791 424.973 478.937
1215 0 71.309 13.2101 942 105.78 424.528 473.692
1216 0 76.5272 12.3224 943 107.681 423.356 471.607
1217 0 79.7578 13.6037 1085 106.229 422.133 471.34
1218 0 83.6394 11.717 980 108.909 422.119 471.807
1219 0 86.4967 13.619 1178 106.589 421.893 470.694
1220 1 44.4525 9.47077 421 108.625 420.323 491.207
1221 0 46.2669 9.25067 428 108.804 421.105 488.596
1222 0 44.1871 7.69456 340 109.191 419.582 481.356
1223 0 46.1357 10.5558 487 106.201 420.52 483.628
1224 0 52.1393 10.472 546 104.59 419.696 481.995
1225 0 51.1934 12.0328 616 103.718 418.331 477.528
1226 0 48.0706 7.71782 371 113.642 418.278 472.137
1227 0 53.0719 6.50062 345 114.064 419.623 469.774
1228 0 49.1768 9.84204 484 111.279 419.076 472.744
1229 1 62.1512 15.3818 956 105.098 419.792 480.022
1230 0 60.1646 12.6819 763 111.033 420.945 474.485
1231 0 60.1646 12.7816 769 112.479 421.986 474.46
1232 0 60.1697 12.8138 771 111.855 422.968 474.498
1233 0 71.3233 14.3291 1022 108.518 421.359 470.8
1234 0 72.2387 14.0922 1018 109.861 421.231 464.898
1235 0 78.2388 16.5774 1297 105.027 420.801 462.948
1236 0 75.235 13.6904 1030 110.485 421.553 462.262
1237 0 78.2281 12.9237 1011 112.397 421.59 460.187
1238 0 80.2934 12.5664 1009 112.726 422.627 459.906
1239 0 85.1859 15.5777 1327 108.237 423.064 453.084
1240 0 86.3667 13.8711 1198 110.866 423.406 448.357
1241 0 91.2074 13.2884 1212 111.444 423.366 453.78
1242 0 90.3058 12.1255 1095 113.782 425.053 445.274
1243 0 94.3154 14.2607 1345 109.597 424.814 447.68
1244 0 97.1918 23.1501 2250 97.9027 424.207 451.782
1245 0 98.1802 10.3687 1018 116.179 425.5 439.577
1246 0 102.306 14.3003 1463 109.753 426.666 448.487
1247 1 55.3235 11.731 649 109.767 428.028 471.81
1248 0 57.1647 12.1229 693 110.111 428.424 472.121
1249 0 59.4231 11.4265 679 112.321 428.897 468.804
1250 0 61.0411 13.6629 834 108.474 425.133 466.894
1251 0 62.2055 12.089 752 110.938 426.58 468.057
1252 0 64.1409 11.7554 754 110.696 424.907 470.666
1253 0 69.1642 13.7644 952 109.095 425.538 472.783
1254 0 70.0773 12.6432 886 111.376 424.353 474.505
1255 0 72.2625 16.8552 1218 104.635 425.693 475.914
1256 0 73.1359 14.3432 1049 108.678 425.197 475.52
1257 0 80.1181 14.6659 1175 106.913 424.026 474.437
1258 0 80.036 13.3815 1071 110.911 422.922 472.715
1259 0 85.1777 12.5268 1067 111.901 421.076 470.82
1260 0 87.1294 13.325 1161 111.958 421.748 466.32
1261 0 84.1562 13.6413 1148 113.605 422.24 463.047
1262 0 88.1535 14.2252 1254 111.587 420.356 461.074
1263 1 51.0548 14.2984 730 105.351 419.126 483.91
1264 0 50.1059 8.2625 414 116.628 419.674 480.925
1265 0 49.168 11.837 582 109.522 420.263 475.318
1266 0 49.1712 7.42305 365 114.953 419.934 471.704
1267 0 47.1582 8.01558 378 119.011 419.574 469.172
1268 0 56.1047 10.0526 564 116.434 419.569 479.619
1269 0 58.2183 9.92816 578 115.791 418.014 477.102
1270 0 61.137 11.7441 718 113.57 419.052 474.875
1271 0 62.1639 14.0757 875 110.549 417.439 472.597
1272 0 68.188 11.7909 804 112.74 419.104 471.912
1273 0 68.3987 11.4768 785 113.417 419.111 471.92
1274 0 71.3282 11.0195 786 115.165 420.13 463.071
1275 0 72.3166 14.6993 1063 110.258 420.731 465.851
1276 0 74.2303 12.6498 939 112.845 420.378 463.268
1277 0 76.3075 9.51414 726 117.758 420.03 464.428
1278 0 80.2734 14.0894 1131 111.316 419.611 461.804
1279 0 84.3177 15.5365 1310 108.619 422.049 454.385
1280 0 87.4841 12.025 1052 114.567 421.831 459.494
1281 0 88.5605 10.5126 931 118.438 423.387 455.243
1282 0 90.5521 11.706 1060 116.375 423.616 451.108
1283 0 96.6085 14.1499 1367 112.77 424.336 452.6
1284 0 98.5503 16.5601 1632 109.23 425.339 450.817
1285 0 99.422 13.9607 1388 113.372 425.852 449.874
1286 1 55.1484 8.37739 462 115.944 427.297 475.829
1287 0 58.2142 11.1141 647 112.131 426.822 475.779
1288 0 58.2523 8.46319 493 116.988 427.998 470.134
1289 0 61.2305 12.3631 757 110.477 427.798 473.948
1290 0 63.2201 11.1515 705 113.206 428.223 474.885
1291 0 64.2935 9.79881 630 116.357 427.944 471.74
1292 0 67.2072 16.1143 1083 106.258 427.916 473.536
1293 0 68.2661 13.8722 947 109.753 427.815 472.631
1294 0 71.1431 14.1967 1010 108.551 427.77 471.698
1295 0 71.1563 9.62669 685 116.569 427.241 470.139
1296 0 71.1563 9.71101 691 143.305 427.227 470.135
1297 0 81.3692 12.0193 978 111.916 427.135 471.564
1298 0 82.2481 11.903 979 111.471 426.003 471.292
1299 0 85.1412 13.9768 1190 108.666 428.113 471.874
1300 0 89.2256 13.2473 1182 109.811 425.656 470.845
1301 0 96.4085 14.2622 1375 107.012 425.341 470.27
1302 0 97.3728 16.1031 1568 104.658 424.274 469.878
1303 1 53.1629 9.96936 530 108.525 423.106 490.538
1304 0 55.3161 11.1722 618 105.96 423.087 490.749
1305 0 57.1625 10.269 587 107.7 421.981 488.889
1306 0 58.1955 11.8566 690 106.925 421.17 482.372
1307 0 63.252 14.4185 912 105.421 421.022 472.705
1308 0 68.2564 13.8595 946 107.362 418.187 475.712
1309 0 68.2784 12.4783 852 110.127 417.674 470.507
1310 0 68.1722 10.2828 701 112.84 417.909 474.893
1311 0 75.2708 14.2685 1074 104.831 418.329 476.783
1312 0 76.3534 14.2233 1086 106.735 416.919 473.889
1313 0 74.2256 11.6537 865 112.246 416.005 468.111
1314 0 79.2528 17.0593 1352 105.048 417.568 463.666
1315 0 80.1767 14.6052 1171 108.144 416.633 467.326
1316 0 81.2957 15.2899 1243 108.205 417.932 466.445
1317 0 86.1029 13.449 1158 111.012 417.235 461.636
1318 0 91.2926 13.8018 1260 112.067 418.317 456.998
1319 0 89.1403 12.6879 1131 115.238 418.515 451.545
1320 0 94.1164 13.2283 1245 114.08 419.68 452.664
1321 0 95.0878 13.2719 1262 113.922 420.067 452.078
1322 0 102.169 17.8234 1821 105.876 421.668 454.944
1323 1 54.2052 11.2351 609 113.327 420.433 471.905
1324 0 59.2204 12.0904 716 113.693 423.046 470.581
1325 0 60.1667 10.8532 653 111.87 423.937 468.994
1326 0 65.191 15.631 1019 108.848 425.47 471.745
1327 0 65.0908 12.9972 846 113.622 426.304 470.935
1328 0 68.0493 12.5938 857 115.042 427.765 470.197
1329 0 71.1614 12.9284 920 114.377 426.411 469.335
1330 0 73.1079 13.6511 998 113.866 426.923 465.738
1331 0 74.2426 13.7118 1018 113.94 427.004 466.906
1332 0 79.2073 15.4405 1223 110.186 427.118 468.635
1333 0 80.3322 12.7595 1025 114.125 425.959 468.092
1334 0 80.2418 13.559 1088 115.988 428.261 466.053
1335 0 88.3069 16.0576 1418 111.316 426.222 466.406
1336 0 87.2208 12.497 1090 118.619 427.568 465.026
1337 0 93.274 14.5056 1353 114.676 426.892 465.635
1338 0 95.7495 16.4805 1578 111.005 426.66 465.811
1339 0 101.501 15.596 1583 112.216 426.573 462.878
1340 0 104.319 15.2225 1588 112.038 425.648 459.215
1341 1 60.0854 12.5322 753 114.967 423.87 476.895
1342 0 60.145 12.1872 733 117.52 423.836 474.708
1343 0 60.2006 12.5082 753 118.879 422.73 466.284
1344 0 63.2416 13.0294 824 116.867 423.586 452.16
1345 0 64.1978 19.1595 1230 107.689 421.168 452.047
1346 0 68.3086 14.4052 984 115.549 421.952 449.026
1347 0 69.1205 14.9883 1036 113.689 420.753 451.471
1348 0 71.1213 14.4261 1026 116.572 421.522 447.551
1349 0 70.1276 13.233 928 153.295 422.686 448.803
1350 0 71.2287 13.4918 961 116.118 420.727 454.242
1351 0 77.2797 14.4669 1118 118.512 420.271 445.577
1352 0 80.1265 13.4662 1079 121.633 419.152 439.456
1353 0 83.4322 16.1209 1345 116.918 419.619 440.017
1354 0 84.2079 15.6161 1315 118.529 419.106 445.494
1355 0 86.2973 15.829 1366 117.726 419.498 443.023
1356 0 90.2283 16.8129 1517 117.049 418.664 441.936
1357 0 94.2119 15.5925 1469 118.009 419.743 449.771
1358 0 94.3027 14.0505 1325 122.448 418.685 448.676
1359 0 97.323 13.1315 1278 123.91 417.067 452.599
1360 0 97.323 13.2137 1286 160.525 416.046 452.665
1361 0 102.249 13.1738 1347 125.37 419.114 439.866
1362 0 104.233 12.0692 1258 129.517 419.284 444.73
1363 0 109.173 13.4283 1466 126.942 419.99 448.666
1364 1 58.0975 9.84551 572 130.063 421.304 464.416
1365 0 64.1973 13.4274 862 121.113 421.346 466.139
1366 0 65.2467 10.5446 688 129.782 423.603 460.166
1367 0 65.2467 10.4373 681 166.285 426.64 460.065
1368 0 72.1785 13.6883 988 123.863 423.864 468.31
1369 0 75.2152 14.053 1057 123.242 424.29 466.799
1370 0 77.343 15.5929 1206 119.682 425.347 465.421
1371 0 78.1455 13.0014 1016 125.58 425.332 459.069
1372 0 85.2942 16.0269 1367 117.028 427.144 463.848
1373 0 84.2469 13.8047 1163 122.105 426.636 463.949
1374 0 87.6389 13.704 1201 123.555 428.311 458.764
1375 0 89.3299 14.8551 1327 121.693 427.152 460.818
1376 0 92.4044 16.655 1539 118.38 428.138 459.28
1377 0 97.3769 15.2192 1482 119.934 427.377 456.917
1378 0 100.201 17.5846 1762 115.819 427.968 447.558
1379 0 104.346 14.1836 1480 122.155 426.459 445.001
1380 0 106.456 11.8641 1263 125.644 427.449 446.403
1381 0 108.41 13.615 1476 124.451 426.503 442.665
1382 0 114.214 15.3133 1749 121.14 426.2 447.252
1383 0 118.231 17.4151 2059 117.333 425.279 449.496
1384 1 67.1884 12.1003 813 124.002 424.754 473.847
1385 0 69.1749 13.2129 914 123.233 423.781 474.5
1386 0 73.2524 14.607 1070 118.696 422.442 478.772
1387 0 74.2872 12.5863 935 123.371 420.694 477.708
1388 0 77.1741 14.0073 1081 120.66 420.902 477.049
1389 0 79.1738 13.0472 1033 122.868 419.631 474.707
1390 0 80.1736 12.66 1015 124.667 419.41 469.564
1391 0 84.2421 13.758 1159 121.193 418.303 467.411
1392 0 87.2455 12.6425 1103 122.657 418.263 466.86
1393 0 92.1581 14.0302 1293 119.292 418.38 466.122
1394 0 94.256 13.3254 1256 122.239 418.142 460.336
1395 0 96.1609 15.1101 1453 121.104 417.35 457.73
1396 0 98.2619 14.0237 1378 121.221 418.618 457.097
1397 0 99.2159 12.5685 1247 125.162 416.409 454.081
1398 1 56.106 11.8882 667 120.673 416.354 479.33
1399 0 60.1145 10.6963 643 121.967 416.309 476.432
1400 0 61.0588 13.7736 841 115.82 416.893 474.384
1401 0 62.1316 13.2622 824 119.416 417.721 470.382
1402 0 66.1822 13.5988 900 119.467 419.427 469.698
1403 0 66.2344 13.0748 866 120.895 418.032 466.803
1404 0 70.1296 12.976 910 120.797 418.668 468.002
1405 0 72.1493 14.2205 1026 118.502 419.21 467.107
1406 0 74.1568 11.6375 863 123.227 420.663 467.336
1407 0 75.178 13.0756 983 122.721 421.163 463.317
1408 0 76.2538 13.6256 1039 121.789 422.612 463.49
1409 0 80.2178 13.962 1120 120.881 423.039 461.788
1410 0 85.2677 17.4509 1488 114.679 423.103 460.899
1411 0 83.1506 15.8507 1318 119.379 424.055 459.014
1412 0 89.1824 15.003 1338 119.579 423.401 454.877
1413 0 92.2828 13.567 1252 121.728 424.372 459.744
1414 0 93.1671 14.0822 1312 121.698 425.753 453.38
1415 0 99.2234 12.5676 1247 122.384 427.231 453.707
1416 0 102.252 14.2394 1456 120.481 427.112 452.45
1417 0 103.358 15.3641 1588 120.083 427.188 450.125
1418 0 109.124 16.889 1843 116.197 427.964 451.327
1419 0 109.276 12.5463 1371 124.791 427.524 449.783
1420 1 58.1887 7.99124 465 125.146 429.265 479.357
1421 0 55.0752 10.3676 571 122.825 429.291 473.445
1422 0 58.0228 9.37562 544 124.989 428.287 469.568
1423 0 65.3251 12.9353 845 117.044 426.626 476.738
1424 0 66.3561 15.9744 1060 112.116 426.469 477.112
1425 0 70.2207 12.9734 911 116.891 426.145 478.839
1426 0 70.3181 11.8462 833 119.612 426.329 478.184
1427 0 71.4882 11.2886 807 120.399 424.782 477.173
1428 0 76.1965 13.0058 991 115.866 425.516 479.159
1429 0 77.1977 11.5677 893 118.886 423.811 476.611
1430 0 78.5254 10.6335 835 120.922 423.659 474.638
1431 0 86.2479 14.5279 1253 111.492 421.779 477.389
1432 0 83.2929 11.1654 930 118.774 421.618 473.057
1433 0 89.2173 13.8762 1238 114.899 419.358 466.159
1434 0 89.2987 9.94416 888 120.479 421.17 466.556
1435 1 104.237 9.44961 985 118.018 418.773 458.123
1436 1 92.5079 13.1016 1212 117.119 419.988 443.511
1437 0 97.2488 13.9642 1358 114.558 418.691 445.363
1438 0 97.1952 11.8319 1150 115.161 418.146 443.01
1439 0 99.5204 14.1579 1409 111.88 418.678 442.773
1440 1 54.1512 8.10694 439 117.542 417.547 472.465
1441 0 57.1605 12.0188 687 113.539 417.164 465.767
1442 0 63.1483 13.7613 869 108.344 418.921 467.035
1443 0 59.2156 11.7368 695 114.612 418.368 464.554
1444 0 59.1799 12.9774 768 113.495 418.986 460.484
1445 0 65.0947 9.52459 620 116.531 418.123 459.592
1446 0 63.1979 13.972 883 110.129 418.443 457.847
1447 0 69.1534 9.34155 646 115.483 418.415 459.009
1448 0 71.4278 12.8101 915 111.952 420.474 453.927
1449 0 73.321 13.5977 997 109.066 420.202 457.343
1450 0 74.1629 11.3534 842 114.808 420.641 452.411
1451 0 79.4647 14.1572 1125 112.2 423.492 458.2
1452 0 79.4647 14.044 1116 127.642 425.488 458.261
1453 0 85.1818 11.1409 949 117.181 424.588 453.509
1454 0 89.2025 16.8941 1507 106.134 422.741 454.694
1455 0 89.2025 17.0175 1518 120.277 421.74 454.692
1456 0 91.0748 12.8136 1167 110.71 425.122 452.068
1457 1 45.0456 7.96971 359 111.822 425.546 469.596
1458 0 49.0382 8.1773 401 112.918 425.875 466.953
1459 0 56.0833 11.5364 647 110.493 425.913 457.065
1460 0 56.0969 14.368 806 106.669 425.635 460.062
1461 0 58.2076 12.3695 720 109.824 425.821 465.057
1462 0 59.0615 11.8182 698 109.441 426.977 477.036
1463 0 59.1878 19.3959 1148 100.991 426.758 472.199
1464 0 60.0771 12.4007 745 111.412 427.005 475.416
1465 0 64.2891 14.1393 909 108.238 427.068 474.785
1466 0 66.31 12.7884 848 109.784 425.877 475.078
1467 0 69.2676 12.0258 833 109.792 426.941 477.561
1468 0 69.2979 13.2183 916 108.874 425.784 474.698
1469 0 72.202 12.4373 898 110.428 424.562 474.694
1470 0 75.1016 18.1621 1364 101.968 424.834 474.605
1471 0 79.4552 12.0319 956 110.345 424.78 475.076
1472 0 83.1701 14.2359 1184 107.399 422.943 474.623
1473 0 84.5001 16.4734 1392 105.371 422.932 470.477
1474 0 88.3593 14.1694 1252 107.756 421.694 470.29
1475 1 46.1597 8.51392 393 114.17 422.583 487.237
1476 0 49.1694 12.5078 615 108.805 422.262 488.707
1477 0 48.1139 14.341 690 107.271 420.658 482.884
1478 0 51.0834 11.5106 588 110.366 420.361 486.733
1479 0 50.1048 12.7932 641 110.253 419.474 484.563
1480 0 53.2387 12.9793 691 108.181 419.563 485.508
1481 0 56.1091 14.0975 791 107.992 418.619 481.665
1482 0 57.2403 12.5611 719 110.847 418.803 480.711
1483 0 59.1961 13.7678 815 109.95 417.867 475.542
1484 0 60.2413 11.5867 698 113.368 418.848 472.716
1485 0 63.5126 14.3436 911 108.976 418.406 473.428
1486 0 66.2877 17.062 1131 104.112 417.86 472.534
1487 0 65.2668 12.2114 797 112.368 417.907 468.465
1488 0 68.3567 12.0105 821 111.765 419.097 466.554
1489 0 71.5408 12.4684 892 111.596 418.635 467.482
1490 0 73.3059 13.4778 988 109.781 419.503 463.824
1491 0 74.1944 10.2703 762 114.883 420.232 455.276
1492 0 76.2324 15.4396 1177 107.533 420.184 454.737
1493 0 75.2855 12.964 976 111.959 421.617 455.419
1494 0 80.1235 13.7538 1102 110.494 421.183 449.413
1495 0 82.1653 13.2051 1085 110.674 421.959 452.527
1496 0 82.1653 13.3146 1094 131.871 422.969 452.493
1497 0 89.2872 13.451 1201 111.412 424.59 447.323
1498 1 50.0801 11.841 593 108.099 424.924 469.008
1499 0 49.2499 12.0609 594 108.673 425.343 467.008
1500 0 51.2277 9.44801 484 112.229 426.82 466.831
1501 0 54.0957 12.94 700 107.884 424.999 467.756
1502 0 53.0344 12.6899 673 108.587 426.067 468.266
1503 0 57.1794 13.0292 745 108.337 425.515 467.577
1504 0 56.1104 11.5665 649 109.834 425.225 472.149
1505 0 60.0712 10.937 657 111.259 426.501 469.257
1506 0 62.1386 12.5204 778 108.486 425.575 471.018
1507 0 64.2053 14.2979 918 105.265 426.71 471.194
1508 0 67.2292 14.9191 1003 105.714 425.389 470.469
1509 0 64.1534 11.0828 711 113.075 426.226 471.885
1510 0 68.1351 13.0036 886 110.128 424.799 471.236
1511 0 74.2294 13.0541 969 110.983 426.129 469.083
1512 0 76.1583 14.3779 1095 108.009 425.551 473.614
1513 0 79.2537 15.4062 1221 106.69 424.01 474.075
1514 0 82.1003 12.4969 1026 114.185 423.08 467.745
1515 0 86.2266 17.4424 1504 105.043 423.172 465.55
1516 0 88.2738 13.9792 1234 111.397 422.36 464.878
1517 0 95.2175 15.2283 1450 107.135 421.961 470.719
1518 0 97.3563 18.1395 1766 105.166 420.672 465.475
1519 0 95.3336 17.0244 1623 108.709 419.781 461.502
1520 0 99.2301 15.3079 1519 110.298 419.741 461.366
1521 0 102.738 15.4178 1584 111.349 418.863 452.394
1522 0 106.335 14.2286 1513 112.957 419.321 456.094
1523 0 108.369 14.2384 1543 113.965 417.858 452.989
1524 1 58.2013 11.151 649 114.097 417.924 482.471
1525 0 58.1924 12.579 732 114.003 418.638 477.34
1526 0 60.2912 11.3284 683 114.647 418.501 479.94
1527 0 66.2671 16.0864 1066 108.765 418.64 474.499
1528 0 66.2671 16.1166 1068 131.671 419.654 474.52
1529 0 67.1322 11.7976 792 116.556 418.39 470.21
1530 0 72.2004 15.8309 1143 108.799 417.379 468.718
1531 0 75.1294 15.0806 1133 109.982 419.443 467.91
1532 0 79.2407 13.5536 1074 112.165 418.635 462.387
1533 0 82.3346 14.4046 1186 111.003 419.728 460.227
1534 0 82.2911 15.0685 1240 110.29 420.648 459.658
1535 0 89.2139 15.4348 1377 108.63 421.129 461.735
1536 0 90.2202 14.3205 1292 111.235 422.446 460.039
1537 0 90.2629 13.9371 1258 113.308 423.045 452.788
1538 0 97.2331 17.4735 1699 107.181 423.197 453.793
1539 0 99.2568 12.0193 1193 115.742 423.443 456.303
1540 0 103.278 15.5502 1606 110.951 423.61 452.181
1541 0 102.131 12.6211 1289 117.355 425.054 446.986
1542 0 108.175 10.4368 1129 119.506 426.102 452.207
1543 1 59.1245 13.3616 790 111.33 425.71 473.538
1544 0 58.2695 9.62768 561 119.057 425.918 475.517
1545 0 63.3099 14.2158 900 108.794 426.58 477.113
1546 0 64.2092 13.0355 837 111.762 425.975 472.456
1547 0 66.1489 13.1673 871 113.103 426 471.878
1548 0 69.2238 15.5005 1073 108.946 426.177 473.513
1549 0 72.2143 14.5816 1053 110.488 425.61 471.942
1550 0 71.1853 13.3595 951 114.963 425.912 469.43
1551 0 75.19 13.18 991 114.37 427.208 470.83
1552 0 73.0648 13.5086 987 115.308 426.353 471.264
1553 0 79.2094 13.5842 1076 114.195 425.524 471.146
1554 0 81.2114 11.1438 905 119.105 424.878 471.798
1555 0 85.2227 14.3741 1225 112.491 425.207 474
1556 0 89.1431 15.8285 1411 110.367 423.763 470.075
1557 0 96.1975 14.9068 1434 110.468 422.276 467.066
1558 0 97.2567 17.0374 1657 107.591 421.918 467.522
1559 0 95.265 15.0737 1436 131.435 421.769 464.494
1560 0 101.506 10.0191 1017 119.47 420.214 461.291
1561 0 104.194 12.9566 1350 115.356 418.928 461.977
1562 1 54.3486 12.015 653 115.761 420.285 482.848
1563 0 60.1444 13.3845 805 110.298 421.257 487.145
1564 0 59.1622 14.0461 831 106.573 419.635 483.403
1565 0 59.1622 14.0968 834 126.873 418.685 483.534
1566 0 63.1899 12.4387 786 113.691 418.916 479.116
1567 0 66.2885 13.4413 891 113.204 418.176 476.273
1568 0 69.1825 13.992 968 112.449 419.566 474.658
1569 0 71.366 15.4275 1101 109.31 418.964 476.461
1570 0 74.1936 16.5648 1229 107.61 419.657 475.951
1571 0 77.2908 14.4907 1120 112.093 418.654 470.884
1572 0 78.4025 17.1551 1345 107.993 418.232 467.811
1573 0 77.3517 13.0055 1006 116.938 418.717 463.333
1574 0 81.4502 16.2553 1324 109.714 418.466 466.323
1575 0 82.3339 13.2631 1092 115.629 417.871 458.813
1576 0 84.0927 14.817 1246 114.076 420.058 456.527
1577 0 87.1264 15.0356 1310 113.84 419.69 450.915
1578 0 88.2211 11.3578 1002 119.369 422.034 448.116
1579 0 93.2497 13.9625 1302 114.667 422.322 447.056
1580 0 98.3804 16.2431 1598 110.694 422.516 445.605
1581 0 98.2214 14.7015 1444 114.138 423.445 444.852
1582 0 105.426 18.8568 1988 106.722 423.973 444.788
1583 0 107.47 14.3203 1539 115.456 424.82 440.602
1584 1 60.3174 11.97 722 116.968 424.608 467.499
1585 0 60.1904 13.2579 798 114.584 425.657 472.974
1586 0 65.4191 13.0543 854 115.416 426.136 469.313
1587 0 64.2657 11.4991 739 120.29 426.823 468.552
1588 0 68.1904 11.7612 802 119.605 426.272 470.293
1589 0 71.279 13.2016 941 117.047 426.572 466.186
1590 0 75.2216 13.5068 1016 116.482 427.086 469.765
1591 0 75.2605 12.3039 926 118.717 426.596 472.011
1592 0 80.2111 14.4992 1163 115.498 427.113 470.571
1593 0 79.1803 12.1874 965 121.803 427.688 468.309
1594 0 82.2728 14.7436 1213 117.041 427.246 467.674
1595 0 89.2991 13.8747 1239 117.652 425.575 464.17
1596 0 89.1811 16.2366 1448 114.241 426.26 453.407
1597 0 93.2336 15.6167 1456 115.411 425.341 452.804
1598 0 97.1021 19.1757 1862 109.733 424 453.853
1599 0 96.1202 14.2634 1371 119.314 424.543 450.41
1600 0 102.26 16.9078 1729 114.282 423.114 454.493
1601 0 106.319 14.8609 1580 118.751 421.793 452.661
1602 0 107.242 14.2202 1525 120.31 420.632 450.188
1603 0 106.242 13.987 1486 140.538 419.66 450.848
1604 1 59.3587 11.2536 668 118.943 418.799 476.754
1605 0 62.1963 13.9237 866 113.493 418.753 478.313
1606 0 65.0615 12.3422 803 116.549 418.697 467.494
1607 0 68.1695 16.7084 1139 108.959 418.622 465.746
1608 0 68.12 13.99 953 114.327 418.829 467.059
1609 0 71.2716 14.536 1036 113.116 418.437 467.749
1610 0 73.151 12.44 910 117.335 416.698 464.201
1611 0 74.2437 13.3075 988 116.401 417.967 460.417
1612 0 74.2437 13.4018 995 128.308 418.946 460.416
1613 0 80.3282 11.5153 925 118.905 418.119 459.635
1614 0 81.0854 12.752 1034 118.7 416.685 454.111
1615 0 85.1759 13.6776 1165 117.112 418.514 453.888
1616 0 94.2465 16.0961 1517 110.933 417.284 452.746
1617 0 92.1756 14.5266 1339 114.646 418.734 453.447
1618 1 103.156 11.7395 1211 120.149 418.358 434.703
1619 0 100.143 12.7618 1278 118.929 419.166 430.976
1620 0 105.177 15.8115 1663 113.444 419.186 435.324
1621 0 105.275 14.5048 1527 116.804 420.616 438.633
1622 0 111.104 13.0509 1450 118.391 420.703 445.309
1623 0 118.17 22.0276 2603 104.398 421.793 442.037
1624 1 65.0649 11.4194 743 117.821 421.843 467.26
1625 0 67.0796 14.1026 946 114.115 422.659 465.452
1626 0 71.1723 13.095 932 113.225 422.602 465.811
1627 0 72.1437 12.9741 936 114.118 423.397 463.2
1628 0 75.2773 14.4532 1088 111.426 425.01 464.67
1629 0 77.2083 12.3691 955 115.893 424.648 462.324
1630 0 82.2711 13.9417 1147 112.505 425.65 464.283
1631 0 83.3816 14.0199 1169 112.731 425.462 463.34
1632 0 86.2977 15.2495 1316 110.356 425.656 462.305
1633 0 87.0898 15.8572 1381 110.514 426.251 462.169
1634 0 92.2935 15.1907 1402 111.315 426.089 461.134
1635 0 93.4135 15.2548 1425 111.839 427.719 464.216
1636 0 97.233 15.6737 1524 110.99 425.376 459.185
1637 0 101.303 17.3539 1758 108.569 424.722 454.873
1638 0 109.616 19.021 2085 104.611 425.368 458.737
1639 0 107.116 13.5928 1456 114.301 424.672 455.267
1640 0 110.268 13.05 1439 113.313 425.184 458.233
1641 0 112.336 13.3707 1502 114.956 423.631 452.031
1642 0 117.374 16.1279 1893 111.376 424.625 452.941
1643 0 123.27 17.9282 2210 107.371 423.789 454.531
1644 0 123.397 15.1543 1870 112.362 423.279 447.775
1645 1 68.1771 10.9861 749 114.645 421.744 477.824
1646 0 70.203 9.64347 677 115.261 419.663 472.936
1647 0 74.1627 13.0524 968 109.053 420.526 474.97
1648 0 76.2231 11.5057 877 113.436 420.151 470.414
1649 0 74.3188 11.3027 840 117.479 419.424 465.943
1650 0 81.1836 15.8899 1290 109.771 419.484 468.618
1651 0 83.4021 14.3042 1193 111.018 418.326 466.775
1652 0 92.5742 19.3034 1787 101.75 418.267 465.362
1653 0 94.8989 14.036 1332 109.63 417.675 463.839
1654 0 92.3802 14.9274 1379 111.774 417.628 459.334
1655 0 97.5422 14.5886 1423 110.687 418.072 459.136
1656 0 100.51 14.317 1439 111.935 417.237 456.244
1657 0 101.583 12.3348 1253 117.306 417.37 453.576
1658 1 55.2213 13.0384 720 109.119 418.033 476.844
1659 0 57.2655 11.7174 671 113.186 417.224 472.516
1660 0 61.3458 13.9048 853 110.426 418.226 469.24
1661 0 61.1714 9.48156 580 117.029 419.534 472.231
1662 0 64.1344 11.7098 751 112.225 418.893 470.257
1663 0 66.2392 13.4361 890 111.526 419.119 465.699
1664 0 68.2206 11.8146 806 113.597 421.231 468.094
1665 0 71.258 14.3984 1026 108.65 420.838 462.295
1666 0 73.2123 14.9019 1091 109.387 421.561 457.003
1667 0 74.1405 13.6363 1011 110.722 423.171 462.067
1668 0 79.3261 14.2954 1134 110.413 423.447 458.928
1669 0 82.4143 14.7547 1216 109.879 423.261 458.945
1670 0 82.1686 15.1031 1241 110.513 424.92 455.843
1671 0 88.2073 15.5203 1369 107.744 424.893 463.664
1672 0 85.1751 11.8931 1013 116.403 425.715 460.583
1673 0 89.2617 13.7461 1227 113.852 425.433 457.254
1674 0 93.1816 13.4147 1250 114.44 426.719 457.423
1675 0 98.2264 14.3037 1405 112.28 427.147 458.781
1676 1 113.655 17.2012 1955 104.652 425.874 452.981
1677 0 112.421 21.0814 2370 100.72 425.756 448.938
1678 0 116.453 23.4516 2731 98.1025 425.946 450.155
1679 0 111.367 15.4175 1717 112.05 425.917 459.118
1680 0 114.363 11.2362 1285 118.837 424.948 459.526
1681 1 63.1576 14.0284 886 111.05 425.426 479.428
1682 0 64.1629 13.7151 880 114.588 424.506 477.956
1683 0 66.3183 13.5709 900 115.596 426.037 477.78
1684 0 67.1896 10.7606 723 120.001 425.27 480.552
1685 0 72.0618 15.6394 1127 110.075 424.406 482.657
1686 0 70.1954 10.7557 755 120.434 424.095 478.309
1687 0 77.1239 15.313 1181 112.854 422.705 472.896
1688 0 78.1655 12.6526 989 117.481 421.457 477.399
1689 0 80.2153 16.8048 1348 111.95 422.478 473.942
1690 0 81.1702 15.449 1254 113.877 420.667 469.482
1691 0 84.3116 12.2996 1037 119.196 419.529 471.094
1692 0 86.2255 14.5433 1254 115.988 420.143 470.131
1693 0 88.294 12.1866 1076 118.976 418.581 469.088
1694 0 93.1963 15.3762 1433 114.425 419.47 467.39
1695 0 97.2088 21.5721 2097 105.182 418.559 464.686
1696 0 96.2706 16.1835 1558 115.428 417.087 459.261
1697 0 100.342 13.4938 1354 119.47 418.082 459.006
1698 0 107.309 15.4135 1654 115.762 418.559 436.847
1699 0 108.218 14.9882 1622 117.641 417.647 422.074
1700 0 108.236 12.9624 1403 120.682 417.406 432.056
1701 1 122.271 13.9853 1710 113.357 417.418 447.415
1702 1 60.148 11.6712 702 115.915 418.774 467.575
1703 0 62.0684 13.324 827 114.037 418.784 466.846
1704 0 64.1498 14.887 955 112.488 419.503 463.628
1705 0 66.064 12.0186 794 117.926 417.986 457.961
1706 0 71.1698 15.47 1101 111.344 419.627 460.629
1707 0 72.196 13.0617 943 115.898 419.892 459.599
1708 0 80.4344 17.965 1445 109.281 420.565 447.768
1709 0 78.4109 17.8929 1403 134.783 421.605 447.428
1710 0 80.1207 19.1711 1536 109.61 421.193 447.196
1711 0 83.1144 14.1732 1178 116.193 422.306 451.008
1712 0 85.2253 14.5262 1238 117.003 421.996 449.727
1713 0 88.1533 14.8605 1310 116.111 424.047 450.268
1714 0 92.2136 15.7894 1456 114.258 424.315 448.337
1715 1 180.422 18.5842 3353 112.322 425.956 414.709
1716 1 106.466 19.7527 2103 104.777 425.958 451.51
1717 0 103.345 15.9465 1648 112.882 426.361 442.346
1718 0 107.295 12.9363 1388 114.123 426.167 453.401
1719 1 52.2658 11.1928 585 115.379 426.039 462.468
1720 0 54.1844 11.0917 601 111.537 426.674 475.885
1721 0 57.2184 11.8319 677 111.3 425.638 471.744
1722 0 59.0904 11.3724 672 113.134 424.632 476.452
1723 0 65.0782 14.5824 949 107.046 424.113 476.662
1724 0 66.1249 10.8582 718 111.362 424.146 482.606
1725 0 70.103 14.9637 1049 107.519 424.353 477.683
1726 0 70.1656 14.0382 985 106.458 422.783 476.716
1727 0 74.0932 14.1578 1049 106.635 423.03 469.207
1728 0 75.1066 19.9982 1502 99.0692 423.39 476.461
1729 0 80.1188 15.9388 1277 104.924 420.807 471.619
1730 0 81.2212 14.1342 1148 108.049 420.39 473.875
1731 0 83.2745 13.1133 1092 110.402 419.575 465.988
1732 0 87.2723 13.223 1154 109.888 419.928 471.499
1733 0 86.1937 13.5857 1171 110.382 419.422 470.962
1734 0 90.4116 13.2616 1199 112.584 419.878 463.812
1735 0 94.3088 15.3008 1443 109.176 418.577 464.905
1736 0 99.4142 14.2937 1421 109.993 418.93 465.593
1737 0 100.137 16.4176 1644 108.185 418.307 463.773
1738 1 60.1084 13.9415 838 108.067 418.259 482.74
1739 0 60.2238 13.317 802 109.888 417.473 481.157
1740 0 59.0509 12.2267 722 111.672 416.924 474.744
1741 0 63.2915 14.1883 898 108.942 417.767 475.085
1742 0 63.1274 10.7719 680 115.172 417.063 473.221
1743 0 70.4797 16.2884 1148 104.976 417.256 475.493
1744 0 70.2342 15.9751 1122 106.724 417.447 472.006
1745 0 77.2093 13.3922 1034 108.066 417.758 472.543
1746 0 80.1377 18.2311 1461 102.976 417.465 462.489
1747 0 82.6219 18.7723 1551 102.241 418.471 456.602
1748 0 85.2064 19.0479 1623 101.121 418.428 463.411
1749 0 86.2347 18.4728 1593 103.361 419.266 459.323
1750 0 88.4103 14.3422 1268 109.322 419.699 459.547
1751 0 89.1328 11.9372 1064 114.295 422.186 455.442
1752 0 94.225 14.2743 1345 111.436 421.811 447.579
1753 1 50.046 13.3877 670 104.988 421.645 478.666
1754 0 55.0918 11.4173 629 110.569 422.496 475.59
1755 0 57.179 14.8131 847 104.903 423.176 463.401
1756 0 60.3062 14.758 890 103.731 424.537 464.381
1757 0 59.1038 14.5676 861 106.604 423.614 464.784
1758 0 59.3182 13.082 776 109.09 425.293 460.222
1759 0 64.5613 12.856 830 108.058 424.883 464.46
1760 0 65.2364 15.988 1043 105.022 425.555 463.051
1761 0 66.0556 15.8654 1048 106.479 426.119 460.772
1762 0 69.1987 13.3384 923 110.401 426.15 460.694
1763 0 70.325 16.5233 1162 106.646 425.628 459.951
1764 0 72.3391 14.4459 1045 109.452 426.147 461.612
1765 0 75.1301 18.062 1357 103.835 426.054 465.388
1766 0 77.1592 16.2262 1252 106.046 425.524 466.497
1767 0 79.1203 14.3705 1137 109.169 425.182 468.179
1768 0 83.554 14.35 1199 108.307 424.736 467.832
1769 0 88.4201 13.2549 1172 110.718 424.919 464.236
1770 0 91.6197 14.1673 1298 108.941 424.861 466.182
1771 0 96.2082 15.2482 1467 107.325 423.59 465.095
1772 1 55.2126 13.3846 739 106.441 422.878 489.382
1773 0 56.1881 11.6929 657 111.942 420.195 485.98
1774 0 60.289 15.2764 921 107.185 420.84 486.832
1775 0 66.4081 15.721 1044 108.068 419.849 480.614
1776 0 69.482 16.4503 1143 107.01 419.009 477.811
1777 0 68.2372 19.1831 1309 104.129 418.751 479.836
1778 0 66.5379 13.6764 910 114.743 418.523 478.292
1779 0 72.8855 14.708 1072 111.612 417.554 477.555
1780 0 70.3408 14.4582 1017 114.283 416.694 474.254
1781 0 73.2241 15.4457 1131 111.763 418.899 476.476
1782 0 75.658 11.4463 866 117.887 419.069 473.589
1783 0 79.7856 15.2158 1214 111.641 418.282 469.917
1784 0 82.6397 16.2997 1347 110.09 418.624 469.286
1785 0 85.3591 15.1478 1293 111.832 417.52 467.579
1786 0 84.3887 13.817 1166 115.592 417.551 464.591
1787 0 89.51 13.3952 1199 116.298 418.498 461.572
1788 0 92.3794 15.2848 1412 113.185 418.667 460.103
1789 1 53.7954 12.6777 682 110.403 417.274 481.028
1790 0 51.3753 12.5547 645 114.026 418.774 475.802
1791 0 56.3999 11.3475 640 115.867 419.623 477.317
1792 0 57.1338 13.5822 776 112.367 419.495 474.879
1793 0 60.2881 15.2269 918 110.097 420.748 474.936
1794 0 61.35 18.2559 1120 105.477 421.066 475.531
1795 0 65.2692 14.7083 960 111.544 420.772 471.708
1796 0 71.3259 16.7681 1196 106.198 422.451 467.593
1797 0 72.2097 19.1525 1383 103.461 422.192 466.211
1798 0 71.376 14.3326 1023 113.348 423.872 467.869
1799 0 71.36 15.9053 1135 112.241 423.718 466.241
1800 0 73.2126 14.9838 1097 114.137 424.07 466.444
1801 0 76.3423 13.9765 1067 115.974 424.739 467.26
1802 0 80.3669 18.5649 1492 107.879 425.086 462.763
1803 0 81.2299 14.1327 1148 116.002 425.282 465.891
1804 0 87.1718 16.2438 1416 111.064 425.426 466.804
1805 0 86.236 15.0401 1297 115.011 425.062 465.345
1806 0 90.1775 16.035 1446 114.142 425.169 465.08
1807 0 94.1243 16.9138 1592 112.174 426.146 465.298
1808 0 98.1924 16.2538 1596 114.055 424.206 462.449
1809 0 98.3467 16.8079 1653 114.439 425.385 459.935
1810 0 101.474 13.5995 1380 120.087 424.611 462.571
1811 0 104.422 16.7877 1753 115.805 425.812 456.645
1812 0 110.286 17.79 1962 113.761 424.266 451.832
1813 0 114.514 16.6355 1905 115.685 423.913 458.293
1814 1 66.2936 13.8475 918 114.626 423.871 483.78
1815 0 67.3608 13.1827 888 115.1 422.002 484.001
1816 0 64.19 9.70556 623 121.823 421.738 482.775
1817 0 68.216 13.985 954 116.455 421.403 479.604
1818 0 69.2965 13.4062 929 118.647 420.463 481.377
1819 0 72.2933 13.6804 989 115.196 419.207 483.502
1820 0 73.1804 11.0139 806 123.65 419.323 476.211
1821 0 83.481 17.6687 1475 109.542 420.016 479.099
1822 0 81.2472 15.3851 1250 116.559 419.097 472.464
1823 0 81.6067 13.7489 1122 120.679 418.905 468.74
1824 0 86.115 16.0947 1386 115.372 417.813 469.196
1825 0 89.1203 13.7679 1227 119.408 416.581 467.656
1826 0 90.224 17.0243 1536 114.493 417.905 464.708
1827 0 90.1807 11.3661 1025 124.281 417.975 463.839
1828 0 97.2078 16.151 1570 115.564 417.291 458.894
1829 0 99.3456 16.6087 1650 115.768 417.349 457.445
1830 0 100.258 15.0012 1504 120.131 418.273 453.588
1831 0 104.803 12.681 1329 125.38 418.251 445.268
1832 0 110.575 14.7773 1634 119.799 417.488 446.618
1833 1 60.4389 12.3761 748 118.882 418.202 469.218
1834 0 63.0811 11.7785 743 116.778 419.448 467.662
1835 0 64.1003 12.9953 833 113.789 419.077 465.263
1836 0 66.2155 11.9307 790 115.008 420.627 455.706
1837 0 69.1781 16.5226 1143 109.694 419.757 444.241
1838 0 68.3641 14.218 972 116.815 420.788 448.966
1839 0 74.3125 12.8377 954 117.403 422.252 449.731
1840 0 76.2915 19.5041 1488 106.078 422.111 454.034
1841 0 78.2039 17.2754 1351 109.959 422.144 452.39
1842 0 79.2173 16.2843 1290 110.74 422.333 456.867
1843 0 82.1559 15.6775 1288 110.96 422.467 457.3
1844 0 85.2155 13.8238 1178 114.266 423.571 455.044
1845 0 88.1404 12.8658 1134 116.774 423.032 451.23
1846 0 91.2008 15.0766 1375 113.102 424.756 452.586
1847 0 93.0948 13.309 1239 116.897 424.39 449.931
1848 0 96.1042 17.5851 1690 108.685 425.19 457.188
1849 0 101.159 13.2959 1345 117.067 424.225 453.999
1850 0 106.226 14.6574 1557 114.416 424.591 454.602
1851 0 108.172 12.286 1329 118.384 425.609 453.519
1852 0 111.117 14.5522 1617 114.049 424.97 454.528
1853 0 117.136 12.5922 1475 115.875 425.047 455.696
1854 0 122.325 14.6086 1787 113.553 424.631 452.982
1855 0 126.262 14.5174 1833 113.489 423.829 453.272
1856 0 127.196 12.8384 1633 117.843 424.149 447.904
1857 0 133.202 13.1604 1753 116.829 423.066 445.115
1858 0 139.455 15.9693 2227 111.652 422.167 447.989
1859 0 143.225 14.7461 2112 112.137 421.687 445.927
1860 0 148.27 12.511 1855 116.205 421.094 441.811
1861 0 153.407 13.2589 2034 115.611 421.073 439.19
1862 0 160.308 20.6727 3314 104.321 420.602 438.595
1863 1 96.1801 11.5512 1111 117.296 419.722 464.645
1864 0 100.21 13.5915 1362 115.878 418.88 462.431
1865 0 102.197 16.1452 1650 112.902 416.796 457.575
1866 0 104.16 12.7689 1330 117.956 417.011 457.209
1867 0 111.209 16.7972 1868 110.497 415.687 454.042
1868 0 113.328 14.2507 1615 114.65 416.55 456.346
1869 0 119.404 15.234 1819 111.242 416.775 458.251
1870 0 119.176 13.9122 1658 118.331 416.987 447.025
1871 0 121.402 15.3293 1861 114.668 415.899 447.578
1872 0 124.354 15.3031 1903 115.173 416.236 442.903
1873 0 129.256 17.5931 2274 109.929 415.604 432.29
1874 0 133.459 15.0308 2006 115.725 417.319 425.584
1875 0 138.431 14.9822 2074 115.961 417.976 420.453
1876 0 143.369 15.2265 2183 114.76 417.88 425.88
1877 0 151.484 16.5694 2510 111.571 418.362 431.119
1878 0 153.318 16.5147 2532 113.113 419.668 422.162
1879 1 89.363 13.3836 1196 115.417 419.186 452.779
1880 0 90.3702 10.8 976 119.156 419.704 453.953
1881 0 99.7725 13.6711 1364 113.106 420.705 452.378
1882 0 97.4936 12.4521 1214 118.398 421.926 450.21
1883 0 101.369 14.2745 1447 116.146 422.229 443.07
1884 0 105.432 15.906 1677 112.893 423.119 443.474
1885 0 107.451 15.9887 1718 113.347 422.931 444.942
1886 0 113.693 14.6271 1663 114.884 423.561 445.35
1887 0 116.485 14.3452 1671 115.485 425.2 443.619
1888 0 120.595 16.4434 1983 112.2 424.824 442.342
1889 0 120.357 13.8671 1669 118.253 425.839 436.969
1890 0 120.357 13.784 1659 150.461 426.821 436.734
1891 0 130.537 15.1145 1973 115.845 425.529 437.174
1892 0 135.403 15.9967 2166 113.943 424.189 434.957
1893 0 139.65 15.1809 2120 115.547 424.719 430.554
1894 0 142.453 15.4086 2195 115.404 424.27 431.413
1895 0 152.526 15.8202 2413 113.246 423.562 431.034
1896 0 155.444 13.4582 2092 118.279 423.972 430.807
1897 0 160.498 15.9504 2560 113.732 424.085 434.796
1898 0 166.626 14.0434 2340 117.9 422.87 421.482
1899 0 172.659 16.883 2915 113.215 423.175 428.728
1900 0 180.691 17.9699 3247 110.615 421.778 429.284
1901 0 183.443 13.6773 2509 119.122 420.569 425.284
1902 0 189.244 15.6571 2963 114.99 420.927 427.195
1903 0 196.698 15.1196 2974 116.817 420.043 412.235
1904 0 203.565 14.7521 3003 116.485 419.506 417.138
1905 0 210.569 14.4418 3041 116.372 418.242 412.674
1906 0 215.614 13.2552 2858 119.301 418.339 404.935
1907 1 168.577 12.2378 2063 118.215 417.469 431.688
1908 0 175.71 14.08 2474 116.934 417.412 417.543
1909 0 181.633 12.5473 2279 118.118 416.002 421.774
1910 0 189.732 14.4784 2747 116.181 417.205 411.748
1911 0 196.669 14.6032 2872 116.196 416.565 409.633
1912 0 205.732 18.5095 3808 110.204 416.92 407.624
1913 0 210.738 18.16 3827 112.424 415.552 406.304
1914 0 214.648 16.1287 3462 113.535 416.344 400.924
1915 0 216.661 11.5803 2509 121.193 416.62 396.481
1916 0 226.749 14.214 3223 117.119 417.466 388.8
1917 0 236.869 16.8912 4001 112.114 417.369 393.49
1918 0 249.274 19.9579 4975 106.374 417.23 393.498
1919 1 263.677 11.3017 2980 118.231 417.798 393.536
1920 0 261.761 15.858 4151 113.03 417.561 381.781
1921 0 272.931 17.9056 4887 111.131 418.61 364.847
1922 0 282.055 18.8793 5325 109.197 420.053 361.939
1923 0 337.301 14.0943 4754 116.49 419.649 342.481
1924 1 80.3522 13.0052 1045 109.847 420.478 457.355
1925 0 84.1964 14.5731 1227 105.987 421.827 456.354
1926 0 89.1329 19.7458 1760 99.8392 422.184 454.768
1927 0 93.1795 16.3019 1519 104.478 423.894 454.64
1928 0 93.1795 16.3126 1520 134.507 424.912 454.586
1929 0 98.385 13.7114 1349 107.735 424.889 452.261
1930 0 101.5 12.6896 1288 107.943 425.787 457.995
1931 0 105.159 12.0674 1269 111.143 425.711 447.451
1932 0 112.48 16.2785 1831 103.796 427.184 448.886
1933 0 112.44 13.9541 1569 108.468 426.703 448.765
1934 0 127.418 19.644 2503 98.0623 426.113 439.39
1935 0 116.329 13.9862 1627 108.045 425.583 433.793
1936 0 117.224 13.9732 1638 108.443 424.703 448.314
1938 0 150.521 19.8112 2982 97.6244 425.89 430.365
1939 0 145.514 18.8023 2736 101.826 425.539 438.973
1940 0 142.617 19.3385 2758 102.48 423.909 436.847
1941 0 140.402 11.6593 1637 115.914 423.911 442.063
1942 0 166.879 26.4443 4413 93.2941 423.785 426.456
1943 0 160.926 24.1601 3888 97.2402 423.23 424.777
1944 0 159.387 17.8747 2849 106.076 422.958 442.003
1945 0 163.677 13.936 2281 113.086 420.819 433.072
1946 0 170.394 14.6426 2495 113.57 419.611 423.63
1947 1 87.5219 8.42075 737 117.343 419.479 470.254
1948 0 93.2523 12.1606 1134 110.695 418.068 470.523
1949 0 93.2523 12.2678 1144 142.007 416.037 470.701
1950 0 99.2565 16.0493 1593 106.417 418.076 464.586
1951 0 101.222 13.0012 1316 111.112 416.951 460.318
1952 0 105.37 18.3829 1937 102.895 416.987 456.22
1953 0 105.196 14.8865 1566 108.519 416.939 452.66
1954 0 109.158 14.6944 1604 107.337 415.219 450.333
1955 0 114.404 16.2406 1858 105.363 416.612 451.382
1956 0 116.206 15.0939 1754 107.216 416.658 447.927
1957 0 117.355 15.1676 1780 106.652 416.499 446.184
1958 0 120.279 12.3463 1485 108.651 417.039 446.417
1959 0 124.422 13.0685 1626 108.221 416.678 439.978
1960 1 71.226 15.9352 1135 99.5921 417.621 470.922
1961 0 71.1814 11.7165 834 105.723 418.261 468.606
1962 0 76.1857 13.8215 1053 103.278 418.337 468.251
1963 0 76.1009 14.1391 1076 105.002 419.139 461.686
1964 0 80.4375 16.833 1354 99.9062 418.677 458.951
1965 0 79.1265 11.172 884 109.629 419.773 461.166
1966 0 83.3975 10.336 862 109.68 420.535 463.09
1967 0 86.2107 11.6343 1003 108.884 421.156 458.255
1968 0 88.238 18.0648 1594 100.841 421.182 455.731
1969 0 90.2702 20.2835 1831 98.5784 421.611 452.879
1970 0 92.4875 15.3642 1421 104.672 423.804 454.7
1971 0 96.5816 14.2781 1379 106.096 423.497 453.619
1972 0 102.248 14.8854 1522 104.248 423.725 451.267
1973 0 101.199 12.2333 1238 107.816 424.067 454.924
1974 0 104.299 13.2696 1384 108.09 423.228 448.222
1975 0 106.3 10.3199 1097 112.969 424.899 450.912
1976 0 108.549 9.41512 1022 112.251 425.606 454.845
1977 0 114.468 12.5538 1437 108.196 425.785 444.899
1978 0 114.468 12.545 1436 138.809 425.788 444.978
1979 0 121.362 15.1695 1841 101.577 424.816 452.822
1980 0 124.668 12.794 1595 107.766 424.463 443.877
1981 1 252.988 11.5776 2929 113.755 423.97 382.35
1982 1 134.416 9.10608 1224 112.289 422.775 444.793
1983 1 76.5096 12.1031 926 110.32 422.724 474.542
1984 0 79.365 17.0982 1357 101.938 423.333 472.495
1985 0 82.1834 12.898 1060 106.742 422.349 472.108
1986 0 83.4575 10.1848 850 111.008 422.346 477.896
1987 0 87.3427 11.1515 974 112.585 419.302 465.284
1988 0 93.4597 14.0809 1316 107.352 419.828 466.57
1989 0 94.6091 14.227 1346 108.511 417.982 461.314
1990 0 96.4554 13.26 1279 109.588 419.709 463.365
1991 0 99.6095 14.1653 1411 109.205 418.648 456.488
1992 0 101.869 12.1725 1240 112.119 418.626 458.507
1993 0 104.479 18.2238 1904 103.754 417.228 451.922
1994 0 107.611 12.5266 1348 113.185 418.264 451.744
1995 0 112.472 15.3549 1727 108.364 416.791 451.804
1996 0 117.382 18.0437 2118 102.898 415.765 456.803
1997 0 119.311 15.4974 1849 108.141 415.06 444.927
1998 0 119.523 12.5833 1504 113.559 415.98 447.961
1999 0 122.507 13.1258 1608 112.925 415.466 446.249
2000 0 129.614 16.148 2093 107.784 415.289 443.982
2001 0 132.764 17.8212 2366 105.257 416.384 441.818
2002 0 134.714 14.2524 1920 111.457 415.918 438.157
2003 0 137.646 17.269 2377 106.929 416.499 435.425
2004 0 142.536 16.5782 2363 108.369 417.886 430.6
2005 0 145.517 13.1737 1917 113.941 418.192 433.465
2006 0 148.487 16.5873 2463 110.603 418.456 423.882
2007 0 154.646 14.9114 2306 112.846 419.285 418.13
2008 0 157.685 21.86 3447 103.208 418.817 426.443
2009 0 162.746 16.4428 2676 111.202 419.696 417.478
2010 0 170.417 19.9687 3403 106.119 420.694 422.964
2011 0 172.685 15.8786 2742 113.534 421.15 412.123
2012 0 178.567 18.7716 3352 109.473 422.558 413.448
2013 0 178.567 18.7324 3345 141.083 424.568 413.271
2014 1 190.399 16.3867 3120 113.454 423.379 397.257
2015 0 193.535 13.2431 2563 120.279 423.262 393.107
2016 0 200.704 15.3011 3071 116.235 424.372 392.671
2017 0 205.474 13.9239 2861 118.392 423.833 393
2018 1 226.522 10.4228 2361 119.609 424.687 406.271
2019 0 225.514 10.802 2436 121.818 426.618 393.05
2020 0 230.454 14.6493 3376 116.279 424.809 378.776
2021 0 237.477 16.0984 3823 114.666 425.907 384.234
2022 1 184.484 13.3236 2458 117.76 424.869 412.408
2023 0 192.608 12.1542 2341 119.184 423.714 411.509
2024 0 199.39 13.6366 2719 116.083 423.502 407.125
2025 0 206.606 14.7382 3045 113.974 423.059 407.833
2026 0 214.536 15.8761 3406 112.573 423.314 404.659
2027 0 224.761 15.3007 3439 113.103 422.12 403.918
2028 0 231.676 14.9692 3468 114.541 423.19 392.717
2029 1 65.1261 10.2263 666 103.255 423.787 476.113
2030 0 65.144 5.54157 361 113.194 422.961 476.391
2031 0 67.2028 6.68126 449 111.45 423.232 482.189
2032 0 70.1019 12.0111 842 107.901 419.581 474.134
2033 0 77.2681 13.8479 1070 102.962 418.996 478.201
2034 0 77.1504 12.0155 927 106.313 418.72 475.569
2035 0 79.2399 12.9606 1027 104.903 417.114 472.411
2036 0 82.1999 11.7275 964 106.846 416.916 471.638
2037 0 82.1536 11.5759 951 108.108 416.379 467.555
2038 0 84.2145 12.7413 1073 105.348 416.319 466.446
2039 0 91.1966 10.7241 978 107.391 417.184 465.104
2040 1 48.1424 12.2138 588 103.663 416.043 481.614
2041 0 51.2012 11.445 586 102.976 417.213 485.659
2042 0 50.283 12.1512 611 104.229 415.882 481.489
2043 0 55.0442 12.7352 701 101.748 414.946 481.013
2044 0 55.0442 12.5899 693 121.352 413.921 480.926
2045 0 57.1622 11.0213 630 105.643 415.127 475.379
2046 0 57.0683 10.0932 576 106.269 415.009 475.076
2047 0 60.1991 12.2095 735 103.389 415.739 475.713
2048 0 59.1908 10.5422 624 106.492 416.213 472.998
2049 0 63.1011 10.602 669 106.354 416.758 471.145
2050 0 63.2336 12.952 819 103.267 417.239 471.83
2051 0 67.0556 13.4217 900 103.127 417.984 467.069
2052 0 65.0693 11.3264 737 106.801 418.674 467.7
2053 0 68.0924 12.0572 821 105.817 418.374 465.817
2054 0 69.095 11.0862 766 108.022 418.038 462.15
2055 0 75.1313 15.3997 1157 100.864 421.129 466.506
2056 0 74.0832 14.2542 1056 104.113 421.154 463.927
2057 0 75.2526 14.9762 1127 101.984 421.997 465.171
2058 0 78.1541 23.6072 1845 93.3257 422.38 460.646
2059 0 79.354 14.2652 1132 104.973 422.13 464.578
2060 0 80.2927 11.2588 904 109.869 423.122 466.129
2061 0 84.1238 13.3613 1124 107.735 425.061 459.086
2062 0 83.2401 10.5718 880 112.893 424.533 462.143
2063 0 85.3412 9.29211 793 115.18 423.942 463.14
2064 0 92.3266 14.687 1356 107.651 424.814 462.423
2065 0 92.1233 5.92684 546 121.009 423.96 459.324
2066 0 97.2204 12.3945 1205 111.501 424.389 459.676
2067 1 52.1081 9.92168 517 111.716 421.515 485.54
2068 0 57.0523 12.655 722 107.803 422.799 484.791
2069 0 59.0555 13.9699 825 104.542 422.341 483.699
2070 0 60.0915 10.5672 635 111.357 421.983 482.877
2071 0 59.022 7.98007 471 117.119 421.051 478.896
2072 0 65.0914 8.86445 577 114.527 419.537 485.251
2073 0 65.4638 13.0301 853 109.837 419.649 479.442
2074 0 67.4843 12.7141 858 110.714 419.501 476.04
2075 0 65.3086 13.0151 850 111.266 418.545 475.906
2076 0 68.46 14.8554 1017 108.924 417.983 474.363
2077 0 75.5102 12.1705 919 110.642 417.017 476.158
2078 0 76.4395 11.9964 917 111.668 415.206 471.461
2079 0 80.507 16.1849 1303 104.577 416.506 473.792
2080 0 80.2259 12.3402 990 111.01 415.426 470.482
2081 0 85.2675 11.5753 987 110.31 415.517 463.3
2082 0 88.445 14.9698 1324 106.559 415.862 459.218
2083 0 91.4583 12.3772 1132 109.827 416.045 458.533
2084 0 90.4406 11.6651 1055 111.423 414.903 456.187
2085 1 50.1808 6.93492 348 114.362 415.259 478.641
2086 0 54.2452 8.84871 480 109.021 416.221 479.542
2087 0 56.2097 11.973 673 107.434 415.484 474.208
2088 0 54.2203 10.4942 569 110.726 416.128 462.768
2089 0 55.1218 12.4089 684 106.885 414.839 466.249
2090 0 58.1761 10.451 608 110.34 415.258 464.789
2091 0 59.0385 11.9075 703 108.159 416.802 466.478
2092 0 60.2208 10.9098 657 110.167 418.382 464.041
2093 0 60.2208 10.8434 653 118.776 419.352 463.963
2094 0 62.1867 7.63829 475 116.149 416.787 456.196
2095 0 70.132 11.0078 772 109.978 420.363 459.69
2096 0 71.1277 13.5953 967 106.443 419.459 458.675
2097 0 70.0702 10.9319 766 110.257 421.568 461.691
2098 0 75.1367 11.4591 861 110.048 420.912 456.899
2099 0 79.1669 12.0631 955 108.496 421.318 457.592
2100 0 82.121 13.1513 1080 110.919 423.596 458.281
2101 0 88.2719 13.8436 1222 109.016 423.557 461.795
2102 0 94.5267 10.2722 971 113.239 423.352 463.705
2103 1 48.1669 11.4394 551 106.755 424.289 477.574
2104 0 49.3399 8.85693 437 112 424.064 474.503
2105 0 50.3405 11.1441 561 110.777 423.234 475.84
2106 0 53.0765 12.9247 686 110.239 426.367 479.94
2107 0 55.0495 13.7876 759 110.108 424.698 478.049
2108 0 57.139 12.5308 716 111.887 424.297 481.168
2109 0 59.1318 16.0996 952 107.649 424.413 482.225
2110 0 61.067 13.4115 819 112.536 424.292 482.3
2111 0 62.0696 11.4549 711 116.378 425.38 483.961
2112 0 65.1273 12.5907 820 114.885 423.534 482.229
2113 0 67.0783 13.8197 927 113.388 423.237 481.161
2114 0 68.0695 14.6909 1000 112.704 422.141 480.633
2115 0 72.1624 15.4236 1113 110.727 421.064 479.529
2116 0 74.0591 12.8816 954 115.631 420.698 478.952
2117 0 78.0709 14.2947 1116 113.108 418.738 475.125
2118 0 80.1151 15.0284 1204 111.472 418.832 475.35
2119 0 82.0873 16.1414 1325 109.98 417.963 473.14
2120 0 84.1313 14.8815 1252 112.316 418.139 473.593
2121 0 89.1473 19.1817 1710 105.775 416.955 462.946
2122 0 96.3014 23.5095 2264 99.36 416.265 459.577
2123 0 93.329 13.7792 1286 115.089 416.57 468.05
2124 1 52.1915 12.6457 660 112.794 416.617 487.23
2125 0 53.1506 11.1382 592 114.439 415.738 484.355
2126 0 56.309 13.7633 775 110.929 417.334 483.679
2127 0 60.059 15.5347 933 106.818 416.12 482.398
2128 0 58.1422 11.9535 695 114.656 417.599 479.094
2129 0 58.1236 14.3831 836 111.502 417.017 477.573
2130 0 60.149 14.3477 863 111.629 415.99 475.844
2131 0 60.1727 14.2756 859 112.418 416.489 473.92
2132 0 62.3143 12.2123 761 114.823 417.108 473.258
2133 0 65.1549 11.5571 753 115.173 417.797 470.969
2134 0 65.1391 14.0622 916 112.238 418.213 469.925
2135 0 71.2351 12.536 893 112.632 418.782 469.586
2136 0 74.1463 13.5138 1002 111.788 419.022 467.955
2137 0 77.2802 14.6092 1129 110.473 419.849 463.511
2138 0 79.0758 15.5926 1233 110.192 420.548 462.589
2139 0 81.0722 12.7047 1030 115.144 420.709 462.168
2140 0 85.2328 15.1115 1288 109.899 420.853 461.97
2141 0 87.4327 16.3669 1431 109.658 422.948 462.242
2142 0 89.4147 12.4141 1110 116.416 422.854 458.058
2143 0 94.6905 13.7923 1306 113.861 421.982 458.116
2144 0 96.3331 16.3184 1572 110.959 422.611 455.655
2145 0 101.415 14.7908 1500 113.251 424.195 456.338
2146 1 51.2976 13.7238 704 110.212 423.415 479.719
2147 0 53.2233 14.4298 768 111.949 425.643 481.57
2148 0 51.147 12.4739 638 116.558 425.409 483.071
2149 0 54.0579 13.4485 727 115.231 425.836 482.146
2150 0 56.0445 14.3279 803 113.476 426.258 485.493
2151 0 58.1203 12.1988 709 119.707 425.553 484.461
2152 0 59.1545 14.1156 835 118.993 425.325 482.234
2153 0 64.1689 14.2281 913 117.204 424.494 485.499
2154 0 64.1689 14.2125 912 152.806 423.477 485.644
2155 0 68.2566 13.5664 926 120.225 423.274 484.796
2156 0 68.2724 13.1385 897 123.226 422.819 482.202
2157 0 74.4146 16.865 1255 116.565 421.779 478.783
2158 0 75.3348 17.1501 1292 116.197 419.83 475.423
2159 0 80.3453 17.0638 1371 114.819 419.608 480.276
2160 0 82.3401 18.0107 1483 114.688 418.686 474.757
2161 0 84.5367 15.7328 1330 119.301 417.996 469.313
2162 0 87.3289 15.1267 1321 118.403 417.59 475.88
2163 1 50.1322 14.2623 715 117.587 416.931 489.891
2164 0 46.2529 12.9722 600 124.18 417.933 481.582
2165 0 48.0914 13.7447 661 122.634 416.402 480.84
2166 0 53.2229 13.4153 714 119.559 417.732 485.961
2167 0 52.0742 14.5178 756 121.792 416.89 481.259
2168 0 56.2519 16.3372 919 113.161 417.097 487.548
2169 0 58.2724 16.8176 980 130.288 418.087 486.94
2170 0 56.1876 13.4371 755 126.762 416.236 480.393
2171 0 63.4649 12.3533 784 126.147 416.82 479.869
2172 0 63.2177 14.6161 924 121.787 416.75 479.224
2173 0 65.2244 16.4969 1076 118.691 417.363 477.612
2174 0 66.2862 14.6033 968 122.472 416.971 473.856
2175 0 68.2484 13.0992 894 124.855 418.474 474.689
2176 0 71.3588 13.9016 992 122.624 417.58 471.147
2177 0 73.0906 13.7501 1005 123.506 417.724 467.077
2178 0 76.1203 14.8186 1128 120.342 418.974 464.797
2179 0 79.1751 13.2617 1050 121.527 419.069 464.944
2180 0 81.1088 18.0991 1468 112.108 420.312 466.198
2181 0 82.3056 16.2686 1339 117.609 422.139 459.892
2182 0 85.2583 12.6205 1076 122.046 422.016 465.046
2183 0 89.2 16.278 1452 118.802 422.271 460.97
2184 1 48.1082 11.4534 551 120.911 422.583 482.096
2185 0 48.1495 13.1466 633 118.46 423.017 481.828
2186 0 50.2277 14.056 706 115.068 423.316 483.333
2187 0 54.2497 13.8803 753 114.647 423.826 483.461
2188 0 54.3304 12.0559 655 123.015 424.678 480.107
2189 0 58.1833 14.8496 864 117.119 425.846 480.104
2190 0 57.1142 13.4292 767 119.725 425.9 480.682
2191 0 60.1026 15.6732 942 115.358 424.933 482.21
2192 0 59.0826 12.6602 748 122.29 424.531 481.366
2193 0 63.1755 13.4704 851 120.182 425.435 481.411
2194 0 66.3135 13.4663 893 119.904 425.199 482.534
2195 0 69.3159 13.8929 963 120.682 423.699 478.546
2196 0 70.3488 13.4189 944 122.039 423.068 475.202
2197 0 74.3343 15.1074 1123 118.737 423.533 476.046
2198 0 78.1811 15.3106 1197 118.386 423.976 478.723
2199 0 82.3385 15.7156 1294 116.292 422.522 479.881
2200 0 83.2425 14.8482 1236 119.47 420.556 474.678
2201 0 88.2004 15.9977 1411 118.074 420.807 472.265
2202 1 44.1946 11.6304 514 118.047 417.101 488.481
2203 0 45.0213 12.5052 563 119.394 418.554 489.536
2204 0 47.0372 12.8409 604 116.849 417.3 490.444
2205 0 51.0407 15.3015 781 114.713 416.542 488.699
2206 0 51.072 13.295 679 119.39 417.038 490.446
2207 0 52.1345 13.657 712 117.933 417.281 488.43
2208 0 57.1945 13.1481 752 115.467 416.214 489.723
2209 0 57.168 13.8014 789 117.958 415.848 486.568
2210 0 57.1993 15.4373 883 116.828 415.776 481.168
2211 0 60.2005 14.7175 886 117.03 415.53 481.485
2212 0 60.1697 13.8774 835 119.117 417.289 479.071
2213 0 62.1443 12.3905 770 121.271 415.999 477.964
2214 0 66.1755 15.6251 1034 114.334 416.158 478.684
2215 0 66.1865 15.1693 1004 116.875 415.685 475.158
2216 0 70.1445 17.9487 1259 111.313 416.686 475.045
2217 0 68.1813 13.5228 922 120.665 416.492 469.439
2218 0 73.1317 13.4415 983 119.45 416.99 471.356
2219 0 76.3552 16.2399 1240 115.252 417.278 463.648
2220 0 79.3145 14.411 1143 117.882 417.88 466.159
2221 0 80.3701 14.1346 1136 120.04 418.991 461.438
2222 0 83.4609 15.3006 1277 116.963 418.532 460.327
2223 0 82.1853 13.5426 1113 121.044 418.912 459.595
2224 0 89.283 16.6213 1484 115.244 419.208 458.448
2225 0 92.0942 17.1781 1582 114.042 421.638 457.177
2226 0 95.6384 13.551 1296 119.626 422.569 455.749
2227 1 48.1576 10.0711 485 121.194 422.293 479.977
2228 0 50.0459 10.3705 519 117.042 422.071 478.944
2229 0 51.2187 10.3673 531 117.755 425.448 477.087
2230 0 54.1377 12.3389 668 116.232 424.368 478.298
2231 0 56.1553 13.7298 771 112.276 426.503 478.056
2232 0 56.1553 13.7654 773 117.948 428.523 478.082
2233 0 60.4481 12.3081 744 114.445 426.497 476.753
2234 0 62.3427 12.4794 778 113.638 425.96 477.999
2235 0 63.2575 12.8048 810 111.241 426.848 480.931
2236 0 61.3169 13.0307 799 115.13 425.786 476.264
2237 0 71.5119 13.4104 959 112.791 425.326 474.191
2238 0 68.2859 10.8514 741 119.001 423.595 472.767
2239 0 75.2064 12.8978 970 114.13 423.922 476.038
2240 0 76.316 12.9331 987 114.797 423.611 474.67
2241 0 79.306 12.1555 964 117.269 423.529 474.339
2242 0 81.3458 14.1863 1154 114.214 420.869 471.644
2243 0 87.2959 13.5402 1182 115.343 421.201 471.666
2244 0 87.4624 13.7545 1203 117.444 419.265 467.158
2245 0 89.2404 11.7323 1047 120.011 418.623 468.138
2246 1 43.1594 8.73507 377 124.053 417.485 490.928
2247 0 50.1248 11.9103 597 118.596 417.601 488.779
2248 0 51.1948 12.1692 623 115.929 417.185 485.22
2249 0 54.1842 13.7863 747 117.795 416.324 485.817
2250 0 55.0717 14.1997 782 117.26 416.298 484.288
2251 0 57.2239 14.9763 857 115.142 417.312 483.693
2252 0 57.1011 13.1346 750 119.276 416.395 481.311
2253 0 59.2662 14.3083 848 115.57 417.748 481.028
2254 0 61.2748 13.6761 838 116.29 417.191 480.932
2255 0 65.2876 15.5006 1012 113.328 416.773 481.074
2256 0 66.3591 16.3806 1087 113.559 417.984 478.121
2257 0 67.0685 14.3883 965 119.064 419.577 472.273
2258 0 75.2062 13.7489 1034 112.849 418.298 472.079
2259 0 74.5657 15.5433 1159 111.069 418.407 473.236
2260 0 75.1554 12.707 955 118.259 417.846 467.157
2261 0 79.1884 15.2169 1205 114.631 418.871 469.004
2262 0 78.2786 10.7053 838 125.011 418.748 466.012
2263 1 153.689 13.6444 2097 121.825 420.328 427.793
2264 1 80.4044 13.7057 1102 121 420.395 463.403
2265 0 82.3101 13.5828 1118 120.555 420.606 369.213
2266 0 82.2048 14.5369 1195 120.052 422.361 369.323
2267 0 89.1358 12.5875 1122 116.702 423.299 369.185
2268 1 50.0359 12.6709 634 114.776 422.301 387.115
