time division length width area intensity CMx CMy
0 0 40.0242 13.8416 554 144.283 810.128 422.054
1 0 39.0709 14.5632 569 144.888 809.227 420.492
2 0 41.0737 13.7071 563 145.778 808.579 423.201
3 0 41.0668 13.8068 567 144.578 807.564 423.152
4 0 44.0712 14.5447 641 140.546 807.025 423.565
5 0 47.0781 14.5503 685 137.86 806.905 424.982
6 0 48.1154 14.673 706 137.337 804.966 424.183
7 0 48.1573 16.28 784 135.634 804.153 424.203
8 0 50.2597 15.1811 763 137.076 802.725 423.872
9 0 50.2597 15.3005 769 135.663 801.714 423.784
10 0 52.0767 13.7297 715 139.309 801.687 422.65
11 0 54.1184 15.5585 842 133.221 801.665 424.165
12 0 56.1421 17.0816 959 130.114 801.724 426.398
13 0 55.0381 14.4445 795 138.253 802.712 423.161
14 0 60.0811 12.2834 738 136.728 801.442 427.159
15 0 61.0402 14.515 886 135.317 801.222 427.407
16 0 62.1292 13.1017 814 138.865 800.937 430.158
17 0 66.159 13.6641 904 136.785 801.088 435.132
18 0 68.1906 17.1725 1171 127.668 801.471 436.02
19 0 71.1692 14.3601 1022 133.53 801.602 440.485
20 0 75.062 15.9202 1195 127.887 801.005 447.033
21 0 76.5789 15.2653 1169 124.491 801.58 449.211
22 0 77.137 14.3252 1105 123.659 801.043 451.557
23 0 81.2456 13.8592 1126 130.204 802.606 451.541
24 0 84.421 15.8491 1338 125.895 803.266 450.152
25 0 87.2959 15.3501 1340 126.337 803.848 445.535
26 1 45.0646 12.7151 573 124.518 804.195 465.038
27 0 47.0718 12.534 590 124.364 805.808 466.539
28 0 47.0545 15.3864 724 120.373 805.483 462.465
29 0 46.1115 11.7324 541 126.617 805.214 461.588
30 0 52.1851 13.318 695 120.719 808.23 462.776
31 0 52.1851 13.3563 697 123.859 811.191 462.95
32 0 54.0788 13.3139 720 120.557 807.706 459.9
33 0 56.1581 12.9278 726 121.105 810.291 459.412
34 0 59.1228 13.362 790 118.486 810.213 459.253
35 0 59.1542 13.3549 790 121.881 811.613 455.53
36 0 62.2116 12.3289 767 119.82 810.965 459.205
37 0 66.0839 16.4034 1084 114.548 812.992 458.526
38 0 68.048 14.1518 963 116.534 810.917 458.517
39 0 71.1694 14.2758 1016 114.836 812.786 457.802
40 0 74.1238 13.7068 1016 113.855 811.926 458.821
41 0 76.1138 15.687 1194 113.151 812.433 453.843
42 0 78.3279 15.2436 1194 114.007 811.369 457.034
43 0 81.133 13.2252 1073 113.39 812.071 461.961
44 0 84.2091 14.6777 1236 121.348 811.412 455.752
45 0 86.3883 12.2586 1059 132.575 811.683 457.519
46 1 48.0547 13.5055 649 122.701 809.565 477.695
47 0 47.1519 10.7737 508 127.764 808.549 477.6
48 0 52.0543 12.3141 641 126.633 808.892 477.454
49 0 54.1849 15.3917 834 117.766 806.193 475.55
50 0 53.1308 14.0596 747 122.238 806.534 477.106
51 0 57.1325 14.3701 821 123.331 805.306 472.104
52 0 58.2215 13.9983 815 123.985 804.784 471.016
53 0 60.23 12.8673 775 125.348 804.419 472.025
54 0 64.1753 14.3046 918 121.886 804.489 470.589
55 0 63.1118 12.2006 770 127.229 804.782 468.216
56 0 66.1345 13.1248 868 123.894 803.782 470.298
57 0 66.1345 13.1097 867 141.896 801.761 470.4
58 0 72.1681 13.9535 1007 124.27 802.593 462.852
59 0 76.182 14.951 1139 123.091 801.95 461.814
60 0 79.2345 12.5072 991 127.582 802.236 459.887
61 0 80.154 13.9232 1116 125.225 802.478 458.79
62 0 83.1838 16.0849 1338 123.022 801.747 452.081
63 0 87.3058 17.5361 1531 119.893 801.295 452.035
64 1 48.1893 13.53 652 122.824 802.282 467.934
65 0 49.0449 12.1113 594 125.418 802.66 467.86
66 0 50.0878 13.2168 662 123.201 802.355 466.693
67 0 53.056 13.8533 735 121.341 802.408 464.664
68 0 55.0654 14.619 805 119.998 803.594 462.87
69 0 55.0863 12.9433 713 125.471 804.788 460.799
70 0 59.1426 14.2368 842 121.907 805.422 460.815
71 0 59.0805 13.5408 800 124.354 804.796 458.119
72 0 62.0357 11.9931 744 126.574 805.925 456.163
73 0 64.0839 12.468 799 125.697 806.31 457.372
74 0 66.1273 13.595 899 123.864 807.065 456.945
75 0 67.2585 13.1582 885 125.206 807.754 457.718
76 0 72.1752 16.7648 1210 117.71 808.333 456.292
77 0 67.111 13.1126 880 128.707 809.443 451.41
78 0 75.1691 14.5805 1096 124.336 809.861 454.649
79 0 78.4364 12.0735 947 126.752 810.076 455.892
80 0 79.2145 12.9396 1025 128.265 811.493 453.492
81 0 78.3665 12.4926 979 131.354 810.749 447.654
82 0 85.4633 15.0474 1286 125.431 810.411 450.439
83 0 86.1938 13.2144 1139 130.162 810.25 445.378
84 0 88.1312 15.1933 1339 125.46 809.019 444.895
85 0 90.21 12.8589 1160 130.741 809.541 442.655
86 1 46.2125 10.3652 479 124.288 810.117 472.775
87 0 49.12 12.5407 616 122.976 809.604 479.284
88 0 49.2093 10.811 532 129.432 808.57 475.635
89 0 49.2093 10.8922 536 133.267 807.576 475.59
90 0 54.085 10.7424 581 127.096 808.929 479.773
91 0 54.1607 12.906 699 126.449 807.021 477.083
92 0 57.1109 12.0818 690 127.157 807.322 476.597
93 0 59.1082 12.8916 762 125.461 807.249 477.276
94 0 61.0684 14.1808 866 123.79 805.29 477.231
95 0 63.0718 16.0135 1010 121.857 805.172 472.356
96 0 63.0313 13.9613 880 127.378 802.836 473.594
97 0 65.1994 14.9848 977 126.769 803.698 473.52
98 0 68.15 14.9083 1016 127.118 802.42 471.199
99 0 70.173 14.4927 1017 128.395 801.347 468.089
100 0 72.2285 14.1495 1022 128.71 801.995 467.527
101 0 73.1671 13.7903 1009 130.862 801.486 464.761
102 0 78.5998 14.9619 1176 128.494 801.094 462.954
103 0 82.2905 14.1572 1165 129.587 800.798 460.158
104 0 83.2143 15.3459 1277 126.931 800.304 461.532
105 0 87.2891 13.6329 1190 131.055 800.587 456.603
106 0 92.3859 17.8274 1647 121.049 801.357 457.036
107 0 94.2344 14.7186 1387 128.873 799.815 447.481
108 0 100.194 16.5977 1663 124.2 799.948 447.165
109 0 103.198 16.3957 1692 124.842 801.087 444.435
110 1 49.1079 12.0551 592 124.115 801.208 465.796
111 0 52.0363 12.3952 645 123.127 801.003 464.766
112 0 57.2081 14.5084 830 117.718 802.384 467.107
113 0 58.1485 12.1757 708 124.421 801.945 464.77
114 0 58.0721 11.8473 688 126.438 803.756 464.314
115 0 62.0802 14.0624 873 120.599 804.505 460.684
116 0 62.1927 15.3394 954 119.659 805.215 460.657
117 0 65.0826 14.7659 961 119.364 805.391 462.475
118 0 70.0907 12.598 883 122.575 806.73 462.845
119 0 70.074 12.4725 874 136.759 807.751 462.92
120 0 70.074 12.4583 873 136.268 808.759 462.926
121 0 76.1093 12.1273 923 125.439 807.016 460.809
122 0 75.1233 14.2299 1069 123.859 808.538 454.588
123 0 76.2913 11.6003 885 128.547 808.566 461.006
124 0 81.1701 14.4265 1171 123.889 808.225 458.825
125 0 83.1768 15.9299 1325 121.885 809.445 454.627
126 0 86.1886 15.1876 1309 122.322 809.919 458.986
127 0 90.1576 12.7222 1147 125.191 810.159 458.87
128 1 48.2642 12.9703 626 117.756 808.401 478.28
129 0 49.1949 11.1597 549 122.417 810.204 478.605
130 0 49.1425 12.4129 610 122.341 808.911 477.182
131 0 50.1422 13.1825 661 120.486 807.036 476.803
132 0 53.0732 13.7357 729 118.656 806.569 478.11
133 0 54.1584 11.1894 606 121.749 806.436 480.002
134 0 55.0406 11.9366 657 121.026 806.196 479.641
135 0 58.0652 10.6777 620 121.663 805.434 480.403
136 0 60.0964 11.3484 682 122.103 805.463 476.334
137 0 63.0727 14.9034 940 115.514 803.013 477.623
138 0 63.0727 14.8242 935 129.122 800.001 477.652
139 0 67.1017 15.0667 1011 115.945 801.482 474.33
140 0 67.1017 15.0965 1013 132.447 803.464 474.329
141 0 71.0908 14.0806 1001 116.743 800.79 471.263
142 0 74.2082 12.8827 956 119.419 800.492 466.827
143 0 77.1408 14.5319 1121 117.181 799.882 465.558
144 0 80.1461 13.8497 1110 117.748 799.914 463.138
145 0 82.235 15.1395 1245 116.99 799.066 457.01
146 1 38.0485 8.25262 314 118.172 799.398 483.806
147 0 38.0839 9.42655 359 119.306 798.66 478.618
148 0 43.154 13.811 596 111.73 798.691 480.169
149 0 43.0133 10.0202 431 117.875 799.29 480.158
150 0 46.057 10.6173 489 115.37 797.857 479.46
151 0 44.0692 9.48509 418 120.421 799.342 477.359
152 0 47.2131 15.25 720 110.899 799.672 473.103
153 0 46.0989 8.63361 398 123.088 799.897 473.286
154 0 51.1274 16.3318 835 109.933 800.946 470.363
155 0 53.1945 11.6741 621 117.161 800.341 469.232
156 0 56.0808 14.4434 810 112.725 801.144 467.932
157 0 55.1627 14.0493 775 114.457 802.637 466.902
158 0 57.0823 14.8032 845 114.766 802.303 465.563
159 0 59.1719 12.0158 711 121.034 802.243 462.346
160 0 60.3486 14.1511 854 118.759 803.822 462.97
161 0 62.2161 12.103 753 123.284 803.77 460.139
162 0 65.1817 14.8201 966 116.493 805.343 464.85
163 0 67.0912 14.3387 962 118.905 805.062 461.694
164 0 69.1288 14.8419 1026 117.484 805.773 460.887
165 0 68.114 14.8721 1013 131.069 806.792 461.054
166 0 74.2251 14.5773 1082 117.436 807.963 459.98
167 0 74.2251 14.6177 1085 123.539 808.945 459.9
168 0 74.2249 14.6582 1088 122.903 809.952 459.987
169 0 80.2371 15.7907 1267 116.448 808.751 458.898
170 0 80.2646 15.8351 1271 129.393 807.747 458.781
171 1 42.3642 9.04065 383 120.762 807.219 481.864
172 0 44.2765 13.6641 605 113.516 807.754 480.555
173 0 47.3605 13.1544 623 113.968 808.66 479.968
174 0 48.154 11.3179 545 118.396 807.02 481.567
175 0 48.1271 13.5267 651 115.896 807.028 482.932
176 0 51.1184 15.2978 782 111.987 805.909 484.146
177 0 52.1413 16.6279 867 111.806 805.283 479.803
178 0 51.1284 11.3244 579 121.53 805.649 482.275
179 0 56.2865 12.2409 689 120.199 804.116 479.1
180 0 58.2791 14.0531 819 116.438 803.609 479.862
181 0 59.3751 11.9242 708 120.247 802.931 480.328
182 0 60.3507 12.7919 772 119.528 801.575 475.843
183 0 64.3249 14.52 934 117.751 800.478 473.323
184 0 65.4102 14.1568 926 118.635 801.51 474.761
185 0 68.4919 12.6876 869 120.946 799.236 471.089
186 0 69.2408 10.5718 732 125.078 798.131 468.055
187 0 72.5949 14.2572 1035 118.081 799.161 465.741
188 0 75.2193 14.4378 1086 117.243 797.868 464.264
189 0 78.5907 16.5032 1297 112.879 798.099 463.977
190 0 83.3966 14.7368 1229 114.789 797.509 464.9
191 0 84.5111 14.7555 1247 116.808 797.872 457.743
192 0 86.7359 14.2501 1236 117.394 798.537 454.516
193 1 44.2619 9.28564 411 118.47 797.304 477.418
194 0 46.3196 11.4638 531 118.053 798.631 474.857
195 0 51.0747 12.1587 621 118.291 798.127 472.57
196 0 52.2407 12.1936 637 116.074 799.568 471.755
197 0 51.1527 13.8214 707 116.406 800.601 468.269
198 0 52.2052 13.6959 715 115.835 800.951 467.19
199 0 55.3743 13.5803 752 115.024 800.697 468.082
200 0 57.1963 13.1652 753 115.576 799.932 464.588
201 0 59.4481 11.6068 690 118.657 801.158 464.588
202 0 58.4077 12.5155 731 116.55 802.13 464.761
203 0 62.2088 14.4192 897 113.672 801.532 459.192
204 0 63.2163 14.0628 889 112.261 803.548 457.47
205 0 65.45 12.055 789 114.33 804.103 458.958
206 0 66.4736 16.0064 1064 107.84 804.188 456.248
207 0 70.2884 16.2189 1140 106.946 805.971 457.255
208 0 69.3768 11.3439 787 116.253 804.042 455.264
209 0 75.2258 12.1767 916 113.655 805.873 459.216
210 0 79.2779 15.0862 1196 108.148 806.411 460.607
211 0 77.3284 11.0826 857 117.725 806.368 453.714
212 0 82.3855 14.505 1195 111.594 805.972 456.906
213 0 85.3151 13.5615 1157 114.118 806.627 456.88
214 0 88.3015 13.805 1219 113.714 807.156 457.253
215 0 90.4683 12.59 1139 116.963 806.87 453.602
216 0 90.4995 12.6631 1146 133.151 805.872 453.53
217 1 53.1044 11.468 609 113.765 807.002 481.706
218 0 53.1461 11.9858 637 114.644 805.418 481.992
219 0 54.1229 12.2314 662 114.601 805.995 477.804
220 0 57.0891 13.803 788 112.49 805.464 479.36
221 0 59.0748 14.4901 856 112.543 804.728 478.484
222 0 64.1822 16.2194 1041 108.766 804.144 477.647
223 0 64.1065 14.4135 924 112.345 802.282 475.604
224 0 66.1459 13.4249 888 113.32 800.116 476.211
225 0 69.0509 14.4386 997 111.209 799.81 477.324
226 0 72.1611 14.8695 1073 111.092 797.873 475.833
227 0 75.1637 13.0249 979 114.316 798.138 473.312
228 0 77.1003 14.9935 1156 111.259 796.484 472.146
229 0 78.1354 14.8844 1163 112.54 796.117 469.15
230 0 80.2088 13.4275 1077 114.273 794.812 470.255
231 0 86.3069 19.5465 1687 105.346 796.177 468.775
232 0 84.3315 14.4311 1217 114.825 796.454 461.072
233 0 90.4462 18.0218 1630 108.433 795.382 463.331
234 0 90.3241 14.459 1306 117.207 796.47 460.179
235 0 92.2413 13.5839 1253 118.457 795.552 457.047
236 0 95.1103 13.1847 1254 118.863 795.214 456.742
237 0 102.301 16.168 1654 114.448 795.81 455.058
238 0 101.301 15.0344 1523 159.231 796.823 453.009
239 1 50.2945 10.4186 524 121.044 795.834 473.662
240 0 50.2945 10.4584 526 152.852 794.835 473.644
241 0 57.254 13.6235 780 114.958 795.637 470.065
242 0 59.0323 14.2126 839 115.644 795.455 468.692
243 0 60.0562 13.1377 789 118.275 796.176 465.754
244 0 61.0434 14.6781 896 116.854 797.643 463.145
245 0 66.0572 13.8516 915 117.627 797.287 462.536
246 0 67.0994 16.7364 1123 112.399 798.782 463.942
247 0 69.1626 13.1285 908 117.12 800.591 455.991
248 0 70.3007 14.7225 1035 115.004 800.768 455.167
249 0 72.1674 13.2193 954 119.64 802.072 458.186
250 0 72.1674 13.15 949 140.278 803.085 458.269
251 0 77.2669 13.0975 1012 120.956 803.042 460.674
252 0 78.3109 12.5653 984 122.315 803.962 459.326
253 0 79.2138 13.5835 1076 120.58 804.391 461.129
254 0 80.287 11.7454 943 125.131 805.032 457.612
255 0 87.2949 16.9655 1481 115.739 804.211 457.13
256 0 86.4036 14.0735 1216 122.444 804.794 459.11
257 0 90.2506 13.0415 1177 124.577 805.13 457.268
258 1 46.1165 11.8179 545 119.464 804.862 479.602
259 0 51.189 14.7688 756 113.112 806.425 478.495
260 0 52.097 13.686 713 115.843 805.213 480.149
261 0 50.0742 12.142 608 118.664 802.903 481.454
262 0 51.1352 13.4545 688 118.34 802.666 480.449
263 0 54.294 12.7454 692 119.009 803.399 480.973
264 0 57.0657 12.8273 732 118.779 801.428 482.186
265 0 59.0735 13.9995 827 116.583 801.885 481.305
266 0 60.1933 11.38 685 120.651 800.641 481.835
267 0 61.1238 11.7794 720 120.926 801.128 480.989
268 0 62.1825 13.6373 848 117.112 801.004 481.412
269 0 64.3981 11.8016 760 125.168 800.357 473.953
270 0 68.0915 16.5659 1128 116.118 797.799 472.578
271 0 68.0479 13.2848 904 122.892 797.166 470.322
272 0 72.1171 14.837 1070 118.543 797.309 470.812
273 0 74.0866 14.0106 1038 120.307 797.568 469.419
274 1 37.0866 8.81721 327 118.734 795.147 489.535
275 0 37.0558 11.0104 408 118.032 795.596 484.833
276 0 38.1948 10.1323 387 120.468 795.47 484.147
277 0 39.2414 10.3462 406 118.525 796.512 480.601
278 0 40.2035 10.422 419 118.835 796.857 482.735
279 0 42.0781 12.7145 535 116.082 796.121 479.409
280 0 43.1496 12.7 548 116.511 797.449 477.98
281 0 45.0992 13.6588 616 112.963 796.688 476.925
282 0 45.0747 11.4698 517 117.375 797.271 476.004
283 0 45.1087 11.9046 537 116.304 797.732 475.099
284 0 47.0643 12.7273 599 110.472 797.396 478.097
285 0 49.0957 11.6507 572 115.381 797.722 471.869
286 0 51.0553 13.1034 669 112.744 799.088 471.09
287 0 49.064 10.5169 516 118.523 798.556 470.791
288 0 52.0981 11.4592 597 118.355 799.25 469.291
289 0 52.3303 11.9052 623 117.109 799.862 467.597
290 0 52.3303 11.9243 624 132.728 800.865 467.511
291 0 56.0854 12.8197 719 116.971 800.477 463.255
292 0 60.0831 13.1818 792 116.028 803.604 465.938
293 0 62.1029 11.7708 731 117.166 804.078 467.584
294 0 63.11 13.215 834 115.589 804.862 464.771
295 0 63.1963 13.1337 830 117.123 805.172 463.7
296 0 69.1057 15.3388 1060 113.734 806.825 461.048
297 0 70.2766 16.9758 1193 110.682 807.933 465.93
298 0 69.1284 14.2488 985 117.457 806.245 462.016
299 0 74.0667 14.2439 1055 116.092 806.851 464.575
300 0 75.1495 12.4153 933 120.517 807.106 463.05
301 0 77.0731 11.6902 901 121.938 806.605 460.119
302 1 41.043 8.94184 367 118.06 807.286 482.112
303 0 44.054 13.5062 595 110.78 807.442 479.845
304 0 46.0809 13.8669 639 111.072 805.905 481.152
305 0 47.0435 16.6017 781 106.406 804.919 484.186
306 0 47.0164 10.273 483 119.946 805.031 481.248
307 0 49.0827 11.063 543 118.274 803.473 481.486
308 0 49.0591 14.2277 698 114.427 802.852 479.021
309 0 51.1028 14.6763 750 113.684 802.475 480.601
310 0 54.1023 14.9716 810 113.235 801.742 479.548
311 0 57.058 13.793 787 113.276 801.091 480.774
312 0 56.0308 13.6889 767 114.829 799.63 476.475
313 0 57.0499 15.3725 877 112.065 799.544 476.27
314 0 60.0922 16.3083 980 109.722 800.044 475.446
315 0 62.2175 13.5171 841 114.111 798.826 475.656
316 0 63.129 14.6367 924 112.11 798.453 473.424
317 0 64.1061 15.2092 975 110.706 797.979 474.52
318 0 67.1932 16.847 1132 108.441 797.92 465.646
319 0 67.122 13.8554 930 113.755 798.283 464.79
320 0 69.2098 14.9112 1032 111.177 797.276 463.569
321 0 72.2735 13.7671 995 115.309 797.253 461.89
322 0 73.3542 11.983 879 118.871 797.106 456.039
323 0 78.408 13.7741 1080 113.792 797.751 457.254
324 0 82.3678 14.2653 1175 112.208 798.046 457.661
325 0 86.3144 15.5246 1340 111.419 797.633 450.432
326 0 84.3244 16.816 1418 110.093 798.305 449.57
327 0 86.1644 14.9366 1287 112.844 799.995 447.037
328 0 91.6109 12.4221 1138 116.679 798.844 443.317
329 0 91.6097 12.5096 1146 129.735 796.839 443.463
330 0 96.2846 13.4289 1293 113.416 799.612 438.346
331 0 96.2846 13.3147 1282 141.08 802.587 438.174
332 1 47.2558 11.0251 521 111.67 801.837 458.983
333 0 55.3115 11.9143 659 107.173 801.152 460.797
334 0 53.3378 13.3301 711 106.918 802.266 460.506
335 0 53.1137 13.1416 698 108.957 803.712 458.504
336 0 64.3585 15.0563 969 102.168 802.931 461.02
337 0 62.2171 11.3795 708 109.624 803.754 460.141
338 0 66.1185 14.9429 988 105.116 805.186 455.664
339 0 66.1185 14.837 981 112.101 807.187 455.648
340 0 68.2277 10.9047 744 109.954 805.056 456.585
341 0 71.3052 14.7675 1053 105.116 807.961 456.913
342 0 75.3618 17.6084 1327 101.116 806.404 457.525
343 0 77.2585 13.6037 1051 106.357 806.338 457.579
344 0 79.2129 10.4023 824 111.26 808.191 453.955
345 0 82.1143 15.8072 1298 102.977 808.997 459.824
346 0 84.3698 10.0391 847 109.571 808.412 456.485
347 0 89.7433 11.622 1043 106.618 808.978 459.593
348 0 90.2535 10.5813 955 109.672 808.323 456.728
349 0 95.2659 13.751 1310 105.053 807.586 456.002
350 0 95.2659 13.646 1300 117.667 807.573 456.128
351 0 101.46 9.43229 957 112.017 805.545 454.711
352 0 101.46 9.41257 955 133.027 802.528 454.517
353 1 178.441 14.7948 2640 105.657 806.626 425.577
354 1 60.1005 9.75033 586 106.809 804.247 475.457
355 0 63.0454 12.5148 789 104.001 803.191 474.413
356 0 66.1205 14.0804 931 100.515 802.622 474.701
357 0 65.0605 10.3442 673 107.734 801.04 472.829
358 0 68.1329 13.0627 890 103.06 801.49 471.167
359 0 72.0622 14.2377 1026 101.973 801.182 470.095
360 0 73.2658 13.5807 995 103.914 798.777 463.554
361 0 77.0423 15.2384 1174 103.98 800.031 455.524
362 0 79.2686 14.4193 1143 103.836 798.467 459.391
363 0 82.1 14.6163 1200 103.098 798.005 463.862
364 0 86.2347 12.6051 1087 107.506 797.639 455.528
365 0 87.1397 15.5727 1357 105.272 798.239 454.876
366 0 90.1593 13.4429 1212 108.331 798.98 452.829
367 0 94.2421 14.7811 1393 107.06 799.281 449.482
368 0 94.1512 11.832 1114 112.724 798.674 445.235
369 0 103.32 14.1406 1461 108.45 799.108 443.221
370 1 54.1217 12.5828 681 107.731 797.398 466.913
371 0 57.0424 16.0056 913 102.327 799.276 468.456
372 0 53.0576 9.63104 511 112.806 797.869 464.241
373 0 60.1086 13.1928 793 108.028 799.805 463.673
374 0 62.1392 12.3433 767 107.658 800.953 464.293
375 0 62.0677 13.1469 816 107.926 801.233 458.458
376 0 67.0567 15.4496 1036 103.424 802.545 459.901
377 0 67.1194 14.1092 947 106.819 802.398 458.68
378 0 70.0931 12.5547 880 107.924 804.877 460.427
379 0 70.2208 12.005 843 108.753 806.427 461.081
380 0 72.1179 14.7813 1066 105.65 806.629 457.354
381 0 76.219 14.1566 1079 107.443 806.842 454.251
382 0 76.1106 12.0745 919 110.453 808.054 455.572
383 0 81.0776 14.628 1186 106.801 807.358 449.122
384 0 85.1244 15.2835 1301 104.934 808.939 454.434
385 0 86.1617 15.5289 1338 105.235 808.417 448.625
386 0 90.1729 13.3743 1206 108.646 809.363 450.965
387 1 47.1353 10.3532 488 109.109 808.84 472.906
388 0 49.3027 10.5674 521 111.079 809.785 473.102
389 0 49.2942 12.0095 592 108.823 810.591 467.152
390 0 55.0659 14.8368 817 106.234 811.42 474.929
391 0 57.0672 12.4765 712 111.336 810.778 469.982
392 0 57.1145 11.9409 682 113.293 809.674 475.103
393 0 58.1284 14.0035 814 110.842 809.568 472.703
394 0 59.2548 11.9315 707 111.207 807.441 476.201
395 0 60.1681 11.418 687 112.317 806.428 478.705
396 0 65.1825 16.6149 1083 106.07 807.665 473.793
397 0 67.1342 16.8618 1132 107.103 806.633 475.14
398 0 68.1986 15.6601 1068 109.787 805.224 474.446
399 0 69.1993 13.0493 903 113.925 804.564 474.917
400 0 73.2788 18.4091 1349 105.616 803.813 474.592
401 0 74.2415 13.8736 1030 114.27 802.573 469.978
402 0 75.3111 14.6459 1103 113.919 802.398 469.951
403 0 78.216 14.1276 1105 115.916 800.9 467.285
404 0 81.1054 15.6586 1270 114.549 800.929 464.909
405 0 84.2515 15.6674 1320 114.423 800.089 466.597
406 1 44.0685 11.6637 514 119.212 802.142 480.093
407 0 46.116 11.2326 518 118.764 800.384 477.448
408 0 48.2087 14.7484 711 109.498 800.764 483.444
409 0 50.1019 15.4685 775 109.022 798.774 475.797
410 0 51.1634 13.8185 707 112.996 799.42 474.341
411 0 54.188 13.3609 724 113.993 798.122 472.623
412 0 55.1428 12.2591 676 117.642 797.763 472.769
413 0 56.2033 11.7431 660 121.059 797.898 466.111
414 0 59.1446 15.031 889 114.409 799.427 468.636
415 0 59.1515 13.3894 792 118.537 799.71 464.53
416 0 61.1269 13.3329 815 117.27 800.184 465.229
417 0 64.1161 14.8637 953 114.514 800.418 462.473
418 0 68.1136 13.683 932 115.679 802.275 462.471
419 0 65.1876 12.5177 816 119.917 803.942 459.681
420 0 69.138 14.3337 991 117.534 803.865 458.135
421 0 71.1846 15.4528 1100 115.584 803.506 458.275
422 0 73.417 13.7843 1012 118.711 806.024 454.53
423 0 78.2531 19.9864 1564 107.582 805.555 456.127
424 0 80.2767 16.7296 1343 113.763 805.792 453.048
425 0 80.2767 16.7421 1344 139.38 806.782 452.949
426 0 84.2422 15.1943 1280 116.464 808.845 451.259
427 0 84.2422 15.2655 1286 136.846 810.837 451.275
428 0 88.2196 12.4576 1099 121.061 809.656 446.91
429 1 47.1472 12.8746 607 115.585 809.962 470.061
430 0 46.3309 10.9214 506 119.312 809.429 469.575
431 0 49.1635 13.9128 684 115.177 809.107 471.627
432 0 50.2344 12.0236 604 118.124 809.308 473.005
433 0 54.4354 13.4655 733 112.523 808.768 475.705
434 0 55.1636 13.2878 733 113.828 809.075 474.109
435 0 58.342 13.558 791 113.154 808.511 474.722
436 0 57.1097 11.6793 667 117.457 806.924 473.361
437 0 63.2313 15.2456 964 110.331 806.802 475.056
438 0 61.316 13.0472 800 113.361 806.095 472.151
439 0 65.2962 14.6716 958 111.008 807.429 473.116
440 0 68.3862 14.6521 1002 112.474 806.239 470.986
441 0 71.4772 15.2356 1089 111.511 806.184 470.646
442 0 75.7055 15.4414 1169 110.695 805.877 469.13
443 0 77.6271 17.2105 1336 108.183 804.529 467.243
444 0 77.7415 13.5835 1056 115.218 803.105 463.995
445 0 79.4022 11.914 946 118.3 804.075 462.773
446 0 84.4407 14.8507 1254 112.657 802.474 460.637
447 0 88.5769 14.2701 1264 112.472 802.725 461.348
448 0 91.3693 16.6467 1521 109.317 801.989 456.055
449 1 51.2788 13.1243 673 109.467 802.887 477.979
450 0 53.173 12.9389 688 108.372 802.66 477.355
451 0 51.3437 11.3549 583 112.079 802.233 476.096
452 0 56.4795 13.9343 787 107.864 801.483 472.215
453 0 56.1735 11.5535 649 111.561 800.82 471.69
454 0 59.1491 12.7475 754 111.381 799.568 471.179
455 0 59.2483 12.5405 743 112.167 800.451 466.898
456 0 65.28 17.065 1114 103.885 799.294 468.713
457 0 65.1684 12.3066 802 112.319 800.934 465.466
458 0 69.1912 15.0742 1043 107.367 800.243 467.658
459 0 71.1294 15.0149 1068 107.478 800.807 466.102
460 0 73.282 14.6557 1074 108.714 801.746 463.074
461 0 75.0786 12.3204 925 113.065 800.797 459.948
462 0 79.2063 14.0014 1109 110.216 802.465 459.765
463 0 81.1289 16.7141 1356 106.427 802.159 461.602
464 0 83.1221 12.5839 1046 112.736 801.973 458.865
465 0 85.1996 14.4602 1232 110.778 803.474 453.122
466 0 90.1379 15.4319 1391 108.365 803.676 457.924
467 0 92.2282 20.6553 1905 102.81 803.994 452.959
468 0 94.4498 14.9392 1411 111.32 804.449 447.211
469 0 98.3714 15.7464 1549 110.356 804.956 448.563
470 0 102.296 12.1315 1241 116.268 806.119 450.965
471 1 52.1252 9.99517 521 114.967 804.482 475.532
472 0 52.1252 9.93762 518 145.097 804.512 475.641
473 0 59.1221 14.0726 832 107.882 805.843 475.888
474 0 58.3204 12.277 716 111.113 804.883 476.469
475 0 60.222 13.7159 826 109.275 806.764 473.241
476 0 62.1669 13.0938 814 114.577 805.125 475.828
477 0 66.3744 13.454 893 113.277 804.758 475.859
478 0 67.3395 13.7067 923 113.878 804.589 474.722
479 0 69.412 11.3381 787 118.475 804.177 475.853
480 0 71.2859 13.1443 937 115.808 804.039 478.168
481 0 74.4132 12.6456 941 117.629 804.113 476.176
482 0 80.3526 16.216 1303 110.729 803.587 471.934
483 0 77.309 11.2018 866 121.464 803.087 471.485
484 0 83.4665 15.0839 1259 113.651 801.056 473.896
485 0 89.3304 13.59 1214 114.773 800.276 474.381
486 0 89.7432 13.0372 1170 115.973 799.124 473.744
487 0 92.4695 13.5612 1254 116.884 797.896 465.337
488 0 95.3845 14.5831 1391 114.848 798.204 467.717
489 1 49.2843 10.8554 535 116.449 798.639 488.428
490 0 50.3421 9.09776 458 119.939 796.301 486.216
491 0 53.1652 12.6022 670 109.773 796.522 484.246
492 0 52.3059 13.6313 713 111.302 797.146 482.195
493 0 53.2047 11.4088 607 117.568 796.822 482.232
494 0 55.5599 13.085 727 114.387 796.341 483.567
495 0 56.2958 13.5179 761 114.014 795.265 480.614
496 0 60.3955 16.5244 998 109.648 794.398 476.287
497 0 61.3743 12.8392 788 116.972 795.175 473.999
498 0 63.2516 13.3752 846 116.141 793.908 472.846
499 0 62.3797 12.1033 755 118.372 793.91 472.16
500 0 65.3107 13.2138 863 117.012 795.374 468.141
501 0 68.2956 11.9041 813 117.807 796.422 467.272
502 0 70.367 13.458 947 115.276 797.32 464.983
503 0 72.4916 14.65 1062 114.206 797.066 460.774
504 0 73.501 11.4692 843 120.266 798.138 456.534
505 0 72.2229 11.0353 797 123.108 798.457 453.297
506 0 80.6587 13.3278 1075 117.251 798.753 449.021
507 0 83.2141 16.3434 1360 112.311 800.234 449.036
508 0 83.2356 14.8374 1235 115.286 801.127 447.9
509 0 86.3815 15.1421 1308 115.417 801.314 447.257
510 0 88.2251 15.5738 1374 114.078 802.202 449.544
511 0 90.3811 12.1375 1097 121.065 803.162 446.522
512 0 91.1603 12.0996 1103 121.296 803.743 444.723
513 0 99.3737 14.7725 1468 115.446 803.934 445.894
514 0 100.34 13.1155 1316 119.334 804.535 444.042
515 0 105.4 13.7571 1450 118.435 805.057 443.892
516 1 49.0882 10.7969 530 117.402 804.821 468.902
517 0 53.0938 12.3555 656 115.584 804.852 470.745
518 0 55.0876 10.3835 572 118.864 806.114 472.788
519 0 59.0612 18.1337 1071 108.129 804.796 480.926
520 0 60.1456 14.1656 852 116.15 803.479 478.164
521 0 62.0848 13.2722 824 115.535 803.927 477.591
522 0 66.2108 12.9133 855 114.345 803.836 474.785
523 0 68.3505 16.3276 1116 109.253 802.772 473.902
524 0 68.3726 13.953 954 113.763 801.673 475.849
525 0 71.3614 12.6819 905 117.779 802.094 470.004
526 0 72.3373 13.6168 985 116.113 801.871 472.52
527 0 75.3453 12.9404 975 119.448 801.502 469.789
528 0 75.3453 12.967 977 141.897 801.519 469.874
529 0 81.1571 14.6999 1193 116.695 800.054 470.615
530 0 81.2832 14.5787 1185 117.707 798.975 468.388
531 0 86.2846 14.1972 1225 116.673 798.453 468.562
532 0 89.1758 16.417 1464 113.579 798.079 465.286
533 0 90.1749 14.7935 1334 118.798 796.245 462.001
534 0 90.1749 14.7935 1334 136.022 794.245 462.001
535 0 97.2126 13.5476 1317 120.897 797.595 459.622
536 0 101.402 13.6881 1388 120.79 796.362 458.862
537 1 49.1567 8.34067 410 123.88 796.261 482.098
538 0 56.2223 10.9031 613 119.046 797.344 481.734
539 0 54.2185 10.0335 544 123.439 797.134 478.787
540 0 58.3054 13.0177 759 117.101 796.809 474.847
541 0 60.2254 12.6691 763 118.87 795.556 475.837
542 0 63.0562 11.7038 738 120.341 793.812 472.179
543 0 67.1651 14.2931 960 114.82 795.069 472.039
544 0 68.1403 12.7971 872 117.619 796.021 467.252
545 0 70.2819 13.4316 944 115.863 795.471 469.916
546 0 72.3151 12.6115 912 117.182 796.845 467.157
547 0 74.3362 12.6184 938 115.272 796.482 468.14
548 0 78.4485 13.9709 1096 116.245 799.645 460.713
549 0 78.3847 15.0029 1176 116.517 799.023 458.332
550 0 81.4321 18.7272 1525 109.544 799.182 461.995
551 0 82.5394 15.9197 1314 113.586 801.319 463.753
552 0 82.5394 15.9924 1320 126.78 803.354 463.933
553 1 42.1569 11.4335 482 117.506 802.631 476.195
554 0 42.1569 11.5995 489 141.861 799.706 476.317
555 0 48.1308 12.279 591 117.75 803.453 475.325
556 0 51.3545 15.0522 773 111.973 804.153 475.68
557 0 49.137 15.1413 744 112.106 803.473 481.133
558 0 49.0536 12.4558 611 121.951 803.538 478.151
559 0 52.0272 14.9729 779 116.543 804.16 481.175
560 0 52.0974 13.4172 699 118.981 804.089 479.137
561 0 56.0423 13.8645 777 117.448 803.674 481.454
562 0 58.1475 11.6256 676 121.09 802.857 481.093
563 0 59.0853 15.7061 928 114.152 802.97 475.446
564 0 63.1027 14.7062 928 115.983 803.452 478.406
565 0 61.1529 11.136 681 122.966 801.821 481.426
566 0 65.0786 12.3082 801 120.652 801.449 480.85
567 0 65.0786 12.3389 803 149.758 801.463 480.832
568 0 71.0522 14.2712 1014 117.339 800.504 480.975
569 0 74.257 16.4698 1223 114.522 800.183 476.745
570 0 74.181 13.13 974 121.514 799.879 475.986
571 0 77.2036 13.7688 1063 121.217 799.236 470.016
572 0 79.1621 11.7101 927 124.908 798.042 476.405
573 0 82.1753 12.3395 1014 125 796.967 472.964
574 1 44.1109 11.5844 511 119.609 795.769 492.569
575 0 41.0653 9.42401 387 126.085 796.491 489.928
576 0 41.0653 9.47272 389 139.339 797.522 489.99
577 0 49.3262 11.9409 589 118.801 794.598 486.284
578 0 54.204 17.1205 928 108.952 794.441 482.662
579 0 50.0666 11.5646 579 123.67 793.465 484.509
580 0 52.0453 13.9686 727 118.732 794.232 484.096
581 0 52.081 10.3301 538 124.195 793.749 485.822
582 0 52.0563 12.2367 637 123.096 793.361 481.677
583 0 57.1275 12.1132 692 121.21 793.009 480.182
584 0 58.0483 15.2632 886 116.99 794.459 478.502
585 0 61.0967 15.0254 918 118.399 794.778 475.576
586 0 60.1583 10.7051 644 126.795 794.457 474.803
587 0 64.0641 12.5811 806 123.091 794.82 473.772
588 0 67.1062 13.5904 912 121.076 796.868 472.481
589 0 70.0868 18.4913 1296 110.562 796.507 473.061
590 0 73.1483 13.5205 989 121.439 797.667 470.031
591 0 75.2742 15.0118 1130 119.593 797.321 465.268
592 0 75.2522 11.6807 879 126.672 799.304 462.92
593 0 82.4433 15.356 1266 119.227 799.264 460.356
594 0 80.517 13.5251 1089 121.568 799.217 462.027
595 0 86.3654 16.326 1410 116.949 800.192 457.397
596 1 45.1133 9.79755 442 120.412 800.606 481.111
597 0 47.0518 11.5617 544 118.585 802.908 478.472
598 0 48.3119 12.6263 610 120.902 802.856 477.434
599 0 49.0888 11.7949 579 122.105 803.225 477.142
600 0 51.2606 11.4318 586 122.155 803.07 477.193
601 0 54.1153 13.231 716 118.19 805.612 477.528
602 0 55.1259 14.1857 782 116.404 804.82 480.234
603 0 54.1399 11.1747 605 124.36 804.136 480.317
604 0 58.1354 13.9158 809 119.466 804.187 476.492
605 0 60.2811 12.7901 771 121.791 803.992 479.167
606 0 62.1368 12.9231 803 121.798 804.106 477.975
607 0 65.1038 11.6583 759 123.515 804.1 481.112
608 0 65.3357 12.3669 808 123.407 803.407 477.505
609 0 70.0935 14.124 990 118.243 803.367 480.687
610 0 69.2614 13.0953 907 120.861 802.656 481.075
611 0 70.1658 12.5845 883 122.781 802.522 477.655
612 0 74.0524 13.2879 984 120.991 803.086 478.682
613 0 75.0771 10.7756 809 126.205 802.136 474.451
614 0 81.1622 13.4669 1093 120.662 800.061 476.009
615 0 83.1055 12.1412 1009 122.141 798.975 473.767
616 0 85.3834 12.4146 1060 121.661 797.936 473.88
617 0 85.3834 12.4029 1059 142.757 796.958 473.961
618 1 49.1033 12.3413 606 118.873 795.96 488.449
619 0 53.1503 14.9011 792 112.864 795.711 487.857
620 0 54.1493 14.6816 795 112.833 794.745 486.235
621 0 52.1241 12.6045 657 117.613 794.454 484.384
622 0 62.1149 13.958 867 113.406 793.849 471.627
623 0 60.0806 16.3281 981 112.111 794.533 458.556
624 0 62.1073 16.0368 996 111.188 794.417 473.439
625 0 62.1073 16.069 998 126.36 794.411 473.381
626 0 63.077 10.7805 680 122.219 792.79 473.121
627 0 65.1707 13.3189 868 117.225 795.065 473.147
628 0 69.1944 14.5388 1006 114.242 795.094 471.645
629 0 70.3136 14.4495 1016 115.614 794.414 466.432
630 0 74.2541 14.5312 1079 115.732 796.451 466.084
631 0 73.3133 12.8626 943 119.961 795.015 462.241
632 0 77.3394 12.749 986 118.752 797.007 443.446
633 0 81.6599 14.3032 1168 117.509 796.795 444.495
634 0 83.348 20.4564 1705 107.935 797.93 451.31
635 0 86.4985 15.3644 1329 114.515 797.981 450.889
636 0 88.3057 13.9855 1235 116.67 799.909 457.286
637 0 92.4359 13.0901 1210 119.346 799.08 452.56
638 0 95.5185 15.4106 1472 115.388 800.528 452.035
639 0 98.5194 12.6777 1249 118.366 800.62 452.827
640 1 50.1974 11.5743 581 116.124 801.427 475.688
641 0 50.2412 9.61363 483 118.153 801.555 477.555
642 0 54.0324 13.64 737 111.596 802.326 478.915
643 0 57.2435 12.8049 733 116.191 802.132 466.502
644 0 57.1523 13.8227 790 115.667 802.295 465.041
645 0 60.3894 16.0127 967 111.062 802.193 468.874
646 0 60.3894 16.0127 967 131.029 802.18 468.745
647 0 63.1465 12.2097 771 118.087 802.062 468.953
648 0 66.3071 13.0001 862 117.36 803.075 468.648
649 0 67.2156 15.5172 1043 113.594 802.43 469.023
650 0 66.1838 11.1205 736 122.139 801.833 470.27
651 0 71.3635 13.7605 982 115.846 801.916 468.063
652 0 75.3565 16.4949 1243 111.492 802.211 470.74
653 0 73.2706 10.7137 785 123.583 801.157 467.575
654 0 79.4314 13.7729 1094 116.154 801.69 467.88
655 0 81.2694 14.1628 1151 115.116 800.182 474.548
656 0 82.2979 20.4501 1683 104.542 799.223 475.614
657 0 87.2824 16.5784 1447 108.829 799.319 473.247
658 0 88.4249 14.0345 1241 112.339 797.864 470.168
659 1 47.2828 12.2455 579 111.364 798.969 487.212
660 0 45.3355 11.2274 509 113.835 797.391 490.163
661 0 50.1129 13.5694 680 113.484 795.871 490.462
662 0 52.0485 17.2723 899 106.063 794.984 492.493
663 0 51.066 14.5302 742 114.98 795.588 486.054
664 0 52.1152 12.8945 672 117.936 794.948 485.592
665 0 54.1225 13.7651 745 116.121 795.307 484.922
666 0 58.185 13.7492 800 113.968 794.851 486.658
667 0 59.1122 15.073 891 114.163 794.847 480.744
668 0 63.1377 13.0825 826 117.301 794.067 480.743
669 0 64.1522 14.1071 905 114.24 794.054 477.09
670 0 66.2098 15.1035 1000 113.741 796.22 468.261
671 0 68.1966 13.6077 928 116.113 795.114 471.717
672 0 72.3274 15.2086 1100 113.501 795.439 468.107
673 0 72.3054 13.3323 964 117.813 796.307 462.701
674 0 77.1945 18.2137 1406 109.406 795.339 468.727
675 0 81.3757 16.5037 1343 111.417 797.27 462.316
676 0 81.3757 16.4791 1341 136.008 799.272 462.354
677 0 85.1862 15.3311 1306 116.036 798.947 458.611
678 0 92.466 17.8769 1653 110.077 799.038 458.154
679 1 47.2071 11.8414 559 116.894 799.665 478.14
680 0 48.1611 11.42 550 117.875 800.095 472.72
681 0 50.3462 11.5202 580 116.962 802.184 475.921
682 0 53.0705 13.2465 703 112.99 800.519 472.336
683 0 53.0691 13.5107 717 115.711 800.452 469.888
684 0 55.145 14.0539 775 116.714 801.649 474.228
685 0 58.1574 13.3431 776 118.952 802.536 475.555
686 0 61.1085 13.9588 853 116.876 802.426 465.624
687 0 60.1212 11.7097 704 122.449 802.422 470.183
688 0 64.1345 13.4873 865 118.252 802.131 469.541
689 0 68.183 16.5291 1127 112.002 802.974 471.347
690 0 66.1249 14.4575 956 118.515 802.745 467.936
691 0 71.2189 13.7042 976 117.814 802.062 472.036
692 0 72.0682 13.1681 949 121.036 802.302 471.583
693 0 76.2237 16.3597 1247 114.58 802.177 472.703
694 0 79.2764 23.1343 1834 104.627 802.539 473.134
695 0 80.4141 13.8906 1117 119.463 802.461 473.37
696 0 86.3182 16.2075 1399 117.147 802.64 468.365
697 0 88.528 15.3963 1363 119.525 801.514 466.199
698 1 45.2247 11.874 537 121.438 801.473 489.438
699 0 45.2186 12.2737 555 121.171 799.955 489.771
700 0 49.3641 12.033 594 120.742 798.902 491.155
701 0 49.2115 13.188 649 119.901 798.031 488.929
702 0 51.1237 14.905 762 116.639 797.03 489.697
703 0 51.113 13.3234 681 121.175 797.565 487.043
704 0 53.1511 14.1672 753 118.004 797.056 489.741
705 0 53.0811 11.3223 601 124.038 796.013 489.057
706 0 53.0811 11.36 603 141.428 795.015 489.181
707 0 55.0907 13.1964 727 135.371 794.069 487.07
708 0 60.196 13.5889 818 118.927 794.826 484.977
709 0 65.2415 15.5269 1013 113.762 793.917 481.446
710 0 65.1431 14.6754 956 116.448 795.413 478.495
711 0 68.1066 17.6782 1204 110.885 795.04 476.05
712 0 70.1218 13.8331 970 118.172 795.457 475.728
713 0 72.2753 13.8637 1002 117.358 793.963 472.206
714 0 72.2753 13.9467 1008 138.86 792.97 472.105
715 0 79.2616 13.979 1108 119.356 795.511 470.152
716 0 81.2981 16.95 1378 113.62 797.229 470.692
717 0 82.3202 13.6297 1122 122.402 796.971 464.714
718 0 88.3271 11.5933 1024 123.984 797.327 462.431
719 0 91.3042 15.1472 1383 118.917 796.218 457.514
720 1 46.08 15.4731 713 113.75 798.59 482.858
721 0 46.08 15.2561 703 137.58 800.624 482.91
722 0 51.0889 13.8582 708 116.797 798.718 481.879
723 0 50.0634 15.3405 768 121.76 799.26 460.31
724 0 53.0818 13.4509 714 123.906 799.262 465.235
725 0 53.1256 14.5881 775 122.453 799.721 470.063
726 0 56.1317 12.5063 702 125.05 799.94 471.208
727 0 57.0898 13.8904 793 123.391 802.917 471.69
728 0 60.1196 13.523 813 122.924 801.704 470.772
729 0 60.0861 14.9452 898 121.943 803.747 470.192
730 0 62.0754 14.3535 891 122.91 803.365 468.623
731 0 66.1716 13.9939 926 121.347 804.758 473.211
732 0 68.3415 15.4811 1058 120.741 804.78 467.939
733 0 70.2973 15.8185 1112 119.303 805.487 471.748
734 0 69.3276 11.7846 817 128.643 804.618 456.693
735 0 75.14 15.9702 1200 120.014 803.23 458.88
736 0 78.2886 16.3114 1277 117.016 804.081 459.04
737 0 80.0771 14.2613 1142 120.888 801.524 463.264
738 0 82.397 15.1219 1246 120.179 802.132 466.501
739 1 41.0395 12.3783 508 119.305 802.396 495.093
740 0 40.1408 12.1821 489 120.319 802.119 492.599
741 0 43.0822 13.5555 584 118.375 800.779 490.204
742 0 45.0347 12.2128 550 120.524 802.093 492.525
743 0 45.0397 14.6981 662 116.799 800.24 489.545
744 0 47.106 16.1763 762 116.017 799.056 489.235
745 0 49.1381 17.2168 846 114.859 798.378 485.739
746 0 50.1038 13.1926 661 122.481 799.932 485.964
747 0 52.1191 14.5052 756 120.019 799.152 484.136
748 0 54.2418 16.4264 891 115.768 799.797 482.813
749 0 55.0932 12.3064 678 123.472 798.26 483.086
750 0 59.1092 17.0024 1005 114.953 798.057 479.163
751 0 61.1444 14.5721 891 120.82 797.312 476.212
752 0 64.0694 18.9326 1213 112.787 797.641 475.918
753 0 64.1911 17.0896 1097 117.821 797.107 474.378
754 0 66.1736 17.167 1136 119.38 797.481 468.102
755 0 69.2477 15.7406 1090 122.736 797.821 469.556
756 0 69.1927 14.12 977 127.999 798.011 468.827
757 0 73.1467 17.4034 1273 121.085 798.453 462.988
758 0 75.1733 14.2338 1070 128.123 799.079 462.15
759 0 78.1353 15.8571 1239 124.816 799.372 460.926
760 0 81.2928 17.7261 1441 120.539 798.761 460.87
761 1 38.0942 14.4116 549 130.503 798.423 476.927
762 0 39.0538 10.9848 429 137.455 797.839 476.613
763 0 43.1612 15.2683 659 124.317 800.853 478.894
764 0 46.1246 14.1139 651 126.739 800.957 475.559
765 0 46.1838 14.5939 674 127.234 802.325 475.866
766 0 46.1555 12.6529 584 132.779 802.625 475.719
767 0 47.1731 15.6233 737 128.486 803.862 473.915
768 0 50.2461 14.4887 728 128.706 804.018 473.673
769 0 49.1045 13.3593 656 132.476 804.518 475.14
770 0 52.0953 18.159 946 123.485 805.465 473.951
771 0 54.141 16.8449 912 124.702 805.89 476.515
772 0 54.141 15.2749 827 156.596 806.995 477.313
773 0 57.1434 14.5249 830 131.199 806.199 472.004
774 0 62.2211 14.8181 922 129.011 805.169 472.957
775 0 60.2736 14.1521 853 130.751 805.635 477.159
776 0 65.3837 17.1144 1119 123.559 805.66 472.397
777 0 66.2866 15.2369 1010 128.267 804.857 473.324
778 0 68.1902 16.0727 1096 127.367 804.424 472.724
779 0 71.2078 16.4448 1171 126.385 804.754 473.437
780 0 73.2735 17.1822 1259 127.189 805.298 473.534
781 0 74.656 15.779 1178 131.447 804.076 472.035
782 0 78.2883 16.8608 1320 128.573 803.83 470.261
783 0 82.5205 16.0203 1322 129.362 803.574 473.468
784 1 37.4143 13.4708 504 135.923 803.579 492.147
785 0 40.1755 15.7061 631 129.954 801.225 489.797
786 0 41.2003 13.9562 575 134.379 799.706 488.675
787 0 42.2189 14.9696 632 132.579 800.723 488.315
788 0 47.4236 15.0558 714 128.622 799.805 486.454
789 0 45.3666 15.2976 694 131.159 799.941 483.957
790 0 45.5405 14.4926 660 132.023 798.798 486.318
791 0 48.3096 14.3036 691 132.282 799.933 485.1
792 0 50.4341 15.089 761 130.206 798.783 483.629
793 0 50.3139 14.1114 710 134.723 799.89 481.087
794 0 53.0794 16.6355 883 129.297 799.579 479.067
795 0 61.2204 16.4978 1010 125.446 798.281 480.094
796 0 56.2835 15.0133 845 132.645 798.703 479.375
797 0 58.3476 13.7452 802 137.737 799.263 476.718
798 0 62.1698 13.7848 857 137.73 798.303 473.291
799 0 64.4709 17.4032 1122 130.378 798.814 472.248
800 0 64.4626 17.3124 1116 145.993 799.823 472.197
801 0 69.3107 15.1636 1051 135.363 798.985 468.645
802 0 74.3252 19.0649 1417 125.584 798.914 471.148
803 0 72.3894 15.3061 1108 136.434 799.191 467.493
804 0 74.2345 14.1713 1052 141.475 798.954 465.156
805 0 79.0889 16.7407 1324 135.294 800.446 461.906
806 0 81.2266 15.623 1269 138.585 800.918 461.429
807 1 39.0192 11.9428 466 128.59 800.365 484.423
808 0 40.122 11.4152 458 131.928 803.14 484.028
809 0 43.0952 12.368 533 128.765 802.947 483.722
810 0 46.0727 12.4586 574 128.958 802.855 481.451
811 0 46.0429 11.2721 519 132.584 804.316 479.649
812 0 50.1047 11.915 597 132.578 803.893 479.04
813 0 50.0702 10.7249 537 136.948 803.263 478.728
814 0 53.0871 11.3964 605 136.296 803.982 477.489
815 0 53.0871 11.4905 610 146.757 804.993 477.551
816 0 59.2849 13.9496 827 126.513 806.125 480.369
817 0 63.1421 14.3961 909 126.864 804.888 473.096
818 0 62.1405 12.9223 803 131.639 804.2 471.093
819 0 66.1883 12.1018 801 130.851 804.531 476.164
820 0 66.1629 11.5775 766 133.364 805.624 476.198
821 0 69.2564 11.378 788 130.487 805.66 479.956
822 0 70.2246 8.99969 632 135.424 805.174 477.665
823 0 72.2616 11.2923 816 133.489 804.104 473.525
824 0 73.1075 7.61892 557 135.605 805.223 481.092
825 1 41.0781 11.466 471 121.361 803.996 494.461
826 0 43.0315 11.3405 488 122.547 803.523 494.9
827 0 42.0325 11.7528 494 123.146 802.308 492.998
828 0 43.0403 10.8503 467 124.334 802.225 493.304
829 0 46.1034 13.0793 603 120.713 801.488 490.557
830 0 45.0468 10.3892 468 125.684 800.167 489.391
831 0 50.1078 13.6506 684 120.352 800.487 487.972
832 0 50.1419 12.1655 610 124.508 800.451 484.954
833 0 50.1209 9.61674 482 128.149 799.678 485.388
834 0 53.0862 12.4138 659 124.32 798.914 484.3
835 0 56.1819 12.6553 711 123.307 798.391 483.722
836 0 58.1155 10.7716 626 126.208 798.986 481.053
837 0 57.1486 9.16908 524 130.565 798.653 475.962
838 0 62.1588 11.7602 731 125.14 798.514 474.471
839 0 61.1144 9.57221 585 128.865 798.41 474.101
840 0 64.1802 11.2807 724 125.162 797.579 473.518
841 0 68.1303 12.1679 829 125.854 798.283 468.304
842 0 70.3169 11.1353 783 125.195 798.752 470.126
843 0 73.1505 12.0983 885 125.085 799.179 466.912
844 0 74.2327 12.5416 931 123.665 799.272 466.916
845 1 150.588 12.1523 1830 133.062 799.462 424.878
846 0 156.37 10.8972 1704 133.031 800.535 431.698
847 1 82.1175 9.9248 815 129.557 800.782 457.744
848 0 84.1374 12.4083 1044 127.081 801.923 457.003
849 0 86.2031 12.0877 1042 127.825 802.323 457.425
850 1 44.1453 5.54985 245 131.91 802.727 479.596
851 0 49.4281 10.4394 516 125.798 803.11 476.372
852 0 47.2451 10.1598 480 128.6 804.398 476.238
853 0 48.0821 9.96212 479 128.837 802.868 473.783
854 0 52.272 10.5984 554 126.137 804.809 477.094
855 0 52.2855 10.0984 528 127.462 804.455 476.824
856 0 52.2855 10.0793 527 126.977 805.433 476.829
857 0 58.28 11.0673 645 126.722 805.695 474.102
858 0 59.2542 11.3578 673 129.371 806.944 472.689
859 0 60.2282 10.0451 605 129.423 806.663 479.22
860 0 64.2274 12.2689 788 125.5 806.569 475.44
861 1 230.722 4.80232 1108 140.237 806.153 445.744
862 0 233.229 5.28236 1232 143.062 805.897 435.83
863 0 237.072 9.22927 2188 142.037 806.608 408.005
864 1 36.0348 9.87933 356 123.129 806.031 493.699
865 0 37.1061 11.5615 429 120.636 805.294 493.732
866 0 39.0458 8.52845 333 125.318 806.273 493.862
867 0 40.1304 7.55038 303 128.244 805.106 494.587
868 1 78.4246 11.7183 919 135.371 805.465 473.688
869 0 79.2684 12.4261 985 134.725 804.115 475.902
870 1 46.0386 9.51376 438 123.858 804.582 491.507
871 0 48.0537 11.8201 568 120.565 804.046 489.856
872 0 51.0875 12.2926 628 121.744 803.799 487.091
873 0 51.1302 11.7739 602 124.6 802.61 486.332
874 0 53.0929 10.491 557 128.275 802.544 485.334
875 0 57.1629 14.0651 804 120.091 801.616 484.152
876 0 57.0556 11.9182 680 125.899 801.544 479.493
877 0 58.0772 10.8476 630 130.283 801.54 478.727
878 0 59.131 11.0602 654 129.838 801.399 478.414
879 0 62.1086 11.6087 721 128.053 801.018 479.212
880 0 65.1128 12.8546 837 126.541 800.883 474.762
881 0 66.0545 13.4889 891 125.782 800.292 474.107
882 0 68.4253 12.0862 827 132.278 800.012 474.281
883 1 38.1232 10.23 390 127.049 800.077 486.021
884 0 37.4494 12.1764 456 123.204 800.618 486.789
885 0 40.2836 10.997 443 128.646 800.433 481.851
886 0 39.2006 13.6223 534 125.882 801.536 482.601
887 0 40.0389 12.1382 486 126.728 801.84 481.138
888 0 41.0983 12.166 500 129.408 802.578 481.81
889 0 43.0424 11.872 511 132.223 803.335 464.566
890 0 45.0129 11.4634 516 134.496 802.031 470.748
891 0 44.0341 12.0134 529 133.868 802.594 475.52
892 0 47.032 12.4596 586 132.195 804.285 475.935
893 0 46.0422 12.7274 586 134.669 803.923 473.782
894 0 47.0505 12.3272 580 135.412 804.75 476.169
895 0 49.0209 12.3213 604 134.826 805.407 473.348
896 0 52.0782 14.9391 778 128.371 804.778 476.407
897 0 51.2856 12.2646 629 136.626 804.32 472.56
898 0 51.2866 10.0416 515 142.887 805.237 471.983
899 0 55.2687 13.2806 734 136.332 805.134 473.416
900 0 55.4443 13.491 748 136.135 806.048 471.091
901 0 57.2225 13.8057 790 135.862 805.319 472.297
902 0 58.2582 13.1655 767 137.656 806.657 472.742
903 0 58.2582 13.0454 760 148.051 808.696 472.718
904 0 64.5745 14.6343 945 131.148 807.181 473.653
905 0 64.2556 15.6251 1004 131.253 805.603 473.852
906 0 66.234 16.1247 1068 130.243 805.395 472.688
907 0 66.2299 15.0385 996 134.44 805.4 470.481
908 0 69.2101 15.8358 1096 132.798 805.04 472.618
909 0 73.199 15.615 1143 132.644 805.409 474.015
910 0 76.2645 15.302 1167 133.516 804.21 473.594
911 0 76.2011 14.7767 1126 130.899 804.528 467.139
912 0 78.1027 13.2518 1035 134.284 803.182 466.637
913 0 78.1027 13.2518 1035 145.453 802.182 466.637
914 1 43.1916 9.83988 425 131.339 801.955 491.445
915 0 44.0226 12.7889 563 127.327 801.927 488.686
916 0 47.1578 11.0268 520 132.035 802.075 487.704
917 0 49.0421 13.4986 662 129.616 799.181 486.973
918 0 50.2298 12.841 645 134.116 797.888 484.932
919 0 53.2245 12.513 666 132.526 799.485 484.488
920 0 54.1902 13.6741 741 129.184 797.8 484.916
921 0 55.2131 13.946 770 130.364 799.503 483.199
922 0 56.2258 14.1394 795 129.133 797.472 482.535
923 0 58.178 15.4526 899 127.009 798.202 479.918
924 0 58.178 15.3666 894 139.26 798.159 479.85
925 0 59.0924 12.0828 714 134.3 797.976 480.151
926 0 59.0924 12.1674 719 153.299 798.987 480.238
927 0 64.1777 13.1354 843 134.126 796.949 466.998
928 0 66.1588 13.649 903 134.012 797.606 464.579
929 0 70.2144 13.4303 943 133.012 798.845 467.657
930 0 74.4089 13.9499 1038 131.583 799.104 459.038
931 0 75.4228 16.2418 1225 126.974 800.386 457.282
932 0 77.5065 14.4504 1120 131.415 799.239 457.412
933 0 79.3283 12.8706 1021 134.913 800.465 456.039
934 0 82.2268 14.4843 1191 130.145 800.223 456.159
935 0 85.2616 14.3558 1224 126.516 801.408 454.09
936 1 44.2824 10.1169 448 124.906 802.455 474.083
937 0 47.1112 9.9764 470 122.604 803.634 474.319
938 0 48.1248 12.6962 611 118.592 804.254 471.445
939 0 49.3434 13.7404 678 126.164 804.558 452.605
940 0 50.1556 13.5578 680 125.793 803.582 455.334
941 0 53.2196 12.2887 654 128.304 803.887 461.148
942 0 53.0699 13.0771 694 126.225 804.271 468.382
943 0 54.0383 13.9716 755 128.687 804.376 472.338
944 0 59.2023 12.7022 752 129.278 804.235 470.714
945 0 60.027 11.8113 709 130.402 804.594 476.426
946 0 62.1271 14.8566 923 124.535 803.898 474.252
947 0 62.0319 14.4119 894 126.313 804.549 475.083
948 0 65.0649 13.6787 890 126.47 805.055 474.475
949 0 67.0846 13.4308 901 129.741 804.725 461.9
950 0 71.1332 16.4761 1172 122.436 804.875 464.868
951 0 74.0702 13.2847 984 128.43 804.601 463.229
952 0 77.2163 14.8285 1145 124.755 805.024 466.829
953 0 78.1186 13.2363 1034 131.59 803.442 445.034
954 0 80.1777 14.2683 1144 128.212 803.933 457.065
955 0 84.2 12.8979 1086 130.335 803.571 462.922
956 0 87.1385 15.6303 1362 123.727 802.579 463.702
957 1 48.0829 11.3554 546 131.661 801.656 482.83
958 0 47.1475 10.8595 512 132.064 800.281 491.033
959 0 50.0311 12.0725 604 128.631 800.525 489.81
960 0 53.0992 14.9532 794 121.967 798.451 489.086
961 0 54.0585 15.4462 835 123.283 798.437 485.952
962 0 57.106 13.8514 791 125.563 796.674 484.042
963 0 55.04 13.9716 769 126.661 798.973 480.893
964 0 59.1041 19.0511 1126 113.756 797.483 484.116
965 0 59.1205 13.87 820 127.082 796.861 479.002
966 0 60.0433 12.4077 745 130.031 797.423 478.223
967 0 64.1047 13.3687 857 125.56 798.145 480.491
968 0 63.1172 14.576 920 124.545 797.702 478.411
969 0 67.0981 14.1435 949 125.385 797.792 476.507
970 0 68.0743 16.2176 1104 121.824 797.399 473.142
971 0 71.1112 17.2687 1228 119.296 798.495 472.348
972 0 76.238 16.7108 1274 115.602 797.433 474.271
973 0 77.117 13.9658 1077 124.748 799.26 468.709
974 0 78.1898 14.6439 1145 125.907 798.873 464.469
975 0 80.2496 23.6014 1894 108.439 800.279 466.905
976 0 81.065 15.5554 1261 124.291 799.702 463.053
977 0 82.4333 14.7635 1217 125.848 801.016 459.473
978 0 87.1518 16.1672 1409 122.444 801.928 459.82
979 0 87.1654 15.419 1344 126.419 802.849 453.835
980 0 92.2957 15.5912 1439 124.916 802.978 455.602
981 0 94.3584 13.3533 1260 129.943 804.595 454.951
982 0 99.3482 17.5645 1745 119.289 804.456 454.612
983 0 101.331 14.3884 1458 126.647 804.591 450.763
984 0 103.205 16.2976 1682 123.564 805.6 448.205
985 1 55.05 11.7711 648 123.248 806.554 469.123
986 0 58.2155 13.2782 773 120.404 807.089 471.767
987 0 57.2891 13.1788 755 124.84 806.587 470.234
988 0 58.2914 13.4668 785 123.424 806.018 469.214
989 0 64.1245 13.8481 888 126.639 807.003 467.634
990 0 66.2421 14.5074 961 123.816 807.541 468.049
991 0 69.2565 13.4283 930 126.1 806.611 468.595
992 0 68.1667 11.4132 778 127.923 805.756 466.976
993 0 72.0476 14.8096 1067 121.143 804.765 469.352
994 0 77.0389 14.3304 1104 119.999 804.722 471.317
995 0 78.1226 14.3364 1120 117.842 805.279 473.278
996 0 82.3457 13.9655 1150 123.008 802.99 462.263
997 0 84.1606 16.4923 1388 117.89 802.391 464.903
998 0 88.1476 14.9182 1315 121.729 803.367 463.278
999 0 92.1221 13.8403 1275 124.524 803.219 464.533
1000 1 49.1711 9.72117 478 123.9 801.979 484.046
1001 0 51.202 12.4214 636 117.748 800.088 483.2
1002 0 53.1133 11.579 615 120.333 801.177 484.585
1003 0 53.1133 11.6543 619 150.952 802.183 484.645
1004 0 53.1393 11.0653 588 120.73 800.148 477.175
1005 0 57.1794 14.8305 848 114.798 799.416 477.342
1006 0 60.1942 13.4565 810 117.38 800.089 472.3
1007 0 58.1691 10.7961 628 122.315 799.879 472.874
1008 0 62.1877 12.3175 766 119.696 799.191 470.602
1009 0 64.1493 12.3618 793 120.194 797.586 468.006
1010 0 64.1659 12.3274 791 132.718 795.578 467.862
1011 0 63.3728 10.9353 693 125.107 798.672 466.475
1012 0 68.1516 14.2183 969 119.693 797.19 463.229
1013 0 70.0609 11.6042 813 124.178 796.862 464.135
1014 0 73.1687 12.2457 896 124.461 796.723 459.565
1015 0 76.192 11.7991 899 124.927 798.308 459.87
1016 1 40.076 10.7546 431 116.589 799.427 476.32
1017 0 43.1048 10.3237 445 116.93 798.389 480.022
1018 0 45.1296 12.3865 559 119.018 798.776 475.728
1019 0 44.0069 8.97587 395 128.628 799.787 477.484
1020 0 46.0639 12.7866 589 122.902 800.161 474.463
1021 0 48.0895 9.60708 462 127.835 800.697 475.119
1022 0 50.0458 12.6684 634 122.194 800.836 475.645
1023 0 51.1648 14.6194 748 119.36 801.209 473.976
1024 0 54.0579 11.7097 633 122.569 802.49 472.095
1025 0 55.0457 14.8967 820 116.877 803.085 471.035
1026 0 56.0589 13.8426 776 119.316 803.246 468.298
1027 0 57.0625 12.9332 738 120.424 803.579 471.706
1028 0 59.0273 11.2829 666 122.799 804.041 471.5
1029 0 63.0493 13.767 868 118.225 804.498 468.605
1030 0 64.0539 13.4262 860 118.688 806.158 467.994
1031 0 64.0539 13.3325 854 126.735 807.158 468.027
1032 0 66.1574 12.2889 813 119.096 805.478 468.608
1033 0 70.1127 13.2216 927 118.86 805.626 465.583
1034 0 73.398 15.0549 1105 115.987 805.983 462.729
1035 0 73.1458 15.2572 1116 115.527 806.216 468.052
1036 0 76.1554 14.2603 1086 117.469 806.262 467.883
1037 0 76.144 14.2362 1084 123.537 806.248 467.911
1038 0 81.0644 12.2742 995 126.016 805.355 468.428
1039 0 85.0494 13.8508 1178 122.393 803.963 469.228
1040 1 44.1133 11.4705 506 119.532 803.711 483.053
1041 0 46.1439 10.749 496 123.278 806.288 487.841
1042 0 48.1745 10.3582 499 120.218 804.022 486.032
1043 0 51.0922 11.6652 596 119.022 803.314 486.878
1044 0 50.1171 11.1938 561 120.098 803.364 486.554
1045 0 55.0873 12.7797 704 116.946 801.929 488.49
1046 0 54.2043 13.2831 720 119.915 800.506 486.486
1047 0 54.3438 10.2496 557 123.91 801.084 480.702
1048 0 58.1866 13.2333 770 116.683 800.165 483.769
1049 0 59.2445 13.2164 783 117.934 799.055 481.667
1050 0 61.1684 13.8307 846 115.449 798.641 473.071
1051 0 63.2332 16.6685 1054 110.047 797.11 474.692
1052 0 66.2556 14.3082 948 112.8 798.127 476.237
1053 0 67.4238 12.5623 847 116.68 797.529 471.521
1054 0 70.2645 15.0859 1060 112.792 797.643 471.642
1055 0 72.2902 14.4695 1046 112.661 798.064 475.158
1056 0 71.3271 11.1318 794 120.283 798.011 468.028
1057 0 75.2038 12.3664 930 118.959 797.196 466.554
1058 0 80.2935 13.4133 1077 116.662 797.023 462.852
1059 0 81.2941 13.2974 1081 116.84 798.252 459.648
1060 0 85.2163 15.8538 1351 112.111 798.674 464.169
1061 0 90.255 15.5005 1399 114.729 800.039 461.243
1062 1 44.2475 11.1871 495 118.788 800.091 483.552
1063 0 47.2239 11.329 535 116.688 800.166 484.815
1064 0 48.2433 11.7736 568 114.843 800.495 478.901
1065 0 48.2433 11.8151 570 143.653 800.505 478.832
1066 0 51.2629 11.2362 576 113 801.068 472.616
1067 0 52.3092 13.8217 723 112.533 802.418 474.556
1068 0 55.0498 10.4451 575 116.052 802.103 475.294
1069 0 57.1234 12.8844 736 112.414 804.122 475.889
1070 0 57.1234 12.9194 738 144.967 806.093 475.981
1071 0 60.1343 15.349 923 107.843 804.584 473.572
1072 0 63.1589 18.2081 1150 106.731 804.513 473.417
1073 0 61.1341 12.8897 788 117.062 804.808 472.9
1074 0 65.0964 12.8425 836 115.939 805.211 476.184
1075 0 68.101 15.7413 1072 112.785 806.254 475.89
1076 0 73.1481 15.6942 1148 113.83 805.269 466.942
1077 0 76.1948 13.3867 1020 117.587 804.116 468.986
1078 0 76.1948 13.4655 1026 150.595 804.114 468.932
1079 0 81.3512 15.7343 1280 115.563 804.403 468.122
1080 0 81.3689 16.7263 1361 115.365 805.149 468.043
1081 0 83.2422 14.7762 1230 118.333 803.446 470.497
1082 0 86.3142 14.9454 1290 117.28 804.702 474.278
1083 0 90.1348 14.1122 1272 120.584 803.103 463.029
1084 0 95.3833 13.9333 1329 119.719 803.712 468.524
1085 0 97.3388 13.9821 1361 119.924 803.074 466.49
1086 0 101.21 15.5913 1578 117.748 802.894 463.106
1087 1 55.1004 13.8293 762 114.156 801.281 485.865
1088 0 56.1917 12.315 692 118.393 802.043 485.882
1089 0 57.0727 14.3151 817 113.756 799.905 488.072
1090 0 57.1962 12.5708 719 121.045 799.782 483.548
1091 0 60.2407 14.4919 873 114.74 799.418 473.25
1092 0 62.2191 13.7096 853 114.465 798.815 475.619
1093 0 65.1679 11.6929 762 118.022 798.455 475.668
1094 0 68.156 16.2568 1108 110.113 798.022 475.944
1095 0 66.2253 13.9977 927 114.77 798.621 471.92
1096 0 69.1186 12.8185 886 116.202 798.751 471.86
1097 0 72.0473 14.1435 1019 114.003 797.704 470.157
1098 0 75.1354 12.2446 920 116.951 797.984 467.655
1099 0 76.1014 11.4058 868 118.512 797.657 467.606
1100 0 83.538 17.3933 1453 107.511 799.439 468.109
1101 0 85.2526 16.281 1388 109.543 798.55 465.122
1102 0 88.2132 14.8617 1311 114.004 798.562 460.125
1103 0 90.2449 16.4331 1483 111.577 799.238 461.083
1104 0 94.3361 14.1409 1334 113.644 797.93 463.597
1105 0 97.2421 14.7878 1438 114.042 799.78 457.324
1106 0 100.34 14.7797 1483 114.893 799.03 450.291
1107 0 102.193 16.5862 1695 111.646 800.536 448.224
1108 0 105.417 14.2861 1506 114.643 799.51 451.183
1109 1 54.156 10.4513 566 116.002 800.565 473.168
1110 0 58.108 13.3545 776 112.509 801.287 470.57
1111 0 59.1096 11.1826 661 116.318 801.946 469.894
1112 0 64.2119 12.8481 825 114.536 802.971 465.046
1113 0 65.2088 13.3571 871 112.924 804.264 471.265
1114 0 67.2503 13.4126 902 114.122 803.227 464.391
1115 0 70.2721 13.2627 932 113.268 804.653 466.332
1116 0 71.3277 11.6925 834 116.74 804.56 466.217
1117 0 72.2127 10.4137 752 118.959 805.391 466.315
1118 0 77.3322 13.8623 1072 113.563 803.422 464.099
1119 0 78.3692 13.5002 1058 112.323 803.433 463.217
1120 0 80.3089 14.8551 1193 111.278 803.903 458.904
1121 0 87.2272 13.1266 1145 112.317 803.131 463.893
1122 0 86.2061 8.73488 753 120.761 803.915 468.578
1123 0 89.1653 13.3909 1194 115.316 803.59 466.669
1124 0 93.1491 12.7538 1188 116.067 802.263 461.949
1125 1 47.0507 9.75543 459 116.392 802.017 491.107
1126 0 49.0843 11.1033 545 115.31 801.809 487.128
1127 0 46.2043 6.88248 318 122.242 802.132 479.264
1128 0 46.1455 8.8416 408 116.988 802.395 483.914
1129 0 48.1126 11.8056 568 112.095 801.004 481.947
1130 1 60.1963 12.941 779 107.742 799.988 484.558
1131 0 60.1963 12.8912 776 121.925 797.965 484.557
1132 0 60.0585 11.0059 661 116.859 798.057 481.602
1133 0 63.1433 14.4433 912 111.958 795.95 482.104
1134 0 65.1046 12.6258 822 114.872 797.367 481.794
1135 0 68.2534 13.7722 940 116.274 796.693 482.443
1136 0 71.1276 15.901 1131 111.155 796.462 477.91
1137 0 75.2988 15.0069 1130 111.103 795.592 475.743
1138 0 72.2832 13.1566 951 112.415 795.892 476.957
1139 0 75.1529 16.6594 1252 108.514 795.089 470.046
1140 0 77.3301 14.2247 1100 112.231 796.023 473.411
1141 0 77.3301 14.173 1096 123.854 796.025 473.401
1142 0 82.4986 13.9639 1152 116.116 796.182 461.857
1143 0 84.2082 13.8585 1167 114.227 796.188 460.335
1144 0 85.2471 11.93 1017 119.201 796.192 457.652
1145 0 89.3089 12.8655 1149 115.419 796.158 457.611
1146 0 98.6528 16.5226 1630 108.774 796.933 449.645
1147 1 47.3646 10.2819 487 114.581 797.729 475.515
1148 0 47.2003 10.6355 502 115.034 798.245 473.582
1149 0 53.0795 14.1109 749 109.734 797.543 469.614
1150 0 55.2057 13.0602 721 114.979 797.917 474.474
1151 0 59.2202 15.2313 902 110.174 798.771 472.433
1152 0 58.2492 12.395 722 115.263 799.723 471.799
1153 0 63.0574 13.9714 881 111.485 801.825 469.85
1154 0 65.322 15.0485 983 109.698 801.166 468.901
1155 0 66.1322 13.8813 918 113.809 803.004 468.186
1156 0 68.2297 12.7804 872 114.794 802.929 469.927
1157 0 68.2365 10.449 713 118.13 802.849 463.414
1158 0 72.2422 14.8113 1070 111.279 803.679 462.445
1159 0 72.4155 13.2983 963 116.668 804.645 459.237
1160 0 77.0991 12.8536 991 116.782 805.761 464.479
1161 0 83.2501 21.2612 1770 103.471 804.779 459.615
1162 0 83.2173 14.4561 1203 115.823 805.408 457.654
1163 0 85.2098 13.6369 1162 118.398 805.02 457.333
1164 0 88.1958 11.6899 1031 122.53 806.673 457.712
1165 0 89.1806 13.7362 1225 119.126 805.998 462.224
1166 1 47.2721 9.2232 436 121.702 805.608 484.764
1167 0 53.2566 10.4588 557 118.126 805.478 486.571
1168 0 51.1027 13.1891 674 122.927 805.261 478.122
1169 0 52.2257 12.5992 658 122.581 804.685 479.488
1170 0 55.3531 13.0797 724 121.651 804.072 482.936
1171 0 59.17 12.8105 758 119.199 801.834 485.821
1172 0 58.2477 12.258 714 119.954 802.744 478.539
1173 0 57.2946 12.9681 743 120.498 801.3 475.136
1174 0 57.2946 12.9506 742 131.593 799.303 475.173
1175 0 65.193 11.7957 769 120.913 799.785 474.831
1176 0 67.1686 12.089 812 119.642 799.692 477.016
1177 0 69.1801 13.1107 907 119.846 798.003 476.131
1178 0 74.2763 14.2576 1059 115.28 798.135 473.94
1179 0 74.3308 14.4086 1071 115.475 798.72 473.577
1180 0 75.5661 15.7875 1193 113.934 797.884 465.627
1181 0 81.6897 9.32798 762 123.74 798.13 466.825
1182 0 82.4544 11.8247 975 119.23 796.956 462.813
1183 0 83.3451 15.1059 1259 114.317 796.913 462.29
1184 0 89.5542 14.4159 1291 114.002 796.836 460.568
1185 0 95.4736 17.0833 1631 109.668 796.364 463.5
1186 1 52.3321 12.9748 679 110.013 796.96 480.932
1187 0 50.3016 12.8823 648 113.17 796.394 478.659
1188 0 51.2831 10.6273 545 119.877 797.018 476.009
1189 0 55.126 14.1675 781 113.426 797.695 482.079
1190 0 54.1151 12.381 670 117.89 797.139 475.922
1191 0 57.1882 13.6742 782 116.583 796.549 473.111
1192 0 61.1734 14.0747 861 115.57 797.782 469.997
1193 0 63.1097 13.9281 879 116.449 797.597 470.126
1194 0 65.0267 15.1476 985 114.87 798.018 465.874
1195 0 67.1768 12.8765 865 118.25 799.975 465.973
1196 0 69.1411 15.302 1058 116.681 800.124 462.532
1197 0 72.2488 15.502 1120 115.744 801.837 467.454
1198 0 74.2308 14.0777 1045 117.874 802.464 465.361
1199 0 77.2245 13.9205 1075 119.147 802.046 463.508
1200 0 81.4828 15.1198 1232 117.844 803.433 457.261
1201 0 81.5237 11.8861 969 124.489 804.323 450.149
1202 1 169.512 16.052 2721 118.802 805.272 407.574
1203 1 90.5417 15.0317 1361 118.754 804.603 441.067
1204 1 49.277 14.4692 713 114.028 805.822 466.833
1205 0 49.277 14.4692 713 130.689 806.777 466.879
1206 0 54.2877 11.7154 636 115.566 807.063 481.23
1207 0 54.3485 11.8126 642 117.586 806.123 478.955
1208 0 55.1912 12.9369 714 116.821 805.86 480.352
1209 0 56.0888 9.52061 534 121.294 805.14 478.485
1210 0 59.3391 12.7403 756 115.738 803.515 483.156
1211 0 59.3391 12.7066 754 129.434 801.479 482.987
1212 0 63.0598 13.4793 850 114.839 803.041 485.347
1213 0 61.1401 10.8439 663 119.348 802.748 485.87
1214 0 64.082 11.9378 765 118.222 801.697 480.733
1215 0 65.1332 10.2559 668 120.18 801.807 480.141
1216 0 70.0997 12.5963 883 116.488 800.475 477.22
1217 0 71.1023 10.4919 746 119.227 799.051 479.172
1218 0 73.3441 10.0622 738 119.211 799.205 473.31
1219 0 76.2008 11.3122 862 116.391 799.099 472.603
1220 0 81.1866 12.8716 1045 113.08 797.892 473.264
1221 0 84.1006 15.3388 1290 110.726 798.313 473.55
1222 0 86.2022 12.2851 1059 114.28 796.137 473.445
1223 0 87.2252 11.3614 991 116.19 797.587 468.71
1224 1 46.0604 8.74938 403 115.732 796.437 487.536
1225 0 49.1371 11.5595 568 111.079 795.051 486.401
1226 0 50.0934 15.3114 767 102.876 795.312 486.021
1227 0 50.2111 9.28082 466 114.303 796.676 486.223
1228 0 52.2245 13.71 716 106.846 796.263 482.835
1229 0 54.1449 13.6116 737 108.278 795.703 481.75
1230 0 54.0504 9.56515 517 114.47 797.06 479.072
1231 0 54.0504 9.58365 518 118.243 798.077 478.952
1232 0 54.076 9.57911 518 117.683 798.073 478.708
1233 0 60.0652 10.9048 655 111.316 797.537 472.177
1234 0 63.1981 13.7662 870 108.141 797.105 471.355
1235 0 68.0618 12.5474 854 109.3 796.789 466.765
1236 0 66.1905 11.4518 758 110.369 798.898 467.505
1237 0 67.1814 11.6848 785 106.349 801.912 468.366
1238 0 74.377 10.8905 810 108.657 801.799 466.959
1239 0 73.3086 13.45 986 106.982 802.147 463.523
1240 0 75.3887 11.0892 836 109.416 802.792 464.335
1241 0 77.1483 14.2194 1097 105.326 802.197 462.156
1242 0 82.3269 13.0941 1078 106.358 803.507 456.128
1243 0 83.2207 11.139 927 108.699 803.485 462.929
1244 0 87.1352 12.5093 1090 107.467 803.761 457.791
1245 0 88.166 12.9415 1141 105.754 804.234 462.34
1246 0 92.1215 11.3763 1048 109.517 805.388 456.939
1247 0 93.1857 10.42 971 111.46 806.324 457.17
1248 0 97.2519 10.0666 979 112.226 806.573 460.998
1249 1 53.0986 8.83263 469 110.557 806.563 482.154
1250 0 53.1612 11.6438 619 108.2 805.536 479.724
1251 0 55.3692 9.59018 531 112.019 806.633 479.198
1252 0 57.1687 12.6293 722 104.868 804.762 479.591
1253 0 57.1717 12.7161 727 114.629 803.713 479.546
1254 0 62.2521 11.8871 740 107.462 803.993 479.058
1255 0 64.2863 13.4865 867 105.437 805.404 481.514
1256 0 66.2707 14.0484 931 105.803 804.939 479.035
1257 0 65.1725 9.9275 647 112.756 803.842 479.134
1258 0 69.3324 12.6204 875 109.392 802.446 477.885
1259 0 70.2469 11.2176 788 112.674 800.784 476.831
1260 0 77.1813 12.8399 991 109.337 800.6 478.347
1261 0 78.2785 15.5087 1214 109.838 800.27 468.834
1262 0 83.2998 14.3578 1196 111.191 799.299 470.753
1263 0 82.3062 14.4339 1188 126.765 798.299 470.49
1264 0 86.3979 13.623 1177 113.912 799.336 468.618
1265 1 44.0843 9.86745 435 117.154 800.359 488.333
1266 0 49.1629 10.9635 539 115.523 797.2 483.705
1267 0 51.0824 13.214 675 112.12 795.873 485.68
1268 0 52.0838 12.1727 634 113.942 796.899 483.207
1269 0 50.0849 10.1627 509 140.631 797.723 480.485
1270 0 53.0777 12.623 670 115.172 796.349 482
1271 0 55.0816 13.8522 763 114.202 794.714 475.667
1272 0 57.089 12.6995 725 115.287 796.276 477.506
1273 0 59.0923 15.5689 920 111.999 795.662 473.449
1274 0 62.1019 14.5567 904 114.053 797.014 473.475
1275 0 62.1349 15.064 936 114.287 797.019 471.754
1276 0 62.0442 12.3621 767 119.785 797.009 471.137
1277 0 64.1114 12.1351 778 120.842 796.919 468.83
1278 0 67.2439 11.8375 796 120.776 796.604 467.031
1279 0 72.1194 14.0739 1015 116.503 798.784 465.954
1280 0 72.1349 13.4054 967 118.191 798.761 465.023
1281 0 76.1095 13.3098 1013 119.107 800.347 460.789
1282 0 78.043 13.7232 1071 118.978 800.226 458.37
1283 0 78.1238 12.8258 1002 121.514 801 455.002
1284 0 83.1064 13.7294 1141 118.095 801.943 460.208
1285 0 87.122 13.5098 1177 117.996 802.482 453.669
1286 0 88.0855 11.9656 1054 119.793 803.308 457.858
1287 0 90.0407 12.2944 1107 122.255 803.032 450.539
1288 0 94.1367 15.1907 1430 117.694 804.545 450.912
1289 1 45.1787 9.38495 424 123.552 805.436 473.38
1290 0 49.1909 14.21 699 112.153 806.461 475.538
1291 0 49.2343 11.3539 559 118.152 806.75 477.352
1292 0 54.164 14.3823 779 114.739 805.632 481.241
1293 0 54.3621 13.4285 730 118.166 805.555 475.452
1294 0 55.2315 12.9817 717 119.068 805.275 479.801
1295 0 58.1963 13.506 786 118.023 804.78 480.858
1296 0 58.1879 14.0751 819 138.669 803.725 481.143
1297 0 60.2209 10.0962 608 123.727 804.22 479.938
1298 0 63.2438 10.5939 670 117.799 803.964 475.43
1299 0 68.2301 13.4545 918 112.121 805.719 478.822
1300 0 68.2301 13.3519 911 125.684 807.679 478.788
1301 0 72.2361 11.3793 822 116.258 803.082 474.58
1302 0 72.0577 6.21724 448 125.699 802.67 471.333
1303 0 79.0682 12.5461 992 112.96 800.905 474.155
1304 0 80.1662 12.1997 978 114.875 801.396 472.641
1305 0 81.1063 9.1115 739 120.673 800.613 470.204
1306 1 44.1755 8.33041 368 113.72 800.334 496.152
1307 0 46.0657 15.022 692 105.971 799.984 492.045
1308 0 48.1335 11.3227 545 113.675 796.899 487.989
1309 0 50.0864 11.5201 577 112.109 796.506 485.967
1310 0 51.1441 11.7707 602 111.615 796.58 484.492
1311 0 52.1008 10.5948 552 113.6 797.241 483.585
1312 0 56.1326 12.9337 726 110.219 797.204 479.302
1313 0 55.0657 11.5317 635 114.991 796.926 474.375
1314 0 56.1522 11.4866 645 115.164 797.774 475.546
1315 0 59.1103 12.0622 713 114.705 797.25 471.875
1316 0 60.2663 12.5775 758 113.562 798.852 474.113
1317 0 61.2323 11.8728 727 114.396 797.955 472.106
1318 0 64.104 11.5749 742 116.009 798.656 469.361
1319 0 67.3376 11.4349 770 118.038 798.253 466.84
1320 0 70.5047 14.4246 1017 113.149 799.22 461.376
1321 0 71.3822 12.6502 903 119.13 799.872 459.586
1322 0 71.3822 12.7623 911 142.35 800.878 459.484
1323 0 74.217 11.8302 878 119.399 800.361 458.157
1324 0 80.5905 13.7113 1105 117.662 802.11 451.744
1325 0 83.6215 14.3504 1200 116.238 802.753 453.18
1326 0 86.6311 16.4837 1428 113.115 802.63 453.338
1327 1 43.1896 11.3222 489 118.618 802.204 473.123
1328 0 47.1686 12.4871 589 115.716 803.767 476.474
1329 0 47.303 9.7034 459 121.83 802.939 479.625
1330 0 47.2658 9.98607 472 121.265 803.769 471.945
1331 0 51.3498 12.1325 623 117.249 803.945 474.525
1332 0 52.0693 11.3311 590 117.549 803.451 478.514
1333 0 52.1442 12.9065 673 115.773 802.048 475.153
1334 0 52.1442 12.8682 671 142.951 801.045 475.066
1335 0 56.068 14.3932 807 114.906 803.544 477.204
1336 0 56.068 14.3041 802 143.334 805.576 477.236
1337 0 56.0719 12.8407 720 117.375 803.794 479.744
1338 0 61.1396 15.2438 932 112.696 803.657 478.315
1339 0 58.0598 11.0059 639 121.959 803.537 471.368
1340 0 62.1605 12.7734 794 118.924 802.436 473.033
1341 0 66.7749 12.34 824 117.911 803.171 475.041
1342 0 67.639 11.1918 757 119.723 803.363 476.76
1343 0 72.4524 13.5399 981 115.884 801.849 474.063
1344 0 71.3423 11.0734 790 121.327 801.906 472.937
1345 0 80.2244 18.2364 1463 106.271 799.528 462.813
1346 0 83.1704 17.6986 1472 107.531 800.516 461.484
1347 0 83.1374 15.5646 1294 111.44 799.054 466.681
1348 1 44.1888 10.9756 485 114.315 800.196 486.705
1349 0 44.1888 10.953 484 141.143 801.18 486.725
1350 0 46.2432 9.55817 442 117.636 799.509 478.321
1351 0 46.0888 11.0222 508 116.524 799.736 476.244
1352 0 54.458 17.5915 958 102.967 797.717 470.522
1353 0 54.3269 11.6701 634 113.653 798.016 472.353
1354 0 51.0991 12.5443 641 114.665 797.474 471.828
1355 0 52.3601 8.21235 430 121.73 797.805 467.184
1356 0 58.3761 11.7685 687 114.233 797.125 469.761
1357 0 59.1669 14.4845 857 110.959 797.519 466.786
1358 0 58.1344 12.7291 740 117.134 795.872 470.108
1359 0 62.3954 14.4081 899 114.788 795.681 469.893
1360 0 61.3376 13.1567 807 128.14 795.631 467.886
1361 0 64.5859 13.393 865 118.334 797.646 459.661
1362 0 68.6813 15.4627 1062 116.121 798.196 444.651
1363 0 69.4539 12.1807 846 122.752 798.869 443.745
1364 0 75.5022 14.5691 1100 114.527 800.637 443.179
1365 0 76.5029 15.2935 1170 116.903 800.285 432.712
1366 0 78.5407 12.223 960 121.042 801.931 435.884
1367 0 78.5407 12.1466 954 120.482 803.935 435.96
1368 1 41.1571 8.94134 368 122.554 801.823 456.117
1369 0 46.3755 12.1832 565 114.943 802.356 459.473
1370 0 45.3393 10.0795 457 120.013 803.387 468.952
1371 0 46.3662 12.1856 565 120.044 803.237 467.512
1372 0 49.3732 12.0308 594 115.094 805.167 472.924
1373 0 48.4498 10.2993 499 119.733 804.743 472.03
1374 0 53.3867 11.4261 610 116.989 805.816 473.384
1375 0 56.6798 12.6324 716 114.895 804.858 472.218
1376 0 56.4625 12.5039 706 115.888 805.924 474.242
1377 0 56.3522 18.8813 1064 106.404 805.147 471.841
1378 0 57.2884 9.86238 565 121.598 805.589 475.288
1379 0 63.6319 14.851 945 112.344 804.459 476.307
1380 0 64.3835 13.637 878 115.043 805.231 474.544
1381 0 64.271 12.9452 832 115.636 804.328 476.349
1382 0 68.2487 14.8721 1015 112.653 803.825 476.779
1383 0 70.5262 13.7396 969 114.842 803.149 470.608
1384 0 73.4988 13.0614 960 117.003 802.45 467.694
1385 0 75.3753 15.5091 1169 112.61 801.584 468.498
1386 0 76.3201 12.8538 981 118.22 799.87 468.958
1387 0 77.3595 12.4096 960 119.565 798.271 455.883
1388 0 81.2518 13.0089 1057 118.731 798.881 455.656
1389 0 84.5414 15.3179 1295 115.249 797.959 456.195
1390 0 86.4395 12.1704 1052 120.267 797.852 454.461
1391 1 46.2144 13.459 622 111.445 798.728 475.666
1392 0 48.1774 11.4161 550 114.142 798.916 473.524
1393 0 44.1861 10.1842 450 119.098 798.482 464.569
1394 0 47.2327 10.967 518 116.73 798.504 465.861
1395 0 50.4379 13.0061 656 114.2 797.291 463.405
1396 0 50.1875 14.2466 715 112.664 798.274 465.864
1397 0 52.2049 13.8493 723 113.668 796.209 461.985
1398 0 53.2294 13.6767 728 114.463 796.552 458.486
1399 0 54.4139 13.9486 759 113.155 796.896 459.444
1400 0 56.2537 15.8923 894 110.144 797.1 456.404
1401 0 56.1035 18.0738 1014 105.952 796.702 455.344
1402 0 59.2515 15.814 937 106.701 797.366 461.721
1403 0 58.1099 11.2029 651 116.733 796.767 454.041
1404 0 62.3717 14.606 911 109.279 797.409 460.112
1405 0 64.2371 14.2597 916 109.102 798.213 464.519
1406 0 63.299 11.9749 758 114.298 799.665 461.178
1407 0 66.1634 14.3735 951 111.326 799.858 458.057
1408 0 70.2656 17.6616 1241 108.105 800.672 449.346
1409 0 75.7926 15.8723 1203 110.777 801.696 451.284
1410 0 77.7269 13.5217 1051 116.132 802.351 448.871
1411 0 75.4204 14.6512 1105 117.077 803.052 444.781
1412 0 79.3237 12.8839 1022 119.835 802.261 442.351
1413 0 81.38 15.999 1302 115.701 802.293 445.216
1414 0 81.216 13.421 1090 121.237 803.948 444.682
1415 0 84.4363 11.7248 990 124.295 805.113 444.238
1416 0 88.3657 14.904 1317 119.304 804.518 435.22
1417 0 91.4237 14.132 1292 120.746 804.479 435.09
1418 1 48.4111 8.2006 397 123.36 806.111 464.945
1419 0 48.4357 10.8185 524 119.983 805.599 464.223
1420 0 53.409 13.5745 725 114.779 806.508 463.428
1421 0 51.5614 13.4403 693 115.118 805.978 464.661
1422 0 48.2615 11.044 533 122.242 805.107 465.923
1423 0 54.3164 9.53671 518 122.71 803.931 471.429
1424 0 56.3938 12.0049 677 118.074 804.059 476.177
1425 0 57.1964 13.7421 786 114.233 803.673 479.106
1426 0 61.5579 13.9056 856 113.933 804.199 474.923
1427 0 63.1881 12.4707 788 117.346 802.311 470.641
1428 0 64.3503 16.8453 1084 109.544 803.419 476.741
1429 0 67.2596 16.0721 1081 110.745 801.752 475.718
1430 0 67.5825 14.0717 951 113.64 801.62 477.027
1431 0 69.3501 16.3951 1137 110.183 799.96 474.382
1432 0 72.5476 13.6049 987 112.761 799.675 475.122
1433 0 71.2685 12.5862 897 114.666 796.279 472.854
1434 0 79.0715 13.6712 1081 111.569 798.239 470.44
1435 0 77.298 12.9369 1000 113.223 796.422 467.343
1436 0 81.4526 13.2347 1078 112.909 797.078 466.149
1437 1 43.0837 13.6246 587 104.487 796.184 481.658
1438 0 40.0216 5.52202 221 115.176 795.231 481.71
1439 0 44.2815 9.43961 418 109.665 796.495 478.06
1440 0 45.0385 11.4791 517 107.905 794.673 473.971
1441 0 48.1128 9.99735 481 110.674 793.422 474.58
1442 0 49.1824 11.2439 553 106.159 796.987 470.488
1443 0 48.1735 10.0885 486 109.829 796.463 467.352
1444 0 52.1787 11.8631 619 107.515 797.029 467.018
1445 0 55.3971 14.2787 791 103.264 797.109 466.315
1446 0 53.2082 15.4863 824 102.911 797.487 466.555
1447 0 56.2289 11.9689 673 109.061 797.285 462.024
1448 0 58.1573 9.97295 580 113.488 799.309 459.816
1449 0 59.3604 12.4157 737 108.531 799.062 461.058
1450 0 63.1995 10.6488 673 111.987 799.465 460.256
1451 0 62.0836 7.94091 493 117.663 802.235 459.613
1452 0 62.0836 8.06977 501 133.389 805.242 459.603
1453 0 70.0563 11.9333 836 111.555 803.322 463.787
1454 0 71.2263 11.2318 800 115.038 802.679 460.175
1455 0 70.2306 11.4765 806 125.058 802.675 460.108
1456 0 77.1918 12.2293 944 118.342 802.747 456.742
1457 0 79.0704 12.0525 953 117.54 802.783 459.306
1458 0 80.0995 11.8977 953 119.804 803.109 456.385
1459 1 44.0409 10.6719 470 115.602 804.172 477.762
1460 0 47.0582 11.3051 532 112.776 803.852 478.519
1461 0 47.0574 10.5403 496 115.2 803.855 476.161
1462 0 44.0393 9.03737 398 114.927 805.359 477.04
1463 0 49.1283 11.8872 584 111.303 804.31 473.991
1464 0 46.1378 7.651 353 117.368 804.912 476.031
1465 0 49.2685 8.13908 401 117.791 805.227 476.638
1466 0 53.095 10.8673 577 113.263 803.887 476.605
1467 0 52.2897 10.4992 549 114.923 805.144 473.452
1468 0 55.1503 11.786 650 113.772 804.282 473.211
1469 0 59.1362 11.1269 658 114.868 803.03 473.374
1470 0 61.19 12.5511 768 112.921 803.368 472.842
1471 0 61.1684 11.5256 705 115.481 803.311 472.017
1472 0 62.1614 12.2262 760 113.816 801.253 474.707
1473 0 67.2233 13.9535 938 108.592 800.593 475.176
1474 0 67.2202 12.5409 843 113.012 799.211 469.837
1475 0 70.4031 15.6243 1100 109.705 800.039 464.858
1476 0 72.3192 11.3801 823 117.266 799.859 469.431
1477 0 73.3706 14.897 1093 111.994 798.205 466.244
1478 0 77.2924 11.9934 927 115.915 797.627 466.302
1479 0 79.1938 12.501 990 118.673 797.083 455.657
1480 1 41.08 10.1996 419 110.578 796.301 480.241
1481 0 40.2444 10.2872 414 110.899 795.536 480.502
1482 0 43.1306 10.2479 442 110.38 796.462 478.98
1483 0 44.1439 12.2101 539 107.508 795.506 475.286
1484 0 43.0613 10.1483 437 111.071 796.396 476.357
1485 0 46.2392 12.2623 567 107.564 796.141 475.139
1486 0 47.1345 12.4537 587 107.346 795.673 472.719
1487 0 47.2085 10.4218 492 112.213 795.965 467.976
1488 0 50.2309 7.28635 366 114.65 796.716 471.645
1489 0 52.2723 10.1392 530 112.479 796.745 466.564
1490 0 52.1353 11.0482 576 111.727 797.795 466.571
1491 0 55.2315 12.8369 709 107.925 798.405 466.492
1492 0 58.1113 12.2696 713 108.302 798.107 465.111
1493 0 54.2161 8.06034 437 117.332 799.741 461.989
1494 0 56.3906 10.0726 568 112.468 799.639 462.963
1495 0 62.1254 12.4909 776 107.621 800.619 462.371
1496 0 62.1254 12.3943 770 118.201 800.619 462.344
1497 0 64.1381 11.4285 733 111.738 802.468 456.666
1498 0 68.2026 10.5421 719 111.28 802.783 459.053
1499 0 70.1568 10.1487 712 112.423 803.125 455.86
1500 0 71.1639 11.34 807 110.036 804.713 458.207
1501 0 71.2434 12.6327 900 108.851 804.659 456.808
1502 1 81.1188 10.4292 846 110.362 805.816 458.084
1503 0 85.241 17.081 1456 100.509 805.379 450.808
1504 0 85.1774 13.6186 1160 105.79 805.153 457.577
1505 0 85.1774 13.6539 1163 129.384 804.126 457.658
1506 1 45.0201 8.57395 386 105.702 805.256 479.606
1507 0 46.0803 9.33153 430 102.828 806.742 483.633
1508 0 48.0737 8.92379 429 104.993 804.846 484.524
1509 0 50.1189 11.2333 563 104.549 806.325 484.192
1510 0 45.2953 6.84398 310 113.706 803.745 477.445
1511 0 51.2211 9.87874 506 110.024 804.895 476.457
1512 0 53.2316 11.1776 595 108.103 804.224 476.301
1513 0 54.1322 11.5828 627 107.721 802.852 474.533
1514 0 57.1355 10.9739 627 111.04 801.675 474.067
1515 0 58.1865 8.59305 500 112.846 802.306 477.77
1516 0 60.1679 12.4319 748 107.921 801.209 475.949
1517 0 61.2429 10.0583 616 113.211 800.242 467.162
1518 0 65.1647 11.6781 761 110.761 799.141 467.431
1519 0 69.3092 11.7589 815 108.531 798.681 475.417
1520 0 68.2737 14.0611 960 108.732 797.971 466.971
1521 0 72.1729 13.9526 1007 110.351 797.337 467.777
1522 0 73.1616 13.19 965 110.679 797.777 466.352
1523 0 74.272 11.5925 861 114.37 796.105 459.325
1524 0 74.3749 12.6925 944 114.299 796.758 461.885
1525 0 79.1087 11.3894 901 116.062 796.96 461.155
1526 0 87.168 12.4128 1082 117.444 796.478 461.541
1527 1 47.0343 10.992 517 113.836 798.248 480.865
1528 0 46.0109 9.95417 458 136.594 799.214 482.214
1529 0 47.0302 9.61085 452 115.914 797.741 480.626
1530 0 47.0134 12.4645 586 113.263 796.666 477.305
1531 0 53.2977 11.539 615 111.782 799.197 478.278
1532 0 48.3366 12.475 603 111.803 796.448 473.212
1533 0 51.465 11.9304 614 113.715 797.539 469.902
1534 0 55.2492 16.9595 937 105.02 798.224 469.045
1535 0 55.2543 14.3156 791 109.038 798.886 470.008
1536 0 55.4178 12.7576 707 113.096 799.405 469.293
1537 0 56.0549 16.4838 924 108.672 799.288 469.765
1538 0 59.0972 14.823 876 111.779 799.934 467.985
1539 0 61.0714 13.8854 848 113.879 800.222 467.815
1540 0 66.1887 16.1357 1068 107.728 800.166 470.89
1541 0 65.0793 12.4617 811 119.379 802.018 465.635
1542 0 68.082 14.4972 987 116.589 803.025 465.894
1543 0 70.1591 16.2773 1142 112.123 802.475 468.826
1544 0 72.1462 14.8587 1072 116.631 802.537 468.011
1545 0 73.1227 11.9525 874 122.412 803.375 468.106
1546 0 75.151 15.3557 1154 116.422 803.072 467.519
1547 0 76.2517 18.8717 1439 113.051 803.206 467.471
1548 0 80.1923 15.1012 1211 118.168 803.21 468.184
1549 0 82.256 12.7164 1046 123.296 802.709 465.005
1550 0 84.1443 13.156 1107 122.754 803.158 466.388
1551 1 49.1252 8.36638 411 126.007 803.38 485.08
1552 0 50.1018 9.64038 483 121.48 803.969 487.188
1553 0 50.0713 10.9244 547 118.883 802.589 480.795
1554 0 54.0281 11.0313 596 121.765 803.69 485.723
1555 0 56.1624 15.562 874 114.39 805.077 484.318
1556 0 57.0427 15.7075 896 115.714 803.34 482.318
1557 0 57.0564 12.7593 728 121.03 802.129 480.473
1558 0 62.1109 14.5224 902 114.839 801.827 483.609
1559 0 62.1109 14.619 908 135.377 800.794 483.572
1560 0 64.13 12.0692 774 119.178 800.358 480.727
1561 0 68.1561 13.5131 921 116.883 799.003 477.843
1562 0 69.2746 13.3238 923 117.554 799.938 476.572
1563 0 71.0651 15.6617 1113 113.674 800.722 478.765
1564 0 72.2879 13.0312 942 118.721 799.907 473.953
1565 0 72.2879 12.9897 939 135.021 798.892 473.892
1566 0 72.2727 12.9509 936 134.729 797.897 473.851
1567 1 84.152 15.3532 1292 112.998 797.878 466.02
1568 0 83.1448 18.7624 1560 109.505 799.249 464.422
1569 0 85.227 15.7931 1346 115.481 798.492 461.563
1570 0 87.2314 17.0237 1485 112.627 799.193 465.604
1571 0 89.099 16.5097 1471 115.152 798.125 461.068
1572 1 47.1041 11.0818 522 118.621 797.925 481.757
1573 0 47.0732 10.1969 480 121.96 798.4 478.292
1574 0 51.03 13.8938 709 114.738 795.654 480.337
1575 0 48.2737 9.2597 447 124.152 796.664 477.799
1576 0 49.1289 12.0092 590 115.758 797.958 472.163
1577 0 52.1553 12.1368 633 115.276 798.461 471.264
1578 0 53.1485 14.4501 768 111.426 800.82 471.158
1579 0 57.1075 13.0806 747 112.312 801.092 471.169
1580 0 57.0965 12.4526 711 113.606 801.544 467.692
1581 0 56.0471 10.8659 609 117.177 802.732 467.604
1582 0 60.151 12.1361 730 114.907 802.877 467.542
1583 0 61.0652 12.4621 761 114.491 803.669 467.423
1584 0 61.1411 11.3835 696 118.476 803.346 463.71
1585 0 65.2693 13.406 875 113.682 804.176 466.538
1586 0 66.4202 13.1888 876 115.275 804.541 463.168
1587 0 69.1606 12.3336 853 117.653 804.844 460.265
1588 0 70.123 11.765 825 119.072 804.255 462.56
1589 0 74.1753 14.1152 1047 114.711 804.6 464.929
1590 0 77.2298 14.0749 1087 115.459 805.46 459.167
1591 0 77.1644 14.4885 1118 115.157 804.794 461.803
1592 0 81.3249 12.3332 1003 118.825 805.075 462.345
1593 0 85.2787 13.3093 1135 118.065 805.567 460.062
1594 0 86.2239 12.7343 1098 118.569 805.352 457.249
1595 0 91.2151 13.2215 1206 116.987 804.65 457.603
1596 0 96.2059 12.6396 1216 117.183 805.094 457.249
1597 0 102.213 14.8318 1516 111.694 804.496 460.308
1598 0 101.313 11.8051 1196 119.089 803.2 457.898
1599 0 101.211 10.9376 1107 120.794 803.644 456.793
1600 1 56.0727 12.3946 695 110.207 802.197 477.209
1601 0 58.0632 10.4369 606 111.832 800.67 479.345
1602 0 59.127 11.2639 666 110.089 799.459 482.443
1603 0 59.127 11.2977 668 119.063 798.442 482.448
1604 0 67.0376 12.396 831 109.326 798.456 480.313
1605 0 66.0635 13.2297 874 110.215 798.721 473.534
1606 0 69.2864 15.2555 1057 107.771 798.654 472.665
1607 0 70.1369 10.3512 726 114.291 798.514 473.579
1608 0 73.1619 13.4633 985 110.711 798.562 467.806
1609 0 76.2649 13.676 1043 110.074 797.9 467.245
1610 0 81.3381 12.9091 1050 110.793 796.003 463.424
1611 0 80.1444 12.8892 1033 110.753 797.196 468.537
1612 0 80.155 12.9374 1037 115.163 798.209 468.559
1613 0 86.3522 12.7848 1104 112.152 797.38 455.292
1614 0 90.2775 11.6308 1050 114.307 795.906 453.733
1615 1 48.0358 9.13901 439 108.877 798.26 481.166
1616 0 49.3086 10.0794 497 109.382 797.143 478.334
1617 0 50.087 14.7144 737 102.966 798.141 475.678
1618 0 51.1011 13.9919 715 103.905 797.848 477.341
1619 0 54.0948 11.6832 632 107.366 799.337 470.097
1620 0 54.1259 8.70194 471 113.176 799.076 468.803
1621 0 55.0886 8.73139 481 113.865 800.663 467.514
1622 0 61.0589 12.9383 790 107.315 801.005 466.506
1623 0 61.2254 12.7888 783 107.206 801.937 463.639
1624 0 64.2219 10.199 655 112.997 800.817 467.058
1625 0 67.2485 13.4576 905 107.423 801.533 468.093
1626 0 69.1633 17.5238 1212 102.422 801.757 461.509
1627 0 70.2053 12.4065 871 108.277 802.073 467.999
1628 0 74.416 13.6933 1019 107.508 803.981 461.22
1629 0 74.2027 11.9403 886 109.744 803.042 466.624
1630 0 76.4709 13.0638 999 113.262 804.381 456.726
1631 0 80.4541 14.3312 1153 111.278 804.186 457.901
1632 0 83.3071 12.82 1068 113.7 804.504 456.084
1633 0 85.3062 10.6206 906 117.817 805.074 458.023
1634 0 89.3567 13.1831 1178 115.138 804.699 453.884
1635 0 92.4061 13.0294 1204 115.603 806.048 454.914
1636 0 95.4569 11.9321 1139 116.801 803.728 456.886
1637 1 51.2914 10.7035 549 115.326 803.495 477.705
1638 0 53.436 9.35698 500 117.588 804.512 476.656
1639 0 52.4034 10.7436 563 115.014 803.256 479.824
1640 0 57.1205 11.0643 632 116.074 802.854 475.065
1641 0 59.357 11.3382 673 114.66 801.311 477.816
1642 0 61.2417 14.4346 884 111.596 802.209 475.936
1643 0 62.1674 13.4476 836 113.661 801.182 478.635
1644 0 61.352 10.4642 642 119.645 800.841 475.288
1645 0 68.3888 12.0926 827 114.573 799.397 478.557
1646 0 68.6079 13.2492 909 113.802 797.839 473.604
1647 0 71.4101 15.0539 1075 110.661 798.315 473.264
1648 0 74.424 13.1947 982 114.228 798.466 470.146
1649 0 76.9792 16.0693 1237 110.908 797.851 459.297
1650 0 78.2113 14.0389 1098 116.022 797.893 454.771
1651 0 81.5709 13.8285 1128 113.305 796.247 463.347
1652 0 82.4569 13.0614 1077 114.434 796.316 461.523
1653 0 84.7819 13.1396 1114 114.139 795.693 458.816
1654 0 87.2658 13.9803 1220 113.672 795.75 454.625
1655 1 44.3212 11.349 503 110.813 795.801 476.028
1656 0 47.182 10.4489 493 111.387 794.945 476.635
1657 0 49.078 13.611 668 109.534 794.987 471.874
1658 0 50.0801 11.4816 575 110.198 796.026 468.224
1659 0 53.1537 13.9407 741 105.615 795.707 467.9
1660 0 54.0674 11.1528 603 110.237 796.516 468.289
1661 0 57.1729 11.5789 662 109.526 797.95 469.367
1662 0 55.057 9.73537 536 119.946 797.147 468.688
1663 0 59.1268 12.6508 748 114.897 796.773 467.357
1664 0 60.1067 11.413 686 119.478 797.891 463.818
1665 0 66.0705 13.637 901 113.402 797.566 460.941
1666 0 67.2942 13.1215 883 113.935 798.504 459.099
1667 0 67.2046 11.5022 773 117.475 799.986 457.994
1668 0 72.1704 12.9555 935 114.974 800.356 456.833
1669 0 73.1208 12.705 929 114.505 799.944 461.436
1670 0 76.1139 11.3645 865 116.417 801.948 459.259
1671 0 78.1574 13.1018 1024 114.581 801.58 455.747
1672 0 82.1416 15.3394 1260 110 802.65 459.955
1673 0 87.1937 14.462 1261 110.406 802.527 455.564
1674 0 87.1945 17.8222 1554 105.896 805.741 459.062
1675 1 48.0366 11.5745 556 110.7 807.471 479.532
1676 0 49.1109 13.0928 643 109.386 805.975 477.459
1677 0 46.0831 9.15737 422 116.96 806.254 478.685
1678 0 45.1194 11.9904 541 111.346 803.969 473.86
1679 0 50.1632 11.7417 589 108.518 803.552 476.806
1680 0 51.1991 10.8205 554 111.3 802.879 476.435
1681 0 53.2442 9.07141 483 113.973 802.822 477.263
1682 0 55.2681 11.3266 626 111.073 801.877 475.674
1683 0 58.313 11.9013 694 110.406 803.039 477.752
1684 0 57.19 11.4006 652 111.949 802.387 477.994
1685 0 60.1677 11.1355 670 112.315 801.639 478.903
1686 0 63.2959 14.2347 901 107.838 801.169 476.032
1687 0 66.2576 12.9646 859 111.164 799.983 473.951
1688 0 67.1642 13.1915 886 111.661 798.505 473.386
1689 0 70.171 18.0131 1264 103.869 799.701 470.053
1690 0 68.1482 11.0201 751 117.202 798.162 471.133
1691 0 73.3418 11.9032 873 114.04 797.273 472.132
1692 0 73.171 14.1313 1034 112.038 798.542 470.7
1693 0 78.1815 14.3384 1121 113.12 796.879 469.391
1694 0 80.1268 10.6082 850 121.471 796.614 463.944
1695 1 46.2029 8.93884 413 115.676 798.484 485.588
1696 0 47.0369 12.352 581 111.766 796.79 483.088
1697 0 48.109 11.6195 559 114.159 797.859 480.329
1698 0 51.1558 14.6025 747 108.767 798.452 481.849
1699 0 49.2877 10.4894 517 121.669 797.383 476.636
1700 0 52.4598 11.6279 610 118.977 797.03 477.116
1701 0 50.2406 11.4847 577 123.239 796.678 471.808
1702 0 56.3947 15.3206 864 114.304 798.291 469.098
1703 0 58.3178 13.4436 784 117.679 798.128 467.649
1704 0 56.2303 11.1861 629 123.197 798.102 466.453
1705 0 58.0654 12.1243 704 119.915 795.993 469.732
1706 0 60.0788 12.2506 736 120.442 797.189 468.224
1707 0 64.0602 13.1127 840 118.856 797.549 465.788
1708 0 65.0386 14.207 924 117.5 798.399 464.601
1709 0 65.0386 14.1455 920 134.433 799.362 464.624
1710 0 69.1361 14.7246 1018 116.635 799.105 460.21
1711 0 71.2582 11.9285 850 121.156 800.172 465.466
1712 0 68.0886 11.1032 756 124.426 799.865 461.507
1713 0 75.093 13.8894 1043 118.723 801.798 461.795
1714 0 74.0764 17.023 1261 112.694 802.029 457.782
1715 0 78.0528 13.888 1084 116.773 803.28 459.65
1716 0 81.3398 13.4129 1091 117.303 803.646 456.699
1717 0 84.1613 12.8919 1085 119.263 803.403 458.777
1718 0 87.1578 15.0417 1311 115.732 803.533 456.998
1719 1 49.0248 11.4432 561 113.799 803.159 479.795
1720 0 49.0341 11.3594 557 116.928 803.921 479.068
1721 0 49.0496 12.0287 590 120.807 802.663 478.297
1722 0 51.1519 12.8832 659 117.513 804.267 480.231
1723 0 52.2856 12.2405 640 120.589 803.534 481.078
1724 0 57.2839 15.5366 890 113.339 803.776 482.69
1725 0 56.2163 14.711 827 116.983 803.446 479.424
1726 0 55.2421 10.1734 562 125.863 802.283 482.432
1727 0 63.2488 12.5378 793 119.799 802.531 480.351
1728 0 64.3405 13.0555 840 118.79 803.227 483.07
1729 0 63.181 10.3037 651 127.412 800.111 476.492
1730 0 66.1919 12.2069 808 123.042 799.686 478.502
1731 0 71.186 12.2777 874 122.801 798.37 476.958
1732 0 75.1793 13.6208 1024 119.886 798.449 473.64
1733 0 75.2375 11.9887 902 123.3 797.991 473.429
1734 0 77.4594 13.336 1033 122.243 797.921 467.61
1735 0 79.3289 13.7024 1087 121.727 796.874 471.399
1736 0 81.2663 13.7572 1118 123.104 797.23 464.3
1737 0 83.1799 14.679 1221 122.663 796.664 464.046
1738 0 85.1567 13.0818 1114 126.599 796.564 450.842
1739 0 89.1605 15.2646 1361 121.435 795.584 453.795
1740 0 90.2468 14.0504 1268 123.835 795.221 451.545
1741 1 52.0956 11.882 619 122.229 796.742 471.892
1742 0 52.1571 13.3826 698 118.63 794.053 471.335
1743 0 54.1003 12.9759 702 120.84 794.11 474.578
1744 0 51.0473 12.224 624 123.615 794.715 475.641
1745 0 55.0817 13.1804 726 121.416 794.864 473.253
1746 0 56.1926 11.9767 673 123.981 795.311 472.361
1747 0 60.178 12.3301 742 122.97 796.717 468.009
1748 0 60.1783 14.4072 867 118.291 796.381 466.549
1749 0 61.2564 12.4722 764 122.834 797.137 464.848
1750 0 67.0588 15.7325 1055 115.287 797.698 465.484
1751 0 65.4384 11.5834 758 125.071 800.799 460.239
1752 0 69.2222 15.1252 1047 118.15 800.52 459.897
1753 0 74.5362 12.6516 943 118.411 801.258 463.642
1754 0 73.1779 14.5809 1067 118.926 801.708 458.929
1755 0 73.2777 11.8726 870 124.721 801.064 455.659
1756 0 78.1707 13.8287 1081 119.704 802.636 457.701
1757 0 81.2394 14.2049 1154 119.253 802.298 454.954
1758 0 85.555 12.2728 1050 121.879 804.458 453.455
1759 0 85.555 12.3546 1057 153.488 806.465 453.522
1760 0 94.3381 16.4303 1550 114.047 804.41 452.939
1761 0 94.2801 13.7039 1292 118.771 804.717 453.76
1762 1 50.1439 8.59527 431 120.97 805.313 473.049
1763 0 55.213 9.11017 503 121.286 805.268 469.726
1764 0 56.1447 12.6281 709 114.158 803.791 468
1765 0 57.2798 12.2207 700 114.474 803.146 476.399
1766 0 62.163 10.8585 675 115.735 802.821 478.387
1767 0 58.1809 12.0314 700 116.534 802.529 478.724
1768 0 60.1365 10.7422 646 119.362 801.406 475.365
1769 0 65.0828 11.6467 758 115.58 801.409 478.394
1770 0 70.1432 15.9103 1116 108.73 801.217 476.255
1771 0 71.0898 11.6894 831 116.645 799.715 473.026
1772 0 72.1491 11.9613 863 116.455 799.166 473.098
1773 0 75.3223 14.1127 1063 111.626 796.957 473.18
1774 0 77.1602 13.0508 1007 114.542 797.585 472.132
1775 0 82.1993 14.0877 1158 111.973 796.826 471.588
1776 0 83.2515 12.5163 1042 115.415 796.052 466.656
1777 0 86.1819 12.346 1064 114.876 795.713 467.711
1778 1 46.3052 8.65993 401 117.16 795.382 484.262
1779 0 46.0734 8.09578 373 117.794 794.247 484.19
1780 0 48.0588 9.23868 444 117.099 793.477 482.725
1781 0 52.0551 11.3918 593 115.115 795.234 483.541
1782 0 56.1229 12.8468 721 111.928 795.416 481.165
1783 0 54.1049 12.8269 694 113.293 795.121 478.298
1784 0 55.1178 15.9295 878 108.702 796.366 479.277
1785 0 57.1004 10.4728 598 118.406 794.753 475.921
1786 0 59.2065 13.664 809 114.204 794.939 464.042
1787 0 60.1402 13.1858 793 114.274 795.637 469.837
1788 0 63.1761 15.623 987 110.298 795.931 467.296
1789 0 65.1693 12.0762 787 118.202 794.854 457.778
1790 0 67.2866 13.1378 884 115.571 796.618 459.109
1791 0 68.3771 12.4603 852 118.376 797.292 458.38
1792 0 72.264 14.7515 1066 113.645 797.572 456.33
1793 0 72.24 13.3167 962 116.254 798.159 458.775
1794 0 73.2307 13.0546 956 116.939 798.89 456.321
1795 0 77.2679 13.6279 1053 115.521 798.381 458.018
1796 0 80.3478 14.2008 1141 116.211 800.075 460.171
1797 0 83.3382 12.1193 1010 121.165 799.978 456.189
1798 0 85.2325 12.5304 1068 118.959 801.698 459.33
1799 0 91.3273 14.771 1349 116.4 801.935 440.698
1800 0 92.1436 13.0666 1204 121.32 802.212 441.604
1801 0 92.2168 15.3877 1419 118.498 802.84 443.352
1802 0 94.1371 12.503 1177 124.409 802.969 445.643
1803 0 97.1115 15.0137 1458 120.064 803.086 451.531
1804 0 100.236 13.4183 1345 122.831 803.203 448.077
1805 0 103.152 14.0085 1445 122.455 802.828 444.871
1806 0 107.173 13.2122 1416 124.518 802.743 450.155
1807 0 110.154 16.1864 1783 119.08 803.766 448.035
1808 0 113.216 13.7525 1557 123.355 801.029 444.876
1809 0 118.131 12.9178 1526 126.01 802.029 443.539
1810 0 123.115 14.3687 1769 122.944 801.494 445.061
1811 0 127.101 13.7843 1752 123.653 802.756 437.459
1812 0 130.203 12.3654 1610 125.836 801.379 437.871
1813 0 138.358 18.4449 2552 113.224 801.047 440.437
1814 0 145.191 17.7353 2575 115.383 800.76 432.166
1815 0 145.184 16.083 2335 119.037 799.018 432.309
1816 0 147.189 15.1167 2225 120.745 799.049 433.894
1817 0 154.333 16.3996 2531 117.968 798.539 433.728
1818 0 160.453 13.0631 2096 125.019 797.904 423.486
1819 0 168.434 16.2971 2745 117.757 796.709 420.072
1820 0 170.283 15.5154 2642 119.622 796.906 416.391
1821 0 180.456 15.9485 2878 117.685 797.525 415.536
1822 0 184.442 13.9556 2574 121.648 796.545 414.318
1823 0 190.632 15.0919 2877 118.814 796.389 418.48
1824 1 139.394 12.9059 1799 119.803 795.405 435.588
1825 0 144.252 12.9773 1872 118.989 794.168 425.476
1826 0 148.519 12.5573 1865 118.76 795.82 432.227
1827 0 153.408 12.4504 1910 119.483 795.799 423.566
1828 0 159.344 16.5553 2638 111.707 795.281 423.799
1829 0 162.307 11.5583 1876 121.024 795.628 414.557
1830 0 172.449 13.1749 2272 117.969 796.405 416.224
1831 0 177.51 19.0524 3382 108.966 796.599 414.504
1832 0 181.618 14.4204 2619 117.735 795.93 400.873
1833 0 189.658 14.1992 2693 117.133 796.375 404.226
1834 0 196.651 14.2079 2794 118.382 797.547 388.909
1835 0 201.399 12.7856 2575 120.432 797.638 395.09
1836 0 208.316 14.5596 3033 118.753 798.361 386.691
1837 1 52.0754 9.1982 479 106.599 798.154 468.658
1838 0 55.1838 14.1346 780 103.572 799.121 458.41
1839 0 57.0594 12.4432 710 111.787 798.696 463.79
1840 0 58.2612 9.85218 574 117.253 798.481 462.563
1841 0 62.0909 17.5066 1087 104.863 798.816 466.602
1842 0 61.1718 10.2498 627 118.096 799.778 465.719
1843 0 65.0483 12.1141 788 114.041 800.641 468.353
1844 0 67.2164 12.8243 862 112.052 802.3 467.173
1845 0 68.2884 13.6919 935 111.172 801.587 464.197
1846 0 72.3467 12.9239 935 112.449 803.835 467.007
1847 0 72.115 10.2198 737 118.157 802.512 465.104
1848 0 75.2199 12.7227 957 114.318 803.331 463.553
1849 1 40.0284 12.8159 513 106.671 802.988 486.251
1850 0 41.1673 10.178 419 112.141 803.84 484.105
1851 0 39.1492 5.67062 222 119.144 802.261 486.216
1852 0 42.4013 8.23089 349 113.559 802.08 482.622
1853 0 44.3224 9.74677 432 110.951 802.565 479.116
1854 0 44.248 10.9609 485 110.936 802.136 477.501
1855 0 47.2997 13.721 649 107.285 801.644 481.173
1856 0 51.0606 12.3187 629 108.428 800.995 488.447
1857 0 51.0466 12.8118 654 111.104 799.02 484.92
1858 0 55.115 13.2995 733 109.254 798.292 483.341
1859 0 58.0991 14.8883 865 105.837 797.547 484.232
1860 0 55.1042 10.9611 604 114.707 796.839 481.474
1861 0 57.2285 11.6026 664 112.38 796.825 485.188
1862 0 61.1279 13.8562 847 109.589 796.756 477.63
1863 0 61.059 8.13967 497 119.567 796.215 480.561
1864 0 63.0787 14.4423 911 108.939 795.177 478.371
1865 0 64.1018 11.6377 746 113.147 794.217 477.519
1866 0 67.2001 15.625 1050 106.641 795.34 474.41
1867 0 68.4093 10.7442 735 115.252 794.535 471.091
1868 0 69.2987 11.8617 822 112.069 794.252 469.693
1869 0 71.1475 11.0756 788 113.791 794.237 466.499
1870 0 74.2482 11.3538 843 115.064 794.967 464.972
1871 0 86.4973 24.521 2121 93.1447 793.832 441.683
1872 0 84.2354 14.3052 1205 106.911 794.085 440.493
1873 0 89.4109 24.9634 2232 92.7025 793.59 441.925
1874 0 88.4891 17.8779 1582 102.888 794.394 439.544
1875 0 90.4868 18.0579 1634 100.757 795.226 445.715
1876 0 92.3019 16.641 1536 103.377 794.76 437.117
1877 1 46.2435 10.0555 465 110.669 796.116 463.131
1878 0 49.2042 8.00745 394 110.84 797.569 471.84
1879 0 50.2157 12.5857 632 107.5 797.066 466.565
1880 0 51.0988 10.8809 556 109.344 797.82 468.892
1881 0 54.2027 11.0511 599 108.681 799.332 465.279
1882 0 54.1064 10.5718 572 110.124 800.734 467.659
1883 0 60.1902 12.4107 747 105.618 801.001 465.853
1884 0 60.1786 12.8451 773 107.298 801.686 464.529
1885 0 59.246 11.1738 662 110.888 801.264 465.208
1886 0 62.1529 12.6945 789 108.838 801.684 464.686
1887 0 62.1709 11.3558 706 112.095 803.067 462.395
1888 0 66.2328 8.77209 581 115.373 802.878 463.145
1889 0 67.3576 11.2237 756 113.037 804.11 463.434
1890 0 67.3576 11.2979 761 136.855 805.113 463.405
1891 0 72.2207 9.24942 668 119.19 803.509 460.704
1892 0 75.1506 15.0365 1130 109.624 802.553 462.358
1893 0 79.1338 15.101 1195 109.331 802.92 463.264
1894 0 80.3781 14.183 1140 111.946 802.355 461.261
1895 0 80.1539 12.2514 982 116.569 801.631 462.292
1896 0 86.1844 12.7981 1103 115.959 802.418 462.727
1897 0 87.3105 12.3467 1078 118.076 802.338 463.745
1898 0 95.2878 16.5394 1576 109.924 801.541 464.912
1899 0 98.4794 15.2519 1502 110.007 801.903 469.281
1900 1 53.3587 13.5498 723 109.328 801.454 485.436
1901 0 57.3634 11.4707 658 114.236 800.302 485.477
1902 0 58.1124 13.2846 772 112.295 800.745 482.609
1903 0 60.2292 13.3656 805 112.432 799.406 483.152
1904 0 59.2418 13.9091 824 112.559 797.438 477.835
1905 0 60.1918 10.4001 626 118.882 795.928 475.746
1906 0 64.2096 13.7674 884 112.516 796.11 473.353
1907 0 64.0979 9.36068 600 120.16 795.527 474.862
1908 0 65.1838 10.8463 707 118.32 795.223 472.091
1909 0 65.1482 12.1262 790 117.429 793.685 465.149
1910 0 69.1182 12.5727 869 115.9 794.962 466.007
1911 0 71.1404 13.5085 961 114.6 794.492 466.409
1912 0 70.2083 11.3234 795 119.953 794.567 461.265
1913 0 75.2035 12.034 905 117.797 793.359 465.337
1914 0 79.2189 15.3246 1214 111.068 794.182 461.774
1915 0 81.2434 13.3672 1086 114.069 794.54 460.684
1916 0 84.19 12.4599 1049 116.237 795.083 456.558
1917 0 85.1493 12.2491 1043 117.226 795.115 456.46
1918 0 87.2161 14.9628 1305 112.497 795.414 452.838
1919 0 92.183 14.8617 1370 112.347 795.63 451.442
1920 0 96.519 15.2094 1468 114.303 795.676 452.754
1921 1 53.1191 12.1802 647 113.281 796.561 475.821
1922 0 54.378 12.3763 673 115.128 798.987 470.383
1923 0 56.1642 11.1281 625 117.134 798.597 469.763
1924 0 57.264 12.1542 696 115.122 800.448 470.986
1925 0 60.2171 13.1192 790 112.409 800.98 467.576
1926 0 58.306 11.6798 681 118.73 800.493 461.621
1927 0 60.3126 12.9824 783 141.424 801.331 459.711
1928 0 60.3069 12.3866 747 142.491 802.419 460.388
1929 0 66.4559 12.5798 836 116.975 802.39 462.042
1930 0 68.3383 12.8332 877 117.648 803.268 459.888
1931 0 73.2246 17.1937 1259 109.353 803.297 460.232
1932 0 76.4927 15.8839 1215 110.875 804.879 461.898
1933 0 77.4623 14.123 1094 115.136 804.283 458.855
1934 0 78.1606 16.2742 1272 112.055 804.153 458.91
1935 0 79.3331 12.3152 977 119.668 804.05 458.869
1936 0 83.3002 13.0612 1088 118.478 803.256 446.78
1937 0 89.0747 17.0756 1521 110.844 804.27 450.547
1938 0 90.1702 15.2822 1378 116.104 804.557 444.39
1939 0 92.3119 13.7902 1273 117.971 804.613 426.101
1940 0 94.1819 13.9942 1318 118.614 802.699 427.741
1941 1 57.1785 11.1056 635 121.828 803.446 446.972
1942 0 58.0732 12.6564 735 118.241 804.201 448.048
1943 0 58.1091 11.444 665 121.6 802.838 450.565
1944 0 60.1729 11.9821 721 119.183 800.406 459.537
1945 0 64.2382 13.4655 865 117.512 798.892 456.225
1946 0 65.3835 13.0002 850 118.807 797.751 452.491
1947 0 68.2999 13.6896 935 117.125 797.629 453.097
1948 0 69.3632 13.35 926 115.84 795.726 455.999
1949 0 69.377 13.3474 926 144.562 793.693 456.106
1950 0 72.1483 13.2644 957 117.734 796.813 446.139
1951 0 77.172 16.5345 1276 111.705 795.995 443.868
1952 0 81.2081 13.1883 1071 116.12 795.464 448.584
1953 0 81.2081 13.2007 1072 142.196 795.486 448.587
1954 0 83.3624 12.9675 1081 116.724 793.651 445.008
1955 0 86.2261 13.6386 1176 114.044 795.042 444.81
1956 0 88.1452 11.6626 1028 116.819 794.725 441.863
1957 0 93.2545 17.6935 1650 108.021 794.551 439.427
1958 0 95.196 18.6878 1779 104.915 795.088 440.667
1959 1 53.0638 11.6087 616 112.37 794.138 456.044
1960 0 55.0839 12.6897 699 110.099 795.898 458.594
1961 0 56.1546 13.7656 773 108.931 795.957 460.11
1962 0 55.2407 10.6262 587 112.012 797.211 464.472
1963 0 58.1683 14.2689 830 106.12 797.861 468.667
1964 0 61.1761 11.5404 706 110.356 797.222 466.306
1965 0 59.1486 10.5835 626 114.216 798.391 463.829
1966 0 65.2029 13.5577 884 109.411 798.84 462.419
1967 0 65.2614 11.9979 783 113.576 799.553 459.724
1968 0 69.1571 15.66 1083 109.975 799.185 462.693
1969 0 71.1536 13.4357 956 112.475 799.427 463.368
1970 0 75.2639 10.8684 818 117.326 801.282 460.551
1971 0 71.0659 11.229 798 116.766 801.439 452.851
1972 0 77.1811 16.688 1288 106.734 801.822 456.852
1973 0 80.2079 17.2178 1381 105.474 801.888 456.968
1974 0 82.1124 13.7251 1127 112.902 801.057 458.165
1975 0 87.0952 13.5599 1181 112.245 802.592 456.572
1976 0 87.2546 12.5953 1099 114.241 803.427 452.858
1977 0 93.2003 13.1437 1225 111.669 803.506 456.837
1978 0 93.2003 13.2832 1238 135.803 803.524 457.056
1979 0 98.4721 16.2483 1600 105.29 802.96 457.011
1980 1 58.0336 13.406 778 105.618 801.834 478.134
1981 0 57.223 9.31443 533 109.805 801.732 478.325
1982 0 57.223 9.36686 536 138.388 800.771 478.465
1983 0 61.2366 12.5579 769 108.148 801.153 466.087
1984 0 62.1831 11.4018 709 110.846 801.865 465.983
1985 0 65.0782 12.4619 811 106.762 800.984 470.497
1986 0 65.1146 11.5028 749 110.159 801.176 467.611
1987 0 70.1862 12.5666 882 107.399 798.159 467.937
1988 0 72.1114 13.077 943 105.405 799.19 473.825
1989 0 76.1027 17.8312 1357 99.2439 796.968 474.472
1990 0 75.3296 10.3678 781 112.977 798.421 465.248
1991 0 82.4254 10.7006 882 110.332 797.42 467.136
1992 0 81.1977 11.8353 961 111.946 797.396 460.598
1993 0 88.3146 15.0372 1328 106.395 796.144 448.789
1994 0 88.217 10.9049 962 114.095 797.08 447.557
1995 0 95.2003 12.1428 1156 111.556 795.715 450.114
1996 0 93.2137 13.5281 1261 110.562 795.156 445.887
1997 0 93.2137 13.453 1254 130.287 795.143 445.821
1998 0 97.3508 14.8227 1443 107.805 795.392 455.089
1999 0 101.314 15.1114 1531 108.114 794.627 446.696
2000 0 105.245 15.6587 1648 106.625 794.616 448.999
2001 0 106.296 11.9948 1275 112.808 795.66 442.231
2002 0 107.353 13.3298 1431 110.605 795.277 444.407
2003 0 113.409 11.5863 1314 113.537 795.873 432.422
2004 0 118.255 15.3736 1818 108.134 797.056 438.444
2005 1 64.1992 15.8257 1016 101.685 796.47 468.586
2006 0 65.0954 11.1529 726 109.967 796.725 462.175
2007 0 67.3768 14.2334 959 105.371 797.752 461.387
2008 0 69.16 12.2036 844 108.383 797.59 460.083
2009 0 75.2956 15.2731 1150 101.824 798.084 461.582
2010 0 79.2547 13.198 1046 110.634 800.805 457.386
2011 0 80.0795 14.4356 1156 109.516 801.338 454.88
2012 0 83.063 14.5673 1210 109.862 802.737 455.573
2013 0 87.2552 14.4289 1259 109.42 802.412 454.114
2014 0 89.2586 15.1806 1355 109.677 803.364 453.033
2015 0 89.3233 15.0913 1348 111.127 802.941 450.349
2016 0 96.3546 15.4326 1487 108.74 804.128 456.478
2017 0 95.4613 12.8638 1228 115.522 803.258 452.046
2018 0 98.2517 17.903 1759 107.12 803.295 455.296
2019 0 102.439 15.4531 1583 110.924 805.38 452.61
2020 0 105.511 15.9794 1686 110.478 803.872 452.001
2021 0 109.393 16.9663 1856 110.223 804.879 449.256
2022 1 60.3276 10.7911 651 116.111 803.415 472.301
2023 0 61.2544 10.0401 615 116.841 802.132 473.893
2024 0 65.3931 12.2031 798 113.722 801.733 473.926
2025 0 69.1752 13.2996 920 110.339 802.177 476.036
2026 0 69.2578 12.4174 860 110.791 801.637 471.859
2027 0 75.206 13.7622 1035 107.324 800.301 472.397
2028 0 76.1771 15.2933 1165 106.839 801.596 471.903
2029 0 78.1722 12.3957 969 112.279 801.085 469.031
2030 0 84.3503 11.144 940 113.886 799.691 466.4
2031 0 84.2467 13.8166 1164 111.985 799.922 464.503
2032 0 87.1848 12.4563 1086 114.869 798.562 463.088
2033 0 89.1739 9.902 883 118.658 797.973 463.569
2034 0 94.1179 12.2931 1157 114.442 797.757 463.615
2035 0 94.1649 9.84443 927 120.358 795.927 456.963
2036 1 53.03 11.5972 615 111.207 796.639 481.62
2037 0 54.1572 7.73673 419 116.883 796.721 480.458
2038 0 58.1246 11.613 675 107.375 795.185 471.855
2039 0 56.1419 11.3997 640 109.828 795.486 474.266
2040 0 60.2391 15.5713 938 102.997 794.481 468.341
2041 0 62.1697 12.3533 768 107.63 795.68 470.358
2042 0 64.3555 14.3267 922 105.489 794.107 466.691
2043 0 65.2964 12.4509 813 109.765 794.379 465.475
2044 0 65.2964 12.4509 813 139.002 794.373 465.558
2045 0 67.2961 8.54432 575 114.49 795.097 466.96
2046 0 71.1878 13.9631 994 106.793 795.15 461.919
2047 0 75.2179 12.1115 911 109.659 795.729 459.835
2048 0 74.2123 12.4103 921 110.514 796.496 453.79
2049 0 78.3371 10.8122 847 112.298 797.018 452.645
2050 0 76.0812 15.3126 1165 106.815 797.29 450.907
2051 0 82.332 13.0326 1073 109.336 797.889 452.266
2052 0 86.4139 15.4952 1339 106.058 798.479 448.066
2053 0 87.259 17.7747 1551 102.707 798.172 452.057
2054 0 90.2665 11.3996 1029 113.47 798.346 441.649
2055 0 94.1617 15.2291 1434 105.656 801.116 451.075
2056 0 96.1632 12.1772 1171 112.202 800.904 445.025
2057 0 101.371 15.8329 1605 106.5 802.257 451.93
2058 1 55.1216 9.14342 504 112.232 800.869 470.077
2059 0 60.1254 10.4781 630 107.186 800.775 467.902
2060 0 58.1791 10.5021 611 109.712 801.561 464.889
2061 0 63.0219 13.0431 822 108.589 800.854 468.204
2062 0 64.0782 15.0441 964 105.34 800.808 470.955
2063 0 67.1178 10.4145 699 112.202 800.602 471.381
2064 0 69.0742 14.6364 1011 106.575 800.996 469.216
2065 0 68.0879 12.2195 832 110.299 800.09 470.252
2066 0 74.0512 12.5994 933 108.796 801.029 471.312
2067 0 73.023 10.6816 780 112.577 799.436 471.151
2068 0 78.1154 11.0222 861 111.771 800.308 470.928
2069 0 80.1449 12.2403 981 110.809 800.11 467.98
2070 0 82.1122 12.4464 1022 111.076 799.651 463.92
2071 0 87.0994 14.4088 1255 107.973 798.849 465.105
2072 0 92.0867 14.28 1315 107.457 797.234 459.598
2073 0 94.2972 13.6908 1291 108.394 796.92 454.208
2074 0 99.1882 14.7699 1465 106.58 796.611 450.717
2075 0 100.108 11.7773 1179 112.101 795.767 454.395
2076 1 49.1364 9.23958 454 114.441 794.577 475.54
2077 0 53.0912 9.5496 507 113.333 793.807 455.988
2078 0 56.057 10.5607 592 111.319 791.978 462.196
2079 0 57.4374 12.5702 722 108.896 795.838 465.114
2080 0 57.2215 10.2234 585 111.032 794.921 469.786
2081 0 63.3158 13.5669 859 106.841 794.719 460.596
2082 0 63.187 13.5471 856 106.537 794.889 464.026
2083 0 67.4357 13.5388 913 106.642 794.996 464.202
2084 0 68.3304 16.9617 1159 102.253 793.926 460.824
2085 0 70.5528 18.3692 1296 100.009 794.257 460.855
2086 0 67.3437 11.419 769 111.618 794.798 459.269
2087 0 72.3197 9.8037 709 111.903 794.783 457.965
2088 0 73.2911 13.6169 998 106.985 795.497 459.801
2089 0 75.1993 13.5507 1019 108.35 794.846 450.498
2090 0 85.196 15.5524 1325 102.591 795.376 454.385
2091 0 78.2357 12.0661 944 109.81 796.463 451.578
2092 0 81.2225 13.5184 1098 107.123 798.208 458.251
2093 0 81.2225 13.5061 1097 130.392 799.207 458.088
2094 0 87.2151 13.3004 1160 108.942 796.597 448.575
2095 0 95.2559 17.6997 1686 101.445 799.824 447.712
2096 0 95.2214 12.2451 1166 109.232 799.087 450.732
2097 0 99.2213 14.261 1415 106.225 801.08 448.745
2098 0 103.403 17.0594 1764 102.165 799.891 446.91
2099 1 57.3109 11.5161 660 106.6 799.988 468.906
2100 0 56.2795 9.41728 530 111.425 801.394 464.155
2101 0 62.1656 10.0699 626 105.273 802.161 465.968
2102 0 63.1941 11.077 700 103.65 801.699 467.61
2103 0 66.144 11.2331 743 103.114 802.489 466.026
2104 0 63.1031 10.4115 657 106.98 802.977 458.881
2105 0 67.2877 9.83835 662 106.585 802.015 462.536
2106 0 74.1737 12.5651 932 102.714 803.162 464.17
2107 0 75.4013 10.9282 824 105.508 801.558 461.903
2108 0 76.2318 20.2671 1545 94.5955 800.894 461.887
2109 0 77.1644 11.9485 922 105.551 801.423 463.352
2110 0 82.1865 12.423 1021 105.698 801.168 462.722
2111 0 86.3235 12.8123 1106 105.185 802.392 464.273
2112 0 90.1655 12.3107 1110 106.207 800.911 460.315
2113 0 96.2854 13.1796 1269 105.458 800.763 457.351
2114 0 99.232 14.5215 1441 102.978 799.04 462.22
2115 0 103.13 13.546 1397 105.768 798.562 455.853
2116 0 103.216 13.4088 1384 107.535 798.253 451.605
2117 0 111.293 15.7243 1750 103.825 796.419 447.138
2118 0 113.213 15.7137 1779 103.564 796.616 443.909
2119 1 60.1858 13.4085 807 102.159 795.269 473.496
2120 0 61.2225 14.9945 918 101.78 795.939 471.704
2121 0 59.3354 7.65142 454 113.628 794.914 471.236
2122 0 64.175 10.3623 665 109.385 795.325 470.298
2123 0 68.3627 14.0574 961 103.763 794.953 467.988
2124 0 68.2451 11.2975 771 108.246 793.661 466.748
2125 0 70.1611 13.1697 924 105.012 793.93 468.268
2126 0 70.1555 14.4393 1013 104.543 794.466 464.515
2127 0 77.1918 14.2891 1103 104.598 793.014 461.459
2128 0 77.2033 12.4865 964 106.762 794.644 462.23
2129 0 80.1584 12.0761 968 106.691 794.856 465.271
2130 0 79.2322 9.7309 771 113.72 793.581 452.422
2131 0 86.2196 14.2195 1226 105.256 794.412 457.188
2132 0 86.0975 17.0156 1465 103.398 794.966 452.849
2133 0 92.204 13.763 1269 106.505 795.504 453.219
2134 0 95.2388 12.8624 1225 111.046 795.237 453.478
2135 0 96.2441 14.8269 1427 108.706 795.783 450.841
2136 0 103.104 16.5756 1709 105.926 796.021 449.989
2137 0 102.326 14.62 1496 110.21 796.755 446.488
2138 0 105.155 15.4534 1625 109.748 797.612 442.16
2139 0 110.281 15.3335 1691 108.901 798.779 447.768
2140 0 110.235 12.1377 1338 115.085 800.034 442.939
2141 0 118.295 14.5484 1721 110.03 801.216 441.234
2142 1 62.1784 12.2711 763 110.09 800.649 467.21
2143 0 67.3907 10.7285 723 109.3 799.939 469.848
2144 0 65.151 11.6959 762 108.491 800.665 460.362
2145 0 67.1625 9.46957 636 110.332 803.022 460.893
2146 0 71.2598 11.5353 822 108.236 802.173 455.783
2147 0 72.1252 12.2149 881 106.798 803.859 456.762
2148 0 74.2581 13.8571 1029 103.059 802.987 463.268
2149 0 80.1641 12.7863 1025 104.313 803.76 463.455
2150 0 80.2358 13.398 1075 104.179 804.294 463.756
2151 0 82.1973 11.3142 930 110.218 803.369 459.932
2152 0 85.1887 12.2786 1046 111.773 803.053 461.083
2153 0 87.3042 15.9099 1389 106.158 801.571 460.486
2154 0 87.3042 15.9099 1389 115.366 799.571 460.486
2155 0 97.2178 13.6395 1326 109.323 800.657 464.326
2156 0 101.251 17.432 1765 104.566 800.482 462.455
2157 0 100.372 10.8097 1085 114.996 799.469 456.701
2158 0 107.416 12.9869 1395 111.092 798.034 455.532
2159 0 112.364 15.5388 1746 106.635 798.058 451.65
2160 0 117.416 13.4905 1584 108.612 797.249 451.235
2161 0 118.28 11.8448 1401 110.664 796.598 444.382
2162 0 125.348 13.3468 1673 108.292 795.956 446.452
2163 0 129.388 13.4789 1744 106.92 794.769 440.417
2164 0 130.337 13.4267 1750 106.572 795.745 439.184
2165 0 135.385 12.6824 1717 109.023 793.967 431.913
2166 0 138.488 12.0155 1664 112.285 794.792 432.906
2167 1 76.0704 11.9626 910 109.603 793.02 464.442
2168 0 81.1537 15.3413 1245 103.721 793.96 466.452
2169 0 83.228 13.9256 1159 106.551 792.847 462.372
2170 0 84.3267 12.7599 1076 109.862 793.136 463.861
2171 0 84.1997 10.8433 913 113.613 793.64 460.691
2172 0 87.0797 12.4484 1084 111.732 793.42 457.875
2173 0 93.1908 15.699 1463 105.828 794.228 456.554
2174 0 94.145 15.4124 1451 107.33 793.994 452.738
2175 0 97.142 15.6163 1517 107.272 795.423 454.324
2176 0 100.171 14.5951 1462 109.064 795.594 449.174
2177 0 97.2052 15.6473 1521 107.437 795.474 454.842
2178 0 102.212 12.6698 1295 112.198 797.568 452.247
2179 0 106.357 15.2599 1623 108.478 797.449 445.858
2180 0 110.196 16.3074 1797 106.348 798.019 441.915
2181 0 113.313 15.594 1767 107.442 799.805 445.492
2182 0 115.214 13.2449 1526 111.626 799.585 443.328
2183 0 119.197 13.3644 1593 113.087 800.224 438.875
2184 0 125.234 15.0279 1882 109.67 800.171 438.916
2185 0 128.348 14.4996 1861 112.111 800.996 433.023
2186 0 137.447 11.9755 1646 115.894 801.53 434.284
2187 0 136.323 15.1772 2069 110.478 801.861 434.812
2188 0 145.653 14.9121 2172 111.767 802.5 423.411
2189 0 154.344 13.295 2052 113.828 803.562 426.223
2190 1 85.3288 12.9382 1104 110.982 804.02 461.537
2191 0 90.4255 14.0447 1270 110.409 803.008 450.638
2192 0 91.224 14.4041 1314 111.725 802.628 450.75
2193 0 97.2884 14.6061 1421 110.872 803.411 455.076
2194 0 100.655 17.7935 1791 107.443 803.187 454.009
2195 0 100.276 13.1936 1323 115.106 801.847 457.074
2196 0 105.465 15.8726 1674 110.357 801.574 459.386
2197 0 108.33 19.5329 2116 105.74 801.05 464.51
2198 0 111.402 14.2906 1592 115.723 802.472 457.048
2199 0 116.466 12.2955 1432 119.935 800.904 443.652
2200 1 62.0825 10.8887 676 116.964 798.852 481.621
2201 0 68.2657 11.9826 818 113.995 799.924 481.659
2202 0 68.3053 16.0163 1094 108.652 796.904 477.978
2203 0 71.0784 11.6491 828 115.575 798.086 472.312
2204 0 74.0601 13.4485 996 111.943 797.044 473.765
2205 0 69.1235 10.7923 746 119.745 796.123 466.004
2206 0 69.1235 11.5301 797 122.592 796.134 467.108
2207 1 82.2628 14.7941 1217 112.817 796.211 467.762
2208 0 83.2406 13.6352 1135 115.188 795.356 467.023
2209 0 86.1656 11.5127 992 119.554 795.028 467.099
2210 0 88.347 13.6281 1204 116.819 794.811 463.478
2211 0 91.2816 13.19 1204 118.521 794.414 460.654
2212 0 92.2843 13.285 1226 119.288 796.007 457.52
2213 0 99.2858 15.6115 1550 113.888 794.913 458.345
2214 0 99.2468 14.338 1423 117.616 794.842 454.078
2215 0 99.2021 12.3183 1222 122.471 794.615 452.615
2216 0 104.189 15.4238 1607 118.136 794.94 449.151
2217 0 106.112 13.382 1420 121.192 794.642 451.127
2218 0 109.08 12.8713 1404 121.917 794.954 450.514
2219 0 114.105 13.5227 1543 120.333 795.415 447.961
2220 0 113.124 14.0289 1587 119.908 795.665 443.141
2221 0 122.13 14.6156 1785 117.336 796.813 440.631
2222 0 125.289 16.5298 2071 114.185 796.713 435.296
2223 1 68.126 12.2127 832 117.153 796.535 463.481
2224 0 71.2213 9.22477 657 122.105 797.065 461.192
2225 0 73.2133 12.607 923 112.534 799.958 461.962
2226 0 75.1051 14.4997 1089 112.262 800.503 457.636
2227 0 77.0945 11.1551 860 114.756 799.995 462.317
2228 0 80.1057 12.8705 1031 113.361 799.673 455.243
2229 0 82.1533 14.5095 1192 110.318 802.632 452.374
2230 0 86.1538 14.033 1209 109.701 801.266 458.736
2231 0 87.1473 12.8403 1119 113.348 803.43 452.719
2232 0 93.1405 14.4728 1348 108.985 803.519 456.772
2233 0 96.1411 12.7001 1221 113.208 803.299 447.647
2234 0 96.2411 10.9101 1050 117.151 802.905 445.408
2235 0 99.3519 11.9072 1183 115.422 803.865 446.077
2236 0 102.124 10.9769 1121 114.745 802.247 453.919
2237 0 108.234 11.4751 1242 114.647 802.366 446.205
2238 1 58.2514 8.42898 491 109.619 800.699 479.397
2239 0 62.174 11.0657 688 107.198 801.728 475.503
2240 0 62.2586 10.6009 660 109.576 801.452 473.879
2241 0 67.1469 9.8143 659 110.176 801.476 470.722
2242 0 67.2412 10.4698 704 109.724 798.463 473.903
2243 0 71.1335 11.612 826 108.088 799.065 472.776
2244 0 77.1914 14.4964 1119 103.668 797.105 474.895
2245 0 75.2342 10.0353 755 112.903 797.262 465.575
2246 0 81.1633 12.9122 1048 109.307 796.338 466.218
2247 0 83.2374 10.464 871 112.896 795.751 469.308
2248 0 85.1707 16.1088 1372 108.179 794.83 463.331
2249 0 85.2019 11.373 969 116.503 794.053 462.289
2250 0 90.2696 14.6339 1321 109.825 793.859 463.913
2251 0 95.228 15.5521 1481 108.481 794.992 462.289
2252 0 94.1907 12.5702 1184 115.113 793.941 456.965
2253 0 96.2101 11.9842 1153 115.069 795.12 456.302
2254 0 100.246 13.6863 1372 112.711 794.743 453.729
2255 0 102.135 12.0527 1231 116.248 793.665 451.272
2256 0 103.36 11.9001 1230 116.593 795.299 452.948
2257 0 107.201 12.1267 1300 117.592 795.935 445.025
2258 0 112.212 12.7704 1433 116.716 796.314 445.279
2259 0 116.273 12.7974 1488 117.442 797.239 441.191
2260 0 118.319 12.7029 1503 116.48 796.367 442.773
2261 0 120.235 13.3821 1609 117.799 797.75 432.912
2262 1 68.1517 9.2294 629 115.588 797.102 464.196
2263 0 71.1253 7.88748 561 117.569 798.25 460.168
2264 0 74.3273 13.6827 1017 110.906 798.248 455.4
2265 0 75.2006 10.6116 798 116.504 797.148 454.909
2266 0 80.2516 12.8471 1031 111.487 799.754 457.177
2267 0 83.3167 12.0864 1007 113.322 800.097 457.779
2268 0 84.3591 13.6559 1152 111.98 799.602 453.857
2269 0 91.4309 13.2559 1212 110.625 801.665 456.183
2270 0 91.219 13.3415 1217 111.251 802.007 452.832
2271 0 94.3264 13.4851 1272 110.726 802.078 446.121
2272 0 96.5035 14.5798 1407 108.228 803.865 449.455
2273 0 98.3183 18.3486 1804 103.46 803.189 446.217
2274 0 102.34 13.1132 1342 110.675 802.557 441.48
2275 0 109.428 16.8787 1847 103.984 803.632 444.316
2276 1 59.1606 10.9025 645 108.647 802.186 467.332
2277 0 58.0639 11.1773 649 108.773 802.109 467.801
2278 0 63.035 14.1033 889 106.287 802.241 477.751
2279 0 64.067 12.0031 769 111.165 800.932 472.925
2280 0 68.2805 15.5974 1065 104.578 801.86 475.715
2281 0 71.0894 15.0374 1069 105.177 799.744 470.32
2282 0 71.126 13.9752 994 106.869 799.942 473.415
2283 0 79.169 13.1491 1041 106.739 799.539 475.138
2284 0 78.0446 13.1976 1030 108.05 799.46 471.118
2285 0 82.1888 14.345 1179 106.375 797.603 473.343
2286 0 82.1888 14.418 1185 131.918 795.609 473.332
2287 0 86.1854 14.1207 1217 105.722 796.046 473.592
2288 0 89.1536 11.7101 1044 110.789 796.407 469.341
2289 0 93.1703 14.715 1371 107.772 794.292 461.08
2290 0 97.2807 15.7894 1536 105.559 794.999 462.9
2291 0 99.2235 12.4466 1235 111.076 793.249 458.346
2292 0 102.12 19.007 1941 101.402 793.018 452.503
2293 0 105.113 13.3951 1408 108.865 793.251 453.614
2294 0 103.139 11.1403 1149 112.569 793.654 455.899
2295 0 110.484 11.0151 1217 112.852 791.535 449.857
2296 0 116.129 14.1998 1649 110.363 792.247 447.052
2297 1 66.0652 11.6551 770 110.117 792.603 470.994
2298 0 66.0969 12.2547 810 107.43 794.353 465.111
2299 0 67.2385 8.93833 601 111.892 793.799 463.789
2300 0 70.1966 16.5393 1161 102.07 794.369 460.693
2301 0 70.2402 9.88039 694 112.274 794.772 460.367
2302 0 75.1676 13.3302 1002 107.337 794.634 455.349
2303 0 78.3134 11.6455 912 110.727 795.045 454.073
2304 0 79.1146 13.6258 1078 107.809 796.588 452.756
2305 0 80.3187 13.4713 1082 108.627 796.041 450.852
2306 0 85.1587 12.0716 1028 109.732 797.866 450.778
2307 0 86.3604 16.9985 1468 102.721 797.172 450.276
2308 0 89.5101 12.2668 1098 109.923 799.697 449.454
2309 0 89.2235 11.2751 1006 113.018 798.388 447.998
2310 0 95.2028 15.5983 1485 106.528 800.44 445.625
2311 0 97.1392 13.8152 1342 110.211 800.711 444.595
2312 0 103.49 14.6198 1513 108.547 801.252 449.736
2313 0 110.191 14.375 1584 109.147 802.513 448.549
2314 1 59.0342 11.2138 662 111.16 804.876 468.748
2315 0 59.3305 12.8602 763 110.007 802.664 467.748
2316 0 60.2371 10.8737 655 110.745 804.292 463.878
2317 0 65.2538 10.2523 669 109.933 802.583 467.45
2318 0 64.2297 12.8134 823 108.574 803.575 467.351
2319 0 66.0773 10.2758 679 111.789 803.193 470.919
2320 0 69.2419 13.4601 932 109.221 802.546 468.951
2321 0 69.1013 11.2444 777 113.55 801.396 470.907
2322 0 74.1533 12.4607 924 114.594 801.45 471.786
2323 0 76.2627 12.8897 983 114.7 801.325 470.671
2324 0 79.2836 12.8904 1022 115.405 800.25 470.256
2325 0 81.1809 14.0674 1142 114.221 799.551 468.84
2326 0 85.0726 13.7295 1168 115.818 799.133 468.973
2327 0 87.2914 12.2578 1070 118.332 798.382 468.175
2328 0 91.2872 15.5882 1423 112.859 797.727 466.009
2329 0 93.1954 17.1682 1600 110.774 796.901 466.843
2330 0 93.376 14.3827 1343 117.319 795.818 456.612
2331 0 99.1878 15.3043 1518 113.215 795.71 466.935
2332 0 100.393 16.7541 1682 113.376 795.062 460.237
2333 0 103.16 13.3676 1379 118.385 795.33 461.929
2334 0 105.346 16.0993 1696 115.73 793.946 449.292
2335 0 107.139 15.8206 1695 116.846 794.39 449.168
2336 0 111.335 17.4428 1942 113.64 793.568 452.157
2337 0 115.344 15.172 1750 117.402 794.775 446.492
2338 0 121.447 15.1754 1843 115.731 794.317 447.22
2339 0 121.229 14.1797 1719 119.616 793.889 438.931
2340 0 125.468 13.1109 1645 121.342 793.924 435.246
2341 1 75.2323 12.2022 918 116.475 795.035 465.929
2342 0 76.2299 18.2212 1389 107.189 795.428 459.199
2343 0 77.3197 13.3601 1033 115.484 795.553 454.464
2344 0 79.1477 14.9088 1180 113.608 796.313 456.073
2345 0 81.2213 15.3039 1243 113.196 796.163 454.077
2346 0 85.24 14.0662 1199 114.97 797.514 452.666
2347 0 87.1547 14.0555 1225 116.651 796.669 452.61
2348 0 90.1344 12.5257 1129 118.87 798.441 452.848
2349 0 91.1351 12.7174 1159 148.102 800.455 452.182
2350 0 94.1495 13.914 1310 118.008 799.949 448.486
2351 0 96.1792 14.5458 1399 117.221 799.796 448.448
2352 0 101.152 15.3334 1551 115.661 800.995 448.482
2353 0 102.324 13.6331 1395 118.91 801.123 446.272
2354 0 106.264 17.1836 1826 114.006 801.816 437.78
2355 1 54.1399 11.304 612 121.011 801.52 463.539
2356 0 61.1421 11.9885 733 117.827 801.894 465.696
2357 0 63.1701 11.3186 715 119.636 801.964 464.751
2358 0 63.2502 15.6679 991 114.113 802.977 462.989
2359 0 68.2438 12.3674 844 118.469 802.564 465.386
2360 0 75.1587 14.7155 1106 112.456 803.518 469.492
2361 0 72.2307 12.3632 893 120.265 802.778 465.363
2362 0 73.1679 10.9748 803 123.869 803.872 465.604
2363 0 76.1943 11.9956 914 121.952 801.31 467.068
2364 0 79.1368 12.5732 995 123.364 802.337 461.8
2365 0 84.1455 15.3306 1290 117.793 801.503 463.426
2366 0 86.2996 14.6466 1264 120.265 800.182 466.548
2367 0 90.1635 14.9617 1349 119.485 799.632 462.076
2368 0 92.428 12.9182 1194 123.356 800.285 463.804
2369 0 97.342 14.7521 1436 119.56 798.55 457.993
2370 0 101.194 15.0601 1524 118.668 796.98 461.989
2371 0 104.579 12.9089 1350 123.116 796.796 460.524
2372 0 108.179 16.4264 1777 116.062 795.325 457.972
2373 0 115.419 16.2712 1878 115.757 795.808 454.081
2374 0 116.356 16.1487 1879 115.327 794.265 458.769
2375 0 121.365 15.8778 1927 116.622 794.412 454.482
2376 0 119.192 13.9774 1666 119.414 793.758 450.339
2377 0 130.379 15.1174 1971 115.215 793.647 453.229
2378 1 72.2105 12.8929 931 115.624 793.115 476.976
2379 0 74.1981 14.5421 1079 113.232 792.462 473.14
2380 0 73.1137 11.5163 842 122.391 792.956 464.656
2381 0 77.0412 11.708 902 120.024 793.398 466.236
2382 0 81.2128 14.7391 1197 114.683 793.5 465.616
2383 0 83.1097 14.7516 1226 115.726 792.431 460.946
2384 0 85.0968 14.2309 1211 116.204 793.157 461.768
2385 0 86.1492 14.9624 1289 115.449 794.517 459.262
2386 0 90.1566 15.6506 1411 115.135 794.163 456.473
2387 0 90.1761 16.4789 1486 113.902 795.13 456.727
2388 0 90.1761 16.6009 1497 139.142 796.114 456.904
2389 0 93.1624 12.4621 1161 121.837 795.767 450.916
2390 0 100.262 13.4249 1346 120.46 796.986 445.643
2391 0 100.268 14.2219 1426 118.322 797.123 451.591
2392 0 104.297 16.012 1670 116.652 797.765 447.079
2393 0 106.237 15.1549 1610 118.677 799.25 444.729
2394 1 59.1024 10.9809 649 121.351 798.547 466.086
2395 0 64.1339 12.4739 800 116.654 799.249 469.664
2396 0 62.0367 11.5738 718 121.468 799.231 462.965
2397 0 67.2298 11.4235 768 121.01 801.017 465.768
2398 0 72.1884 16.1106 1163 112.741 800.838 468.182
2399 0 70.3331 13.2512 932 119.789 801.05 467.269
2400 0 73.2219 11.7724 862 121.79 801.283 465.683
2401 0 78.1088 13.8653 1083 115.896 801.097 460.5
2402 0 79.0769 14.2519 1127 118.08 800.807 458.969
2403 0 80.0764 12.4631 998 121.506 799.422 461.873
2404 0 84.2878 13.0149 1097 120.579 799.848 461.568
2405 0 88.5 12.6554 1120 121.503 799.8 463.362
2406 0 92.0851 13.0206 1199 120.439 799.954 458.722
2407 0 95.1524 13.8515 1318 118.571 799.168 463.321
2408 0 96.3575 11.8932 1146 123.432 799.111 464.456
2409 0 102.429 14.5954 1495 118.063 798.784 460.342
2410 0 103.619 13.7619 1426 120.255 797.544 460.803
2411 0 110.503 12.615 1394 120.844 797.532 460.322
2412 0 112.428 15.5834 1752 115.558 795.194 459.562
2413 0 116.301 12.6483 1471 121.634 795.371 450.429
2414 0 124.539 14.4613 1801 117.049 795.312 449.245
2415 1 68.2022 11.07 755 111.491 794.828 481.722
2416 0 67.2646 10.5553 710 114.151 794.203 477.149
2417 0 66.2516 10.3847 688 117.403 795.103 470.016
2418 0 68.1915 8.43213 575 120.689 794.068 468.626
2419 0 76.2547 12.1304 925 111.456 794.106 474.248
2420 0 76.2078 11.4949 876 113.634 793.231 469.365
2421 0 79.2424 12.3293 977 111.638 792.185 464.51
2422 0 82.2375 12.1113 996 112.045 793.06 463.932
2423 0 86.138 12.3174 1061 111.494 792.992 461.91
2424 0 86.1769 11.1283 959 114.379 793.053 460.114
2425 0 90.3253 13.2742 1199 110.711 792.927 453.658
2426 0 94.2864 12.9287 1219 111.587 793.772 458.421
2427 0 92.2252 11.7538 1084 115.433 793.227 450.42
2428 0 98.3588 13.5422 1332 112.098 794.019 452.219
2429 0 99.4156 13.2172 1314 112.89 794.266 450.044
2430 0 101.447 12.8737 1306 114.834 795.213 447.362
2431 0 98.3152 13.4262 1320 114.486 795.844 442.722
2432 0 106.283 12.2503 1302 116.318 797.88 445.048
2433 0 111.423 14.3328 1597 112.076 798.252 444.503
2434 0 112.464 12.7685 1436 115.356 798.16 442.676
2435 0 115.46 12.7836 1476 115.915 799.024 434.308
2436 0 120.697 14.8636 1794 112.233 798.702 435.637
2437 1 68.3575 10.9425 748 111.437 799.909 462.071
2438 0 68.3386 13.8721 948 106.589 799.378 462.369
2439 0 74.1698 12.9433 960 106.914 801.117 463.378
2440 0 76.1049 13.0215 991 107.33 801.907 463.237
2441 0 76.1778 10.0292 764 110.755 799.407 469.56
2442 0 81.2688 9.4009 764 112.832 800.455 463.997
2443 0 84.3368 10.2446 864 112.409 799.742 461.964
2444 1 156.513 13.6091 2130 114.225 801.595 424.754
2445 1 86.3758 9.01873 779 115.202 800.18 464.379
2446 0 89.4544 11.939 1068 112.273 800.953 457.937
2447 0 86.3925 13.8785 1199 111.787 801.92 459.823
2448 0 93.1968 11.1377 1038 114.147 799.788 463.09
2449 0 100.398 15.7772 1584 106.995 798.081 456.823
2450 0 105.577 11.1767 1180 113.476 798.277 457.561
2451 0 106.318 13.5913 1445 110.436 796.863 460.872
2452 0 113.575 10.3456 1175 116.321 795.929 456.524
2453 0 115.359 12.2054 1408 112.659 795.609 456.893
2454 0 114.444 7.81168 894 122.252 795.021 444.897
2455 0 117.435 7.79154 915 122.204 794.318 446.458
2456 1 70.192 9.18908 645 108.164 793.009 481.471
2457 0 74.0329 9.67137 716 111.673 792.013 473.049
2458 0 78.3248 11.5928 908 109.64 792.039 470.535
2459 0 79.7705 8.2612 659 114.786 792.744 466.146
2460 0 82.4232 12.9211 1065 107.691 793.594 467.915
2461 0 81.327 10.882 885 112.444 792.862 462.132
2462 0 87.3946 13.9025 1215 107.007 792.614 463.361
2463 0 89.3399 16.107 1439 104.866 792.274 461.046
2464 0 89.3794 11.7365 1049 114.369 792.137 453.057
2465 0 89.4703 9.98096 893 117.545 792.024 453.882
2466 0 94.3336 12.5936 1188 112.834 792.492 456.348
2467 0 96.4293 12.154 1172 115.275 792.982 450.921
2468 0 98.4549 15.3573 1512 113.936 793.175 442.325
2469 0 101.421 11.9502 1212 119.855 794.07 438.366
2470 0 104.417 14.624 1527 114.749 794.616 441.47
2471 0 108.318 13.1926 1429 116.026 795.314 445.043
2472 0 108.488 15.8635 1721 114.239 796.186 439.03
2473 0 112.466 13.7198 1543 117.568 796.715 440.25
2474 0 114.446 14.5046 1660 116.789 796.726 439.957
2475 0 120.545 16.6079 2002 112.083 798.785 444.406
2476 0 119.413 9.84817 1176 124.61 798.697 441.03
2477 1 71.1629 12.2255 870 113.984 800.352 463.079
2478 0 70.1627 11.5588 811 125.309 802.307 461.67
2479 0 75.1305 14.0289 1054 113.596 799.761 463.065
2480 0 79.3091 15.1181 1199 111.52 798.319 464.043
2481 0 80.2145 15.4835 1242 111.564 800.063 464.948
2482 0 83.2028 16.6942 1389 110.096 799.184 464.609
2483 0 86.2715 15.9497 1376 112.054 799.705 464.424
2484 0 89.1808 14.9584 1334 114.591 799.184 458.938
2485 0 92.1831 13.343 1230 117.248 800.037 459.697
2486 0 92.2359 18.6695 1722 111.012 799.641 460.635
2487 0 97.5248 12.9711 1265 118.636 799.787 459.028
2488 0 101.268 13.805 1398 117.438 800.597 460.244
2489 0 105.323 13.8241 1456 117.849 801.341 458.89
2490 0 107.446 12.2108 1312 120.882 800.636 445.106
2491 0 111.448 11.1891 1247 121.844 798.337 448.138
2492 0 116.364 12.5726 1463 117.344 798.321 452.001
2493 0 124.515 10.4565 1302 122.157 797.828 451.957
2494 0 126.474 13.6075 1721 117.87 796.553 452.947
2495 0 132.369 13.7645 1822 117.933 797.137 450.08
2496 0 135.277 11.0883 1500 122.973 794.529 445.987
2497 0 135.277 11.0957 1501 141.588 792.5 445.64
2498 1 78.2473 9.80225 767 120.001 793.683 473.591
2499 0 78.2598 9.77513 765 142.252 793.676 473.655
2500 0 83.2618 11.3617 946 117.536 794.464 468.147
2501 0 87.094 12.8482 1119 115.379 794.378 463.16
2502 0 90.2367 12.0018 1083 116.654 793.671 463.686
2503 0 95.3027 13.3365 1271 113.953 794.316 455.635
2504 0 98.293 13.9074 1367 111.7 793.657 455.503
2505 0 103.456 15.7071 1625 110.087 794.246 452.039
2506 1 57.1524 9.06348 518 112.612 795.081 477.199
2507 0 57.1979 12.8152 733 109.157 795.067 472.885
2508 0 63.1145 12.311 777 110.525 795.109 470.431
2509 0 60.0965 9.33498 561 114.827 793.845 470.105
2510 0 62.1373 9.33416 580 117.143 795.269 469.722
2511 0 65.3153 13.6109 889 109.79 794.724 468.211
2512 0 65.2514 10.7737 703 115.738 795.744 466.33
2513 0 67.2973 10.9811 739 116.261 796.164 463.602
2514 0 69.1712 11.5077 796 115.144 796.536 462.778
2515 0 71.2718 14.143 1008 111.609 797.201 459.634
2516 0 72.4443 11.8988 862 114.85 797.408 458.666
2517 0 74.1531 14.4296 1070 112.018 797.992 452.846
2518 0 78.1146 13.0833 1022 113.614 799.356 455.568
2519 0 79.3026 12.5973 999 116.087 798.962 456.199
2520 0 82.2033 11.9095 979 116.129 799.414 458.413
2521 0 86.1392 14.3721 1238 114.292 801.368 454.821
2522 0 90.1676 13.6634 1232 113.969 800.088 454.36
2523 0 93.2507 17.1581 1600 109.646 801.434 451.501
2524 1 47.1165 7.19493 339 119.997 800.782 476.587
2525 0 54.0664 13.7609 744 109.879 801.183 475.645
2526 0 58.0986 10.6887 621 115.947 800.49 466.919
2527 0 60.0972 14.7095 884 109.262 800.604 470.62
2528 0 59.1183 15.7312 930 108.149 800.209 476.698
2529 0 60.0789 13.1827 792 111.208 798.852 475.278
2530 0 62.2409 13.5441 843 111.485 800.493 474.668
2531 0 65.2321 10.9609 715 115.373 798.881 472.411
2532 0 67.0963 12.8174 860 113.086 798.741 468.108
2533 0 71.2478 14.7794 1053 110.01 798.624 470.319
2534 0 74.1396 14.9178 1106 111.253 797.269 473.085
2535 0 79.2122 15.3133 1213 110.585 796.002 472.08
2536 0 81.1765 14.7949 1201 110.652 795.425 473.99
2537 0 83.4608 14.5937 1218 111.903 794.484 470.057
2538 0 84.2032 10.4272 878 118.584 794.24 473.54
2539 0 88.1174 13.1075 1155 116.37 794.588 465.377
2540 0 89.1954 13.4312 1198 116.195 793.556 464.134
2541 0 94.2021 11.2099 1056 119.991 793.133 459.566
2542 0 93.1512 11.1539 1039 119.74 792.728 462.804
2543 0 99.3607 13.3151 1323 116.531 793.352 457.668
2544 0 100.177 10.2818 1030 121.04 791.94 457.412
2545 0 104.437 12.3328 1288 118.894 792.562 449.696
2546 0 106.265 13.5134 1436 116.088 793.905 452.586
2547 0 111.371 14.2766 1590 114.977 793.102 449.777
2548 0 114.256 13.6798 1563 116.023 793.054 446.38
2549 0 119.536 13.1592 1573 116.586 792.962 444.853
2550 1 71.3823 11.5575 825 112.063 793.52 470.819
2551 0 74.2408 14.0489 1043 109.693 794.822 464.191
2552 0 76.2083 10.655 812 115.507 794.28 463.546
2553 0 80.195 14.0907 1130 111.336 796.448 458.793
2554 0 80.195 14.0158 1124 128.805 798.436 458.816
2555 0 84.1688 12.6294 1063 115.101 798.875 458.037
2556 0 86.2797 16.4117 1416 111.405 798.107 444.317
2557 0 89.1648 14.4452 1288 114.492 798.356 452.661
2558 0 91.185 10.8242 987 120.871 799.129 451.008
2559 0 95.3744 16.0945 1535 113.664 800.014 447.212
2560 0 100.502 14.5172 1459 115.171 798.995 451.096
2561 0 103.461 14.0923 1458 116.523 799.13 450.565
2562 0 106.633 16.2613 1734 113.336 799.831 443.52
2563 1 60.2238 10.4112 627 118.158 800.27 471.477
2564 0 65.2269 11.483 749 115.626 799.849 473.405
2565 0 63.2635 13.7204 868 110.949 799.183 472.215
2566 0 66.2226 12.0654 799 113.333 799.682 472.705
2567 0 70.2923 12.6045 886 112.734 799.986 473.287
2568 0 72.2603 13.3683 966 112.508 800.352 474.297
2569 0 75.2403 11.6826 879 116.032 799.989 470.807
2570 0 78.2472 14.4286 1129 111.596 798.97 472.862
2571 0 78.2472 14.5309 1137 136.267 797.979 472.85
2572 0 85.5278 12.0896 1034 115.85 798.426 472.348
2573 0 87.2072 13.9553 1217 114.288 797.698 472.259
2574 0 91.2304 15.8281 1444 111.267 797.316 470.733
2575 0 92.4291 14.0216 1296 115.414 795.819 469.242
2576 0 95.3087 12.6851 1209 117.419 795.642 467.895
2577 0 98.3401 11.928 1173 119.604 794.471 459.819
2578 0 102.422 13.1124 1343 117.812 794.544 458.448
2579 0 105.139 14.6948 1545 114.021 794.774 458.681
2580 0 108.409 13.8642 1503 115.073 793.933 458.882
2581 0 115.246 15.3932 1774 111.308 794.392 456.555
2582 1 62.054 11.2805 700 112.784 793.983 478.919
2583 0 65.102 11.1364 725 111.513 793.851 479.822
2584 0 59.2406 9.09849 539 119.327 792.946 467.918
2585 0 68.096 13.9215 948 109.344 795.02 472.591
2586 0 73.1227 14.1406 1034 109.435 792.65 472.491
2587 0 75.3318 14.8676 1120 107.776 793.437 470.836
2588 0 79.5754 17.4677 1390 103.94 791.961 469.648
2589 0 79.2947 11.8419 939 112.933 791.864 469.12
2590 0 83.1024 14.789 1229 108.539 792.295 466.801
2591 0 81.2125 11.4022 926 115.78 792.967 465.622
2592 0 88.3698 14.428 1275 107.248 792.873 470.133
2593 0 88.3606 14.5314 1284 128.251 793.871 470.053
2594 0 91.1855 14.1909 1294 111.107 792.428 456.811
2595 0 91.2422 15.6835 1431 110.774 794.934 458.208
2596 0 95.0956 15.4897 1473 111.168 794.879 452.083
2597 0 97.1312 17.4712 1697 108.527 796.207 454.123
2598 0 100.215 17.9115 1795 105.35 797.329 457.575
2599 0 100.138 11.8237 1184 116.338 797.398 450.874
2600 0 105.164 10.0414 1056 116.992 798.843 455.65
2601 0 112.333 12.1247 1362 115.222 799.101 450.023
2602 0 114.102 14.8376 1693 110.413 798.196 450.011
2603 0 119.329 14.7826 1764 112.06 798.432 443.452
2604 0 125.42 16.3372 2049 109.104 800.091 441.675
2605 0 127.384 15.3159 1951 111.058 799.385 437.902
2606 0 130.225 15.5731 2028 108.818 799.487 441.855
2607 0 138.48 16.4284 2275 109.264 798.538 442.576
2608 0 145.398 17.8338 2593 106.464 799.284 442.653
2609 1 87.1645 12.0462 1050 112.404 799.397 471.369
2610 0 87.0825 12.5284 1091 113.472 799.877 465.205
2611 0 94.2412 16.1288 1520 105.979 797.895 458.861
2612 0 96.1555 13.7694 1324 112.021 798.173 453.813
2613 0 96.183 12.8817 1239 114.849 798.773 453.553
2614 0 100.436 13.1028 1316 113.394 798.321 459.745
2615 0 104.185 14.8006 1542 109.894 797.237 465.561
2616 0 110.158 16.5398 1822 108.364 795.761 459.616
2617 0 110.195 12.7955 1410 115.805 795.209 453.082
2618 0 114.244 12.7796 1460 116.347 794.495 451.697
2619 0 120.195 17.6547 2122 108.038 794.408 453.997
2620 0 125.355 15.3085 1919 112.8 792.563 450.978
2621 0 128.41 14.7185 1890 113.945 793.204 447.156
2622 0 133.343 14.414 1922 115.062 793.854 445.836
2623 1 193.487 16.0527 3106 112.684 793.644 411.67
2624 1 139.222 13.4965 1879 117.679 792.501 431.458
2625 0 148.223 18.1551 2691 106.885 792.533 439.557
2626 0 151.392 16.6323 2518 110.154 791.835 433.083
2627 1 89.3175 10.737 959 115.358 792.7 461.014
2628 0 92.2679 15.0973 1393 109.955 792.882 454.219
2629 0 95.2505 13.9422 1328 111.368 791.469 457.205
2630 0 96.2258 14.466 1392 111.505 793.009 458.072
2631 0 99.2801 13.0842 1299 115.945 792.57 448.031
2632 0 103.299 14.5983 1508 111.087 793.023 453.399
2633 0 107.36 14.633 1571 111.264 792.878 450.706
2634 0 109.38 16.2919 1782 111.612 793.258 447.703
2635 0 112.401 16.8237 1891 110.958 793.819 443.401
2636 0 115.488 13.2309 1528 116.538 795.437 441.791
2637 0 118.286 13.0616 1545 116.744 795.861 442.257
2638 0 125.316 15.4091 1931 112.927 796.873 438.703
2639 0 131.393 16.698 2194 109.334 796.867 441.829
2640 0 134.411 12.5139 1682 115.328 798.567 435.432
2641 0 137.277 11.9248 1637 117.236 798.213 426.813
2642 1 100.427 19.7855 1987 96.2708 800.235 454.653
2643 0 102.315 13.2238 1353 103.261 801.733 458.858
2644 0 104.668 14.9902 1569 105.252 800.582 454.751
2645 0 106.427 13.1075 1395 104.581 800.432 457.059
2646 0 108.419 14.5269 1575 104.927 800.128 452.989
2647 0 111.217 14.4223 1604 104.098 798.505 455.927
2648 0 116.534 16.3815 1909 101.167 798.025 457.673
2649 0 115.652 11.1455 1289 109.188 798.025 449.628
2650 0 119.328 11.196 1336 107.822 797.159 452.367
2651 0 126.557 19.0428 2410 98.5178 796.6 450.048
2652 0 130.627 13.2056 1725 104.581 796.776 449.931
2653 0 132.554 13.6699 1812 106.54 794.292 440.03
2654 0 137.399 15.8443 2177 103.19 793.238 444.725
2655 0 142.359 18.0038 2563 100.676 793.358 442.735
2656 0 145.345 23.2207 3375 95.2157 792.706 443.837
2657 0 149.414 20.2324 3023 98.566 791.762 432.466
2658 0 154.409 17.6997 2733 101.467 792.356 432.947
2659 0 159.442 16.7835 2676 103.872 791 436.464
2660 1 94.3797 14.7171 1389 102.019 791.667 466.066
2661 0 95.4615 12.2562 1170 105.862 791.255 458.89
2662 0 94.2821 11.9535 1127 107.037 790.15 457.362
2663 0 98.2036 14.2968 1404 103.636 789.544 459.681
2664 0 97.1803 14.2107 1381 105.817 788.855 453.828
2665 0 101.261 15.0206 1521 105.911 790.035 448.063
2666 0 103.729 13.4196 1392 108.321 790.616 440.244
2667 0 103.729 13.4775 1398 143.84 791.629 440.212
2668 0 111.337 15.26 1699 106.346 791.335 446.702
2669 0 110.233 11.2217 1237 113.755 790.823 436.622
2670 0 112.157 13.4366 1507 110.704 791.962 435.39
2671 0 120.537 14.8004 1784 107.407 792.011 437.793
2672 0 125.454 14.8819 1867 107.042 792.997 436.254
2673 0 129.359 16.3035 2109 105.792 793.121 435.069
2674 0 133.273 12.1855 1624 110.06 793.87 438.049
2675 0 140.509 12.9315 1817 110.138 793.774 430.837
2676 0 144.627 14.0292 2029 108.276 794.319 431.838
2677 0 151.463 13.4092 2031 109.086 795.771 423.444
2678 0 156.466 15.2046 2379 105.124 797.459 422.12
2679 0 156.303 13.2243 2067 106.668 797.2 432.535
2680 1 96.3932 15.7169 1515 102.617 797.038 448.415
2681 0 97.2895 15.274 1486 101.639 796.824 450.318
2682 0 102.402 15.2048 1557 102.157 797.627 450.394
2683 0 102.474 14.6378 1500 105.37 797.263 447.819
2684 0 106.337 16.8332 1790 102.97 799.331 445.855
2685 0 108.594 16.0966 1748 104.382 798.059 444.212
2686 0 106.408 12.5461 1335 110.609 798.338 442.795
2687 0 113.51 12.0694 1370 110.866 797.49 442.897
2688 0 118.27 14.4838 1713 107.86 798.532 446.106
2689 0 123.302 14.2252 1754 106.754 798.599 452.099
2690 1 70.3045 10.0136 704 106.925 795.874 475.398
2691 0 77.1146 13.7587 1061 102.136 797.128 476.402
2692 0 79.2294 13.4798 1068 102.963 798.532 478.305
2693 0 82.2132 13.4893 1109 103.408 797.189 476.017
2694 0 83.4675 13.5741 1133 103.406 797.396 472.54
2695 0 86.3377 15.5089 1339 101.265 796.94 473.226
2696 0 88.2239 11.2555 993 106.95 794.707 473.768
2697 0 94.1533 16.5369 1557 99.4534 794.759 473.784
2698 0 102.237 17.4986 1789 97.4572 793.934 464.462
2699 0 101.212 19.9779 2022 93.4936 792.108 466.107
2700 0 102.521 15.7334 1613 100.796 792.286 463.803
2701 0 104.223 14.6129 1523 102.505 791.683 460.573
2702 0 107.293 17.8017 1910 88.8346 791.24 464.648
2703 0 112.283 20.4573 2297 86.6421 790.298 460.204
2704 0 115.508 13.4017 1548 93.9393 790.84 455.64
2705 0 116.689 14.3887 1679 93.2174 789.257 453.083
2706 0 120.49 13.9016 1675 93.4788 789.508 453.251
2707 0 122.436 18.965 2322 90.3725 789.366 447.786
2708 0 124.493 19.005 2366 88.6128 789.577 455.55
2709 0 131.494 15.4912 2037 93.3486 791.151 444.341
2710 0 131.87 15.8035 2084 94.1219 790.908 439.758
2711 0 138.623 14.3483 1989 94.2956 791.212 449.125
2712 0 138.623 14.4348 2001 139.585 792.18 449.217
2713 1 79.3789 10.5822 840 96.7167 791.474 467.538
2714 0 84.2177 13.8688 1168 93.5111 792.027 463.759
2715 0 88.2762 10.705 945 97.0063 793.947 463.698
2716 0 87.5382 11.0923 971 97.4748 793.341 458.433
2717 0 95.3827 18.7246 1786 88.7413 792.75 461.011
2718 0 97.491 15.1193 1474 91.0672 795.161 462.035
2719 0 105.585 13.7046 1447 93.2909 796.045 454.576
2720 0 102.469 19.401 1988 89.6947 795.719 441.651
2721 0 106.567 16.2246 1729 91.6964 795.92 455.097
2722 0 112.485 17.5757 1977 91.4674 796.968 447.264
2723 0 115.641 18.1596 2100 90.339 796.443 450.651
2724 0 116.799 16.9436 1979 91.2041 796.692 452.279
2725 0 121.72 22.8312 2779 86.7621 796.641 449.715
2726 0 120.425 18.5344 2232 90.6694 796.904 437.803
2727 0 128.449 16.0998 2068 92.177 797.564 445.585
2728 0 132.442 19.82 2625 89.7665 797.661 439.326
2729 0 136.49 18.0014 2457 91.3004 798.836 438.529
2730 0 145.335 14.8553 2159 94.1834 798.895 440.803
2731 0 146.588 11.4334 1676 95.9338 797.77 441.541
2732 0 152.18 13.9966 2130 93.5878 797.486 439.22
2733 0 158.44 14.6617 2323 94.2062 797.105 429.415
2734 0 173.407 14.7399 2556 92.2934 797.42 435.979
2735 0 169.656 14.9361 2534 93.7182 797.141 426.083
2736 0 176.694 23.7246 4192 84.6214 796.002 441.407
2737 1 92.2016 13.1017 1208 95.37 795.603 461.997
2738 0 98.352 16.4816 1621 91.013 794.761 459.758
2739 0 103.287 15.4811 1599 90.6523 795.116 463.553
2740 0 103.538 15.8686 1643 91.7778 793.856 457.392
2741 0 105.278 14.723 1550 92.5665 793.767 453.308
2742 0 108.584 14.6522 1591 92.5625 793.067 454.852
2743 0 110.398 14.5836 1610 93.3677 792.657 458.357
2744 0 111.492 16.9967 1895 93.6274 792.345 450.459
2745 0 120.401 20.4484 2462 90.0061 791.517 452.093
2746 0 122.289 22.0789 2700 89.7626 791.051 443.076
2747 0 127.444 18.11 2308 93.4679 792.42 442.206
2748 0 130.449 15.3087 1997 96.4096 791.131 445.823
2749 0 139.387 16.7017 2328 94.6503 791.541 444.499
2750 0 143.405 20.7455 2975 91.079 789.666 436.647
2751 0 143.405 20.7455 2975 135.886 787.697 436.895
2752 0 155.567 18.7315 2914 92.8305 790.643 436.621
2753 0 160.869 19.376 3117 93.1784 790.323 424.663
2754 1 85.2414 13.2917 1133 107.238 791.751 460.568
2755 0 88.4349 13.5693 1200 107.71 791.694 461.583
2756 0 92.2934 17.8886 1651 102.047 792.674 460.416
2757 0 98.7867 21.6932 2143 95.0047 792.822 465.055
2758 0 98.2727 13.1878 1296 106.343 793.785 459.034
2759 0 104.546 18.1546 1898 100.284 794.027 460.659
2760 0 106.229 19.2226 2042 100.271 795.31 459.131
2761 0 106.254 15.4818 1645 105.159 795.104 450.497
2762 0 112.462 13.818 1554 108.123 795.264 448.373
2763 0 117.454 23.5921 2771 96.035 796.534 445
2764 0 121.261 19.0416 2309 101.157 797.678 434.864
2765 0 126.561 15.2733 1933 106.145 797.945 442.458
2766 0 130.378 18.1166 2362 102.815 797.71 439.333
2767 0 130.378 18.1473 2366 140.689 798.702 439.148
2768 0 137.527 16.5931 2282 104.628 798.284 436.16
2769 0 142.697 18.2695 2607 102.304 799.941 440.211
2770 0 146.651 10.8148 1586 113.741 800.237 433.762
2771 0 153.617 17.8887 2748 103.594 800.382 431.767
2772 1 84.4375 16.5211 1395 104.234 801.12 465.868
2773 0 86.1245 13.9217 1199 108.83 800.254 462.625
2774 0 88.4735 14.4337 1277 106.752 801.153 467.794
2775 0 90.4314 13.5351 1224 108.136 799.332 465.803
2776 0 95.4527 16.2175 1548 104.638 799.286 467.023
2777 0 98.3346 14.654 1441 107.973 799.237 460.228
2778 0 101.167 16.9719 1717 103.516 799.323 463.598
2779 0 105.445 12.7744 1347 109.05 798.399 460.158
2780 0 108.361 13.6027 1474 107.296 797.783 460.406
2781 0 114.456 15.5082 1775 103.398 798.388 463.89
2782 0 117.459 13.5621 1593 106.75 798.216 461.772
2783 1 68.3839 14.4332 987 105.714 796.714 478.761
2784 0 68.1754 17.0736 1164 103.118 796.321 476.979
2785 0 71.2078 17.7368 1263 100.39 794.988 477.553
2786 0 73.2556 13.214 968 107.612 794.699 469.659
2787 0 75.2271 13.6653 1028 106.249 794.579 473.123
2788 0 79.2553 16.4279 1302 102.042 793.116 470.996
2789 0 80.5137 15.5005 1248 105.348 792.959 468.313
2790 0 83.2812 16.6184 1384 104.366 792.905 464.324
2791 0 86.4532 15.9046 1375 104.9 792.732 467.441
2792 0 90.2291 14.9398 1348 107.951 793.198 458.933
2793 0 91.2705 13.9804 1276 109.281 793.384 459.102
2794 0 97.2913 17.9872 1750 103.62 792.616 458.843
2795 0 99.2266 15.8828 1576 106.732 793.063 457.964
2796 0 100.173 16.1221 1615 107.655 793.412 453.93
2797 0 107.236 16.972 1820 106.92 793.349 449.726
2798 0 110.189 16.0089 1764 108.285 795.023 449.104
2799 0 114.62 13.2263 1516 112.253 795.129 448.272
2800 0 118.25 19.7462 2335 104.011 795.845 438.402
2801 0 122.746 16.522 2028 107.172 795.933 438.862
2802 0 124.303 18.109 2251 105.016 796.075 432.208
2803 0 130.357 21.0806 2748 100.356 795.617 431.583
2804 0 136.434 18.7343 2556 102.667 797.335 434.727
2805 0 142.382 24.2376 3451 97.3382 797.702 431.327
2806 0 142.382 24.2166 3448 133.861 799.71 431.157
2807 1 150.398 15.4324 2321 108.736 799.009 426.279
2808 0 150.398 15.3127 2303 150.4 796.996 426.201
2809 0 161.191 20.5595 3314 101.266 799.094 429.004
2810 0 168.423 15.7461 2652 107.386 798.806 428.672
2811 0 173.517 17.7677 3083 106.088 798.705 420.278
2812 0 179.396 15.842 2842 109.254 799.746 418.521
2813 0 181.252 16.0274 2905 110.4 800.189 409.456
2814 0 188.417 17.6417 3324 107.471 801.483 404.114
2815 0 195.432 17.2745 3376 108.71 800.327 397.95
2816 0 199.57 16.4503 3283 106.87 800.663 424.236
2817 0 199.588 11.0077 2197 115.655 801.512 425.552
2818 1 219.062 20.0492 4392 104.387 800.883 404.95
2819 1 232.049 16.3026 3783 107.323 800.799 411.668
2820 0 239.769 14.8393 3558 110.214 799.382 397.312
2821 0 244.707 17.9153 4384 105.988 801.335 398.999
2822 1 255.882 11.5287 2950 114.783 800.497 393.209
2823 0 264.621 15.116 4000 111.426 800.083 388.466
2824 0 273.751 15.7698 4317 110.343 799.074 381.079
2825 0 273.751 15.8648 4343 151.159 798.094 381.113
2826 1 225.887 17.5309 3960 107.92 798.727 399.728
2827 0 233.503 21.3359 4982 102.952 798.499 403.964
2828 0 243.717 16.7531 4083 108.855 797.566 394.438
2829 0 254.909 19.4893 4968 103.361 797.22 404.71
2830 1 181.857 14.8359 2698 112.185 796.303 414.941
2831 0 191.804 15.4741 2968 109.343 794.685 417.174
2832 0 197.721 15.2487 3015 109.052 794.063 411.412
2833 0 203.785 14.2307 2900 110.803 794.171 405.94
2834 0 213.587 18.2127 3890 105.838 794.949 402.571
2835 0 218.484 17.15 3747 106.998 794.213 388.563
2836 0 218.484 17.15 3747 153.94 794.213 388.563
2837 1 238.888 23.2912 5564 98.9561 793.623 398.555
2838 0 246.423 19.0648 4698 104.169 793.522 390.685
2839 0 255.588 15.6776 4007 111.695 793.196 376.877
2840 0 265.865 14.372 3821 112.89 793.621 374.852
2841 0 267.696 12.3946 3318 113.047 795.36 384.942
2842 0 266.593 9.84273 2624 115.28 794.472 408.189
2843 0 266.815 9.3698 2500 113.852 794.933 415.716
2844 1 238.078 19.8968 4737 104.828 796.187 400.952
2845 0 243.672 17.6508 4301 111.689 796.126 384.95
2846 0 255.4 20.4385 5220 108.329 797.555 385.897
2847 0 259.697 16.9698 4407 113.419 796.709 376.284
2848 0 266.867 15.5471 4149 116.134 798.803 374.619
2849 0 275.454 19.0558 5249 111.036 799.644 371.375
2850 1 286.691 20.5901 5903 109.93 799.772 356.561
2851 0 293.774 16.5739 4869 116.514 800.908 343.617
2852 0 318.91 29.5256 9416 98.846 799.941 330.379
2853 1 81.1558 13.6774 1110 110.586 801.141 446.515
2854 0 82.2391 12.0259 989 113.649 802.541 446.095
2855 0 90.2748 13.038 1177 110.472 801.325 449.977
2856 0 91.2455 14.6199 1334 108.588 801.912 453.193
2857 0 91.1797 10.1448 925 115.504 801.493 444.241
2858 0 97.1838 11.823 1149 111.999 801.704 450.903
2859 0 101.164 11.1502 1128 113.566 801.705 449.301
2860 0 104.181 14.8875 1551 108.892 801.201 444.758
2861 0 110.229 13.2724 1463 109.619 802.084 448.801
2862 0 108.214 12.9835 1405 111.041 801.451 443.301
2863 0 118.413 16.5269 1957 104.386 801.375 443.239
2864 1 73.0713 7.58163 554 106.049 800.051 468.778
2865 0 76.2157 6.63905 506 108.953 800.538 462.257
2866 0 70.3137 11.6336 818 103.549 799.26 467.804
2867 0 80.3543 9.91857 797 103.92 799.952 463.913
2868 0 82.2425 12.8522 1057 101.026 798.734 465.327
2869 0 83.5681 10.7816 901 103.976 797.73 463.653
2870 0 87.4487 13.3107 1164 100.588 796.582 462.331
2871 0 93.4376 14.4053 1346 97.7727 797.687 463.108
2872 0 86.3072 9.79061 845 107.566 796.362 450.391
2873 1 15.0393 6.9152 104 86.7115 797.615 504.317
2874 0 9.00679 9.54835 86 87.0116 796.279 500.337
2875 0 9.0052 8.66167 78 88.8462 795.923 499.872
2876 0 11.0015 9.54413 105 87.2762 796.143 500.971
2877 0 10.0029 8.59754 86 87.1628 796.756 498.907
2878 1 115.363 15.0915 1741 100.429 794.729 446.952
2879 0 111.226 9.56609 1064 109.695 794.582 438.814
2880 0 118.622 9.18884 1090 107.98 793.919 442.215
2881 0 121.779 12.6541 1541 104.627 795.479 437.755
2882 0 126.528 9.95036 1259 106.82 794.292 440.867
2883 1 72.1629 9.61713 694 101.831 796.108 464.69
2884 0 76.0674 6.78346 516 102.607 794.971 467.264
2885 0 80.2341 7.87695 632 103.397 794.198 453.109
2886 0 81.3076 8.87986 722 103.47 795.102 452.407
2887 0 86.2261 13.0703 1127 98.1633 795.013 455.43
2888 0 87.3338 9.62972 841 103.202 796.062 448.128
2889 0 92.481 10.6076 981 102.244 796.618 445.811
2890 0 93.4551 10.497 981 102.393 796.535 447.062
2891 0 93.3049 12.3466 1152 101.374 797.551 443.634
2892 0 90.2196 10.7626 971 104.096 797.616 444.551
2893 0 95.4347 9.90206 945 106.744 798.326 441.577
2894 0 96.3635 12.8679 1240 103.598 798.94 446.697
2895 0 105.211 9.4192 991 111.103 799.148 437.332
2896 0 102.147 11.0527 1129 109.402 800.744 443.529
2897 0 102.206 7.54361 771 113.84 801.368 446.261
2898 0 107.713 8.35555 900 114.151 800.62 441.37
2899 1 168.617 9.12126 1538 114.048 800.739 422.295
2900 0 171.475 10.8296 1857 114.296 801.623 413.888
2901 1 181.606 10.4677 1901 115.661 802.038 407.807
2902 0 184.55 9.75889 1801 116.942 802.787 399.529
2903 0 192.635 13.5905 2618 110.523 802.396 414.084
2904 1 139.426 12.6447 1763 111.175 801.548 428.415
2905 0 146.399 13.0739 1914 108.187 802.321 429.165
2906 0 147.709 10.2499 1514 113.287 801.073 421.212
2907 0 154.943 13.0435 2021 107.677 801.814 427.181
2908 0 162.641 10.225 1663 107.405 802.007 433.432
2909 0 164.663 16.0874 2649 100.105 801.264 422.549
2910 0 164.608 12.472 2053 105.669 799.913 416.181
2911 0 170.769 11.3428 1937 107.624 800.36 413.354
2912 0 173.63 13.7592 2389 104.813 799.772 421.18
2913 0 177.397 12.2325 2170 107.867 798.706 408.041
2914 0 185.698 14.2866 2653 105.658 797.322 407.566
2915 0 193.138 16.0922 3108 102.523 796.103 414.147
2916 0 194.004 11.8657 2302 109.647 796.48 406.122
2917 0 201.788 16.1655 3262 104.543 796.609 404.268
2918 0 211.004 16.5732 3497 103.663 796.522 408.829
2919 0 210.716 14.0141 2953 109.71 795.163 401.029
2920 0 212.589 14.7891 3144 109.042 795.193 405.159
2921 0 217.972 12.6851 2765 113.419 793.918 396.47
2922 0 227.469 14.3052 3254 111.946 795.966 390.417
2923 0 232.613 15.5495 3617 111.165 794 384.175
2924 0 232.613 15.5667 3621 149.836 791.994 383.932
2925 1 58.0858 8.0054 465 103.342 794.127 468.789
2926 0 68.233 11.065 755 100.726 792.926 466.666
2927 0 65.1602 8.71698 568 106.785 793.87 466.521
2928 0 68.3686 11.6281 795 103.008 794.006 468.932
2929 0 70.3163 11.8038 830 101.558 795.193 467.273
2930 0 71.4273 8.96016 640 106.75 795.616 464.645
2931 0 76.517 14.8464 1136 95.7773 796.117 469.811
2932 0 75.2647 12.0242 905 100.779 795.244 462.118
2933 0 80.3529 16.3902 1317 94.3273 796.569 465.385
2934 0 79.0999 12.263 970 99.7392 797.236 461.765
2935 0 78.1474 4.91379 384 113.214 797.448 455.995
2936 0 81.3484 11.1373 906 103.965 798.182 456.95
2937 0 86.4552 10.6067 917 103.451 798.049 458.266
2938 0 88.1705 13.8595 1222 99.9255 799.822 458.155
2939 0 90.2831 11.187 1010 103.789 799.173 458.527
2940 0 93.5005 15.3368 1434 97.5976 800.28 461.313
2941 0 95.3501 13.5396 1291 102.298 800.893 454.995
2942 0 97.3592 10.6718 1039 106.315 800.442 453.885
2943 0 97.3592 10.5178 1024 130.029 799.463 453.732
2944 1 41.1413 7.31626 301 97.0963 802.608 486.821
2945 0 42.2507 13.3962 566 89.9329 802.604 486.014
2946 0 41.2466 8.0249 331 95.1208 802.622 486.9
2947 0 42.1509 7.87646 332 95.1657 800.997 488.816
2948 0 45.1373 10.5678 477 92.0314 801.979 489.941
2949 0 44.1302 9.24538 408 92.9926 802.453 491.593
2950 0 46.139 7.17398 331 93.1994 801.964 493.973
2951 0 45.2093 7.76389 351 94.2365 801.59 486.538
2952 0 43.1386 8.73926 377 93.3183 800.851 489.761
2953 0 43.1386 8.73926 377 99.5756 799.87 489.615
2954 0 47.2998 11.7971 558 89.6953 798.72 483.72
2955 0 46.3494 8.75955 406 92.9729 799.682 478.813
2956 0 46.128 6.07006 280 97.0357 797.521 482.325
2957 0 49.2284 11.1115 547 90.4516 797.766 486.51
2958 0 48.2702 7.74805 374 93.6203 797.489 484.457
2959 0 49.3155 14.2349 702 86.4915 798.934 489.254
2960 0 50.3252 9.91552 499 90.4569 797.196 481.571
2961 0 51.1879 7.07199 362 93.8398 797.47 485.729
2962 0 53.2439 6.08521 324 94.9815 796.284 484.864
2963 0 57.3243 6.82084 391 92.9412 796.471 487.581
2964 0 53.4079 4.60606 246 97.252 795.276 478.801
2965 0 51.208 6.7177 344 94.3634 795.587 483.93
2966 0 51.4103 8.18903 421 93.6247 794.841 482.411
2967 0 55.4082 16.4416 911 83.9594 793.898 482.417
2968 0 55.4395 6.83628 379 94.6992 794.712 473.633
2969 1 126.976 19.6336 2493 93.5937 793.748 441.328
2970 0 128.732 14.3631 1849 99.9027 794.485 436.948
2971 0 128.6 17.3795 2235 96.5651 794.547 437.506
2972 0 131.759 10.0714 1327 107.203 796.378 428.931
2973 0 133.685 11.8413 1583 106.267 796.836 425.234
2974 0 139.628 17.1384 2393 97.8826 796.455 433.967
2975 1 60.6301 13.0793 793 88.0025 795.407 470.958
2976 0 58.227 8.26078 481 94.447 796.536 470.247
2977 0 58.4861 12.0029 702 93.7137 798.815 466.389
2978 0 57.5853 8.8217 508 95.7913 797.439 468.963
2979 0 58.2819 7.1892 419 99.8831 798.468 459.854
2980 0 58.2819 7.24067 422 122.41 798.483 459.754
2981 0 62.5392 9.94576 622 95.9035 799.923 464.646
2982 0 65.5789 9.43901 619 97.252 800.879 462.485
2983 1 174.655 10.0713 1759 112.371 800.891 411.495
2984 0 180.98 14.3994 2606 107.955 802.862 404.507
2985 0 181.325 9.06661 1644 118.012 803.216 392.505
2986 0 187.625 11.1445 2091 115.542 803.147 386.137
2987 0 195.782 12.9787 2541 110.994 802.342 399.779
2988 0 195.782 12.897 2525 144.516 802.346 399.781
2989 1 135.651 8.34491 1132 105.89 801.765 434.906
2990 0 139.539 14.4476 2016 100.579 801.959 428.355
2991 0 142.314 11.2779 1605 105.787 801.136 431.651
2992 0 147.333 13.2286 1949 103.289 801.482 422.776
2993 0 151.416 11.7227 1775 105.912 801.474 422.922
2994 1 15.0579 5.31282 80 89.7375 802 497.225
2995 0 16.0034 9.56048 153 85.4248 802.346 500.83
2996 0 22.0625 6.11898 135 90 799.452 498.97
2997 0 27.2192 2.64519 72 97.3056 799.028 495.028
2998 0 26.1959 7.7493 203 90.8128 798.911 496.547
2999 0 21.1055 6.2069 131 92.2137 799.901 501.893
3000 0 19.1484 4.12567 79 93.4557 799.329 498.089
3001 0 16.0495 1.37076 22 111.727 799.5 501.136
3002 0 15.0055 5.73122 86 91.5 797.965 498.372
3003 0 23.4837 4.38602 103 88.9612 798.602 504.078
3004 0 17.0759 3.33805 57 91.6491 799.526 503.316
3005 0 13.0078 3.22884 42 92.2143 797.429 503.095
3006 0 8 2 16 94.9375 796.562 500.062
3007 0 14.0025 9.49829 133 88.8722 795.256 501.203
3008 0 13.0045 4.22931 55 93.2727 793.945 502.745
3009 1 39.0361 6.45556 252 93.5079 794.873 490.099
3010 0 42.0315 9.68322 407 91.3096 793.629 485.342
3011 0 45.1225 14.6712 662 86.2356 793.447 486.792
3012 0 43.2378 15.8426 685 86.6978 793.216 485.298
3013 0 45.1572 13.3312 602 89.8904 794.658 484.784
3014 0 45.1572 13.1541 594 96.1077 795.631 484.862
3015 0 45.1771 9.16394 414 94.7415 793.565 484.403
3016 0 45.3169 8.01026 363 96.9917 792.317 485.617
3017 0 46.181 15.2444 704 90.5497 794.449 480.628
3018 0 42.0815 5.89333 248 103.617 793.073 479.944
3019 0 46.1328 10.2964 475 93.9453 796.265 483.587
3020 0 46.1156 10.1918 470 115.343 798.283 483.606
3021 0 46.0593 10.8339 499 97.8978 795.226 481.804
3022 0 47.0917 14.1001 664 93.634 795.872 482.05
3023 0 48.2283 11.5492 557 96.8797 795.639 482.354
3024 0 47.0266 9.10123 428 100.516 795.984 480.778
3025 0 50.058 11.8463 593 96.2951 797.975 482.806
3026 0 50.0478 10.51 526 100.063 798.333 480.384
3027 0 48.0749 11.2117 539 100.102 798.848 480.442
3028 0 46.1917 9.43892 436 103.372 798.998 481.454
3029 0 47.0875 8.70719 410 103.08 798.707 485.22
3030 0 49.3407 12.7278 628 98.4777 800.731 481.86
3031 0 49.0477 12.9874 637 98.6201 802.281 486.086
3032 0 48.0962 11.8097 568 100.021 801.271 487.674
3033 0 48.0319 10.2016 490 104.322 801.608 486.078
3034 0 49.0589 12.4748 612 100.703 802.422 489.088
3035 0 49.0589 12.5767 617 116.752 803.442 489.11
3036 0 49.0589 12.5156 614 116.388 804.44 489.186
3037 0 52.1841 14.6021 762 97.8963 801.307 490.388
3038 0 49.1038 8.41075 413 104.69 801.632 494.245
3039 0 52.0278 11.1287 579 99.5285 800.727 494.895
3040 0 50.1215 10.275 515 101.513 799.734 494.19
3041 0 50.1024 12.8537 644 99.4363 800.531 492.475
3042 0 51.0684 17.3884 888 93.9797 798.965 491.266
3043 0 51.0684 17.5451 896 108.021 797.987 491.205
3044 0 50.1159 11.1342 558 100.966 797.337 494.156
3045 0 52.0621 12.2162 636 100.153 796.907 489.865
3046 0 51.0362 12.2658 626 99.7891 795.236 491.679
3047 0 53.1287 12.8179 681 97.6725 794.753 492.786
3048 0 51.0918 12.7613 652 99.2132 795.049 488.64
3049 0 51.1336 12.3793 633 99.1248 793.679 488.185
3050 0 57.2997 12.8273 735 97.0122 794.888 488.946
3051 0 51.3638 12.1292 623 99.8234 792.27 487.252
3052 0 52.3135 16.1908 847 94.8689 792.503 485.692
3053 0 52.3645 13.5206 708 98.3828 792.643 482.325
3054 0 54.4414 20.4991 1116 87.9265 791.944 488.289
