time division length width area intensity CMx CMy
0 0 58.0966 14.6997 854 137.044 356.227 385.419
1 0 60.1258 16.0164 963 132.534 355.434 386.477
2 0 64.1857 14.6294 939 136.605 354.825 386.088
3 0 63.0606 15.0649 950 126.916 352.931 384.538
4 0 67.1795 16.1508 1085 129.451 353.441 386.437
5 0 66.1124 16.6837 1103 128.892 353.182 385.139
6 1 33.0798 11.2455 372 134.849 350.863 398.871
7 0 33.0369 12.7736 422 135.585 350.109 397.848
8 0 36.0172 12.0498 434 134.373 349.009 398.942
9 0 39.0461 11.8066 461 134.321 348.154 397.638
10 0 39.0446 14.2913 558 128.188 348.258 395.735
11 0 40.1204 14.0577 564 126.902 348.103 397.303
12 0 41.0744 15.3137 629 125.029 348.1 397.488
13 0 46.1771 15.4839 715 121.782 349.091 396.583
14 0 45.0192 14.5271 654 122.183 347.699 394.861
15 0 45.0813 15.0617 679 125.094 347.672 392.867
16 0 47.1203 16.4685 776 122.122 347.14 393.213
17 0 48.0298 15.4279 741 125.862 347.294 390.78
18 0 51.0194 17.7383 905 119.36 347.67 388.538
19 0 52.2227 18.0956 945 118.612 347.903 387.677
20 0 53.1021 18.0972 961 117.666 347.518 389.326
21 0 56.1387 15.337 861 118.718 347.693 385.768
22 0 57.1106 14.8834 850 117.296 347.366 384.931
23 0 58.1218 14.9686 870 124.693 348.843 382.44
24 0 60.1436 16.8264 1012 120.34 349.542 381.778
25 0 65.1267 16.8134 1095 116.909 350.044 384.561
26 0 66.1456 16.9475 1121 118.445 350.258 385.606
27 0 68.1104 14.9169 1016 122.004 352.085 391.99
28 0 72.2252 14.6209 1056 120.367 351.956 396.92
29 0 73.23 14.7207 1078 120.927 351.695 394.043
30 0 75.1061 14.5527 1093 121.1 354.528 393.54
31 0 75.1061 14.4462 1085 147.305 357.543 393.626
32 0 81.1571 19.567 1588 110.88 354.217 397.701
33 0 86.0743 16.4625 1417 116.029 356.601 394.643
34 0 87.143 17.2819 1506 112.971 356.544 395.594
35 1 46.1377 11.574 534 122.069 357.378 416.906
36 0 48.0786 13.9771 672 114.647 356.604 418.656
37 0 53.0476 18.7379 994 108.594 358.739 420.136
38 0 53.0826 12.49 663 115.054 356.576 422.507
39 0 61.9145 18.2025 1127 103.686 358.587 426.126
40 0 58.21 13.8636 807 110.782 357.634 425.803
41 0 58.0737 13.7756 800 113.872 358.038 425.45
42 0 61.0487 12.2198 746 113.405 356.924 433.017
43 0 64.0922 18.4734 1184 104.803 357.623 430.772
44 0 66.1059 17.6384 1166 111.122 356.954 436.795
45 0 66.0602 12.8519 849 128.286 357.18 436.446
46 0 68.0693 13.4569 916 124.582 355.234 437.825
47 0 70.1759 13.4234 942 128.004 354.193 433.797
48 0 72.1225 13.9623 1007 129.08 354.389 434.818
49 0 77.2895 15.746 1217 119.942 352.024 436.367
50 0 78.081 15.1125 1180 124.997 352.164 436.711
51 0 82.2582 17.5423 1443 121.057 351.186 434.877
52 0 82.2351 14.3613 1181 126.325 350.714 436.899
53 0 87.2315 13.1833 1150 127.236 350.306 441.041
54 0 88.1851 15.2293 1343 123.713 350.511 440.647
55 0 94.2241 14.3382 1351 122.996 350.828 443.476
56 0 95.3655 13.1809 1257 124.333 349.684 443.714
57 0 95.3655 13.2123 1260 137.028 348.696 443.684
58 1 52.0414 14.5653 758 110.995 348.555 471.55
59 0 51.0874 12.3514 631 116.609 347.859 468.918
60 0 54.0844 11.593 627 118.44 348.648 466.66
61 0 59.1559 13.3545 790 114.597 348.551 468.309
62 0 63.2123 16.7373 1058 110.331 347.817 463.348
63 0 64.1218 11.3534 728 116.736 346.967 465.096
64 0 66.3079 13.6635 906 115.067 348.254 460.988
65 0 70.1036 10.727 752 120.043 348.556 460.85
66 0 73.1023 15.1568 1108 112.949 348.496 460.925
67 0 73.1006 13.7345 1004 117.849 348.434 455.03
68 0 75.2279 11.5782 871 121.628 349.364 454.094
69 0 79.1795 15.6227 1237 116.006 349.998 451.854
70 0 82.1571 16.4319 1350 115.632 350.674 450.567
71 0 86.151 15.5889 1343 117.809 349.906 448.393
72 0 89.159 13.9414 1243 120.109 351.266 448.837
73 0 91.3947 14.5085 1326 120.428 351.689 443.476
74 1 46.1165 10.9722 506 121.194 352.391 464.484
75 0 50.2141 14.717 739 115.229 353.038 465.16
76 0 51.2911 12.7702 655 117.612 353.905 462.779
77 0 50.102 10.3788 520 121.698 354.992 463.838
78 0 53.2821 14.7892 788 115.783 355.693 463.319
79 0 58.2721 13.6257 794 115.526 355.864 463.097
80 0 60.1571 17.4709 1051 107.49 357.068 468.344
81 0 59.3429 12.1329 720 119.458 356.406 462.064
82 0 63.2798 12.6581 801 117.493 356.335 466.306
83 0 61.082 12.2458 748 120.467 355.862 462.004
84 0 66.3779 14.2969 949 115.844 354.606 465.434
85 0 69.3425 14.6663 1017 114.026 355.109 464.618
86 0 69.3315 13.2696 920 117.436 355.333 463.15
87 0 72.2743 16.2575 1175 113.413 355.174 459.706
88 0 74.3299 13.1576 978 118.043 354.088 462.331
89 0 77.2846 14.5048 1121 116.663 355.145 461.161
90 0 81.2624 11.7521 955 120.473 354.301 462.55
91 0 84.1389 14.4166 1213 115.39 352.25 461.877
92 0 85.1966 11.4793 978 120.355 352.217 458.658
93 0 90.1291 13.2255 1192 117.152 352.706 457.799
94 1 43.148 10.3365 446 116.794 350.22 477.309
95 0 44.0423 9.76333 430 119.53 350.121 473.465
96 0 50.2063 12.0304 604 110.834 348.076 481.531
97 0 52.1543 10.9866 573 113.703 348.923 479.14
98 0 49.1745 14.4791 712 110.117 347.895 475.883
99 0 54.1031 14.1212 764 109.873 346.708 473.137
100 0 55.0986 14.4831 798 109.627 347.293 471.33
101 0 61.0942 19.2162 1174 101.565 346.707 468.876
102 0 58.2414 15.1095 880 108.162 346.716 468.259
103 0 61.2862 11.8787 728 112.53 346.47 463.552
104 0 62.0573 13.8098 857 110.595 345.909 461.873
105 1 128.473 12.8198 1647 116.721 346.414 426.148
106 1 67.1752 16.8812 1134 105.622 347.294 461.496
107 0 69.1378 13.8708 959 109.736 346.221 456.031
108 0 72.349 16.5863 1200 106.643 346.19 456.053
109 0 73.1539 11.1546 816 116.757 347.301 452.138
110 0 77.138 13.6249 1051 112.158 348.03 449.53
111 0 79.2257 12.2056 967 114.432 347.614 449.504
112 0 83.4104 14.5066 1210 111.445 347.731 445.125
113 0 90.4235 13.2045 1194 111.44 348.095 446.734
114 0 90.1915 15.2232 1373 110.096 349.96 447.085
115 0 95.2348 14.9525 1424 111.172 350.295 442.078
116 1 51.3771 10.0823 518 111.871 351.448 462.944
117 0 52.2137 9.09723 475 113.101 352.276 462.749
118 0 52.0632 11.0635 576 112.7 352.788 460.154
119 0 52.0632 11.0251 574 132.129 353.774 460.22
120 0 54.1061 16.2643 880 106.334 353.217 458.99
121 0 56.0395 10.2249 573 112.555 353.091 466.724
122 0 60.097 13.0788 786 109.434 354.864 458.718
123 0 61.1897 14.3488 878 107.301 354.76 463.723
124 0 63.0897 14.7092 928 106.231 354.745 463.265
125 0 64.2602 14.4257 927 106.239 355.867 465.547
126 0 62.1768 10.4058 647 112.779 356.379 464.128
127 0 65.1633 9.91356 646 113.241 356.485 464.015
128 0 69.3376 11.682 810 111.126 354.336 461.786
129 0 71.3198 16.2087 1156 106.424 355.675 462.71
130 0 72.3042 9.03129 653 115.856 354.539 462.878
131 0 75.1698 12.9174 971 111.742 353.822 462.27
132 0 76.1295 11.6249 885 114.566 353.24 456.293
133 0 85.2076 13.9542 1189 109.561 352.818 460.86
134 0 88.1273 15.4549 1362 107.777 352.709 457.689
135 0 87.2176 10.9496 955 113.188 351.524 455.685
136 0 92.1354 15.3687 1416 107.537 352.061 451.366
137 1 44.1161 9.08965 401 108.913 350.514 477.524
138 0 43.1122 10.7858 465 113.925 347.542 476.869
139 0 44.0928 10.7047 472 107.335 348.964 472.362
140 0 44.0928 10.7047 472 105.612 350.964 472.362
141 0 50.0925 9.94161 498 108.297 348.518 474.624
142 0 49.0629 8.78465 431 110.48 347.889 468.348
143 0 56.1 13.2977 746 104.269 346.953 467.575
144 0 62.2714 9.1053 567 108.303 346.028 469.649
145 0 62.2133 15.7683 981 101.613 345.437 465.348
146 0 63.0865 11.2861 712 108.35 344.928 462.354
147 0 64.1102 8.78176 563 112.575 344.215 457.405
148 0 68.3201 15.2225 1040 102.992 344.506 463.247
149 0 70.1854 11.5551 811 108.423 345.507 462.912
150 0 74.2717 11.9561 888 109.734 343.962 456.449
151 0 78.3041 14.9928 1174 105.449 345.716 455.986
152 0 75.2095 12.0862 909 111.639 346.034 451.249
153 0 81.2008 13.5344 1099 108.914 346.524 454.718
154 0 80.1121 11.0845 888 115.043 346.416 445.69
155 0 89.2277 13.0117 1161 111.273 345.185 448.762
156 0 92.258 18.9143 1745 103.464 346.453 448.2
157 0 90.2063 12.3495 1114 113.9 348.268 440.665
158 1 53.0989 12.8439 682 105.425 347.858 466.826
159 0 54.0423 12.2497 662 106.411 347.708 466.063
160 0 55.0758 11.693 644 108.901 349.551 461.202
161 0 58.3064 9.29572 542 113.946 348.445 465.22
162 0 62.1999 11.7524 731 108.969 350.115 467.744
163 0 62.1135 12.7186 790 112.218 350.539 462.705
164 0 64.0607 12.9565 830 110.678 351.511 459.802
165 0 66.1344 12.3688 818 111.411 352.111 463.288
166 0 71.1645 13.5882 967 109.185 353.476 464.193
167 0 70.0849 14.2541 999 109.037 354.111 463.728
168 0 70.0849 14.2969 1002 128.835 355.1 463.754
169 0 76.0887 14.3254 1090 109.005 354.41 461.632
170 0 78.1319 14.2323 1112 107.993 354.796 466.749
171 0 81.0883 12.0116 974 113.159 353.687 460.242
172 0 84.3337 13.6244 1149 110.605 354.152 455.712
173 0 88.12 12.3695 1090 111.553 353.602 462.363
174 0 90.0943 12.1095 1091 111.78 352.082 464.424
175 1 50.0606 13.6435 683 106.608 352.158 481.612
176 0 49.1065 11.2205 551 109.407 351.14 481.604
177 0 50.2626 13.708 689 106.743 351.238 478.299
178 0 52.0935 11.5753 603 110.784 351.206 482.99
179 0 55.2578 14.6948 812 105.895 349.773 481.903
180 0 57.124 13.2169 755 108.899 349.872 484.226
181 0 56.1685 11.1806 628 114.189 349.164 479.51
182 0 58.1119 11.7532 683 112.227 347.218 479.958
183 0 61.0574 9.0243 551 115.929 345.906 478.722
184 0 63.1091 12.0585 761 112.284 346.766 477.633
185 0 65.1829 12.3806 807 112.113 344.822 474.445
186 0 67.2422 13.6967 921 109.362 343.51 476.07
187 0 65.2105 10.5044 685 115.204 344.739 472.714
188 0 69.0806 11.7254 810 113.58 343.358 469.112
189 0 71.1015 11.7578 836 112.06 343.599 469.539
190 0 75.1595 14.4227 1084 108.624 342.951 466.427
191 0 73.0452 10.6099 775 114.881 343.374 463.96
192 0 79.0672 13.2672 1049 109.553 344.103 462.084
193 0 83.1064 13.4767 1120 109.281 343.263 460.979
194 0 85.1717 13.3612 1138 111.183 343.997 459.732
195 0 87.1607 13.4235 1170 112.199 344.319 454.712
196 1 44.0603 12.5056 551 104.519 344.486 479.9
197 0 45.08 12.1783 549 107.443 345.862 473.619
198 0 48.0238 12.1606 584 106.557 345.86 476.216
199 0 49.1906 13.7221 675 108.47 347.25 472.059
200 0 51.1317 14.2182 727 106.513 345.68 467.465
201 0 51.0797 9.7299 497 113.531 346.608 469.429
202 0 53.2248 11.0663 589 111.234 348.844 472.9
203 0 54.1359 12.561 680 110.499 347.687 469.594
204 0 56.2848 9.68291 545 112.789 348.993 469.919
205 0 57.1897 14.6705 839 107.228 349.757 469.393
206 0 59.254 14.6657 869 107.423 350.044 467.234
207 0 61.0966 13.3232 814 109.095 351.569 467.946
208 0 64.0901 15.0413 964 105.581 349.865 470.201
209 0 63.1608 15.3893 972 107.017 352.01 468.751
210 0 65.3273 22.2418 1453 98.137 352.445 470.458
211 0 69.0632 15.4062 1064 105.383 352.495 471.13
212 0 71.2291 17.3805 1238 101.919 352.083 472.342
213 0 70.2115 12.7614 896 110.834 352.66 469.185
214 0 74.1157 11.3336 840 112.331 353.006 469.139
215 0 74.1364 12.7333 944 110.706 352.703 471.95
216 0 77.1867 11.2195 866 112.948 352.599 471.906
217 1 39.0686 8.80502 344 113.878 352.863 486.733
218 0 43.0993 10.7658 464 109.832 352.761 487.539
219 0 44.0549 13.6421 601 106.631 352.492 487.541
220 0 48.0565 11.9443 574 108.188 351.798 488.911
221 0 46.0758 14.2157 655 103.464 350.345 490.734
222 0 44.0373 9.83257 433 109.663 350.39 491.319
223 0 49.0381 11.9499 586 106.177 348.509 490.753
224 0 48.125 11.0338 531 107.687 346.32 490.168
225 0 49.0453 11.4792 563 108.524 346.114 488.945
226 0 53.0995 12.147 645 110.233 343.955 485.524
227 0 57.1742 13.765 787 107.053 344.579 486.116
228 0 53.1395 11.1781 594 114.079 342.652 479.816
229 0 58.1206 16.3453 950 104.559 342.481 482.629
230 0 59.2291 16.529 979 104.343 340.794 481.445
231 0 61.1593 19.9152 1218 99.8276 341.75 481.374
232 0 63.1176 17.2852 1091 102.98 342.565 480.2
233 0 64.1007 14.992 961 107.114 341.462 473.49
234 0 65.1053 12.2417 797 110.749 342.158 471.393
235 0 70.1092 15.9893 1121 104.18 341.153 468.672
236 0 72.1762 13.5225 976 108.066 341.107 465.46
237 0 78.212 17.069 1335 102.24 341.406 467.334
238 0 79.3129 16.4286 1303 103.608 341.355 464.276
239 0 80.1131 12.1328 972 111.322 342.214 462.549
240 0 80.1131 12.0579 966 134.948 343.223 462.627
241 1 44.1363 12.1442 536 106.39 342.662 477.965
242 0 41.0482 16.3466 671 93.9255 342.827 487.765
243 0 43.0204 11.297 486 104.255 343.656 476.65
244 0 44.051 11.2597 496 104.468 344.812 476.837
245 0 45.0399 12.5222 564 103.115 344.773 477.47
246 0 49.0344 17.0085 834 96.44 345.882 476.735
247 0 57.2115 12.4975 715 102.834 345.835 474.731
248 0 50.3196 10.5128 529 107.87 347.138 471.643
249 0 55.1334 13.5852 749 102.911 348.393 472.951
250 0 57.1155 16.5979 948 99.7394 348.23 469.851
251 0 58.1878 15.4328 898 100.978 349.041 470.106
252 0 58.0737 13.5001 784 104.218 350.327 470.93
253 0 60.1142 16.1027 968 101.554 350.565 465.815
254 0 63.2134 13.7945 872 104.776 351.118 467.966
255 0 63.0999 10.5547 666 110.102 350.249 471.048
256 0 66.0914 15.4483 1021 103.897 350.748 472.855
257 0 67.1546 12.1957 819 109.076 351.026 471.015
258 0 69.1821 16.1314 1116 105.224 351.668 466.462
259 0 70.2718 12.9924 913 110.619 352.026 466.585
260 0 75.1042 11.6238 873 112.674 351.918 469.636
261 0 81.1384 19.6824 1597 101.048 349.904 469.621
262 0 81.167 12.887 1046 111.845 349.76 468.764
263 0 84.1206 15.3708 1293 108.954 350.636 470.376
264 0 87.2682 16.7071 1458 108.051 348.434 469.764
265 1 44.0735 11.1405 491 110.582 348.479 491.8
266 0 47.1162 12.6284 595 108.444 347.629 489.19
267 0 47.0497 10.117 476 112.824 347.221 489.498
268 0 48.2137 10.2668 495 113.786 347.018 488.436
269 0 54.1228 16.4441 890 105.06 345.284 483.251
270 0 52.286 15.7595 824 106.852 343.984 486.436
271 0 54.2535 16.0727 872 107.071 343.646 485.464
272 0 54.2186 12.7263 690 112.723 343.617 482.736
273 0 57.1598 16.6376 951 107.525 344.109 480.721
274 0 59.0876 16.7379 989 106.336 342.596 481.328
275 0 59.3096 16.102 955 108.362 342.223 475.265
276 0 62.0576 10.6353 660 116.235 341.748 473.582
277 0 62.1318 13.3104 827 112.567 341.959 471.283
278 0 68.1037 16.5483 1127 106.812 341.949 471.434
279 0 69.122 15.1761 1049 109.605 340.994 469.426
280 0 72.3487 16.0196 1159 108.62 342.523 467.225
281 0 74.2478 18.1689 1349 105.566 341.562 466.875
282 0 77.3278 16.1132 1246 108.776 342.3 462.235
283 0 79.1692 13.2122 1046 112.326 343.184 460.536
284 0 79.1692 13.7301 1087 134.741 344.243 460.906
285 0 85.3012 13.9271 1188 113.767 343.893 455.536
286 1 43.045 16.2853 701 103.471 344.967 478.76
287 0 47.1081 11.93 562 112.169 344.495 474.489
288 0 49.0599 14.9817 735 109.395 344.852 469.565
289 0 50.1439 15.635 784 106.903 345.147 472.806
290 0 53.112 12.6713 673 112.392 345.941 470.623
291 0 53.1081 15.8733 843 107.97 346.032 466.74
292 0 54.1195 12.0105 650 114.303 348.491 470.982
293 0 56.078 15.9421 894 108.025 349.102 471.367
294 0 58.1326 13.8992 808 111.396 350.394 470.604
295 0 59.2042 11.2323 665 115.54 349.854 469.955
296 0 61.0538 9.40154 574 118.667 352.61 472.199
297 0 64.095 13.1056 840 113.975 352.795 467.373
298 0 66.1382 14.0615 930 111.332 351.742 468.865
299 0 69.1664 16.8868 1168 106.231 352.643 472.043
300 0 71.0847 14.4476 1027 109.91 352.855 470.125
301 0 72.0859 13.9001 1002 111.419 352.111 467.762
302 0 74.402 15.0265 1118 110.508 353.286 467.48
303 0 78.2312 12.2074 955 114.536 352.416 465.21
304 0 81.3327 14.6436 1191 111.712 352.704 466.449
305 1 42.2593 9.9623 421 112.705 351.461 488.905
306 0 43.3321 10.6388 461 111.779 351.67 489.219
307 0 46.1669 13.7761 636 109.046 349.995 485.912
308 0 45.0951 12.4182 560 111.15 348.743 486.098
309 0 45.0315 12.8799 580 109.984 348.616 487.49
310 0 46.0253 10.5377 485 113.852 347.777 489.324
311 0 47.0823 13.6569 643 110.356 347.089 483.356
312 0 51.0929 12.6045 644 111.602 345.63 485.435
313 0 52.0605 12.5431 653 112.85 346.386 485.034
314 0 53.1243 14.0425 746 111.131 346.751 480.889
315 0 58.2167 17.1944 1001 103.975 345.608 484.54
316 0 56.0876 16.5099 926 108.134 344.938 480.133
317 0 60.1628 14.145 851 110.559 343.472 478.689
318 0 60.1258 13.9375 838 111.71 343.47 476.612
319 0 62.1426 13.6299 847 113.25 343.692 475.068
320 0 64.0481 12.1159 776 114.34 342.823 475.186
321 0 65.1217 11.8087 769 116.26 343.153 471.891
322 0 67.1204 12.4254 834 115.825 342.934 470.091
323 0 71.1097 13.1487 935 114.772 343.437 466.34
324 0 71.0756 13.4786 958 114.272 343.911 464.248
325 0 75.1273 11.8066 887 115.667 343.506 464.038
326 0 79.1911 15.0017 1188 111.352 344.225 459.574
327 0 82.1863 16.0489 1319 109.006 345.81 458.215
328 1 42.0548 10.2723 432 112.773 343.981 477.618
329 0 47.049 11.775 554 111.135 344.993 476.273
330 0 48.0146 12.9336 621 109.454 344.578 473.406
331 0 48.0146 13.0169 625 126.683 343.597 473.389
332 0 50.0414 12.6495 633 111.444 346.801 471.046
333 0 50.0633 11.5454 578 114.753 346.047 469.381
334 0 53.0968 12.5431 666 113.637 347.161 467.357
335 0 55.0724 14.4719 797 108.823 349.276 474.744
336 0 54.1737 13.1798 714 114.16 350.081 466.723
337 0 58.2482 17.3224 1009 106.087 350.014 469.044
338 0 62.0412 18.2137 1130 104.897 351.682 467.873
339 0 62.118 12.5889 782 114.271 352.572 468.249
340 0 65.2067 16.394 1069 108.5 351.484 467.909
341 0 66.1094 15.913 1052 107.726 353.713 472.183
342 0 67.172 12.6392 849 114.154 352.227 464.966
343 0 69.2994 15.2238 1055 110.791 352.774 465.815
344 0 73.2002 14.754 1080 111.694 354.55 468.456
345 0 73.1685 15.8948 1163 110.711 355.251 467.497
346 0 75.2681 14.1096 1062 112.813 354.405 466.645
347 0 78.156 14.7653 1154 111.952 354.763 465.798
348 0 81.3431 16.5964 1350 109.213 354.236 466.787
349 0 85.4641 11.537 986 116.103 353.578 467.262
350 0 85.4641 11.5721 989 151.379 353.583 467.225
351 1 49.118 11.9304 586 115.326 351.007 483.802
352 0 50.1363 14.0218 703 113.164 352.824 482.582
353 0 51.2766 13.0469 669 114.616 352.534 480.861
354 0 52.1372 14.3276 747 111.963 350.894 487.301
355 0 54.1239 13.0441 706 115.616 350.449 484.795
356 0 55.1787 13.9547 770 114.201 349.84 483.256
357 0 59.162 13.9279 824 113.445 348.234 483.055
358 0 59.1049 14.1105 834 113.91 348.348 477.133
359 0 63.1345 16.7104 1055 108.437 347.997 477.403
360 0 65.1762 16.862 1099 109.099 346.05 472.512
361 0 66.1435 13.758 910 113.802 347.331 475.374
362 0 67.1536 13.3574 897 115.278 345.714 469.34
363 0 72.253 16.5114 1193 109.083 345.603 468.687
364 0 75.1662 15.805 1188 109.657 345.005 466.071
365 0 77.1441 15.2183 1174 111.19 345.417 464.784
366 0 79.2822 16.2836 1291 109.479 345.77 462.38
367 0 84.1021 17.4312 1466 107.511 346.042 461.003
368 0 87.1608 14.6396 1276 111.027 345.353 457.726
369 0 88.4148 14.8957 1317 111.196 345.588 453.184
370 1 46.1264 15.3058 706 107.265 345.424 474.47
371 0 47.2155 15.0798 712 106.576 347.112 475.427
372 0 49.1649 11.5326 567 108.266 345.496 473.286
373 0 50.4307 12.4131 626 109.179 347.441 471.65
374 0 53.2419 14.2745 760 108.488 348.701 466.404
375 0 52.2544 13.1089 685 111.974 348.717 464.613
376 0 56.3714 18.9103 1066 102.971 349.845 465.608
377 0 58.449 12.5751 735 111.619 349.868 465.127
378 0 59.2726 12.5859 746 113.655 352.083 460.657
379 0 64.2799 15.308 984 107.33 353.736 463.859
380 0 65.5558 12.4322 815 112.562 353.66 459.32
381 1 131.475 13.7745 1811 115.999 353.902 428.818
382 1 68.6077 11.8208 811 114.72 355.291 460.179
383 0 74.4218 14.8881 1108 109.743 354.134 454.46
384 0 75.3841 16.7277 1261 107.17 356.039 459.669
385 0 77.1948 14.7419 1138 109.365 355.598 459.228
386 0 82.3207 20.3958 1679 102.107 356.099 454.199
387 0 82.511 13.0164 1074 114.84 355.387 453.6
388 0 83.4924 11.8454 989 117.156 356.026 454.37
389 0 90.3172 14.5266 1312 112.733 356.056 453.54
390 0 89.5194 16.4992 1477 110.223 356.238 458.3
391 0 95.3885 16.0501 1531 110.783 355.817 456.131
392 0 97.3954 14.0048 1364 114.51 354.336 453.655
393 0 99.3647 11.02 1095 118.707 354.361 454.052
394 0 104.48 15.1895 1587 112.34 353.225 453.047
395 1 59.0744 15.5905 921 106.688 352.1 478.267
396 0 58.3691 15.1964 887 108.82 353.372 478.806
397 0 59.2488 11.342 672 116.993 352.911 475.89
398 0 61.4339 14.4708 889 110.676 351.595 477.765
399 0 64.3703 14.8982 959 112.59 350.655 471.388
400 0 66.7081 11.6628 778 118.407 349.706 472.947
401 0 67.3058 12.8072 862 116.84 348.964 472.477
402 0 71.3515 13.7348 980 116.098 348.515 468.991
403 0 72.1857 13.2713 958 117.643 347.041 464.667
404 0 74.506 17.6228 1313 110.727 347.23 461.692
405 0 76.5713 13.1642 1008 117.977 345.722 463.74
406 0 80.3638 11.9457 960 118.692 347.23 463.402
407 0 83.2995 15.2942 1274 112.724 345.39 458.821
408 0 86.3138 13.6015 1174 116.08 345.935 458.444
409 0 91.2544 15.1335 1381 113.34 344.105 452.802
410 0 94.282 16.4613 1552 110.172 344.786 455.094
411 0 97.5172 13.9873 1364 116.012 345.376 447.446
412 1 51.3277 10.7934 554 116.435 344.264 472.643
413 0 54.1331 15.2956 828 113.356 345.204 466.397
414 0 56.2076 13.5391 761 114.64 346.388 468.066
415 0 59.3252 16.5023 979 110.088 346.778 465.615
416 0 59.1811 17.8435 1056 109.04 346.616 464.474
417 0 63.3656 12.5147 793 117.168 346.806 459.622
418 0 65.5149 14.4547 947 113.834 348.653 459.323
419 0 68.3284 15.1767 1037 112.887 350.455 457.339
420 0 67.2285 14.6813 987 116.833 349.859 457.176
421 0 72.3278 14.6279 1058 115.988 349.197 456.104
422 0 74.3472 13.3832 995 118.065 351.597 453.921
423 0 79.2489 16.8583 1336 112.394 350.947 448.989
424 0 84.2351 19.1606 1614 108.093 351.79 448.638
425 0 84.2351 19.2081 1618 129.988 351.742 448.566
426 0 84.2351 19.1963 1617 129.532 352.749 448.502
427 0 84.2351 19.1963 1617 129.164 353.749 448.502
428 1 44.3061 12.9102 572 114.107 355.575 474.362
429 0 45.2888 15.4564 700 111.759 355.244 473.26
430 0 47.1971 13.4542 635 111.652 354.783 474.841
431 0 49.138 17.9698 883 105.615 355.501 473.998
432 0 49.4113 12.9525 640 113.881 355.994 471.927
433 0 57.4354 19.239 1105 100.974 355.279 477.215
434 0 55.686 15.1923 846 107.963 355.65 474.394
435 0 55.3545 18.9325 1048 104.127 354.802 472.196
436 0 59.2692 18.2726 1083 103.583 353.501 473.898
437 0 58.2032 19.535 1137 102.652 353.346 474.428
438 0 62.3503 18.3159 1142 103.997 352.151 471.189
439 0 62.3067 14.9743 933 108.807 353.232 474.327
440 0 64.3963 13.5567 873 113.26 351.969 472.186
441 0 66.1623 13.9505 923 113.761 351.692 467.232
442 0 69.3046 17.387 1205 108.037 351.251 471.175
443 0 73.179 18.6256 1363 106.235 349.69 468.201
444 0 75.1436 17.1938 1292 109.517 348.492 465.352
445 0 80.1776 22.2381 1783 102.2 349.064 465.46
446 0 80.1203 18.7468 1502 108.47 347.181 462.24
447 0 82.2166 19.3757 1593 107.711 347.49 466.183
448 0 87.3372 18.5259 1618 109.012 347.059 459.452
449 0 87.2987 16.4264 1434 113.896 347.208 456.16
450 0 90.6385 15.2805 1385 115.913 347.32 455.174
451 0 94.2999 14.1252 1332 118.659 346.586 452.625
452 1 53.3254 12.7707 681 117.869 346.304 474.671
453 0 56.5643 15.2923 865 113.41 346.007 473.413
454 0 57.248 13.3105 762 117.106 345.509 470.77
455 0 58.5647 17.1093 1002 111.18 346.292 466.647
456 0 59.4751 19.4703 1158 107.749 345.528 470.406
457 0 62.3321 16.396 1022 113.586 346.825 465.293
458 0 65.2683 14.1876 926 117.518 346.613 464.375
459 0 66.315 15.743 1044 116.023 347.206 462.689
460 0 67.5104 13.4794 910 119.912 348.221 458.513
461 0 68.4072 14.7353 1008 118.932 347.354 456.461
462 0 75.2058 15.8233 1190 114.643 349.314 463.269
463 0 76.1532 16.9921 1294 113.379 349.059 461.848
464 0 77.3672 20.9779 1623 107.575 348.766 462.111
465 0 83.5009 19.2932 1611 109.33 349.932 456.186
466 0 85.2385 14.2541 1215 117.14 349.826 458.285
467 0 90.2859 14.4873 1308 116.687 350.654 456.303
468 0 90.3621 15.1391 1368 117.842 350.837 453.481
469 0 92.4804 13.3542 1235 121.249 351.36 452.806
470 0 98.6153 19.2161 1895 112.636 352.355 451.525
471 0 100.623 17.9879 1810 114.37 352.381 452.69
472 0 104.45 17.0321 1779 116.28 352.419 450.336
473 0 109.344 14.5413 1590 121.395 352.538 448.606
474 0 111.466 13.4212 1496 123.164 350.85 448.458
475 0 118.539 15.8682 1881 118.194 352.196 448.097
476 0 119.414 14.6801 1753 121.601 351.208 448.564
477 0 125.517 16.4201 2061 118.346 350.903 446.565
478 0 128.651 15.0873 1941 121.038 350.668 444.805
479 0 134.508 19.9245 2680 111.322 350.46 451.584
480 0 140.69 16.1916 2278 118.591 350.09 445.264
481 0 142.403 15.0347 2141 121.603 350.233 441.585
482 0 149.698 18.9314 2834 113.428 349.758 445.776
483 0 152.624 16.1901 2471 118.796 349.189 439.922
484 0 158.692 15.987 2537 118.619 347.261 437.518
485 0 165.701 14.6771 2432 120.152 346.397 434.543
486 0 171.282 19.1322 3277 112.929 345.35 436.241
487 0 178.607 17.8156 3182 115.236 344.119 428.729
488 0 184.407 15.4929 2857 120.109 344.547 420.2
489 0 190.421 19.0946 3636 115.123 344.048 414.921
490 0 197.365 17.2219 3399 118.864 342.328 412.392
491 0 204.559 17.8824 3658 118.558 342.914 408.186
492 0 209.637 15.3933 3227 123.058 343.451 403.586
493 0 219.536 20.967 4603 113.188 343.183 399.368
494 0 229.779 18.6135 4277 115.874 342.086 394.434
495 0 337.348 17.7324 5982 117.412 340.634 333.119
496 0 354.073 24.4131 8644 107.378 339.742 339.665
497 1 56.1681 12.7653 717 116.374 341.176 475.979
498 0 58.1006 13.9413 810 118.069 339.578 475.372
499 0 63.0664 15.0318 948 112.648 339.519 478.248
500 0 66.1081 16.7907 1110 112.132 341.231 470.966
501 0 67.3084 16.6992 1124 111.75 342.487 467.279
502 0 68.2457 12.9532 884 116.531 343.431 469.145
503 0 67.2793 13.2433 891 117.029 343.206 462.122
504 0 72.1628 13.0677 943 115.698 344.101 463.751
505 0 77.2498 15.7929 1220 110.761 344.496 458.898
506 0 79.3539 14.4164 1144 114.448 344.946 458.483
507 0 82.3856 15.1361 1247 113.203 346.334 455.423
508 0 84.3295 15.0007 1265 113.097 347.043 451.402
509 0 87.2356 11.3256 988 117.869 347.463 452.02
510 0 93.5091 16.5973 1552 108.116 348.84 453.784
511 1 50.2761 11.6159 584 111.024 350.091 470.106
512 0 52.3158 12.7686 668 106.421 350.754 477.636
513 0 53.1449 14.0371 746 107.614 350.988 470.292
514 0 57.2282 11.725 671 110.52 349.669 474.797
515 0 60.1866 17.0304 1025 100.317 350.092 481.374
516 0 61.1724 14.5981 893 106.427 351.29 476.545
517 0 59.1314 12.1763 720 113.676 350.896 475.775
518 0 66.3478 15.3283 1017 105.646 352.444 480.599
519 0 62.0726 10.8905 676 114.83 351.553 479.781
520 0 67.0622 13.5844 911 110.66 350.161 477.029
521 0 68.1557 12.5888 858 111.653 350.548 478.836
522 0 71.1102 13.6689 972 110.028 349.863 477.695
523 0 74.1182 12.2372 907 111.81 348.913 476.987
524 0 77.1884 13.7586 1062 110.454 347.434 473.953
525 0 77.2497 11.5729 894 114.691 348.392 474.915
526 0 83.3151 14.4992 1208 108.823 347.868 475.761
527 0 86.3061 13.7418 1186 110.748 347.535 472.112
528 0 86.164 13.5672 1169 111.665 346.578 469.418
529 0 89.5465 12.2506 1097 111.386 346.066 453.766
530 0 92.2324 14.0406 1295 107.348 345.298 454.848
531 0 94.3617 13.035 1230 108.556 344.955 455.844
532 1 51.1755 10.8255 554 102.377 345.217 482.688
533 0 53.1791 9.87229 525 109.718 344.571 483.53
534 0 54.0817 9.02338 488 110.498 343.914 485.961
535 0 56.1679 12.9967 730 105.707 343.725 483.538
536 0 59.1472 13.4579 796 104.4 341.222 479.464
537 0 59.121 12.855 760 106.017 340.495 479.954
538 0 61.271 12.9262 792 105.582 341.434 481.869
539 0 62.2536 12.6418 787 107.338 341.572 476.245
540 0 65.2025 13.1897 860 106.285 341.383 473.245
541 0 65.1335 11.2231 731 109.632 342.049 475.107
542 0 66.1411 12.2163 808 108.257 341.282 471.976
543 0 67.2035 11.2643 757 109.085 342.622 469.684
544 0 73.0694 12.9876 949 105.07 343.404 468.326
545 0 74.2857 18.8058 1397 98.7545 342.311 468.729
546 0 77.4022 15.2192 1178 103.067 343.615 463.318
547 0 79.2576 14.0933 1117 103.779 342.992 464.903
548 0 80.2099 13.4273 1077 106.717 345.256 458.922
549 0 86.3403 11.5126 994 109.133 344.54 461.116
550 0 89.4226 13.274 1187 106.451 344.708 461.249
551 1 45.0408 12.9882 585 101.451 346.419 483.791
552 0 45.0408 13.0548 588 114.889 348.403 483.796
553 0 50.2156 12.6853 637 104.075 346.686 479.769
554 0 50.1602 9.96807 500 110.354 346.71 474.918
555 0 54.0972 11.8675 642 108.53 347.315 476.369
556 0 53.1648 10.8342 576 108.724 348.233 478.13
557 0 58.1955 11.5301 671 107.957 350.049 476.285
558 0 59.0419 12.8383 758 106.404 352.078 475.946
559 0 60.1047 12.5281 753 106.81 352.105 478.914
560 0 64.0765 14.4671 927 104.407 351.408 473.327
561 0 64.0846 13.4354 861 104.879 352.084 478.246
562 0 65.231 13.1073 855 105.804 350.979 474.729
563 0 69.1758 12.967 897 104.231 350.963 482.356
564 0 71.0765 13.4503 956 105.56 351.387 477.638
565 0 73.1339 12.6344 924 107.763 350.03 476.724
566 0 75.1217 15.1088 1135 102.652 349.77 481.012
567 0 75.1799 13.3546 1004 107.938 349.223 473.263
568 0 77.1148 12.9288 997 108.261 348.756 474.35
569 0 81.1734 13.9085 1129 106.434 348.306 475.955
570 0 82.2387 13.6675 1124 107.249 347.948 478.638
571 0 82.1315 11.5425 948 112.189 347.758 473.028
572 0 87.111 13.7755 1200 108.12 346.462 474.402
573 0 89.1464 13.2367 1180 110.482 345.11 466.507
574 0 94.2623 12.879 1214 111.277 344.07 468.614
575 1 51.0353 11.2471 574 111.237 344.376 488.93
576 0 51.0353 11.2275 573 132.583 344.375 488.843
577 0 54.0989 16.9319 916 100.581 341.069 487.028
578 0 55.0832 11.292 622 107.482 342.617 489.133
579 0 53.17 10.4382 555 111.072 341.681 482.933
580 0 58.1779 12.4102 722 108.139 342.411 484.51
581 0 59.1224 12.601 745 109.579 342.148 479.379
582 0 63.1806 17.6795 1117 99.3939 341.449 483.566
583 0 64.1938 13.5371 869 105.411 341.312 479.044
584 0 64.0819 10.5334 675 112.404 342.486 475.91
585 0 67.0412 11.8882 797 111.363 342.581 472.514
586 0 70.2276 14.453 1015 105.648 342.022 476.35
587 0 72.158 11.2947 815 111.829 342.171 471.816
588 0 74.1212 13.4914 1000 109.507 343.919 468.544
589 0 75.2457 12.3595 930 110.112 343.375 465.314
590 0 79.253 14.4348 1144 107.522 343.296 465.484
591 0 84.4294 16.0134 1352 106.573 343.479 458.439
592 0 84.3273 12.4396 1049 112.096 345.207 460.589
593 0 88.2674 16.0988 1421 105.594 344.761 463.042
594 0 89.2149 14.112 1259 109.461 344.77 456.961
595 1 49.1536 15.5228 763 100.767 344.726 482.624
596 0 50.4306 12.9088 651 107.992 345.149 476.551
597 0 51.5002 10.4466 538 111.054 347.773 476.08
598 0 55.115 17.1641 946 99.5972 349.795 480.088
599 0 54.0917 11.8503 641 108.187 349.755 479.663
600 0 56.1281 9.95936 559 111.365 350.394 478.825
601 0 57.2134 11.7105 670 108.94 352.093 480.431
602 0 59.1971 12.8723 762 107.217 351.364 478.102
603 0 61.3218 14.2527 874 105.175 350.565 480.095
604 0 63.1722 13.8035 872 107.048 350.523 480.849
605 0 62.2629 13.9248 867 107.953 350.617 480.619
606 0 67.2698 14.5385 978 106.541 349.37 480.627
607 0 66.1872 12.2229 809 111.63 348.978 481.829
608 0 68.2628 15.2499 1041 106.988 349.241 478.744
609 0 70.3261 11.4467 805 111.852 348.322 479.764
610 0 74.491 14.3507 1069 106.15 347.219 480.752
611 0 75.2637 13.6188 1025 107.901 347.22 479.131
612 0 78.4162 12.1404 952 109.623 347.8 475.124
613 0 80.234 13.8221 1109 105.528 347.013 479.581
614 0 84.6005 13.156 1113 107.337 346.49 473.353
615 0 86.3954 15.3828 1329 103.53 345.232 475.455
616 0 88.6379 12.7936 1134 108.429 344.623 470.426
617 0 92.5019 16.9186 1565 102.159 343.167 468.17
618 1 47.3985 11.224 532 106.113 342.789 488.855
619 0 49.2411 11.9819 590 104.729 342.129 489.951
620 0 50.0609 12.8244 642 103.237 341.069 487.464
621 0 51.0606 12.2599 626 102.227 341.086 486.166
622 0 53.0507 14.2317 755 100.388 340.536 484.717
623 0 54.2035 9.98091 541 107.152 340.93 484.255
624 0 57.1586 13.0689 747 102.893 340.601 484.228
625 0 58.1025 12.151 706 107.038 340.229 479.619
626 0 60.132 12.0069 722 107.183 339.169 479.514
627 0 65.1632 14.809 965 102.42 341.496 474.644
628 0 64.1249 13.0371 836 104.694 340.996 477.292
629 0 64.0719 17.2463 1105 100.153 340.461 472.346
630 0 67.1478 12.7182 854 105.4 342.35 471.698
631 0 67.2011 13.4075 901 105.128 341.575 470.102
632 0 70.3694 12.7754 899 106.166 343.458 470.465
633 0 72.1477 14.6505 1057 105.025 343.308 463.051
634 0 76.2317 16.2137 1236 101.786 344.672 467.523
635 0 75.302 12.2175 920 107.833 344.617 463.28
636 0 79.3908 11.5001 913 109.345 346.656 462.704
637 0 82.1733 14.1287 1161 105.766 346.114 456.184
638 0 85.1989 12.911 1100 106.997 347.322 459.103
639 0 90.2434 18.8269 1699 99.4367 347.383 457.534
640 0 92.2782 18.4117 1699 100.338 348.573 456.331
641 0 96.367 15.9183 1534 103.362 348.529 453.584
642 0 95.2736 14.9044 1420 105.689 349.274 455.82
643 0 99.2698 13.5993 1350 107.78 349.116 451.086
644 0 101.626 12.8805 1309 109.298 349.445 451.856
645 0 107.414 17.1206 1839 103.514 349.063 454.392
646 0 108.36 16.5744 1796 103.896 349.557 455.442
647 0 111.7 16.1504 1804 101.752 348.898 459.756
648 0 113.545 13.1578 1494 108.132 349.913 448.593
649 0 119.512 13.3878 1600 108.022 349.088 452.435
650 1 63.43 11.2407 713 105.15 348.823 481.069
651 0 63.2746 14.6504 927 101.197 348.791 482.918
652 0 67.1251 11.8585 796 106.85 348.567 481.614
653 0 69.1355 14.2619 986 103.76 347.825 477.457
654 0 74.5555 14.9553 1115 102.917 348.251 477.527
655 0 73.5258 12.6214 928 107.754 346.39 473.516
656 0 76.5675 10.8401 830 107.154 345.705 480.345
657 0 82.7408 18.9508 1568 98.0912 345.453 470.115
658 0 83.5368 15.9092 1329 102.014 344.228 469.428
659 0 86.746 13.7643 1194 103.953 344.757 472.425
660 0 87.5533 14.7339 1290 104.155 343.812 467.304
661 0 90.528 14.8794 1347 103.741 342.452 467.604
662 0 91.5951 15.1755 1390 104.199 341.937 460.302
663 0 94.5686 13.1545 1244 104.139 342.592 467.85
664 0 100.565 14.0805 1416 104.146 341.763 463.089
665 1 50.4645 10.7006 540 107.883 342.017 480.524
666 0 50.5554 11.3934 576 106.872 341.377 481.776
667 0 51.0734 10.8863 556 106.126 340.61 481.95
668 0 55.3808 18.8874 1046 95.4771 340.228 484.149
669 0 58.3242 14.4366 842 99.4644 340.209 482.148
670 0 60.2343 14.2776 860 101.433 342.59 475.871
671 0 60.1175 15.686 943 99.3913 341.604 479.718
672 0 65.439 16.076 1052 99.2243 341.886 474.903
673 0 65.3359 10.1935 666 108.432 342.967 469.347
674 0 65.1065 11.3814 741 108.077 341.758 470.233
675 0 71.1884 14.1456 1007 102.074 344.173 469.847
676 0 74.1463 16.4 1216 100.261 344.596 467.789
677 0 73.2147 14.8877 1090 103.518 345.92 466.3
678 0 77.2112 14.415 1113 104.325 345.879 465.389
679 0 79.2592 12.8818 1021 105.743 346.699 461.979
680 0 83.2188 14.2996 1190 104.887 346.753 460.055
681 0 89.2047 16.5686 1478 101.696 347.922 460.959
682 1 46.1662 12.7149 587 103.274 347.368 477.232
683 0 47.1858 12.1859 575 103.51 347.513 480.894
684 0 47.1107 8.55432 403 108.898 348.66 483.164
685 0 49.0651 11.0058 540 107.519 349.174 474.756
686 0 50.0289 10.5939 530 105.602 348.97 481.392
687 0 51.0257 11.0729 565 108.49 348.717 480.127
688 0 54.0369 11.7697 636 106.066 348.344 482.863
689 0 59.0943 15.7545 931 100.487 349.269 482.677
690 0 59.2132 13.0883 775 106.101 348.932 478.964
691 0 60.1404 12.8034 770 104.797 347.988 483.487
692 0 64.294 14.076 905 104.028 348.273 481.16
693 0 66.1071 14.3404 948 103.691 347.894 481.872
694 0 64.0837 14.7307 944 104.132 349.88 476.716
695 0 69.0887 11.9122 823 105.733 349.131 482.92
696 0 72.2094 10.7327 775 107.694 348.502 480.906
697 0 74.2178 13.5143 1003 105.011 347.349 474.795
698 0 79.3018 14.9555 1186 102.425 346.777 478.049
699 0 81.2333 15.2277 1237 102.692 345.487 472.483
700 0 84.1919 17.3295 1459 100.077 344.232 474.878
701 0 84.2775 12.3877 1044 106.254 343.294 477.633
702 0 88.1367 15.839 1396 102.06 343.325 472.132
703 0 90.2252 11.4602 1034 108.254 343.575 471.109
704 1 46.0576 11.0731 510 104.678 342.873 494.804
705 0 47.0498 10.4145 490 105.476 341.571 495.837
706 0 46.0486 9.77228 450 128.216 340.624 495.284
707 0 51.0642 12.2395 625 103.618 341.822 487.779
708 0 54.0475 19.9084 1076 93.7509 341.001 489.554
709 0 53.0459 11.7068 621 105.023 340.167 485.572
710 0 57.1198 14.4433 825 100.486 341.476 483.278
711 0 56.0887 13.3539 749 103.199 341.848 480.454
712 0 58.198 13.2307 770 102.436 342.404 483.039
713 0 61.2029 12.2543 750 104.808 340.792 475.037
714 0 61.2029 12.2053 747 125.732 338.774 475.201
715 0 64.3372 12.7298 819 104.186 342.021 479.579
716 0 64.4459 11.2653 726 108.601 343.215 473.125
717 0 68.342 13.4032 916 105.307 343.047 473.516
718 0 68.2455 13.5394 924 105.434 343.42 468.896
719 0 71.2662 11.7728 839 106.874 341.993 471.956
720 0 77.3144 14.6286 1131 105.027 344.331 467.223
721 0 79.2547 15.7089 1245 102.965 344.71 466.342
722 0 78.2795 13.1324 1028 108.105 345.362 462.897
723 0 85.3388 15.0108 1281 104.696 345.798 461.666
724 0 84.3293 13.056 1101 108.063 346.306 460.569
725 1 44.057 12.3703 545 107.149 345.668 482.339
726 0 46.0204 8.75699 403 110.846 346.007 486.119
727 0 45.1156 10.1517 458 111.786 348.893 480.703
728 0 48.0883 10.5639 508 111.065 348.543 481.683
729 0 53.1534 11.3445 603 108.473 349.139 486.385
730 0 51.0926 11.3715 581 111.807 348.449 482.093
731 0 55.0531 16.8201 926 102.016 349.273 487.072
732 0 56.0996 12.1213 680 110.178 349.265 485.976
733 0 57.1758 13.887 794 108.548 350.319 485.73
734 0 58.0558 12.4191 721 111.741 349.361 485.522
735 0 59.2094 13.8998 823 110.316 348.287 485.648
736 0 62.1483 12.1162 753 113.554 349.212 485.121
737 0 65.1543 14.7189 959 110.294 347.853 484.127
738 0 68.2542 16.629 1135 106.73 348.642 484.219
739 0 70.1649 14.0954 989 110.71 348.441 483.685
740 0 69.2 12.9335 895 114.045 348.58 482.778
741 0 72.1572 14.4407 1042 112.48 347.457 479.261
742 0 75.1347 13.8418 1040 113.097 348.509 482.188
743 0 77.1264 12.4341 959 116.734 346.631 479.701
744 0 80.185 15.4518 1239 112.107 345.488 474.153
745 1 48.0727 12.0027 577 113.263 344.078 493.411
746 0 47.107 12.8643 606 112.696 345.715 493.244
747 0 46.1207 11.5566 533 115.557 344.113 491.869
748 0 50.0843 12.9182 647 112.065 345 489.505
749 0 52.2555 16.1897 846 107.071 344.834 491.509
750 0 53.1183 13.1593 699 114.409 344.572 484.491
751 0 56.2692 13.9152 783 111.14 342.591 486.857
752 0 57.1986 14.301 818 111.68 343.175 485.141
753 0 58.1525 14.4448 840 113.411 342.713 480.082
754 0 60.1431 19.703 1185 103.128 343.066 484.663
755 0 59.2693 13.4302 796 116.04 343.393 478.957
756 0 63.1766 13.5968 859 115.659 343.332 479.069
757 0 64.1237 12.6162 809 118.42 343.795 474.806
758 0 68.3244 12.5577 858 116.671 344.402 476.924
759 0 69.1074 13.7178 948 115.242 345.01 470.783
760 0 72.3638 14.8279 1073 112.9 344.33 471.225
761 0 75.264 12.4229 935 116.982 344.796 469.278
762 0 78.1909 15.1936 1188 111.911 344.424 467.535
763 0 79.2324 12.9997 1030 116.806 346.921 463.125
764 0 86.314 17.9924 1553 107.108 346.728 461.939
765 0 87.393 14.5549 1272 115.445 348.697 456.387
766 1 44.2123 12.1686 538 113.281 348.102 481.422
767 0 44.2641 10.1889 451 113.049 350.237 480.927
768 0 47.2777 11.9295 564 106.332 350.438 478.387
769 0 47.09 12.9115 608 114.641 348.857 476.623
770 0 52.1143 13.8542 722 111.726 349.963 478.719
771 0 52.0407 12.3173 641 113.735 350.621 483.012
772 0 54.1749 16.4098 889 107.444 349.805 477.699
773 0 55.1429 12.785 705 113.194 350.675 479.592
774 0 54.0918 13.0704 707 116.685 350.562 478.231
775 0 57.209 14.4558 827 111.919 350.859 485.18
776 0 60.1682 17.3015 1041 107.342 350.785 480.446
777 0 61.3073 12.3966 760 115.713 349.875 482.25
778 0 63.2452 14.926 944 111.086 349.537 484.094
779 0 65.1731 12.1983 795 116.811 349.824 481.806
780 0 68.1827 12.9358 882 117.553 350.518 479.582
781 0 70.323 12.9972 914 118.556 349.257 477.079
782 0 74.3069 14.6285 1087 113.988 349.153 481.21
783 0 74.1703 14.6285 1085 115.527 349.075 478.544
784 0 76.2168 15.2985 1166 114.87 349.227 478.392
785 0 77.4669 11.7211 908 119.559 346.839 476.257
786 0 81.3484 14.2105 1156 114.846 345.458 474.971
787 0 85.3245 15.2008 1297 113.184 346.529 473.066
788 0 86.2289 13.7773 1188 115.246 345.302 475.375
789 0 90.3003 14.7065 1328 114.846 345.617 468.964
790 0 92.686 14.1769 1314 113.804 344.281 471.383
791 0 94.5191 12.5054 1182 116.366 345.915 466.807
792 0 100.365 15.5731 1563 110.879 344.584 465.663
793 1 48.0344 11.4085 548 113.96 345.224 489.029
794 0 53.092 13.6744 726 115.069 343.916 483.515
795 0 55.1924 15.6725 865 111.84 342.454 480.523
796 0 54.0652 13.1693 712 117.569 343.03 483.369
797 0 57.2372 18.799 1076 105.665 343.772 487.411
798 0 58.2831 17.0032 991 111.18 342.893 479.392
799 0 61.1224 15.4281 943 113.332 343.497 478.989
800 0 63.2877 15.9747 1011 112.645 342.638 477.76
801 0 65.1764 13.8701 904 117.566 344.613 473.658
802 0 67.2474 14.0972 948 117.281 343.997 471.757
803 0 71.2624 15.3938 1097 113.874 344.531 470.171
804 0 73.3729 16.8454 1236 113.048 344.405 467.458
805 0 74.1287 13.6249 1010 120.558 346.036 465.902
806 0 78.3576 12.8513 1007 121.08 346.546 465.955
807 0 82.2042 14.5735 1198 115.822 346.414 460.654
808 1 44.0793 12.5229 552 117.946 348.616 476.969
809 0 42.1043 10.5452 444 119.505 348.318 477.554
810 0 44.321 10.4916 465 116.437 349.028 474.148
811 0 47.2259 13.3613 631 108.352 351.073 474.989
812 0 49.2023 13.0685 643 115.897 350.983 472
813 0 51.0836 11.4322 584 122.142 349.231 469.664
814 0 51.1665 12.645 647 121.645 350.202 471.105
815 0 52.1509 13.0966 683 139.461 351.224 471.807
816 0 55.1191 12.3551 681 122.307 351.273 475.512
817 0 58.2958 15.4213 899 116.206 350.287 477.076
818 0 59.1392 13.0032 769 121.525 349.874 474.185
819 0 61.2436 16.4425 1007 114.92 350.239 477.056
820 0 65.2964 15.0391 982 116.806 351.415 477.603
821 0 64.3094 14.197 913 119.409 351.542 476.76
822 0 65.3029 14.6088 954 119.857 350.931 472.763
823 0 69.2975 14.647 1015 118.819 349.895 472.32
824 0 74.2169 16.6808 1238 113.39 351.607 474.426
825 0 75.4824 17.6862 1335 111.11 350.357 475.598
826 0 76.434 15.1503 1158 117.396 349.526 471.584
827 0 79.2439 15.0548 1193 118.385 347.855 467.593
828 0 82.4621 15.4616 1275 117.374 347.953 466.088
829 0 82.3965 12.1729 1003 124.19 346.799 466.566
830 0 85.4654 12.9877 1110 122.837 345.827 467.037
831 1 42.3623 9.46597 401 125.756 346.204 487.115
832 0 45.1239 12.3881 559 120.116 346.494 484.792
833 0 46.2749 11.9287 552 121.118 345.779 480.326
834 0 51.2016 15.2534 781 113.088 345.187 485.489
835 0 50.1806 13.013 653 120.4 344.518 484.271
836 0 53.1609 12.3587 657 119.895 344.948 480.795
837 0 60.2309 14.5274 875 111.947 344.458 478.705
838 0 57.0816 11.7376 670 117.906 344.251 478.246
839 0 59.1195 11.9419 706 115.895 344.171 477.098
840 0 63.1198 15.1617 957 110.102 343.122 473.452
841 0 65.2045 13.312 868 113.654 343.914 472.634
842 0 68.2378 13.1013 894 110.834 344.189 473.268
843 0 72.4198 15.0787 1092 109.563 344.03 464.632
844 0 74.3641 13.0574 971 111.924 344.754 467.867
845 0 77.6432 10.7672 836 113.736 344.969 466.129
846 0 74.4518 11.2019 834 117.006 346.133 460.309
847 0 80.5315 13.622 1097 111.824 346.438 458.348
848 0 82.5359 14.6361 1208 110.55 347.282 457.256
849 0 85.657 13.8343 1185 111.745 347.58 457.992
850 0 87.6429 16.0652 1408 110.253 347.879 450.96
851 0 92.6299 14.8332 1374 110.659 348.377 457.82
852 0 93.8388 12.6174 1184 115.523 349.475 454.068
853 0 98.6186 15.0377 1483 111.12 348.41 453.355
854 0 102.827 16.7757 1725 108.129 349.912 455.308
855 0 103.588 14.4032 1492 113.767 349.834 451.134
856 0 105.758 14.3347 1516 116.054 350.464 443.525
857 1 53.302 9.77449 521 117.474 350.772 474.633
858 0 55.0408 11.6096 639 116.837 353.504 474.679
859 0 58.094 14.2355 827 112.503 352.654 479.715
860 0 62.0743 13.4355 834 113.149 353.13 476.237
861 0 63.2166 14.9486 945 111.492 352.476 473.808
862 0 64.1698 13.3708 858 114.88 352.18 472.666
863 0 65.1392 13.2946 866 114.96 353.151 477.346
864 0 68.3915 15.6891 1073 111.521 350.949 474.927
865 0 70.3501 14.2573 1003 114.293 350.1 475.016
866 0 71.1864 12.2214 870 118.502 351.021 471.555
867 0 76.2452 12.9844 990 116.467 350.386 472.608
868 0 77.2687 11.9842 926 118.879 351.003 469.529
869 0 77.1207 12.1628 938 118.645 349.891 467.971
870 0 82.2997 15.6623 1289 109.091 350.139 469.096
871 0 82.3051 13.2556 1091 114.749 349.469 464.825
872 0 85.2752 19.5719 1669 104.901 348.529 466.696
873 0 86.1855 12.0322 1037 119.016 347.015 457.268
874 0 89.1213 14.0146 1249 114.17 346.989 462.219
875 0 96.2076 13.9698 1344 114.158 346.734 453.582
876 1 52.1098 7.31148 381 113.588 346.367 475.163
877 0 50.0844 11.86 594 109.054 346.441 476.66
878 0 55.1172 12.9361 713 106.813 346.33 474.916
879 0 57.1845 9.63548 551 118.252 344.437 479.167
880 0 60.337 14.2035 857 111.649 344.876 474.02
881 0 61.2714 17.1369 1050 107.003 344.483 473.836
882 0 64.1655 11.782 756 114.517 344.845 476.159
883 0 67.2512 12.8027 861 112.044 343.984 471.912
884 0 66.4418 13.6059 904 111.542 344.464 472.006
885 0 71.4171 16.2146 1158 105.094 344.671 473.2
886 0 72.3266 12.6233 913 113.171 346.094 466.659
887 0 74.2766 17.4348 1295 103.076 346.226 471.91
888 0 76.2187 12.2805 936 112.135 346.514 464.653
889 0 78.3846 12.6811 994 111.649 347.243 463.147
890 0 80.5463 13.3836 1078 112.064 345.794 459.045
891 0 81.2254 13.1855 1071 113.682 346.266 456.276
892 0 85.1662 12.2349 1042 114.466 348.158 456.321
893 0 88.411 17.2037 1521 107.693 347.888 450.538
894 0 91.2343 16.4521 1501 107.859 349.181 455.654
895 0 90.3934 10.9411 989 116.973 350.007 451.922
896 0 96.2043 14.3445 1380 111.049 349.588 448.966
897 1 53.0712 11.7013 621 109.283 349.209 474.884
898 0 53.0656 8.55545 454 112.967 350.405 475.282
899 0 55.0914 12.7062 700 108.926 350.49 472.727
900 0 59.3093 10.7909 640 110.655 351.502 473.097
901 0 59.0587 12.5468 741 110.343 350.731 472.869
902 0 63.12 15.9379 1006 103.381 352.791 477.071
903 0 63.2089 11.8496 749 110.884 352.122 474.988
904 0 66.3305 14.081 934 106.974 352.619 473.396
905 0 67.4815 14.6559 989 106.475 351.184 474.928
906 0 71.4026 14.5793 1041 105.705 350.895 476.126
907 0 72.2015 15.1936 1097 105.29 350.872 475.129
908 0 73.2018 15.4914 1134 105.409 350.656 477.914
909 0 75.3557 15.4202 1162 107.205 351.179 470.279
910 0 79.3345 13.4368 1066 110.353 350.139 470.754
911 0 80.2911 11.1594 896 113.252 350.367 465.209
912 0 85.567 15.742 1347 106.633 348.957 466.366
913 0 85.567 15.6836 1342 130.54 347.923 466.276
914 0 89.6395 15.6739 1405 107.428 348.633 469.218
915 0 94.3901 14.8532 1402 108.643 347.235 469.606
916 0 97.333 17.8768 1740 103.979 347.683 467.55
917 0 100.265 16.0575 1610 106.06 346.066 462.855
918 0 102.314 13.8397 1416 110.35 344.614 462.534
919 0 103.35 14.3203 1480 109.511 345.733 457.676
920 0 108.419 17.414 1888 104.833 344.18 455.86
921 0 111.471 15.6902 1749 107.545 345.769 455.421
922 1 61.2567 11.2804 691 110.437 343.97 478.548
923 0 60.2089 12.44 749 110.175 344.861 478.096
924 0 65.2275 14.4571 943 105.345 345.775 478.367
925 0 66.2367 16.894 1119 103.926 345.455 474.336
926 0 68.6172 13.0288 894 112.21 343.232 467.79
927 0 70.5155 13.1886 930 111.177 344.599 473.11
928 0 71.497 12.4481 890 114.3 344.875 469.526
929 0 72.3581 12.1617 880 115.072 345.736 466.943
930 0 80.4407 19.9526 1605 103.367 344.886 457.827
931 0 80.3107 15.2906 1228 109.965 346.255 460.73
932 0 82.4244 13.3334 1099 113.917 345.216 456.333
933 0 84.4004 12.0142 1014 115.363 346.473 454.749
934 0 88.5423 12.1072 1072 114.908 346.156 453.122
935 0 92.5626 13.7096 1269 114.27 347.753 449.913
936 0 93.5556 15.1781 1420 112.552 348.211 448.105
937 0 96.5037 13.7197 1324 115.502 348.995 444.764
938 0 98.5317 12.6863 1250 117.513 349.47 438.04
939 0 101.597 14.528 1476 114.541 351.142 441.083
940 0 106.415 18.0896 1925 108.432 349.847 445.268
941 1 54.4186 11.4667 624 115.115 349.816 469.111
942 0 56.3746 11.6364 656 114.424 351.406 468.085
943 0 59.353 12.889 765 113.512 351.576 469.556
944 0 62.1586 14.3343 891 111.395 351.483 471.539
945 0 64.1372 11.6625 748 115.864 350.812 473.007
946 0 68.2823 13.4295 917 111.819 349.978 474.694
947 0 71.1742 11.6194 827 114.718 350.655 473.648
948 0 73.1484 16.0222 1172 105.611 351.426 475.498
949 0 74.098 13.5766 1006 111.726 350.958 474.9
950 0 78.1714 13.7134 1072 111.939 351.291 473.618
951 0 79.3197 13.8301 1097 110.937 351.445 475.136
952 0 79.3707 11.314 898 116.781 352.537 473.117
953 0 81.3067 11.3644 924 118.136 351.054 471.216
954 0 84.6187 12.4677 1055 115.842 351.483 466.408
955 0 90.1943 13.3822 1207 113.984 351.04 470.098
956 0 90.4658 13.6516 1235 113.461 349.801 466.011
957 0 95.568 12.6821 1212 114.285 348.669 467.874
958 1 51.2323 11.8285 606 108.213 347.497 493.193
959 0 51.2763 11.0187 565 114.598 348.165 485.088
960 0 54.1625 11.7978 639 113.23 346.388 486.82
961 0 56.1379 10.4386 586 115.563 344.788 487.363
962 0 60.1739 11.716 705 112.328 342.99 484.403
963 0 59.1443 8.85969 524 118.454 344.601 478.277
964 0 66.1302 13.6095 900 108.842 343.007 475.547
965 1 81.2502 17.0092 1382 97.4363 342.58 465.705
966 0 78.2578 15.7556 1233 101.773 343.16 465.466
967 0 76.2129 16.0078 1220 103.575 343.634 468.12
968 0 74.3068 15.3149 1138 106.27 343.157 469.202
969 0 74.3223 16.8052 1249 103.934 343.323 473.082
970 0 78.3788 18.4744 1448 101.958 342.934 465.608
971 0 80.1439 23.6325 1894 96.9583 343.769 471.376
972 0 78.1962 18.4408 1442 102.673 343.11 466.721
973 0 77.2851 16.6138 1284 109.473 345.123 464.914
974 0 77.2808 13.5221 1045 116.839 344.938 462.004
975 0 82.2745 15.1809 1249 112.448 346.447 464.24
976 0 84.4209 14.3803 1214 115.734 345.769 463.098
977 1 46.4141 10.7941 501 116.78 346.23 480.06
978 0 47.233 12.83 606 111.967 347.277 481.376
979 0 50.2669 11.8965 598 114.007 348.254 476.957
980 0 50.1954 13.1287 659 113.52 348.649 475.883
981 0 51.2745 13.652 700 115.214 350.094 473.834
982 0 53.1389 11.8369 629 116.672 349.647 474.329
983 0 53.1701 12.018 639 117.246 349.84 473.953
984 0 55.146 13.836 763 114.644 351.325 474.208
985 0 57.2765 16.1672 926 108.764 351.525 477.736
986 0 58.2221 11.5764 674 117.433 351.55 477.052
987 0 61.2715 15.5374 952 113.216 351.508 474.41
988 0 62.1413 10.2991 640 121.066 350.73 475.667
989 0 64.1326 12.3494 792 122.253 351.946 474.492
990 0 64.0958 11.1084 712 124.878 352.537 473.067
991 0 70.2501 13.4804 947 120.227 351.661 474.05
992 0 73.2136 14.9016 1091 114.109 351.335 473.304
993 0 73.343 15.8843 1165 113.507 351.381 469.71
994 0 74.1535 12.4606 924 118.419 351.256 475.192
995 0 78.2499 18.1853 1423 108.109 351.923 472.129
996 0 82.2655 14.1372 1163 114.897 349.161 472.829
997 0 85.1283 13.9319 1186 112.546 348.624 477.151
998 0 88.202 14.943 1318 113.21 350.162 469.596
999 1 45.1264 11.4789 518 117.649 348.865 490.253
1000 0 47.0529 11.944 562 115.101 347.504 490.44
1001 0 48.0806 12.7702 614 114.324 345.306 489.673
1002 0 52.0941 11.3257 590 116.466 346.276 488.558
1003 0 54.1698 12.147 658 114.354 345.886 488.602
1004 0 52.0993 10.5376 549 119.933 344.798 484.891
1005 0 56.0753 17.53 983 108.585 344.391 485.06
1006 0 58.0941 13.7535 799 113.476 344.756 483.778
1007 0 58.1293 14.3473 834 112.218 344.681 485.682
1008 0 60.1859 13.8737 835 115.388 343.962 480.383
1009 0 63.2002 13.1962 834 115.795 342.217 480.5
1010 0 61.0914 12.3258 753 119.185 343.331 478.227
1011 0 64.1664 10.9559 703 122.314 343.861 476.572
1012 0 66.1096 12.3734 818 118.804 342.554 475.336
1013 0 67.2728 14.2702 960 116.524 342.745 473.623
1014 0 67.0948 13.3393 895 118.766 342.513 471.349
1015 0 72.0755 14.4154 1039 115.368 344.446 471.648
1016 0 72.0461 12.5614 905 118.778 345.244 469.733
1017 0 78.1507 14.8431 1160 113.306 344.83 465.67
1018 0 81.3297 15.099 1228 112.348 345.492 465.739
1019 0 82.2115 12.1516 999 117.411 346.023 463.066
1020 0 82.2079 12.9063 1061 117.761 346.986 458.418
1021 0 87.2353 12.6096 1100 118.042 347.817 454.093
1022 0 91.4173 13.7611 1258 116.515 348.096 455.167
1023 1 51.1717 13.5426 693 112.755 347.965 476.322
1024 0 53.2021 11.6349 619 110.998 350.1 474.984
1025 0 51.0967 11.5467 590 113.008 350.327 469.325
1026 0 54.2566 11.7774 639 116.9 349.889 472.797
1027 0 55.0384 13.3361 734 114.868 350.084 475.398
1028 0 57.0509 14.4257 823 112.464 350.679 475.439
1029 0 58.0665 11.5902 673 116.131 351.171 475.296
1030 0 60.2544 13.8745 836 113.841 352.998 471.831
1031 0 63.3021 12.7642 808 114.281 352.809 475.2
1032 0 67.1152 16.6877 1120 108.009 352.488 472.168
1033 0 66.2014 10.1357 671 118.2 352.551 475.604
1034 0 72.334 14.8201 1072 112.07 352.986 468.068
1035 0 73.1145 13.9918 1023 113.556 353.451 473.133
1036 0 76.1787 14.7154 1121 111.966 352.908 475.244
1037 0 79.3101 14.1092 1119 114.47 351.314 471.78
1038 0 82.3826 13.6194 1122 116.053 352.443 469.247
1039 0 86.4519 14.8985 1288 113.235 350.877 468.541
1040 0 86.2314 12.71 1096 117.412 349.695 470.213
1041 0 92.1654 14.5065 1337 113.581 350.953 464.037
1042 0 96.3529 14.1459 1363 112.311 350.049 472.032
1043 0 93.1682 9.63848 898 118.539 349.469 476.156
1044 1 50.0537 10.8683 544 113.853 348.699 489.93
1045 0 53.0825 11.4727 609 113.225 347.44 487.696
1046 0 53.1256 9.71284 516 115.329 346.653 489.862
1047 0 54.0989 9.88929 535 113.948 347.101 485.265
1048 0 57.1029 11.6281 664 112.872 345.818 482.167
1049 0 60.3564 12.0783 729 111.706 344.819 480.909
1050 0 65.1241 14.1883 924 108.192 344.989 480.741
1051 0 64.2024 13.0992 841 110.145 343.419 478.088
1052 0 68.5558 13.9448 956 108.558 344.584 477.717
1053 0 68.676 11.4451 786 111.814 343.863 474.593
1054 0 69.5771 12.691 883 111.349 343.93 473.605
1055 0 72.3097 13.29 961 110.004 344.621 474.476
1056 0 78.3942 16.5956 1301 104.951 344.079 474.081
1057 0 78.3893 15.8312 1241 108.19 343.616 464.582
1058 0 82.4717 13.9806 1153 109.884 343.8 463.563
1059 0 85.8208 14.74 1265 108.302 345.01 464.384
1060 0 88.381 13.1363 1161 110.405 345.33 461.484
1061 0 94.6082 19.1738 1814 101.488 346.174 466.099
1062 0 95.527 14.7183 1406 108.821 346.964 460.223
1063 0 98.5442 19.3416 1906 102.171 347.091 463.018
1064 0 98.6547 12.8935 1272 112.44 346.928 455.724
1065 0 104.54 13.8416 1447 111.131 346.982 448.551
1066 1 54.2874 12.1944 662 106.582 347.219 472.195
1067 0 55.3162 13.8296 765 105.241 348.499 473.413
1068 0 57.2983 11.1696 640 107.627 348.348 472.6
1069 0 61.2137 15.9932 979 100.527 350.525 476.663
1070 0 61.1416 12.9862 794 104.98 350.816 474.145
1071 0 68.2663 15.2931 1044 103.828 350.842 470.467
1072 0 70.7854 13.9859 990 104.854 351.462 470.52
1073 0 69.3137 15.2495 1057 105.665 351.994 470.88
1074 0 73.5302 15.5446 1143 104.039 352.044 476.173
1075 0 74.5063 14.0659 1048 107.894 353.108 473.934
1076 0 76.4674 13.7575 1052 111.089 352.421 468.326
1077 0 79.2468 15.8871 1259 108.288 350.963 468.075
1078 0 79.2468 15.8618 1257 139.216 349.975 468.183
1079 0 85.3248 15.8336 1351 109.221 351.002 466.347
1080 0 87.5851 14.6943 1287 112.516 351.776 462.636
1081 0 90.3947 13.5627 1226 114.276 350.283 464.982
1082 0 91.3743 11.2395 1027 117.51 351.473 465.205
1083 0 97.5593 17.7841 1735 107.598 349.787 461.901
1084 0 101.537 14.0145 1423 113.432 350.408 459.275
1085 0 103.619 14.5147 1504 112.894 349.66 462.172
1086 0 105.463 14.4411 1523 114.285 349.327 457.923
1087 0 110.687 14.3016 1583 114.015 347.727 454.45
1088 0 117.43 14.8684 1746 112.227 348.849 459.7
1089 1 59.2279 11.1265 659 112.595 347.053 485.049
1090 0 62.1612 12.9985 808 112.335 346.48 481.172
1091 0 63.2718 13.3867 847 112.727 345.809 476.145
1092 0 65.45 12.1619 796 114.438 344.467 481.219
1093 0 68.2851 12.9604 885 113.633 344.252 481.46
1094 0 69.3138 11.9168 826 116.872 343.444 477.061
1095 0 73.5178 13.5749 998 114.313 344.089 475.03
1096 0 77.3518 13.2124 1022 113.674 344.325 475.478
1097 0 78.3602 14.4078 1129 113.345 343.499 471.776
1098 0 81.4506 12.4493 1014 116.625 343.593 470.857
1099 0 87.1485 15.0892 1315 110.983 343.146 470.273
1100 0 89.3374 16.5776 1481 109.402 344.804 463.221
1101 0 93.2898 15.618 1457 110.2 344.067 465.024
1102 0 94.3627 15.663 1478 111.595 344.811 459.876
1103 0 98.5351 16.8975 1665 109.985 345.369 461.317
1104 0 100.458 15.6982 1577 113.216 344.13 452.688
1105 0 106.702 19.0062 2028 108.02 346.04 448.602
1106 1 51.1856 11.3704 582 117.323 345.615 467.96
1107 0 56.5231 12.5612 710 112.392 346.954 469.328
1108 0 57.2794 12.3779 709 114.97 346.071 465.774
1109 0 60.614 14.6006 885 111.003 348.212 465.829
1110 0 63.4924 13.6552 867 112.677 348.344 462.542
1111 0 64.706 11.7454 760 115.034 348.605 465.509
1112 0 67.8299 12.7525 865 115.141 348.612 461.074
1113 0 66.63 11.5564 770 117.806 349.586 459.845
1114 0 72.8618 16.2088 1181 108.461 348.839 457.6
1115 0 74.4699 12.2734 914 114.756 350.179 457.94
1116 0 74.4492 12.9753 966 113.393 350.321 455.22
1117 0 77.6131 13.155 1021 114.766 351.018 456.002
1118 0 82.6226 12.6963 1049 114.339 349.271 457.601
1119 0 83.7049 11.8512 992 116.101 350.182 456.498
1120 0 86.5821 14.1484 1225 112.766 350.687 456.769
1121 0 85.6125 11.5754 991 117.187 349.942 456.415
1122 0 89.491 10.4927 939 119.563 350.554 452.363
1123 0 88.1166 9.09023 801 121.338 350.753 455.63
1124 1 49.258 10.7597 530 113.798 349.843 480.004
1125 0 50.1749 14.6687 736 106.755 350.056 482.707
1126 0 53.1374 11.3479 603 114.993 349.534 478.196
1127 0 54.1949 9.6688 524 117.517 349.004 477.916
1128 0 55.1203 12.4092 684 113.428 348.781 478.063
1129 0 57.1313 11.4298 653 114.081 347.795 480.014
1130 0 56.3515 9.61819 542 117.463 346.52 478.312
1131 0 58.4161 11.5037 672 123.479 345.391 475.906
1132 0 69.5204 14.1254 982 108.622 345.535 479.962
1133 0 68.2256 12.7811 872 112.619 343.641 473.9
1134 0 69.1573 12.9704 897 112.916 344.853 476.235
1135 0 72.4477 14.1619 1026 114.199 344.201 475.607
1136 0 75.3638 13.8794 1046 110.792 343.889 478.174
1137 0 77.2037 12.4217 959 115.016 343.095 471.208
1138 0 80.1986 14.4516 1159 112.009 343.129 463.925
1139 0 83.2474 13.4058 1116 113.207 342.484 465.467
1140 0 86.3472 14.268 1232 111.903 343.295 465.457
1141 0 89.2259 15.4103 1375 109.961 341.796 463.115
1142 0 93.3037 14.5546 1358 111.214 342.998 461.292
1143 0 95.2331 13.1467 1252 113.204 343.012 455.94
1144 0 98.6184 15.5853 1537 110.601 342.89 455.608
1145 1 50.3317 10.8878 548 114.52 343.58 473.794
1146 0 55.2381 17.144 947 103.762 343.945 474.75
1147 0 58.0947 12.1526 706 113.676 343.37 472.348
1148 0 58.3398 11.313 660 114.079 343.792 478.156
1149 0 60.2636 15.4654 932 108.93 342.878 474.469
1150 0 66.6756 18.4625 1231 100.824 344.211 479.864
1151 0 66.3416 11.893 789 113.665 344.802 471.978
1152 0 67.5162 15.5074 1047 108.701 345.564 470.321
1153 0 69.3615 14.3451 995 110.331 347.543 467.693
1154 0 72.1845 15.6405 1129 107.8 347.213 469.765
1155 0 73.2899 13.0987 960 112.173 349.564 468.716
1156 0 75.2682 12.5418 944 112.854 349.526 468.403
1157 0 79.4342 13.785 1095 111.124 348.908 462.633
1158 0 80.268 14.4391 1159 109.959 349.512 464.818
1159 0 81.3186 12.1866 991 115.341 350.603 462.256
1160 0 86.3415 15.8904 1372 110.282 351.655 466.934
1161 0 89.6865 17.9403 1609 107.345 350.753 460.224
1162 0 91.5047 13.0594 1195 114.941 352.112 466.799
1163 0 94.5507 13.03 1232 117.256 351.584 461.724
1164 0 97.4733 14.5065 1414 115.161 353.088 460.025
1165 0 98.3585 13.2983 1308 117.572 352.59 464.407
1166 0 99.4519 12.3075 1224 121.033 351.54 462.992
1167 1 55.1791 14.317 790 111.254 351.503 486.839
1168 0 56.1589 11.6099 652 115.874 350.886 487.402
1169 0 58.2091 12.1631 708 117.479 350.758 486.511
1170 0 60.581 16.87 1022 113.227 349.639 479.927
1171 0 60.4092 14.4183 871 118.158 347.861 481.654
1172 0 61.3108 11.1726 685 123.695 348.68 481.89
1173 0 66.3606 16.6364 1104 112.687 346.421 481.691
1174 0 67.2896 12.1415 817 120.116 344.366 480.215
1175 0 70.2349 11.8175 830 120.847 345.275 479.116
1176 0 74.3232 14.733 1095 115.469 345.344 478.067
1177 0 75.3656 13.5738 1023 117.896 343.597 478.445
1178 0 78.2632 14.9751 1172 115.543 343.087 473.189
1179 0 79.49 12.4796 992 119.196 343.639 476.195
1180 0 80.3092 14.4815 1163 116.944 343.506 471.862
1181 0 82.3825 13.0367 1074 117.667 344.71 474.413
1182 0 86.134 14.2452 1227 115.219 343.121 470.468
1183 0 90.3474 13.9019 1256 114.613 342.318 470.179
1184 0 93.2098 14.1509 1319 114.309 342.529 466.39
1185 1 50.0245 11.8942 595 113.568 341.63 489.588
1186 0 52.061 13.7723 717 113.174 342.025 483.361
1187 0 50.0772 9.7849 490 120.231 340.98 480.502
1188 0 54.1744 13.3643 724 112.844 341.695 479.456
1189 0 56.5083 13.8918 785 116.713 344.28 477.558
1190 0 56.2369 10.9181 614 122.508 344.261 477.254
1191 0 57.1404 12.058 689 121.547 342.565 472.009
1192 0 61.2041 14.2637 873 116.859 343.842 470.993
1193 0 64.3922 13.4799 868 118.767 343.809 467.827
1194 0 62.2803 12.3153 767 122.211 344.737 466.249
1195 0 65.3642 12.8358 839 120.53 346.51 467.992
1196 0 66.3847 13.708 910 119.982 345.957 466.244
1197 0 70.6071 14.6869 1037 118.748 346.69 468.374
1198 0 72.6416 14.014 1018 119.255 347.756 466.026
1199 0 75.2032 16.1163 1212 115.98 347.658 462.832
1200 0 77.2274 14.2178 1098 118.236 349.771 465.644
1201 0 80.4886 12.4738 1004 121.942 350.525 465.362
1202 0 80.1986 15.4492 1239 117.573 351.077 461.08
1203 0 82.3746 12.601 1038 123.44 350.563 457.764
1204 0 86.5039 13.6641 1182 120.42 352.036 461.19
1205 0 89.2974 13.427 1199 120.327 351.928 459.413
1206 0 92.3517 14.2715 1318 119.968 351.605 459.291
1207 0 94.2549 15.2883 1441 117.779 352.569 445.165
1208 0 94.088 12.0844 1137 123.93 351.88 446.85
1209 0 101.15 14.0485 1421 118.99 351.501 439.828
1210 0 102.359 11.8993 1218 123.586 350.092 451.452
1211 0 109.208 11.7757 1286 122.123 351.556 454.054
1212 1 57.1533 15.1172 864 114.453 350.807 480.642
1213 0 65.5395 12.954 849 116.47 349.939 479.716
1214 0 67.2228 13.8048 928 115.775 348.689 470.81
1215 0 68.185 13.1994 900 117.426 348.87 471.621
1216 0 72.2382 14.2169 1027 114.293 347.31 476.244
1217 0 74.3001 14.6029 1085 113.824 345.872 476.613
1218 0 76.3775 14.0486 1073 115.029 345.821 475.811
1219 0 80.2852 18.1976 1461 108.466 345.641 473.832
1220 0 82.3395 14.4281 1188 114.673 344.825 474.38
1221 0 91.464 15.2191 1392 110.031 345.136 464.778
1222 0 92.5638 16.3995 1518 107.738 343.276 460.568
1223 0 94.458 17.3728 1641 107.402 344.627 463.695
1224 0 91.3788 12.5303 1145 118.428 344.117 464.795
1225 0 94.5523 13.1779 1246 116.567 342.1 460.779
1226 0 96.7384 16.1156 1559 111.73 341.779 460.806
1227 0 96.4805 10.5721 1020 121.291 343.476 454.986
1228 0 105.8 13.3176 1409 115.637 342.908 451.979
1229 0 108.447 11.2037 1215 119.58 342.491 454.863
1230 1 59.4505 10.9503 651 115.169 343.539 478.605
1231 0 59.4505 10.883 647 123.294 344.552 478.408
1232 0 59.4505 10.8325 644 122.943 345.561 478.376
1233 0 64.1453 11.661 748 112.983 343.825 469.155
1234 0 65.2529 10.467 683 116.385 343.53 474.201
1235 0 70.2038 13.8312 971 111.474 343.679 466.119
1236 0 72.159 11.4331 825 116.122 345.742 465.928
1237 0 75.096 10.5465 792 115.134 345.526 469.356
1238 0 78.239 13.5227 1058 112.89 346.645 460.751
1239 0 83.2765 15.4666 1288 108.664 347.283 458.697
1240 0 85.2939 16.4256 1401 108.297 347.69 459.637
1241 0 86.314 15.3973 1329 110.946 347.795 458.222
1242 0 90.2204 13.8217 1247 111.617 348.791 460.803
1243 0 92.256 12.6604 1168 115.713 348.695 452.218
1244 0 96.281 15.6729 1509 110.02 348.758 457.503
1245 0 98.3236 12.9267 1271 115.213 349.253 454.692
1246 0 100.225 14.677 1471 111.838 350.47 458.347
1247 1 55.0893 8.93096 492 116.632 350.941 478.087
1248 0 58.0921 12.1015 703 112.654 351.236 479.376
1249 0 58.1912 12.562 731 112.672 351.334 480.368
1250 0 61.3483 11.5407 708 114.805 349.958 481.275
1251 0 63.2558 13.4375 850 112.533 351.607 477.381
1252 0 64.3211 12.9817 835 113.274 349.971 478.731
1253 0 66.2467 11.0345 731 115.358 350.259 480.904
1254 0 66.2492 11.9247 790 115.601 349.424 475.415
1255 0 71.2925 13.5218 964 111.856 350.841 480.705
1256 0 73.1897 13.6768 1001 110.913 350.428 479.567
1257 0 74.1956 11.1597 828 115.145 349.3 474.558
1258 0 79.3034 11.3362 899 113.919 347.989 477.669
1259 0 83.4165 15.3687 1282 107.159 346.415 476.774
1260 0 86.2984 12.7233 1098 110.992 346.387 473.034
1261 0 84.2776 9.40938 793 117.411 346.542 473.588
1262 0 91.2553 11.813 1078 113.902 344.969 466.304
1263 0 96.3467 13.3891 1290 110.755 344.649 467.15
1264 1 51.115 10.7014 547 108.898 343.64 491.441
1265 0 50.169 12.3383 619 106.961 344.242 489.199
1266 0 51.0945 9.55092 488 109.666 342.932 487.811
1267 0 56.2043 18.6996 1051 95.6032 343.122 488.04
1268 0 55.267 12.4848 690 103.994 344.791 487.646
1269 0 58.2658 12.3572 720 108.253 343.379 482.462
1270 0 58.509 13.092 766 107.837 343.931 478.115
1271 0 59.3314 12.4892 741 108.374 342.312 475.611
1272 0 62.352 13.7445 857 106.643 343.834 473.982
1273 0 62.2312 11.8429 737 109.369 344.023 474.217
1274 0 65.1585 12.6768 826 108.126 345.119 471.689
1275 0 67.2555 15.969 1074 103.078 344.997 476.464
1276 0 69.1143 13.2823 918 108.223 343.405 464.954
1277 0 72.2948 11.5084 832 110.999 343.413 461.555
1278 0 76.3897 12.4493 951 107.707 344.157 466.91
1279 0 74.2772 12.3995 921 109.208 345.935 462.287
1280 0 79.3104 14.3235 1136 106.318 345.98 466.321
1281 0 81.2897 10.6656 867 111.933 347.759 464.969
1282 0 84.1997 11.2471 947 111.467 347.756 463.68
1283 0 83.537 13.8142 1154 112.862 348.49 450.158
1284 0 86.4322 14.9134 1289 109.998 349.474 451.436
1285 0 87.2059 16.8452 1469 105.565 349.99 450.598
1286 0 89.1882 12.838 1145 113.141 351.023 445.426
1287 0 91.1317 13.1129 1195 112.77 351.066 445.705
1288 0 94.2948 10.4035 981 117.327 352.324 444.959
1289 0 99.3846 13.9257 1384 109.997 352.333 451.347
1290 0 98.2606 13.4744 1324 111.594 352.557 450.22
1291 0 102.244 14.3382 1466 111.314 352.447 445.996
1292 0 105.153 11.3264 1191 116.278 352.25 446.225
1293 1 60.1687 11.1021 668 107.772 351.039 479.172
1294 0 63.2405 11.4167 722 109.821 351.53 472.799
1295 0 62.1928 11.2714 701 113.66 350.248 468.474
1296 0 68.2949 14.4081 984 108.684 350.36 467.782
1297 0 69.4099 12.9953 902 112.398 351.613 471.818
1298 0 71.5096 15.4245 1103 108.877 350.638 467.366
1299 0 75.528 14.2331 1075 111.05 352.356 466.163
1300 0 79.4262 15.4105 1224 108.489 349.998 469.047
1301 0 80.397 12.5005 1005 114.027 348.964 471.416
1302 0 74.1992 10.4583 776 121.66 347.731 469.397
1303 1 89.4353 13.8424 1238 112.384 345.447 468.515
1304 0 88.2047 12.3349 1088 117.134 345.746 464.47
1305 0 92.2243 12.9467 1194 116.198 344.8 464.879
1306 0 95.2078 13.0767 1245 116.376 344.102 457.724
1307 0 98.462 15.346 1511 113.06 344.639 455.571
1308 0 106.748 15.8878 1696 115.242 341.425 452.686
1309 0 108.59 13.6569 1483 119.188 341.216 450.454
1310 0 111.62 13.1338 1466 118.663 341.434 449.654
1311 0 117.577 19.145 2251 107.903 341.833 451.905
1312 0 120.427 12.6384 1522 119.721 341.844 444.281
1313 1 66.1468 11.1419 737 117.054 340.425 471.583
1314 0 69.2124 13.4947 934 112.787 343.679 463.672
1315 0 72.2254 13.264 958 111.52 342.612 468.626
1316 0 72.2485 12.5677 908 115.388 344.474 464.763
1317 0 75.2607 12.3969 933 115.467 343.357 460.581
1318 0 76.274 12.5993 961 116.929 344.214 454.481
1319 0 78.2776 12.4046 971 117.065 344.648 453.952
1320 0 81.4033 16.0559 1307 111.596 345.719 453.521
1321 0 85.191 14.0625 1198 115.059 346.015 451.816
1322 0 85.3344 13.9334 1189 116.439 347.251 451.456
1323 0 88.2481 13.904 1227 114.09 346.456 450.471
1324 0 92.3692 15.6546 1446 112.79 348.507 449.649
1325 0 94.2082 14.6378 1379 113.789 349.23 447.657
1326 0 98.3091 14.4646 1422 114.993 349.084 444.871
1327 0 99.2642 13.3885 1329 116.841 350.11 445.816
1328 0 104.318 15.4527 1612 114.038 351.47 445.552
1329 0 105.43 15.7925 1665 113.486 350.214 441.388
1330 1 58.0479 9.0098 523 116.157 351.667 473.172
1331 0 61.1018 11.0144 673 117.848 351.798 468.14
1332 0 64.1702 12.9343 830 112.554 350.564 471.492
1333 0 64.1626 12.9359 830 114.916 348.404 460.32
1334 0 66.1571 10.5204 696 120.504 351.165 466.437
1335 0 71.2388 14.0934 1004 112.426 350.249 474.743
1336 0 72.0927 13.8433 998 114.858 351.107 467.735
1337 0 72.093 11.5268 831 119.439 350.542 467.871
1338 0 75.3179 10.8872 820 119.326 350.911 467.844
1339 0 83.2491 12.1923 1015 114.941 350.466 475.697
1340 0 84.3291 13.0086 1097 113.926 349.604 475.445
1341 0 89.2235 15.6237 1394 110.192 348.808 469.458
1342 0 89.213 13.4734 1202 113.68 348.686 474.092
1343 0 94.3142 13.4126 1265 114.312 347.456 468.986
1344 0 96.3181 13.4243 1293 114.693 347.486 461.557
1345 0 100.182 11.9083 1193 116.425 345.232 467.745
1346 0 100.182 11.8784 1190 152.77 343.246 467.591
1347 0 106.268 16.5901 1763 108.827 345.014 464.326
1348 0 105.514 10.1503 1071 121.166 345.92 459.936
1349 0 109.308 12.8444 1404 117.226 345.134 452.491
1350 1 59.096 5.90564 349 117.926 344.908 485.418
1351 0 66.1212 10.027 663 115.351 344.922 475.487
1352 0 66.2349 10.5835 701 116.646 342.887 477.056
1353 0 67.2654 12.577 846 114.799 343.285 471.808
1354 0 75.3498 18.9516 1428 103.552 342.876 474.061
1355 0 76.3074 15.2672 1165 108.291 343.582 471.046
1356 0 79.3024 12.5721 997 113.945 342.539 469.545
1357 0 82.4016 12.2571 1010 113.815 343.657 465.517
1358 0 82.2455 12.7545 1049 114.549 342.6 464.659
1359 0 85.3662 12.2882 1049 114.347 342.092 466.381
1360 0 85.3662 12.3234 1052 137.489 342.091 466.257
1361 0 92.4189 15.051 1391 111.318 344.184 456.884
1362 0 93.3175 12.8593 1200 116.285 344.451 453.898
1363 1 54.0775 10.4849 567 112.974 344.464 480.817
1364 0 55.417 9.49166 526 114.084 345.998 478.973
1365 0 54.1034 11.0529 598 114.696 345.505 472.945
1366 0 58.3137 14.4734 844 111.354 348.011 467
1367 0 57.3019 13.9437 799 129.851 349.124 466.477
1368 0 60.2439 13.3789 806 113.107 347.691 467.202
1369 0 59.1401 12.3774 732 115.38 348.936 469.268
1370 0 64.1891 13.1954 847 111.924 349.315 470.79
1371 0 67.2297 11.6318 782 114.265 348.843 469.611
1372 0 68.1357 14.7793 1007 109.879 350.682 467.551
1373 0 69.3264 13.3571 926 112.965 350.913 468.716
1374 0 71.265 14.5092 1034 111.543 352.185 468.894
1375 0 75.161 14.4224 1084 112.03 351.101 466.516
1376 0 73.2798 10.9444 802 118.49 351.924 469.716
1377 0 79.3125 14.0961 1118 112.986 351.979 458.335
1378 0 80.2456 13.7952 1107 114.517 352.275 457.685
1379 0 79.4622 11.452 910 120.254 350.775 459.679
1380 0 86.26 15.4069 1329 112.921 351.806 457.866
1381 0 86.2938 14.6476 1264 115.166 350.734 457.397
1382 0 90.3986 16.2613 1470 112.604 350.259 457.733
1383 0 93.4625 16.8838 1578 111.856 349.574 457.782
1384 0 96.3732 14.8381 1430 115.877 349.033 459.464
1385 0 100.259 17.6643 1771 109.223 347.71 463.788
1386 1 53.1988 7.74454 412 121.466 346.221 482.592
1387 0 55.036 13.791 759 115.235 344.875 479.638
1388 0 53.1668 9.61126 511 126.466 344.986 464.188
1389 0 60.1172 11.2281 675 121.236 343.539 469.016
1390 0 60.313 12.5346 756 118.725 344.265 476.365
1391 0 66.1427 15.0432 995 111.758 344.161 476.917
1392 0 66.2466 14.1139 935 114.264 343.776 473.195
1393 0 67.2747 12.0551 811 118.264 343.607 467.589
1394 0 69.2887 14.7787 1024 112.865 343.302 471.009
1395 0 71.1511 13.0848 931 118.291 342.099 462.509
1396 0 69.1395 11.5419 798 122.774 343.177 462.013
1397 0 76.2101 13.1085 999 118.947 341.837 463.74
1398 0 79.2798 14.0767 1116 117.359 342.485 460.191
1399 0 89.2218 18.3699 1639 107.286 342.513 452.356
1400 0 90.2676 19.3425 1746 106.305 343.034 450.482
1401 0 94.2411 15.9591 1504 111.696 343.58 450.658
1402 0 93.3581 19.3556 1807 107.883 343.805 449.212
1403 0 94.4908 14.6046 1380 116.018 343.664 448.466
1404 0 96.2936 14.2896 1376 117.871 344.246 445.321
1405 0 96.6609 13.5215 1307 120.909 344.621 440.291
1406 0 103.628 15.2083 1576 115.851 346.326 443.154
1407 0 104.28 15.8228 1650 115.814 346.572 443.398
1408 0 108.254 14.8263 1605 117.816 347.012 442.46
1409 0 112.512 13.1364 1478 121.645 347.854 436.212
1410 0 119.478 13.9524 1667 119.875 348.412 436.328
1411 0 122.613 13.1878 1617 121.346 349.4 435.116
1412 1 69.3845 9.02218 626 122.233 348.297 458.409
1413 0 73.3457 12.7751 937 115.443 348.439 459.376
1414 0 72.2428 12.7487 921 118.966 350.161 454.707
1415 0 80.664 15.7815 1273 111.013 351.697 456.906
1416 0 78.4655 13.6111 1068 117.3 351.108 453.444
1417 0 83.5631 14.2168 1188 114.927 351.185 457.689
1418 0 87.4837 13.8997 1216 113.633 352.163 461.019
1419 0 84.5756 12.143 1027 119.385 351.207 454.092
1420 0 91.3203 11.3118 1033 121.633 352.164 452.792
1421 0 91.2651 10.6174 969 123.548 351.714 452.768
1422 0 92.2028 12.9389 1193 119.123 351.141 454.593
1423 0 95.319 11.5612 1102 122.744 350.074 450.593
1424 0 100.183 14.8129 1484 115.212 350.39 458.947
1425 0 102.333 12.4496 1274 123.008 349.568 450.61
1426 1 58.2084 8.21188 478 116.628 350.833 487.609
1427 0 62.1076 12.5749 781 114.361 349.192 484.406
1428 0 64.4006 12.3135 793 115.422 348.828 481.652
1429 0 67.3771 12.0812 814 117.792 347.145 480.682
1430 0 68.2331 12.4426 849 116.988 347.146 479.518
1431 0 70.1962 13.3626 938 114.642 345.564 479.636
1432 0 74.2687 12.2663 911 115.035 345.581 477.531
1433 0 75.1919 13.1264 987 113.85 343.534 472.483
1434 0 78.1768 12.6124 986 114.1 345.377 473.829
1435 0 80.1798 13.3824 1073 113.046 343.482 471.221
1436 0 81.3729 12.8544 1046 113.373 344.531 470.799
1437 0 86.2135 16.9811 1464 106.845 343.579 467.521
1438 0 85.2451 12.0359 1026 115.263 342.405 466.746
1439 0 92.3526 14.8345 1370 109.589 343.482 458.018
1440 0 92.2568 12.0208 1109 113.561 342.001 460.795
1441 0 97.6059 13.1447 1283 111.75 341.458 456.64
1442 0 98.3181 11.473 1128 114.28 343.351 455.442
1443 0 103.306 11.2578 1163 114.419 342.693 457.406
1444 0 105.332 13.6616 1439 112.068 342.962 447.564
1445 0 106.312 12.1811 1295 114.615 342.947 440.687
1446 1 61.2838 9.51312 583 110.933 343.736 468.213
1447 0 63.2406 12.6659 801 107.306 342.999 459.202
1448 0 60.655 9.52931 578 114.907 344.856 457.768
1449 0 65.1767 10.9241 712 112.75 344.747 460.313
1450 0 66.0567 10.1125 668 115.675 345.895 463.826
1451 0 70.1012 10.0141 702 116.433 348.011 457.436
1452 0 70.1012 10.0711 706 134.16 349.994 457.538
1453 0 72.1621 11.2663 813 116.694 348.541 457.788
1454 0 76.187 13.7819 1050 112.388 347.833 460.304
1455 0 76.2369 13.7204 1046 121.652 346.801 460.36
1456 0 80.1166 10.1103 810 119.901 350.014 454.359
1457 0 81.347 13.6207 1108 114.291 349.953 458.504
1458 0 84.2826 12.5886 1061 116.051 350.464 458.017
1459 0 87.3059 11.3967 995 116.149 351.369 461.089
1460 0 88.1767 11.0687 976 118.295 351.254 455.511
1461 0 92.251 12.2383 1129 118.262 351.166 456.009
1462 0 94.3041 14.0927 1329 115.542 352.535 458.694
1463 0 98.387 14.5141 1428 114.624 351.182 457.994
1464 0 98.2275 11.0763 1088 121.714 351.11 456.497
1465 0 102.191 13.8173 1412 117.069 351.472 459.411
1466 0 103.413 13.886 1436 116.554 350.585 451.875
1467 1 59.224 9.69202 574 113.89 351.848 480.533
1468 0 60.1765 11.0176 663 115.157 349.009 479.887
1469 0 59.3999 9.24243 549 118.725 349.015 471.847
1470 0 62.3134 11.5866 722 117.911 349.08 473.885
1471 0 62.2642 12.1257 755 116.568 348.858 475.787
1472 0 66.4027 12.62 838 115.576 347.012 474.055
1473 0 65.2086 13.5412 883 116.402 346.425 468.74
1474 0 68.3102 14.0682 961 114.356 344.698 469.349
1475 0 69.1485 12.6828 877 117.347 345.101 469.307
1476 0 69.2852 9.43924 654 125.326 345.176 468.59
1477 0 76.2241 13.5784 1035 117.609 343.381 465.202
1478 0 75.2541 14.0723 1059 118.751 342.932 459.844
1479 0 78.2224 12.4517 974 121.94 341.3 448.998
1480 0 80.303 18.754 1506 110.879 341.592 445.325
1481 0 82.2248 14.5333 1195 117.613 340.557 447.628
1482 0 85.1463 11.9207 1015 123.578 341.292 442.26
1483 0 88.1013 14.9714 1319 116.748 340.721 444.111
1484 0 91.3402 12.4042 1133 121.76 341.61 438.778
1485 0 94.3385 14.024 1323 118.902 341.304 437.346
1486 0 98.2288 22.1116 2172 106.115 340.907 437.172
1487 1 54.1125 9.20305 498 122.47 340.444 455.562
1488 0 55.1346 10.9369 603 121.395 342.415 453.519
1489 0 59.2593 16.3856 971 110.089 344.033 458.757
1490 0 60.376 13.4987 815 116.206 344.207 458.756
1491 0 59.2883 13.3416 791 117.268 344.594 461.416
1492 0 61.3064 12.8372 787 117.981 344.192 462.14
1493 0 64.4386 13.5012 870 117.511 345.949 458.13
1494 0 67.6155 13.6655 924 117.215 346.162 447.505
1495 0 68.2623 13.1258 896 117.44 347.06 449.232
1496 0 68.2623 12.994 887 137.431 348.06 449.29
1497 0 71.4368 11.8006 843 121.093 348.886 450.167
1498 0 73.2741 13.702 1004 117.335 349.303 451.567
1499 0 74.5433 10.0881 752 123.383 349.38 454.934
1500 0 80.3112 13.6345 1095 115.134 350.65 455.681
1501 0 78.1975 11.0617 865 121.323 350.435 454.393
1502 0 84.2258 14.5086 1222 114.077 351.679 444.899
1503 0 87.2949 14.1245 1233 113.789 350.998 447.659
1504 0 86.2929 13.1181 1132 117.686 351.087 440.578
1505 0 93.3056 10.4174 972 119.26 352.17 446.56
1506 0 96.3401 12.9541 1248 115.966 351.306 445.466
1507 0 98.2683 11.4381 1124 115.747 352.115 450.978
1508 1 53.1648 8.89687 473 115.256 349.704 474.789
1509 0 52.2834 8.26265 432 118.238 350.688 467.826
1510 0 58.112 12.1318 705 110.513 349.01 479.085
1511 0 62.1606 9.2824 577 114.856 350.432 473.464
1512 0 65.2245 13.5379 883 107.279 349.775 477.249
1513 0 66.341 11.9986 796 111.202 348.613 478.814
1514 0 68.1311 14.5308 990 108.737 347.644 475.888
1515 0 69.44 10.6711 741 113.648 347.779 477.14
1516 0 71.3648 10.6215 758 114.243 346.93 474.893
1517 0 72.2946 8.68668 628 115.949 346.618 471.896
1518 0 66.1608 8.61538 570 117.428 345.426 469.407
1519 0 72.2532 12.7884 924 110.8 344.047 471.304
1520 0 81.2477 10.5234 855 111.401 343.917 472.578
1521 0 84.1681 13.7344 1156 106.041 342.88 471.225
1522 0 85.239 15.8026 1347 104.046 343.451 467.938
1523 0 86.2962 11.1245 960 110.76 342.171 464.236
1524 0 82.1606 10.2726 844 114.134 342.73 458.355
1525 1 160.217 5.03693 807 116.659 342.836 453.558
1526 1 99.2272 13.9982 1389 106.12 342.194 456.222
1527 0 99.1528 11.0738 1098 111.332 342.619 459.363
1528 0 99.1528 11.1142 1102 131.31 342.622 459.405
1529 1 62.2671 11.4346 712 106.699 342.149 471.47
1530 0 62.3566 12.0436 751 110.165 341.647 463.422
1531 0 60.3218 7.94075 479 114.489 344.171 468.497
1532 0 67.456 15.4026 1039 102.227 343.323 468.841
1533 0 70.5539 13.0397 920 107.674 344.905 461.272
1534 0 68.2472 9.83191 671 113.274 345.954 460.164
1535 0 71.2575 12.7004 905 109.31 346.071 462.903
1536 0 74.7066 11.4582 856 110.686 346.676 461.96
1537 0 77.3423 10.9642 848 113.193 347.113 455.974
1538 0 77.4306 10.8613 841 114.74 347.966 455.597
1539 0 81.5167 12.476 1017 111.351 347.983 456.962
1540 0 80.251 7.15256 574 120.132 348.223 453.329
1541 0 86.5294 13.0014 1125 111.173 349.872 453.442
1542 0 90.5076 13.126 1188 111.996 350.001 446.491
1543 0 95.5622 14.0851 1346 108.93 349.301 450.607
1544 0 97.7899 14.4289 1411 109.55 349.49 450.143
1545 0 99.7784 12.2271 1220 112.112 350.403 452.055
1546 0 103.372 15.5458 1607 108.689 350.451 440.973
1547 0 104.335 17.4342 1819 106.785 350.303 449.236
1548 0 109.726 15.5297 1704 108.632 350.106 454.446
1549 0 112.451 16.665 1874 107.212 349.628 451.579
1550 0 116.793 12.7062 1484 115.379 350.157 444.336
1551 0 118.45 11.4985 1362 117.742 350.786 445.987
1552 0 118.407 12.9215 1530 116.613 349.916 442.446
1553 0 115.241 8.83366 1018 123.118 349.732 444.582
1554 1 126.297 11.4175 1442 117.108 348.642 449.436
1555 0 133.48 14.1595 1890 113.194 348.687 435.956
1556 0 136.422 9.41198 1284 119.297 347.742 440.16
1557 0 145.26 21.9607 3190 100.657 346.077 442.028
1558 0 147.697 14.1641 2092 113.539 346.044 436.393
1559 0 147.636 10.8917 1608 118.669 345.24 424.235
1560 0 149.668 12.9152 1933 113.111 344.595 425.093
1561 1 90.2855 11.375 1027 112.09 342.329 454.665
1562 0 94.1244 15.2352 1434 105.848 343.146 456.702
1563 0 94.1139 9.09536 856 116.004 343.919 456.461
1564 0 93.2191 11.8645 1106 112.682 343.096 453.175
1565 0 96.1923 10.9468 1053 114.096 342.776 449.218
1566 0 101.206 10.4935 1062 115.453 342.136 446.635
1567 0 105.282 11.4075 1201 114.461 341.793 439.646
1568 0 108.275 13.4934 1461 112.898 343.465 431.357
1569 0 112.254 11.5541 1297 115.653 342.49 435.389
1570 0 115.364 13.3318 1538 112.964 343.112 432.343
1571 0 118.424 12.1851 1443 116.411 341.807 429.62
1572 0 122.239 13.0809 1599 114.767 341.493 427.219
1573 0 122.365 11.2287 1374 119.029 342.215 421.124
1574 0 128.37 14.3024 1836 113.391 342.075 421.895
1575 0 130.406 12.3231 1607 117.081 341.637 418.641
1576 0 135.202 12.1966 1649 117.577 343.855 416.731
1577 0 142.489 14.1203 2012 113.974 344.395 413.852
1578 0 147.429 15.6753 2311 109.449 347.099 417.741
1579 1 83.425 11.4714 957 111.162 347.244 435.417
1580 0 87.1599 13.5039 1177 110.242 347.969 429.282
1581 0 88.2088 13.7401 1212 110.12 348.766 430.961
1582 0 86.2781 10.5241 908 116.597 349.274 428.15
1583 0 92.2728 13.0591 1205 112.688 349.893 432.777
1584 0 96.2969 15.2341 1467 109.8 349.505 440.031
1585 0 98.2216 10.7512 1056 118.242 350.346 440.05
1586 0 98.2652 12.9649 1274 115.604 350.282 442.34
1587 0 106.339 14.5479 1547 112.674 350.765 448.283
1588 0 107.388 12.3664 1328 116.717 350.36 448.843
1589 0 110.294 13.3642 1474 115.026 350.784 448.092
1590 0 113.421 13.6924 1553 115.547 351.225 445.695
1591 0 118.444 14.5385 1722 111.537 350.872 450.583
1592 0 119.301 16.1524 1927 109.527 350.857 447.159
1593 0 122.27 12.9713 1586 114.728 351.417 447.89
1594 0 122.527 10.8058 1324 120.322 351.534 440.952
1595 0 134.432 14.2971 1922 114.074 350.158 446.821
1596 0 136.401 13.2844 1812 116.376 350.806 441.125
1597 0 142.576 17.289 2465 108.811 349.65 448.009
1598 0 147.656 15.3194 2262 113.641 348.638 435.889
1599 0 151.426 13.9408 2111 115.705 349.241 439.319
1600 0 156.362 15.2786 2389 111.931 347.536 443.626
1601 0 162.458 13.9113 2260 113.337 346.186 438.402
1602 0 162.497 13.7541 2235 116.459 344.834 422.559
1603 1 96.1652 9.65006 928 115.343 344.518 462.089
1604 0 99.2091 11.7429 1165 113.443 342.559 454.994
1605 0 103.156 12.2242 1261 114.826 342.526 445.408
1606 0 106.217 11.4388 1215 116.821 342.49 447.1
1607 0 107.318 11.9738 1285 116.078 342.467 447.595
1608 0 114.419 15.9152 1821 109.805 342.615 446.576
1609 0 114.214 13.9651 1595 112.177 342.089 451.044
1610 0 118.36 13.7293 1625 114.076 340.572 441.734
1611 0 122.526 17.4739 2141 107.86 341.815 430.972
1612 0 122.526 17.4494 2138 134.812 342.808 431.144
1613 0 127.321 13.1871 1679 114.949 342.185 426.664
1614 1 74.2221 13.8773 1030 108.71 340.405 449.755
1615 0 75.167 9.73831 732 114.54 342.613 453.351
1616 0 78.3116 12.8844 1009 109.834 341.851 458.722
1617 0 78.1257 13.5039 1055 105.655 343.854 454.304
1618 0 77.146 9.82552 758 112.89 344.099 451.323
1619 0 86.394 10.1743 879 111.046 345.295 447.835
1620 0 85.2676 13.9912 1193 106.472 345.443 447.49
1621 0 89.3055 13.2355 1182 107.761 346.92 446.642
1622 0 91.1669 12.2961 1121 110.019 347.079 444.055
1623 0 97.1914 12.7892 1243 109.606 348.312 442.008
1624 0 101.233 11.8538 1200 110.745 348.599 440.353
1625 0 102.336 11.3841 1165 112.407 349.12 440.32
1626 0 104.281 16.513 1722 105.144 348.879 433.479
1627 0 109.263 13.4996 1475 108.809 349.651 439.692
1628 0 108.168 14.7918 1600 107.141 350.997 437.949
1629 0 111.337 13.4726 1500 108.862 350.809 438.446
1630 0 116.264 15.6971 1825 105.128 351.644 438.561
1631 0 119.269 14.7649 1761 107.148 351.284 430.927
1632 0 119.655 12.511 1497 111.335 350.976 430.685
1633 0 126.534 15.0869 1909 107.15 351.635 432.82
1634 0 126.354 11.6656 1474 113.751 351.398 424.202
1635 0 129.272 15.3939 1990 107.832 353.107 431.124
1636 0 136.305 13.257 1807 110.184 350.533 431.694
1637 0 137.459 11.7344 1613 114.623 349.86 423.609
1638 0 138.365 9.61951 1331 117.059 350.348 424.944
1639 1 73.2776 10.0576 737 106.868 349.206 461.484
1640 0 78.2221 9.58808 750 109.932 349.565 458.888
1641 1 89.2729 17.0601 1523 97.4563 348.023 450.588
1642 0 89.1858 9.68764 864 111.073 348.236 444.811
1643 0 90.3216 13.5959 1228 107.053 347.479 441.452
1644 0 94.5309 13.8367 1308 107.788 346.958 436.258
1645 0 94.2758 13.2696 1251 108.598 345.532 434.763
1646 0 98.3236 11.9809 1178 110.086 343.497 435.673
1647 0 100.399 12.9084 1296 109.451 344.407 432.708
1648 0 100.362 14.4477 1450 106.663 344.392 435.535
1649 0 104.198 11.363 1184 112.734 343.534 431.907
1650 0 112.539 14.7504 1660 106.288 343.91 442.428
1651 0 110.516 13.1294 1451 108.258 342.888 447.034
1652 0 114.323 13.1732 1506 107.408 342.297 443.949
1653 0 117.412 14.0105 1645 105.974 341.933 447.085
1654 0 120.513 13.2184 1593 109.895 341.614 434.567
1655 0 125.4 13.8996 1743 108.425 341.927 430.065
1656 0 126.374 15.6678 1980 104.607 340.859 425.697
1657 0 136.33 10.8927 1485 111.129 341.095 433.146
1658 0 136.357 13.7287 1872 108.241 341.558 426.318
1659 0 141.459 15.2766 2161 105.923 341.241 419.328
1660 0 146.371 13.4248 1965 109.855 342.118 414.742
1661 0 147.814 17.5423 2593 104.157 343.684 420.117
1662 0 152.614 13.7078 2092 110.706 343.478 406.395
1663 1 88.1587 9.92528 875 107.957 343.511 450.192
1664 0 93.3184 8.74426 816 111.385 345.63 446.857
1665 0 96.3865 12.0038 1157 106.626 345.609 446.576
1666 0 97.3651 9.25383 901 113.291 345.862 434.566
1667 0 100.259 9.95426 998 111.828 347.097 435.485
1668 0 107.32 14.5266 1559 105.655 347.877 438.787
1669 0 110.268 13.1497 1450 109.027 346.496 440.25
1670 0 115.293 13.8603 1598 106.588 348.444 443.683
1671 0 118.291 13.6528 1615 107.126 348.165 446.51
1672 0 120.264 12.1982 1467 110.185 349.343 440.915
1673 0 125.562 12.7666 1603 108.737 349.11 437.75
1674 0 128.207 12.9556 1661 109.299 350.518 432.506
1675 0 134.32 12.7382 1711 108.537 351.364 439.654
1676 0 137.307 12.7962 1757 109.063 350.367 435.005
1677 0 141.198 10.6304 1501 110.23 350.1 438.342
1678 0 143.212 10.1737 1457 110.786 350.397 442.099
1679 1 88.2035 11.4168 1007 108.164 349.41 465.319
1680 0 89.292 12.3751 1105 107.308 348.587 464.41
1681 0 94.2078 16.2513 1531 102.185 348.777 467.771
1682 0 94.2981 11.1031 1047 109.816 347.473 468.284
1683 0 96.2818 12.048 1160 110.022 348.734 464.808
1684 0 102.318 14.191 1452 107.362 348.32 459.048
1685 0 102.269 13.132 1343 110.611 347.439 460.261
1686 0 104.188 12.2471 1276 112.703 347.318 456.185
1687 0 109.346 14.5593 1592 109.338 346.465 458.313
1688 0 114.249 12.6391 1444 113.958 344.811 453.605
1689 0 117.253 13.6457 1600 111.747 346.409 456.707
1690 1 64.1963 7.83534 503 114.366 344.668 480.797
1691 0 71.0653 12.4674 886 108.797 342.491 464.124
1692 0 70.1289 11.2792 791 112.139 343.212 463.751
1693 0 72.1518 13.4162 968 108.687 341.779 458.092
1694 0 70.3067 10.1982 717 117.229 343.398 454.686
1695 0 76.3124 21.8837 1670 99.2102 342.364 459.511
1696 0 79.208 15.8822 1258 107.152 340.777 464.662
1697 0 76.055 11.4654 872 116.628 341.768 458.544
1698 0 82.0388 15.5902 1279 108.974 342.081 463.677
1699 0 84.2298 12.2047 1028 114.33 341.729 463.026
1700 0 87.1683 12.8946 1124 113.125 341.49 464.044
1701 0 88.0795 13.6922 1206 112.427 341.405 463.332
1702 0 90.2064 15.0211 1355 112.13 342.44 452.772
1703 0 95.1934 16.3772 1559 109.798 342.206 455.254
1704 0 99.204 14.6365 1452 112.833 342.486 452.904
1705 0 101.261 12.8677 1303 117.317 341.856 449.518
1706 0 103.535 15.2703 1581 113.808 343.583 447.988
1707 0 108.181 14.5312 1572 114.334 343.833 448.434
1708 0 108.22 13.916 1506 118.566 344.939 442.815
1709 0 108.22 13.9068 1505 152.827 345.915 442.943
1710 0 116.306 18.116 2107 111.572 345.949 437.547
1711 1 65.0593 9.08402 591 121.499 346.291 466.274
1712 0 70.079 11.9865 840 114.367 346.068 470.451
1713 0 70.2415 10.051 706 120.178 347.741 446.197
1714 0 72.1421 13.2794 958 116.058 347.726 449.827
1715 0 77.1097 14.9787 1155 112.22 348.887 453.76
1716 0 72.0513 8.13309 586 126.961 349.565 451.645
1717 0 77.1244 11.7473 906 121.711 349.349 452.453
1718 0 81.0977 12.3925 1005 119.084 349.116 444.461
1719 0 88.0809 16.5302 1456 111.435 348.751 443.877
1720 0 88.0285 15.6654 1379 113.687 349.839 445.977
1721 0 88.0346 14.1195 1243 117.957 348.523 438.37
1722 0 92.2239 13.207 1218 119.065 348.502 442.406
1723 0 95.2666 17.5297 1670 112.171 347.838 444.078
1724 0 98.1904 11.6814 1147 123.349 347.908 437.92
1725 0 100.131 15.22 1524 118.119 347.999 439.94
1726 0 104.266 12.5832 1312 122.288 346.848 438.418
1727 0 105.204 15.3131 1611 118.032 347.278 435.777
1728 0 99.3209 10.3906 1032 120.838 348.05 440.686
1729 0 95.2904 12.0264 1146 123.032 345.377 432.454
1730 0 100.361 6.2674 629 126.065 345.383 442.717
1731 1 69.422 10.9764 762 115.448 344.475 454.97
1732 0 67.4333 13.302 897 114.188 344.408 453.02
1733 0 69.3319 14.2936 991 112.636 343.78 450.719
1734 0 71.4691 12.383 885 116.064 343.788 450.645
1735 0 72.422 12.6343 915 116.986 342.419 449.234
1736 0 76.4129 12.4063 948 116.526 342.989 458.891
1737 0 75.3282 14.5629 1097 112.193 342.644 466.201
1738 0 76.3196 10.574 807 118.689 342.55 464.414
1739 0 79.2827 10.4689 830 117.635 341.91 461.982
1740 0 81.4053 12.7264 1036 113.466 341.927 462.199
1741 0 82.3754 14.2518 1174 110.826 341.326 460.308
1742 0 84.3088 9.79731 826 119.452 340.41 454.148
1743 0 90.1996 12.6386 1140 114.055 341.059 452.895
1744 0 90.3776 11.2417 1016 116.166 341.393 452.708
1745 0 93.4044 14.2178 1328 111.829 341.579 448.752
1746 0 95.3771 14.2487 1359 111.03 342.068 448.232
1747 0 99.3265 14.9708 1487 108.673 343.771 447.562
1748 0 104.467 13.2003 1379 110.954 343.269 445.561
1749 0 105.375 11.5682 1219 113.187 343.818 447.941
1750 0 112.689 14.8284 1671 107.905 344.513 444.114
1751 0 110.255 13.0424 1438 112.574 346.438 431.95
1752 0 117.182 10.3856 1217 115.678 346.134 434.676
1753 1 64.0575 6.60344 423 112.792 346.461 462.596
1754 0 70.2048 12.1502 853 109.496 347.012 451.37
1755 0 74.1902 12.2523 909 110.085 346.661 451.007
1756 0 76.1223 12.2566 933 108.587 347.77 455.871
1757 0 77.0822 12.3764 954 109.482 347.208 451.974
1758 0 80.3099 11.4307 918 110.021 349.11 449.436
1759 0 81.0557 15.8286 1283 104.815 348.546 454.447
1760 0 84.1602 15.5893 1312 105.261 348.801 456.676
1761 0 88.122 12.0628 1063 109.816 349.275 455.351
1762 0 87.2524 10.9796 958 112.257 349.219 460.161
1763 0 92.3261 11.6977 1080 110.478 349.116 463.764
1764 0 96.1622 14.4339 1388 107.163 349.407 459.558
1765 0 101.251 16.8789 1709 103.142 349.044 458.941
1766 0 100.124 11.2261 1124 111.713 348.97 456.266
1767 0 106.15 13.3113 1413 109.485 348.764 457.29
1768 0 118.731 20.2222 2401 96.7455 348.285 446.193
1769 0 121.448 19.9509 2423 96.955 348.631 448.449
1770 0 114.483 11.1283 1274 109.827 349 446.219
1771 0 129.765 21.1383 2743 95.6114 347.456 445.61
1772 1 71.201 12.247 872 103.867 347.352 482.01
1773 0 67.1665 12.7296 855 104.982 344.981 476.526
1774 0 73.1817 14.9354 1093 104.309 344.182 469.763
1775 0 72.1369 10.1196 730 111.725 343.329 472.852
1776 0 77.3574 13.4182 1038 107.425 342.54 469.893
1777 0 77.2784 14.0919 1089 107.532 342.462 471.426
1778 0 78.0767 11.1301 869 113.275 342.693 467.198
1779 0 82.1613 14.5932 1199 107.032 341.483 472.393
1780 0 88.3635 18.5144 1636 100.698 340.537 461.417
1781 0 95.5331 25.7921 2464 92.4939 341.125 461.41
1782 0 101.614 14.3385 1457 104.984 342.535 456.11
1783 0 102.618 18.8368 1933 99.5266 341.528 458.206
1784 0 102.206 23.1297 2364 95.4869 341.486 451.533
1785 0 96.3232 15.0431 1449 110.01 340.848 457.686
1786 0 100.375 17.365 1743 105.865 340.956 458.931
1787 0 106.688 17.3965 1856 105.279 341.584 448.362
1788 0 104.163 15.5909 1624 110.081 342.106 446.654
1789 0 104.285 13.4728 1405 114.412 340.469 444.803
1790 0 108.38 18.3613 1990 106.163 342.698 421.581
1791 0 110.281 16.0862 1774 111.884 343.591 427.395
1792 0 113.372 15.7446 1785 111.396 343.718 431.83
1793 0 116.334 15.6275 1818 113.629 344.45 427.784
1794 0 122.345 16.5188 2021 111.662 345.051 429.265
1795 0 125.261 17.0285 2133 111.958 344.388 429.969
1796 0 130.318 20.3349 2650 106.915 346.01 425.308
1797 0 136.389 17.846 2434 110.092 346.31 427.553
1798 0 141.302 22.689 3206 103.988 347.264 432.538
1799 0 141.358 17.3106 2447 113.791 347.404 433.549
1800 0 149.295 18.7548 2800 111.408 347.95 428.358
1801 1 76.1769 10.4625 797 116.567 348.153 469.499
1802 0 76.1805 10.9739 836 117.956 348.91 463.866
1803 0 82.2761 13.6249 1121 113.426 349.323 461.828
1804 0 81.2506 13.5138 1098 114.924 349.313 457.396
1805 0 86.257 14.6423 1263 114.695 348.853 446.699
1806 0 88.1697 13.508 1191 116.154 349.074 452.111
1807 0 89.1662 13.144 1172 116.747 350.076 450.512
1808 0 92.1998 12.5922 1161 116.165 348.635 448.842
1809 0 96.3224 13.7663 1326 116.979 349.399 433.17
1810 0 100.35 18.9536 1902 106.822 348.665 443.862
1811 0 102.305 12.3455 1263 119.628 349.564 437.552
1812 0 106.279 13.8033 1467 115.833 348.154 447.592
1813 0 108.273 14.1124 1528 114.677 348.385 448.88
1814 0 111.268 13.5169 1504 115.872 347.692 449.945
1815 0 111.268 13.6338 1517 145.746 346.738 449.932
1816 0 119.412 10.6606 1273 119.195 345.118 453.452
1817 0 124.164 12.113 1504 117.488 344.792 451.68
1818 1 55.0544 8.80947 485 111.94 344.32 488.971
1819 0 57.0584 10.6557 608 109.66 342.518 483.648
1820 0 58.1383 9.5462 555 111.917 342.256 483.623
1821 0 56.1587 11.3072 635 107.765 344.646 475.009
1822 0 58.252 11.1069 647 106.437 343.705 476.26
1823 1 68.1512 7.71813 526 109.407 343.042 473.352
1824 0 63.1776 8.81642 557 107.045 341.639 467.255
1825 0 61.1444 9.38761 574 105.735 340.254 465.5
1826 0 61.4991 11.5286 709 103.255 341.585 465.604
1827 0 65.041 8.08721 526 107.719 340.829 464.778
1828 1 31.0114 5.77207 179 104.732 340.095 481.128
1829 0 39.0368 9.19646 359 97.6657 339.866 485.538
1830 0 39.0682 12.3374 482 97.249 341.583 481.299
1831 0 34.0577 7.86901 268 105.507 341.784 476.996
1832 0 37.1354 9.20954 342 103.409 343.462 477.968
1833 0 42.1378 9.84863 415 101.034 344.277 476.366
1834 0 44.1354 12.1444 536 97.9011 345.129 475.741
1835 0 43.3181 10.3652 449 100.011 345.151 471.045
1836 0 44.04 10.7402 473 99.5243 346.017 468.554
1837 0 46.2092 8.93761 413 101.736 345.729 466.533
1838 0 45.1737 6.46394 292 105.798 346.325 472.178
1839 0 51.1045 11.0166 563 100.355 347.893 466.581
1840 0 50.0973 13.2542 664 98.5256 347.655 470.06
1841 0 52.0972 10.634 554 101.424 347.789 468.563
1842 0 58.0661 13.0713 759 97.3281 348.539 464.516
1843 0 55.0724 9.04265 498 105.311 348.635 462.51
1844 0 55.0696 8.44386 465 105.185 349.873 461.318
1845 0 60.026 10.9286 656 101.508 349.096 462.494
1846 0 61.0885 12.6701 774 100.959 350.452 463.615
1847 0 61.1403 11.907 728 101.996 350.223 460.229
1848 0 64.0896 10.969 703 104.333 349.114 462.523
1849 0 67.1965 11.0125 740 101.765 348.501 468.401
1850 0 69.3534 10.1942 707 104.884 349.071 464.082
1851 0 72.2521 14.2972 1033 99.2798 349.609 463.859
1852 0 73.1777 11.0689 810 102.869 348.91 465.4
1853 0 76.2752 10.7243 818 103.295 348.833 466.165
1854 1 40.1474 8.4937 341 100.915 350.196 484.765
1855 0 46.089 8.83074 407 101.086 349.356 482.27
1856 0 46.0456 9.20826 424 102.517 349.682 480.175
1857 0 48.1885 8.98554 433 104.323 348.737 480.603
1858 0 60.2103 12.8383 773 95.163 347.81 479.819
1859 0 56.3314 16.3497 921 91.785 347.011 475.6
1860 0 55.1292 11.4096 629 99.8076 346.278 477.181
1861 0 57.267 12.0837 692 99.7081 346.081 478.238
1862 0 58.3302 13.9379 813 98.8708 345.716 474.601
1863 0 58.0713 8.98895 522 106.653 344.975 474.579
1864 0 58.0892 12.1021 703 102.553 344.142 475.129
1865 0 63.098 11.2365 709 105.061 343.625 477.162
1866 0 64.1891 13.024 836 104.481 342.696 475.795
1867 0 68.1986 15.1763 1035 100.697 340.85 475.601
1868 0 68.2781 12.947 884 103.851 341.437 475.641
1869 0 69.1616 12.5503 868 105 341.457 473.215
1870 0 71.2619 14.7624 1052 101.978 341.331 476.361
1871 0 73.3145 13.9672 1024 102.812 340.153 470.131
1872 0 72.3945 12.5148 906 105.562 339.795 466.755
1873 0 75.2291 9.5043 715 107.829 339.078 471.664
1874 0 77.3356 12.5557 971 104.515 340.061 467.302
1875 0 86.1778 23.614 2035 91.0428 340.337 459.151
1876 0 90.1134 18.3103 1650 95.5224 340.603 455.526
1877 0 93.2903 16.529 1542 97.8191 341.53 454.135
1878 0 95.9619 17.955 1723 95.9002 342.575 446.71
1879 1 46.233 10.9229 505 103.202 342.507 476.517
1880 0 52.1927 14.4848 756 98.3003 343.291 474.607
1881 0 50.4216 10.4915 529 103.686 344.845 469.805
1882 0 54.3669 12.1397 660 101.788 346.194 463.809
1883 0 56.0493 11.8824 666 103.868 345.389 460.242
1884 0 58.0748 10.8309 629 105.111 346.134 461.127
1885 0 61.1209 12.6471 773 102.285 345.955 460.876
1886 0 63.1929 11.726 741 103.796 346.564 454.806
1887 0 64.0868 12.2022 782 103.137 348.235 457.462
1888 0 66.1926 15.9383 1055 97.619 347.638 467.69
1889 0 66.0852 15.6011 1031 99.1154 348.969 468.33
1890 0 67.0984 13.4877 905 101.95 348.93 469.862
1891 0 72.1201 15.391 1110 99.4081 348.913 470.243
1892 0 73.1363 14.056 1028 101.879 347.879 470.189
1893 0 74.1564 14.0244 1040 101.69 348.386 473.573
1894 0 78.1515 16.2633 1271 97.5586 347.929 476.307
1895 0 81.3414 19.8915 1618 94.2787 347.25 471.941
1896 0 84.2458 12.784 1077 102.791 347.944 472.219
1897 0 87.1848 11.3093 986 105.801 347.871 471.491
1898 1 45.0494 11.2987 509 102.839 346.416 493.505
1899 0 50.0504 15.7441 788 96.7716 346.546 493.093
1900 0 50.0997 14.2915 716 99.2304 345.874 492.493
1901 0 51.109 14.1854 725 102.726 344.55 487.483
1902 0 55.08 14.4335 795 101.145 344.889 489.888
1903 1 189.464 7.1412 1353 112.526 344.137 437.573
1904 0 190.489 10.3943 1980 105.98 343.711 433.731
1905 0 194.805 13.2491 2581 101.726 342.496 431.953
1906 1 78.9095 21.0114 1658 87.6152 341.972 469.44
1907 0 82.368 15.0908 1243 93.8142 342.248 470.401
1908 0 76.6717 17.3206 1328 94.2711 341.507 477.983
1909 0 78.9069 20.5179 1619 90.6757 340.427 473.671
1910 0 76.4773 16.3316 1249 97.6773 341.296 478.115
1911 1 145.456 11.5637 1682 110.159 340.943 437.991
1912 0 147.295 14.1553 2085 105.54 341.28 444.574
1913 1 77.1298 15.8953 1226 101.823 339.652 471.203
1914 0 75.1941 20.1745 1517 96.3718 340.384 472.907
1915 0 76.43 22.7921 1742 93.8846 340.123 468.679
1916 0 81.1687 17.7408 1440 99.1493 341.083 465.44
1917 0 79.1052 13.8423 1095 106.417 341.12 467.862
1918 0 80.1906 14.5778 1169 105.888 341.425 460.454
1919 0 83.1281 17.6595 1468 101.606 341.324 462.888
1920 0 89.148 16.7587 1494 102.57 341.426 458.913
1921 0 89.1301 13.6205 1214 107.755 342.338 460.333
1922 1 48.3148 8.25834 399 112.581 343.644 476.842
1923 0 50.1715 10.8428 544 108.654 343.259 478.592
1924 0 52.2723 13.6784 715 102.376 345.196 482.296
1925 0 57.1832 18.0647 1033 100.967 345.954 476.061
1926 0 56.2608 17.2589 971 102.549 345.738 478.193
1927 0 59.1266 21.1242 1249 98.2714 346.417 477.04
1928 0 59.1266 20.9719 1240 130.542 345.386 476.961
1929 0 64.1206 15.6736 1005 107.448 347.865 473.16
1930 0 68.0669 17.5563 1195 102.254 348.803 475.388
1931 0 68.1997 18.0206 1229 101.906 348.885 478.399
1932 0 70.133 12.6617 888 112.733 350.648 472.535
1933 0 74.4964 16.0947 1199 105.038 350.563 473.199
1934 0 75.3469 13.2985 1002 110.94 350.412 470.327
1935 0 79.4944 12.743 1013 112.49 350.406 466.147
1936 0 81.2788 13.7551 1118 112.91 349.572 465.206
1937 0 84.4887 14.2741 1206 112.934 350.176 465.346
1938 0 85.2818 15.2788 1303 113.442 350.89 467.398
1939 0 88.1995 12.9819 1145 119.808 350.024 467.762
1940 1 49.0705 12.4719 612 115.168 348.556 489.379
1941 0 53.1318 13.7206 729 115.968 347.944 486.89
1942 0 53.1224 16.4526 874 113.238 348.326 488.157
1943 0 54.1259 14.3369 776 118.108 347.803 492.2
1944 0 56.1299 16.8003 943 114.484 347.175 490.768
1945 0 60.1459 14.0326 844 119.691 345.052 488.199
1946 0 65.1591 17.3115 1128 110.922 343.831 486.342
1947 0 66.1154 15.5788 1030 114.636 343.636 483.956
1948 0 66.2454 20.8467 1381 107.435 342.19 479.579
1949 0 66.2454 20.8316 1380 125.965 341.178 479.566
1950 0 74.2544 18.073 1342 108.911 343.19 474.639
1951 0 72.2034 14.1683 1023 118.292 342.274 475.506
1952 0 83.1786 20.6423 1717 103.53 341.644 469.488
1953 0 79.2545 17.9296 1421 110.812 341.607 471.003
1954 0 88.5363 23.3577 2068 100.208 340.42 462.973
1955 0 86.605 22.5622 1954 103.296 341.012 463.115
1956 0 87.2339 20.8978 1823 106.418 341.187 466.567
1957 0 90.8697 18.1689 1651 109.869 341.087 467.024
1958 0 89.2162 19.1221 1706 110.341 341.567 462.234
1959 0 94.6381 16.4205 1554 113.241 341.255 458.19
1960 0 87.218 14.5153 1266 120.262 342.878 448.189
1961 0 92.2103 15.8659 1463 118.04 342.469 448.75
1962 0 94.4374 15.8835 1500 118.728 343.25 444.918
1963 1 52.0478 10.9899 572 122.28 344.084 467.313
1964 0 52.0941 12.9573 675 119.991 343.163 467.656
1965 0 54.1126 12.5109 677 122.848 344.18 474.016
1966 0 53.1554 13.6769 727 123.362 344.788 471.711
1967 0 56.0556 12.0059 673 126.465 345.672 470.416
1968 0 60.1178 14.0225 843 122.266 346.127 471.285
1969 0 61.0632 14.6078 892 121.361 347.144 468.53
1970 0 63.0514 12.3391 778 124.321 349.037 469.082
1971 0 66.1883 12.9026 854 122.501 348.63 468.386
1972 0 69.2101 14.6799 1016 118.673 349.032 469.676
1973 0 72.2659 14.5989 1055 119.286 348.917 468.587
1974 0 73.3417 11.7259 860 125.524 348.322 468.438
1975 0 80.1982 14.9255 1197 118.821 349.613 464.904
1976 0 80.2442 16.3626 1313 116.366 350.37 464.728
1977 0 84.4985 17.8346 1507 112.285 350.435 466.883
1978 0 84.4985 17.7163 1497 130.651 350.446 466.927
1979 0 91.272 12.2272 1116 121.318 349.136 455.147
1980 0 94.1984 13.5777 1279 118.772 348.607 456.256
1981 1 51.1119 11.2694 576 119.781 347.609 476.328
1982 0 52.3602 8.7471 458 120.251 348.124 480.491
1983 0 54.104 10.4244 564 120.97 348.074 481.131
1984 0 54.1059 10.424 564 122.154 348.961 484.619
1985 0 61.0479 13.4321 820 114.44 347.834 483.354
1986 0 60.0588 11.8384 711 117.699 348.163 484.857
1987 0 64.1493 15.916 1021 109.628 345.056 485.843
1988 0 66.0752 14.3019 945 113.803 345.847 480.779
1989 0 67.1948 13.7808 926 114.748 343.702 479.877
1990 0 70.1881 14.7603 1036 113.586 345.24 474.743
1991 0 74.3612 16.0971 1197 110.619 343.921 478.246
1992 0 75.2509 14.5247 1093 114.436 343.374 473.984
1993 0 78.3108 14.6723 1149 113.136 342.062 475.983
1994 0 81.3542 13.5826 1105 117.007 343.312 472.267
1995 0 82.2668 13.9911 1151 116.502 341.763 466.727
1996 0 84.3162 14.4931 1222 116.265 341.241 465.027
1997 0 88.4912 15.6739 1387 113.986 340.349 465.69
1998 0 91.5742 14.7531 1351 116.147 340.855 459.041
1999 1 48.3474 11.6242 562 117.322 340.683 480.6
2000 0 50.404 13.3719 674 114.061 340.384 479.389
2001 0 52.5029 11.4851 603 116.887 341.978 475.577
2002 0 51.4266 11.181 575 117.675 340.96 479.883
2003 0 54.354 14.9759 814 112.061 341.652 473.803
2004 0 53.1149 13.9132 739 115.28 343.207 477.752
2005 0 56.3532 13.6816 771 114.719 343.505 476.013
2006 0 58.1318 13.1597 765 116.505 344.097 471.417
2007 0 62.3784 13.0494 814 116.302 343.655 472.468
2008 0 63.1989 12.7059 803 114.996 343.244 472.532
2009 0 64.1101 14.1475 907 112.826 343.862 468.351
2010 0 68.1295 13.7532 937 113.447 345.401 468.823
2011 0 73.1365 17.9801 1315 105.212 345.69 469.899
2012 0 72.2022 14.8333 1071 112.184 347.007 466.414
2013 0 74.4429 12.9227 962 116.818 346.672 461.629
2014 0 78.2703 14.2072 1112 114.237 347.716 461.191
2015 0 79.3077 14.097 1118 114.502 347.405 462.974
2016 1 41.1639 8.62405 355 121.493 348.116 475.842
2017 0 46.3178 10.2984 477 115.795 347.786 479.18
2018 0 45.2907 11.3489 514 112.982 349.002 476.99
2019 0 50.2261 12.1451 610 111.89 350.852 469.193
2020 0 51.165 12.489 639 110.72 349.283 473.318
2021 0 50.5252 13.0628 660 114.55 349.968 478.712
2022 0 53.2299 13.545 721 113.728 348.426 478.682
2023 0 55.3604 12.6986 703 113.176 347.512 482.603
2024 0 59.2529 15.2904 906 110.178 347.513 481.187
2025 0 65.2594 19.6447 1282 101.324 346.962 478.742
2026 0 64.2462 18.9272 1216 104.009 346.918 474.271
2027 0 63.4884 13.2308 840 116.264 345.91 473.895
2028 0 66.6336 16.5682 1104 110.684 347.38 471.928
2029 0 66.2759 14.4095 955 114.227 347.054 473.465
2030 0 72.2786 16.5747 1198 110.351 345.585 472.048
2031 0 72.1987 12.3271 890 118.39 345.749 466.994
2032 0 75.1961 15.5194 1167 113.387 344.62 464.003
2033 0 76.3536 15.7556 1203 114.969 343.983 459.024
2034 0 79.3322 15.0002 1190 115.902 343.819 462.645
2035 0 82.3277 14.1994 1169 117.759 342.279 462.561
2036 0 86.4778 16.3626 1415 113.812 341.839 463.526
2037 0 86.4204 12.821 1108 121.319 341.731 464.459
2038 0 91.4078 15.7755 1442 114.845 341.376 461.577
2039 0 90.2777 14.8542 1341 118.509 342.118 456.362
2040 0 93.4307 14.9951 1401 116.115 340.737 459.387
2041 0 96.2514 13.8907 1337 120.356 342.083 450.452
2042 0 100.426 14.7372 1480 117.642 340.298 452.312
2043 0 104.371 14.1898 1481 118.658 340.475 448.425
2044 0 104.371 14.1323 1475 145.847 340.494 448.425
2045 1 59.1399 11.6334 688 118.849 341.145 467.423
2046 0 58.1834 13.1481 765 116.944 341.375 468.239
2047 0 60.1481 13.0345 784 117.728 341.633 464.55
2048 0 60.3704 10.9325 660 120.985 341.942 462.558
2049 0 64.2249 11.6777 750 119.293 342.167 463.708
2050 0 67.2019 13.3032 894 116.182 342.876 459.245
2051 0 68.2284 13.7626 939 115.783 343.714 456.836
2052 0 71.335 13.6399 973 116.185 344.338 452.822
2053 0 73.4157 11.1012 815 120.06 344.36 452.47
2054 0 76.3674 11.4054 871 119.042 343.924 452.49
2055 0 78.3001 12.3244 965 118.292 346.781 448.784
2056 0 82.3373 12.886 1061 118.041 346.485 446.397
2057 0 87.1322 14.0935 1228 114.382 347.486 450.425
2058 0 88.2152 14.9747 1321 113.156 348.316 447.836
2059 0 97.2664 8.55383 832 123.714 347.615 451.561
2060 0 95.3151 10.6594 1016 124.293 348.564 442.636
2061 0 98.1985 10.6417 1045 123.827 348.81 446.47
2062 0 103.3 13.1075 1354 118.888 348.851 447.824
2063 1 53.0483 10.9146 579 117.655 348.202 468.13
2064 0 56.0658 10.8622 609 118.112 349.103 473.189
2065 0 52.077 8.98669 468 127.556 347.451 470.682
2066 0 53.1535 10.7049 569 123.351 348.269 471.619
2067 0 55.1473 9.50183 524 125.756 346.458 469.614
2068 0 65.1701 12.6131 822 116.654 347.526 478.614
2069 0 65.1582 10.4054 678 121.991 347.348 468.534
2070 0 67.1063 12.8155 860 117.52 347.186 469.98
2071 0 72.3247 13.1629 952 115.737 346.036 470.013
2072 0 75.2356 13.6505 1027 115.257 344.557 467.655
2073 0 77.2643 15.4276 1192 111.268 344.247 472.29
2074 0 79.2936 11.9556 948 119.268 343.62 464.976
2075 0 83.1354 15.5048 1289 112.381 343.074 466.26
2076 0 85.2808 13.3676 1140 116.725 342.494 463.622
2077 0 89.1765 13.3892 1194 116.818 341.56 461.553
2078 0 91.2429 17.5027 1597 111.382 339.738 455.114
2079 0 97.2943 16.2086 1577 114.862 341.11 444.5
2080 0 97.3535 11.5866 1128 124.422 339.963 442.257
2081 1 53.2279 8.82995 470 123.296 340.74 463.726
2082 0 57.3686 12.7596 732 117.19 341.246 455.216
2083 0 62.4836 12.1792 761 115.168 341.394 455.74
2084 0 59.4723 11.6525 693 119.329 340.205 455.668
2085 0 60.3792 12.5871 760 120.001 340.386 451.468
2086 0 63.1889 14.0848 890 116.069 341.235 458.975
2087 0 61.1083 12.486 763 121.178 341.232 462.017
2088 0 66.1104 13.7648 910 117.258 341.948 462.865
2089 0 66.3411 14.6365 971 115.856 341.413 456.095
2090 0 68.1656 12.0882 824 121.282 341.695 450.777
2091 0 67.2473 11.4354 769 122.637 343.07 451.181
2092 0 74.2788 13.9071 1033 117.046 344.742 451.773
2093 0 74.2788 13.7994 1025 141.83 346.747 451.68
2094 0 74.1565 13.7682 1021 119.583 342.964 444.035
2095 0 78.2787 13.2348 1036 120.637 346.532 449.258
2096 0 83.2415 13.8272 1151 118.062 345.514 450.285
2097 0 85.2048 13.1565 1121 118.926 347.69 449.553
2098 0 86.1769 10.9774 946 124.242 346.626 440.058
2099 0 89.2464 15.3956 1374 117.793 346.659 436.881
2100 0 93.3401 13.4776 1258 118.565 347.694 444.593
2101 0 96.3223 14.0258 1351 119.714 348.059 434.212
2102 0 101.253 13.9058 1408 119.947 347.771 412.828
2103 0 103.181 13.3164 1374 120.153 348.282 414.376
2104 0 108.328 13.7084 1485 119.376 348.454 422.504
2105 0 109.282 12.5913 1376 121.113 348.456 441.307
2106 0 112.286 11.1234 1249 123.455 349.142 452.603
2107 1 63.2871 15.5956 987 110.619 347.786 475.204
2108 0 67.2941 15.618 1051 110.911 346.564 471.738
2109 0 68.1208 12.8448 875 115.193 346.499 475.983
2110 0 72.2549 15.0716 1089 111.518 346.054 470.783
2111 0 71.3431 11.5498 824 118.984 346.988 471.693
2112 0 74.3286 12.7676 949 116.882 345.508 471.917
2113 0 78.2226 14.7911 1157 112.834 345.479 468.314
2114 0 80.3182 15.3514 1233 112.654 344.316 469.881
2115 0 82.5144 14.0582 1160 114.445 344.019 471.555
2116 0 84.3767 12.6101 1064 116.742 344.226 472.561
2117 0 88.4563 18.4724 1634 107.952 341.772 459.727
2118 0 89.709 12.2061 1095 118.336 342.137 459.038
2119 0 92.3505 13.4921 1246 115.262 341.332 461.125
2120 0 91.378 13.6357 1246 117.772 341.592 457.121
2121 0 96.1548 14.7886 1422 114.581 340.61 456.11
2122 0 100.131 13.6422 1366 116.16 341.689 457.044
2123 0 102.264 14.2278 1455 115.803 341.191 456.953
2124 0 97.1907 11.8015 1147 119.972 339.583 458.113
2125 0 109.178 14.9114 1628 113.514 339.864 453.681
2126 1 59.1835 12.1486 719 114.065 340.768 475.427
2127 0 58.2219 12.0401 701 113.046 339.595 475.809
2128 0 59.138 11.1265 658 117.845 341.12 468.372
2129 0 61.1989 11.7159 717 115.393 341.003 471.877
2130 0 61.0893 16.4022 1002 108.605 340.181 471.301
2131 0 64.4716 14.8903 960 113.243 341.003 463.812
2132 0 69.1323 15.9549 1103 112.714 341.618 468.753
2133 0 69.0607 12.6411 873 118.393 341.669 468.337
2134 0 71.2769 12.7952 912 119.285 342.182 466.129
2135 0 73.0855 13.2584 969 118.221 342.927 463.139
2136 0 76.1013 14.3493 1092 116.749 343.063 463.247
2137 0 81.1475 17.4497 1416 110.498 343.842 459.939
2138 0 82.1669 15.6998 1290 113.873 344.377 459.365
2139 0 85.2043 16.2433 1384 112.259 344.488 457.736
2140 0 96.7199 19.9338 1928 104.053 345.552 452.637
2141 0 93.1512 14.2457 1327 115.063 346.738 455.937
2142 0 94.1953 14.8203 1396 114.355 346.922 456.257
2143 0 98.3456 15.2015 1495 112.787 346.16 450.892
2144 0 101.353 14.2571 1445 113.005 346.928 451.994
2145 0 105.383 16.3499 1723 109.154 348.735 454.828
2146 0 112.38 18.6955 2101 106.016 347.665 451.919
2147 1 58.0841 12.2237 710 112.113 349.403 478.572
2148 0 61.1138 14.8575 908 108.838 348.545 479.539
2149 0 63.1258 15.4929 978 107.199 348.873 481.643
2150 0 65.2623 14.3728 938 110.678 349.273 477.194
2151 0 68.1903 14.9581 1020 110.3 348.062 479.902
2152 0 68.1342 10.6554 726 116.492 348.085 482.821
2153 0 76.2043 17.6762 1347 106.299 347.179 477.514
2154 0 76.2043 17.8861 1363 129.094 345.181 477.443
2155 0 76.2542 17.363 1324 109.418 346.342 473.677
2156 0 79.0954 13.8314 1094 114.901 345.978 476.936
2157 0 84.114 12.8159 1078 116.05 344.844 477.108
2158 0 88.0779 21.3901 1884 102.907 343.444 465.472
2159 0 89.2441 16.8975 1508 111.165 343.12 472.353
2160 0 91.4604 16.0725 1470 113.536 342.267 466.225
2161 0 92.1738 14.4293 1330 116.686 341.796 468.423
2162 0 99.2577 17.5402 1741 110.372 341.481 467.158
2163 0 99.2623 13.5903 1349 118.967 340.872 460.398
2164 0 107.176 19.6219 2103 106.888 341.7 457.923
2165 1 53.0772 10.155 539 115.371 341.122 484.037
2166 0 57.318 13.207 757 113.597 341.351 476.122
2167 0 57.0657 14.5797 832 112.381 340.972 475.245
2168 0 57.1954 13.0255 745 115.286 341.82 477.416
2169 0 60.0694 15.6819 942 112.428 340.498 471.236
2170 0 63.2198 12.2746 776 119.005 340.5 468.22
2171 0 67.0338 17.8268 1195 112.392 340.082 468.567
2172 0 69.2267 16.4099 1136 115.562 340 463.202
2173 0 71.3607 14.2095 1014 119.267 340.74 466.63
2174 0 76.1513 16.6642 1269 113.582 340.38 464.402
2175 0 78.2136 21.7354 1700 105.725 341.541 461.135
2176 0 80.1135 23.0049 1843 103.798 341.714 457.62
2177 0 80.2522 17.2207 1382 114.779 341.943 461.388
2178 1 100.478 17.1979 1728 106.559 343.369 452.45
2179 0 99.9922 23.0818 2308 98.5841 343.009 448.578
2180 0 91.4427 25.0321 2289 100.342 343.716 444.241
2181 0 92.5513 21.6961 2008 105.342 345.727 445.826
2182 0 94.1702 17.8082 1677 111.976 345.898 448.815
2183 0 94.2512 17.0078 1603 115.721 346.51 452.482
2184 0 93.2406 15.6477 1459 120.035 346.676 448.364
2185 0 98.1818 15.5833 1530 118.565 347.166 452.442
2186 0 102.305 15.2681 1562 119.741 347.568 450.147
2187 1 56.09 12.676 711 119.586 347.311 478.028
2188 0 56.0346 11.0289 618 122.04 347.767 475.152
2189 0 59.1681 12.5912 745 118.148 349.968 480.452
2190 0 63.0449 12.2294 771 118.82 349.479 478.816
2191 0 66.1286 16.7855 1110 111.278 348.718 480.011
2192 0 68.157 15.0681 1027 115.587 348.674 477.151
2193 0 72.2572 13.9225 1006 115.291 349.652 477.748
2194 0 74.4174 13.3705 995 117.984 349.262 476.948
2195 0 78.2919 20.4619 1602 106.215 348.107 473.913
2196 0 83.1708 18.9369 1575 107.34 347.272 473.071
2197 0 83.1803 16.6866 1388 112.59 347.817 475.785
2198 0 84.072 13.5003 1135 119.336 348.041 472.32
2199 0 86.1929 14.1311 1218 117.799 346.634 471.561
2200 0 90.1236 12.383 1116 120.142 344.821 468.547
2201 0 94.1405 12.9594 1220 119.342 345.267 467.179
2202 0 97.279 12.459 1212 119.733 342.52 469.888
2203 1 52.1394 9.26363 483 119.054 343.894 493.236
2204 0 53.0573 11.5347 612 117.484 342.974 491.173
2205 0 57.1937 12.379 708 114.213 342.384 490.195
2206 0 57.0942 10.4739 598 119.773 342.57 486.47
2207 0 63.1506 18.4638 1166 106.852 342.047 485.32
2208 0 64.1132 17.3755 1114 109.169 341.21 483.691
2209 0 66.0818 16.4644 1088 111.07 340.871 479.521
2210 0 66.137 12.4136 821 118.029 340.592 479.166
2211 0 70.1764 14.8483 1042 112.41 339.968 478.062
2212 0 72.1729 13.6616 986 114.358 341.654 475.186
2213 0 75.1892 14.4303 1085 112.603 340.501 473.189
2214 0 78.6166 15.3275 1205 111.763 340.736 467.692
2215 0 77.3343 13.4481 1040 116.061 340.365 467.168
2216 0 81.2678 15.5658 1265 112.804 341.238 466.855
2217 0 83.4249 17.285 1442 109.509 341.238 466.247
2218 0 86.2181 14.1038 1216 115.932 341.729 461.075
2219 0 87.289 13.0486 1139 118.451 341.966 457.126
2220 0 91.2115 14.0114 1278 116.768 341.998 454.904
2221 0 87.4797 11.8542 1037 121.135 343.372 455.76
2222 1 45.433 8.89221 404 123.641 343.017 476.106
2223 0 49.4821 12.4085 614 118.208 343.412 474.757
2224 0 51.429 15.3415 789 114.314 343.466 473.271
2225 0 53.3116 13.6181 726 117.439 345.456 471.435
2226 0 53.1972 13.2902 707 118.332 346.362 471.47
2227 0 56.0886 13.1578 738 118.023 346.581 472.515
2228 0 58.1301 14.7772 859 115.776 346.052 470.44
2229 0 59.297 13.2047 783 118.328 348.83 470.686
2230 0 63.3336 14.2105 900 116.104 347.508 471.891
2231 0 64.3357 16.5072 1062 112.126 349.788 471.055
2232 0 66.2586 13.7944 914 117.144 349.981 471.34
2233 0 70.3282 13.4086 943 117.455 349.977 470.945
2234 0 72.3283 17.0749 1235 112.249 349.29 470.637
2235 0 72.2883 15.369 1111 116.598 350.469 469.545
2236 0 78.3021 16.8578 1320 112.55 348.561 471.535
2237 0 80.2832 22.0968 1774 106.278 348.161 469.021
2238 0 83.3633 13.6991 1142 120.395 346.576 467.361
2239 0 92.323 25.2483 2331 99.7409 346.614 456.946
2240 0 93.4279 21.91 2047 107.091 346.419 468.718
2241 0 97.2547 18.4361 1793 112.927 346.369 469.754
2242 0 98.3078 16.2347 1596 118.093 344.048 467.197
2243 0 101.322 15.3964 1560 119.713 344.388 465.619
2244 1 47.1924 12.6292 596 123.933 342.611 490.299
2245 0 51.1272 14.239 728 121.878 342.592 487.848
2246 0 51.1428 16.5028 844 118.736 342.333 485.302
2247 0 53.0664 11.8908 631 127.594 342.418 486.504
2248 0 60.0731 15.4811 930 118.255 341.829 481.972
2249 0 58.0598 14.6401 850 123.655 341.321 481.621
2250 0 57.0681 11.46 654 131.419 341.414 482.838
2251 0 61.1184 16.9998 1039 119.733 342.605 482.282
2252 0 64.3912 15.7164 1012 122.645 341.576 478.238
2253 0 67.1231 13.87 931 123.535 342.834 478.974
2254 0 68.4102 16.4595 1126 120.536 342.536 472.889
2255 0 71.3323 15.2806 1090 122.862 342.048 472.456
2256 0 72.1319 15.6103 1126 122.758 343.028 472.108
2257 0 73.1642 14.775 1081 126.494 344.132 469.238
2258 0 75.5081 16.3956 1238 125.595 344.418 468.202
2259 0 76.3436 14.2121 1085 130.488 344.752 465.317
2260 0 77.3905 13.7743 1066 131.698 343.947 465.438
2261 0 80.3517 15.009 1206 130.221 345.143 465.143
2262 0 83.5202 14.727 1230 129.101 345.041 466.301
2263 0 84.2263 14.0336 1182 132.355 345.702 460.113
2264 1 51.3031 11.1689 573 120.693 345.846 478.632
2265 0 46.1341 8.88713 410 126.876 345.688 460.876
2266 0 47.0393 8.6736 408 125.306 347.505 464.397
2267 0 50.1448 9.19337 461 126.393 347.408 464.321
2268 0 52.0698 12.9057 672 119.226 346.875 464.182
2269 0 51.0703 10.6911 546 122.097 349.216 468.421
2270 0 54.0882 11.7956 638 119.77 348.867 468.887
2271 0 57.0901 10.3871 593 119.04 348.904 471.727
2272 0 61.1357 11.4336 699 117.65 350.481 471.684
2273 0 60.374 11.3128 683 119.006 349.763 472.968
2274 0 65.1517 12.6934 827 118.111 349.312 468.941
2275 0 66.2059 8.36783 554 125.81 350.457 467.895
2276 0 70.112 10.5545 740 121.704 350.009 467.758
2277 0 76.3297 12.6294 964 116.197 349.355 470.707
2278 0 79.2923 12.599 999 118.315 350.36 472.22
2279 1 43.09 10.6057 457 118.438 350.096 488.407
2280 0 47.1904 12.3118 581 111.599 351.062 493.647
2281 0 46.1761 13.5785 627 109.249 346.748 485.384
2282 0 47.1416 11.2427 530 114.923 348.692 487.834
2283 0 49.0609 9.62069 472 114.659 348.201 495.174
2284 0 52.1032 12.2641 639 112.014 347.978 487.005
2285 0 51.2056 9.33492 478 116.92 345.935 491.904
2286 0 53.0732 9.77895 519 117.339 345.378 488.096
2287 0 55.1089 10.8875 600 115.132 344.015 485.625
2288 0 57.1919 10.2462 586 115.29 344.469 485.727
2289 0 59.1585 11.1734 661 114.138 341.672 484.39
2290 0 60.2196 10.8935 656 115.556 342.593 481.322
2291 0 61.1242 9.89788 605 116.62 340.623 479.802
2292 0 67.0651 12.1076 812 111.281 340.158 477.659
2293 0 69.1399 14.2899 988 108.718 340.016 474.427
2294 0 72.2385 11.7389 848 112.046 340.676 471.448
2295 0 73.2809 15.0244 1101 107.566 339.46 470.831
2296 0 74.1921 10.7828 800 118.671 340.028 467.165
2297 0 74.2872 11.9805 890 117.862 339.52 467.81
2298 0 79.1064 13.6399 1079 114.673 340.915 463.13
2299 0 80.2627 9.15743 735 121.131 340.069 467.956
2300 0 81.2684 10.4223 847 119.378 340.145 464.057
2301 1 42.1142 13.4872 568 110.507 339.843 481.783
2302 0 44.0168 11.6547 513 114.242 339.786 477.366
2303 0 45.1391 9.41533 425 117.433 340.193 478.205
2304 0 44.0882 8.23349 363 119.118 341.755 477.474
2305 0 50.0827 12.6591 634 109.754 341.434 475.909
2306 1 93.2379 8.81616 822 123.56 343.652 448.344
2307 0 100.356 10.0542 1009 119.918 342.817 452.482
2308 1 51.0235 11.8181 603 110.872 345 473.998
2309 0 53.0465 12.1403 644 110.293 343.745 475.582
2310 0 51.0496 6.26842 320 120.403 345.481 477.894
2311 0 54.1165 11.697 633 110.592 346.3 478.692
2312 0 61.0883 11.7862 720 110.538 345.76 472.021
2313 0 64.0918 12.9502 830 109.431 346.988 471.4
2314 0 63.1008 11.236 709 113.539 348.605 470.79
2315 0 70.1537 10.8048 758 116.136 348.046 469.423
2316 0 73.2499 13.1741 965 112.501 349.202 469.752
2317 0 72.2002 11.8282 854 115.913 347.769 468.66
2318 0 76.1542 12.9343 985 113.416 349.035 470.16
2319 0 79.1763 12.0364 953 115.422 349.448 468.268
2320 1 42.013 9.90169 416 118.132 347.394 485.274
2321 0 45.0618 11.7616 530 113.208 346.666 488.877
2322 0 45.1102 11.2391 507 114.994 346.663 489.937
2323 0 46.0774 12.4356 573 114.574 346.281 490.565
2324 0 47.049 12.6889 597 114.546 345.102 490.734
2325 0 50.0644 11.5851 580 115.748 344.688 490.793
2326 0 50.0951 12.6759 635 115.58 345.195 488.699
2327 0 52.0366 14.1631 737 113.071 344.232 489.682
2328 0 53.0544 14.8338 787 112.085 343.628 489.427
2329 0 55.067 13.8558 763 114.33 342.834 489.028
2330 0 56.0325 12.0109 673 117.557 341.889 487.9
2331 0 59.0633 15.1532 895 112.587 341.422 482.932
2332 0 59.1187 14.2594 843 115.509 340.625 482.814
2333 0 57.1059 14.8321 847 116.73 340.919 482.499
2334 0 61.301 13.5887 833 118.131 339.676 481.186
2335 0 64.2539 16.6994 1073 113.29 339.961 476.984
2336 0 66.23 13.8004 914 117.276 339.217 473.085
2337 0 67.3618 13.9693 941 117.371 340.012 476.661
2338 0 74.2471 16.8222 1249 110.603 339.972 471.413
2339 0 78.1766 28.1926 2204 95.088 338.912 467.202
2340 1 101.316 28.337 2871 89.2591 338.671 451.957
2341 0 98.1371 17.8322 1750 102.365 339.704 451.185
2342 0 94.3481 21.5055 2029 101.322 339.783 455.49
2343 0 91.1291 17.1186 1560 110.601 340.17 457.546
2344 0 94.6403 22.3583 2116 102.795 340.683 453.575
2345 1 44.0856 11.8179 521 121.912 340.654 481.202
2346 0 46.1438 15.3217 707 108.786 343.403 475.132
2347 0 46.127 10.883 502 117.317 342.892 471.99
2348 0 46.0568 13.8525 638 115.241 344.994 471.97
2349 0 46.0458 13.834 637 125.785 346.983 471.862
2350 0 51.066 12.5916 643 117.446 346.499 472.796
2351 0 49.1686 11.4504 563 120.634 346.353 473.545
2352 0 52.0434 11.7402 611 119.358 347.627 473.139
2353 0 54.0621 12.4116 671 117.879 347.7 472.265
2354 0 52.0795 10.676 556 124.153 348.277 470.106
2355 0 56.1339 10.0296 563 123.028 348.831 471.265
2356 0 61.0875 12.8668 786 117.847 349.099 470.697
2357 0 59.1229 11.4845 679 121.302 349.043 466.903
2358 0 66.2254 11.476 760 119.334 349.622 466.003
2359 0 68.0993 10.0442 684 121.966 348.83 469.528
2360 0 67.1921 10.0756 677 124.096 349.635 467.932
2361 0 77.2134 15.7745 1218 112.076 348.771 467.027
2362 0 78.1812 11.4478 895 121.922 349.514 464.763
2363 0 83.2199 16.7508 1394 111.612 346.858 463.314
2364 0 88.2839 17.3871 1535 109.291 348.362 469.356
2365 1 48.0477 13.0079 625 120.413 346.411 490.499
2366 0 49.079 13.8145 678 116.845 345.788 491.726
2367 0 50.1087 13.6104 682 115.312 346.27 489.009
2368 0 52.1289 12.0471 628 114.82 346.651 485.736
2369 0 51.1711 9.3412 478 123.259 344.31 485.596
2370 0 55.1445 12.6758 699 115.459 343.112 487.661
2371 0 57.1152 12.6761 724 116.604 343.141 483.775
2372 0 55.1445 10.1189 558 122.174 341.588 482.774
2373 0 59.31 13.5053 801 115.928 341.865 481.283
2374 0 63.151 14.5999 922 112.781 340.268 481.698
2375 0 64.1285 13.4574 863 115.867 340.125 476.665
2376 0 67.2215 16.5275 1111 109.88 339.873 475.325
2377 0 68.1486 11.3135 771 116.956 339.981 477.494
2378 0 71.1186 13.6814 973 114.617 339.419 473.17
2379 0 76.1942 15.6705 1194 110.027 338.629 466.566
2380 0 77.2304 15.3955 1189 110.927 339.094 467.453
2381 0 80.209 15.8835 1274 109.739 339.845 466.627
2382 0 85.3049 17.5488 1497 106.943 339.635 460.38
2383 0 86.2566 15.5582 1342 111.708 338.477 458.605
2384 0 85.2827 16.0877 1372 112.174 339.078 462.259
2385 0 85.1814 12.9254 1101 118.854 340.614 457.562
2386 0 88.2802 16.1191 1423 113.375 340.636 458.89
2387 1 49.0774 12.1441 596 116.505 341.049 475.488
2388 0 55.1206 13.8605 764 115.711 341.039 463.456
2389 0 54.1071 12.5492 679 119.901 341.838 462.67
2390 0 57.1338 15.8925 908 113.972 343.971 461.437
2391 0 54.0671 12.614 682 122.503 343.943 461.696
2392 0 58.1273 13.6081 791 118.211 344.502 461.455
2393 0 58.2389 13.7022 798 119.509 345.831 461.494
2394 0 60.1766 15.8367 953 115.395 345.45 461.829
2395 0 72.2494 26.1317 1888 96.9078 345.268 466.416
2396 0 69.2083 17.4979 1211 110.727 345.474 467.837
2397 0 70.1209 16.1578 1133 114.447 347.826 469.287
2398 0 70.1071 14.8487 1041 118.477 347.947 470.373
2399 0 77.3708 20.783 1608 105.756 347.693 466.512
2400 0 77.212 16.1503 1247 114.933 347.957 469.562
2401 0 77.3495 16.1992 1253 115.768 347.744 470.707
2402 0 80.3657 18.0674 1452 113.383 347.195 466.929
2403 0 89.3018 18.667 1667 109.695 345.84 466.248
2404 0 94.4003 18.019 1701 109.621 346.282 461.613
2405 0 94.546 17.547 1659 111.779 346.291 462.233
2406 0 95.3513 18.6678 1780 111.585 346.073 464.13
2407 1 52.1025 11.3622 592 113.755 345.578 479.75
2408 0 51.1977 11.856 607 116.28 345.67 480.769
2409 0 52.1884 10.7303 560 118.089 345.339 477.68
2410 0 54.1739 12.6629 686 113.799 344.089 481.657
2411 0 57.1265 13.5314 773 111.818 344.479 480.811
2412 0 58.0866 12.6363 734 112.569 342.134 479.323
2413 0 61.2062 15.7827 966 106.479 342.064 478.65
2414 0 66.2773 14.3035 948 107.104 341.636 480.823
2415 0 64.3182 15.5788 1002 108.214 341.165 475.548
2416 0 67.3818 13.6238 918 111.063 340.87 473.844
2417 0 69.2878 13.0615 905 110.4 341.338 478.482
2418 0 71.5025 13.8037 987 110.883 340.584 473.955
2419 0 71.3774 12.567 897 114.178 340.674 468.455
2420 0 77.3274 13.1001 1013 112.012 339.749 469.662
2421 0 81.3179 15.0152 1221 108.868 339.084 465.794
2422 0 82.2639 15.0491 1238 109.504 339.974 462.897
2423 0 84.1842 13.4823 1135 112.635 339.776 458.121
2424 0 85.3338 15.164 1294 110.189 339.6 456.679
2425 0 90.2798 15.9283 1438 109.006 339.693 454.782
2426 0 93.1957 14.0243 1307 112.147 340.318 452.576
2427 1 45.088 9.91395 447 118.13 340.347 471.756
2428 0 55.2548 12.2704 678 110.748 341.109 472.724
2429 0 53.0483 10.3679 550 115.011 341.349 471.447
2430 0 54.1878 12.9918 704 113.031 342.178 467.989
2431 0 59.2496 11.7638 697 112.782 342.545 471.182
2432 0 62.1875 15.6623 974 106.037 344.468 470.75
2433 1 121.631 12.431 1512 115.013 345.013 443.036
2434 1 65.2647 14.1424 923 109.542 344.801 468.775
2435 0 70.205 13.8452 972 109.383 345.264 467.073
2436 0 69.1486 10.745 743 115.467 345.46 466.81
2437 0 71.332 15.6592 1117 109.332 345.943 459.158
2438 0 76.1703 16.3187 1243 105.774 345.853 464.81
2439 0 76.5108 13.8543 1060 112.305 345.969 457.598
2440 0 80.3097 12.7382 1023 112.563 347.108 459.606
2441 0 82.7254 12.2453 1013 113.869 346.534 458.47
2442 0 86.8248 14.489 1258 110.759 348.038 456.746
2443 1 47.1312 12.9002 608 109.433 346.24 476.507
2444 0 50.2031 13.0072 653 110.299 347.681 476.464
2445 0 51.0398 13.1466 671 109.384 346.456 479.773
2446 0 53.0673 11.2875 599 112.681 346.479 483.521
2447 0 53.0673 11.2122 595 135.385 346.477 483.508
2448 0 58.2336 12.8448 748 111.893 345.759 482.829
2449 0 59.0628 10.9883 649 115.419 343.997 479.43
2450 0 62.0732 10.5198 653 115.825 344.43 480.567
2451 0 66.1186 15.9259 1053 106.221 343.298 482.318
2452 0 67.1396 13.2709 891 110.97 342.84 478.181
2453 0 69.2469 13.3291 923 110.816 342.733 473.8
2454 0 71.2508 12.9683 924 112.384 341.293 476.328
2455 0 75.1424 11.8708 892 113.969 340.638 475.351
2456 0 73.4344 11.9835 880 115.031 340.075 468.136
2457 0 82.1074 13.4093 1101 112.221 339.016 468.151
2458 0 82.2277 12.7573 1049 111.031 338.851 474.43
2459 1 48.044 11.0315 530 108.451 338.528 484.517
2460 0 49.0289 8.17886 401 113.237 338.539 483.167
2461 0 46.066 6.55582 302 117.421 337.96 485.818
2462 0 50.1965 12.4312 624 109.008 338.564 483.644
2463 0 51.0824 12.2351 625 107.898 338.722 476.664
2464 0 50.1378 13.7222 688 107.85 338.719 476.433
2465 0 52.1171 11.3015 589 110.737 338.694 479.037
2466 0 54.0216 13.6057 735 107.664 338.78 476.623
2467 0 54.1764 14.6189 792 106.431 339.374 475.298
2468 0 56.1817 12.9046 725 109.619 339.76 473.737
2469 0 60.1006 11.6638 701 111.488 340.429 472.524
2470 0 61.1764 11.7856 721 112.236 340.768 470.112
2471 0 61.2194 13.4108 821 109.836 341.262 469.708
2472 0 65.2147 13.0032 848 110.884 342.055 466.164
2473 0 66.1206 11.7059 774 112.535 342.982 468.12
2474 0 69.1945 13.3681 925 114.352 342.436 468.612
2475 0 69.2977 11.631 806 117.129 344.187 468.868
2476 0 73.2682 14.7267 1079 112.298 343.97 467.552
2477 0 75.1892 11.7304 882 115.636 345.456 468.599
2478 0 77.1289 12.9912 1002 113.882 345.291 467.21
2479 0 84.4032 15.9473 1346 106.752 346.979 459.501
2480 0 89.2388 18.2656 1630 102.765 345.459 456.348
2481 0 83.2769 13.257 1104 113.728 346.423 454.984
2482 0 90.2371 9.08718 820 119.232 345.582 452.154
2483 0 90.2867 10.8543 980 117.653 346.647 455.911
2484 1 48.1905 11.4545 552 111.632 345.214 480.527
2485 0 47.1798 10.9157 515 112.936 346.237 483.573
2486 0 51.0471 9.67734 494 108.283 347.237 484.512
2487 0 47.1331 14.1514 667 103.816 346.409 481.784
2488 0 54.0762 10.966 593 107.459 346.685 480.153
2489 0 55.2056 13.2414 731 105.726 346.782 477.784
2490 0 57.0862 11.5965 662 105.693 346.87 480.492
2491 0 61.0817 12.0986 739 106.21 344.747 479.988
2492 0 61.1089 9.44216 577 111.315 344.626 476.336
2493 0 61.1698 11.1002 679 110.832 343.691 477.823
2494 0 68.1714 13.1727 898 106.301 342.143 477.288
2495 0 71.1726 13.4181 955 107.111 342.771 474.304
2496 0 74.2534 13.4135 996 107.798 340.306 473.351
2497 0 71.1208 14.2574 1014 108.128 341.375 468.209
2498 0 80.1642 12.5617 1007 110.077 338.843 464.718
2499 0 80.1642 12.5742 1008 126.152 336.866 464.775
2500 0 86.2188 13.5469 1168 109.598 339.741 462.639
2501 0 92.3109 16.5853 1531 103.389 339.982 468.056
2502 0 89.255 11.4279 1020 113.141 339.086 463.082
2503 0 95.1808 15.4758 1473 107.953 339.274 455.22
2504 1 51.1675 10.7099 548 109.547 339.23 477.276
2505 0 52.2139 10.9741 573 110.867 339.712 479.525
2506 0 57.0502 11.2532 642 109.321 340.134 478.308
2507 0 54.0396 13.7677 744 106.556 340.375 472.485
2508 0 58.155 11.7789 685 108.406 340.785 472.981
2509 0 61.0608 13.1508 803 107.259 340.519 470.674
2510 0 63.1422 17.3576 1096 101.554 341.059 471.123
2511 0 65.1473 12.7557 831 108.095 340.61 468.104
2512 0 65.0599 11.5893 754 111.711 341.722 466.607
2513 0 69.1368 13.7119 948 108.16 342.109 464.677
2514 0 68.1256 14.9577 1019 106.588 342.475 464.426
2515 0 72.204 12.8525 928 109.633 343.538 463.167
2516 0 75.1815 12.9154 971 110.657 343.571 460.614
2517 0 78.0955 15.4682 1208 106.19 344.156 460.807
2518 0 80.1271 12.605 1010 111.488 345.003 457.045
2519 0 80.1271 12.5925 1009 147.482 346.009 457.2
2520 0 86.1904 12.1475 1047 113.528 345.535 456.389
2521 0 87.3431 11.5407 1008 115.064 347.524 457.108
2522 1 49.1128 9.95668 489 110.92 347.254 474.2
2523 0 52.0769 13.7681 717 105.676 348.25 477.254
2524 0 50.2566 9.92904 499 115.371 347.806 479.112
2525 0 55.1453 12.7482 703 110.216 348.151 479.38
2526 0 56.1436 12.3612 694 112.437 347.683 479.834
2527 0 56.2545 11.5369 649 114.327 347.889 482.441
2528 0 59.2702 13.1601 780 113.404 347.328 479.082
2529 0 61.1829 15.5926 954 109.844 345.936 477.403
2530 0 63.0814 10.8431 684 117.674 347.209 478.395
2531 0 66.3003 13.3333 884 113.662 345.896 478.92
2532 0 71.2984 12.4968 891 114.074 345.817 480.894
2533 0 71.0979 13.7697 979 115.005 345.461 475.606
2534 0 77.1605 13.1155 1012 115.27 344.282 479.009
2535 0 77.1785 15.3411 1184 113.726 342.832 473.179
2536 0 82.2643 16.8481 1386 110.211 342.376 473.114
2537 0 86.0958 18.6652 1607 107.153 341.44 468.11
2538 0 92.1909 14.1446 1304 114.301 341.234 468.23
2539 0 91.2075 12.9375 1180 117.244 341.364 464.297
2540 0 95.3022 14.2284 1356 114.771 340.238 458.895
2541 1 53.0764 11.3987 605 113.997 340.441 483.891
2542 0 58.083 12.6371 734 112.975 340.064 482.51
2543 0 60.0804 14.9134 896 108.739 340.618 481.02
2544 0 63.1945 15.302 967 107.221 339.127 473.816
2545 0 64.0914 13.6056 872 110.955 339.761 474.203
2546 0 68.157 16.5207 1126 104.504 340.813 474.961
2547 0 70.3935 16.2799 1146 106.154 340.024 469.798
2548 0 72.142 17.3269 1250 103.762 339.809 472.601
2549 0 67.1848 10.6423 715 118.21 339.558 462.28
2550 0 74.1189 12.1696 902 114.198 340.452 464.835
2551 0 75.238 13.012 979 113.048 341.632 459.698
2552 0 77.252 14.4592 1117 110.072 340.747 463.158
2553 0 82.0844 14.9968 1231 110.665 342.829 456.008
2554 0 83.1504 12.0745 1004 116.848 341.071 457.122
2555 0 87.238 13.6294 1189 114.562 344.105 460.009
2556 0 91.208 12.3016 1122 117.303 343.716 456.812
2557 0 93.1579 13.6972 1276 115.114 343.827 457.2
2558 1 50.1428 10.7493 539 114.677 345.082 477.178
2559 0 51.1848 11.5855 593 112.808 346.508 474.879
2560 0 51.0976 9.98091 510 119.225 345.424 462.267
2561 0 55.0592 13.204 727 112.62 345.827 466.748
2562 0 56.0761 16.0674 901 109.33 346.153 471.946
2563 0 57.0972 12.1547 694 115.831 347.719 473.223
2564 0 60.1133 10.8129 650 117.088 347.492 473.012
2565 0 62.0524 14.665 910 111.296 346.294 472.726
2566 0 64.1335 10.712 687 119.777 347.148 471.064
2567 0 68.1269 11.5813 789 117.724 347.222 473.891
2568 0 69.1817 11.3758 787 118.961 347.779 474.679
2569 0 73.1543 13.3417 976 116.466 347.398 472.376
2570 0 74.1133 14.3969 1067 114.829 346.03 474.142
2571 0 74.1133 14.3024 1060 126.07 345.022 474.168
2572 0 82.2758 13.7951 1135 115.823 344.781 473.282
2573 0 86.3606 13.2584 1145 117.255 343.94 471.192
2574 1 46.0659 11.7657 542 113.764 344.129 489.565
2575 0 47.1724 12.0833 570 112.249 342.621 490.298
2576 0 48.0287 9.80663 471 117.565 342.641 488.497
2577 0 49.0909 13.0574 641 111.456 341.705 489.967
2578 0 53.0598 15.4166 818 108.858 340.995 483.605
2579 0 51.0514 7.71772 394 121.914 341.008 485.089
2580 0 53.1696 9.72359 517 118.265 339.944 482.609
2581 0 59.1096 12.1131 716 113.898 340.447 479.43
2582 0 59.1149 11.1478 659 115.495 339.953 477.402
2583 0 60.0305 14.3927 864 109.258 339.245 479.128
2584 0 64.1009 12.8547 824 110.09 338.9 478.15
2585 0 67.1177 14.4969 973 106.75 340.837 475.24
2586 0 68.0941 16.6241 1132 103.302 338.78 473.36
2587 0 68.1484 11.0934 756 113.104 339.806 468.045
2588 0 72.1336 16.3308 1178 104.772 339.348 467.714
2589 0 73.2544 12.7364 933 110.523 339.453 467.02
2590 0 76.1504 15.5351 1183 108.134 339.492 462.169
2591 0 79.106 14.8535 1175 109.833 340.125 463.847
2592 0 82.1915 13.8336 1137 111.708 340.893 462.352
2593 0 81.3634 15.4984 1261 110.117 340.323 460.254
2594 0 86.2077 13.2471 1142 112.644 339.282 456.544
2595 0 92.1525 14.986 1381 111.212 341.621 445.907
2596 0 93.1712 14.6504 1365 112.655 342.04 439.83
2597 0 96.1888 14.3884 1384 111.309 343.038 443.791
2598 1 52.0693 9.50656 495 111.687 344.174 467.768
2599 0 56.4168 9.37664 529 108.459 343.909 476.766
2600 0 55.2219 12.8753 711 107.089 344.79 470.113
2601 0 57.1943 12.8509 735 106.001 345.382 470.807
2602 0 58.2 11.7526 684 110.339 344.803 469.465
2603 0 60.1921 11.347 683 112.433 345.205 465.543
2604 0 66.1057 13.9322 921 106.282 346.935 469.527
2605 0 65.2507 11.724 765 110.68 346.252 468.915
2606 0 73.0731 13.5755 992 104.652 346.171 470.17
2607 0 70.1666 13.5677 952 108.627 345.5 471.024
2608 0 74.1819 13.022 966 108.688 346.248 472.68
2609 0 79.1296 15.4557 1223 107.152 346.523 469.238
2610 0 82.1394 12.491 1026 111.37 346.466 471.268
2611 0 84.2581 12.8771 1085 111.009 344.9 467.713
2612 0 88.3489 11.4093 1008 112.099 344.873 471.431
2613 0 92.2881 15.2132 1404 107.696 345.702 469.127
2614 0 96.3932 16.5779 1598 104.648 345.142 471.526
2615 0 99.1956 13.2062 1310 110.984 344.342 467.184
2616 0 101.235 11.6956 1184 113.776 342.808 465.99
2617 1 54.1869 8.48913 460 111.985 342.378 489.339
2618 0 60.248 12.8137 772 106.149 341.817 490.596
2619 0 61.2177 10.2095 625 115.162 341.392 489.104
2620 0 64.2467 12.5143 804 111.265 338.883 482.306
2621 0 65.0964 13.3802 871 110.325 339.087 473.417
2622 0 67.1696 12.2228 821 112.294 339.711 474.544
2623 0 72.1908 14.8495 1072 107.632 339.59 463.942
2624 0 74.2001 13.8679 1029 109.117 338.423 463.737
2625 0 76.1964 14.4889 1104 107.994 337.947 462.447
2626 0 77.1893 16.6474 1285 105.06 337.642 460.066
2627 0 82.3083 18.8073 1548 100.397 338.351 463.463
2628 0 82.3486 13.7829 1135 109.07 338.863 459.483
2629 0 83.3001 14.3937 1199 108.963 337.647 457.835
2630 0 87.2939 13.3114 1162 110.236 339.607 456.984
2631 0 88.2251 11.5953 1023 114.358 338.87 454.02
2632 0 91.1951 13.1257 1197 110.952 339.239 452.796
2633 0 94.104 13.7933 1298 109.025 338.985 457.607
2634 0 94.1496 15.5391 1463 110.344 339.296 450.906
2635 1 208.338 12.8733 2682 117.097 340.099 396.538
2636 0 209.354 10.0691 2108 120.597 341.824 409.409
2637 0 211.194 11.7002 2471 118.044 342.132 397.565
2638 0 210.474 12.4719 2625 118.351 343.035 397.668
2639 0 215.306 12.9258 2783 116.978 342.798 398.387
2640 0 222.745 14.6804 3270 114.023 344.528 389.941
2641 0 224.639 11.632 2613 118.82 344.005 392.446
2642 1 142.372 16.5201 2352 103.854 346.191 436.773
2643 1 81.24 11.8168 960 103.893 347.068 466.78
2644 0 83.2566 13.9208 1159 103.792 345.958 468.262
2645 0 87.1335 11.9587 1042 105.432 346.207 461.742
2646 0 92.2038 15.9538 1471 103.339 346.241 450.306
2647 0 94.249 15.4166 1453 103.237 344.562 449.809
2648 0 95.3777 17.7714 1695 100.812 343.878 450.166
2649 0 100.201 13.5827 1361 105.631 344.237 447.305
2650 0 103.31 12.3512 1276 106.065 343.085 455.076
2651 0 111.271 19.8254 2206 96.8382 342.324 459.589
2652 0 111.193 17.2942 1923 98.7899 342.971 452.802
2653 1 61.2731 12.3545 757 99.79 340.84 477.189
2654 0 60.0577 11.5056 691 101.394 340.098 476.656
2655 0 67.0671 13.9114 933 97.269 340.024 472.644
2656 0 66.192 17.978 1190 93.5555 339.345 470.238
2657 0 69.4813 12.4494 865 95.3538 338.486 476.546
2658 0 72.5667 15.627 1134 94.8774 339.001 461.891
2659 0 72.4296 11.7355 850 101.312 337.529 461.151
2660 0 81.1919 12.5875 1022 100.159 337.478 475.054
2661 0 84.5391 13.8397 1170 98.5316 337.447 462.967
2662 0 84.3704 13.2629 1119 100.764 337.035 459.892
2663 0 90.6567 15.145 1373 97.6744 336.648 462.871
2664 1 42.1716 9.29535 392 103.355 334.929 479.066
2665 0 45.0294 8.99412 405 104.119 335.644 476.558
2666 0 58.2015 16.1508 940 93.1404 336.267 479.436
2667 0 58.2015 16.3054 949 118.13 337.287 479.484
2668 0 54.1093 15.9862 865 96.3538 336.531 473
2669 0 54.1844 11.1287 603 102.454 336.968 472.832
2670 0 61.1713 17.4755 1069 94.9626 338.124 473.421
2671 0 62.3423 14.4364 900 97.5911 338.148 475.063
2672 0 64.249 11.5021 739 99.3857 339.097 475.871
2673 0 66.2673 11.514 763 101.488 339.093 470.591
2674 0 67.2945 13.6267 917 98.3599 340.143 468.474
2675 0 68.1618 12.0595 822 98.0645 340.173 473.658
2676 0 75.3407 19.0866 1438 91.6405 340.766 466.81
2677 0 76.1533 14.589 1111 96.0261 341.999 469.374
2678 0 77.3926 11.9391 924 98.2164 343.123 466.499
2679 0 80.2491 15.0033 1204 95.5955 343.15 466.251
2680 0 83.1334 17.7546 1476 90.4201 342.684 472.593
2681 0 92.6294 18.5686 1720 89.4087 342.535 465.696
2682 0 89.3752 16.6937 1492 93.1629 343.324 466.818
2683 0 88.257 10.7527 949 103.045 343.27 461.942
2684 0 94.3663 14.7828 1395 98.729 345.104 464.502
2685 1 50.1062 6.5461 328 102.14 344.088 489.436
2686 0 54.0929 17.0263 921 92.139 344.012 484.086
2687 0 54.2134 11.9712 649 98.866 343.521 484.689
2688 0 54.5399 15.3649 838 98.7327 344.561 481.993
2689 0 61.6435 19.629 1210 92.4769 344.022 486.142
2690 0 62.3232 17.3451 1081 95.2636 342.122 482.182
2691 0 63.4074 12.5222 794 101.814 342.54 482.807
2692 0 64.3015 17.7445 1141 96.0018 343.698 483.781
2693 0 65.5222 14.1479 927 101.855 341.955 480.456
2694 0 67.5758 16.1448 1091 99.472 342.25 478.643
2695 0 65.183 10.693 697 108.557 342.003 477.874
2696 0 71.5165 22.2606 1592 93.4491 339.865 474.477
2697 0 74.5889 12.7633 952 104.819 340.217 476.523
2698 0 75.7147 14.0792 1066 102.268 339.189 484.049
2699 0 80.7431 14.4285 1165 100.294 338.046 477.682
2700 0 79.4131 16.219 1288 102.356 338.248 472.893
2701 0 83.3212 17.7506 1479 99.9946 337.764 468.158
2702 0 86.3504 15.7266 1358 90.8984 337.682 469.045
2703 0 89.4998 15.5755 1394 90.8207 336.659 467.532
2704 0 93.4246 15.0175 1403 90.9187 337.25 467.032
2705 0 94.4113 12.8374 1212 92.9752 335.979 466.316
2706 0 99.5166 14.8217 1475 90.8868 336.037 464.33
2707 0 100.508 15.1729 1525 92.2157 335.725 459.154
2708 1 57.2691 11.3674 651 92.4439 336.455 469.739
2709 0 58.456 11.1024 649 93.0416 337.894 467.282
2710 0 66.3064 14.5989 968 86.311 337.651 474.418
2711 0 61.2029 19.0024 1163 86.3775 337.719 466.193
2712 0 61.2029 19.0024 1163 125.195 337.73 466.14
2713 0 61.1349 17.8294 1090 87.9275 337.718 467.747
2714 0 65.1691 17.0326 1110 88.0739 338.371 465.419
2715 0 64.1183 15.9081 1020 90.1226 340.603 463.864
2716 0 72.1885 14.9747 1081 89.5079 339.347 467.325
2717 0 76.5512 21.4889 1645 83.2492 338.401 470.081
2718 0 77.22 15.812 1221 88.3227 340.866 460.843
2719 0 77.136 16.1792 1248 88.4247 341.319 460.874
2720 0 85.7044 12.6481 1084 91.679 341.938 453.399
2721 0 84.2622 13.6953 1154 90.4151 342.042 457.396
2722 0 90.1813 12.9849 1171 90.2468 342.828 458.559
2723 0 94.2677 21.0146 1981 84.1131 342.463 455.041
2724 0 95.4798 15.7415 1503 87.5848 342.886 452.651
2725 0 97.4295 22.1391 2157 81.821 342.68 461.335
2726 0 102.709 17.1067 1757 86.1514 342.512 456.61
2727 0 101.494 15.8334 1607 86.8394 343.089 459.128
2728 0 111.193 17.2043 1913 86.8317 343.02 446.699
2729 0 113.774 14.7134 1674 89.221 344.628 452.046
2730 0 113.297 13.8132 1565 90.6875 344.704 443.693
2731 0 119.378 14.6509 1749 88.837 343.644 451.878
2732 1 332.849 12.9338 4305 94.8253 343.459 336.441
2733 0 378.679 30.5166 11556 80.6009 342.508 309.434
2734 1 75.1387 16.4363 1235 83.3376 342.866 478.347
2735 0 77.3368 26.5203 2051 78.3715 342.256 477.905
2736 0 80.7393 16.9063 1365 84.5538 341.612 478.284
2737 0 82.4084 12.6686 1044 89.2261 342.354 476.789
2738 0 79.1473 14.7699 1169 87.0428 341.187 479.002
2739 0 86.7626 23.4663 2036 81.803 341.425 475.561
2740 0 85.3813 18.1422 1549 86.5274 340.231 467.879
2741 0 92.0724 20.6359 1900 83.7732 339.949 471.93
2742 0 93.609 22.594 2115 83.9366 339.552 444.827
2743 0 97.3196 20.3145 1977 86.3708 338.954 443.527
2744 0 96.1864 15.6051 1501 92.0233 338.719 442.293
2745 0 101.208 17.4691 1768 89.1097 338.247 455.708
2746 0 101.282 9.34027 946 98.5824 337.885 457.644
2747 0 98.332 14.6646 1442 94.1373 338.399 461.693
2748 1 61.3069 10.635 652 94.1886 337.215 480.386
2749 0 65.3828 13.6733 894 92.0235 337.721 479.968
2750 0 67.2497 19.2714 1296 86.4498 336.367 464.069
2751 0 68.158 15.8749 1082 87.8604 338.096 469.414
2752 0 67.2214 13.1357 883 92.8245 337.607 461.187
2753 0 70.2579 18.2613 1283 88.3289 337.27 464.358
2754 0 72.177 13.0512 942 101.662 339.161 462.123
2755 0 74.2314 13.8217 1026 99.4659 339.037 467.054
2756 0 75.1545 11.9221 896 103.016 339.454 460.183
2757 0 83.33 13.6686 1139 98.5452 340.094 463.356
2758 0 82.3281 13.3733 1101 100.157 340.544 457.072
2759 0 78.6439 11.6602 917 104.787 340.538 453
2760 0 87.2571 19.0815 1665 95.1472 341.471 450.497
2761 0 91.9992 16.6849 1535 96.3844 341.412 446.878
2762 0 97.3825 25.8055 2513 88.4624 341.429 450.563
2763 0 95.6305 12.5692 1202 103.277 343.681 436.346
2764 0 95.393 17.7162 1690 94.6106 343.769 451.258
2765 0 100.507 18.4863 1858 95.5807 344.207 443.099
2766 0 104.246 15.7608 1643 98.8789 343.872 441.124
2767 0 104.246 15.8471 1652 125.492 342.877 441.034
2768 1 60.1511 13.3165 801 96.784 344.136 470.032
2769 0 65.2275 11.0383 720 98.475 346.411 473.147
2770 0 63.1822 14.3237 905 97.2928 346.304 469.588
2771 0 69.2603 13.5864 941 98.0988 346.428 470.853
2772 0 70.0859 16.9364 1187 95.1567 346.557 465.918
2773 0 74.3974 15.4575 1150 96.2922 345.654 469.348
2774 0 75.1629 15.4597 1162 96.0361 347.041 470.913
2775 0 74.1219 12.2366 907 100.309 345.635 465.925
2776 0 83.2534 15.4228 1284 97.0444 345.254 463.435
2777 0 79.2222 15.7153 1245 96.8096 345.178 466.608
2778 0 87.3346 12.5036 1092 101.332 344.924 457.468
2779 0 89.3512 13.6988 1224 100.769 343.913 458.104
2780 0 88.3584 13.0831 1156 100.864 343.595 460.428
2781 0 92.2307 13.6072 1255 100.502 344.102 459.641
2782 0 95.4333 14.5337 1387 99.4564 343.739 459.657
2783 0 102.216 13.9019 1421 99.6784 342.281 459.15
2784 0 102.342 14.305 1464 98.6619 341.7 458.485
2785 0 107.221 12.9732 1391 99.1229 341.103 458.334
2786 0 109.154 13.9345 1521 98.9954 340.624 450.462
2787 0 113.337 13.2261 1499 99.2275 340.914 444.759
2788 0 114.177 14.644 1672 95.4288 339.487 451.393
2789 1 62.1499 9.17138 570 98.9105 339.684 469.532
2790 0 66.3139 15.5171 1029 92.4169 339.293 469.848
2791 0 70.2267 12.5593 882 98.9263 338.197 469.724
2792 0 73.1585 12.6028 922 98.5976 338.914 469.15
2793 0 75.2023 10.8906 819 100.47 338.927 466.25
2794 0 79.1603 13.858 1097 96.5114 338.042 463.722
2795 0 81.182 16.6909 1355 94.031 338.562 461.45
2796 1 99.4964 20.4128 2031 87.321 338.462 454.801
2797 0 99.0602 20.745 2055 87.7596 338.433 453.004
2798 0 101.494 21.1342 2145 87.5856 339.559 449.038
2799 0 96.1927 12.9844 1249 98.5012 340.237 450.819
2800 0 96.3337 14.6262 1409 97.4826 341.287 446.114
2801 0 100.256 22.1333 2219 88.3317 340.735 451.046
2802 0 100.237 13.6576 1369 97.233 341.434 441.558
2803 0 100.274 11.2093 1124 99.7874 341.112 439.109
2804 0 109.253 17.2811 1888 91.9311 342.983 445.321
2805 0 109.276 10.8807 1189 100.926 344.066 436.95
2806 1 63.3288 9.67964 613 99.1044 344.852 461.71
2807 0 65.2062 9.47763 618 100.293 346.021 469.296
2808 0 67.2138 13.2562 891 96.9113 346.303 468.954
2809 0 71.3306 12.3509 881 97.622 345.913 467.388
2810 0 76.1212 19.9813 1521 88.5858 344.989 472.959
2811 0 73.2464 16.465 1206 94.3093 344.474 466.4
2812 0 76.2458 14.1778 1081 97.1758 344.573 462.325
2813 0 81.1798 14.1907 1152 96.9644 345.251 466.378
2814 0 83.1511 22.1645 1843 89.3006 346.391 468.008
2815 0 89.4325 17.5104 1566 92.4898 345.996 469.955
2816 0 89.4576 15.5828 1394 93.5072 346.823 466.107
2817 0 88.1318 19.2099 1693 93.5434 347.23 451.747
2818 0 94.1283 19.1016 1798 93.4561 346.862 453.189
2819 0 104.592 17.726 1854 93.2228 346.723 451.691
2820 0 102.27 17.669 1807 94.8456 345.446 444.621
2821 0 101.331 15.9674 1618 96.1211 347.563 457.375
2822 0 106.321 14.4939 1541 98.4088 346.8 451.929
2823 1 54.1955 15.8316 858 92.8089 346.333 479.822
2824 0 56.0966 10.8028 606 99.1518 345.538 473.16
2825 0 60.2969 13.2511 799 92.8335 345.342 481.952
2826 0 63.2114 12.6401 799 94.2353 344.798 476.446
2827 0 61.1326 14.1823 867 93.6863 344.274 472.642
2828 0 65.2223 14.3663 937 93.3959 343.58 473.228
2829 0 68.2842 11.7157 800 96.0488 343.25 471.75
2830 0 66.2101 10.6177 703 97.798 341.889 469.68
2831 0 74.4551 15.8485 1180 90.9127 340.699 472.552
2832 0 79.2113 18.3938 1457 87.6829 339.879 474.333
2833 0 79.3422 12.4902 991 96.115 340.106 464.252
2834 0 84.6636 15.4376 1307 92.6802 340.914 466.412
2835 0 86.2174 14.2895 1232 94.3044 340.209 462.317
2836 0 85.4091 14.05 1200 95.4692 339.74 459.372
2837 0 93.2932 18.5759 1733 92.9429 339.15 451.534
2838 0 97.2636 17.3241 1685 93.181 339.032 454.535
2839 0 99.3053 19.7673 1963 94.1268 338.441 443.665
2840 0 102.307 16.1963 1657 95.8377 338.912 448.765
2841 0 108.358 18.9188 2050 93.2015 340.362 443.825
2842 0 108.209 17.4016 1883 96.4987 340.131 434.032
2843 0 109.276 12.3083 1345 100.562 340.7 416.466
2844 0 112.506 17.5991 1980 93.5434 342.135 422.183
2845 0 116.477 16.2865 1897 96.757 341.809 416.977
2846 1 69.3397 13.9603 968 98.0682 343.382 438.933
2847 0 70.3005 12.1479 854 98.9508 342.874 444.828
2848 0 69.3819 13.9662 969 98.743 345.082 442.659
2849 0 73.4348 13.4405 987 98.1185 345.889 447.26
2850 0 74.2912 17.3641 1290 94.2054 346.11 444.498
2851 0 73.39 14.5933 1071 98.8067 346.788 441.788
2852 0 76.2179 15.1408 1154 96.2912 346.59 447.696
2853 0 79.2942 13.8219 1096 99.7838 346.512 441.891
2854 0 83.3588 15.5832 1299 97.9284 348.136 442.36
2855 0 84.3671 14.6384 1235 99.0348 347.789 447.16
2856 0 85.5635 12.0846 1034 103.605 347.985 443.697
2857 0 91.3865 14.4113 1317 98.9878 347.481 444.395
2858 0 90.5326 14.9559 1354 99.627 347.844 450.586
2859 0 91.2697 16.4238 1499 99.0394 347.533 456.25
2860 0 93.3766 12.712 1187 103.853 347.362 448.039
2861 0 98.4277 12.8216 1262 104.131 348.603 446.247
2862 0 104.426 15.6666 1636 100.457 348.164 444.183
2863 0 109.255 15.4684 1690 99.6663 348.157 444.677
2864 0 114.458 17.0543 1952 98.0968 347.318 443.99
2865 0 111.338 11.6043 1292 105.936 347.629 445.805
2866 0 121.345 14.7266 1787 100.668 346.134 450.96
2867 1 68.373 15.4447 1056 95.8977 346.098 477.26
2868 0 62.182 13.8786 863 97.4079 344.889 474.625
2869 0 69.236 12.3491 855 100.029 343.56 476.772
2870 0 72.4157 11.8897 861 100.99 342.489 473.152
2871 0 71.2819 10.9284 779 101.476 343.564 469.562
2872 0 80.4877 14.4246 1161 97.578 342.18 469.885
2873 0 80.2414 17.223 1382 94.9638 342.972 466.543
2874 0 84.5798 14.4006 1218 97.8801 341.468 466.007
2875 0 83.2139 13.5314 1126 100.532 341.091 461.487
2876 0 83.2496 14.3544 1195 99.3046 340.885 466.163
2877 0 86.6069 12.9205 1119 101.584 341.51 461.832
2878 0 89.1781 13.0525 1164 101.816 340.296 460.418
2879 0 98.1712 13.7515 1350 100.541 340.378 458.827
2880 0 94.2425 14.3141 1349 101.653 340.088 445.143
2881 0 98.2177 13.2563 1302 102.677 341.26 448.003
2882 0 103.273 14.4665 1494 100.799 340.259 449.138
2883 0 105.631 14.5033 1532 100.969 341.245 439.714
2884 0 106.28 9.96424 1059 104.543 340.103 442.809
2885 0 112.312 14.1926 1594 98.2491 340.037 444.97
2886 0 113.245 12.336 1397 102.07 340.925 432.091
2887 0 121.377 14.8381 1801 97.98 341.408 437.027
2888 1 72.0982 14.0364 1012 94.8913 343.272 463.036
2889 0 72.395 16.4238 1189 92.9554 342.725 463.613
2890 0 74.5107 14.6422 1091 94.0257 342.673 459.556
2891 0 73.2129 13.3856 980 96.9112 344.004 458.005
2892 0 75.4245 12.5689 948 98.7553 344.219 450.662
2893 0 85.3768 14.6293 1249 94.6189 344.287 461.737
2894 0 84.2143 9.83206 828 102.482 344.969 453.789
2895 0 88.2777 16.7993 1483 96.3277 345.204 452.97
2896 0 93.3461 16.5299 1543 96.3772 346.783 453.094
2897 0 94.2676 14.1194 1331 100.568 347.246 449.909
2898 0 98.2345 13.0097 1278 101.977 346.034 445.6
2899 0 100.518 12.366 1243 103.299 345.935 428.084
2900 0 105.498 17.043 1798 98.0751 346.844 424.275
2901 0 108.274 15.6178 1691 100.834 347.391 421.794
2902 0 112.355 17.774 1997 97.008 348.751 437.089
2903 0 112.517 14.9489 1682 100.299 348.609 450.859
2904 0 115.366 19.321 2229 97.0893 347.844 441.211
2905 0 116.348 13.2361 1540 103.956 347.479 445.214
2906 0 119.34 19.7755 2360 96.6691 346.135 436.799
2907 1 72.201 16.6618 1203 94.1264 347.406 472.252
2908 0 72.3709 7.62737 552 107.428 348.658 467.045
2909 0 74.1732 11.554 857 102.705 347.756 462.481
2910 0 79.2348 15.1449 1200 92.9625 346.812 478.192
2911 0 79.3236 15.3296 1216 98.389 346.864 464.246
2912 0 83.2959 10.8409 903 103.908 346.05 464.075
2913 0 84.5003 13.5621 1146 101 344.942 462.048
2914 0 86.278 10.9877 948 104.948 343.703 461.339
2915 0 90.44 12.9367 1170 102.901 342.514 444.78
2916 0 91.4089 12.8762 1177 104.287 342.913 438.794
2917 0 97.2221 17.7532 1726 98.8308 342.947 438.363
2918 0 99.2924 13.5358 1344 103.76 342.912 438.006
2919 0 107.238 28.283 3033 87.8991 341.032 439.929
2920 0 104.173 11.4137 1189 107.489 341.611 437.126
2921 0 106.316 16.5074 1755 100.816 340.561 443.717
2922 0 111.321 13.6003 1514 105.473 342.684 437.05
2923 0 113.267 12.1571 1377 105.826 340.572 446.009
2924 0 113.267 12.2719 1390 147.585 338.532 446.195
2925 1 67.2539 10.7652 724 105.319 342.043 460.856
2926 0 71.4104 12.4212 887 104.044 340.768 457.158
2927 0 72.2842 11.1366 805 105.133 341.427 445.583
2928 0 73.4288 17.0778 1254 98 340.862 443.221
2929 0 77.6249 11.6586 905 103.641 342.119 439.61
2930 0 78.3271 13.367 1047 102.708 342.536 439.861
2931 0 81.4872 13.6709 1114 101.17 343.045 434.425
2932 0 86.2762 15.914 1373 98.0036 343.33 432.378
2933 0 84.4557 10.9762 927 104.782 343.616 430.823
2934 0 85.5634 16.1985 1386 98.7359 344.864 435.422
2935 0 91.3352 12.6676 1157 104.368 345.275 436.923
2936 0 94.5284 15.7201 1486 100.898 345.807 434.347
2937 0 94.3026 15.3866 1451 101.362 345.46 442.059
2938 0 97.6626 12.6558 1236 104.448 347.015 443.384
2939 0 101.447 14.8846 1510 100.525 346.446 445.95
2940 0 101.497 15.1434 1537 102.214 347.503 444.727
2941 0 103.741 15.7411 1633 102.457 347.716 441.289
2942 1 57.2063 5.99584 343 110.901 347.277 461.773
2943 0 57.2063 5.856 335 146.236 345.284 461.851
2944 0 64.237 8.76442 563 104.474 348.927 465.147
2945 0 70.2693 9.84782 692 103.895 348.659 467.202
2946 0 70.2693 9.90475 696 129.741 347.67 467.21
2947 0 75.284 13.655 1028 102.57 346.999 463.344
2948 0 75.4941 11.7228 885 106.188 347.549 465.4
2949 0 81.6456 13.6688 1116 101.814 347.721 469.455
2950 0 84.5633 12.8425 1086 103.425 347.719 462.419
2951 0 86.6777 15.8172 1371 99.7024 346.794 458.481
2952 0 87.381 19.7297 1724 94.4461 346.16 463.599
2953 0 87.3261 15.0356 1313 100.5 346.621 451.759
2954 0 90.4002 10.3429 935 106.762 345.641 454.628
2955 0 95.6244 12.319 1178 104.475 345.685 452.64
2956 0 97.7302 12.8415 1255 103.786 343.771 451.829
2957 0 102.291 18.0271 1844 96.5201 343.545 455.506
2958 0 102.518 8.44726 866 109.212 342.919 456.008
2959 0 107.361 15.6947 1685 100.678 343.939 454.9
2960 0 110.304 10.9515 1208 106.443 342.69 454.087
2961 0 108.888 15.0614 1640 102.441 342.584 441.037
2962 0 113.77 18.9417 2155 96.7248 341.664 450.315
2963 0 115.412 13.3522 1541 104.193 342.385 439.942
2964 1 66.175 11.4394 757 99.0608 341.357 470.318
2965 0 69.1834 10.4216 721 102.796 341.721 465.359
2966 0 72.3164 13.9802 1011 96.3333 341.105 468.995
2967 0 69.4247 13.972 970 98.3237 340.579 459.09
2968 0 73.2078 11.4742 840 101.131 341.073 459.385
2969 0 80.3669 15.2799 1228 94.1669 340.443 463.77
2970 0 79.2206 10.9315 866 100.594 340.706 457.297
2971 0 83.3234 12.3255 1027 98.6767 341.101 455.989
2972 0 86.2539 15.6167 1347 95.8864 342.446 454.957
2973 0 89.4371 13.9763 1250 98.2016 342.759 452.968
2974 0 94.3463 15.3053 1444 96.0609 342.851 452.346
2975 0 94.3162 13.6986 1292 99.3653 342.68 443.046
2976 0 101.529 14.7544 1498 98.2316 343.593 444.768
2977 0 99.3104 18.9205 1879 95.4391 345.276 444.45
2978 0 102.627 19.5758 2009 94.4097 344.504 446.784
2979 0 107.327 13.7337 1474 101.929 345.24 440.432
2980 0 117.336 19.7296 2315 93.6976 345.786 442.309
2981 0 115.358 18.1088 2089 97.6477 346.034 429.924
2982 0 116.462 12.7853 1489 105.587 346.922 425.024
2983 0 122.396 15.6215 1912 101.55 346.607 421.601
2984 0 129.488 21.724 2813 93.7224 348.435 419.272
2985 1 69.3611 14.7489 1023 94.5464 349.696 459.531
2986 0 69.174 12.9239 894 98.6085 349.958 456.867
2987 0 71.2189 8.67747 618 105.626 348.951 455.482
2988 0 72.2537 12.1655 879 102.35 348.931 454.177
2989 0 74.2956 15.4114 1145 98.7633 348.365 456.601
2990 0 76.316 13.0772 998 100.978 348.519 459.077
2991 0 78.2196 15.1113 1182 98.7648 347.948 465.551
2992 0 84.2434 13.4847 1136 99.1083 348.14 464.412
2993 0 82.1927 13.5778 1116 100.849 348.347 462.442
2994 0 87.2206 15.7876 1377 97.1206 347.246 465.735
2995 0 89.5242 12.7005 1137 100.798 347.145 464.985
2996 0 87.3118 13.4919 1178 100.722 345.453 466.479
2997 0 94.1819 15.332 1444 98.347 345.967 462.647
2998 0 98.3419 18.4357 1813 93.2366 345.296 469.05
2999 0 101.247 19.3092 1955 94.0696 345.474 465.624
3000 0 104.278 14.0011 1460 99.5014 345.223 462.523
3001 0 104.278 13.9244 1452 137.159 344.241 462.465
3002 0 97.1849 15.774 1533 101.387 343.257 455.99
3003 1 112.552 13.034 1467 102.137 341.363 467.913
3004 0 108.809 11.3318 1233 105.609 341.965 462.762
3005 1 197.955 13.5384 2680 101.875 340.572 434.193
3006 0 196.014 15.407 3020 102.491 339.667 416.926
3007 0 201.853 18.5234 3739 94.537 339.778 434.442
3008 1 72.1507 10.284 742 102.551 341.429 468.865
3009 0 78.237 17.7282 1387 94.5436 339.727 468.691
3010 0 79.3463 12.4265 986 105.094 339.48 458.952
3011 0 83.3298 15.3006 1275 101.305 339.246 459.212
3012 0 85.2933 15.9801 1363 100.781 338.968 458.475
3013 0 85.2268 14.0449 1197 103.992 340.401 464.094
3014 0 85.2268 14.1035 1202 142.301 342.394 464.045
3015 0 93.5931 15.717 1471 100.598 340.649 462.492
3016 0 92.4716 14.9776 1385 102.982 340.063 455.106
3017 0 98.4516 16.343 1609 97.7589 341.409 465.272
3018 0 100.928 16.7744 1693 100.095 340.859 457.044
3019 0 104.25 16.2781 1697 99.9623 342.392 459.481
3020 0 104.25 16.1534 1684 138.034 343.419 459.406
3021 0 109.515 15.3222 1678 103.587 342.825 450.905
3022 0 111.377 15.838 1764 104.367 343.109 446.134
3023 0 113.375 15.5502 1763 105.356 342.936 448.112
3024 0 116.391 14.8465 1728 107.296 344.267 442.14
3025 0 121.52 14.5984 1774 106.612 345.926 444.22
3026 0 122.585 13.3703 1639 108.574 346.809 431.651
3027 0 126.188 13.9871 1765 107.935 346.667 436.649
3028 0 129.44 12.9172 1672 109.34 346.058 438.121
3029 1 198.521 14.6987 2918 108.067 346.947 404.346
3030 1 141.609 10.6561 1509 112.168 346.439 433.382
3031 1 83.1384 15.9373 1325 102.152 346.425 461.73
3032 0 86.18 12.2418 1055 107.896 346.035 458.254
3033 0 90.286 18.9287 1709 97.9748 345.513 458.87
3034 0 92.3225 15.89 1467 102.554 346.628 456.837
3035 0 92.3225 15.9874 1476 139.831 347.652 456.717
3036 0 97.368 17.5931 1713 100.186 345.695 456.208
3037 0 100.367 16.2006 1626 101.608 345.482 458.505
3038 0 103.4 15.1935 1571 101.518 345.794 460.694
3039 0 108.535 21.0439 2284 94.704 345.019 461.402
3040 0 113.464 13.8547 1572 102.708 343.9 458.419
3041 0 112.594 17.9672 2023 97.9901 344.717 461.51
3042 0 117.382 14.3974 1690 102.791 343.307 456.379
3043 0 119.244 14.5164 1731 103.856 342.735 451.527
3044 0 120.2 12.5291 1506 106.6 341.454 444.234
3045 0 127.127 13.4825 1714 105.089 341.034 438.973
3046 1 72.1426 16.1209 1163 98.4007 339.515 473.712
3047 0 76.2551 13.3762 1020 101.58 339.249 471.739
3048 0 79.2394 13.617 1079 100.888 338.934 465.512
3049 0 79.1367 11.6002 918 103.889 338.075 455.325
3050 0 83.1547 15.0923 1255 98.6263 338.469 458.587
3051 0 88.1628 11.6602 1028 104.062 338.34 453.695
3052 0 89.3981 12.4276 1111 104.459 338.771 449.881
3053 0 92.4042 9.94543 919 105.403 338.829 456.483
3054 0 95.2993 11.9938 1143 103.996 338.213 455.911
3055 0 95.2873 12.7614 1216 103.863 337.844 448.081
3056 0 92.1812 15.4587 1425 101.618 338.069 447.891
3057 0 100.257 12.5777 1261 105.194 339.848 444.971
3058 0 100.383 10.2208 1026 105.844 339.128 453.825
3059 1 61.1563 13.9479 853 99.9625 339.378 465.599
3060 0 65.2071 13.0047 848 97.9186 341.676 469.904
3061 0 66.1407 12.6397 836 99.6495 341.382 464.524
3062 0 71.2525 11.0031 784 100.77 342.631 466.205
3063 0 74.1332 13.8804 1029 94.1633 342.951 471.452
3064 0 76.2592 11.933 910 100.238 343.647 457.453
3065 0 80.2135 13.0776 1049 97.1563 343.981 462.087
3066 0 73.2238 17.4943 1281 94.6019 344.362 459.061
3067 0 77.2949 15.0722 1165 97.7099 344.293 461.84
3068 0 77.073 11.1712 861 103.556 344.566 455.549
3069 1 89.2581 12.5815 1123 99.0401 345.295 461.843
3070 0 92.1799 16.099 1484 96.1193 347.01 460.003
3071 0 95.3314 15.4094 1469 96.3022 346.365 460.944
3072 0 95.22 11.2686 1073 102.553 347.659 458.493
3073 0 101.596 12.1855 1238 101.119 346.779 454.274
3074 0 103.532 13.1553 1362 101.046 347.203 451.81
3075 0 108.242 14.6431 1585 99.7199 346.355 451.091
3076 0 109.227 12.8998 1409 103.03 346.102 455.012
3077 0 110.785 15.3 1695 99.4336 346.401 452.595
3078 0 104.759 8.9348 936 107.251 346.102 443.644
3079 1 117.566 13.1755 1549 102.245 346.272 440.509
3080 1 128.449 16.5358 2124 97.0494 345.388 455.946
3081 0 131.682 19.6382 2586 94.4725 345.007 447.529
3082 0 135.684 17.3123 2349 98.5487 344.426 444.725
3083 1 79.2406 10.7899 855 100.022 344.494 474.054
3084 0 69.2325 15.3974 1066 97.1473 343.905 469.628
3085 0 72.168 11.1684 806 99.8313 342.783 472.248
3086 0 78.1521 10.0701 787 102.524 341.314 463.61
3087 0 78.1521 10.0701 787 136.23 340.314 463.61
3088 0 85.238 12.5062 1066 99.8077 341.624 465.805
3089 0 81.2118 10.3556 841 104.152 340.396 463.1
3090 0 89.4015 12.5501 1122 103.678 340.539 464.563
3091 0 90.1884 13.9708 1260 102.219 340.202 462.537
3092 1 187.005 12.3312 2306 107.634 339.965 421.058
3093 0 194.588 15.7153 3058 103.252 338.489 418.578
3094 1 108.524 17.351 1883 96.8832 338.135 461.99
3095 0 106.288 10.7726 1145 105.799 338.402 456.338
3096 0 108.385 12.3541 1339 104.081 337.849 449.265
3097 0 107.508 15.3012 1645 101.421 338.992 442.87
3098 1 121.548 15.4918 1883 100.031 338.306 441.487
3099 0 118.309 12.704 1503 102.171 338.754 440.868
3100 0 126.304 18.2337 2303 97.2154 339.634 438.154
3101 0 129.315 12.5353 1621 104.033 339.737 433.798
3102 0 138.251 14.5822 2016 100.731 339.534 440.067
3103 0 139.278 13.6489 1901 103.983 338.841 433.409
3104 0 144.52 14.4409 2087 102.497 339.844 417.95
3105 1 79.2388 9.32624 739 103.245 340.924 456.261
3106 0 84.2131 12.8246 1080 97.7796 342.108 452.143
3107 0 85.2993 15.7915 1347 97.0067 342.174 446.803
3108 0 93.3436 14.9234 1393 97.1472 342.888 452.961
3109 0 90.1739 16.5236 1490 97.2302 344.302 456.46
3110 0 96.4206 11.4706 1106 100.362 343.092 464.599
3111 0 99.5251 12.7907 1273 100.507 341.967 453.89
3112 0 99.3794 14.7012 1461 98.9706 343.909 454.704
3113 0 107.398 15.5216 1667 97.5633 344.665 456.051
3114 0 108.401 15.3504 1664 98.8426 344.538 449.375
3115 0 107.505 13.6645 1469 101.162 343.888 453.815
3116 0 116.528 9.8431 1147 106.195 345.858 449.269
3117 0 115.37 16.0613 1853 98.7415 344.563 451.718
3118 0 118.669 14.4772 1718 100.417 345.714 444.965
3119 0 118.669 17.789 2111 96.7954 345.599 445.671
3120 0 118.508 15.8554 1879 96.8318 345.269 458.845
3121 1 195.714 13.8212 2705 103.281 345.626 412.731
3122 0 196.131 12.92 2534 105.89 344.091 406.194
3123 0 207.642 14.0145 2910 103.912 344.153 409.549
3124 0 212.793 13.5813 2890 104.347 343.287 408.629
3125 0 217.826 12.1932 2656 105.515 344.01 416.221
3126 0 214.464 9.34424 2004 107.452 342.273 425.764
3127 1 91.3501 13.6508 1247 100.676 342.521 458.703
3128 0 94.5402 14.4912 1370 98.581 340.545 457.772
3129 0 97.2514 13.717 1334 100.775 340.114 461.231
3130 0 98.3435 10.9717 1079 104.848 339.765 462.929
3131 0 102.4 10.4882 1074 104.31 339.162 468.215
3132 0 103.189 16.184 1670 97.3437 339.581 471.013
3133 0 108.472 13.2016 1432 101.844 338.043 461.689
3134 0 114.402 16.5731 1896 96.6825 337.616 462.292
3135 0 118.345 15.345 1816 96.5171 337.556 465.13
3136 0 122.367 16.4178 2009 96.1195 336.663 462.083
3137 0 126.551 13.9944 1771 96.1745 338.557 467.438
3138 0 129.312 13.8193 1787 100.011 337.355 449.107
3139 0 131.488 11.2862 1484 102.764 338.199 453.409
3140 0 136.059 12.2962 1673 102.647 338.573 443.909
3141 0 143.61 15.4934 2225 97.4085 338.858 442.517
3142 1 154.489 25.5228 3943 88.3277 338.941 433.477
3143 0 149.687 12.2789 1838 101.63 338.029 445.086
3144 1 98.4973 20.6808 2037 87.1321 339.125 463.252
3145 0 98.4973 20.6808 2037 118.998 341.125 463.252
3146 0 98.5698 20.4221 2013 89.5474 340.957 464.938
3147 0 96.3026 15.3059 1474 96.2592 340.02 457.404
3148 0 98.3055 14.7805 1453 96.892 340.755 464.906
3149 0 99.4452 13.2535 1318 100.47 340.5 458.722
3150 0 99.4452 13.1932 1312 141.287 340.502 458.541
3151 0 106.63 15.5865 1662 100.92 341.13 434.869
3152 0 112.001 15.1695 1699 101.118 341.967 437.001
3153 0 116.781 19.0869 2229 95.1337 342.781 437.235
3154 0 116.506 14.7117 1714 101.035 342.775 433.304
3155 0 124.71 17.9457 2238 96.9598 343.573 432.812
3156 0 122.548 12.3135 1509 104.178 343.59 434.26
3157 0 129.554 12.0954 1567 104.655 342.724 431.685
3158 0 132.838 13.0384 1732 104.265 344.196 426.994
3159 1 74.2109 15.7794 1171 95.2912 344.498 468.48
3160 0 72.2351 11.1442 805 101.518 344.281 468.154
3161 0 77.2887 13.7924 1066 99.2702 344.739 465.978
3162 0 75.2021 10.5582 794 104.354 344.455 470.154
3163 0 79.261 15.1399 1200 97.6317 343.693 477.228
3164 0 80.3907 15.9969 1286 96.8647 344.306 480.083
3165 0 81.2441 11.4593 931 102.888 343.8 478.917
3166 0 87.7152 18.4461 1618 94.7874 343.135 475.7
3167 0 88.4041 24.2862 2147 88.1779 343.723 482.558
3168 0 90.2279 11.1717 1008 103.86 343.186 474.244
3169 0 90.4445 10.6916 967 105.366 343.632 470.763
3170 0 94.4205 16.4371 1552 98.665 342.412 470.56
3171 0 94.2977 11.6758 1101 103.347 341.86 467.79
3172 0 97.3146 11.4166 1111 103.684 340.617 466.525
3173 1 109.475 12.359 1353 99.0569 340.716 472.784
3174 0 111.297 13.72 1527 98.8003 340.237 460.346
3175 0 115.352 18.6907 2156 94.3947 339.09 456.879
3176 0 115.137 13.4796 1552 101.046 337.742 462.291
3177 1 66.2072 10.2859 681 101.336 338.52 485.574
3178 0 69.2623 12.8064 887 98.9019 337.528 481.11
3179 0 72.5475 17.0922 1240 93.7476 338.729 479.244
3180 0 72.2837 25.2339 1824 86.9227 337.846 478.859
3181 0 77.4025 14.3148 1108 97.0289 338.18 475.437
3182 0 78.0809 12.5255 978 101.025 338.181 472.259
3183 0 77.277 12.3323 953 101.55 337.732 468.665
3184 0 82.3646 11.4855 946 101.998 337.921 471.025
3185 0 84.4785 12.9737 1096 100.802 338.39 466.704
3186 0 88.2382 14.9142 1316 96.9962 339.147 468.626
3187 0 91.3892 15.527 1419 96.7371 339.523 467.008
3188 0 96.5224 17.4364 1683 94.5288 338.966 468.095
3189 0 98.4265 17.9931 1771 94.6731 340.334 464.895
3190 0 98.6205 14.2263 1403 99.5952 341.623 462.219
3191 0 102.681 13.1476 1350 100.054 340.699 458.869
3192 0 107.288 15.6029 1674 98.184 341.321 457.506
3193 0 112.527 19.8264 2231 93.3034 341.108 460.634
3194 0 112.18 15.172 1702 99.9495 342.924 447.717
3195 0 116.356 12.8142 1491 102.392 342.11 451.121
3196 1 67.1892 13.9606 938 97.2324 342.838 477.388
3197 0 68.2762 13.6651 933 98.4266 342.562 470.833
3198 0 71.3958 18.1523 1296 89.0532 342.828 480.091
3199 0 72.2325 14.8963 1076 97.4823 343.042 474.027
3200 0 74.4465 14.0772 1048 98.4552 344.14 471.92
3201 0 78.2341 13.3829 1047 99.2197 343.746 472.573
3202 1 146.336 11.9451 1748 104.867 344.449 439.087
3203 1 83.2275 19.4647 1620 94.063 343.094 468.52
3204 0 84.1801 18.603 1566 94.2988 344.227 476.839
3205 0 87.2456 9.86869 861 106.382 343.165 471.589
3206 0 92.3465 16.6655 1539 97.399 344.08 472.778
3207 0 95.3134 14.9507 1425 101.216 342.085 471.232
3208 0 94.225 13.1069 1235 104.122 342.957 472.703
3209 0 101.203 17.4797 1769 97.2131 341.44 476.569
3210 1 116.7 21.1567 2469 91.6586 341.84 455.089
3211 0 115.084 22.7833 2622 91.3963 341.259 454.63
3212 0 116.432 20.9908 2444 94.1305 341.832 457.644
3213 0 116.393 29.0395 3380 87.8979 340.697 454.895
3214 0 121.41 17.6098 2138 98.195 341.367 450.872
3215 0 118.601 15.5647 1846 102.756 340.198 460.933
3216 0 126.466 21.6027 2732 95.5743 339.994 457.432
3217 1 178.62 12.6414 2258 104.829 338.53 441.467
3218 1 131.386 13.2967 1747 106.274 338.51 451.54
3219 0 137.578 18.6367 2564 98.5538 337.759 454.293
3220 1 72.2192 13.7913 996 99.8855 337.031 485.748
3221 0 73.272 11.778 863 104.674 338.809 478.819
3222 0 77.1559 15.0604 1162 101.551 337.281 479.954
3223 0 80.1492 19.2142 1540 96.2896 337.36 480.046
3224 0 86.3481 14.5342 1255 101.083 336.642 477.531
3225 0 85.3214 14.6974 1254 103.095 337.928 470.429
3226 0 86.3057 15.2018 1312 102.786 336.52 467.709
3227 0 90.377 16.4422 1486 100.542 337.773 469.554
3228 0 93.6454 23.557 2206 93.3694 338.287 471.125
3229 0 97.6416 14.164 1383 104.928 338.718 463.883
3230 0 95.4292 16.1376 1540 102.501 337.917 464.503
3231 0 100.527 17.1198 1721 102.037 339.947 458.812
3232 0 325.484 30.5699 9950 89.5383 339.58 339.931
3233 1 225.992 14.5138 3280 107.369 339.63 400.619
3234 1 115.603 19.4632 2250 99.3187 339.656 447.903
3235 0 121.955 24.0253 2930 94.2116 339.302 444.874
3236 0 114.722 14.9666 1717 106.075 341.694 450.9
3237 0 120.622 24.1665 2915 95.6189 342.061 452.55
3238 0 124.603 17.038 2123 103.703 340.833 440.536
3239 0 127.659 15.1654 1936 106.963 342.344 440.91
3240 1 73.154 11.3049 827 109.002 342.486 470.059
3241 0 76.256 12.1564 927 107.973 343.147 470.274
3242 0 85.3409 19.6155 1674 96.0568 343.366 463.294
3243 0 87.2212 19.9722 1742 96.0827 343.749 461.862
3244 0 92.2529 23.7283 2189 92.413 343.603 461.091
3245 0 91.2881 15.8947 1451 102.731 343.17 465.121
3246 0 91.1596 18.2208 1661 99.8676 344.932 466.095
3247 0 96.2948 19.5857 1886 98.2179 343.347 462.679
3248 0 99.2405 18.5207 1838 99.5517 343.405 463.428
3249 0 100.334 15.7275 1578 102.836 344.046 463.044
3250 0 100.334 15.6776 1573 144.639 344.075 463.05
3251 0 102.243 14.5145 1484 106.073 344.15 460.668
3252 0 107.352 21.7137 2331 96.0373 343.465 454.651
3253 0 110.317 14.7121 1623 104.688 344.594 448.089
3254 0 117.501 19.5232 2294 97.5418 343.537 448.017
3255 0 116.285 19.3491 2250 98.6013 342.77 451.934
3256 0 116.306 14.1351 1644 106.763 343.025 450.824
3257 0 121.346 13.9189 1689 105.616 343.144 453.989
3258 1 63.3007 8.76768 555 106.328 342.234 470.303
3259 0 73.4308 17.445 1281 95.1397 342.927 468.051
3260 0 77.366 18.8326 1457 92.0851 341.868 472.548
3261 0 76.279 10.0814 769 103.899 341.289 466.537
3262 0 80.228 19.7686 1586 92.8714 340.676 467.867
3263 0 79.0953 13.0349 1031 100.156 340.763 470.02
3264 0 84.1415 15.5334 1307 98.6733 341.009 463.85
3265 1 157.278 9.13033 1436 111.958 340.332 432.989
3266 1 97.6197 22.4237 2189 89.767 338.78 452.397
3267 0 97.3692 14.3372 1396 99.5938 339.819 456.961
3268 0 96.2389 16.085 1548 97.436 337.954 456.148
3269 0 99.3393 16.3279 1622 98.1443 338.717 454.869
3270 0 101.386 12.26 1243 102.907 339.618 454.072
3271 0 102.286 11.2821 1154 105.056 339.727 444.548
3272 0 106.244 12.0666 1282 104.481 340.982 442.547
3273 1 62.2418 14.4597 900 95.7589 341.14 468.559
3274 0 62.1097 12.2686 762 92.626 340.58 469.854
3275 0 67.1874 9.73396 654 98.8853 341.202 460.032
3276 0 71.1108 16.6079 1181 94.232 341.517 467.791
3277 0 81.2759 7.72677 628 99.8153 342.131 472.022
3278 0 77.1622 15.9404 1230 94.4772 343.24 460.6
3279 0 80.132 14.7631 1183 95.5444 341.456 459.323
3280 0 81.6067 11.151 910 99.8088 344.409 457.227
3281 0 84.1112 12.6142 1061 98.1602 344.533 456.56
3282 0 87.2845 13.393 1169 96.9316 344.203 460.406
3283 0 86.2933 12.0172 1037 99.1678 345.648 458.135
3284 0 91.1752 12.7995 1167 98.1662 347.338 454.682
3285 0 93.209 14.6338 1364 95.0367 347.639 456.107
3286 0 98.6729 13.2863 1311 96.389 347.5 455.87
3287 0 97.2533 11.506 1119 99.303 346.908 452.928
3288 0 103.277 17.729 1831 92.1606 347.689 454.182
3289 0 103.288 12.6056 1302 97.6467 346.026 445.486
3290 0 108.298 12.8627 1393 97.8248 347.314 451.312
3291 0 110.656 14.0345 1553 96.9652 346.66 442.932
3292 1 60.2779 8.22856 496 100.478 345.431 469.518
3293 0 66.1086 12.3887 819 93.9353 346.618 480.494
3294 0 70.2601 10.9023 766 96.701 348.291 474.849
3295 0 73.311 12.2083 895 96.6548 347.358 475.646
3296 0 71.1238 14.3693 1022 95.7133 346.751 472.233
3297 0 76.2132 21.348 1627 88.464 346.632 472.891
3298 0 79.359 11.8071 937 97.0768 346.835 464.706
3299 0 81.0733 16.2816 1320 91.3955 346.444 475.236
3300 0 79.1577 13.3657 1058 95.155 345.726 471.99
3301 0 82.2329 12.9997 1069 96.3218 343.579 462.776
3302 0 89.5007 10.4357 934 97.0375 344.771 472.192
3303 0 90.1235 14.2804 1287 95.9448 343.112 464.92
3304 0 92.2854 14.5635 1344 96.3118 343.342 463.578
3305 0 100.301 17.3976 1745 90.9318 342.364 468.101
3306 0 100.595 21.84 2197 88.3418 342.479 461.26
3307 0 103.199 21.599 2229 88.5603 341.336 461.036
3308 0 108.244 18.0333 1952 91.4606 341.476 458.153
3309 0 108.237 14.034 1519 96.9914 341.759 452.273
3310 0 115.397 19.8531 2291 90.313 341.797 456.194
3311 0 116.323 12.6373 1470 100.216 341.628 442.12
3312 1 64.1925 11.6057 745 98.6148 340.952 468.364
3313 0 67.4687 15.1033 1019 94.9136 342.139 465.588
3314 0 68.2434 14.756 1007 95.4806 341.079 468.148
3315 0 72.3958 12.3626 895 98.5564 342.99 463.301
3316 0 75.227 13.1868 992 97.872 341.252 466.928
3317 0 76.0763 18.7706 1428 92.4062 341.368 465.716
3318 0 80.2978 17.6717 1419 93.334 342.42 464.733
3319 0 80.3335 13.7552 1105 99.2796 342.727 460.791
3320 0 82.3229 16.3624 1347 96.9703 343.201 458.168
3321 0 84.568 18.7068 1582 95.5202 344.19 453.456
3322 0 87.6259 14.1168 1237 100.572 345.458 458.363
3323 0 90.6457 15.2462 1382 100.887 344.867 450.386
3324 0 95.3813 19.6999 1879 95.1107 345.541 451.688
3325 0 100.564 21.6778 2180 93.3312 345.4 447.495
3326 0 99.5239 17.0813 1700 98.5741 345.532 456.585
3327 0 102.298 13.1576 1346 104.368 347.785 453.686
3328 0 107.472 16.4135 1764 99.466 347.302 457.057
3329 0 110.371 13.4728 1487 104.026 346.894 451.363
3330 0 112.27 10.0561 1129 108.925 347.508 449.47
3331 0 117.253 13.2875 1558 105.406 347.011 445.678
3332 0 122.441 16.6284 2036 101.348 348.136 441.105
3333 0 129.441 14.7789 1913 102.516 346.624 447.412
3334 0 133.471 17.929 2393 98.3941 348.349 443.949
3335 0 137.565 15.8325 2178 100.734 347.018 444.191
3336 1 81.2111 13.8405 1124 100.172 348.064 473.511
3337 0 77.1646 14.3848 1110 101.658 348.093 467.97
3338 0 82.2292 13.7178 1128 100.282 346.947 475.932
3339 0 85.177 16.2133 1381 98.9623 345.73 466.515
3340 0 85.3555 13.0044 1110 102.553 346.575 474.768
3341 0 90.354 15.7602 1424 99.908 345.515 467.853
3342 0 93.3014 20.5356 1916 94.6942 344.469 470.138
3343 0 93.2352 14.576 1359 99.9971 345.336 472.661
3344 0 98.1461 15.2935 1501 100.38 345.424 467.969
3345 0 101.223 25.2809 2559 90.9543 344.531 462.581
3346 0 101.303 12.8525 1302 104.746 343.289 461.083
3347 0 108.294 15.9842 1731 100.586 342.961 452.593
3348 0 109.564 11.8561 1299 106.51 343.122 452.836
3349 0 111.283 13.1736 1466 105.065 342.102 446.471
3350 0 117.38 15.2326 1788 100.266 341.769 455.081
3351 1 66.1993 14.26 944 99.3157 341.209 474.266
3352 0 71.1473 15.236 1084 98.417 341.36 469.199
3353 0 70.2002 14.7293 1034 101.175 341.234 459.768
3354 0 75.5646 16.0128 1210 99.4488 340.884 455.083
3355 0 76.374 13.6565 1043 102.181 340.673 460.042
3356 0 74.2803 10.4873 779 104.893 340.293 463.617
3357 0 82.36 13.9995 1153 100.206 341.274 461.652
3358 0 83.2037 14.6388 1218 99.1199 342.503 458.254
3359 0 86.337 18.0108 1555 96.4431 341.936 455.848
3360 0 90.589 19.0531 1726 94.6286 341.821 451.046
3361 0 91.3886 13.4262 1227 102.386 343.443 452.86
3362 0 91.323 17.0275 1555 98.4585 343.179 448.758
3363 0 95.1695 19.5126 1857 95.552 344.148 440.864
3364 0 96.3041 12.5955 1213 103.008 345.185 447.06
3365 0 100.511 14.8939 1497 100.67 345.945 445.529
3366 0 97.2842 11.0295 1073 108.116 345.144 440.588
3367 0 104.445 13.6244 1423 104.666 346.378 439.019
3368 0 110.435 14.6511 1618 103.496 346.308 433.739
3369 0 115.191 17.3451 1998 99.5721 346.901 440.409
3370 1 62.2144 11.3157 704 105.477 347.344 469.418
3371 0 65.1683 11.6314 758 106.644 346.608 467.876
3372 0 69.4485 13.7368 954 103.886 347.927 467.951
3373 0 70.2864 14.5405 1022 101.704 347.563 469.243
3374 0 71.2183 13.8448 986 100.89 347.3 473.812
3375 0 74.1665 14.6832 1089 102.24 348.63 468.664
3376 0 79.2679 14.4699 1147 102.365 348.577 468.085
3377 0 80.3441 13.2928 1068 105.211 348.576 464.112
3378 0 82.2161 16.262 1337 102.444 346.933 461.057
3379 0 86.1776 14.5514 1254 104.908 346.926 463.21
3380 0 90.2451 13.8733 1252 105.186 347.28 463.867
3381 0 92.1593 12.7605 1176 106.36 347.78 466.459
3382 0 98.3026 20.62 2027 96.8397 346.465 465.045
3383 0 101.347 17.593 1783 101.693 346.598 461.003
3384 1 55.1461 10.5719 583 104.439 344.631 484.962
3385 0 61.1178 11.7805 720 104.554 345.472 479.894
3386 0 62.6124 14.0068 877 103.788 344.991 478.668
3387 0 64.1228 15.1896 974 101.553 344.287 483.108
3388 0 65.2226 15.8381 1033 102.886 344.6 475.785
3389 0 65.2093 13.495 880 106.552 344.049 473.524
3390 0 72.5618 15.3111 1111 102.287 343.435 470.43
3391 0 80.5544 23.4624 1890 91.3746 342.546 468.586
3392 0 75.4583 18.3943 1388 98.9438 342.048 469.636
3393 0 75.4066 15.7413 1187 103.036 340.701 472.825
3394 0 82.4485 16.6164 1370 101.956 341.655 464.487
3395 0 82.3634 16.84 1387 102.251 340.394 461.45
3396 0 86.357 20.5774 1777 97.2167 340.597 462.78
3397 0 92.4592 23.6537 2187 94.0014 340.706 458.034
3398 0 86.4293 18.0494 1560 102.42 341.929 462.523
3399 0 90.2902 15.1512 1368 104.86 341.583 456.623
3400 0 93.2195 19.7384 1840 99.1429 341.768 455.874
3401 0 102.303 17.9565 1837 100.422 340.512 448.777
3402 0 103.755 21.782 2260 95.7903 339.786 439.942
3403 0 101.393 16.9735 1721 102.364 341.984 442.469
3404 0 104.279 17.0696 1780 102.515 342.372 443.036
3405 0 108.41 18.3193 1986 100.99 342.841 442.41
3406 0 116.419 17.6088 2050 101.217 342.512 444.857
3407 1 66.2103 16.0398 1062 98.0725 344.26 469.293
3408 0 69.2458 16.232 1124 99.9751 345.063 465.794
3409 0 70.1274 19.2792 1352 97.2234 344.982 464.754
3410 0 73.177 14.8407 1086 102.549 344.982 463.664
3411 0 76.2021 15.7213 1198 101.464 345.09 459.169
3412 0 80.3861 20.7125 1665 94.4691 344.878 467.446
3413 0 80.173 14.319 1148 103.837 346.048 463.172
3414 0 83.1414 13.0621 1086 105.264 347.157 459.912
3415 0 90.3445 16.1936 1463 102 347.437 451.272
3416 0 91.3554 17.0105 1554 100.079 347.774 458.979
3417 0 91.2241 15.8072 1442 102.888 348.625 461.179
3418 0 97.1364 17.0482 1656 101.165 348.464 451.847
3419 0 98.1401 15.1518 1487 103.966 349.274 447.919
3420 0 100.186 14.0638 1409 106.718 348.766 451.368
3421 0 100.279 13.5621 1360 108.318 348.127 455.336
3422 0 107.331 16.4072 1761 103.903 348.207 446.095
3423 0 113.443 19.3929 2200 99.2827 348.29 449.616
3424 0 114.26 15.456 1766 103.656 349.796 450.607
3425 1 63.0745 10.8919 687 102.918 347.913 475.215
3426 0 65.0671 9.05219 589 106.559 347.231 473.132
3427 0 70.1922 12.1239 851 105.928 347.591 473.987
3428 0 75.4142 16.469 1242 100.967 346.616 472.774
3429 0 79.5399 17.7521 1412 98.6459 344.614 468.527
3430 0 78.1209 16.5257 1291 102.113 344.171 469.071
3431 0 78.2042 12.2883 961 108.023 342.991 469.207
3432 0 83.3676 16.913 1410 101.604 343.182 473.416
3433 0 86.2223 12.6533 1091 109.649 342.53 465.232
3434 0 86.225 12.3282 1063 110.983 342.49 462.381
3435 0 88.1951 16.0667 1417 105.548 342.796 465.315
3436 0 94.227 12.5336 1181 110.145 342.467 463.252
3437 0 98.2233 14.7216 1446 107.849 341.454 458.369
3438 0 100.206 13.7118 1374 107.695 340.667 457.707
3439 0 103.36 15.3832 1590 107.847 341.755 461.006
3440 0 104.182 14.5226 1513 110.9 342.293 452.53
3441 0 106.34 14.6041 1553 108.346 342.843 459.09
3442 0 111.245 13.9961 1557 110.921 342.34 449.949
3443 0 115.281 13.7316 1583 110.699 344.081 440.406
3444 0 115.609 11.6168 1343 110.792 343.095 437.631
3445 1 71.4277 14.8962 1064 104.898 342.867 461.048
3446 0 71.3374 12.3357 880 111.189 341.856 466.095
3447 0 76.2805 18.4844 1410 101.902 343.557 465.601
3448 0 80.273 16.2695 1306 104.415 343.806 466.73
3449 0 83.5268 16.0428 1340 105.701 344.562 458.95
3450 0 82.2458 14.6755 1207 108.875 343.943 459.906
3451 0 85.3344 16.781 1432 106.534 344.734 459.947
3452 0 86.3486 12.7043 1097 113.214 343.631 458.925
3453 0 90.3316 15.1553 1369 110.533 345.364 454.57
3454 0 93.548 15.7352 1472 110.314 346.335 450.427
3455 0 97.3867 14.7761 1439 110.254 345.761 451.926
3456 0 97.3867 14.9096 1452 151.293 345.784 452.048
3457 0 104.31 15.5977 1627 108.957 346.663 452.249
3458 0 106.454 15.6782 1669 110.458 346.395 447.07
3459 0 107.393 14.1723 1522 113.821 347.501 444.574
3460 0 110.412 15.5146 1713 110.355 346.554 446.58
3461 0 115.357 14.1907 1637 113.837 346.422 430.641
3462 0 119.577 18.5571 2219 106.324 346.096 430.793
3463 0 122.266 15.3273 1874 110.408 346.273 436.927
3464 0 129.346 14.5811 1886 109.989 347.514 441.942
3465 1 75.4058 13.6727 1031 107.606 346.27 470.757
3466 0 74.3227 13.0781 972 112.333 346.659 466.041
3467 0 77.2385 14.2287 1099 109.628 345.619 466.955
3468 0 82.2582 13.8467 1139 112.081 347.639 461.908
3469 0 86.3954 14.1096 1219 110.153 345.846 465.023
3470 0 89.4621 14.9113 1334 107.873 346.451 463.461
3471 0 91.3246 15.9979 1461 106.131 346.07 465.003
3472 0 97.3474 16.1894 1576 105.822 344.553 464.585
3473 0 97.3525 14.6067 1422 109.307 345.106 462.987
3474 0 103.315 15.9899 1652 107.011 344.913 457.067
3475 0 106.215 15.525 1649 106.985 343.682 462.355
3476 0 108.273 12.0898 1309 111.596 342.426 461.985
3477 0 113.221 16.2779 1843 106.12 341.963 454.724
3478 0 116.301 16.3111 1897 107.564 340.72 449.771
3479 0 118.334 14.2563 1687 111.676 340.572 446.868
3480 0 122.491 14.7032 1801 110.729 341.197 437.437
3481 0 124.274 13.4542 1672 110.681 340.633 436.334
3482 1 72.1558 10.7684 777 106.698 340.857 471.462
3483 0 74.2124 13.4075 995 103.607 341.822 469.249
3484 0 78.5024 13.5028 1060 106.89 340.237 470.22
3485 0 81.192 14.2502 1157 106.557 340.505 468.557
3486 0 83.3158 14.031 1169 107.087 341.915 462.344
3487 0 85.434 12.2317 1045 109.362 340.434 459.026
3488 0 88.2818 12.9925 1147 108.682 341.273 462.076
3489 0 91.2251 14.6012 1332 106.858 341.886 456.223
3490 0 94.278 12.6435 1192 107.807 341.494 460.758
3491 0 99.3754 14.2993 1421 105.714 341.925 456.158
3492 0 102.236 16.413 1678 102.55 342.855 454.716
3493 0 105.511 15.2685 1611 102.807 342.109 456.561
3494 0 107.246 14.4528 1550 105.903 344.597 446.183
3495 1 58.1939 12.2006 710 105.875 344.184 472.342
3496 0 61.2928 9.39752 576 108.477 344.25 469.271
3497 0 65.1268 12.0073 782 101.176 345.749 467.4
3498 0 65.1454 12.5258 816 101.7 347.172 465.457
3499 0 65.2331 12.1411 792 103.492 347.093 463.203
3500 0 69.1713 13.1847 912 101.273 347.853 465.093
3501 0 73.2485 16.2461 1190 101.498 345.414 468.951
3502 0 75.2966 13.3207 1003 105.423 346.49 468.276
3503 0 80.5803 17.8331 1437 99 348.063 465.415
3504 0 78.3818 11.6226 911 108.671 347.704 466.391
3505 0 81.3659 13.5438 1102 106.681 347.498 464.251
3506 0 89.3347 15.9848 1428 100.884 347.729 469.303
3507 0 89.2383 13.8618 1237 104.485 346.374 470.876
3508 0 92.3936 18.8 1737 99.5861 346.719 466.857
3509 0 93.3671 14.4162 1346 105.049 345.948 463.976
3510 0 102.246 14.1131 1443 103.59 346.341 461.879
3511 0 100.359 15.2752 1533 103.06 346.128 463.669
3512 0 100.342 12.6468 1269 105.69 345.385 470.335
3513 0 105.638 20.6365 2180 97.2312 345.325 461.16
3514 0 106.329 16.2891 1732 102.581 343.972 463.546
3515 0 113.363 14.9255 1692 103.074 343.645 461.68
3516 0 114.504 15.2745 1749 103.953 343.309 459.973
3517 0 120.601 17.2635 2082 100.661 342.615 457.742
3518 0 123.382 13.8756 1712 104.463 341.743 454.499
3519 0 126.519 16.2979 2062 101.259 341.393 454.085
3520 1 111.303 8.11302 903 113.228 341.068 446.403
3521 1 130.407 10.1681 1326 107.241 340.612 448.518
3522 0 134.667 13.1955 1777 105.068 340.326 433.285
3523 1 81.3998 9.65604 786 103.743 338.65 469.089
3524 0 82.396 12.889 1062 99.8842 340.031 470.654
3525 0 83.3972 12.5424 1046 102.359 339.232 463.502
3526 0 86.3649 13.7209 1185 100.938 338.832 462.084
3527 0 87.516 18.111 1585 96.9987 337.747 454.346
3528 0 85.398 10.4921 896 108.603 339.392 455.147
3529 0 91.2595 17.0174 1553 99.5287 338.512 447.028
3530 0 94.1783 19.8135 1866 95.9839 339.525 456.21
3531 0 98.2766 14.9985 1474 103.208 339.668 447.34
3532 0 100.231 15.125 1516 102.404 340.053 447.268
3533 0 103.132 13.9918 1443 103.665 340.03 446.238
3534 0 104.143 15.3443 1598 102.523 340.464 441.16
3535 0 109.289 17.0832 1867 100.717 340.553 432.17
3536 0 120.901 23.937 2894 91.4371 340.855 431.579
3537 0 116.271 16.711 1943 100.572 341.339 438.214
3538 0 122.51 20.529 2515 94.6616 342.696 439.956
3539 1 65.2411 14.8219 967 96.7849 343.7 465.605
3540 0 70.3146 13.8094 971 98.4696 343.803 465.877
3541 0 73.9248 15.4075 1139 96.1062 344.111 465.129
3542 0 71.3436 12.601 899 101.778 344.224 461.502
3543 0 72.3453 10.2978 745 106.616 344.752 454.915
3544 0 77.5136 15.3134 1187 99.6074 345.938 456.638
3545 0 83.3789 13.0728 1090 100.972 345.306 460.165
3546 0 82.3031 11.7371 966 104.114 346.209 455.702
3547 0 86.9151 12.9667 1127 102.174 344.865 458.097
3548 0 90.7986 15.8483 1439 98.6275 345.729 457.614
3549 0 88.6673 8.88716 788 109.513 345.376 454.798
3550 0 91.4257 16.0021 1463 99.9973 345.944 453.388
3551 0 98.3504 14.489 1425 100.515 345.152 459.263
3552 0 100.641 9.09169 915 108.369 345.038 456.466
3553 0 103.325 19.3661 2001 96.3713 345.031 455.224
3554 0 106.437 12.8339 1366 104.149 344.056 450.908
3555 0 108.433 15.5764 1689 101.223 345.11 451.752
3556 1 118.936 19.9266 2370 95.957 343.854 449.571
3557 0 118.268 13.3341 1577 105.018 344.351 445.134
3558 0 122.391 13.3834 1638 103.782 343.2 452.089
3559 0 124.406 17.2097 2141 98.2368 342.029 453.046
3560 0 131.872 15.3634 2026 99.578 342.037 451.611
3561 0 138.451 16.9012 2340 98.3675 341.665 440.259
3562 1 77.1305 10.1387 782 102.226 340.774 470.78
3563 0 81.2688 11.4312 929 102.018 340.698 464.673
3564 0 83.1219 13.4261 1116 100.349 339.478 464.231
3565 0 87.5119 15.9635 1397 96.7946 340.14 461.044
3566 0 91.4092 18.6524 1705 93.851 339.611 458.419
3567 0 91.4539 13.2963 1216 101.031 339.576 454.95
3568 0 91.4539 13.2198 1209 135.492 339.538 455.06
3569 0 101.4 16.8244 1706 95.5481 339.635 452.858
3570 0 101.233 15.5681 1576 96.7989 338.944 458.149
3571 0 105.812 15.9434 1687 96.6888 338.166 453.354
3572 0 108.288 18.0167 1951 94.8744 337.799 451.64
3573 0 110.548 18.8425 2083 93.325 337.448 454.797
3574 0 110.548 18.8154 2080 130.517 336.408 454.634
3575 0 118.223 17.1032 2022 96.1894 339.227 445.922
3576 0 121.384 15.6775 1903 97.4388 340.069 447.838
3577 0 127.551 16.3542 2086 97.7852 338.945 442.851
3578 0 131.569 19.4423 2558 94.016 340.279 444.41
3579 0 136.255 15.1188 2060 97.9248 341.204 441.492
3580 0 140.407 17.7199 2488 96.2741 340.831 429.622
3581 0 146.518 18.5165 2713 95.4003 340.888 438.332
3582 0 150.419 15.643 2353 98.1139 341.442 441.066
3583 1 83.4112 12.6602 1056 98.4517 341.78 465.911
3584 0 84.4059 13.8497 1169 97.7143 343.583 467.52
3585 0 83.1202 9.75695 811 103.523 343.133 464.54
3586 0 88.2685 14.3992 1271 100.384 344.075 462.346
3587 0 91.1998 18.1141 1652 96.2228 344.506 461.018
3588 0 94.3456 13.5459 1278 103.73 344.433 452.542
3589 0 100.397 19.8013 1988 96.4713 345.171 447.867
3590 0 99.8088 14.7282 1470 103.17 343.978 452.451
3591 0 104.559 16.8039 1757 100.991 344.799 453.851
3592 0 103.401 12.7078 1314 107.253 344.744 448.605
3593 0 109.608 20.8106 2281 96.9816 345.965 455.979
3594 0 113.439 18.468 2095 99.8043 345.043 453.417
3595 0 114.455 15.517 1776 104.7 345.547 452.891
3596 0 120.484 13.0806 1576 107.294 344.859 452.676
3597 0 128.644 15.1736 1952 104.374 344.13 449.813
3598 0 128.487 14.3594 1845 106.105 344.755 449.909
3599 0 132.29 15.209 2012 105.79 344.006 444.597
3600 0 137.515 16.7982 2310 103.614 342.741 444.137
3601 0 140.804 19.6373 2765 99.8365 343.532 449.267
3602 0 143.617 14.6431 2103 106.54 342.259 448.653
3603 0 153.042 17.2306 2637 104.638 341.468 440.526
3604 0 156.45 17.8204 2788 104.242 340.772 434.816
3605 0 160.232 13.0374 2089 109.082 341.102 438.262
3606 0 168.509 15.9695 2691 103.857 340.303 434.028
3607 1 97.4518 15.5359 1514 101.97 339.818 469.579
3608 0 100.285 15.7851 1583 101.158 339.901 469.688
3609 0 103.514 18.3743 1902 99.7361 338.413 456.725
3610 0 106.328 13.0633 1389 106.016 338.186 460.999
3611 0 110.222 14.1078 1555 104.533 338.959 459.093
3612 0 113.457 14.1199 1602 105.194 337.588 452.471
3613 0 117.547 14.9303 1755 103.654 338.513 451.834
3614 0 117.553 12.9049 1517 107.425 338.69 447.711
3615 0 123.431 15.3365 1893 103.658 338.562 448.77
3616 0 129.36 18.1587 2349 98.5326 338.033 453.543
3617 0 130.585 15.5301 2028 102.598 337.621 449.056
3618 0 135.541 19.1086 2590 97.7919 337.72 441.93
3619 0 141.493 14.9124 2110 103.309 338.734 434.106
3620 0 146.571 19.2398 2820 97.6617 339.116 433.005
3621 0 149.647 15.8105 2366 102.541 339.907 428.705
3622 0 155.533 16.961 2638 101.561 340.702 421.904
3623 1 86.64 12.9271 1120 102.718 340.934 459.934
3624 0 89.6396 11.2339 1007 106.489 340.925 456.676
3625 0 92.5064 18.2906 1692 97.9096 340.771 454.286
3626 0 95.4714 14.685 1402 102.506 341.156 454.358
3627 0 99.4494 16.5009 1641 100.988 341.726 450.051
3628 0 101.287 14.375 1456 104.489 343.698 447.804
3629 0 102.583 11.9513 1226 104.24 342.951 458.044
3630 0 108.303 15.632 1693 103.239 343.849 443.288
3631 0 113.257 16.467 1865 101.515 342.965 443.126
3632 0 117.351 18.4233 2162 99.2919 344.496 444.576
3633 0 123.542 20.3736 2517 95.2197 342.558 452.124
3634 0 128.232 17.3747 2228 99.2864 344.677 446.276
3635 0 126.454 12.2653 1551 108.006 345.787 438.413
3636 0 132.377 16.4606 2179 102.251 345.455 441.821
3637 0 139.566 13.9503 1947 105.432 344.986 439.444
3638 0 142.543 11.372 1621 108.293 345.977 443.447
3639 0 148.847 18.1529 2702 100.876 344.319 441.734
3640 0 154.411 17.3757 2683 102.374 345.257 441.591
3641 0 156.411 16.3223 2553 104.614 344 432.516
3642 1 93.2105 14.0328 1308 105.976 345.368 467.185
3643 0 98.4669 18.9404 1865 99.4794 344.758 468.85
3644 0 101.389 13.5222 1371 107.314 344.503 459.758
3645 0 107.215 23.3084 2499 95.481 342.871 458.578
3646 0 106.153 13.3675 1419 109.429 342.859 462.328
3647 0 112.321 17.4232 1957 104.515 342.321 457.814
3648 0 116.921 16.9174 1978 105.162 342.094 458.606
3649 0 119.287 20.4297 2437 100.538 341.259 455.389
3650 0 123.329 14.7735 1822 106.885 340.88 458.738
3651 0 127.43 13.4584 1715 108.048 341.405 458.345
3652 0 130.447 13.7757 1797 110.092 341.097 450.403
3653 0 135.332 13.9213 1884 110.399 341.298 446.731
3654 0 136.327 18.3456 2501 104.221 339.287 449.402
3655 0 142.587 16.4601 2347 108.248 338.552 441.416
3656 0 144.223 14.7342 2125 110.957 339.9 438.341
3657 0 152.413 15.0184 2289 110.526 339.068 434.559
3658 0 152.564 13.2272 2018 113.656 339.155 434.637
3659 0 159.611 19.322 3084 105.702 338.195 429.49
3660 0 163.37 15.5781 2545 111.376 339.679 422.642
3661 0 167.505 19.474 3262 106.372 340.189 422.318
3662 0 176.32 18.7103 3299 107.814 340.615 418.013
3663 0 181.611 16.2436 2950 112.208 340.199 422.395
3664 0 185.507 14.8404 2753 117.123 341.52 411.504
3665 0 191.928 16.9335 3250 112.935 341.101 412.306
3666 0 192.569 14.6129 2814 116.704 341.589 413.802
3667 0 201.741 15.0292 3032 117.631 342.551 400.981
3668 0 206.8 15.0338 3109 116.776 342.794 402.18
3669 0 216.007 16.6199 3590 114.377 342.957 390.567
3670 0 224.468 17.8243 4001 112.294 343.688 389.045
3671 0 230.998 15.4763 3575 116.011 343.163 381.578
3672 0 242.578 20.3976 4948 106.289 344.658 397.557
3673 1 61.0882 10.2475 626 105.692 345.479 469.577
3674 0 64.4814 16.8886 1089 98.6208 344.874 471.227
3675 0 63.0895 8.78117 554 109.489 345.296 471.61
3676 0 68.1415 14.5726 993 102.509 345.034 466.855
3677 0 70.1419 13.5725 952 103.124 344.492 472.914
3678 0 69.0468 11.2243 775 109.191 346.454 469.748
3679 0 72.1594 12.999 938 106.617 345.902 468.499
3680 0 75.1775 11.3997 857 108.7 344.903 468.721
3681 0 79.3308 11.6348 923 107.968 346.271 467.587
3682 0 83.1165 11.9832 996 106.089 345.893 469.058
3683 0 86.2904 12.3073 1062 105.363 346.83 467.735
3684 0 87.2093 10.0563 877 110.171 345.398 458.117
3685 0 88.3205 16.2363 1434 100.944 344.654 463.939
3686 0 94.2485 12.4564 1174 105.494 344.533 458.809
3687 1 35.1482 8.79134 309 94.877 343.845 494.874
3688 0 35.225 8.34635 294 95.3129 343.34 491.983
3689 0 34.0227 9.46427 322 95.3975 343.898 494.655
3690 0 36.1328 11.0703 400 88.58 341.922 491.118
3691 0 41.0723 6.50073 267 94.0037 343.094 485.247
3692 0 41.234 7.27554 300 91.22 342.563 491.877
3693 0 37.0421 6.80307 252 92.0238 342.448 487.873
3694 0 35.3263 12.6252 446 87.3767 341.462 482.592
3695 0 25.0797 12.2809 308 88.0779 340.799 488.373
3696 1 128.396 16.3011 2093 100.562 340.149 432.161
3697 0 128.31 19.7569 2535 98.1629 339.305 432.467
3698 0 129.714 26.5431 3443 91.8217 339.049 430.708
3699 0 131.582 14.584 1919 106.032 339.44 428.924
3700 1 40.2559 7.8001 314 92.5032 341.124 476.255
3701 0 42.1173 15.718 662 85.139 340.517 477.486
3702 0 46.222 8.76205 405 90.3728 340.61 482.005
3703 0 39.0584 6.6055 258 94.1822 340.302 477.578
3704 0 42.2389 12.5713 531 87.7345 341.648 472.266
3705 0 45.1123 13.5218 610 89.1443 341.221 476.967
3706 0 43.247 7.46872 323 96.4334 343.325 479.167
3707 0 44.1609 8.33316 368 99.1821 343.685 475.769
3708 0 45.0718 8.60849 388 98.6675 342.436 470.781
3709 0 46.0765 9.65786 445 97.0876 344.013 473.557
3710 0 48.2068 12.4671 601 93.4859 343.521 473.208
3711 0 48.1163 10.2044 491 95.5499 345.167 472.967
3712 0 47.0268 7.08107 333 100.727 345.315 470.486
3713 0 47.1038 11.5914 546 96.6502 344.222 470.035
3714 0 47.1258 10.7372 506 96.3696 344.787 469.079
3715 0 51.0563 10.6157 542 96.0037 345.603 473.834
3716 0 50.0815 8.04689 403 100.677 345.184 473.293
3717 0 49.0962 8.94162 439 97.3166 343.877 478.351
3718 0 52.0998 9.84648 513 97.2339 343.945 474.259
3719 0 51.0919 9.4927 485 95.433 346.095 482.546
3720 0 54.1495 9.91699 537 96.73 345.633 475.35
3721 0 56.1638 12.0006 674 93.997 346.803 473.996
3722 0 55.023 7.19699 396 98.452 344.146 481.866
3723 0 54.1654 7.0894 384 99.2448 345.159 478.911
3724 0 58.1204 10.5987 616 93.8247 344.82 478.742
3725 0 55.0766 7.00842 386 96.6373 346.946 484.114
3726 0 58.1326 8.06776 469 94.9083 346.036 473.461
3727 0 61.0667 10.988 671 92.1967 345.763 480.721
3728 1 24.0236 8.28351 199 90.1608 345.653 499.93
3729 0 17.0661 3.92592 67 98.2985 345.746 503.075
3730 1 55.595 5.79188 322 99.472 344.109 487.27
3731 0 59.5247 10.3822 618 93.2055 344.094 483.338
3732 0 58.1841 5.94664 346 98.552 343.523 482.815
3733 0 57.3195 7.86818 451 97.2306 342.45 480.126
3734 0 61.7362 9.57299 591 95.1269 340.369 479.553
3735 0 61.2088 9.54111 584 96.012 341.065 481.844
3736 0 60.4719 6.92883 419 99.5084 340.544 483.332
3737 0 60.3167 3.4982 211 101.54 340.536 488.735
3738 0 63.431 11.2248 712 93.2107 338.809 481.798
3739 0 63.502 8.92886 567 95.8025 339.541 477.515
3740 0 63.4427 13.193 837 91.1971 339.569 478.953
