time division length width area intensity CMx CMy
0 0 63.0445 15.6556 987 136.218 204.327 442.419
1 0 66.1088 13.9618 923 140.497 203.515 441.982
2 1 34.1024 11.8467 404 143.584 202.968 457.636
3 0 35.1841 11.5677 407 127.597 201.216 461.371
4 0 39.1137 11.1981 438 133.014 201.445 463.888
5 0 36.1904 12.2961 445 132.393 201.438 465.101
6 0 39.1689 13.429 526 126.519 199.694 467.167
7 0 40.1782 15.6801 630 124.668 198.749 467.357
8 0 40.1181 12.9368 519 129.127 197.133 467.36
9 0 41.0928 14.2117 584 125.714 196.476 468.462
10 0 42.166 13.5417 571 126.156 196.151 470.025
11 0 41.1404 13.7091 564 125.426 195.996 471.326
12 0 44.0753 14.4298 636 122.759 196.23 473.703
13 0 45.1275 14.6696 662 123.692 196.974 471.118
14 0 45.0824 14.5511 656 119.058 195.838 472.71
15 0 48.1011 14.8021 712 122.212 195.354 471.659
16 0 49.1545 14.1594 696 122.602 195.154 473.103
17 0 48.1143 14.9851 721 124.458 195.763 474.302
18 0 47.1099 13.7551 648 127.915 196.187 469.781
19 0 53.0519 15.2304 808 122.163 196.124 469.288
20 0 52.0995 13.6854 713 124.735 195.527 469.892
21 0 54.0578 15.3169 828 117.239 195.942 468.572
22 0 55.0749 13.5634 747 118.622 195.811 463.933
23 0 58.0716 15.1881 882 123.38 197.07 463.228
24 0 61.1202 13.5144 826 124.835 197.892 461.87
25 0 62.1958 18.4739 1149 116.194 198.218 458.315
26 0 66.1993 18.686 1237 114.892 198.821 455.852
27 0 68.0772 14.1898 966 122.09 200.664 459.53
28 0 73.3867 16.6106 1219 115.979 200.393 456.374
29 0 71.2246 15.9776 1138 117.17 200.23 456.039
30 0 73.0615 13.2628 969 122.481 203.114 454.381
31 0 73.0615 13.3176 973 161.103 206.12 454.38
32 0 79.1026 15.5241 1228 116.808 202.522 451.701
33 0 82.2286 15.1894 1249 117.185 205.291 449.644
34 0 84.1221 14.3482 1207 118.519 205.046 448.439
35 0 87.1811 16.0126 1396 116.566 206.287 447.352
36 0 92.1331 20.9371 1929 106.459 205.756 447.474
37 0 93.496 12.4497 1164 120.187 207.838 445.583
38 1 48.1054 13.9901 673 111.076 205.77 470.453
39 0 49.0906 13.7908 677 105.651 207.549 476.238
40 0 54.0745 14.6095 790 103.811 206.632 473.81
41 0 54.0348 12.1218 655 109.255 207.153 473.037
42 0 57.0472 13.4625 768 107.956 206.271 472.316
43 0 58.2532 14.7116 857 105.378 206.958 472.658
44 0 60.0447 11.6746 701 114.361 206.479 476.886
45 0 65.0542 14.8184 964 118.922 206.503 471.874
46 0 65.1516 13.507 880 121.874 204.301 470.573
47 0 68.1375 15.5421 1059 119.972 203.497 471.62
48 0 68.0772 13.0293 887 127.856 203.62 469.682
49 0 74.2214 16.343 1213 117.083 201.103 467.322
50 0 76.1128 12.6523 963 127.167 200.988 463.975
51 0 80.0994 15.7804 1264 122.108 200.038 464.815
52 0 83.3588 15.6912 1308 122.414 199.712 463.118
53 0 88.0694 15.3061 1348 123.22 199.065 460.757
54 0 91.1589 14.0963 1285 124.502 199.107 459.701
55 0 94.1761 14.2499 1342 124.679 199.341 455.771
56 0 96.5082 15.3977 1486 122.364 197.978 455.613
57 0 96.5082 15.4184 1488 139.281 196.996 455.757
58 1 47.0257 11.9297 561 121.164 197 477.374
59 0 50.0911 13.2359 663 117.359 196.332 476.386
60 0 54.0496 12.211 660 116.811 197.291 477.853
61 0 54.1103 12.456 674 118.266 197.705 474.648
62 0 58.1891 14.6935 855 113.876 196.959 473.839
63 0 60.0847 15.2285 915 113.318 196.564 469.358
64 0 60.0633 11.0384 663 119.342 197.285 469.315
65 0 66.1529 15.2677 1010 112.888 197.875 467.961
66 0 67.0781 12.955 869 117.249 197.634 465.323
67 0 70.2022 16.6661 1170 112.254 197.72 461.151
68 0 71.1635 13.3917 953 118.469 198.775 459.523
69 0 74.0506 13.5988 1007 118.711 198.808 456.774
70 0 77.1191 11.5406 890 122.422 199.378 457.138
71 0 79.0815 13.4165 1061 120.794 199.164 453.455
72 1 44.0225 11.5168 507 118.456 200.176 472.27
73 0 45.0353 13.1452 592 116.345 200.356 470.882
74 0 45.3722 12.2101 554 118.413 201.67 470.316
75 0 45.1927 12.1701 550 118.536 202.949 471.191
76 0 46.0912 11.2169 517 115.797 203.487 471.774
77 0 47.0836 10.9805 517 117.925 204.081 472.735
78 0 49.0844 12.5294 615 115.88 204.66 473.724
79 0 48.091 10.8336 521 120.514 205.687 472.401
80 0 50.1875 12.0349 604 118.882 206.421 471.192
81 0 55.0873 12.4893 688 115.932 205.529 475.006
82 0 57.0844 13.1209 749 114.964 205.785 475.551
83 0 57.1742 11.6486 666 120.456 205.48 469.794
84 0 60.1392 19.3385 1163 108.115 204.181 473.88
85 0 59.1469 11.091 656 123.268 204.546 472.032
86 0 65.1085 11.9186 776 120.649 204.808 473.845
87 0 65.0737 11.6176 756 122.597 204.714 474.122
88 0 67.076 11.6286 780 125.11 203.564 472.833
89 0 70.3742 12.9451 911 124.008 204.482 471.267
90 0 71.256 12.7849 911 126.681 203.566 468.694
91 0 74.1184 14.3959 1067 123.93 201.048 469.879
92 0 76.3634 14.0774 1075 124.711 201.22 465.407
93 0 82.1356 16.071 1320 121.609 201.483 467.336
94 0 83.1504 13.8424 1151 126.82 199.25 466.2
95 0 86.1687 13.1834 1136 128.664 198.945 463.315
96 1 42.0284 9.77909 411 127.713 196.304 485.691
97 0 47.1923 11.824 558 123.69 197.602 482.487
98 0 48.2471 13.4101 647 117.934 197.677 479.444
99 0 46.0566 11.8767 547 119.85 196.797 473.258
100 0 50.2235 13.4399 675 117.15 196.729 472.927
101 0 49.2223 11.9864 590 117.488 196.008 480.924
102 0 52.0497 10.1249 527 119.486 195.526 480.873
103 0 55.0283 11.5577 636 118.596 195.071 475.549
104 0 56.0382 11.5636 648 116.9 194.427 478.032
105 0 56.1809 14.1151 793 114.446 194.858 473.518
106 0 58.1292 10.7347 624 118.141 196.075 474.659
107 0 63.2943 14.4089 912 114.069 194.544 468.15
108 0 63.1103 14.3558 906 115.586 194.506 468.551
109 0 68.0815 16.4068 1117 112.775 195.423 466.416
110 0 69.0709 13.1459 908 118.183 196.109 464.653
111 0 71.0651 14.5782 1036 117.887 196.003 459.831
112 0 73.1388 13.5769 993 120.459 196.107 457.259
113 0 77.0935 16.0454 1237 115.412 196.777 456.159
114 0 80.1027 13.5201 1083 117.283 198.574 458.044
115 0 81.0632 12.225 991 120.897 198.861 451.941
116 0 83.154 13.6373 1134 121.523 200.281 450.438
117 0 88.2617 15.0915 1332 118.637 200.351 450.577
118 0 90.0709 13.8002 1243 120.513 201.643 451.245
119 0 93.1002 17.2932 1610 116.138 201.877 447.872
120 0 97.3108 15.0549 1465 119.339 202.459 450.013
121 0 100.331 13.8442 1389 119.909 202.278 447.002
122 0 102.315 11.7383 1201 121.367 203.983 449.791
123 0 103.168 13.3374 1376 121.225 203.438 449.429
124 1 55.1694 13.6308 752 113.652 202.464 473.694
125 0 55.1322 11.4271 630 116.162 203.262 474.638
126 0 59.255 14.0748 834 110.927 203.79 474.165
127 0 61.1632 13.4721 824 111.427 204.14 473.802
128 0 62.2952 11.7184 730 112.942 202.505 474.352
129 0 63.0855 11.8094 745 115.466 204.009 472.036
130 0 66.1191 13.2488 876 113.248 202.747 472.043
131 0 68.226 11.5352 787 117.022 202.131 471.522
132 0 72.07 12.1687 877 114.243 201.428 473.584
133 0 73.248 13.9799 1024 112.183 201.27 473.758
134 0 76.146 12.1608 926 114.222 200.825 472.63
135 0 78.1991 12.1996 954 114.007 199.916 470.874
136 0 81.1971 12.7714 1037 114.042 200.122 467.404
137 0 84.1742 14.2324 1198 113.864 197.626 465.33
138 0 90.2297 16.7905 1515 109.234 198.57 464.347
139 0 91.2521 16.2188 1480 109.813 196.391 464.609
140 0 91.2521 16.0983 1469 132.084 195.387 464.534
141 1 49.165 12.5292 616 108.529 195.294 484.693
142 0 50.0648 13.9819 700 104.699 195.261 485.404
143 0 53.0672 11.6079 616 106.308 194.252 486.14
144 0 54.0601 11.0618 598 109.415 193.943 480.421
145 0 53.0579 12.5146 664 109.276 193.169 477.392
146 0 56.0294 13.4751 755 107.738 192.848 478.025
147 0 59.1208 8.0344 475 115.547 192.651 470.274
148 0 60.2153 12.3058 741 111.387 193.009 472.671
149 0 61.1246 12.4663 762 111.525 193.744 471.622
150 0 63.2796 9.21308 583 113.419 192.113 477.353
151 0 66.1263 10.8731 719 113.388 194.01 474.744
152 0 68.1349 13.3265 908 113.491 193.898 468.037
153 0 72.0817 12.4442 897 116.891 193.902 462.991
154 0 74.0754 14.6877 1088 113.863 194.236 460.09
155 0 79.1585 15.4247 1221 111.599 193.461 461.124
156 0 82.1923 13.0791 1075 114.572 194.67 460.501
157 1 43.1142 10.1823 439 114.296 196.323 476.38
158 0 43.0339 11.2934 486 112.171 198.105 474.163
159 0 43.18 8.63825 373 116.582 197.319 477.11
160 0 45.076 11.1811 504 114.655 197.516 471.631
161 0 47.0568 10.3279 486 113.451 197.64 476.14
162 0 47.0321 14.118 664 109.873 199.261 472.86
163 0 50.0637 14.3817 720 109.719 199.211 472.326
164 0 52.1175 13.8341 721 109.331 199.731 472.186
165 0 51.0527 11.4783 586 113.954 200.799 472.923
166 0 55.0454 14.8604 818 108.348 202.782 472.681
167 0 54.1912 13.9506 756 110.571 203.423 474.886
168 0 54.1912 14.0429 761 123.162 203.385 474.945
169 0 55.0794 11.0204 607 115.809 204.178 475.26
170 0 58.1368 11.903 692 114.133 203.727 476.798
171 0 62.1167 12.5892 782 113.881 202.364 474.848
172 0 65.3909 12.387 810 113.491 203.125 474.046
173 0 63.0772 11.0024 694 115.885 202.82 476.004
174 0 67.1165 10.4296 700 119.62 201.806 475.814
175 0 69.0711 14.1449 977 117.64 200.455 470.086
176 0 72.1334 14.3068 1032 117.172 199.218 469.895
177 0 76.0542 11.0579 841 121.395 198.885 472.881
178 1 39.0179 9.7135 379 117.361 198.76 492.084
179 0 43.0825 10.3522 446 116.818 197.525 488.325
180 0 45.0707 12.8465 579 113.199 197.389 489.252
181 0 45.0334 11.5692 521 108.319 196.468 489.075
182 0 46.0851 12.759 588 110.719 196.168 487.425
183 0 47.2447 12.7422 602 111.306 195.12 484.832
184 0 49.1458 11.6185 571 112.019 195.261 487.802
185 0 50.0394 11.7507 588 113.284 193.517 484.789
186 0 50.1472 11.6258 583 115.504 192.746 479.888
187 0 52.2868 12.5271 655 113.386 193.87 480.186
188 0 53.1906 10.2274 544 115.717 192.189 481.717
189 0 56.0853 13.0159 730 110.386 192.458 479.349
190 0 59.2599 13.0611 774 112.24 191.766 475.831
191 0 60.1286 17.579 1057 105.187 192.373 474.768
192 0 60.0825 12.6826 762 112.434 193.23 472.68
193 0 62.1322 12.8597 799 113.094 192.252 473.357
194 0 65.1626 15.3769 1002 114.727 193.093 466.593
195 0 68.0598 13.1649 896 118.545 193.217 467.19
196 0 72.0485 16.5028 1189 112.55 193.394 464.818
197 0 72.1188 13.8522 999 119.428 194.322 460.395
198 0 73.1517 13.9983 1024 119.786 194.707 458.619
199 0 79.1423 18.5741 1470 110.797 195.161 459.982
200 0 80.2032 15.9345 1278 116.129 194.746 454.721
201 0 83.0952 15.741 1308 117.291 195.773 454.057
202 0 86.1141 14.2137 1224 119.08 196.931 454.373
203 0 87.179 14.9119 1300 118.773 196.17 451.19
204 0 92.2386 22.0407 2033 107.522 197.461 449.554
205 1 51.0588 11.8883 607 115.936 198.14 472.703
206 0 51.0749 12.7264 650 113.622 198.432 471.822
207 0 54.3428 14.8318 806 109.264 200.757 472.935
208 0 54.1446 10.8229 586 120.841 198.08 473.619
209 0 56.254 16.0877 905 112.878 200.073 473.322
210 0 57.0462 11.7624 671 118.08 200.955 477.48
211 0 59.2307 12.5442 743 119.494 200.39 474.013
212 0 61.1048 13.3377 815 111.805 199.76 476.643
213 0 60.121 13.0903 787 113.502 200.311 476.949
214 0 61.1515 11.6269 711 117.406 200.727 475.399
215 0 66.0721 13.8636 916 116.598 200.432 473.054
216 0 70.0979 16.8193 1179 109.959 200.234 477.579
217 0 70.0828 13.3984 939 117.067 200.183 474.479
218 0 72.2096 15.0672 1088 115.112 200.319 471.315
219 0 73.0965 12.9418 946 119.977 200.508 471.77
220 0 77.2661 12.114 936 119.663 199.447 472.734
221 0 80.4442 16.471 1325 112.159 198.637 473.79
222 0 83.3515 14.7088 1226 114.002 198.852 473.266
223 1 44.085 13.7915 608 109.309 197.694 491.242
224 0 46.1593 9.35889 432 113.928 195.387 488.947
225 0 49.0711 11.5954 569 110.499 195.62 487.578
226 0 50.2202 13.2417 665 109.456 193.749 486.501
227 0 50.177 12.0374 604 112.419 194.3 485.324
228 0 51.2124 9.84137 504 115.159 192.357 483.448
229 0 54.3088 12.6131 685 108.365 191.585 483.794
230 0 52.1592 12.0784 630 105.352 189.032 485.492
231 0 56.1648 10.8965 612 105.212 190.052 484.84
232 0 52.125 10.3789 541 108.571 190.677 480.042
233 0 59.2754 15.8582 940 99.8521 189.655 480.55
234 0 61.1869 13.6304 834 102.055 190.472 477.301
235 0 65.1178 14.3279 933 100.354 189.928 472.355
236 0 65.0966 13.8563 902 101.907 189.839 470.53
237 0 69.1419 16.3287 1129 98.9477 190.171 473.184
238 0 71.0933 12.2234 869 105.197 189.428 466.577
239 0 72.184 11.3599 820 111.328 189.827 464.588
240 0 72.184 11.3737 821 138.469 190.827 464.737
241 0 79.1175 17.8469 1412 103.481 190.613 457.895
242 0 82.1007 12.6187 1036 109.474 191.121 462.997
243 0 84.1719 14.6248 1231 107.693 191.627 456.815
244 0 87.0904 13.7443 1197 108.949 193.032 453.165
245 0 87.1085 11.2389 979 112.869 192.704 454.825
246 0 91.159 10.6298 969 113.458 193.826 456.193
247 1 51.1868 12.0734 618 107.683 194.309 474.325
248 0 50.2822 11.7934 593 106.408 195.577 471.668
249 0 51.1009 11.1544 570 107.181 196.182 472.089
250 0 55.0885 12.5435 691 104.114 197.101 474.385
251 0 54.0788 11.9086 644 106.901 197.953 474.379
252 0 56.0795 13.1955 740 105.526 199.028 473.842
253 0 58.1767 12.8918 750 105.428 199.66 474.889
254 0 59.1981 9.79761 580 109.371 199.264 475.007
255 0 62.1688 10.8254 673 107.303 198.348 478.817
256 0 64.1164 16.2829 1044 104.436 199.292 471.419
257 0 66.182 13.9917 926 107.873 199.548 470.262
258 0 69.1299 16.2592 1124 108.873 199.496 471.231
259 0 70.2284 16.3467 1148 105.294 200.659 472.839
260 0 74.0674 14.6758 1087 110.461 199.826 474.145
261 0 78.1501 14.6001 1141 110.89 197.735 467.254
262 0 82.1953 17.4341 1433 106.177 197.736 467.043
263 0 84.2632 16.0687 1354 107.587 198.617 471.074
264 0 85.1109 14.487 1233 112.067 196.367 463.051
265 0 88.1229 15.0472 1326 109.084 197.009 471.257
266 0 93.1529 13.8589 1291 110.427 196.242 468.443
267 0 96.1754 11.427 1099 114.735 195.585 464.813
268 0 98.2022 16.9344 1663 103.056 195.308 463.928
269 1 55.0752 13.0549 719 110.764 193.438 480.3
270 0 59.0995 14.9578 884 107.442 191.764 480.744
271 0 59.0248 14.8582 877 107.303 191.255 482.633
272 0 59.1356 14.4076 852 109.637 191.587 476.637
273 0 64.2068 14.5779 936 108.438 191.931 477.455
274 0 62.0865 11.8383 735 112.868 190.29 477.09
275 0 66.0605 12.6399 835 111.63 189.745 473.18
276 0 69.2313 12.8266 888 109.007 189.37 475.266
277 0 71.3098 13.6307 972 108.496 189.402 470.228
278 0 71.0594 14.7482 1048 107.458 189.683 463.933
279 0 73.1619 11.6591 853 110.962 188.635 463.628
280 0 79.1449 13.848 1096 107.473 189.949 462.898
281 0 80.2024 15.1367 1214 104.381 189.829 459.096
282 0 83.2891 13.243 1103 105.278 190.17 463.367
283 0 86.1741 13.4727 1161 106.098 190.694 458.156
284 0 89.2548 19.9093 1777 98.2943 191.673 459.349
285 1 44.1096 14.0332 619 100.758 191.942 476.113
286 0 47.0384 14.52 683 101.381 193.302 473.067
287 0 48.1947 11.3706 548 106.212 192.358 471.993
288 0 52.1458 14.5553 759 105.041 193.921 472.005
289 0 53.2738 12.7079 677 102.77 195.65 471.761
290 0 50.0772 8.68658 435 110.048 194.89 472.726
291 0 52.0537 10.5468 549 106.791 194.805 473.073
292 0 56.2498 13.849 779 103.3 197.293 470.626
293 0 54.1199 11.918 645 108.037 197.975 467.141
294 0 59.0334 12.9079 762 106.406 199.318 466.887
295 0 60.0586 12.9041 775 107.586 198.44 466.835
296 0 63.0877 15.2486 962 105.672 200.78 465.198
297 0 64.2328 10.2751 660 110.842 201.126 470.653
298 0 67.121 16.8353 1130 102.776 200.306 468.771
299 0 70.1262 17.4543 1224 102.22 201.119 465.739
300 0 73.1362 13.4407 983 106.931 201.372 464.538
301 0 74.143 13.1233 973 105.443 200.729 467.392
302 0 72.1652 12.125 875 109.855 202.367 462.152
303 0 79.2157 11.8916 942 109.546 201.442 456.812
304 0 81.5499 12.1275 989 108.798 201.731 463.219
305 1 42.0679 12.3372 519 101.644 201.565 482.006
306 0 45.0598 11.3849 513 101.111 201.803 485.538
307 0 44.152 9.82968 434 101.841 200.859 485.17
308 0 45.1469 9.45801 427 103.494 200.07 481.012
309 0 49.0467 14.5372 713 101.15 198.958 485.359
310 0 48.0229 10.3909 499 106.629 198.415 486.922
311 0 50.1608 13.0181 653 102.726 197.274 484.878
312 0 52.062 11.2366 585 103.547 195.921 486.087
313 0 55.2045 17.1906 949 96.7671 195.465 481.321
314 0 57.0813 16.8707 963 95.8494 196.125 481.343
315 0 56.1656 15.8994 893 97.0896 195.531 475.085
316 0 55.189 9.53088 526 104.952 194.876 477.213
317 0 62.2161 13.3085 828 98.4142 193.053 480.828
318 0 67.1537 15.8294 1063 96.6491 192.586 473.738
319 0 65.1687 14.24 928 104.097 191.642 471.216
320 0 68.069 15.2052 1035 102.764 190.952 469.802
321 0 69.0724 14.9988 1036 103.098 191.136 466.75
322 0 73.1715 16.8371 1232 100.554 191.196 467.871
323 0 74.2423 13.0115 966 106.712 191.963 462.374
324 0 77.2209 12.1211 936 106.566 192.182 465.532
325 0 80.3282 13.5195 1086 104.988 192.044 457.526
326 0 81.1663 13.1828 1070 105.024 192.222 459.421
327 0 89.1941 18.6672 1665 97.4288 193.819 458.269
328 0 88.1618 13.203 1164 105.9 193.08 452.408
329 0 93.3571 18.6488 1741 96.954 194.345 455.763
330 0 94.2305 20.1845 1902 96.9401 193.328 441.066
331 0 94.2305 20.3968 1922 112.94 192.302 441.13
332 1 54.2657 11.4253 620 103.195 195.874 467.081
333 0 57.0837 13.8568 791 98.7598 195.088 470.479
334 0 59.1639 15.2627 903 98.5903 196.322 466.414
335 0 60.2503 15.0373 906 100.83 198.513 463.423
336 0 61.184 16.2624 995 99.799 198.358 461.34
337 0 63.442 14.6275 928 101.728 199.444 462.36
338 0 67.3922 15.6546 1055 99.9166 200.844 463.243
339 0 68.2711 14.8672 1015 101.635 202.045 464.19
340 0 69.273 11.2742 781 106.878 200.764 464.629
341 0 69.4883 12.002 834 107.54 203.261 462.632
342 0 72.5307 15.166 1100 103.365 201.605 460.47
343 0 76.4483 15.4745 1183 102.17 202.114 459.599
344 0 80.436 19.4067 1561 97.0967 203.51 458.81
345 0 84.6175 14.406 1219 102.025 204.349 461.297
346 0 82.4172 13.5166 1114 103.943 203.367 455.678
347 0 87.401 21.6359 1891 95.1243 203.424 459.993
348 0 88.3778 11.8921 1051 106.618 203.347 463.539
349 0 91.4689 12.7584 1167 107.427 202.696 455.608
350 0 92.4668 14.5782 1348 129.346 201.76 458.356
351 0 101.302 17.1862 1741 101.802 200.635 458.195
352 1 55.0264 12.1215 667 107.079 201.109 481.973
353 0 57.0585 12.5135 714 104.213 200.769 484.402
354 0 57.1712 14.063 804 106.614 198.868 479.438
355 0 59.0995 13.3165 787 107.145 198.255 478.726
356 0 62.3014 12.6803 790 107.908 197.5 478.733
357 0 63.0732 14.9033 940 105.315 196.429 478.902
358 0 67.0813 18.9323 1270 99.7614 196.317 475.509
359 0 70.0927 16.8776 1183 102.454 196.341 473.828
360 0 73.1098 11.6811 854 109.843 193.811 471.893
361 0 73.209 14.8889 1090 107.672 195.338 466.246
362 0 76.1838 15.0163 1144 105.018 193.851 469.336
363 0 78.0947 18.055 1410 101.203 193.594 468.999
364 0 81.2243 16.1651 1313 104.763 192.879 462.018
365 0 85.3148 14.4875 1236 107.726 194.19 462.853
366 0 85.3334 13.6172 1162 110.115 194.108 458.62
367 0 89.3528 13.7433 1228 110.505 194.479 454.279
368 0 90.1955 11.1203 1003 113.43 193.834 455.697
369 0 99.4938 20.142 2004 99.8139 194.182 453.115
370 0 97.4026 15.0715 1468 108.704 193.713 448.808
371 1 55.2156 14.0902 778 104.677 195.459 472.672
372 0 55.0716 9.2062 507 105.357 195.276 468.671
373 0 58.0272 13.5971 789 106.323 197.006 470.251
374 0 56.1046 13.6352 765 104.178 198.301 467.684
375 0 61.1389 12.7088 777 103.412 198.465 467.609
376 0 59.1234 15.4761 915 100.783 199.633 465.186
377 0 60.1964 14.0208 844 104.541 199.4 463.07
378 0 63.1619 15.6107 986 101.876 200.019 461.045
379 0 65.1292 14.049 915 102.811 201.941 466.299
380 0 68.1271 13.7097 934 103.013 203.177 465.215
381 0 70.1621 11.1741 784 107.686 203.101 462.495
382 0 76.1779 17.4329 1328 97.2839 204.337 466.335
383 0 78.1404 15.5361 1214 102.002 203.609 458.429
384 0 79.2606 12.6166 1000 105.696 205.637 461.579
385 0 81.1796 15.669 1272 101.781 204.533 460.778
386 0 84.3 13.6892 1154 105.517 205.55 457.884
387 0 86.4143 14.9975 1296 104.921 204.979 459.786
388 0 91.5387 17.0966 1565 104.783 205.369 456.282
389 0 91.4368 14.4034 1317 111.59 205.156 458.616
390 0 95.2453 16.2318 1546 109.386 205.321 454.712
391 0 100.372 14.4163 1447 113.216 204.091 453.042
392 0 103.286 12.8285 1325 113.544 201.943 453.69
393 0 107.259 17.7794 1907 106.978 202.061 447.891
394 0 110.39 11.2148 1238 116.843 200.897 450.105
395 0 117.29 13.0532 1531 111.508 200.753 457.735
396 1 63.155 14.4882 915 109.729 202.75 479.363
397 0 65.1928 10.8141 705 115.34 200.39 479.573
398 0 65.2091 9.98327 651 117.785 200.086 476.488
399 0 72.1355 17.0928 1233 107.578 197.658 471.776
400 0 76.2303 16.6994 1273 108.511 197.108 468.78
401 0 77.2706 12.9286 999 115.169 196.118 468.174
402 0 77.113 14.589 1125 114.165 195.671 465.189
403 0 81.107 16.2378 1317 110.611 194.57 466.515
404 0 84.3482 15.7917 1332 111.947 194.679 463.871
405 0 85.3698 12.44 1062 116.921 193.278 463.108
406 0 89.2196 16.1624 1442 109.015 194.723 465.907
407 0 94.3054 12.3429 1164 114.81 193.206 459.448
408 0 95.2918 15.0695 1436 112.076 194.537 459.653
409 0 99.3404 12.4723 1239 115.862 192.613 450.713
410 1 51.0539 12.4966 638 111.26 194.179 474.834
411 0 51.2811 14.4303 740 107.455 192.965 473.531
412 0 57.1134 17.7016 1011 102.589 192.2 472.701
413 0 57.1774 14.1489 809 107.906 193.136 473.47
414 0 58.2812 13.1089 764 109.931 194.49 472.933
415 0 57.1842 11.1919 640 114.048 195.688 470.8
416 0 65.2805 14.7517 963 106.241 194.499 470.533
417 0 63.1585 20.599 1301 98.9193 194.566 469.168
418 0 63.073 13.5082 852 109.863 196.367 466.388
419 0 67.0515 15.3017 1026 106.84 197.99 465.98
420 0 68.1343 15.0145 1023 107.295 197.7 465.054
421 0 72.121 12.0353 868 111.517 197.038 463.744
422 0 71.2727 14.5498 1037 109.419 199.714 457.764
423 0 76.2309 12.0817 921 112.496 198.897 457.024
424 0 80.2286 16.0417 1287 105.21 200.006 458.775
425 0 80.2286 15.9669 1281 136.579 200.98 458.637
426 0 85.3355 16.0777 1372 104.584 202.615 459.729
427 0 87.2039 13.3022 1160 109.633 202.934 456.528
428 0 87.2353 15.7276 1372 107.356 203.696 455.501
429 0 90.2217 12.0703 1089 111.613 203.107 454.663
430 0 97.1804 24.4802 2379 94.9075 203.159 451.715
431 1 50.3403 11.7202 590 107.758 203.756 473.063
432 0 52.1519 10.7762 562 105.601 204.26 473.742
433 0 58.1991 15.4126 897 97.7703 203.91 473.752
434 0 54.2345 11.5794 628 100.389 203.892 481.618
435 0 54.0664 7.0284 380 104.934 202.729 483.855
436 1 108.182 6.00837 650 108.568 201.345 467.378
437 0 120.545 12.991 1566 103.074 201.343 450.956
438 0 122.25 12.1145 1481 104.94 200.348 441.152
439 0 130.504 11.5629 1509 105.173 201.493 448.081
440 1 74.2455 15.3141 1137 101.163 200.482 470.8
441 0 73.2354 17.0546 1249 100.183 200.316 469.915
442 0 78.3814 14.6846 1151 102.048 199.653 472.469
443 0 78.3577 11.5113 902 108.039 197.757 465.64
444 0 83.4615 14.2221 1187 104.896 196.708 463.199
445 0 85.4202 14.3409 1225 105.17 197.758 460.299
446 0 86.3717 11.381 983 110.249 195.866 461.226
447 0 90.511 12.0096 1087 109.491 196.295 460.617
448 0 95.3457 15.449 1473 104.085 195.707 460.419
449 0 98.6697 11.6956 1154 110.132 195.951 457.041
450 0 98.2222 11.6878 1148 110.855 195.691 457.043
451 0 104.521 14.4851 1514 106.649 195.178 452.241
452 0 108.463 12.9353 1403 108.733 194.712 452.179
453 0 114.499 14.3582 1644 105.152 194.808 453.844
454 0 116.678 12.0759 1409 110.197 194.268 443.647
455 1 68.5763 11.4179 783 102.903 195.147 473.315
456 0 66.3677 12.4157 824 105.761 193.756 468.573
457 0 70.3726 15.83 1114 103.451 195.707 466.85
458 0 70.3505 13.8023 971 106.616 195.174 465.976
459 0 76.2857 13.6985 1045 106.891 195.634 462.81
460 0 67.3028 8.38003 564 115.943 196.374 459.466
461 1 81.8903 17.096 1400 99.07 196.148 467.752
462 0 83.5242 14.9059 1245 104.534 197.878 465.694
463 0 83.7508 14.3521 1202 107.017 197.698 459.038
464 0 86.4939 12.4171 1074 107.945 197.671 462.933
465 0 92.5439 15.0307 1391 105.55 198.921 457.784
466 0 95.5591 13.5204 1292 107.17 198.729 459.473
467 0 96.4852 15.2459 1471 105.857 199.644 457.768
468 0 98.6765 14.8161 1462 106.238 200.029 459.446
469 0 100.595 11.1835 1125 114.058 200.628 452.684
470 0 105.559 15.1196 1596 108.141 201.625 456.932
471 0 111.686 12.4725 1393 113.89 201.548 453.61
472 1 55.2666 10.9469 605 111.507 200.655 480.567
473 0 58.1335 13.1766 766 110.366 200.688 478.986
474 0 61.3008 11.0439 677 112.561 200.377 480.066
475 0 64.2838 14.6849 944 106.871 201.679 480.915
476 0 64.2413 13.4649 865 110.638 200.569 480.459
477 0 64.3628 10.8448 698 116.13 200.003 479.331
478 0 68.3669 13.3544 913 111.533 199.702 479.471
479 0 73.3655 12.4718 915 113.009 199.508 482.052
480 0 75.3225 12.2141 920 113.639 199.101 482.877
481 0 77.3376 12.62 976 112.425 197.738 480.237
482 0 80.3042 15.2171 1222 109.124 197.358 478.82
483 0 82.2145 12.589 1035 113.517 196.767 477.521
484 0 84.5023 13.7984 1166 111.541 194.712 474.461
485 0 88.3896 13.746 1215 110.305 193.884 476.876
486 0 91.4793 15.2603 1396 105.643 192.798 481.061
487 0 92.401 13.6687 1263 111.721 191.625 469.574
488 0 95.3245 12.7564 1216 112.989 192.013 470.9
489 0 102.427 14.8886 1525 110.314 191.956 468.081
490 0 104.488 11.1975 1170 119.029 190.315 461.989
491 0 111.717 20.9548 2341 102.727 190.141 466.76
492 0 111.472 15.358 1712 113.136 191.409 458.098
493 1 60.4502 13.3829 809 111.802 191.429 481.595
494 0 63.3221 12.697 804 112.852 190.251 478.558
495 0 63.2612 15.5862 986 108 189.383 479.745
496 0 66.1877 13.9603 924 112.287 188.378 471.188
497 0 67.2482 14.1268 950 114.657 187.944 470.619
498 0 71.1945 14.327 1020 112.874 187.06 471.76
499 0 73.3515 13.1695 966 115.633 187.156 468.475
500 0 75.3476 12.9798 978 116.54 189.052 465.494
501 0 78.4212 14.6899 1152 112.61 190.207 464.477
502 0 81.3567 15.1432 1232 110.985 191.089 463.392
503 0 82.3381 12.7402 1049 115.595 191.173 461.603
504 0 86.4415 13.1765 1139 113.691 192.302 463.673
505 0 87.5201 13.0713 1144 113.685 193.204 463.938
506 0 89.4266 12.1329 1085 118.794 193.61 459.219
507 0 95.3866 15.5682 1485 112.511 194.949 455.878
508 0 97.5717 15.8448 1546 108.741 195.692 460.103
509 0 100.323 13.965 1401 111.083 196.518 452.879
510 0 102.228 11.9439 1221 114.093 197.27 451.061
511 0 105.34 14.4485 1522 107.786 198.509 456.024
512 0 109.372 13.5227 1479 112.236 199.26 449.874
513 0 115.611 17.6368 2039 106.187 199.446 443.126
514 1 60.1897 9.83556 592 109.323 200.965 478.375
515 0 64.2241 13.2505 851 104.19 200.926 476.031
516 0 64.0628 12.0663 773 107.461 201.635 471.992
517 0 68.1544 13.3374 909 111.4 200.624 476.304
518 0 70.1343 13.9732 980 110.1 201.818 477.869
519 0 73.2457 15.8098 1158 108.212 200.836 475.947
520 0 74.3223 13.4011 996 111.921 199.944 477.057
521 0 78.2672 15.2299 1192 106.555 200.255 479.482
522 0 77.2144 11.9667 924 113.354 199.451 476.35
523 0 81.2724 14.9128 1212 109.729 198.252 473.918
524 0 85.5147 13.0738 1118 110.504 196.963 478.898
525 0 88.2096 18.32 1616 102.483 197.351 474.769
526 0 91.2829 12.3901 1131 110.949 197.288 474.576
527 0 91.1798 13.0621 1191 112.416 196.466 470.301
528 0 95.2258 12.5491 1195 112.581 195.347 471.249
529 0 101.098 13.2247 1337 110.924 194.899 470.629
530 1 51.1489 12.2388 626 107.03 194.532 495.537
531 0 51.0801 9.59278 490 112.171 193.682 495.286
532 0 54.0863 14.0516 760 108.716 192.872 489.147
533 0 56.1331 16.7816 942 106.949 191.708 485.67
534 0 57.1744 14.8143 847 112.484 189.747 483.826
535 0 58.1323 13.9681 812 114.993 190.623 481.537
536 0 60.1828 13.0436 785 116.783 189.62 481.538
537 0 60.15 11.7706 708 120.549 188.839 479.603
538 0 66.0713 14.8173 979 113.758 189.821 477.529
539 0 66.3277 16.9311 1123 110.896 189.321 476.929
540 0 69.1332 14.0743 973 116.245 189.408 473.268
541 0 71.1863 14.1038 1004 116.869 189.385 470.868
542 0 72.151 13.3609 964 118.799 188.401 466.524
543 0 77.3125 17.8884 1383 109.482 189.63 465.42
544 0 79.2485 15.1675 1202 115.05 190.817 461.884
545 0 82.2997 15.6501 1288 113.274 190.421 463.193
546 0 85.3114 15.9182 1358 112.44 191.902 462.485
547 0 87.3539 13.8403 1209 116.904 191.291 455.569
548 0 92.1158 13.6242 1255 116.088 193.584 457.833
549 0 93.6159 12.1774 1140 120.801 192.841 454.607
550 0 100.643 15.858 1596 113.114 193.199 452.956
551 0 101.439 14.59 1480 115.538 195.493 451.377
552 0 101.439 14.5407 1475 156.449 198.484 451.359
553 0 105.308 14.3579 1512 116.201 195.622 443.231
554 0 110.128 15.5909 1717 116.881 195.123 445.743
555 0 114.64 14.5237 1665 119.789 196.086 447.029
556 0 119.448 13.981 1670 119.669 196.764 443.586
557 0 121.388 17.9919 2184 113.513 198.743 440.766
558 1 65.1369 16.4269 1070 114.802 199.157 467.977
559 0 70.2488 17.68 1242 109.506 199.208 473.065
560 0 69.2994 12.4676 864 119.971 198.738 466.704
561 0 69.4814 11.6866 812 120.494 199.584 469.447
562 0 76.4414 14.8349 1134 112.942 198.8 468.994
563 0 79.2751 16.6887 1323 109.602 198.564 467.102
564 0 79.2095 16.6394 1318 108.468 199.092 471.245
565 0 85.682 15.4291 1322 108.604 197.486 473.033
566 0 85.2477 8.98558 766 118.432 197.655 472.347
567 0 89.4691 13.9601 1249 112.011 196.658 463.472
568 0 97.592 12.5625 1226 111.981 196.136 469.207
569 0 96.363 17.0294 1641 107.213 195.592 464.158
570 0 99.4297 14.201 1412 112.852 195.399 458.889
571 1 48.3002 11.9047 575 115.489 195.197 482.369
572 0 50.1588 15.6304 784 106.665 193.682 486.071
573 0 51.1639 13.8965 711 111.519 192.61 482.26
574 0 53.2338 10.576 563 119.236 191.266 485.313
575 0 54.159 12.5187 678 115.211 192.17 486.704
576 0 54.159 12.5741 681 142.871 192.201 486.752
577 0 55.1768 12.3603 682 114.957 190.01 481.004
578 0 55.176 11.8892 656 116.396 190.282 478.596
579 0 60.2229 13.2674 799 110.687 189.335 479.919
580 0 62.2393 13.5606 844 109.711 189.825 478.267
581 0 64.1434 13.9843 897 108.62 189.489 476.813
582 0 65.207 15.0291 980 108.341 189.043 470.967
583 0 69.3246 12.492 866 110.343 188.509 468.487
584 0 74.2522 12.7673 948 109.192 189.855 471.023
585 0 72.3675 8.02846 581 117.83 190.102 467.656
586 0 81.1565 16.3388 1326 104.103 190.028 468.173
587 0 80.2152 12.8031 1027 109.781 190.321 454.014
588 0 86.2189 14.7647 1273 106.599 191.718 453.068
589 0 86.2137 13.0606 1126 108.043 191.146 453.977
590 0 92.2494 10.515 970 109.89 191.87 459.192
591 1 46.0737 12.0242 554 100.608 191.377 474.222
592 0 49.2081 12.9857 639 99.7434 193.127 473.859
593 0 49.346 11.8753 586 104.188 192.797 476.908
594 0 52.1731 16.2728 849 97.8304 192.741 475.806
595 0 51.0696 10.006 511 106.082 194.1 478.671
596 1 114.556 14.4297 1653 107.187 194.09 449.688
597 1 57.1397 19.1285 1093 95.1217 196.228 474.508
598 0 61.5226 12.2231 752 102.074 197.116 479.233
599 0 60.1919 11.7125 705 102.509 196.692 480.986
600 0 64.1452 11.8169 758 104.371 197.766 471.31
601 0 64.2654 10.7367 690 105.919 199.472 474.404
602 0 67.0527 7.75509 520 109.908 198.571 470.842
603 0 70.4871 13.6904 965 102.763 198.052 478.105
604 0 73.3368 14.9857 1099 106.555 198.486 472.708
605 0 74.2453 14.6676 1089 107.758 198.579 472.999
606 0 76.1653 13.7989 1051 109.769 199.199 474.522
607 0 77.0875 11.3897 878 115.569 198.916 471.37
608 0 82.1697 16.4051 1348 105.122 198.552 480.109
609 0 82.3288 11.1626 919 115.054 198.166 477.155
610 0 86.1581 17.4911 1507 104.876 196.432 476.202
611 0 88.1482 14.9748 1320 109.592 196.249 472.469
612 0 93.429 17.5213 1637 105.308 196.488 474.361
613 0 93.0822 12.3654 1151 114.259 195.611 469.384
614 0 98.1948 12.9335 1270 112.741 194.61 470.115
615 1 50.1702 9.60729 482 110.84 193.432 492.131
616 0 50.2126 10.5551 530 105.838 193.753 478.996
617 0 51.086 11.4121 583 103.777 191.172 482.365
618 0 50.24 8.32006 418 109.995 191.184 478.244
619 0 54.2908 13.704 744 102.793 190.837 476.086
620 0 59.1889 10.7453 636 102.258 189.533 488.847
621 0 60.2136 13.7178 826 100.667 189.743 485.127
622 0 63.2785 10.8568 687 103.437 189.106 483.277
623 0 64.2567 11.3607 730 104.178 189.564 480.468
624 0 67.1657 13.1019 880 102.792 189.406 477.852
625 0 71.1028 16.8629 1199 102.817 188.654 476.39
626 0 70.1422 12.218 857 111.044 187.632 470.704
627 0 73.3526 8.91584 654 110.246 191.324 465.141
628 1 39.0771 9.46846 370 102.584 192.154 490.592
629 0 38.0975 10.3156 393 103.539 191.221 484.763
630 0 42.1204 11.206 472 102.684 192.9 484.54
631 0 42.0859 10.8587 457 102.63 192.009 483.895
632 0 44.0877 14.6072 644 98.8835 193.648 480.301
633 0 45.0484 10.4998 473 104.326 193.869 481.091
634 0 45.0241 10.9053 491 104.837 194.957 479.328
635 0 47.0965 13.5466 638 100.279 194.666 479.403
636 0 45.0644 10.363 467 106.495 196.927 478.72
637 0 49.0331 11.1557 547 104.282 196.205 477.013
638 0 50.0672 10.6457 533 104.443 197.358 477.045
639 0 49.0264 8.44443 414 107.13 197.841 480.466
640 0 52.0695 8.91118 464 106.362 198.836 477.787
641 0 57.1264 11.7634 672 102.585 198.372 477.289
642 0 55.089 9.16698 505 106.477 196.626 479.303
643 0 56.1159 8.25078 463 107.536 196.253 477.35
644 0 55.0703 6.10129 336 110.854 196.387 477.902
645 0 61.2893 12.2207 749 104.362 196.441 477.015
646 0 63.1051 12.4396 785 103.795 196.953 478.025
647 0 67.1639 12.1941 819 105.379 196.2 472.538
648 0 69.1387 13.4657 931 103.975 197.583 473.96
649 1 36.0495 7.73935 279 109.391 195.685 491.373
650 0 38.0196 10.8891 414 105.428 195.229 491.043
651 0 37.1578 8.10058 301 104.355 197.113 485.037
652 0 39.4046 9.89733 390 104.279 197.61 492.013
653 0 44.0184 13.1082 577 102.314 194.302 492.813
654 0 45.1269 11.0134 497 106.151 194.495 489.312
655 0 49.0414 14.6611 719 100.825 192.747 488.937
656 0 48.0812 12.2709 590 104.014 192.334 490.664
657 0 50.2586 12.4357 625 103.197 192.384 491.794
658 0 50.104 10.558 529 106.584 191.083 491.9
659 0 53.0293 14.1431 750 102.941 191.611 486.489
660 0 53.1036 11.148 592 108.544 190.356 487.226
661 0 56.0601 14.3953 807 103.076 189.278 487.03
662 0 55.0378 10.8289 596 109.789 188.443 485.391
663 0 58.2432 17.1179 997 99.681 189.246 486.276
664 0 60.1536 12.2354 736 107.31 188.606 482.935
665 0 61.0872 12.5067 764 107.27 188.643 481.825
666 0 65.1097 14.4065 938 102.681 188.47 483.385
667 0 65.2613 13.5915 887 106.683 188.38 476.034
668 0 68.2822 11.8918 812 109.631 187.687 473.629
669 0 70.1391 12.019 843 108.813 187.853 475.65
670 0 74.1948 14.8124 1099 104.427 190.037 472.925
671 1 39.206 12.0135 471 104.278 188.467 487.692
672 0 40.3428 14.1289 570 100.037 189.332 488.046
673 0 39.1399 10.1175 396 110.851 190.639 482.129
674 0 45.4104 16.7362 760 99.7079 190.024 482.438
675 0 43.0994 7.16947 309 106.919 193.317 484.032
676 0 44.0261 7.94983 350 105.82 194.663 487.88
677 0 45.0386 13.4329 605 102.344 195.851 480.36
678 0 44.1364 10.4449 461 105.777 194.74 484.779
679 0 47.1624 10.8349 511 104.992 195.511 484.583
680 0 48.0528 10.2387 492 105.112 195.453 483.943
681 0 54.0923 12.4232 672 103.344 196.966 480.988
682 0 51.055 16.4528 840 99.2607 196.43 476.915
683 0 54.3067 13.792 749 102.932 196.493 479.114
684 0 53.2792 14.9214 795 102.806 196.925 479.794
685 0 55.0603 13.1492 724 104.239 197.713 482.311
686 0 58.1612 15.4914 901 100.875 197.388 478.729
687 0 60.1127 11.0293 663 107.896 197.52 477.968
688 0 61.108 12.7152 777 105.749 197.559 480.324
689 0 62.1475 10.2659 638 108.462 197.759 482.864
690 0 64.1466 14.2018 911 103.542 198.003 483.604
691 0 65.2378 13.4738 879 105.473 197.216 481.195
692 0 69.1848 10.4647 724 111.858 196.959 482.431
693 0 73.0485 12.7997 935 108.997 196.397 478.738
694 0 77.1078 14.2009 1095 105.461 197.077 477.855
695 0 79.1012 12.3007 973 108.512 196.639 477.169
696 0 81.2633 11.8873 966 110.352 196.932 476.348
697 0 84.7007 12.857 1089 108.579 195.904 477.821
698 1 41.3702 10.684 442 111.149 195.928 494.075
699 0 44.1945 12.2187 540 107.946 194.928 492.352
700 0 46.1309 12.6813 585 107.889 193.841 491.73
701 0 46.0468 10.6414 490 107.651 191.359 493.931
702 0 48.0387 12.5107 601 106.008 191.581 491.085
703 0 51.0376 13.6174 695 104.058 191.852 490.094
704 0 52.0477 12.4885 650 106.535 191.231 489.568
705 0 52.1149 13.2592 691 106.252 190.547 489.59
706 0 52.1139 13.1251 684 125.917 190.512 489.582
707 0 55.1034 14.6452 807 105.4 190.273 484.442
708 0 55.114 14.2251 784 105.555 189.036 485.944
709 0 57.1569 10.0775 576 109.083 188.474 487.214
710 0 60.1281 12.9557 779 105.567 190.231 483.911
711 0 61.198 15.4907 948 103.016 189.469 478.034
712 0 65.1518 11.8646 773 107.369 190.276 479.283
713 0 67.131 11.9021 799 107.043 188.695 478.073
714 0 67.131 11.9915 805 126.824 187.716 478.103
715 0 74.2717 19.5633 1453 101.435 189.262 471.374
716 0 76.1485 14.1172 1075 109.703 190.74 469.239
717 0 77.1103 13.552 1045 110.77 190.324 469.75
718 1 42.0741 7.17781 302 113.868 190.801 487.944
719 0 49.2862 14.5477 717 102.114 189.601 486.891
720 0 46.0224 12.8416 591 108.029 191.971 484.756
721 0 47.1187 10.6539 502 112.155 193.153 480.982
722 0 51.0992 11.4679 586 109.249 192.778 484.217
723 0 51.0506 11.6355 594 111.232 193.242 481.227
724 0 54.2047 12.9325 701 109.347 193.779 476.964
725 0 52.091 12.5933 656 111.271 194.043 478.456
726 0 56.2355 14.6527 824 107.29 194.57 479.601
727 0 56.1613 12.1614 683 112.867 197.133 478.985
728 0 60.0781 13.4159 806 110.45 196.154 476.818
729 0 62.0846 14.1098 876 109.974 198.039 478.092
730 0 66.099 13.2075 873 110.005 197.181 479.252
731 0 66.1918 13.9141 921 109.701 197.881 481.413
732 0 67.2474 13.0414 877 112.449 198.092 477.746
733 0 72.223 14.8845 1075 108.86 198.619 478.217
734 0 73.1527 13.8067 1010 110.642 197.885 477.862
735 0 74.1916 12.5082 928 113.514 196.49 478.982
736 0 75.0885 11.8394 889 115.402 197.479 477.807
737 0 82.1219 14.6733 1205 111.257 195.996 475.368
738 0 84.1497 13.0244 1096 114.417 196.478 474.364
739 0 87.1705 13.7661 1200 111.579 196.052 475.412
740 0 88.0889 13.9405 1228 113.144 196.202 470.723
741 0 94.1685 16.1625 1522 109.024 195.039 468.539
742 0 96.2406 13.2584 1276 112.511 196.202 473.314
743 1 51.0987 11.2136 573 110.501 194.59 490.311
744 0 50.228 12.7618 641 109.331 194.02 488.028
745 0 53.2401 11.758 626 108.171 193.366 488.32
746 0 54.1126 10.4227 564 115.259 193.486 489.014
747 0 54.0838 11.9629 647 113.207 191.98 486.544
748 0 58.1191 10.8914 633 114.068 192.605 484.112
749 0 60.113 11.4617 689 113.882 191.383 483.36
750 0 63.0598 16.8887 1065 104.165 191.104 483.33
751 0 65.1066 15.2673 994 106.902 190.435 480.601
752 0 67.0922 13.3249 894 110.607 190.987 473.078
753 0 72.2216 17.0309 1230 103.972 190.449 479.286
754 0 73.087 14.4759 1058 109.75 190.716 472.39
755 0 73.1292 12.9497 947 112.307 191.064 475.685
756 0 75.1056 13.9803 1050 112.806 191.25 467.423
757 0 78.119 13.3642 1044 112.11 191.58 470.825
758 0 83.2216 15.9454 1327 108.372 192.431 466.253
759 0 86.1499 14.9971 1292 109.604 192.725 462.2
760 0 90.2843 13.8119 1247 110.713 193.034 463.439
761 0 91.2085 12.4988 1140 113.256 194.294 459.515
762 0 96.3146 15.6778 1510 107.838 193.61 456.732
763 1 49.2262 12.8184 631 106.471 196.997 476.388
764 0 50.1485 14.0184 703 106.151 196.711 471.627
765 0 53.0607 13.7955 732 110.265 198.426 477.324
766 0 52.0493 11.7773 613 114.117 198.922 476.282
767 0 56.0479 11.9719 671 112.334 199.951 476.055
768 0 58.1023 15.1457 880 107.265 199.805 475.55
769 0 60.0983 15.0919 907 107.771 200.183 474.679
770 0 59.1116 11.8589 701 113.308 201.305 476.735
771 0 65.2308 13.8278 902 108.057 201.686 476.396
772 0 66.2222 14.8893 986 107.264 200.644 472.974
773 0 69.0899 14.1121 975 107.88 201.735 474.794
774 0 75.3216 18.0825 1362 102.095 198.466 475.331
775 0 72.2646 14.862 1074 103.579 200.962 472.219
776 0 72.4392 9.18011 665 108.165 200.8 469.666
777 0 74.2492 12.6197 937 109.212 199.184 472.866
778 0 77.1314 14.0669 1085 107.536 198.774 473.61
779 0 81.3046 12.9513 1053 109.697 198.981 470.491
780 0 85.2049 13.2739 1131 113.636 197.835 472.217
781 0 90.2676 13.7369 1240 113.422 196.623 469.93
782 0 88.2134 11.903 1050 116.301 196.541 473.315
783 0 90.2387 11.2147 1012 118.314 196.424 469.025
784 0 94.2063 15.1688 1429 111.493 197.674 466.796
785 0 98.0914 16.0055 1570 108.697 194.596 465.165
786 0 100.272 15.7173 1576 109.001 192.886 465.137
787 0 103.258 14.3039 1477 111.532 193.929 462.478
788 0 105.365 13.2682 1398 113.112 192.99 460.203
789 0 105.289 11.8911 1252 115.246 193.21 455.078
790 0 113.357 15.3762 1743 106.738 192.313 461.867
791 0 119.496 13.6825 1635 109.969 193.898 453.802
792 0 119.418 13.4821 1610 110.696 192.425 450.466
793 1 65.1738 13.7785 898 108.232 194.316 476.807
794 0 66.1501 11.5948 767 113.429 192.673 476.383
795 0 72.1322 12.8653 928 111.623 191.038 473.986
796 0 74.2557 17.3724 1290 103.971 191.783 475.836
797 0 74.1928 12.7506 946 114.299 192.735 469.945
798 0 77.4596 12.613 977 114.131 191.458 466.976
799 0 78.1983 13.1972 1032 114.105 192.039 461.511
800 0 81.1805 12.0349 977 114.381 191.128 467.436
801 0 87.5255 14.6814 1285 110.85 192.668 459.097
802 0 88.3813 13.6794 1209 113.429 192.279 456.771
803 0 91.4296 14.0545 1285 113.045 193.087 454.094
804 0 94.4515 15.7859 1491 110.316 193.1 454.292
805 0 98.3982 13.8316 1361 114.301 194.611 449.883
806 0 102.505 15.2969 1568 111.228 195.324 453.539
807 0 104.378 11.6883 1220 113.378 194.587 450.511
808 1 56.1381 13.3243 748 109.881 197.432 472.059
809 0 57.366 13.6143 781 108.265 197.557 471.169
810 0 58.2609 11.9119 694 108.692 196.764 476.006
811 0 58.381 11.0824 647 110.09 198.645 471.713
812 0 65.16 13.1676 858 108.01 198.252 470.126
813 0 66.2275 13.5291 896 107.346 197.975 469.31
814 0 67.2763 13.3925 901 106.364 198.652 474.726
815 0 69.1159 13.2097 913 108.698 198.348 471.528
816 0 72.0947 14.0232 1011 104.617 199.566 475.431
817 0 73.0556 13.0175 951 106.448 198.31 474.375
818 0 76.2405 13.641 1040 106.55 198.236 470.527
819 0 78.4994 12.8409 1008 110.112 198.293 464.561
820 0 82.1831 14.1392 1162 107.848 199.45 468.409
821 0 85.1147 14.9093 1269 106.095 199.444 467.887
822 0 84.3388 11.2167 946 112.873 198.871 464.498
823 0 90.3616 18.9572 1713 100.071 198.246 471.014
824 0 94.3646 12.8756 1215 109.687 199.589 466.722
825 1 48.2166 10.1832 491 108.149 198.77 485.741
826 0 51.2692 12.6782 650 104.017 197.555 481.152
827 0 52.0625 15.1741 790 102.984 195.481 480.485
828 0 51.0204 11.1524 569 109.949 195.75 479.367
829 0 50.1327 9.51475 477 112.895 194.57 477.394
830 0 55.0418 18.5132 1019 99.5653 194.128 479.631
831 0 56.1693 12.5513 705 108.735 193.851 477.133
832 0 57.0766 14.4543 825 105.195 193.971 475.622
833 0 60.057 13.9201 836 106.362 192.946 473.176
834 0 61.307 13.1306 805 104.942 193.118 475.902
835 0 61.4421 14.5503 894 104.23 192.803 470.076
836 0 65.1642 12.3994 808 105.573 193.245 473.88
837 0 68.508 13.6918 938 104.372 193.014 468.36
838 0 69.3613 14.6624 1017 103.515 192.939 466.679
839 0 70.3306 14.0195 986 104.747 192.784 460.796
840 0 74.3056 15.1267 1124 102.184 191.35 465.003
841 0 78.4495 14.8248 1163 102.373 192.181 463.884
842 0 77.2489 14.4468 1116 103.593 192.612 456.642
843 0 79.1897 13.7139 1086 104.225 193.242 460.148
844 0 85.5953 16.3093 1396 100.763 193.231 456.039
845 0 87.4832 16.586 1451 100.469 193.536 455.034
846 0 89.3127 14.6116 1305 103.401 195.015 451.151
847 0 93.2176 16.617 1549 100.699 195.167 446.613
848 0 97.1811 15.5071 1507 102.2 196.062 446.307
849 1 51.1521 8.42585 431 107.529 196.281 466.62
850 0 54.4573 15.3331 835 102.028 196.874 472.399
851 0 54.3641 10.117 550 110.225 196.929 470.967
852 0 55.1226 15.8374 873 102 198.135 473.269
853 0 59.1195 23.4102 1384 91.1098 196.786 478.022
854 0 60.2078 15.5296 935 103.037 198.662 472.064
855 0 62.1927 10.9659 682 109.566 198.174 472.383
856 0 65.1897 15.2938 997 104.256 198.86 469.434
857 0 66.173 14.7946 979 106.122 199.673 469.257
858 0 68.1727 15.9008 1084 105.833 200.787 469.346
859 0 70.2653 14.6587 1030 109.235 200.915 469.4
860 0 73.5114 17.1266 1259 106.361 200.938 468.707
861 0 75.3581 15.2472 1149 109.292 200.214 467.134
862 0 77.7156 15.9427 1239 107.715 199.868 463.257
863 0 80.3732 16.1994 1302 107.744 200.904 467.56
864 0 82.156 14.2047 1167 110.478 199.689 470.327
865 0 84.4231 15.6 1317 110.263 198.876 465.72
866 0 88.6102 14.1406 1253 112.65 199.901 463.995
867 0 92.4377 19.3644 1790 104.692 198.957 465.95
868 1 48.132 10.7621 518 115.143 199.295 482.398
869 0 51.1898 12.0337 616 112.651 198.547 484.55
870 0 54.2696 11.0191 598 112.085 199.075 486.505
871 0 56.2468 15.5031 872 107.986 198.608 484.172
872 0 56.2655 13.0275 733 114.993 196.936 479.7
873 0 59.349 12.199 724 114.624 195.837 481.236
874 0 59.2163 12.1419 719 116.947 195.693 479.16
875 0 63.38 16.1092 1021 109.812 195.121 476.753
876 0 66.3304 13.7946 915 113.902 194.793 472.179
877 0 67.2268 16.422 1104 109.872 194.772 473.015
878 0 71.206 14.7038 1047 112.328 194.651 468.725
879 0 73.4409 14.27 1048 112.674 194.032 469.546
880 0 74.2503 13.4949 1002 114.366 194.146 467.62
881 0 77.2234 15.2026 1174 111.304 193.562 466.695
882 0 80.3388 15.1359 1216 112.418 194.169 465.724
883 0 79.1295 12.6628 1002 116.692 193.133 458.083
884 0 85.3044 15.134 1291 111.413 193.593 462.421
885 0 88.2219 13.8741 1224 114.792 193.675 457.939
886 0 90.2015 13.7248 1238 115.88 194.891 455.364
887 0 92.5339 11.1419 1031 119.957 195.356 454.251
888 0 97.3752 16.7702 1633 111.385 195.631 452.442
889 0 99.1672 14.9041 1478 115.361 196.235 447.751
890 0 103.238 17.9875 1857 115.485 194.114 448.073
891 0 104.345 13.8867 1449 124.342 194.449 448.231
892 0 106.292 15.9466 1695 120.956 196.733 443.797
893 0 111.364 16.4146 1828 119.187 196.73 443.708
894 0 117.682 15.2444 1794 119.344 197.937 442.848
895 0 121.521 14.6805 1784 121.268 198.573 438.279
896 1 67.1978 11.4587 770 122.318 198.674 461.725
897 0 72.225 13.3056 961 118.795 198.873 459.107
898 0 74.1681 14.8177 1099 113.66 199.585 467.868
899 0 74.1568 16.101 1194 115.292 199.513 466.141
900 0 79.0644 15.6708 1239 116.683 199.979 468.499
901 0 81.1219 15.2117 1234 118.791 199.28 465.661
902 0 87.0888 16.8104 1464 114.804 201.024 465.021
903 0 93.3704 13.2376 1236 122.774 201.734 464.498
904 0 93.4639 13.0425 1219 122.623 202.259 464.583
905 0 95.465 13.7433 1312 120.664 200.963 464.215
906 0 99.4936 14.413 1434 118.324 200.475 462.482
907 0 100.234 13.7678 1380 120.216 200.241 459.246
908 0 104.294 15.907 1659 116.549 199.987 465.028
909 0 108.253 13.3668 1447 121.857 200.319 459.28
910 1 55.4956 11.6766 648 114.818 199.415 487.627
911 0 57.3042 12.0061 688 114.616 198.891 482.615
912 0 58.5044 18.1012 1059 105.429 197.777 487.263
913 0 58.2054 12.2497 713 117.743 198.049 485.028
914 0 63.2808 12.6579 801 114.419 197.126 488.999
915 0 64.3506 12.7427 820 116.35 195.799 482.706
916 0 64.612 10.8029 698 119.289 196.003 481.016
917 0 68.3324 12.4831 853 115.294 194.608 480.233
918 0 72.2094 16.2306 1172 110.131 193.597 479.561
919 0 74.2537 12.9421 961 114.915 195.204 478.814
920 0 79.225 16.7498 1327 107.592 193.6 480.664
921 0 81.4484 13.2845 1082 117.066 195.39 474.832
922 0 83.1398 14.1088 1173 116.498 193.199 468.489
923 0 86.2456 12.8586 1109 118.343 193.247 471.606
924 1 44.2634 13.8037 611 110.975 192.63 487.198
925 0 48.2775 12.656 611 113.484 192.99 487.322
926 0 47.2323 12.4703 589 116.458 192.114 485.051
927 0 50.2359 15.0291 755 111.69 192.595 483.738
928 0 50.3195 12.3014 619 118.467 192.572 485.362
929 0 53.2619 19.7702 1053 105.098 193.444 485.917
930 0 53.0652 15.5846 827 112.48 193.158 479.726
931 0 53.1125 13.3302 708 116.336 194.024 477.846
932 0 58.1217 14.9858 871 112.529 193.404 477.263
933 0 58.1382 12.4187 722 116.536 194.622 476.676
934 0 61.1594 15.6967 960 109.628 194.232 476.202
935 0 62.1229 11.6382 723 113.599 195.477 479.357
936 0 63.1931 14.0205 886 114.107 196.16 471.885
937 0 67.3033 16.3291 1099 111.45 197.005 467.865
938 0 68.0841 12.4552 848 118.375 196.842 472.358
939 0 72.2358 14.605 1055 117.671 198.345 473.628
940 0 72.1997 14.2383 1028 121.508 197.41 469.65
941 0 76.1532 16.0335 1221 118.244 198.019 467.449
942 0 79.2074 13.2311 1048 123.473 199.478 468.721
943 0 82.265 15.7175 1293 119.148 199.87 466.831
944 0 83.2257 15.7043 1307 118.953 199.891 468.119
945 0 87.2569 16.0217 1398 119.265 200.881 464.875
946 0 89.3451 14.2817 1276 123.35 200.142 464.281
947 1 44.0337 11.4231 503 121.437 201.487 488.348
948 0 49.1909 14.5962 718 113.896 202.287 487.013
949 0 49.12 12.5611 617 115.366 201.882 492.023
950 0 50.1324 13.0255 653 115.381 201.675 491.761
951 0 53.2687 18.0406 961 106.689 201.112 489.508
952 0 53.1148 12.8589 683 115.038 202.037 486.584
953 0 53.0256 17.4444 925 108.939 200.125 486.2
954 0 56.1456 15.6201 877 112.21 200.446 484.984
955 0 58.1079 13.6642 794 115.485 200.005 488.62
956 0 61.1977 16.4385 1006 109.95 198.866 483.957
957 0 62.0945 12.4005 770 116.686 198.209 486.344
958 0 64.1471 15.6671 1005 112.058 196.866 487.913
959 0 68.2461 13.8616 946 113.986 195.969 483.118
960 0 69.214 12.9454 896 115.59 193.936 481.751
961 0 69.1757 10.7841 746 120.69 193.894 481.206
962 0 72.0931 14.4119 1039 114.469 192.241 477.358
963 0 75.0805 12.3201 925 117.165 194.328 476.472
964 0 79.1842 13.9422 1104 113.976 192.776 474.426
965 0 82.3268 16.7625 1380 109.751 192.42 470.491
966 0 86.2142 20.3447 1754 104.125 192.723 472.876
967 0 87.2102 14.4708 1262 114.855 193.594 469.746
968 0 89.1233 13.9245 1241 115.609 193.095 469.114
969 1 45.0664 12.6258 569 114.084 192.401 487.436
970 0 43.0372 10.8278 466 117.682 191.989 483.717
971 0 48.2469 13.348 644 116.458 193.441 491.5
972 0 50.2374 13.5158 679 112.243 192.103 483.616
973 0 49.0283 12.8293 629 115.544 193.727 482.99
974 0 51.1326 12.4383 636 118.241 193.248 480.972
975 0 52.1105 11.8978 620 118.473 194.629 479.581
976 0 54.1289 15.0012 812 114.966 194.501 480.884
977 0 57.0924 14.3276 818 115.315 195.807 475.115
978 0 58.1204 12.8354 746 116.126 196.143 477.295
979 0 62.2086 14.0817 876 113.555 197.123 473.524
980 0 62.097 15.0893 937 111.902 197.316 469.911
981 0 66.1423 13.7733 911 113.434 198.498 471.043
982 0 71.3062 16.8148 1199 107.505 198.219 470.536
983 0 73.3459 17.0698 1252 108.348 198.655 470.588
984 0 73.1711 13.4206 982 116.172 199.446 465.746
985 0 76.3028 15.8055 1206 112.251 199.968 467.263
986 0 76.1164 10.5496 803 118.427 200.808 469.635
987 0 80.1648 13.1604 1055 116.348 200.909 466.641
988 0 85.2279 15.5114 1322 111.077 199.617 466.272
989 1 42.051 11.272 474 116.871 200.245 487.669
990 0 47.5304 13.1495 625 115.515 202.733 486.622
991 0 50.0646 12.8234 642 116.279 201.774 488.299
992 0 49.1824 10.8779 535 115.72 201.138 487.196
993 0 49.15 11.353 558 118.871 200.763 485.41
994 0 50.1379 9.7132 487 118.875 201.193 490.602
995 0 52.1701 11.405 595 116.212 201.514 486.299
996 0 56.1237 11.4746 644 119.185 198.755 485.534
997 0 60.0878 14.8616 893 111.087 198.301 484.582
998 0 62.2091 13.1331 817 114.925 199.277 484.923
999 0 61.3067 13.4732 826 117.902 198.969 484.323
1000 0 64.1295 12.007 770 119.448 197.557 485.865
1001 0 66.5593 13.4617 896 116.692 195.508 480.876
1002 0 67.1986 12.9021 867 118.051 196.211 482.337
1003 0 70.1302 12.9473 908 117.463 195.72 480.555
1004 0 74.3244 13.616 1012 114.819 194.651 479.873
1005 0 77.2891 14.284 1104 114.9 193.821 477.829
1006 0 79.3151 13.2383 1050 115.548 194.421 476.671
1007 0 79.3044 11.1343 883 120.214 194.181 472.335
1008 0 85.1459 13.3418 1136 115.382 193.56 473.447
1009 1 38.083 12.5253 477 116.034 192.122 491.166
1010 0 44.05 13.2577 584 112.849 192.911 490.63
1011 0 41.2835 11.2636 465 118.815 193.501 489.983
1012 0 43.0758 10.052 433 120.94 191.915 486.852
1013 0 46.1847 11.5839 535 118.477 191.359 486.839
1014 0 50.13 14.4824 726 112.899 191.039 485.393
1015 0 50.4008 13.2934 670 116.99 192.712 483.451
1016 0 51.1562 12.2957 629 118.329 193.781 482.223
1017 0 52.2322 14.7993 773 111.943 193.891 483.386
1018 0 56.2854 15.2437 858 112.467 194.164 477.777
1019 0 57.1607 14.1881 811 114.54 194.978 476.06
1020 0 60.0927 13.8453 832 113.266 195.663 477.264
1021 0 61.197 13.9386 853 114.852 196.326 469.848
1022 0 64.3643 17.0436 1097 109.666 196.333 469.696
1023 0 66.2594 13.5075 895 115.301 196.464 470.569
1024 0 68.3009 16.2809 1112 111.627 198.035 470.609
1025 0 71.1887 15.0726 1073 113.938 198.692 464.166
1026 0 72.2666 12.4816 902 117.41 198.872 466.37
1027 0 79.4032 14.7223 1169 113.175 199.148 466.64
1028 0 78.3015 16.6919 1307 111.151 199.944 465.751
1029 0 83.7154 14.1551 1185 113.981 200.322 463.532
1030 0 84.569 15.4903 1310 113.616 202.002 461.487
1031 0 89.2169 13.6857 1221 115.637 202.009 463.372
1032 1 41.3521 14.0501 581 112.793 201.27 486.157
1033 0 45.422 15.301 695 111.386 201.013 485.157
1034 0 46.3153 14.207 658 119.071 201.608 481.684
1035 0 48.158 15.4492 744 114.981 201.679 488.261
1036 0 50.1214 13.8464 694 119.254 201.401 486.209
1037 0 50.3927 13.1368 662 121.766 199.577 487.885
1038 0 52.2575 17.6243 921 113.921 200.329 489.552
1039 0 53.1157 13.7247 729 119.775 199.479 488.823
1040 0 56.161 14.0489 789 121.324 198.989 489.044
1041 0 58.0568 14.5892 847 118.49 200.502 489.211
1042 0 59.112 12.4848 738 124.618 199.26 487.981
1043 0 60.1468 15.8778 955 120.553 198.162 486.501
1044 0 62.1674 12.7559 793 125.922 197.475 485.241
1045 0 65.0905 15.9163 1036 120.094 196.159 484.114
1046 0 69.2184 13.7969 955 123.279 195.64 483.771
1047 0 77.3612 17.9806 1391 111.331 195.735 475.791
1048 0 84.2967 18.1502 1530 109.324 194.737 479.28
1049 0 83.3199 22.4196 1868 105.21 193.738 472.624
1050 1 130.619 13.9873 1827 118.221 193.785 455.377
1051 1 85.605 19.5082 1670 109.992 192.286 472.638
1052 0 86.1345 17.345 1494 114.072 193.793 470.955
1053 0 84.2053 13.7996 1162 122.307 192.948 470.327
1054 1 43.2252 14.8293 641 114.816 193.198 492.041
1055 0 41.2581 13.2823 548 118.182 194.038 493.505
1056 0 46.1322 16.2143 748 112.574 193.837 490.156
1057 0 47.3285 17.1355 811 114.268 192.98 485.509
1058 0 48.4402 13.7489 666 121.886 193.39 479.782
1059 0 49.2396 14.1959 699 121.029 193.904 478.687
1060 0 57.1978 17.5007 1001 110.862 194.504 478.368
1061 0 55.4799 15.9517 885 115.637 195.594 479.791
1062 0 56.2884 16.5398 931 115.719 196.079 477.948
1063 0 58.1796 12.9943 756 121.022 196.144 478.09
1064 0 62.3623 15.4901 966 116.288 195.76 474.137
1065 0 62.1862 15.7591 980 117.067 195.702 470.366
1066 0 66.2935 19.4589 1290 109.61 196.402 471.453
1067 0 67.3461 12.6065 849 121.122 197.989 470.007
1068 0 69.2713 15.7497 1091 113.943 197.849 471.962
1069 0 73.234 14.9384 1094 117.412 199.765 468.826
1070 0 76.5015 16.0912 1231 115.091 199.882 469.032
1071 0 79.3132 15.7477 1249 115.42 200.145 465.927
1072 1 40.1688 12.4724 501 118.495 201.487 485.311
1073 0 44.6246 13.9833 624 116.261 201.965 487.915
1074 0 42.213 11.9395 504 126.127 202.157 487.784
1075 0 47.3916 15.1715 719 120.44 202.857 484.905
1076 0 45.3761 12.2091 554 128.298 201.966 485.083
1077 0 48.1618 13.0394 628 126.336 200.818 484.71
1078 0 48.1618 13.0394 628 148.164 199.807 484.645
1079 0 51.244 13.3284 683 126.829 200.832 486.687
1080 0 57.4178 14.7864 849 121.821 201.718 487.863
1081 0 56.3331 15.2841 861 124.116 199.814 486.994
1082 0 59.262 16.2161 961 121.119 200.884 487.737
1083 0 61.3094 14.3861 882 124.689 198.968 481.872
1084 0 61.3043 13.1312 805 128.365 199.701 486.92
1085 0 67.5133 17.167 1159 119.224 199.093 486.752
1086 0 67.2219 13.8348 930 128.099 198.472 486.542
1087 0 69.4926 16.2175 1127 123.145 196.9 482.717
1088 0 72.2952 13.0714 945 128.504 198.032 485.895
1089 0 73.6209 15.118 1113 125.211 195.889 481.049
1090 0 77.438 14.5407 1126 127.451 195.447 480.711
1091 0 80.386 16.7566 1347 123.558 194.748 474.289
1092 0 82.2759 15.6425 1287 125.224 193.713 476.191
1093 0 86.507 13.9411 1206 128.834 192.993 473.211
1094 0 89.4587 17.4382 1560 121.812 192.396 471.806
1095 1 45.1923 11.8604 536 129.545 193.808 494.746
1096 0 41.207 10.8719 448 134.609 194.067 492.525
1097 0 41.2057 12.0857 498 133.745 193.016 489.532
1098 0 46.0699 12.3508 569 130.84 193.225 490.069
1099 0 48.0983 13.2229 636 128.462 193.137 488.307
1100 0 51.3545 14.2149 730 125.766 194.597 487.058
1101 0 53.1501 14.0922 749 125.694 193.7 485.199
1102 0 51.2806 11.5638 593 132.352 194.482 480.663
1103 0 55.0929 14.1942 782 126.568 195.001 481.444
1104 0 58.3152 14.3702 838 125.502 193.663 481.223
1105 0 57.1682 12.6469 723 130.972 195.526 478.721
1106 0 61.4212 16.5415 1016 123.366 194.58 475.617
1107 0 61.1504 14.358 878 129.869 196.015 475.095
1108 0 62.1746 14.604 908 129.521 195.193 476.458
1109 0 64.2544 14.9562 961 129.503 197.265 474.88
1110 0 63.1868 13.7529 869 135.035 197.922 474.47
1111 0 69.1518 16.1673 1118 128.39 198.148 471.119
1112 0 70.1872 14.5468 1021 134.25 197.972 468.949
1113 0 72.2092 14.8596 1073 133.987 198.484 467.264
1114 0 74.2932 14.4966 1077 135.626 198.086 467.904
1115 0 76.5326 15.9017 1217 132.246 199.274 467.645
1116 0 80.3374 15.3478 1233 131.377 199.647 472.024
1117 0 78.1932 16.958 1326 132.784 199.993 466.251
1118 0 81.23 14.7236 1196 137.063 198.495 469.146
1119 0 86.3604 16.628 1436 132.148 199.255 469.299
1120 0 88.3187 16.3725 1446 134.516 199.839 464.008
1121 0 91.2826 14.4387 1318 138.056 198.984 466.131
1122 0 95.2653 15.924 1517 134.751 199.632 464.742
1123 0 99.3368 15.7444 1564 134.264 199.597 465.356
1124 0 101.497 16.03 1627 134.219 198.299 460.212
1125 1 53.1631 11.4365 608 135.173 199.612 488.53
1126 0 55.053 10.499 578 138.284 198.905 486.495
1127 0 56.2917 9.30865 524 139.445 198.298 484.66
1128 0 59.2085 12.7515 755 132.457 197.331 482.536
1129 0 58.1836 9.53877 555 137.813 196.132 476.784
1130 0 57.3583 9.51911 546 139.258 194.822 475.044
1131 0 64.207 12.6466 812 130.527 193.631 476.076
1132 0 65.2085 12.6977 828 132.364 194.117 474.021
1133 0 70.1579 11.0893 778 133.094 192.492 475.359
1134 0 71.2654 11.0011 784 135.611 193.843 475.866
1135 0 76.116 13.7422 1046 131.819 193.08 476.764
1136 0 78.076 13.1282 1025 132.567 192.509 474.15
1137 0 80.0615 13.5646 1086 130.707 191.809 472.76
1138 0 84.134 11.8501 997 136.26 191.886 471.876
1139 0 86.1144 12.9827 1118 134.071 190.751 469.798
1140 1 52.0493 12.7956 666 120.039 191.326 489.632
1141 0 52.1248 9.3046 485 126.367 189.59 488.755
1142 0 52.1129 9.51779 496 128.234 190.996 484.673
1143 0 54.0628 11.3757 615 120.748 190.966 485.886
1144 0 57.0949 12.7857 730 119.459 191.347 484.6
1145 0 60.0905 14.2285 855 115.05 191.402 481.301
1146 0 59.0238 11.4022 673 119.651 192.089 480.052
1147 0 62.1929 12.8471 799 117.656 192.715 476.703
1148 0 64.1238 12.3667 793 118.148 193.358 476.116
1149 0 65.1507 13.0927 853 115.743 192.135 473.639
1150 0 70.0621 11.5754 811 116.905 193.324 470.252
1151 0 72.0683 11.4891 828 117.762 193.656 468.126
1152 0 73.1223 12.9509 947 115.504 194.389 465.017
1153 1 41.0833 10.0771 414 116.592 195.966 484.65
1154 0 40.0939 10.226 410 117.39 195.454 484.868
1155 0 43.0641 9.77612 421 119.734 197.952 483.238
1156 0 44.0936 10.7045 472 110.695 196.667 484.807
1157 0 46.0679 8.83478 407 113.504 196.418 485.093
1158 0 46.1154 10.6906 493 112.27 197.223 484.572
1159 0 49.0626 11.9643 587 109.509 198.407 484.303
1160 0 53.2123 13.0421 694 108.869 199.656 485.027
1161 0 52.301 12.3133 644 111.793 198.775 484.137
1162 0 53.1344 12.346 656 120.886 199.695 479.982
1163 0 53.1788 9.2706 493 127.548 199.002 484.006
1164 0 53.1902 8.59181 457 127.716 200.792 486.856
1165 0 57.144 13.3872 765 120.239 200.056 484.714
1166 0 57.1776 10.8784 622 123.998 199.293 487.199
1167 0 60.0829 9.15401 550 127.504 198.982 485.718
1168 0 60.1233 11.7425 706 124.475 198.466 481.633
1169 0 64.1127 9.82644 630 125.217 198.349 487.075
1170 0 67.2181 9.64026 648 122.674 198.454 488.711
1171 0 68.1819 12.5253 854 119.867 196.122 482.752
1172 0 73.2514 9.16024 671 123.301 196.967 480.203
1173 0 72.1529 10.9212 788 120.656 195.497 480.442
1174 0 79.1687 12.2523 970 116.223 193.316 482.542
1175 1 144.464 10.487 1515 124.952 193.995 450.696
1176 0 148.218 9.43207 1398 127.634 193.979 439.146
1177 0 151.385 8.2373 1247 125.513 192.739 454.208
1178 0 159.471 9.48763 1513 124.957 192.456 440.53
1179 1 42.0751 9.19784 387 110.251 193.974 490.747
1180 0 44.0207 6.81497 300 113.737 193.337 493.027
1181 0 48.1194 11.2221 540 106.328 192.352 493.972
1182 0 49.1936 14.4937 713 101.797 191.341 487.874
1183 0 49.0876 7.45606 366 111.872 191.224 487.197
1184 0 52.0492 8.93386 465 109.841 191.181 486.258
1185 0 53.0321 10.9556 581 109.78 189.762 484.528
1186 0 57.0373 9.16944 523 109.916 190.558 487.75
1187 0 58.2105 12.1628 708 106.806 189.658 483.703
1188 0 60.3556 12.9897 784 106.349 190.083 477.851
1189 0 64.2636 11.4061 733 108.505 192.18 481.644
1190 0 63.6104 12.2936 782 109.797 191.719 478.214
1191 0 62.1988 11.7526 731 113.189 191.142 474.944
1192 0 64.0832 12.078 774 115.049 192.61 473.438
1193 0 66.2244 11.0533 732 117.388 192.534 472.611
1194 0 67.2994 14.3983 969 113.3 193.272 466.963
1195 1 144.464 10.9439 1581 124.634 195.576 439.219
1196 1 73.1968 13.8667 1015 115.467 194.528 466.931
1197 0 77.224 11.8486 915 119.009 195.144 469.443
1198 0 80.2359 11.516 924 119.051 195.753 470.477
1199 0 84.3756 13.1436 1109 119.179 195.617 464.691
1200 0 84.2947 13.0376 1099 120.275 197.575 465.375
1201 0 86.2464 11.9309 1029 123.921 198.084 459.08
1202 0 90.5788 12.1662 1102 122.684 198.786 461.485
1203 1 49.1683 11.4301 562 119.71 197.98 484.407
1204 0 46.2414 9.8613 456 123.257 201.232 480.349
1205 0 49.2223 8.41083 414 117.843 201.899 484.986
1206 0 53.1652 12.4141 660 120.742 199.145 483.183
1207 0 56.317 17.2772 973 107.987 199.977 488.106
1208 0 56.317 17.3482 977 127.814 200.977 488.047
1209 0 57.179 12.5396 717 122.856 199.176 483.629
1210 0 59.2346 14.3328 849 118.304 197.88 488.073
1211 0 60.1168 12.0765 726 123.501 198.508 486.382
1212 0 64.1 16.8175 1078 113.831 198.101 487.755
1213 0 65.0796 12.2158 795 124.132 197.794 487.17
1214 0 64.1388 14.4998 930 121.34 196.781 484.049
1215 0 68.028 12.7153 865 124.425 197.094 484.609
1216 0 69.1309 12.9464 895 124.163 195.635 481.698
1217 0 72.183 14.7542 1065 119.82 194.388 482.265
1218 0 73.0928 14.4748 1058 121.028 194.25 479.724
1219 0 76.264 12.9419 987 124.409 194.486 478.06
1220 0 79.2015 15.631 1238 118.378 193.368 477.769
1221 0 84.373 12.7529 1076 123.43 194.032 476.072
1222 0 86.3087 14.2048 1226 119.521 192.017 473.472
1223 1 42.1452 10.535 444 123.194 194.547 494.89
1224 0 47.1878 11.1893 528 121.248 193.691 491.602
1225 0 46.1936 13.0104 601 118.589 192.125 489.785
1226 0 48.2185 11.3649 548 120.781 191.653 487.546
1227 0 50.0842 11.2411 563 118.842 191.606 489.808
1228 0 51.0468 14.6532 748 113.381 190.909 485.015
1229 0 54.0432 16.1723 874 111.824 190.051 482.39
1230 0 56.082 13.8726 778 116.775 190.833 482.749
1231 0 56.082 13.9617 783 143.559 192.807 482.785
1232 0 57.0875 14.9595 854 115.504 190.375 478.582
1233 0 58.1895 14.7277 857 116.968 191.672 476.918
1234 0 61.0692 11.1677 682 123.424 191.474 475.276
1235 0 60.1122 12.277 738 123.058 191.202 471.202
1236 0 64.0787 13.7331 880 119.317 193.293 471.115
1237 0 66.1534 13.5443 896 118.854 193.508 470.071
1238 0 68.1238 13.2846 905 119.831 194.588 465.422
1239 0 73.192 14.3322 1049 116.472 195.165 466.454
1240 0 74.1091 14.3707 1065 117.206 195.482 462.715
1241 0 77.0346 16.7198 1288 112.136 195.672 464.186
1242 0 77.1682 13.3216 1028 120.079 196.849 460.383
1243 0 79.1706 13.0099 1030 120.981 198.192 462.445
1244 0 82.54 13.3269 1100 120.789 197.406 458.638
1245 0 87.2806 13.3363 1164 119.382 197.616 462.092
1246 1 46.108 10.4754 483 120.83 198.36 480.797
1247 0 49.0867 11.1639 548 116.442 199.274 487.255
1248 0 50.1266 13.7053 687 116.531 199.843 481.789
1249 0 53.0902 12.394 658 118.301 199.564 482.777
1250 0 54.0417 12.9715 701 119.258 197.498 483.35
1251 0 54.0538 11.5071 622 122.272 198.953 484.034
1252 0 56.0809 12.8564 721 120.714 197.344 482.219
1253 0 56.1174 11.5294 647 124.45 197.887 482.794
1254 0 60.0853 14.3796 864 119.16 196.911 482.964
1255 0 58.0741 10.9343 635 127.351 198.386 484.682
1256 0 64.0447 15.1457 970 118.113 197.664 482.929
1257 0 67.0609 16.1346 1082 115.075 196.658 483.617
1258 0 69.1227 15.5376 1074 117.045 195.654 483.603
1259 0 71.0656 13.8464 984 121.494 193.85 482.44
1260 0 73.0918 13.5446 990 121.868 194.076 481.587
1261 0 76.0581 14.6467 1114 122.142 194.152 479.142
1262 0 81.0998 14.476 1174 121.036 192.283 477.818
1263 0 80.0634 15.3753 1231 119.718 191.98 477.037
1264 0 83.0998 15.4994 1288 120.15 192.072 473.367
1265 0 85.1609 13.2455 1128 124.196 192.64 471.847
1266 0 88.0998 12.1113 1067 124.277 191.007 475.016
1267 0 91.1168 14.9808 1365 120.327 190.247 471.459
1268 0 94.1105 14.9505 1407 121.414 191.629 466.01
1269 1 49.0642 14.5931 716 114.633 190.337 489.976
1270 0 50.1296 13.1459 659 118.381 191.642 484.954
1271 0 51.3553 12.5011 642 118.55 190.017 480.843
1272 0 54.0364 11.9364 645 118.724 191.008 483.416
1273 0 55.0411 13.1175 722 118.186 190.497 479.946
1274 0 56.1114 13.6158 764 117.348 191.478 479.258
1275 0 57.039 14.2885 815 117.18 191.741 477.561
1276 0 56.0775 11.1809 627 124.325 191.234 473.746
1277 0 61.0711 12.772 780 119.379 191.4 473.344
1278 0 62.0348 12.1061 751 122.394 191.095 471.771
1279 0 62.0578 11.5376 716 124.149 193.341 470.448
1280 0 68.0581 14.2672 971 116.67 193.506 470.91
1281 0 70.2942 13.159 925 120.508 195.192 469.121
1282 0 72.0866 14.33 1033 119.446 195.266 466.276
1283 0 74.3278 12.7409 947 122.748 195.849 467.76
1284 0 74.1977 13.0462 968 124.85 196.849 463.397
1285 0 79.382 15.5325 1233 118.325 197.444 465.156
1286 0 80.2629 14.3279 1150 121.897 198.368 463.299
1287 0 82.2754 12.3488 1016 125.978 198.156 465.005
1288 0 86.4031 13.1592 1137 125.164 199.622 461.107
1289 0 90.5973 14.7245 1334 122.153 199.656 462.03
1290 0 90.3715 12.6589 1144 127.806 200.04 458.614
1291 1 47.1486 11.6652 550 123.033 199.987 483.18
1292 0 50.5189 11.6986 591 124.582 200.658 479.218
1293 0 51.251 12.6827 650 123.674 200.065 480.722
1294 0 54.2503 11.9631 649 123.61 199.995 482.003
1295 0 56.0677 12.1282 680 123.487 198.503 484.801
1296 0 57.0917 12.6989 725 123.263 197.428 486.237
1297 0 60.189 14.5375 875 120.37 198.105 485.056
1298 0 58.0791 10.8301 629 124.38 198.905 487.323
1299 0 60.0539 11.7894 708 121.212 201.185 489.874
1300 0 65.1341 14.5085 945 117.633 198.891 486.722
1301 0 66.2286 13.2873 880 119.198 198.681 485.653
1302 0 68.0499 13.255 902 118.68 197.559 485.242
1303 0 75.1352 13.0032 977 115.72 196.026 485.452
1304 0 73.087 12.0268 879 119.447 196.333 483.067
1305 0 74.2013 12.4391 923 119.581 195.252 481.464
1306 0 77.1811 11.6479 899 120.871 194.323 477.84
1307 0 81.2036 12.7088 1032 118.571 194.128 477.586
1308 1 47.0632 11.7077 551 121.276 191.829 492.149
1309 0 46.0632 11.7664 542 122.456 191.666 486.932
1310 0 49.3481 14.9144 736 113.853 189.682 481.742
1311 0 48.5814 12.0005 583 122.494 190.593 482.983
1312 0 51.2847 14.2733 732 119.138 190.292 483.1
1313 0 52.2111 12.8325 670 122.878 189.604 480.742
1314 0 53.2216 12.2319 651 122.653 190.968 481.329
1315 0 56.1588 12.4112 697 123.659 190.156 475.891
1316 0 57.2132 13.7206 785 121.75 191.366 476.953
1317 0 58.112 13.56 788 121.737 190.769 475.005
1318 0 59.0679 13.3406 788 123.458 191.185 473.555
1319 0 64.0556 15.7519 1009 117.011 191.74 474.162
1320 0 63.0604 12.5435 791 125.034 192.737 470.022
1321 0 66.0937 13.6776 904 122.521 192.898 470.344
1322 0 69.2636 15.8958 1101 117.198 194.293 471.107
1323 0 67.0959 13.5031 906 118.507 193.734 469.924
1324 0 72.1245 17.553 1266 115.835 195.676 464.151
1325 0 72.1744 11.9294 861 126.273 196.246 465.239
1326 0 76.0653 11.8056 898 126.312 195.903 464.601
1327 1 40.0545 10.4358 418 122.215 197.041 484.1
1328 0 38.0433 6.57146 250 131.824 198.18 483.5
1329 0 44.0344 11.9452 526 120.278 197.124 484.458
1330 0 45.2214 13.0469 590 117.769 199.792 482.846
1331 0 46.0806 11.5667 533 122.047 200.161 485.328
1332 0 48.1711 14.8637 716 114.539 200.916 484.341
1333 0 50.1149 14.0876 706 115.939 199.622 485.654
1334 0 53.1337 16.4679 875 111.131 201.815 488
1335 0 50.194 12.2724 616 121.289 201.019 487.393
1336 0 51.1655 12.9775 664 121.413 202.011 486.211
1337 0 54.1107 11.3471 614 124.238 201.526 484.103
1338 0 56.1529 12.6619 711 121.343 201.1 486.294
1339 0 60.133 14.7506 887 113.848 200.546 490.7
1340 0 61.0916 13.979 854 118.217 199.505 486.444
1341 0 64.165 14.1198 906 116.991 198.636 486.465
1342 0 66.383 14.3561 953 116.624 198.524 487.276
1343 0 65.0904 12.1216 789 122.389 197.294 483.686
1344 0 70.1547 14.6391 1027 117.129 197.378 480.065
1345 0 71.1472 14.224 1012 118.373 195.017 481.358
1346 0 76.1287 15.3424 1168 115.152 195.909 482.1
1347 0 78.1421 16.1373 1261 113.97 194.165 482.27
1348 0 80.1754 14.6055 1171 117.567 195.425 478.966
1349 0 81.0832 11.7904 956 122.012 194.621 473.214
1350 0 83.0562 12.4494 1034 120.82 194.436 469.018
1351 0 89.1511 15.0419 1341 114.472 194.425 472.856
1352 1 48.2542 12.6621 611 114.699 193.288 490.738
1353 0 48.0639 11.4015 548 117.487 193.496 488.011
1354 0 49.2218 10.4425 514 122.757 192.446 484.389
1355 0 54.4163 13.3967 729 111.246 191.852 484.475
1356 0 55.1106 12.8469 708 115.812 192.383 484.113
1357 0 57.0904 12.1386 693 117.222 193.499 481.232
1358 0 58.0815 13.1712 765 116.271 192.493 479.067
1359 0 58.2773 12.818 747 120.644 192.088 477.386
1360 0 58.2773 12.8352 748 144.19 191.079 477.364
1361 0 64.091 12.139 778 120.103 193.702 475.032
1362 0 66.109 13.4777 891 118.67 194.453 472.526
1363 0 68.1303 15.4263 1051 116.018 195.083 472.547
1364 0 70.0653 13.4731 944 119.597 196.327 470.067
1365 0 72.1599 15.3687 1109 116.329 195.942 467.532
1366 0 73.1067 14.4036 1053 119.425 196.687 463.601
1367 0 73.1067 14.4036 1053 131.226 196.687 463.601
1368 0 79.1169 13.2083 1045 119.483 195.434 465.334
1369 0 82.0718 13.0008 1067 121.781 196.538 462.044
1370 0 85.1065 15.3337 1305 115.549 197.134 463.562
1371 0 88.2483 16.0343 1415 113.942 197.276 462.008
1372 1 46.0278 10.4719 482 116.795 199.114 485.531
1373 0 48.1176 12.0746 581 118.119 200.337 480.647
1374 0 50.0757 11.6823 585 120.231 201.879 481.345
1375 0 53.125 12.1035 643 119.554 200.919 482.058
1376 0 55.0531 15.0219 827 114.809 201.956 481.836
1377 0 57.0691 12.4936 713 118.443 201.353 483.689
1378 0 56.2846 12.5256 705 120.472 201.807 480.986
1379 0 60.0617 13.8691 833 117.739 200.421 481.389
1380 0 60.0749 11.2193 674 123.415 201.273 480.349
1381 0 65.0825 12.9681 844 119.256 200.282 482.927
1382 0 67.2002 13.8839 933 118.033 199.611 482.628
1383 0 69.172 11.5075 796 121.373 199.035 484.387
1384 0 70.1409 12.6602 888 120.189 198.425 483.177
1385 0 72.1746 11.971 864 121.774 196.639 481.126
1386 0 76.5095 16.8214 1287 112.395 195.226 480.17
1387 0 78.2434 13.7136 1073 118.369 193.496 476.11
1388 0 82.4204 15.4937 1277 114.458 193.424 476.258
1389 0 81.3944 11.7576 957 123.037 192.161 470.283
1390 0 85.7529 15.533 1332 115.668 192.248 468.301
1391 0 90.4618 14.4813 1310 111.68 191.142 469.202
1392 0 94.2981 13.8603 1307 111.185 191.885 471.938
1393 1 51.0572 12.1041 618 110.285 193.243 489.076
1394 0 52.0885 9.98301 520 113.287 193.642 491.025
1395 0 53.1014 13.4648 715 112.206 192.629 482.055
1396 0 52.0306 9.64817 502 115.102 193.516 478.799
1397 0 56.0494 13.7201 769 108.202 191.401 478.242
1398 0 55.0436 11.0094 606 112.842 192.218 478.413
1399 0 59.0767 16.8764 997 102.606 191.907 478.473
1400 0 60.0435 11.1086 667 112.843 192.697 475.093
1401 0 61.0389 13.5979 830 107.978 192.702 476.24
1402 0 63.0382 10.8823 686 118.759 193.312 473.98
1403 0 65.1158 13.4069 873 114.62 193.241 470.387
1404 0 67.1017 12.5928 845 115.321 193.613 467.473
1405 0 71.1877 14.4126 1026 111.02 194.186 470.11
1406 0 75.1433 12.8954 969 113.446 195.412 466.329
1407 0 78.3534 12.8393 1006 112.731 195.56 467.117
1408 0 76.1967 13.3995 1021 113.448 195.68 461.423
1409 0 82.4247 13.2363 1091 111.916 196.582 464.277
1410 0 87.3944 14.8637 1299 109.54 196.805 462.684
1411 0 86.4833 14.708 1272 111.597 197.75 458.656
1412 0 92.3886 15.1426 1399 109.242 196.44 454.205
1413 0 94.5098 15.2471 1441 107.448 196.286 463.289
1414 0 96.3285 13.2048 1272 113.313 198.532 457.404
1415 1 51.3708 13.023 669 110.448 199.312 477.792
1416 0 50.1605 9.42973 473 112.951 199.042 475.717
1417 0 55.1297 11.482 633 104.469 199.324 475.912
1418 0 51.2109 9.7245 498 108.574 200.436 476.52
1419 0 56.0786 10.6636 598 105.189 199.622 480.186
1420 0 58.0468 11.6285 675 113.676 201.707 481.004
1421 0 60.0511 12.3395 741 112.799 201.854 482.127
1422 0 63.0211 13.9001 876 109.128 201.111 481.584
1423 0 67.0613 15.8661 1064 105.755 200.05 481.657
1424 0 68.117 11.0692 754 113.434 200.121 483.052
1425 0 68.0381 12.9486 881 111.44 199.538 481.186
1426 0 73.1002 15.3761 1124 107.722 199.907 480.588
1427 0 75.1973 13.0058 978 111.107 198.412 479.304
1428 0 77.2641 15.3111 1183 107.76 198.985 479.239
1429 0 79.1314 13.2943 1052 111.808 197.304 478.416
1430 0 81.1162 13.1786 1069 111.602 197.163 477.342
1431 0 84.3693 13.5476 1143 111.787 195.349 473.207
1432 0 87.329 13.2716 1159 112.59 195.141 471.143
1433 0 89.2319 14.7145 1313 110.947 192.934 467.494
1434 0 92.4207 14.1851 1311 111.025 193.912 464.764
1435 0 93.5106 13.2284 1237 113.325 191.935 465.572
1436 1 51.1936 13.0094 666 108.453 193.728 490.129
1437 0 51.3038 10.7789 553 114.414 192.566 487.609
1438 0 49.1591 7.81137 384 110.99 190.714 480.75
1439 0 53.1896 10.2276 544 108.333 191.116 473.285
1440 0 56.1892 9.59258 539 109.223 190.365 474.102
1441 0 57.1105 11.9593 683 112.477 191.493 479.356
1442 0 62.2134 14.5788 907 108.782 193.215 473.947
1443 0 61.0535 12.6938 775 112.364 192.639 475.623
1444 0 64.1863 13.601 873 112.326 193.102 470.238
1445 0 68.132 14.105 961 111.217 193.195 471.261
1446 0 69.0892 14.0109 968 111.976 193.467 469.234
1447 0 73.0975 16.3207 1193 107.929 193.133 467.333
1448 0 75.1149 13.3396 1002 114.003 195.073 464.526
1449 0 77.1883 11.1805 863 116.22 194.793 466.554
1450 0 79.2844 13.1678 1044 115.653 195.058 459.874
1451 0 82.182 17.2909 1421 110.106 196.866 456.151
1452 0 82.182 17.3882 1429 134.788 198.861 456.223
1453 0 86.1846 15.0143 1294 115.363 198.488 457.274
1454 0 89.0931 12.8742 1147 120.432 197.572 454.87
1455 0 91.2393 12.1329 1107 121.005 198.315 458.123
1456 0 95.1817 14.3305 1364 117.955 199.946 453.79
1457 0 99.2168 13.7376 1363 118.192 199.919 450.408
1458 1 52.2263 8.98015 469 120.177 200.115 480.102
1459 0 56.2804 10.6964 602 116.003 200.955 479.025
1460 0 53.2003 10.4511 556 117.883 201.117 476.685
1461 0 59.0664 12.0034 709 113.3 200.426 477.563
1462 0 63.2173 16.2772 1029 110.19 201.509 478.806
1463 0 61.2667 14.7225 902 115.188 200.071 475.506
1464 0 66.2568 14.5042 961 113.055 200.181 481.154
1465 0 64.2393 11.3015 726 121.483 200.415 481.01
1466 0 68.1682 13.1293 895 116.236 199.308 481.537
1467 0 68.2721 11.8496 809 121.221 199.873 477.166
1468 0 73.1938 12.0912 885 118.817 199.11 478.905
1469 0 80.4208 16.4883 1326 110.437 197.694 476.64
1470 0 80.2514 18.143 1456 109.065 197.559 474.525
1471 0 82.2166 14.3523 1180 116.032 198.015 478.691
1472 0 81.1785 15.4721 1256 115.268 196.08 477.063
1473 0 83.1883 14.1727 1179 118.847 195.43 474.813
1474 0 89.6138 14.1719 1270 116.314 193.907 476.602
1475 0 89.4104 15.0542 1346 117.96 194.504 470.715
1476 0 88.2021 12.9702 1144 126.319 194.907 468.372
1477 0 92.1492 15.0951 1391 120.973 193.073 470.779
1478 0 98.351 13.2688 1305 125.49 192.422 461.933
1479 1 53.0986 11.6764 620 123.003 192.144 485.977
1480 0 52.1608 10.6593 556 123.829 192.338 486.919
1481 0 56.348 14.2862 805 120.324 190.826 482.491
1482 0 56.2377 12.4472 700 122.994 192.177 482.471
1483 0 59.2719 13.3115 789 120.772 191.322 479.648
1484 0 59.1584 13.2187 782 123.289 192.222 478.023
1485 0 61.1095 13.5985 831 121.356 192.209 470.887
1486 0 61.1509 13.8183 845 122.021 191.663 468.882
1487 0 66.398 12.41 824 122.876 191.66 468.167
1488 0 68.5044 14.0429 962 119.997 192.819 472.818
1489 0 67.379 12.6301 851 127.114 192.196 466.65
1490 0 73.745 17.9673 1325 115.522 193.064 461.546
1491 0 72.4283 11.5424 836 129.244 193.512 462.445
1492 0 78.5675 17.0809 1342 118.017 192.279 453.421
1493 0 80.355 16.2404 1305 119.724 194.012 452.569
1494 0 81.2293 15.1423 1230 122.532 193.784 448.656
1495 0 86.3459 16.1328 1393 119.738 194.744 446.732
1496 0 86.3459 16.1791 1397 156.384 195.748 446.685
1497 0 89.1977 14.2941 1275 125.561 196.602 447.282
1498 0 90.2594 14.2478 1286 126.537 196.925 445.632
1499 0 94.3523 15.0076 1416 124.636 197.089 449.125
1500 0 98.2234 15.3528 1508 123.358 198.484 451.552
1501 0 101.209 17.9331 1815 118.538 198.05 454.49
1502 0 103.745 14.6224 1517 125.55 199.257 454.784
1503 0 105.2 15.3802 1618 125.037 198.998 451.924
1504 0 106.319 14.2402 1514 127.818 198.729 450.901
1505 0 111.424 14.7185 1640 126.526 200.105 450.831
1506 1 58.0542 8.9227 518 129.846 198.811 473.21
1507 0 55.0725 13.3279 734 122.405 199.989 470.834
1508 0 61.2811 12.3366 756 122.12 198.739 472.876
1509 0 64.2229 14.5742 936 120.127 199.229 479.216
1510 0 67.0565 13.1978 885 122 198.444 478.218
1511 0 68.1934 9.89832 675 127.944 200.133 480.296
1512 0 72.201 13.1162 947 119.945 197.846 481.925
1513 0 77.3065 14.5266 1123 119.262 196.649 478.372
1514 0 78.2486 15.0418 1177 120.301 195.316 473.372
1515 0 78.1418 13.3859 1046 121.404 195.832 468.125
1516 0 82.0899 13.2903 1091 120.992 194.885 465.753
1517 0 82.1565 13.669 1123 121.006 194.435 461.662
1518 0 85.2466 13.2557 1130 121.219 193.215 462.402
1519 0 92.3027 18.2552 1685 109.431 192.107 467.904
1520 0 94.3666 17.8983 1689 112.771 192.516 463.513
1521 0 92.1445 12.0571 1111 123.59 191.107 453.716
1522 0 98.1483 15.3951 1511 118.451 192.136 457.786
1523 0 99.2413 13.5629 1346 119.522 190.166 451.928
1524 0 105.465 16.9724 1790 112.71 190.708 450.259
1525 1 56.351 10.4701 590 113.529 190.537 475.861
1526 0 56.1939 12.7238 715 112.355 190.129 472.512
1527 0 59.2055 11.5361 683 113.823 190.706 467.423
1528 0 59.2055 11.6205 688 133.214 190.703 467.455
1529 0 65.1541 11.987 781 114.892 190.157 465.256
1530 0 68.1644 15.1252 1031 109.17 188.89 464.584
1531 0 69.1098 13.5581 937 112.044 191.084 463.601
1532 0 73.1608 12.3973 907 113.84 190.542 461.137
1533 0 75.1922 13.7514 1034 111.563 191.48 459.996
1534 0 79.0655 13.8619 1096 110.309 192.376 461.466
1535 0 78.3307 11.5536 905 115.659 193.067 451.412
1536 0 82.335 11.7811 970 114.412 193.452 455.563
1537 0 86.29 13.0838 1129 112.818 194.039 451.463
1538 0 87.1688 12.275 1070 115.724 194.775 450.984
1539 0 92.3139 12.5117 1155 115.003 194.939 449.309
1540 0 93.4793 11.7566 1099 116.146 195.129 453.358
1541 0 97.125 12.0772 1173 116.575 196.771 447.551
1542 0 102.082 13.1463 1342 116.244 197.7 447.558
1543 0 105.239 16.6289 1750 109.775 197.643 448.217
1544 1 57.274 11.1744 640 112.259 198.598 475.2
1545 0 58.5164 12.1163 709 109.048 199.677 476.832
1546 0 58.3122 11.1983 653 110.998 199.124 474.991
1547 0 63.4908 13.309 845 113.343 198.895 475.73
1548 0 64.1868 11.9183 765 117.838 198.197 474.264
1549 0 65.2425 12.3692 807 116.931 198.204 476.807
1550 0 68.2694 13.3735 913 115.738 198.716 474.735
1551 0 72.4481 13.8168 1001 113.566 199.36 474.138
1552 0 73.7362 14.1993 1047 114.038 198.514 473.489
1553 0 75.762 13.9516 1057 114.255 198.177 475.592
1554 0 79.673 13.3797 1066 116.273 197.626 473.013
1555 0 79.3632 13.9233 1105 115.797 198.308 471.494
1556 0 82.5635 13.6016 1123 114.947 196.922 469.691
1557 0 86.4818 15.7143 1359 108.873 195.835 473.281
1558 0 86.486 12.3604 1069 115.569 195.436 465.847
1559 0 91.6197 13.4687 1234 111.677 194.6 471.93
1560 0 94.517 15.0555 1423 109.504 194.051 462.755
1561 0 95.4889 12.8916 1231 112.663 192.813 463.627
1562 0 101.61 13.9356 1416 110.474 193.612 464.964
1563 1 49.2588 9.62264 474 111.751 195.046 491.055
1564 0 51.1834 10.4917 537 111.382 193.866 487.102
1565 0 55.0955 10.2549 565 109.979 193.683 489.202
1566 0 59.3856 12.9661 770 107.017 192.749 484.295
1567 0 59.4279 13.142 781 108.146 191.941 485.019
1568 0 59.3165 12.1046 718 114.834 193.131 479.21
1569 0 64.3596 15.8174 1018 108.255 192.499 477.589
1570 0 68.1954 13.168 898 111.155 192.932 477.87
1571 0 67.1842 10.181 684 117.344 191.819 475.175
1572 0 73.2999 13.6289 999 112.029 191.425 472.618
1573 0 70.4835 12.8257 904 117.709 191.756 466.887
1574 0 74.5312 14.9199 1112 113.781 191.679 466.789
1575 0 73.1999 13.1148 960 117.544 191.073 464.185
1576 0 76.3507 13.8309 1056 116.481 193.318 461.008
1577 0 81.4262 15.1548 1234 112.493 193.698 464.912
1578 0 84.1877 17.0809 1438 109.892 195.889 462.036
1579 0 84.3494 13.207 1114 116.714 195.978 459.926
1580 0 86.165 14.3446 1236 114.899 196.146 457.557
1581 0 89.4899 14.6274 1309 115.579 197.052 454.787
1582 0 94.2845 18.0093 1698 108.934 197.433 460.854
1583 0 91.3404 13.0829 1195 118.956 198.279 457.46
1584 0 97.2525 14.1899 1380 118.278 198.047 454.543
1585 0 101.685 15.6955 1596 115.933 198.806 449.91
1586 0 104.467 15.3062 1599 117.261 199.42 449.388
1587 0 110.297 16.7457 1847 114.67 200.083 453.696
1588 0 110.256 15.2554 1682 119.099 199.646 451.298
1589 1 58.2164 9.80823 571 122.212 200.869 478.207
1590 0 64.2143 11.5862 744 118.743 201.099 478.272
1591 0 66.2091 13.2308 876 117.328 200.074 476.086
1592 0 71.2066 16.3187 1162 112.681 200.023 476.792
1593 0 70.1719 15.9038 1116 115.569 200.704 478.716
1594 0 72.1403 12.1846 879 123.388 200.821 475.158
1595 0 76.1461 14.8268 1129 118.442 199.731 478.785
1596 0 79.1036 14.5 1147 118.908 200.031 475.908
1597 0 81.1948 14.6684 1191 120.228 198.715 472.62
1598 0 85.0886 16.1479 1374 117.878 197.564 470.811
1599 0 89.3005 16.3941 1464 116.686 198.18 473.234
1600 0 88.2001 13.2653 1170 124.763 196.458 469.726
1601 0 91.1392 14.1652 1291 123.823 195.144 466.308
1602 0 94.2278 18.434 1737 114.757 193.948 470.904
1603 0 97.2511 14.3752 1398 122.308 194.388 466.94
1604 0 100.269 15.3587 1540 121.125 192.826 453.853
1605 0 103.376 16.1546 1670 119.747 192.959 451.596
1606 0 105.313 14.0343 1478 125.506 192.949 448.134
1607 1 56.2631 11.9083 670 120.194 193.451 478.252
1608 0 57.2618 11.6308 666 122.447 193.686 476.432
1609 0 59.1585 11.8664 702 122.121 193.115 475.62
1610 0 62.0994 12.7376 791 119.923 190.756 479.114
1611 0 61.1357 11.5481 706 124.034 192.443 474.269
1612 0 61.1321 11.6796 714 146.634 193.452 474.265
1613 0 65.2237 11.4529 747 123.759 192.191 471.347
1614 0 69.2943 17.1587 1189 110.608 190.712 475.722
1615 0 73.2116 14.5605 1066 117.841 192.417 465.921
1616 0 74.2577 13.8572 1029 120.013 191.512 463.97
1617 0 76.1334 12.6357 962 122.652 192.776 461.388
1618 0 76.2068 11.6787 890 124.369 192.796 461.417
1619 0 81.3014 13.3577 1086 121.016 193.528 456.516
1620 0 83.1666 14.3447 1193 119.866 193.435 450.355
1621 0 85.1542 15.1725 1292 119.08 195.068 452.209
1622 0 88.3218 13.1791 1164 122.333 195.143 449.746
1623 0 91.4961 13.1372 1202 121.978 196.442 449.743
1624 0 92.1629 13.4002 1235 120.874 196.628 452.433
1625 0 96.2133 12.4515 1198 123.982 196.819 442.745
1626 0 100.186 15.8705 1590 116.777 196.713 446.115
1627 0 104.148 13.4425 1400 119.974 196.408 443.866
1628 0 107.176 17.8305 1911 112.906 197.964 441.694
1629 1 56.3204 12.1625 685 116.908 198.093 465.204
1630 0 57.1415 8.89022 508 122.205 199.48 467.927
1631 0 63.1821 11.8705 750 116.247 199.961 466.88
1632 0 62.3316 14.9042 929 111.394 199.99 466.441
1633 0 65.2698 12.3947 809 116.643 200.632 465.014
1634 0 71.1914 13.2319 942 116.998 200.437 472.127
1635 0 73.2432 15.2369 1116 112.784 202.151 473.649
1636 0 76.3998 14.1231 1079 112.531 199.638 475.911
1637 0 76.3787 14.2317 1087 115.253 198.82 468.103
1638 0 79.2792 14.8715 1179 113.242 199.425 471.277
1639 0 78.1611 12.2312 956 117.11 197.734 469.336
1640 0 84.4961 15.764 1332 112.053 198.313 466.866
1641 0 86.2634 15.3252 1322 112.557 197.283 465.979
1642 0 89.3198 11.095 991 121.419 198.127 463.625
1643 0 93.4933 15.2524 1426 113.722 196.978 466.882
1644 0 92.4921 11.4388 1058 120.418 196.474 465.132
1645 0 96.4907 13.6593 1318 115.65 194.9 461.827
1646 0 101.428 11.8212 1199 117.716 192.658 462.448
1647 1 55.2798 10.5644 584 113.889 193.173 483.894
1648 0 59.154 13.4057 793 112.523 193.124 481.612
1649 0 60.1462 14.2819 859 108.47 191.646 482.405
1650 0 62.1246 12.0081 746 112.036 191.188 484.477
1651 0 62.0952 10.5966 658 109.55 190.544 481.193
1652 0 68.1219 13.5346 922 104.166 190.279 475.383
1653 0 69.1518 14.0994 975 103.858 190.279 475.9
1654 0 70.1663 11.6153 815 109.676 189.995 475.009
1655 0 70.164 11.1881 785 112.949 190.183 467.451
1656 0 76.0686 12.7911 973 109.974 189.483 465.97
1657 0 78.1745 13.8536 1083 111.57 189.107 466.704
1658 0 81.3239 13.1204 1067 112.244 189.526 462.417
1659 0 82.2085 12.3832 1018 113.716 189.796 457.964
1660 0 84.1782 13.7328 1156 113.001 190.669 451.83
1661 0 88.2187 10.9274 964 116.763 192.261 458.586
1662 0 93.468 14.5504 1360 110.512 191.854 455.071
1663 1 51.0915 11.5479 590 112.753 190.827 472.276
1664 0 51.0584 8.67634 443 115.758 192.485 474.664
1665 0 50.2107 7.48845 376 111.848 193.793 464.787
1666 0 51.1137 10.056 514 108.241 193.578 465.088
1667 0 52.1296 9.61067 501 112.188 194.677 466.756
1668 0 57.3404 12.3473 708 113.425 196.575 468.387
1669 0 59.3139 13.437 797 111.617 196.309 468.314
1670 0 59.3334 11.4607 680 115.431 198.135 468.426
1671 0 64.1904 13.5067 867 111.349 197.332 471.92
1672 0 63.2601 13.0414 825 113.422 198.589 468.68
1673 0 66.1732 12.3162 815 112.99 198.469 470.574
1674 0 68.3618 12.2729 839 114.111 199.629 467.89
1675 0 72.1219 13.8377 998 110.047 199.949 472.014
1676 0 75.2632 16.9937 1279 103.276 199.135 474.741
1677 0 77.324 14.0189 1084 110.356 198.946 471.168
1678 0 79.1329 14.0523 1112 110.494 199.057 470.499
1679 0 79.2483 14.5871 1156 110.5 198.273 470.456
1680 0 83.2512 13.8617 1154 111.844 197.185 468.489
1681 0 87.3203 12.6546 1105 113.641 197.176 466.43
1682 0 92.2609 13.0499 1204 112.021 196.437 468.638
1683 0 91.3331 12.3285 1126 114.583 197.48 468.113
1684 0 94.547 14.3315 1355 110.587 196.724 463.394
1685 1 52.0986 11.1135 579 108.627 196.808 490.796
1686 0 54.3218 10.3089 560 111.323 196.345 486.411
1687 0 56.2353 12.9278 727 104.667 195.53 485.161
1688 0 58.1332 11.336 659 112.445 193.543 487.375
1689 0 59.3079 13.6575 810 109.478 194.765 485.285
1690 0 61.113 12.976 793 111.506 193.337 484.774
1691 0 62.2993 13.7883 859 109.156 192.213 485.341
1692 0 65.1891 13.5299 882 110.531 192.7 480.551
1693 0 63.1137 10.1563 641 116.88 190.952 479.605
1694 0 64.2848 11.3246 728 114.537 191.946 478.891
1695 0 71.2127 16.8228 1198 105.038 191.396 479.064
1696 0 72.1426 13.9585 1007 109.625 189.979 476.286
1697 0 76.3479 13.9362 1064 109.77 191.087 474.775
1698 0 77.2677 17.3811 1343 104.723 191.581 475.091
1699 0 77.5509 15.7445 1221 110.152 191.108 465.252
1700 0 80.321 13.7822 1107 113.381 191.165 463.323
1701 0 82.3025 13.8513 1140 113.275 191.132 462.374
1702 0 84.3739 12.5987 1063 114.296 192.581 462.48
1703 0 88.3467 14.3865 1271 112.429 192.518 459.255
1704 0 91.2224 11.4007 1040 116.553 193.326 456.675
1705 0 94.4181 15.2301 1438 111.499 192.33 450.225
1706 0 96.1589 13.3425 1283 114.202 193.753 451.673
1707 0 100.261 17.8932 1794 106.304 193.853 453.304
1708 0 102.166 13.8304 1413 113.914 194.971 446.064
1709 0 107.21 15.2691 1637 111.53 194.104 441.674
1710 0 111.298 13.3066 1481 113.39 195.427 448.452
1711 1 58.2852 8.9388 521 114.716 196.299 470.783
1712 0 62.1899 12.285 764 110.41 195.856 469.857
1713 0 62.2843 12.7159 792 114.713 197.963 469.155
1714 0 67.1897 11.088 745 115.929 197.832 472.749
1715 0 71.3737 17.9338 1280 104.19 198.937 470.82
1716 0 69.6721 13.908 969 111.038 199.427 472.643
1717 0 73.4345 14.5708 1070 110.303 199.107 470.946
1718 0 76.2929 15.6109 1191 109.066 198.86 468.242
1719 0 79.583 17.1268 1363 106.185 198.09 468.831
1720 0 82.3795 15.4043 1269 109.865 199.118 465.812
1721 0 87.5009 16.777 1468 106.778 197.586 465.49
1722 0 92.5015 18.2592 1689 104.912 197.916 461.536
1723 0 92.3991 13.4417 1242 113.019 197.048 461.147
1724 0 93.3419 13.3702 1248 115.184 197.381 453.27
1725 0 98.3306 13.3427 1312 114.569 197.105 463.679
1726 0 109.18 22.4216 2448 100.009 195.517 456.632
1727 0 107.468 24.5653 2640 99.0061 195.942 455.926
1728 0 107.274 14.2626 1530 114.309 196.675 461.769
1729 1 55.1493 10.0273 553 115.884 193.544 486.707
1730 0 59.1888 12.0124 711 112.249 192.744 485.89
1731 0 59.195 11.8929 704 113.419 191.642 483.128
1732 0 61.122 15.1991 929 107.459 191.51 483.546
1733 0 61.1619 12.4914 764 113.453 191.203 477.425
1734 0 64.1319 13.7997 885 111.116 191.506 477.801
1735 0 66.1356 16.6778 1103 106.695 190.047 476.999
1736 0 67.1294 13.8985 933 111.453 190.614 476.263
1737 0 69.1006 16.2372 1122 108.231 190.014 473.558
1738 0 73.0635 15.8219 1156 108.171 189.931 472.118
1739 0 72.1174 10.1917 735 117.181 188.665 472.916
1740 0 75.1678 15.9909 1202 107.689 188.692 471.235
1741 0 77.1395 19.536 1507 104.192 189.087 463.877
1742 0 77.1252 13.8995 1072 113.168 188.564 467.319
1743 0 83.1543 14.2266 1183 113.172 189.017 463.212
1744 0 85.157 15.2894 1302 112.8 189.176 459.775
1745 0 89.3261 13.7922 1232 114.68 189.642 459.019
1746 0 93.4048 14.4532 1350 113.971 190.337 457.359
1747 0 94.1443 16.7828 1580 110.448 191.906 455.647
1748 0 96.1982 12.7133 1223 114.88 191.482 458.843
1749 0 99.3606 15.7004 1560 112.274 192.327 451.283
1750 0 104.382 16.7269 1746 111.423 192.579 448.909
1751 0 107.23 14.9399 1602 114.732 194.903 447.504
1752 0 109.318 17.8196 1948 109.624 194.103 446.881
1753 0 114.268 14.0722 1608 115.264 194.947 437.146
1754 1 58.1921 7.32058 426 120.394 195.195 463.39
1755 0 62.2027 9.38866 584 117.884 195.416 461.949
1756 0 66.3059 12.2764 814 112.759 196.996 465.398
1757 0 71.1772 14.5412 1035 110.091 196.801 458.826
1758 0 74.1039 14.871 1102 108.251 197.801 461.282
1759 0 73.2504 13.5699 994 112.727 197.513 456.928
1760 0 77.2133 14.1167 1090 111.253 197.82 464.048
1761 0 80.2104 11.5571 927 114.4 197.927 466.533
1762 0 84.2754 15.829 1334 108.744 198.139 463.646
1763 0 86.2444 15.1314 1305 111.576 198.13 462.808
1764 0 91.2369 13.4375 1226 113.341 198.201 465.918
1765 0 93.1935 13.8958 1295 112.481 197.812 466.694
1766 0 93.4811 14.0242 1311 112.137 197.61 466.834
1767 0 97.1352 12.879 1251 115.977 197.477 461.275
1768 0 101.346 13.3897 1357 114.744 196.752 458.985
1769 1 59.1086 11.3351 670 111.621 197.254 488.29
1770 0 59.1553 10.6838 632 111.918 196.714 487.068
1771 0 63.0804 10.3519 653 111.513 194.902 482.021
1772 0 65.1391 13.0797 852 109.438 194.727 482.23
1773 0 66.1512 13.2122 874 109.339 194.287 481.508
1774 0 71.2575 12.1952 869 110.212 195.239 481.272
1775 0 73.2117 13.9185 1019 107.431 194.353 481.839
1776 0 74.2511 15.4341 1146 106.321 193.278 476.754
1777 0 82.5983 16.0536 1326 103.483 192.936 476.626
1778 0 82.5983 16.0536 1326 118.934 191.955 476.689
1779 0 81.4377 13.0529 1063 109.898 191.553 474.191
1780 0 82.3429 12.7394 1049 110.606 190.342 470.425
1781 0 86.4148 14.5693 1259 107.606 192.388 470.573
1782 0 88.3187 14.2665 1260 108.181 192.512 468.71
1783 0 89.5834 13.4288 1203 109.589 191.611 466.314
1784 0 92.2119 13.8594 1278 110.656 191.991 462.203
1785 0 94.3028 13.0749 1233 113.856 190.792 461.075
1786 0 99.2463 18.4289 1829 104.51 190.626 465.639
1787 1 57.226 13.4729 771 109.686 191 481.821
1788 0 56.3124 14.828 835 108.224 189.862 479.371
1789 0 56.3187 12.5535 707 112.474 189.576 475.446
1790 0 60.259 12.6288 761 107.016 191.723 468.849
1791 0 63.1208 13.3553 843 108.762 192.017 477.942
1792 0 62.3298 11.8723 740 112.239 191.985 474.776
1793 0 68.1478 14.1604 965 107.827 192.71 475.961
1794 0 66.158 13.6491 903 111.285 193.203 470.534
1795 0 70.1478 15.3818 1079 107.714 192.682 469.815
1796 0 70.1535 12.0023 842 113.356 194.422 471.071
1797 0 74.3175 11.8411 880 113.394 194.255 469.828
1798 0 78.1643 14.9173 1166 107.945 195.704 467.394
1799 0 79.2362 12.9234 1024 113.174 195.262 461.029
1800 0 84.2967 14.1287 1191 110.514 195.826 458.893
1801 0 84.5379 11.9 1006 114.603 196.503 462.511
1802 0 88.132 13.0599 1151 112.562 196.676 458.235
1803 0 88.1963 12.098 1067 116.037 196.795 454.877
1804 0 92.2807 13.1338 1212 113.709 196.874 447.92
1805 0 97.2851 16.3643 1592 106.861 196.949 456.876
1806 1 49.115 10.1395 498 113.673 196.982 475.241
1807 0 53.2366 9.01635 480 114.544 198.054 474.39
1808 0 55.095 11.3985 628 112.637 195.949 475.732
1809 0 59.1209 12.4321 735 109.088 197.19 479.555
1810 0 60.1422 11.1901 673 112.841 196.279 476.768
1811 0 64.0499 13.3646 856 111.238 196.928 487.723
1812 0 65.258 12.3969 809 110.164 195.833 484.781
1813 0 66.1849 12.7219 842 109.949 195.633 485.191
1814 0 69.1511 14.2297 984 112.278 194.934 478.988
1815 0 72.1383 13.2523 956 113.202 193.185 480.963
1816 0 74.2631 11.6478 865 115.372 193.086 478.778
1817 0 78.2364 18.4057 1440 103.7 192.854 483.401
1818 0 80.1914 13.8419 1110 112.714 191.762 476.199
1819 0 82.1672 11.647 957 113.86 190.52 474.276
1820 0 86.1897 11.289 973 112.267 190.734 465.428
1821 0 85.2343 10.0429 856 114.576 191.333 464.506
1822 0 90.1434 15.2313 1373 104.993 190.448 468.03
1823 0 92.1429 12.7736 1177 110.066 190.293 462.553
1824 0 96.2247 15.3703 1479 105.9 189.428 459.492
1825 1 50.1534 12.4418 624 103.372 188.598 480.732
1826 0 50.1454 11.4467 574 106.411 190.244 480.564
1827 0 54.1739 13.752 745 104.411 190.039 475.909
1828 0 52.1758 13.512 705 106.489 188.745 477.461
1829 0 57.3537 13.6173 781 102.983 189.382 477.369
1830 0 57.3212 12.5259 718 106.581 190.29 475.347
1831 0 61.6068 14.9172 919 103.424 190.407 474.205
1832 0 58.0963 11.7736 684 110.177 189.598 470.076
1833 0 62.1262 12.3297 766 107.304 190.569 471.371
1834 0 69.3347 10.6152 736 109.041 191.448 470.568
1835 0 67.1572 12.6122 847 106.289 191.46 467.491
1836 0 69.1676 10.9444 757 110.435 192.633 461.629
1837 0 71.1349 14.6904 1045 104.032 192.267 461.669
1838 0 75.4165 12.7956 965 113.074 193.022 468.339
1839 0 76.3369 14.4229 1101 111.285 194.606 466.173
1840 0 79.1554 15.5012 1227 110.071 194.538 462.673
1841 0 83.2185 16.0421 1335 108.638 194.812 462.922
1842 0 85.201 13.2158 1126 113.464 195.706 460.606
1843 0 86.3291 10.8654 938 117.386 195.999 457.27
1844 1 48.3991 9.66961 468 114.145 197.406 480.045
1845 0 50.2671 11.9959 603 112.954 196.572 475.914
1846 0 51.0857 12.1952 623 111.262 197.368 482.727
1847 0 52.1696 11.616 606 113.432 197.018 480.726
1848 0 58.2072 15.1012 879 107.375 197.569 476.883
1849 0 59.3035 15.2605 905 108.076 196.399 481.056
1850 0 60.0889 13.0806 786 112.528 196.992 483.01
1851 0 63.4327 17.7826 1128 103.441 197.788 487.083
1852 0 62.4141 13.4585 840 113.29 196.896 482.414
1853 0 66.3185 20.9142 1387 101.248 196.875 485.172
1854 0 65.2446 12.1236 791 117.503 196.748 480.808
1855 0 70.4041 17.9677 1265 108.002 196.25 479.77
1856 0 72.2972 12.8221 927 116.589 196.415 481.584
1857 0 74.3304 12.5655 934 117.343 195.465 480.027
1858 0 77.5651 14.7618 1145 112.649 195.047 475.65
1859 0 82.1758 14.2256 1169 111.993 194.327 476.084
1860 0 83.3777 13.9846 1166 113.235 193.682 470.571
1861 0 86.4791 11.9682 1035 115.416 193.973 473.62
1862 0 88.4135 11.729 1037 116.044 193.68 470.355
1863 1 52.3188 12.0033 628 108.842 193.137 491.739
1864 0 52.2329 12.4825 652 109.963 192.345 489.969
1865 0 52.2454 11.58 605 110.878 190.993 488.732
1866 0 52.0905 8.38925 437 112.764 191.14 487.618
1867 0 56.0926 13.3351 748 106.591 189.226 481.027
1868 0 55.1657 11.6014 640 108.109 189.812 485.03
1869 0 56.3308 9.23118 520 114.09 189.792 480.898
1870 0 61.2396 13.9779 856 107.718 190.114 480.193
1871 0 62.1774 14.0083 871 108.172 189.144 479.188
1872 0 62.1204 11.9123 740 111.582 189.327 475.281
1873 0 62.148 10.4589 650 113.429 188.445 477.466
1874 0 66.124 13.0059 860 111.258 189.626 473.785
1875 0 68.1332 13.3415 909 111.466 190.194 470.648
1876 0 70.2613 11.6423 818 114.153 190.346 469.248
1877 0 73.3246 11.9605 877 113.879 191.072 467.845
1878 0 74.2844 12.4118 922 113.644 192.201 466.832
1879 0 80.3019 14.4206 1158 109.481 192.282 465.461
1880 0 79.2574 16.112 1277 108.904 192.67 460.896
1881 0 81.1475 12.4588 1011 114.71 193.424 458.174
1882 0 86.305 16.4069 1416 109.645 194.562 457.685
1883 0 87.2072 16.6615 1453 109.216 195.212 455.363
1884 0 91.4873 13.9145 1273 113.392 196.008 455.527
1885 0 91.4493 13.5704 1241 137.142 197.969 455.044
1886 0 96.2481 14.7016 1415 114.119 196.225 454.912
1887 0 99.2248 15.4296 1531 112.046 197.599 456.097
1888 0 100.608 15.7642 1586 111.189 197.734 456.438
1889 0 102.609 17.6983 1816 129.789 198.846 454.57
1890 0 105.419 12.863 1356 116.869 198.871 453.227
1891 0 111.425 16.0108 1784 111.95 198.48 451.874
1892 0 114.464 13.7947 1579 116.22 197.536 448.727
1893 1 62.1514 10.3457 643 112.855 197.611 479.799
1894 0 65.2462 12.5525 819 111.462 196.882 476.89
1895 0 69.4023 12.6076 875 110.202 196.544 481.224
1896 0 69.2746 15.4458 1070 108.86 196.526 479.396
1897 0 70.1957 12.9638 910 113.789 196.681 478.841
1898 0 73.3336 13.5954 997 112.46 195.804 479.865
1899 0 77.2883 16.5484 1279 107.511 196.146 477.808
1900 0 79.4274 12.9426 1028 114.437 194.918 473.164
1901 0 82.2301 15.2134 1251 111.677 193.918 474.422
1902 0 81.3028 11.1435 906 118.911 194.205 472.635
1903 0 86.5008 11.919 1031 117.155 193.281 471.063
1904 0 90.3353 13.5606 1225 114.698 192.797 469.885
1905 0 93.4081 14.0352 1311 113.995 191.367 465.537
1906 0 97.4987 17.3438 1691 108.968 191.597 464.601
1907 0 100.707 15.2919 1540 113.381 190.874 461.014
1908 0 99.4166 13.2573 1318 117.52 190.742 457.986
1909 0 105.64 13.2715 1402 116.108 189.283 458.892
1910 0 108.287 16.5209 1789 110.797 190.506 461.059
1911 0 114.943 16.9128 1944 110.147 189.974 458.024
1912 0 114.599 13.7785 1579 116.008 190.303 454.581
1913 0 120.459 13.9217 1677 117.435 188.79 447.413
1914 0 124.437 18.7082 2328 107.434 189.425 451.732
1915 0 125.258 13.8514 1735 115.872 189.831 447.459
1916 0 133.87 14.9399 2000 113.854 190.677 445.017
1917 0 136.66 15.2714 2087 114.097 190.63 442.577
1918 0 141.894 15.9908 2269 112.99 190.727 438.541
1919 0 144.516 16.6072 2400 112.766 190.985 435.451
1920 0 150.739 14.7473 2223 116.188 190.952 429.093
1921 0 154.831 17.9422 2778 111.468 191.806 422.94
1922 0 158.482 15.0869 2391 117.295 193.462 420.908
1923 0 167.711 16.0872 2698 114.339 193.059 424.511
1924 0 170.607 16.6875 2847 115.718 194.513 417.63
1925 0 176.648 16.5867 2930 116.228 195.319 415.766
1926 0 181.361 18.4494 3346 112.805 195.157 417.125
1927 0 185.532 15.3074 2840 119.18 195.895 412.134
1928 0 185.532 15.3289 2844 157.281 195.904 412.345
1929 1 143.635 13.9033 1997 120.576 197.213 433.832
1930 0 150.53 13.8909 2091 121.16 198.29 428.521
1931 0 155.657 14.0244 2183 121.078 198.338 427.849
1932 0 159.605 15.0685 2405 118.709 199.711 430.674
1933 0 167.674 16.5917 2782 116.958 199.311 420.183
1934 0 171.568 14.0294 2407 122.491 199.115 418.238
1935 0 179.519 18.0761 3245 115.571 198.816 422.088
1936 0 184.404 14.8533 2739 124.167 198.113 415.766
1937 0 191.599 16.8163 3222 120.307 198.754 418.061
1938 0 197.875 17.6829 3499 117.307 199.001 410.779
1939 0 206.623 14.2772 2950 121.185 198.477 420.342
1940 0 214.479 15.167 3253 120.57 196.47 416.238
1941 0 223.61 14.4671 3235 122.566 196.659 407.019
1942 1 54.3871 10.0575 547 116.835 198.088 487.755
1943 0 59.266 11.2544 667 114.79 196.607 489.697
1944 0 60.1415 11.7722 708 114.161 195.719 489.691
1945 0 60.562 10.7328 650 121.98 194.625 485.809
1946 0 63.2252 11.1348 704 120.188 193.477 487.213
1947 0 66.1442 13.2589 877 116.621 192.937 482.599
1948 0 67.1884 9.80824 659 122.938 191.498 481.517
1949 0 72.1492 11.7534 848 118.171 191.417 480.005
1950 0 70.3073 11.464 806 118.525 192.037 479.932
1951 0 74.2044 12.9372 960 116.327 190.958 477.046
1952 0 75.1816 11.9843 901 118.512 190.184 471.536
1953 0 78.1878 10.4236 815 120.402 190.616 473.157
1954 0 79.4397 13.5575 1077 115.598 188.919 471.834
1955 0 80.1363 12.3415 989 117.359 190.336 471.087
1956 0 83.118 11.9469 993 117.172 190.13 470.392
1957 0 88.2367 23.1423 2042 100.678 188.899 462.6
1958 0 91.2308 16.8912 1541 109.436 189.295 460.869
1959 0 91.4175 11.2123 1025 117.632 189.136 459.738
1960 0 95.1892 15.9157 1515 111.706 191.402 458.409
1961 0 98.1566 13.7434 1349 114.66 191.104 461.027
1962 1 56.2005 12.8291 721 115.276 191.688 476.619
1963 0 57.2029 12.1672 696 118.185 193.839 474.751
1964 0 58.1791 14.7991 861 115.434 193.693 464.117
1965 0 58.0705 11.951 694 116.197 192.31 460.222
1966 0 63.1258 16.2374 1025 114.291 193.947 473.846
1967 0 63.0652 13.0341 822 123.539 195.71 468.968
1968 0 71.4317 17.3172 1237 110.644 194.292 460.616
1969 0 75.346 15.9663 1203 113.288 195.112 461.373
1970 0 77.3026 22.0562 1705 103.466 196.352 457.893
1971 0 76.3661 18.9482 1447 109.992 196.653 459.167
1972 0 76.2692 17.7267 1352 113.34 197.212 465.445
1973 0 75.4068 14.9987 1131 120.771 197.424 464.206
1974 0 75.2907 12.2857 925 127.629 196.634 464.708
1975 0 78.3015 14.8656 1164 122.045 198.475 465.855
1976 0 81.2727 12.8703 1046 125.967 198.975 462.684
1977 0 81.3738 15.4104 1254 117.247 198.715 460.298
1978 0 83.3532 11.8652 989 123.345 199.316 462.367
1979 0 88.2717 12.1443 1072 122.219 197.76 461.271
1980 0 91.2112 16.6975 1523 114.063 197.387 464.107
1981 1 49.3375 9.56676 472 115.998 196.864 486.409
1982 0 52.174 10.0433 524 116.055 195.576 480.231
1983 0 57.089 14.0307 801 117.004 194.986 485.728
1984 0 61.1003 14.7626 902 116.094 195.956 486.746
1985 0 61.3411 10.9388 671 116.148 194.949 488.897
1986 0 61.1583 11.74 718 116.37 195.361 487.223
1987 0 63.1954 14.02 886 112.251 192.78 484.594
1988 0 66.1052 14.4013 952 111.866 193.756 483.173
1989 0 69.1083 13.0086 899 114.228 191.37 482.809
1990 0 70.1143 13.806 968 113.226 192.877 478.328
1991 0 74.2548 13.3729 993 112.995 191.877 476.857
1992 0 79.1938 14.7234 1166 108.256 191.996 482.185
1993 0 77.1304 13.0947 1010 113.841 190.578 476.698
1994 0 80.0414 15.4545 1237 114.306 191.084 473.061
1995 0 82.2208 15.5192 1276 113.438 189.66 472.835
1996 0 84.3636 16.014 1351 113.004 188.959 471.173
1997 0 84.2174 12.5627 1058 119.832 187.912 466.909
1998 0 89.2924 15.0181 1341 115.815 189.157 465.286
1999 0 91.1863 19.027 1735 109.339 188.621 464.341
2000 0 91.1477 16.4458 1499 112.196 188.402 468.056
2001 0 91.262 12.4586 1137 120.032 189.454 461.884
2002 0 94.1453 14.467 1362 116.331 189.182 461.763
2003 0 98.2251 13.6727 1343 117.646 189.523 455.949
2004 0 100.25 16.3791 1642 113.918 191.04 455.922
2005 0 103.277 14.7564 1524 115.728 191.357 458.108
2006 0 104.223 14.4882 1510 118.409 191.826 454.617
2007 0 107.179 14.0233 1503 118.094 192.741 453.015
2008 0 111.196 15.5222 1726 116.307 192.369 448.838
2009 0 111.192 13.6431 1517 119.525 192.967 448.029
2010 0 117.638 13.431 1580 120.498 194.229 446.994
2011 0 122.351 17.131 2096 114.621 194.571 441.115
2012 0 125.36 15.3957 1930 118.075 195.826 438.491
2013 0 131.527 15.5406 2044 116.432 195.62 437.83
2014 0 131.293 18.3407 2408 112.219 196.366 428.232
2015 0 134.499 14.6321 1968 118.101 196.363 429.524
2016 0 140.348 16.4377 2307 113.73 197.326 427.617
2017 0 146.539 15.8047 2316 114.296 196.803 428.238
2018 1 62.3843 14.6511 914 115.089 197.606 467.582
2019 0 67.4671 13.9772 943 115.442 199.467 466.094
2020 0 69.3757 14.0683 976 114.339 197.494 466.936
2021 0 72.0703 15.5543 1121 112.894 198.649 470.564
2022 0 74.2014 15.8892 1179 111.989 197.915 471.139
2023 0 75.3216 14.2058 1070 115.731 196.926 469.241
2024 0 77.1381 14.1046 1088 115.688 196.667 466.678
2025 0 83.2644 15.5048 1291 112.946 195.947 463.497
2026 0 78.1972 12.3534 966 120.763 196.023 461.998
2027 0 78.2405 12.4871 977 120.548 194.685 460.611
2028 0 79.1346 12.4345 984 121.721 195.616 454.089
2029 1 45.1032 10.7753 486 114.15 196.537 485.475
2030 0 54.0986 11.0539 598 117.037 194.1 488.848
2031 0 54.1902 12.7145 689 115.636 193.189 484.602
2032 0 58.1648 12.86 748 117.19 191.662 482.525
2033 0 56.0799 14.0335 787 117.161 191.445 479.526
2034 0 59.109 12.4516 736 118.368 191.565 481.923
2035 0 60.0886 12.3984 745 120.579 189.999 478.046
2036 0 60.0311 12.0604 724 122.144 189.872 475.454
2037 0 65.1197 13.2525 863 119.948 189.801 478.035
2038 0 67.0662 11.3917 764 121.488 189.246 478.034
2039 0 69.0571 13.1341 907 120.208 190.041 474.304
2040 0 66.1033 10.9374 723 125.584 188.855 473.064
2041 0 72.0751 14.471 1043 118.264 190.325 470.594
2042 0 74.0812 13.6607 1012 120.186 188.915 468.614
2043 0 74.1891 11.7807 874 120.914 189.587 467.086
2044 0 77.1686 16.5093 1274 110.922 188.812 464.221
2045 0 75.1298 12.7646 959 117.908 189.882 462.698
2046 0 84.1895 15.2394 1283 112.058 189.151 458.067
2047 0 82.1121 13.5912 1116 116.476 189.686 456.269
2048 0 85.0845 11.4709 976 121.03 190.384 451.059
2049 0 90.1425 12.9018 1163 117.013 190.754 447.011
2050 0 90.259 11.4892 1037 120.809 191.007 445.262
2051 0 92.1334 13.2091 1217 117.92 191.726 446.205
2052 0 97.4023 12.3919 1207 118.702 192.524 445.088
2053 0 99.2373 17.5841 1745 109.879 192.302 447.452
2054 0 104.22 16.2349 1692 112.319 192.076 441.108
2055 0 106.285 13.8966 1477 116.069 194.965 441.209
2056 1 62.2424 8.22591 512 111.979 195.602 465.852
2057 0 66.2532 9.11655 604 111.18 197.353 462.588
2058 0 69.1896 12.2128 845 107.554 198.15 462.012
2059 0 71.2358 11.2022 798 113.1 197.63 465.796
2060 0 74.0877 13.3895 992 112.759 195.856 465.869
2061 0 75.1115 14.7248 1106 110.994 196.121 462.173
2062 0 75.1515 12.6012 947 114.878 196.111 461.165
2063 0 80.0422 14.205 1137 111.624 195.65 462.871
2064 0 82.0884 13.12 1077 113.276 196.287 465.188
2065 0 80.0524 10.1808 815 116.845 195.252 467.707
2066 0 90.2121 14.5657 1314 109.674 196.212 467.037
2067 0 87.0757 12.5868 1096 114.628 194.733 464.536
2068 0 94.1666 15.2708 1438 110.061 195.707 462.51
2069 0 97.2322 13.3701 1300 112.542 195.132 463.158
2070 0 98.1867 12.5577 1233 114.625 194.783 458.364
2071 0 102.202 11.2816 1153 114.483 193.581 464.109
2072 0 105.193 18.7941 1977 105.051 192.223 461.201
2073 0 109.197 15.9071 1737 109.785 191.968 454.583
2074 0 113.355 12.8888 1461 113.769 191.72 453.805
2075 0 115.196 11.4241 1316 116.23 191.216 453.848
2076 0 120.421 12.9462 1559 113.848 190.559 450.603
2077 0 129.233 12.845 1660 112.77 189.781 450.763
2078 0 129.529 14.6145 1893 111.616 187.763 443.503
2079 1 73.2326 9.14893 670 115.216 188.882 465.203
2080 0 79.1267 14.3694 1137 105.469 188 468.826
2081 0 78.2717 10.1569 795 110.469 187.458 466.645
2082 0 79.2084 10.8448 859 109.636 187.916 466.994
2083 1 146.697 12.2293 1794 114.555 188.609 432.279
2084 1 83.3276 12.3609 1030 108.377 187.037 462.069
2085 0 89.1682 12.7063 1133 107.447 187.822 462.231
2086 0 88.178 10.7623 949 109.043 188.042 463.053
2087 0 92.2416 11.5349 1064 109.961 187.827 453.885
2088 0 95.2359 12.7473 1214 107.317 188.834 460.423
2089 0 98.3745 16.4575 1619 103.46 188.69 451.368
2090 0 98.4359 12.0789 1189 110.567 188.977 447.785
2091 0 103.509 14.0953 1459 106.23 190.416 451.254
2092 0 107.349 15.5195 1666 105.039 192.206 448.022
2093 0 107.349 15.5381 1668 125.065 193.217 448.103
2094 0 109.454 11.2102 1227 113.033 190.286 434.891
2095 0 112.367 13.0465 1466 110.406 194.024 436.659
2096 0 119.58 12.5105 1496 109.566 193.059 442.243
2097 0 113.397 11.4289 1296 110.767 195.312 439.569
2098 1 73.3466 10.8117 793 107.791 194.368 457.912
2099 0 70.4035 7.71268 543 113.431 194.676 453.919
2100 0 80.2883 13.0405 1047 105.971 195.436 462.545
2101 0 81.2234 12.0901 982 108.736 197.32 460.815
2102 0 84.2488 12.5699 1059 107.145 197.727 460.11
2103 0 84.3262 11.4437 965 110.365 198.225 457.099
2104 0 88.25 11.4334 1009 109.149 198.024 462.408
2105 0 89.0724 10.9462 975 111.97 197.212 459.13
2106 0 93.3461 14.0445 1311 107.735 198.489 460.757
2107 0 94.1413 15.5723 1466 105.767 196.54 461.604
2108 0 98.2558 14.0653 1382 109.7 196.109 456.916
2109 0 104.207 13.5691 1414 110.172 196.517 460.599
2110 0 105.207 9.33398 982 119.242 196.494 454.747
2111 0 107.244 11.8702 1273 117.432 197.435 453.794
2112 0 110.239 13.0444 1438 115.995 195.7 449.935
2113 0 114.207 12.5649 1435 116.977 195.355 450.295
2114 0 110.092 14.9239 1643 115.127 193.839 445.171
2115 0 119.382 12.104 1445 118.913 192.825 446.12
2116 0 127.276 15.6275 1989 112.002 192.513 444.021
2117 0 132.798 13.2607 1761 114.917 190.509 446.161
2118 1 79.2906 13.2929 1054 104.92 191.377 476.368
2119 0 78.1504 13.3972 1047 105.963 190.339 471.023
2120 0 80.2687 14.738 1183 109.299 190.754 468.74
2121 0 82.2283 12.6842 1043 113.149 189.656 465.702
2122 0 86.2504 14.3767 1240 109.928 190.062 472.117
2123 0 86.2137 12.7822 1102 113.225 189.732 467.407
2124 0 89.29 13.6522 1219 112.308 188.879 461.325
2125 0 90.3829 12.956 1171 113.621 189.076 457.568
2126 0 97.672 16.279 1590 105.811 188.271 464.113
2127 0 97.4186 15.7773 1537 109.976 187.363 453.29
2128 0 99.2684 15.0199 1491 111.3 189.013 453.192
2129 0 102.437 12.886 1320 114.494 188.894 452.224
2130 0 105.257 14.1273 1487 113.182 188.361 448.106
2131 0 105.421 11.5063 1213 117.858 188.91 444.621
2132 0 108.283 13.0122 1409 116.139 189.725 443.267
2133 0 111.374 10.8194 1205 118 190.165 444.899
2134 0 114.492 13.8263 1583 113.847 190.759 443.735
2135 0 117.675 17.3954 2047 109.031 191.312 439.351
2136 0 120.346 13.86 1668 114.885 191.501 433.8
2137 0 123.525 13.8272 1708 114.437 192.313 436.79
2138 0 125.509 13.2023 1657 116.453 192.967 431.448
2139 0 132.521 16.8577 2234 109.957 193.233 428.959
2140 0 138.759 14.9395 2073 110.793 194.509 432.303
2141 0 140.498 17.9149 2517 104.494 195.622 430.129
2142 0 146.58 15.7866 2314 106.377 195.745 431.001
2143 0 147.487 14.3538 2117 110.348 195.159 409.481
2144 0 151.299 15.856 2399 107.236 195.397 420.821
2145 0 155.754 12.7765 1990 113.382 197.067 413.102
2146 0 164.393 15.4021 2532 108.793 196.23 415.395
2147 0 168.349 15.3194 2579 108.91 198.076 417.796
2148 0 173.336 17.5094 3035 107.346 197.598 411.774
2149 0 179.466 14.9666 2686 112.105 198.139 406.41
2150 0 185.428 14.1888 2631 113.434 198.547 412.576
2151 0 192.531 13.1771 2537 117.546 197.645 410.537
2152 0 196.489 17.4412 3427 112.248 197.896 401.047
2153 0 203.536 13.5652 2761 120.46 197.001 401.21
2154 0 203.536 13.5013 2748 157.454 196.006 401.278
2155 1 299.853 8.81764 2644 125.075 195.827 388.067
2156 1 53.1414 6.20984 330 107.652 196.358 485.524
2157 0 57.0347 15.6747 894 93.7629 195.642 482.123
2158 0 57.1451 11.1821 639 101.075 194.279 484.113
2159 0 58.163 11.2615 655 99.5435 193.114 488.921
2160 0 63.0628 16.9514 1069 92.6829 192.276 482.101
2161 0 62.0472 11.8297 734 98.639 191.939 481.484
2162 0 61.1938 9.85395 603 101.726 191.493 483.672
2163 0 66.097 14.5695 963 96.9232 190.595 481.16
2164 0 68.0616 14.6779 999 95.4364 191.467 482.59
2165 0 70.0572 9.86337 691 103.001 190.155 476.135
2166 0 70.061 12.7318 892 99.074 190.583 475.163
2167 0 74.0963 12.5917 933 99.2647 189.952 475.226
2168 0 74.1841 11.6063 861 101.153 190.842 469.741
2169 0 72.1248 9.4697 683 104.799 189.877 464.837
2170 0 80.2412 12.9734 1041 103.066 189.933 463.669
2171 0 81.1703 9.89278 803 108.153 190.131 459.255
2172 0 81.4388 11.0512 900 105.61 190.418 464.12
2173 0 83.4167 12 1001 105.196 190.731 460.855
2174 0 86.2372 12.2569 1057 103.709 190.703 461.589
2175 0 86.3035 8.21519 709 109.742 192.186 458.691
2176 0 88.205 8.40088 741 108.866 191.549 451.933
2177 0 86.2093 13.1424 1133 102.756 191.536 455.066
2178 0 89.3159 6.75132 603 108.252 193.317 460.796
2179 0 88.1235 8.53348 752 101.077 192.823 464.104
2180 1 104.108 10.8253 1127 99.3514 192.961 454.489
2181 1 58.1796 10.7598 626 96.2157 194.597 472.097
2182 0 61.4789 8.7347 537 100.13 195.179 465.721
2183 0 64.3356 15.6368 1006 93.9702 195.455 467.801
2184 0 65.1285 12.2988 801 98.8602 194.02 466.308
2185 0 65.0977 14.9621 974 96.1006 194.245 464.877
2186 0 64.1331 11.1175 713 101.612 194.558 463.885
2187 0 64.1903 9.83015 631 99.7021 196.195 466.008
2188 0 67.1369 12.1841 818 96.291 197.229 470.94
2189 0 72.1845 13.8534 1000 93.211 199.42 471.715
2190 0 70.1426 8.52548 598 101.637 198.523 469.182
2191 0 71.0916 7.6943 547 103.3 197.832 468.921
2192 1 142.243 11.0445 1571 105.087 197.629 439.947
2193 1 229.361 5.9208 1358 104.683 198.68 442.85
2194 1 97.0336 15.5101 1505 94.7043 198.132 460.52
2195 0 95.3894 19.4361 1854 92.4903 196.861 459.859
2196 0 99.2616 21.4685 2131 90.6786 196.043 458.937
2197 1 52.0961 7.96605 415 106.248 197.754 485.737
2198 0 52.0233 6.13186 319 109.771 198.367 485.969
2199 0 56.2079 13.7881 775 97.1781 197.146 485.625
2200 0 60.2819 12.4581 751 100.683 194.406 482.092
2201 0 62.4609 13.4964 843 99.7699 194.062 485.335
2202 0 59.3185 11.9524 709 103.798 190.334 485.008
2203 0 63.0754 12.8101 808 102.428 190.472 484.243
2204 0 63.1336 12.1647 768 105.078 189.337 483.12
2205 0 64.0529 12.88 825 105.479 188.674 478.279
2206 0 67.0849 11.4333 767 107.055 189.096 477.332
2207 0 69.0886 11.8109 816 107.072 188.749 477.455
2208 0 70.0764 12.5006 876 107.274 188.025 476.324
2209 0 75.2671 17.3914 1309 99.8189 187.864 476.118
2210 0 74.0942 11.9443 885 108.96 187.589 468.51
2211 0 77.3676 16.1954 1253 102.555 187.381 471.643
2212 0 79.0982 14.5136 1148 104.72 189.121 470.404
2213 0 82.1367 17.1422 1408 101.099 187.883 469.411
2214 0 83.2024 15.0236 1250 104.082 188.193 470.11
2215 0 86.1602 12.9642 1117 106.96 187.962 464.654
2216 0 89.1514 15.2662 1361 104.696 189.048 461.094
2217 0 93.2113 14.0541 1310 105.069 188.962 464.267
2218 0 94.2203 16.3341 1539 102.948 189.276 459.886
2219 1 54.0693 10.0057 541 107.819 189.763 480.068
2220 0 56.1434 12.005 674 106.622 190.111 475.208
2221 0 57.1401 12.4256 710 106.052 191.272 474.487
2222 0 57.4923 13.0626 751 106.329 191.957 471.521
2223 0 60.3178 13.6278 822 105.474 192.55 470.993
2224 0 61.2408 11.4629 702 109.302 191.657 472.718
2225 0 62.2016 13.6974 852 106.768 193.953 470.601
2226 0 66.0893 12.7403 842 106.815 195.097 473.559
2227 0 64.1782 10.985 705 111.579 194.97 470.183
2228 0 71.3194 16.1807 1154 102.833 194.827 467.18
2229 0 72.3918 13.4684 975 105.995 197.534 469.653
2230 0 74.2077 11.9799 889 109.454 196.101 467.24
2231 0 75.3511 13.3906 1009 106.397 198.768 471.555
2232 0 80.2676 16.3827 1315 103.276 198.539 470.036
2233 0 80.2628 14.9883 1203 105.736 198.544 470.902
2234 0 84.1215 20.8151 1751 97.7424 197.724 472.019
2235 0 85.2711 11.6687 995 113.111 198.684 464.789
2236 0 87.3452 15.7994 1380 107.018 197.16 466.173
2237 0 90.1654 14.2738 1287 110.614 197.052 464.512
2238 0 94.3359 15.466 1459 108.541 195.472 466.783
2239 0 97.3691 12.848 1251 114.049 195.319 462.395
2240 0 98.2232 13.1944 1296 115.415 195.299 465.289
2241 0 101.194 13.8744 1404 114.414 195.363 468.457
2242 0 105.229 14.5493 1531 114.074 192.835 465.349
2243 0 108.212 13.335 1443 116.511 193.166 463.216
2244 0 112.175 14.2902 1603 114.812 191.54 464.712
2245 0 115.193 14.6797 1691 116.042 191.251 453.832
2246 0 118.327 13.5134 1599 119.008 190.692 453.337
2247 0 120.473 13.0901 1577 119.1 190.476 458.152
2248 0 126.297 18.1477 2292 109.964 189.762 460.087
2249 0 129.219 15.4003 1990 117.676 189.016 448.96
2250 0 131.356 14.5558 1912 119.389 189.015 446.051
2251 1 75.3045 12.1507 915 116.276 190.531 478.551
2252 0 80.3759 12.0559 969 117.684 189.353 472.025
2253 0 81.467 14.5703 1187 109.976 190.947 472.168
2254 0 82.3966 14.0661 1159 111.91 190.383 466.614
2255 0 86.3911 15.4298 1333 111.129 189.872 469.726
2256 0 87.3107 12.7705 1115 118.247 190.507 461.459
2257 0 90.5108 16.3074 1476 113.083 191.623 460.007
2258 0 93.3368 14.1959 1325 118.773 192.09 459.218
2259 0 95.3097 12.2128 1164 122.787 192.206 455.381
2260 0 98.7289 15.1425 1495 117.623 191.654 453.861
2261 0 100.315 13.2184 1326 121.921 192.716 452.434
2262 0 106.209 13.0969 1391 121.385 192.569 452.383
2263 0 106.361 15.6824 1668 118.679 193.19 444.028
2264 0 109.511 12.784 1400 122.066 193.884 449.131
2265 0 114.312 11.8536 1355 122.855 193.195 446.819
2266 0 116.304 13.8516 1611 120.758 194.963 441.595
2267 0 121.268 12.5425 1521 122.12 195.715 445.339
2268 0 122.417 12.8332 1571 123.814 194.857 440.579
2269 1 138.413 11.6318 1610 122.103 197.092 440.101
2270 0 137.519 13.7072 1885 120.105 197.262 433.072
2271 0 139.416 13.9008 1938 116.958 197.462 431.983
2272 0 143.632 12.4276 1785 117.587 199.306 435.057
2273 0 147.438 15.3081 2257 112.939 198.7 433.957
2274 0 153.472 14.6151 2243 115.412 198.071 428.169
2275 0 159.434 13.0336 2078 119.975 198.903 426.309
2276 0 166.576 16.5209 2752 114.211 198.36 428.924
2277 0 172.357 16.1061 2776 117.113 197.654 420.579
2278 0 179.424 13.8275 2481 119.449 198.698 427.895
2279 0 185.609 16.3516 3035 117.077 197.668 414.765
2280 0 191.578 14.3753 2754 120.404 198.458 411.358
2281 0 196.687 14.5002 2852 120.127 196.171 409.06
2282 0 206.608 17.7195 3661 114.893 196.624 406.903
2283 0 214.59 15.257 3274 119.494 196.376 410.106
2284 0 220.843 14.5307 3209 121.24 196.197 400.833
2285 0 229.864 13.9822 3214 120.751 194.035 398.425
2286 1 177.419 12.8058 2272 123.554 193.338 420.836
2287 0 184.432 12.281 2265 123.543 192.338 421.293
2288 0 194.816 15.3324 2987 116.466 192.914 424.977
2289 0 201.601 15.3422 3093 116.451 190.652 420.918
2290 0 204.49 13.5263 2766 121.479 191.447 402.605
2291 0 214.678 14.3145 3073 120.546 189.793 401.683
2292 0 221.748 14.539 3224 118.739 189.274 403.876
2293 0 224.856 12.11 2723 119.877 189.227 418.297
2294 1 174.307 11.7379 2046 122.088 189.84 421.161
2295 0 180.331 13.9188 2510 119.204 188.19 419.728
2296 0 185.592 14.6881 2726 120.397 188.142 411.237
2297 0 192.522 15.593 3002 118.611 187.99 414.278
2298 0 198.695 15.6068 3101 119.454 188.993 405.942
2299 0 202.781 13.8327 2805 122.859 188.559 402.918
2300 0 212.311 12.9951 2759 123.828 188.949 399.388
2301 0 218.859 15.4985 3392 119.591 189.435 398.354
2302 0 221.97 12.0602 2677 126.636 189.305 391.819
2303 0 228.87 13.287 3041 123.451 189.788 382.691
2304 1 245.125 13.8909 3405 119.284 191.389 385.468
2305 0 243.529 15.7517 3836 117.118 190.862 379.531
2306 0 251.072 12.7693 3206 120.693 192.552 372.893
2307 0 257.823 14.1066 3637 116.61 191.917 378.212
2308 0 269.46 15.2601 4112 114.459 194.507 375.135
2309 0 277.013 14.1401 3917 117.535 193.232 358.676
2310 0 276.227 13.9776 3861 118.603 195.078 355.868
2311 0 277.552 12.4445 3454 117.296 195.926 379.162
2312 0 277.728 11.7381 3260 116.929 195.467 384.077
2313 0 277.076 11.5817 3209 118.089 196.728 379.373
2314 1 252.798 15.6726 3962 111.976 198.125 386.193
2315 0 259.084 11.6063 3007 120.391 197.656 372.484
2316 0 266.819 12.6415 3373 120.284 198.211 366.647
2317 1 278.821 15.9421 4445 115.494 196.808 360.029
2318 1 291.092 17.0084 4951 113.597 197.827 361.754
2319 0 367.095 23.4027 8591 96.4846 196.823 290.217
2320 0 368.305 28.5253 10506 94.8929 196.275 317.33
2321 0 373.916 27.9555 10453 96.1941 196.026 308.399
2322 0 373.16 26.8946 10036 98.3906 196.068 302.493
2323 0 371.67 25.2859 9398 102.3 196.021 306.075
2324 0 368.752 26.766 9870 101.81 195.704 301.881
2325 0 371.546 24.0724 8944 106.29 194.733 305.068
2326 1 55.1945 6.86663 379 110.219 193.372 473.625
2327 0 62.1708 12.0635 750 103.956 193.017 483.443
2328 0 60.1198 7.53496 453 105.179 192.804 487.751
2329 0 66.1877 10.6969 708 98.7881 192.138 472.153
2330 0 64.1423 3.35192 215 113.014 191.037 476.73
2331 0 66.2235 8.30521 550 104.86 190.798 478.824
2332 0 74.1463 12.9609 961 103 189.145 474.892
2333 0 73.1932 10.7387 786 106.933 189.48 473.421
2334 0 72.2498 8.24916 596 111.659 187.643 471.388
2335 0 80.601 14.6896 1184 103.189 188.64 469.535
2336 0 79.2861 12.3729 981 106.35 187.542 470.162
2337 0 84.4477 13.4876 1139 103.779 188.939 469.305
2338 0 84.2667 15.2967 1289 101.118 188.383 465.619
2340 0 389.785 20.0931 7832 105.265 187.799 286.073
2341 0 385.313 15.8235 6097 112.93 189.338 283.064
2342 0 98.3648 18.9499 1864 95.3734 188.685 452.872
2343 0 100.337 18.3382 1840 95.9418 188.589 459.759
2344 0 104.451 22.0006 2298 92.3059 188.604 451.375
2345 1 64.5616 14.1725 915 97.5978 189.602 474.718
2346 0 62.2608 15.1941 946 98.2125 190.636 472.44
2347 0 65.3032 13.0009 849 100.041 190.536 473.179
2348 0 65.7265 15.3819 1011 93.2532 192.329 464.693
2349 0 65.7265 15.3363 1008 137.068 193.32 464.562
2350 0 66.5337 14.3837 957 100.124 193.953 469.263
2351 0 71.489 14.9673 1070 98.5654 193.802 468.646
2352 0 72.4324 14.7172 1066 99.5882 194.849 465.918
2353 0 72.6385 14.6754 1066 100.435 195.197 466.418
2354 0 77.7138 11.4523 890 102.628 195.717 468.993
2355 0 78.4585 14.1094 1107 100.319 196.445 466.476
2356 0 81.6108 17.1301 1398 97.8834 196.84 464.141
2357 0 80.5538 14.1024 1136 103.01 196.762 461.513
2358 0 85.5544 14.9262 1277 100.333 197.831 466.734
2359 0 85.6153 16.6442 1425 100.295 197.052 459.351
2360 0 89.5863 13.9307 1248 103.085 197.789 464.111
2361 0 88.5624 13.1094 1161 105.938 196.769 459.716
2362 0 92.5549 14.2402 1318 104.747 197.945 459.726
2363 0 94.698 11.5103 1090 108.306 195.036 455.636
2364 0 100.417 16.0631 1613 100.875 196.732 463.295
2365 0 101.518 14.5294 1475 104.569 195.825 459.167
2366 0 109.839 12.0723 1326 107.375 194.715 457.805
2367 0 110.783 13.6483 1512 104.151 194.394 459.635
2368 0 112.567 16.0172 1803 100.378 195.047 461.241
2369 0 121.355 12.0391 1461 104.205 193.075 462.366
2370 0 121.392 14.6139 1774 102.374 191.556 456.353
2371 0 124.51 16.0148 1994 101.058 191.508 453.347
2372 1 74.5827 6.19447 462 100.656 190.814 486.216
2373 0 80.4293 13.1295 1056 96.6411 190.552 476.016
2374 0 81.4928 12.4305 1013 97.9378 189.243 476.606
2375 0 82.5316 9.40246 776 100.991 189.554 475.335
2376 0 84.3848 14.5287 1226 96.9886 189.055 466.659
2377 0 93.5643 12.5261 1172 96.6817 189.062 468.93
2378 0 91.4948 11.0935 1015 100.384 188.481 461.643
2379 0 92.7122 9.89082 917 101.537 188.138 462.515
2380 0 97.286 11.9442 1162 100.052 188.457 456.74
2381 0 101.343 11.2686 1142 101.448 189.004 452.208
2382 0 101.437 9.88792 1003 103.312 189.188 452.316
2383 0 105.329 12.6555 1333 100.477 188.035 446.435
2384 0 111.279 14.9444 1663 95.9375 188.58 456.416
2385 0 116.521 15.4651 1802 94.9456 188.208 452.484
2386 0 116.931 12.563 1469 100.789 188.534 443.423
2387 0 119.569 16.5344 1977 96.7506 189.246 438.826
2388 0 123.285 12.9131 1592 100.466 189.354 435.902
2389 0 128.272 11.3898 1461 102.604 190.357 437.864
2390 0 135.324 14.0773 1905 100.329 191.85 428.138
2391 1 77.0908 8.8986 686 101.23 192.456 461.65
2392 0 82.1726 13.0579 1073 96.0261 192.985 463.464
2393 0 84.3307 13.4826 1137 95.2322 194.884 461.4
2394 0 84.3169 8.88316 749 102.979 194.534 458.854
2395 0 89.1536 11.8111 1053 100.368 195.213 456.521
2396 0 88.2264 7.83212 691 106.748 194.619 451.088
2397 0 97.4108 13.4585 1311 99.6407 196.883 457.613
2398 0 101.667 12.3245 1253 102.425 196.79 453.97
2399 0 105.907 12.8131 1357 98.9853 197.307 463.204
2400 0 106.366 11.4135 1214 105.68 197.246 452.56
2401 0 105.506 13.3358 1407 104.195 196.739 448.803
2402 0 111.523 12.9121 1440 104.466 196.468 453.372
2403 0 113.423 11.1529 1265 108.145 194.909 450.945
2404 0 120.712 10.844 1309 106.788 195.49 456.296
2405 0 127.589 12.8694 1642 105.49 195.388 452.595
2406 0 132.459 17.3262 2295 100.253 195.219 443.836
2407 0 132.459 17.4621 2313 129.481 194.191 443.783
2408 0 140.522 15.8053 2221 102.752 194.528 443.937
2409 0 146.518 14.7968 2168 103.439 194.203 442.618
2410 0 151.524 13.1927 1999 106.696 192.73 439.181
2411 0 158.44 14.1126 2236 104.836 192.568 439.585
2412 0 162.552 15.0106 2440 104.099 190.233 431.22
2413 0 168.407 13.0279 2194 106.874 190.506 430.864
2414 0 174.578 14.8186 2587 103.994 190.414 432.32
2415 0 183.428 16.1862 2969 103.305 189.857 428.098
2416 0 190.375 15.5273 2956 104.691 189.661 421.906
2417 0 196.594 16.033 3152 104.383 189.427 415.144
2418 0 201.586 13.9891 2820 108.84 188.417 415.57
2419 1 118.263 13.2924 1572 105.14 187.878 452.971
2420 0 119.204 13.1203 1564 105.908 187.049 441.515
2421 0 123.301 13.2926 1639 106.442 186.739 446.594
2422 0 127.273 13.4043 1706 106.292 187.931 446.29
2423 0 130.246 11.2479 1465 110.602 187.928 441.872
2424 0 133.649 14.4782 1935 105.406 187.991 444.37
2425 0 136.537 11.2717 1539 110.906 188.086 434.684
2426 0 142.498 14.9195 2126 104.54 188.847 434.376
2427 0 138.492 11.9213 1651 112.394 188.147 416.852
2428 0 143.31 12.8183 1837 109.33 188.845 425.186
2429 0 150.345 12.7839 1922 110.691 188.875 415.587
2430 0 145.282 13.2432 1924 111.805 190.316 413.831
2431 1 22.0204 2.08898 46 92.587 191.326 489.587
2432 0 28.0325 9.41763 264 82.7879 193.686 489.875
2433 0 23.0244 8.20868 189 86.6772 194.381 488.333
2434 0 19.0187 5.10024 97 88.299 194.588 489.856
2435 0 21.0412 3.70701 78 89.6538 195.718 486.41
2436 0 18.0411 6.54063 118 87.1271 195.958 489.322
2437 0 21.0276 3.42407 72 90.5694 196.514 487.556
2438 1 181.345 10.0692 1826 119.39 194.694 388.956
2439 1 202.501 14.0295 2841 111.054 194.921 394.747
2440 0 208.542 13.8341 2885 111.573 196.319 395.674
2441 0 317.238 21.3688 6779 104.424 195.108 349.521
2442 0 324.939 19.6652 6390 107.334 195.707 307.538
2443 0 328.053 12.7175 4172 115.911 195.476 363.662
2444 1 236.686 14.6988 3479 113.419 196.575 376.738
2445 0 244.494 16.8798 4127 110.715 195.003 371.465
2446 0 251.946 15.285 3851 113.578 195.904 376.523
2447 0 258.799 12.7898 3310 118.946 195.398 367.7
2448 0 383.162 24.8041 9504 100.178 194.823 307.457
2449 0 383.086 22.4232 8590 103.134 193.452 295.726
2450 1 303.9 15.2484 4634 113.746 193.524 367.998
2451 0 305.196 17.0579 5206 112.208 191.957 352.179
2452 0 332.424 22.5225 7487 101.977 190.985 321.585
2453 0 334.167 26.1605 8742 100.249 190.852 337.942
2454 0 332.849 18.0052 5993 111.744 189.662 334.718
2455 0 344.986 20.74 7155 108.12 188.647 319.926
2456 1 273.644 11.6282 3182 122.311 188.425 354.048
2457 0 286.62 13.8092 3958 120.413 187.817 364.466
2458 0 293.7 12.4855 3667 123.146 187.55 349.089
2459 0 307.84 23.3855 7199 105.642 187.663 344.859
2460 0 313.622 18.2991 5739 112.823 187.883 339.558
2461 0 323.056 16.6968 5394 115.15 187.565 332.511
2462 0 332.043 14.0133 4653 120.104 186.862 328.133
2463 0 341.775 16.8971 5775 114.893 186.714 318.49
2464 0 355.082 18.6013 6605 113.315 186.754 322.48
2465 1 175.41 8.73954 1533 114.183 186.917 412.873
2466 0 181.229 10.2191 1852 112.419 186.02 405.374
2467 1 72.0811 7.64417 551 103.978 185.301 470.877
2468 0 74.2897 9.53026 708 102.932 186.579 470.364
2469 0 75.169 10.2303 769 103.844 186.43 458.553
2470 0 77.0694 6.74716 520 109.162 187.15 465.054
2471 0 77.3954 8.73437 676 106.451 187.849 467.644
2472 1 19.0358 9.45585 180 96.4722 189.894 492.572
2473 0 18.0235 11.2631 203 93.468 190.571 495.389
2474 0 22.0068 3.77156 83 103.084 190.506 492.855
2475 1 87.1947 11.2966 985 104.86 191.703 462.285
2476 0 91.1208 12.2475 1116 102.823 190.841 461.233
2477 0 94.3194 12.3304 1163 103.852 192.756 460.033
2478 0 94.1221 9.14769 861 110.336 192.523 453.744
2479 0 99.1707 13.3104 1320 102.757 193.528 460.07
2480 0 101.279 11.799 1195 107.251 192.296 458.644
2481 0 103.147 14.3775 1483 105.159 194.461 454.467
2482 0 105.301 11.5478 1216 110.447 193.747 449.188
2483 0 105.264 10.9439 1152 112.003 194.395 447.27
2484 0 111.18 8.80551 979 116.302 193.837 443.264
2485 0 114.192 12.7679 1458 108.966 194.664 454.558
2486 0 115.18 11.5037 1325 111.275 194.035 456.631
2487 0 114.231 8.32522 951 114.32 195.284 451.87
2488 0 124.321 10.111 1257 113.066 195.812 453.352
2489 0 127.205 15.5497 1978 103.482 195.99 461.308
2490 1 146.264 7.17197 1049 111.407 195.631 458.706
2491 0 138.294 9.95706 1377 109.609 193.092 449.168
2492 1 82.25 7.79331 641 112.237 193.552 462.768
2493 0 89.1899 11.7726 1050 105.168 191.742 468.308
2494 0 90.2821 10.9546 989 107.971 190.154 463.066
2495 0 94.1614 12.2131 1150 106.425 190.844 468.353
2496 0 94.318 11.546 1089 109.395 188.406 464.294
2497 0 94.2762 13.5347 1276 107.692 189.373 459.352
2498 0 100.287 15.1664 1521 105.387 187.382 458.421
2499 0 101.23 15.4599 1565 104.919 188.178 462.032
2500 0 100.376 11.4768 1152 111.188 188.167 462.155
2501 0 104.287 12.0341 1255 113.171 188.394 452.493
2502 0 110.19 13.3225 1468 110.112 187.384 456.686
2503 0 112.166 11.171 1253 115.797 187.777 446.004
2504 1 63.11 8.54065 539 106.137 185.942 479.692
2505 0 68.1062 12.3337 840 108.406 187.089 479.839
2506 0 69.1276 9.02679 624 113.913 186.518 478.361
2507 0 68.2395 15.0792 1029 102.672 188.913 474.881
2508 0 68.1654 8.89015 606 111.553 189.939 474.117
2509 0 73.1423 12.4962 914 109.429 187.447 473.143
2510 0 74.1333 11.5063 853 111.547 188.252 474.381
2511 0 76.219 12.9102 984 110.616 186.599 466.882
2512 0 75.1074 15.5244 1166 108.864 188.056 462.659
2513 0 77.2863 11.231 868 115.119 188.478 462.631
2514 0 77.1028 11.4004 879 115.317 188.878 461.42
2515 0 83.1415 14.5174 1207 108.927 189.737 464.375
2516 0 83.1862 11.9972 998 114.729 190.683 457.574
2517 0 86.2024 16.9601 1462 106.519 191.399 457.481
2518 0 88.1188 13.8563 1221 110.988 192.514 457.987
2519 0 91.2534 13.6652 1247 111.848 192.528 455.998
2520 0 96.1823 13.1521 1265 112.499 192.753 453.205
2521 0 96.155 14.0814 1354 112.05 194.767 451.493
2522 0 99.273 13.6694 1357 112.394 193.828 454.681
2523 0 100.142 14.819 1484 111.629 195.218 452.332
2524 0 105.237 16.2776 1713 109.591 194.692 450.175
2525 0 108.325 12.5363 1358 115.644 195.461 453.395
2526 0 111.192 13.841 1539 113.883 194.858 447.763
2527 1 63.1141 9.09464 574 116.354 194.765 471.395
2528 0 65.0913 11.2918 735 109.916 194.165 479.276
2529 0 68.3197 9.47018 647 111.835 194.867 479.657
2530 0 71.112 10.9686 780 104.995 195.383 482.441
2531 0 76.3076 12.2268 933 103.663 193.621 479.991
2532 0 81.3128 15.2866 1243 98.9179 192.922 481.7
2533 0 80.1498 16.2571 1303 100.674 192.394 476.4
2534 0 85.0767 11.4955 978 109.574 191.132 474.915
2535 0 86.1037 16.8866 1454 102.779 189.86 470.516
2536 0 87.359 15.1558 1324 105.824 189.581 467.183
2537 0 88.1445 10.5168 927 113.385 188.647 465.672
2538 0 93.3223 11.9157 1112 110.353 188.475 467.708
2539 0 96.2941 10.7483 1035 113.075 189.443 455.334
2540 0 99.5009 17.427 1734 102.878 188.345 466.119
2541 0 101.397 14.0142 1421 108.443 187.575 457.923
2542 0 110.589 14.7212 1628 105.206 187.327 463.059
2543 0 109.674 13.6222 1494 107.88 188.078 460.892
2544 0 110.509 11.981 1324 111.443 186.534 450.728
2545 0 112.341 9.31981 1047 115.007 187.176 450.503
2546 1 64.1776 10.1593 652 107.156 188.635 476.985
2547 0 69.2691 13.296 921 104.75 187.134 473.706
2548 0 66.1302 11.6286 769 110.588 187.264 470.754
2549 0 71.1516 14.4199 1026 105.847 187.141 470.579
2550 0 73.1887 11.8734 869 108.837 188.03 469.427
2551 0 74.2636 14.4216 1071 105.1 189.295 466.897
2552 0 77.1111 10.4006 802 112.283 188.62 458.143
2553 0 81.5236 11.1992 913 111.314 190.805 458.755
2554 0 83.3386 17.2909 1441 102.515 189.863 458.881
2555 0 88.4504 11.7806 1042 109.259 192.718 464.131
2556 0 88.379 15.2525 1348 106.276 192.226 458.375
2557 0 94.4433 15.2049 1436 106.268 192.61 458.179
2558 0 93.2553 14.0475 1310 108.949 192.973 457.192
2559 0 98.6327 15.1066 1490 107.209 194.673 457.649
2560 0 103.418 11.8355 1224 111.394 193.79 456.945
2561 0 104.378 14.1314 1475 109.845 194.023 451.471
2562 0 109.516 12.8565 1408 110.387 194.92 453.121
2563 0 114.413 17.6379 2018 103.228 195.579 449.013
2564 0 118.524 17.7939 2109 103.724 195.618 446.089
2565 0 122.456 16.8796 2067 104.576 194.724 442.185
2566 1 66.5658 9.08875 605 109.38 195.367 473.998
2567 0 76.2766 11.4714 875 103.273 195.923 478.378
2568 0 76.2454 16.3682 1248 98.5248 196.404 476.675
2569 0 76.4612 9.69118 741 108.126 196.103 476.74
2570 0 80.2369 11.3165 908 105.901 194.648 476.413
2571 0 86.2841 16.1675 1395 100.662 194.346 474.865
2572 0 85.2822 13.5433 1155 104.576 194.104 475.262
2573 0 92.4733 12.2738 1135 104.642 193.681 479.497
2574 0 94.3146 15.0666 1421 102.924 192.869 472.044
2575 0 95.2945 13.0858 1247 105.886 191.444 469.678
2576 0 103.324 14.3819 1486 103.313 191.608 470.709
2577 0 100.472 11.9038 1196 108.967 190.153 464.423
2578 0 103.574 11.8177 1224 109.562 190.029 463.409
2579 0 106.298 11.7312 1247 110.245 189.76 458.616
2580 0 109.383 14.3715 1572 107.004 188.683 456.179
2581 0 113.447 15.5844 1768 103.365 189.269 462.22
2582 0 116.665 18.2488 2129 100.957 188.764 451.15
2583 0 117.469 13.212 1552 106.101 188.365 456.222
2584 0 122.463 12.8202 1570 106.427 187.787 453.942
2585 0 125.411 16.5695 2078 100.609 189.552 453.571
2586 0 128.324 14.3309 1839 104.61 187.856 443.533
2587 0 134.468 11.8616 1595 106.544 188.791 447.79
2588 0 138.489 12.0876 1674 107.851 188.337 442.305
2589 0 140.672 11.9782 1685 108.457 187.923 432.203
2590 0 146.353 15.9955 2341 104.132 188.216 431.238
2591 0 148.478 12.2914 1825 109.89 188.454 427.182
2592 1 91.3747 9.49934 868 105.137 188.9 465.608
2593 0 95.3871 13.3456 1273 103.067 188.436 455.063
2594 0 98.4907 14.4988 1428 101.702 188.076 455.304
2595 0 100.58 12.2092 1228 108.283 190.247 452.156
2596 0 102.397 13.5649 1389 105.387 190.224 455.834
2597 0 104.352 12.8891 1345 106.284 191.276 456.903
2598 0 107.546 13.6779 1471 103.895 192.567 456.058
2599 0 112.444 14.8429 1669 104.427 191.946 446.344
2600 0 117.36 14.1616 1662 105.807 193.197 445.989
2601 0 120.554 14.8564 1791 104.949 193.73 443.74
2602 0 123.435 11.7957 1456 108.363 192.994 444.603
2603 0 127.302 16.834 2143 102.949 193.242 444.506
2604 0 131.488 13.1343 1727 107.933 195.042 439.432
2605 0 138.66 13.7531 1907 107.064 194.555 440.277
2606 0 139.371 14.5367 2026 105.504 194.482 440.427
2607 1 86.2318 12.7679 1101 105.318 193.986 471.064
2608 0 88.3515 13.0275 1151 105.007 195.348 469.546
2609 0 92.2429 13.9306 1285 106.14 195.499 471.325
2610 0 92.2212 13.9014 1282 107.094 194.825 468.314
2611 0 95.2143 11.3428 1080 111.731 193.471 462.852
2612 0 105.306 16.4568 1733 102.371 194.021 470.99
2613 0 107.215 13.2258 1418 109.018 194.672 466.267
2614 0 107.302 12.1246 1301 112.201 193.844 459.901
2615 0 112.276 14.6425 1644 108.763 192.976 461.244
2616 0 116.15 14.5415 1689 108.313 191.278 461.995
2617 0 121.165 12.5696 1523 111.221 190.479 459.896
2618 0 122.158 11.3869 1391 114.434 189.881 448.852
2619 0 128.228 13.9907 1794 110.438 189.662 452.398
2620 0 135.297 15.9501 2158 107.681 187.405 445.9
2621 0 140.425 14.1855 1992 109.495 187.747 446.326
2622 0 142.478 15.6305 2227 107.304 188.73 450.347
2623 1 81.2569 9.11922 741 112.928 188.297 469.638
2624 0 83.1038 12.0813 1004 108.462 186.327 469.284
2625 0 86.2714 14.7789 1275 103.827 186.144 463.137
2626 0 88.2585 11.6589 1029 110.089 185.437 464.371
2627 0 91.3652 12.6635 1157 108.032 186.466 463.506
2628 0 91.1883 9.77099 891 111.894 186.526 465.437
2629 0 96.2561 13.0174 1253 107.814 185.293 455.617
2630 0 95.416 11.7381 1120 112.609 187.711 451.331
2631 0 102.295 10.4697 1071 113.894 187.317 448.938
2632 0 106.399 17.8948 1904 102.699 187.994 451.504
2633 0 109.367 13.6788 1496 107.946 187.737 452.246
2634 0 111.517 16.3025 1818 105.976 188.271 452.482
2635 0 117.383 14.1844 1665 108.856 188.856 446.754
2636 0 116.373 14.1614 1648 108.734 190.035 437.527
2637 0 123.249 16.5925 2045 103.083 190.267 445.897
2638 0 126.338 14.3821 1817 105.104 191.345 444.927
2639 0 128.229 13.0626 1675 107.135 190.64 438.91
2640 0 125.114 12.3967 1551 109.627 192.44 430.232
2641 0 135.352 17.6577 2390 101.853 192.021 428.546
2642 1 89.409 14.2491 1274 100.35 194.862 457.36
2643 0 91.6089 13.4703 1234 101.321 195.658 451.104
2644 0 97.4196 12.7387 1241 104.768 195.24 460.557
2645 0 98.406 12.4992 1230 103.79 195.028 457.662
2646 0 104.235 13.6999 1428 105.762 195.202 458.064
2647 0 106.608 12.3255 1314 105.337 193.612 457.191
2648 0 110.482 12.355 1365 105.711 193.049 454.57
2649 0 110.406 16.8468 1860 100.022 193.35 458.128
2650 0 118.598 15.0171 1781 101.91 192.126 456.097
2651 0 118.453 15.5843 1846 101.652 191.542 456.953
2652 0 120.322 14.5443 1750 104.11 191.679 446.135
2653 0 125.369 13.3925 1679 106.057 189.323 448.995
2654 0 128.458 13.1171 1685 106.752 188.146 443.38
2655 0 136.591 14.0053 1913 103.881 188.233 450.211
2656 0 136.289 15.1809 2069 104.336 187.72 437.012
2657 0 144.606 18.63 2694 99.6017 186.71 431.335
2658 0 153.564 23.2281 3567 94.836 186.967 435.021
2659 1 83.2292 11.4022 949 104.918 186.287 468.22
2660 0 85.163 11.4017 971 106.748 186.378 460.067
2661 0 89.3109 14.8134 1323 100.04 185.825 463.899
2662 0 90.2409 11.8682 1071 107.419 184.669 459.87
2663 0 91.1073 17.7483 1617 99.7823 184.298 458.378
2664 0 95.1746 15.813 1505 102.834 183.563 455.646
2665 0 92.3345 13.8626 1280 107.455 184.609 448.499
2666 0 102.282 12.7001 1299 106.449 185.052 452.609
2667 0 105.357 17.6353 1858 101.118 185.309 442.92
2668 0 111.422 13.9649 1556 105.099 185.51 448.279
2669 0 110.302 14.1249 1558 106.813 185.286 441.775
2670 0 118.183 17.4983 2068 100.861 186.246 442.197
2671 0 117.211 15.8006 1852 103.905 186.391 440.665
2672 0 120.131 19.1791 2304 99.1102 187.448 441.471
2673 0 112.294 10.1163 1136 113.66 187.562 429
2674 0 123.394 10.6975 1320 111.077 188.485 436.08
2675 0 131.285 14.0991 1851 106.85 188.491 431.992
2676 0 138.418 23.6964 3280 95.4628 188.44 435.586
2677 0 142.335 13.5315 1926 106.163 190.892 427.242
2678 0 153.28 14.7377 2259 100.13 191.855 438.584
2679 0 154.399 17.3576 2680 99.5702 192.129 428.244
2680 1 237.613 12.7645 3033 106.583 191.871 392.232
2681 1 94.3752 8.56158 808 103.715 191.921 457.163
2682 0 97.4 13.46 1311 100.32 192.404 450.228
2683 0 107.404 16.2656 1747 95.7516 192.396 462.112
2684 0 102.297 13.754 1407 102.966 194.15 454.829
2685 0 107.328 16.3331 1753 98.4392 192.93 460.669
2686 0 109.387 12.4238 1359 103.598 193.115 456.137
2687 0 113.31 11.0846 1256 106.151 192.045 452.176
2688 0 115.213 14.7379 1698 102.997 192.893 447.41
2689 0 117.424 17.9861 2112 99.8665 193.103 448.031
2690 0 122.523 13.5158 1656 104.179 191.598 453.15
2691 0 130.677 16.2615 2125 100.452 192.534 450.808
2692 0 131.336 14.2307 1869 104.393 193.591 448.44
2693 0 133.651 13.1312 1755 106.263 191.766 439.492
2694 0 143.624 16.3831 2353 101.529 191.994 440.649
2695 0 146.707 14.9686 2196 103.74 191.588 437.934
2696 0 150.594 16.5412 2491 102.861 189.638 437.275
2697 0 157.464 14.3716 2263 105.059 189.715 439.49
2698 1 94.3354 9.78424 923 106.444 188.966 469.843
2699 0 93.1587 12.892 1201 100.739 185.643 468.312
2700 0 95.2436 11.3918 1085 107.124 186.087 460.631
2701 0 98.1336 15.4789 1519 99.5484 185.407 466.674
2702 0 104.366 13.2227 1380 91.9044 185.056 461.393
2703 0 103.223 12.9623 1338 93.6936 184.361 451.995
2704 0 108.33 13.5974 1473 92.444 185.027 455.293
2705 0 113.272 14.3019 1620 91.829 183.572 446.269
2706 0 113.267 14.6557 1660 90.7663 183.616 454.193
2707 0 115.328 15.7724 1819 91.6262 183.695 447.261
2708 0 122.375 14.7497 1805 92.4055 183.972 442.712
2709 0 112.284 13.4392 1509 94.3797 185.284 441.485
2710 0 122.291 18.6767 2284 89.9282 184.981 439.761
2711 0 131.441 15.4747 2034 93.2586 185.929 437.241
2712 0 131.401 16.3469 2148 92.8566 186.946 431.588
2713 0 138.217 16.9082 2337 92.1545 186.542 429.545
2714 0 140.609 13.8896 1953 94.3794 186.306 423.683
2715 0 134.5 16.3048 2193 93.4993 188.402 421.474
2716 1 223.437 14.0487 3139 95.3657 188.094 390.517
2717 0 217.52 19.9246 4334 91.1117 187.466 386.88
2718 0 214.781 14.7546 3169 96.3339 189.84 377.39
2719 1 226.806 15.0746 3419 95.3709 190.611 383.32
2720 0 216.852 10.5003 2277 95.8384 190.844 408.364
2721 1 21.0345 2.9 61 78.6393 189.984 486.902
2722 0 20.0169 2.74768 55 81.3455 192.018 480.473
2723 0 23.0197 3.82281 88 77.6477 192.352 486.557
2724 0 17.0406 12.793 218 73.4771 191.381 487.482
2725 0 11.0109 4.54097 50 77.82 191.84 490.26
2726 0 13.0219 10.5975 138 74.0652 193.138 493
2727 0 20.0388 4.7907 96 76.6562 193.281 494.771
2728 0 9.03673 9.18474 83 73.7711 192.651 499.181
2729 0 17.0107 4.35021 74 79.6622 195.284 495.662
2730 0 19.0439 6.45878 123 77.0813 195.35 492.919
2731 1 232.625 18.5105 4306 91.6795 192.277 392.757
2732 0 242.874 24.0166 5833 87.5153 191.566 395.402
2733 0 247.288 20.1708 4988 91.663 191.291 377.419
2734 1 277.833 14.9262 4147 92.94 191.677 394.616
2735 0 278.792 16.6863 4652 94.4396 191.48 376.714
2736 0 279.64 14.3542 4014 98.7304 190.292 354.501
2737 1 28.1797 13.3429 376 78.4202 190.003 503.832
2738 0 19.2105 3.22741 62 83.2419 189.677 507.871
2739 0 20.156 11.3614 229 77.8079 190.415 507.306
2740 0 16.0398 5.98512 96 82.6458 188.302 505.927
2741 0 21.0277 7.46634 157 78.3631 187.975 509.917
2742 0 24.0214 8.53404 205 78.361 186.951 504.415
2743 0 15.0399 6.25004 94 80.7766 187.181 506.681
2744 0 16.024 2.12182 34 87.2059 186.794 505.294
2745 0 19.0402 11.6596 222 78.0496 186.041 506.405
2746 0 17.0333 4.34444 74 84.7432 185.554 506.338
2747 0 16.0207 7.42789 119 81.6218 186.874 505.513
2748 0 20.0721 6.12791 123 81.8537 185.423 505.252
2749 0 19.0091 7.83835 149 82.0805 185.342 500.154
2750 0 14.0127 10.1337 142 81.1479 183.204 493.894
2751 0 351.54 17.4944 6150 97.5594 185.559 312.789
2752 0 365.454 26.6928 9755 89.3196 184.544 314.229
2753 1 107.311 16.755 1798 85.4416 184.801 451.145
2754 0 107.376 8.75426 940 101.605 185.938 444.114
2757 0 390.557 22.0122 8597 101.552 187.291 286.875
2758 0 13.0141 6.53136 85 87.4941 189.894 499.812
2759 0 10.0112 5.69364 57 89.2982 190.351 499.614
2760 0 13.0293 4.98874 65 92.4308 190.338 495.015
2761 0 16.0039 3.18672 51 90.7647 189.333 497.706
2762 0 8.00086 3.7496 30 92.4333 188.933 496.8
2763 0 86.5018 11.8841 1028 97.1196 190.366 452.792
2764 1 13.0042 5.53668 72 90.5556 191.569 498.139
2765 0 7.00016 6.71413 47 87.0426 192.085 499.128
2766 1 103.356 16.5447 1710 91.269 191.005 460.93
2767 0 103.387 20.2153 2090 122.501 190.096 457.058
2768 0 106.375 22.1386 2355 87.7427 190.765 451.671
2769 0 106.367 14.2055 1511 97.313 193.271 456.285
2770 0 105.426 14.6738 1547 97.2967 193.297 454.537
2771 0 105.426 14.7213 1552 140.402 194.288 454.312
2772 0 110.321 15.5908 1720 94.7564 194.344 466.498
2773 0 111.395 12.8821 1435 99.1463 193.445 462.498
2774 0 119.552 17.5489 2098 93.9857 194.813 459.905
2775 0 118.5 13.6371 1616 96.8434 193.408 465.182
2776 0 122.442 17.5186 2145 95.5455 193.161 458.649
2777 0 120.38 10.8822 1310 104.988 193.006 450.837
2778 0 126.655 12.9959 1646 101.57 193.294 452.14
2779 0 128.459 12.5254 1609 102.802 192.184 448.244
2780 0 133.374 16.2175 2163 96.3338 191.84 456.665
2781 0 137.246 17.1226 2350 96.2932 192.3 452.141
2782 0 138.266 14.6529 2026 100.236 192.08 444.396
2783 0 144.417 14.3473 2072 99.6042 190.724 443.451
2784 0 144.451 12.6202 1823 101.921 190.239 441.082
2785 0 142.439 9.44263 1345 103.043 189.917 437.723
2786 0 152.831 10.9925 1680 99.8994 189.904 438.708
2787 1 89.4308 12.2888 1099 93.4632 188.92 462.805
2788 0 90.4677 6.02425 545 100.85 187.057 454.319
2789 0 97.3791 17.7553 1729 92.5564 187.143 462.191
2790 0 97.3972 12.6698 1234 97.6134 186.655 463.928
2791 0 102.514 13.8322 1418 96.9965 186.501 460.105
2792 0 100.757 12.6939 1279 97.5817 187.299 464.529
2793 0 106.439 18.5553 1975 91.6405 187.735 462.273
2794 0 113.405 10.3434 1173 101.508 186.836 452.758
2795 0 112.419 12.0443 1354 100.657 187.519 445.963
2796 0 112.455 10.8577 1221 102.287 187.929 445.119
2797 0 118.523 14.1322 1675 98.4567 187.845 442.214
2798 0 123.661 13.2216 1635 99.6942 189.597 439.035
2799 0 126.651 12.6885 1607 99.7138 189.755 442.202
2800 0 130.684 16.5972 2169 95.8409 190.396 437.882
2801 0 131.532 12.248 1611 100.241 190.308 434.967
2802 0 132.505 12.3543 1637 100.203 190.656 424.976
2803 0 142.792 18.0892 2583 89.8978 189.945 437.208
2804 1 88.7719 11.8957 1056 93.642 191.55 459.154
2805 0 91.6749 15.3259 1405 93.0185 192.591 456.667
2806 0 87.2561 5.95947 520 103.431 191.379 450.808
2807 0 89.2861 14.8175 1323 92.65 192.676 454.463
2808 0 93.2807 13.1002 1222 94.9583 193.191 449.247
2809 0 97.2503 10.5912 1030 96.5058 193.052 450.519
2810 0 92.3113 13.0103 1201 96.2306 192.441 447.877
2811 0 99.2656 15.3729 1526 93.5852 192.149 443.166
2812 0 100.428 21.6074 2170 87.1442 192.474 454.302
2813 0 100.136 11.5243 1154 100.229 193.679 441.696
2814 0 107.49 11.0429 1187 98.043 195.108 450.1
2815 0 108.197 13.614 1473 96.093 193.668 449.54
2816 0 115.524 18.2126 2104 91.6868 193.964 446.641
2817 0 115.475 17.0947 1974 92.0233 194.304 454.977
2818 0 114.248 12.2015 1394 99.3429 194.462 443.438
2819 0 122.588 13.6066 1668 96.1133 194.173 443.591
2820 0 123.317 14.4505 1782 94.9388 192.921 445.671
2821 0 129.377 21.1939 2742 88.7272 194.298 441.235
2822 0 129.334 9.01543 1166 100.804 194.237 436.665
2823 1 76.1142 9.40691 716 96.8366 193.608 456.568
2824 0 78.2946 8.63406 676 97.1627 193.7 457.286
2825 0 86.2292 12.5479 1082 91.1664 192.168 463.752
2826 0 84.1011 10.4755 881 95.1634 191.901 455.831
2827 0 86.4368 8.00585 692 99.0939 191.65 449.721
2828 0 93.2826 13.8504 1292 91.1176 190.981 455.656
2829 0 91.2234 11.0717 1010 92.3663 190.845 457.425
2830 0 98.2289 13.8656 1362 88.8678 189.627 460.012
2831 0 101.532 22.9781 2333 81.5212 188.178 462.853
2832 0 104.449 17.3003 1807 85.87 187.432 456.879
2833 0 107.448 13.56 1457 91.5854 187.901 441.147
2834 0 99.45 14.8718 1479 91.9601 188.761 444.256
2835 0 104.299 16.0596 1675 91.4406 188.183 442.532
2836 0 112.381 14.4598 1625 93.1108 187.563 439.759
2837 0 105.328 11.2506 1185 95.8852 188.664 444.976
2838 0 107.376 3.44582 370 102.008 188 451.1
2839 0 109.209 6.75767 738 98.6545 186.648 458.535
2840 1 14.0316 1.42535 20 84.2 190.75 492.7
2841 0 17.035 7.27915 124 77.0403 191.339 491.734
2842 0 18.0113 5.77416 104 80.0481 189.904 494.731
2843 0 12.0137 14.8164 178 73.6629 187.185 485.213
2844 1 77.1667 14.0734 1086 90.7505 191.331 450.643
2845 1 96.3641 13.3452 1286 94.5521 190.455 456.369
2846 0 95.3316 13.4583 1283 96.9018 192.793 453.198
2847 0 99.268 13.529 1343 96.4914 191.964 449.676
2848 0 99.3504 12.5415 1246 98.5329 194.137 450.575
2849 0 103.381 19.5878 2025 89.2143 194.091 461.181
2850 0 102.196 13.2686 1356 99.368 194.93 439.206
2851 0 108.258 15.9064 1722 95.1794 196.001 454.037
2852 0 108.132 13.9737 1511 99.7399 196.04 443.04
2853 0 111.328 13.7792 1534 98.9244 196.055 450.641
2854 0 115.245 14.2392 1641 100.065 197.65 445.285
2855 0 117.201 13.6945 1605 100.343 197.066 448.115
2856 0 120.144 13.5587 1629 102.985 197.672 437.859
2857 0 121.287 13.2331 1605 99.696 195.584 442.166
2858 0 123.261 13.589 1675 101.312 195.679 438.093
2859 0 132.27 15.5288 2054 99.4542 195.162 442.379
2860 0 135.366 12.758 1727 102.871 194.775 442.66
2861 0 138.422 13.6539 1890 101.6 195.939 439.714
2862 1 82.1759 13.3494 1097 96.8268 195.624 468.355
2863 0 84.2888 8.53019 719 101.483 196.975 465.825
2864 0 90.2258 13.2002 1191 94.5869 195.928 472.057
2865 0 91.2563 11.8348 1080 100.519 196.09 464.756
2866 0 90.3125 11.4491 1034 102.426 194.812 459.725
2867 0 93.4566 11.7274 1096 100.581 195.426 469.195
2868 0 100.179 14.6937 1472 97.9518 194.073 462.132
2869 0 104.201 14.1649 1476 98.1809 193.362 465.281
2870 0 102.23 14.8 1513 99.4104 191.842 454.065
2871 0 110.493 18.9694 2096 94.1822 192.141 459.752
2872 0 113.362 17.6337 1999 97.3537 190.826 451.518
2873 0 112.359 14.3202 1609 102.28 191.996 453.36
2874 0 119.295 14.0073 1671 101.482 190.342 454.323
2875 0 118.287 14.2873 1690 101.721 190.136 456.575
2876 0 123.353 16.1649 1994 100.79 189.704 443.769
2877 0 125.489 16.9178 2123 99.5619 190.302 447.204
2878 0 123.236 10.4515 1288 110.087 189.379 438.538
2879 0 132.398 16.9489 2244 100.639 189.283 442.681
2880 0 135.578 13.896 1884 102.89 187.479 440.233
2881 0 137.375 17.6015 2418 99.5947 189.57 438.108
2882 0 141.365 16.7439 2367 100.24 188.7 434.933
2883 0 143.568 13.4919 1937 103.13 189.768 427.825
2884 0 152.606 12.6011 1923 99.5195 188.486 432.034
2885 1 91.1448 9.63302 878 95.9453 188.384 454.511
2886 0 91.106 15.6411 1425 92.9544 188.645 450.177
2887 0 92.1406 9.33356 860 100.526 188.329 445.786
2888 0 98.2567 13.6377 1340 92.1246 190.077 455.84
2889 0 95.1712 10.6545 1014 100.146 190.816 438.221
2890 0 102.365 12.8657 1317 95.7912 190.369 441.506
2891 0 97.2179 8.44494 821 102.214 191.596 438.898
2892 1 106.246 8.6403 918 100.661 191.566 441.129
2893 0 112.251 12.7661 1433 98.1075 192.227 439.252
2894 0 115.435 12.8297 1481 99.9966 192.847 431.621
2895 0 120.366 14.0737 1694 102.383 192.963 442.367
2896 0 123.171 14.2079 1750 103.14 194.922 437.293
2897 0 126.533 11.4753 1452 105.811 195.708 444.532
2898 0 129.396 11.8628 1535 106.455 195.348 437.121
2899 0 134.294 12.8375 1724 104.718 194.255 435.256
2900 0 136.396 13.0502 1780 104.637 195.346 436.999
2901 0 142.651 12.3308 1759 106.452 196.578 432.912
2902 0 144.495 13.8344 1999 104.21 197.239 433.843
2903 0 151.535 13.5876 2059 105.014 196.79 431.75
2904 0 157.491 18.0073 2836 99.6707 196.246 426.803
2905 0 157.784 10.6094 1674 109.738 196.235 422.191
2906 0 165.522 13.9377 2307 103.71 194.829 422.158
2907 0 169.418 13.629 2309 102.321 195.73 419.254
2908 0 172.315 15.8721 2735 100.201 196.637 417.418
2909 0 178.77 13.7998 2467 101.592 195.644 422.64
2910 0 184.725 12.7649 2358 101.887 194.475 425.094
2911 0 188.666 14.8622 2804 100.789 194.956 418.009
2912 0 190.697 14.1691 2702 103.399 194.409 400.818
2913 0 198.719 11.8308 2351 104.831 193.432 411.276
2914 0 206.942 17.3961 3600 98.4933 192.019 411.208
2915 0 212.891 13.2791 2827 102.962 190.61 404.403
2916 0 216.012 14.8047 3198 101.506 190.805 403.588
2917 0 224.901 13.855 3116 102.909 190.892 402.375
2918 1 59.0826 7.5149 444 97.1216 192.547 474.604
2919 0 60.1875 7.84217 472 100.769 191.386 476.174
2920 0 62.1164 14.3118 889 93.5714 191.103 478.839
2921 0 64.204 12.3201 791 96.3376 189.689 477.965
2922 0 65.1883 12.7477 831 95.5403 191.57 476.576
2923 0 69.2035 14.4935 1003 92.998 189.829 478.34
2924 0 69.2035 14.4357 999 121.046 187.88 478.349
2925 0 74.3996 12.6882 944 95.5593 190.876 471.153
2926 0 76.0893 10.6322 809 99.5538 190.569 467.104
2927 0 75.2352 15.4848 1165 94.9013 189.083 467.014
2928 0 73.3107 10.1077 741 98.5196 189.035 464.955
2929 0 76.1158 10.5234 801 92.9725 190.796 472.106
2930 0 83.3646 12.0675 1006 94.5089 190.431 464.273
2931 1 37.0649 9.22705 342 89.2251 191.327 483.728
2932 0 36.0339 13.2098 476 85.313 191.008 485.8
2933 0 35.1189 8.74173 307 91.5896 191.935 481.143
2934 0 39.2182 12.7747 501 86.6707 193.144 481.447
2935 0 34.2078 10.5239 360 90.9222 193.997 482.319
2936 0 36.1268 5.3423 193 93.9896 194.819 480.819
2937 0 38.1291 13.4281 512 85.4961 194.189 485.377
2938 0 37.0443 9.98805 370 89.973 195.592 484.659
2939 0 37.2131 11.0714 412 87.3447 194.549 486.949
2940 0 37.2691 7.35193 274 91.9416 195.416 485.719
2941 0 38.1321 6.47749 247 94.8583 195.802 488.089
2942 0 37.1867 10.2456 381 91.9974 194.843 486.1
2943 0 38.2753 9.5623 366 91.5874 196.221 488.831
2944 0 39.2639 9.77998 384 92.3724 196.284 488.943
2945 0 41.1672 13.2144 544 87.2114 196.028 488.936
2946 0 36.1312 10.2128 369 92.3767 195.431 488.642
2947 0 35.1763 7.8462 276 93.9783 194.877 492.678
2948 0 36.4448 6.28347 229 95.476 195.485 493.585
2949 0 38.219 11.1725 427 89.9789 196.005 491.426
2950 0 35.3012 6.71366 237 94.2236 195.928 494.143
2951 0 37.3094 7.478 279 93.7419 195.57 495.548
2952 0 37.0668 12.3291 457 89.3042 194.81 494.037
2953 0 38.1679 11.4232 436 89.6307 195.025 494.337
2954 0 39.0759 9.46876 370 92.7324 194.33 494.419
2955 0 41.1661 9.32807 384 93.4193 194.357 498.266
2956 0 40.1736 11.2761 453 92.1943 192.731 495.667
2957 0 41.1743 16.6852 687 86.4309 192.747 494.774
2958 0 41.0291 11.7234 481 89.1559 193.462 497.917
2959 0 40.0302 11.7661 471 89.5987 194.161 496.123
2960 0 37.1807 12.6947 472 89.839 192.833 494.6
2961 0 38.102 9.3171 355 91.0563 192.476 498.504
2962 0 38.0578 13.1642 501 89.1896 191.415 495.096
2963 0 40.206 11.7147 471 90.4204 192.363 493.081
2964 0 38.1551 9.54002 364 90.9533 190.385 497.302
2965 0 38.1055 9.23752 352 93.2926 190.98 495.653
2966 0 38.0812 10.5564 402 92.5896 191.047 492.493
2967 0 40.1358 8.74531 351 93.5897 190.632 493.521
2968 0 37.0608 6.79964 252 95.3095 190.802 492.484
2969 0 41.5235 18.9772 788 83.1675 189.628 489.999
2970 1 116.431 12.0759 1406 107.22 189.078 445.457
2971 0 114.246 13.5584 1549 106.249 189.062 438.46
2972 1 38.1503 10.6159 405 91.5802 192.23 485.869
2973 0 39.1269 10.7599 421 90.4204 192.166 491.423
2974 0 36.1405 6.88979 249 96.0562 192.265 488.888
2975 0 39.0419 9.2721 362 92.2265 192.196 488.884
2976 0 39.0222 11.8394 462 89.9286 192.905 487.307
2977 0 37.0304 5.56299 206 96.1262 194.621 491.553
2978 0 38.0454 7.14935 272 96.8309 193.978 486.522
2979 0 36.0868 5.73618 207 98.4638 194.502 487.324
2980 0 43.304 11.2923 489 92.1084 196.131 487.17
2981 0 38.0222 9.86265 375 94.9227 196.493 483.968
2982 0 37.017 11.8054 437 92.4851 197.211 486.007
2983 0 36.2046 9.41868 341 92.1613 196.349 491.985
2984 0 38.0557 9.0131 343 94.8309 198.461 487.668
2985 0 38.0886 9.26786 353 95.0425 198.215 484.853
2986 0 39.032 12.0926 472 91.0551 198.54 491.644
2987 0 38.0282 9.62445 366 94.6721 197.943 490.822
2988 0 39.0659 9.85515 385 93.2727 198.135 491.99
2989 0 37.0685 9.98153 370 94.5189 197.386 494.386
2990 0 35.0831 6.0713 213 98.9249 197.775 490.977
2991 0 37.0552 8.52782 316 96.1044 196.845 496.472
2992 0 35.0564 6.67496 234 97.3846 197.021 493.765
2993 0 35.0948 5.69885 200 96.81 197.19 499.615
2994 0 35.0599 10.5819 371 92.6469 196.623 499.962
2995 0 36.0477 5.82562 210 98.4333 196.252 497.467
2996 0 37.3351 11.5173 430 92.586 194.314 496.588
2997 0 37.0133 7.21363 267 95.8689 194.794 499.723
2998 0 36.1475 8.96327 324 94.6944 194.676 499.37
2999 0 38.1401 12.2706 468 90.9637 194.368 499.348
3000 0 35.1527 8.87557 312 94.8494 193.266 500.25
3001 0 33.1685 5.36653 178 114.685 192.236 503.73
3002 0 33.1818 6.23835 207 97.285 191.758 500.415
3003 0 36.0535 8.79249 317 94.7666 190.555 500.123
3004 0 36.2016 5.24839 190 97.579 191.189 499.342
3005 0 37.1138 6.52048 242 96.686 189.5 497.298
3006 0 36.0173 4.30349 155 97.6968 188.742 500.613
3007 1 99.3333 9.32215 926 110.995 188.154 463.43
3008 0 104.154 11.2526 1172 108.737 188.561 460.567
3009 0 104.333 12.3067 1284 107.166 188.095 460.557
3010 0 105.307 8.461 891 114.513 188.123 450.607
3011 0 106.603 11.6882 1246 102.922 188.364 466.764
3012 1 39.1003 8.20965 321 93.7383 189.511 492.069
3013 0 38.0449 11.3813 433 91.067 189.155 491.61
3014 0 38.0449 11.1447 424 103.448 190.108 491.594
3015 0 38.118 7.39808 282 94.0603 189.603 490.947
3016 1 85.414 10.2208 873 102.376 189.151 472.074
3017 1 44.1619 7.22341 319 91.6332 191.492 492.862
3018 0 34.0233 5.43745 185 97.0649 190.265 484.838
3019 0 26.1091 4.13649 108 98.7315 191.843 487.5
3020 0 35.1669 3.29856 116 114.914 193.612 485.362
3021 0 36.1181 7.08785 256 95.8789 192.398 485.352
3022 0 41.0599 10.0585 413 92.46 193.012 483.421
3023 0 39.1082 10.1769 398 90.5352 192.869 489.548
3024 0 33.357 3.53749 118 99.5593 194.534 484.915
3025 0 36.0491 3.85585 139 99.3957 195.36 486.683
3026 0 30.1806 8.25033 249 96.0281 195.803 489.888
3027 0 38.0452 3.99525 152 99.6184 196.539 488.987
3028 0 41.0837 12.0729 496 90.6411 195.837 490.355
3029 0 38.0398 4.20612 160 99.5188 196.762 487.525
3030 0 38.1765 5.05547 193 98.0725 195.979 491.684
3031 0 34.0782 5.66344 193 98.0414 196.187 491.808
3032 0 32.0912 7.10476 228 97.3333 194.535 488.719
3033 0 41.0492 11.9125 489 91.3497 195.204 493.45
3034 1 75.1317 8.21225 617 108.728 195.527 474.762
3035 0 76.1554 6.60491 503 112.996 194.274 471.559
3036 0 78.1544 6.30802 493 112.444 194.811 476.292
3037 0 79.3636 9.62658 764 109.041 194.708 470.522
3038 0 81.324 7.89435 642 107.178 195.302 476.732
3039 0 83.5282 9.9248 829 105.268 194.122 476.421
3040 0 83.7563 8.03522 673 111.001 192.731 461.767
3041 0 81.458 9.6737 788 107.756 193.468 474.148
3042 0 79.2034 8.69912 689 110.672 192.48 469.504
3043 1 47.2768 15.3564 726 108.204 191.412 457.284
3044 1 30.056 2.79478 84 100.333 190.131 499.536
3045 0 36.2311 11.2334 407 89.8993 189.686 496.865
3046 1 94.7701 11.6492 1104 102.463 188.776 471.208
3047 0 92.6577 11.8932 1102 103.868 188.149 466.814
3048 0 93.2517 12.922 1205 102.573 188.525 467.29
3049 0 86.416 14.0252 1212 102.296 187.224 458.542
3050 0 93.2444 7.31411 682 112.145 187.738 458.186
3051 0 91.207 7.76257 708 112.459 187.407 448.614
3052 1 41.2255 14.069 580 87.1569 189.129 490.657
3053 0 38.0507 4.20492 160 97.9 188.981 490.212
3054 0 41.1149 14.5446 598 87.2258 188.152 490.953
3055 0 36.0848 11.0296 398 90.1156 186.937 492.09
3056 0 35.0554 14.6625 514 88.1148 187.084 491.434
3057 0 40.0875 7.30902 293 92.6962 189.666 487.717
3058 0 37.1099 8.48829 315 93.8508 188.962 486.276
3059 0 40.0196 8.42087 337 93.4985 189.053 486.507
3060 0 33.1582 11.0681 367 90.5967 190.967 485.387
3061 0 38.2151 9.02785 345 91.2928 190.38 481.368
3062 0 43.1276 15.7903 681 86.4038 191.658 485.545
3063 0 40.0718 11.7789 472 88.4131 192.218 488.39
3064 0 39.1682 12.357 484 88.314 192.961 486.698
3065 0 39.3836 12.721 501 87.8403 193.82 484.351
3066 0 40.1365 9.09397 365 91.5589 194.466 484.997
3067 0 32.0396 5.18109 166 97.7771 194.578 488.253
3068 0 36.0719 5.5722 201 94.4726 194.512 487.517
3069 0 41.1817 10.4172 429 91.0256 195.005 486.699
3070 0 42.2497 9.86989 417 92.0192 196.957 490.201
3071 0 39.1269 7.13065 279 95.828 195.939 490.878
3072 0 37.125 5.06397 188 97.7287 195.846 488.447
