time division length width area intensity CMx CMy
0 0 38.3247 13.6205 522 127.498 129.433 481.316
1 0 40.3002 14.3424 578 125.074 128.503 480.901
2 0 41.3333 14.6613 606 126.997 127.848 480.625
3 0 45.1859 13.544 612 117.745 125.652 482.028
4 0 46.0899 13.9727 644 121.281 125.868 482.707
5 0 51.1212 19.1115 977 108.722 125.753 476.324
6 0 52.1949 26.4969 1383 99.6536 123.684 477.435
7 0 53.0904 17.7433 942 112.803 122.676 478.021
8 0 53.1636 15.2736 812 118.403 121.252 478.856
9 0 56.0278 17.4021 975 114.691 120.527 478.805
10 0 55.1559 15.7553 869 117.964 120.089 477.287
11 0 56.0992 18.6455 1046 112.793 120.017 477.157
12 0 58.2595 18.143 1057 114.978 120.13 474.745
13 0 58.1456 19.2964 1122 114.464 120.929 470.552
14 0 58.0698 15.6708 910 117.931 119.701 472.254
15 0 60.1163 14.788 889 123.155 119.495 468.339
16 0 63.1309 15.1907 959 121.408 119.078 467.706
17 0 67.3315 15.9806 1076 120.499 119.016 464.407
18 0 69.2458 16.3187 1130 117.952 119.61 460.975
19 0 69.2005 16.6184 1150 118.219 119.83 456.17
20 0 74.1932 16.484 1223 117.3 119.262 455.469
21 0 78.0927 20.9751 1638 106.731 119.529 454.161
22 0 79.5518 15.9393 1268 111.951 119.648 456.443
23 0 83.2285 18.8637 1570 114.472 120.879 449.903
24 0 88.2369 18.677 1648 112.664 121.874 450.843
25 1 47.077 13.9771 658 115.161 122.555 469.757
26 0 43.0647 12.516 539 119.126 122.714 467.375
27 0 46.1554 15.6861 724 112.702 124.184 469.233
28 0 49.1639 16.6179 817 111.305 124.367 467.881
29 0 50.2698 15.3174 770 111.506 124.616 467.051
30 0 51.1075 12.9335 661 117.399 126.87 463.555
31 0 54.125 14.3002 774 113.901 125.707 462.89
32 0 57.218 15.24 872 111.322 126.219 461.166
33 0 57.114 14.0596 803 112.59 128.903 462.599
34 0 58.0315 14.5611 845 112.663 128.817 458.821
35 0 62.0956 14.2683 886 113.429 129.937 460.999
36 0 63.2099 14.9027 942 110.743 129.513 461.038
37 0 66.2669 14.1851 940 112.666 131.674 458.794
38 0 67.3891 15.5218 1046 109.791 129.657 459.535
39 0 69.5612 17.2222 1198 106.533 131.311 459.165
40 0 74.0718 17.1455 1270 104.254 130.812 459.427
41 0 74.2752 17.112 1271 106.245 131.102 460.329
42 0 76.3641 15.3737 1174 109.67 130.343 457.101
43 0 79.1155 14.7885 1170 108.608 130.879 460.163
44 0 83.1114 18.9264 1573 109.363 130.491 459.453
45 0 85.1141 15.3911 1310 120.75 130.644 461.368
46 0 88.3518 17.1813 1518 118.063 128.637 454.806
47 0 93.1238 16.6875 1554 117.597 127.745 461.026
48 1 48.178 10.2744 495 125.846 127.426 478.655
49 0 50.202 15.7364 790 111.958 125.319 478.018
50 0 53.3798 12.6265 674 119.261 125.252 476.034
51 0 55.095 16.0269 883 115.157 123.797 473.478
52 0 56.029 12.7077 712 119.037 123.028 473.647
53 0 57.1307 14.3881 822 118.061 123.381 472.596
54 0 60.2146 14.166 853 116.699 122.887 469.849
55 0 64.2354 14.478 930 116.416 123.411 469.672
56 0 64.2481 11.4867 738 121.696 122.488 469.42
57 0 64.1625 12.2969 789 122.807 121.643 464.362
58 0 69.0774 14.8963 1029 116.719 121.534 463.876
59 0 72.3712 13.6518 988 117.326 120.543 461.724
60 0 74.3382 12.4431 925 119.268 120.874 458.075
61 0 78.2132 16.3399 1278 113.931 121.129 458.505
62 0 80.5707 16.9168 1363 112.918 121.037 459.457
63 0 86.3197 15.5237 1340 114.179 120.727 456.978
64 0 87.2828 13.4047 1170 119.234 121.589 452.927
65 1 50.2619 13.0715 657 111.434 121.394 470.379
66 0 50.0725 13.1609 659 111.451 120.721 465.218
67 0 52.1719 15.0848 787 107.122 121.126 466.042
68 0 52.0929 11.8058 615 116.984 123.081 466.98
69 0 56.184 16.5528 930 109.727 123.768 465.487
70 0 56.0697 17.1215 960 105.433 124.356 471.719
71 0 60.2288 13.2993 801 115.169 123.747 464.215
72 0 60.3734 12.4889 754 117.149 125.09 463.487
73 0 63.1675 12.6173 797 114.567 125.601 464.422
74 0 62.2145 12.0711 751 117.358 126.313 462.758
75 0 66.1896 14.5793 965 114.235 126.822 459.821
76 0 68.1624 12.5729 857 115.895 127.648 461.902
77 0 70.356 14.9099 1049 112.3 128.46 463.008
78 0 70.1073 12.1243 850 119.889 129.107 458.959
79 0 77.1869 15.8965 1227 111.484 129.327 461.831
80 0 79.3428 19.0187 1509 109.106 130.74 458.206
81 0 80.3845 16.5082 1327 113.283 129.684 460.362
82 0 84.3958 16.6003 1401 114.431 129.405 457.223
83 0 88.3195 18.4104 1626 111.397 128.796 458.614
84 0 91.29 14.8209 1353 118.647 127.455 457.261
85 0 95.3188 16.5445 1577 116.536 128.122 455.089
86 0 95.167 12.8406 1222 122.786 128.12 456.239
87 1 51.1658 11.9807 613 111.085 127.295 477.804
88 0 53.2044 13.6267 725 110.884 127.701 478.337
89 0 52.3021 13.3073 696 115.654 129.49 477.988
90 0 54.181 14.267 773 113.631 127.71 479.996
91 0 55.1982 14.3845 794 114.243 125.559 480.309
92 0 58.2078 13.3659 778 116.177 125.512 478.929
93 0 61.1131 13.3359 815 116.463 125.942 478.659
94 0 60.2499 14.639 882 114.075 124.012 480.697
95 0 63.1096 14.6412 924 115.842 123.708 474.692
96 0 65.0983 13.518 880 118.303 121.545 474.698
97 0 64.1729 11.4067 732 123.619 121.956 472.443
98 0 69.1603 16.4979 1141 112.954 121.053 473.207
99 0 69.1619 11.8273 818 121.378 119.725 470.232
100 0 73.0852 14.4899 1059 117.319 120.999 465.946
101 0 74.0978 13.6846 1014 117.306 120.292 466.37
102 0 78.0824 14.0236 1095 115.151 119.59 467.342
103 0 80.2279 18.3353 1471 110.262 119.332 462.925
104 0 81.1589 17.2994 1404 110.922 118.39 465.579
105 0 86.2107 13.6758 1179 116.113 118.586 461.097
106 1 45.0305 10.7927 486 111.751 118.93 478.996
107 0 45.1217 12.0784 545 109.976 117.659 476.453
108 0 45.09 11.8208 533 111.454 117.908 475.439
109 0 49.1984 14.4314 710 107.41 119.506 472.421
110 0 50.3138 13.6543 687 110.68 121.78 468.76
111 0 51.4297 11.7636 605 114.402 121.225 466.873
112 0 52.062 11.5247 600 114.778 119.975 467.837
113 0 53.1292 11.4626 609 114.589 120.425 466.476
114 0 54.088 11.7586 636 113.38 122.184 468.582
115 0 60.2466 12.5152 754 110.249 122.85 468.223
116 0 58.1122 16.3649 951 107.854 123.505 461.891
117 0 59.0651 12.3762 731 113.331 123.624 465.599
118 0 60.0479 14.9214 896 109.987 124.805 467.366
119 0 62.0923 15.3481 953 110.644 125.634 463.303
120 0 64.0997 14.1498 907 111.557 126.078 464.991
121 0 65.0829 11.8311 770 115.319 125.619 464.945
122 0 68.1029 15.6234 1064 109.852 127.181 461.996
123 0 70.1174 15.0462 1055 112.304 127.124 459.569
124 0 73.2304 14.9938 1098 110.706 126.953 463.866
125 0 75.1179 16.1213 1211 110.495 128.201 460.062
126 0 76.1443 14.5907 1111 111.532 128.663 465.673
127 0 79.2687 16.8162 1333 109.214 128.839 461.396
128 0 83.2027 13.2928 1106 113.24 126.85 461.501
129 0 86.1681 13.4389 1158 113.453 128.428 463.787
130 0 90.1943 13.2603 1196 114.175 127.044 460.476
131 1 46.0469 12.4004 571 107.928 126.412 484.559
132 0 48.0882 12.4563 599 108.883 126.294 482.925
133 0 48.0611 13.1915 634 109.401 126.117 483.601
134 0 50.1174 11.5329 578 112.997 126.009 482.813
135 0 49.0703 10.1283 497 114.384 123.841 480.022
136 0 53.1309 13.5891 722 109.917 124.81 481.44
137 0 54.2146 14.5348 788 108.684 122.627 479.72
138 0 56.1372 12.6476 710 112.13 123.627 477.29
139 0 60.1948 13.556 816 109.018 121.29 476.772
140 0 63.147 12.0196 759 110.924 121.71 476.563
141 0 64.1045 13.0724 838 108.753 120.023 474.844
142 0 66.1647 14.8115 980 106.323 119.392 469.051
143 0 69.1765 16.2627 1125 103.13 118.308 474.862
144 0 70.2301 13.3703 939 108.621 117.931 465.884
145 0 72.1431 14.8732 1073 105.259 116.876 471.253
146 0 71.0995 9.56406 680 114.897 116.647 461.656
147 0 80.2176 16.3306 1310 104.044 116.48 463.198
148 0 81.245 9.92061 806 113.806 116.617 460.924
149 0 89.101 10.2692 915 112.672 117.713 461.684
150 0 86.8036 13.087 1136 110.771 116.944 453.419
151 1 45.1745 12.7284 575 106.838 119.492 475.617
152 0 47.1261 11.013 519 107.888 118.588 472.842
153 0 48.4277 11.894 576 107.793 118.443 470.743
154 0 49.1325 12.2526 602 106.326 118.836 473.764
155 0 51.1241 11.7948 603 107.323 118.252 470.139
156 0 52.0649 11.428 595 106.719 118.943 470.025
157 0 56.1838 11.6404 654 105.028 120.702 471.125
158 0 55.1314 9.88548 545 108.815 120.413 469.699
159 0 56.0539 10.1331 568 112.146 119.998 462.921
160 0 56.2594 14.0243 789 106.658 123.082 461.559
161 0 59.0902 9.68011 572 111.407 123.233 464.276
162 0 61.0611 10.9562 669 108.7 124.085 455.922
163 0 64.1269 9.63715 618 111.351 123.175 460.502
164 0 67.2881 11.3542 764 108.157 123.832 457.586
165 0 69.1267 8.89671 615 111.114 124.408 458.603
166 0 73.1759 12.9414 947 106.107 126.97 460.538
167 0 76.1072 12.8634 979 105.654 127.042 464.404
168 0 78.1685 10.375 811 110.439 126.222 458.617
169 0 81.2202 12.4353 1010 107.965 127.121 456.973
170 0 85.1104 7.15541 609 110.954 127.422 467.409
171 0 90.2941 12.4814 1127 106.882 126.629 458.854
172 1 45.2147 10.3949 470 104.953 126.883 480.728
173 0 49.3708 13.6923 676 101.244 127.328 480.041
174 0 49.0872 11.4287 561 107 124.731 480.922
175 0 50.108 10.2778 515 110.577 125.478 479.513
176 0 53.1867 10.8486 577 107.78 123.939 483.317
177 0 55.1297 12.4434 686 106.751 124.101 479.994
178 0 58.2963 14.4091 840 103.465 124.843 483.131
179 0 60.1612 12.1341 730 106.955 123.495 479.205
180 0 58.2902 12.6779 739 106.302 122.835 482.157
181 0 61.1111 12.06 737 107.632 120.995 480.563
182 0 62.2892 14.1758 883 105.101 120.354 478.196
183 0 58.1854 8.04326 468 114.85 119.682 475.904
184 0 67.1383 10.7986 725 111.634 119.943 474.691
185 0 70.1292 12.9761 910 108.565 117.949 469.78
186 0 72.379 12.697 919 109.575 116.897 470.674
187 0 76.0895 13.287 1011 109.277 118.497 469.004
188 0 74.1649 11.2317 833 112.349 117.449 468.503
189 0 82.2948 13.3423 1098 109.971 117.617 463.181
190 0 86.2314 12.0838 1042 111.996 116.767 461.638
191 0 87.3642 14.1477 1236 107.975 117.042 464.51
192 1 47.0844 10.5555 497 106.402 118.348 480.215
193 0 48.0933 12.1015 582 104.43 116.699 480.904
194 0 50.2294 12.6619 636 106.72 117.835 476.557
195 0 52.1558 13.383 698 105.216 117.976 476.721
196 0 55.2434 12.2368 676 109.433 118.07 469.939
197 0 56.152 12.4484 699 110.371 119.074 467.681
198 0 58.201 15.7729 918 105.458 119.366 468.004
199 0 59.0985 16.2948 963 103.593 120.156 468.783
200 0 57.2616 10.4433 598 113.301 119.696 465.182
201 0 59.3331 12.8765 764 110 120.543 467.431
202 0 63.1005 14.9286 942 103.852 121.33 471.364
203 0 63.2 15.7753 997 103.292 120.328 469.883
204 0 66.1374 12.0809 799 108.854 122.282 466.846
205 0 70.1389 13.1881 925 108.239 122.6 466.043
206 0 70.1333 15.2567 1070 106.284 122.837 463.906
207 0 71.08 13.4778 958 108.055 124.79 466.23
208 0 73.1627 14.0509 1028 109.305 122.917 463.092
209 0 76.1024 19.6446 1495 102.428 124.72 459.883
210 0 76.138 12.5036 952 112.813 125.703 462.253
211 0 80.157 13.2615 1063 111.691 125.443 464.807
212 0 81.0518 13.4359 1089 112.777 124.894 459.359
213 0 84.3238 16.4841 1390 108.198 125.485 465.032
214 0 85.0915 16.9347 1441 109.19 125.784 461.139
215 0 87.166 13.5603 1182 113.598 125.519 464.715
216 0 90.2026 14.0572 1268 113.723 125.127 461.851
217 0 93.391 14.9907 1400 111.328 125.1 465.017
218 0 95.2669 13.31 1268 115.306 125.119 460.274
219 0 99.1722 13.3102 1320 115.564 125.258 461.1
220 0 102.608 14.2484 1462 114.622 124.547 459.573
221 0 106.427 12.5344 1334 117.206 123.705 459.878
222 1 57.1504 13.8582 792 111.319 123.424 474.62
223 0 57.0576 14.5818 832 108.762 121.355 482.657
224 0 62.1086 12.5103 777 109.133 119.619 484.57
225 0 61.1528 11.8065 722 112.193 119.019 481.794
226 0 63.0585 12.3695 780 112.628 116.854 480.505
227 0 69.1723 18.0419 1248 104.046 117.384 477.377
228 0 71.1375 12.8062 911 110.645 115.346 476.479
229 0 72.1945 11.7045 845 112.211 115.645 475.574
230 0 72.1549 11.7109 845 112.663 114.083 470.341
231 0 76.2951 14.3653 1096 108.725 115.699 469.924
232 0 83.707 14.1207 1182 108.168 116.032 469.24
233 0 82.7483 18.0668 1495 103.225 114.86 468.799
234 0 86.426 15.6434 1352 105.82 115.558 463.77
235 0 91.5535 14.1557 1296 107.175 114.42 457.772
236 0 93.6183 16.5566 1550 102.622 114.565 460.257
237 0 95.567 14.9947 1433 105.724 114.759 456.231
238 1 50.1934 10.9377 549 104.541 114.111 476.603
239 0 52.2138 14.5747 761 102.844 115.52 475.214
240 0 53.0835 14.0722 747 105.374 112.964 473.609
241 0 58.0816 16.3046 947 101.702 115.076 470.546
242 0 59.2497 15.0043 889 103.332 115.335 470.089
243 0 59.0628 15.9153 940 102.441 115.65 470.177
244 0 59.0756 10.5458 623 110.949 117.104 465.73
245 0 63.1436 12.1469 767 108.282 117.065 467.271
246 0 64.162 12.3905 795 107.916 118.454 468.357
247 0 67.211 16.9764 1141 103.382 119.013 461.039
248 0 68.093 15.4054 1049 104.569 119.482 464.403
249 0 73.1263 12.5399 917 109.153 120.675 463.097
250 0 74.0458 11.4794 850 111.253 120.92 459.675
251 0 75.493 11.8687 896 111.211 121.501 461.921
252 0 78.3152 15.2333 1193 107.287 122.508 461.512
253 0 80.1463 15.6214 1252 108.41 123.071 457.113
254 0 83.4818 13.7275 1146 110.439 123.588 461.129
255 0 87.1156 13.0057 1133 114.142 123.009 460.876
256 0 89.2475 13.188 1177 113.901 123.581 460.781
257 0 94.3343 18.4662 1742 105.725 123.976 460.967
258 0 94.1715 15.5461 1464 112.299 124.516 455.751
259 0 97.2007 10.1234 984 118.183 124.932 459.499
260 0 102.17 17.4121 1779 107.967 125.025 460.863
261 0 107.234 13.6151 1460 115.017 122.972 451.368
262 0 109.472 12.8343 1405 115.99 122.829 450.587
263 0 115.382 16.415 1894 110.292 123.662 451.554
264 1 61.1271 12.8912 788 108.972 121.48 480.698
265 0 64.1528 13.0937 840 109.693 122.386 479.814
266 0 66.1843 13.0242 862 110.653 121.491 478.357
267 0 67.0905 10.8063 725 113.539 120.959 478.11
268 0 73.1474 16.5283 1209 103.21 119.715 477.304
269 0 75.2908 13.7201 1033 108.189 119.394 473.947
270 0 76.0593 12.9899 988 111.853 117.849 474.43
271 0 79.1988 13.9775 1107 109.414 117.27 474.315
272 0 80.106 13.4197 1075 112.112 117.586 469.552
273 0 83.1322 13.0635 1086 112.311 117.701 470.268
274 0 85.2273 12.4256 1059 113.246 115.827 466.896
275 0 88.1741 12.9063 1138 113.718 115.411 461.777
276 0 94.3638 13.5115 1275 112.25 114.947 460.17
277 0 91.0877 12.3727 1127 115.697 115.038 458.453
278 0 100.192 20.0015 2004 103.451 115.139 458.373
279 0 100.266 14.5613 1460 112.755 114.2 447.936
280 0 105.307 17.2449 1816 108.411 115.336 446.818
281 0 105.484 15.3957 1624 110.134 114.587 448.98
282 0 112.35 20.8811 2346 102.911 115.257 444.564
283 0 118.247 14.0469 1661 112.21 116.186 443.624
284 0 120.545 22.5227 2715 100.839 116.32 443.514
285 0 125.255 10.9696 1374 115.662 116.59 440.699
286 0 125.429 13.7688 1727 113.352 118.158 434.151
287 0 133.54 18.6535 2491 106.503 117.139 423.136
288 0 134.436 18.6408 2506 107.222 117.941 434.072
289 0 134.213 12.279 1648 117.86 118.816 417.676
290 1 79.177 12.6047 998 110.977 118.935 453.118
291 0 79.2262 11.4104 904 114.506 118.677 451.096
292 0 83.5251 13.2535 1107 114.48 121.557 451.378
293 0 87.3364 14.4613 1263 111.622 122.442 447.246
294 0 92.252 12.8236 1183 111.821 123.404 451.503
295 0 92.0909 13.5518 1248 113.216 122.76 443.582
296 0 97.3471 12.892 1255 115.652 126.618 448.587
297 0 102.244 14.0937 1441 112.944 127.006 449.733
298 0 106.199 17.4295 1851 106.453 125.962 454.097
299 0 105.365 15.0429 1585 112.172 126.744 447.618
300 0 112.247 16.3568 1836 110.077 126.927 446.32
301 0 114.421 18.8078 2152 106.749 126.145 443.115
302 0 113.135 13.3822 1514 115.583 126.793 441.841
303 0 123.288 15.6138 1925 110.486 125.939 441.516
304 0 126.31 19.7847 2499 105.91 125.348 438.02
305 0 129.485 18.3882 2381 107.433 124.425 439.447
306 1 73.2062 9.34348 684 112.573 124.069 467.272
307 0 70.2503 9.85049 692 114.913 123.046 463.769
308 0 78.2121 13.8086 1080 109.75 121.397 469.553
309 0 79.1725 11.2792 893 114.772 120.714 471.697
310 0 82.2558 12.8015 1053 111.986 120.041 469.962
311 0 85.1564 17.3798 1480 105.712 119.749 465.606
312 0 89.3341 15.8282 1414 107.209 118.1 462.569
313 0 92.1874 17.1173 1578 105.898 118.08 463.574
314 0 95.2608 15.8722 1512 107.337 118.371 460.006
315 0 96.2532 15.5735 1499 106.874 117.579 462.613
316 0 101.179 19.6978 1993 100.233 117.144 458.481
317 0 108.344 17.3522 1880 101.587 115.519 459.361
318 0 104.219 12.6369 1317 110.334 115.2 452.978
319 0 111.482 14.2804 1592 111.334 116.428 447.62
320 0 115.49 15.2134 1757 108.587 115.941 451.067
321 1 63.2071 13.1947 834 106.245 115.705 474.48
322 0 65.2447 13.8402 903 102.662 116.423 474.041
323 0 64.4639 12.1308 782 108.303 115.981 462.13
324 0 66.5576 12.9812 864 106.116 116.473 466.858
325 0 72.3964 13.9786 1012 104.151 115.983 464.228
326 0 73.2974 15.8396 1161 102.146 116.513 463.88
327 0 76.1442 13.9341 1061 105.09 118.118 460.275
328 0 79.3713 13.4053 1064 107.4 117.3 455.33
329 0 83.3624 12.4877 1041 107.42 118.724 457.767
330 0 82.3196 13.0224 1072 107.833 118.093 449.723
331 0 82.3196 13.0467 1074 144.828 118.096 449.562
332 0 89.4515 14.5554 1302 105.07 120.584 453.428
333 0 94.6605 15.8672 1502 103.16 119.94 449.551
334 0 94.5314 10.5044 993 111.61 120.832 449.297
335 0 104.497 13.3688 1397 106.738 122.509 447.332
336 0 101.251 15.0418 1523 106.032 122.286 439.215
337 0 101.368 13.2685 1345 108.508 123.483 439.398
338 0 108.827 15.3087 1666 105.804 125.138 434.929
339 0 109.432 13.104 1434 109.304 126.309 436.659
340 0 113.73 13.0044 1479 109.045 124.903 436.403
341 0 118.586 12.7165 1508 109.26 127.199 435.747
342 0 125.67 15.6282 1964 104.196 125.631 426.592
343 1 66.3696 9.40189 624 108.242 124.784 465.401
344 0 68.1016 13.7442 936 103.162 127.35 467.347
345 0 70.4605 12.6596 892 106.566 128.613 468.562
346 0 72.3245 17.3662 1256 99.2938 127.912 468.467
347 0 77.3451 16.1225 1247 101.067 128.259 463.903
348 0 76.3564 11.4725 876 108.403 127.666 465.127
349 0 80.447 12.7537 1026 106.097 127.079 466.9
350 0 84.3396 12.1888 1028 107.102 126.545 466.471
351 0 86.3057 12.9424 1117 107.881 124.597 464.844
352 0 89.3244 14.0051 1251 105.522 126.084 467.046
353 0 91.5445 12.158 1113 109.574 125.762 463.899
354 0 93.3097 13.1926 1231 108.595 124.31 461.912
355 0 98.4662 15.9141 1567 103.544 123.86 465.974
356 0 100.27 12.8952 1293 108.643 122.826 461.494
357 0 104.514 15.0124 1569 105.766 121.555 462.02
358 0 107.354 13.7862 1480 109.05 121.593 451.178
359 0 112.402 12.2418 1376 110.735 120.693 451.03
360 1 58.1037 9.20767 535 109.168 118.981 479.572
361 0 62.2171 10.8813 677 109.829 120.623 475.004
362 0 65.2886 19.544 1276 97.2351 118.748 472.994
363 0 65.3061 14.3784 939 103.818 118.382 471.023
364 0 66.0723 13.2431 875 107.411 117.423 465.194
365 0 68.1555 12.7503 869 107.267 118.223 469.869
366 0 76.338 15.1825 1159 103.081 118.45 466.859
367 0 72.2586 16.0811 1162 104.22 119.013 461.135
368 0 75.1358 14.9862 1126 104.712 118.383 461.301
369 0 78.2547 15.7051 1229 104.088 118.765 454.903
370 0 78.1668 11.0917 867 111.833 118.146 454.834
371 0 82.5424 14.9862 1237 106.188 119.28 455.268
372 0 87.3681 16.0814 1405 103.846 117.977 447.749
373 0 87.5153 13.3462 1168 108.97 119.586 451.853
374 0 92.4263 17.2786 1597 101.461 120.698 455.372
375 0 94.444 15.0777 1424 105.725 121.028 445.247
376 0 97.2161 15.121 1470 105.882 122.318 444.446
377 0 100.544 14.8293 1491 106.406 121.883 444.134
378 0 103.338 13.9735 1444 107.521 124.332 442.84
379 0 108.398 17.8416 1934 101.032 126.112 432.531
380 1 271.102 13.6406 3698 106.253 126.435 365.987
381 1 170.545 12.6067 2150 106.739 126.54 411.638
382 0 175.461 14.1513 2483 105.768 127.86 409.368
383 1 63.0639 14.2078 896 97.9386 125.763 465.283
384 0 66.2033 10.785 714 100.668 127.985 466.43
385 0 67.1738 11.2246 754 100.627 127.073 463.114
386 0 70.1287 13.5608 951 101.024 128.152 462.332
387 0 73.3926 11.7042 859 103.936 127.398 465.01
388 0 73.1665 15.4579 1131 100.826 128.191 461.691
389 0 75.3751 11.6086 875 105.173 127.742 465.6
390 0 76.1343 20.1617 1535 94.4821 128.123 469.509
391 0 82.3058 11.9676 985 104.923 127.283 466.376
392 0 83.1554 13.9378 1159 103.81 125.965 462.893
393 0 85.2202 14.8204 1263 102.555 125.894 463.307
394 0 89.2051 15.6717 1398 99.8104 125.17 468.873
395 0 90.3273 13.7611 1243 103.863 124.054 460.486
396 0 95.2118 11.4587 1091 107.833 125.371 461.797
397 0 98.2907 14.3859 1414 104.313 124.774 461.591
398 0 101.345 17.3565 1759 101.302 123.722 457.682
399 0 106.403 15.601 1660 103.471 122.436 460.346
400 0 105.269 13.3183 1402 108.252 121.913 454.874
401 0 109.41 20.1353 2203 98.1884 122 461.995
402 0 109.333 14.8811 1627 106.738 121.546 454.858
403 0 113.358 11.4416 1297 110.737 120.237 456.059
404 0 118.464 17.2204 2040 102.566 119.901 454.131
405 1 60.2491 11.1371 671 105.308 119.756 479.624
406 0 63.1726 12.268 775 103.084 120.926 478.244
407 0 67.154 14.7274 989 102.287 118.532 470.293
408 0 68.3851 12.9414 885 105.305 119.034 469.245
409 0 73.1709 12.6826 928 104.125 117.114 468.605
410 0 75.1885 13.8718 1043 102.266 117.757 467.839
411 0 77.3154 16.4133 1269 101.523 118.178 458.797
412 0 77.2449 15.2761 1180 101.581 117.782 464.853
413 0 79.1684 16.3575 1295 102.158 118.366 458.304
414 0 83.3194 13.4062 1117 106.446 119.874 455.051
415 0 87.2228 15.9821 1394 101.7 120.017 456.113
416 0 90.2982 15.5263 1402 102.837 118.981 449.264
417 0 92.3757 15.9241 1471 102.204 119.107 448.283
418 0 94.2801 14.5948 1376 104.848 120.91 444.078
419 0 100.257 15.3805 1542 103.353 122.512 441.997
420 0 102.486 19.4075 1989 98.9462 121.969 447.362
421 0 101.313 12.9104 1308 110.094 121.949 437.002
422 0 108.332 15.3602 1664 105.16 124.781 439.264
423 0 110.597 11.031 1220 110.355 123.52 437.939
424 0 113.725 13.4535 1530 107.333 124.516 429.458
425 0 116.473 13.7028 1596 106.855 125.724 433.763
426 1 65.2995 11.7918 770 103.99 126.56 460.626
427 0 67.3222 12.7447 858 101.945 127.171 460.172
428 0 72.0898 16.965 1223 98.9935 127.536 459.145
429 0 72.0612 11.6845 842 106.822 126.882 461.148
430 0 75.1769 13.701 1030 103.4 126.696 461.187
431 0 78.2903 15.864 1242 99.9879 127.261 464.282
432 0 77.2267 11.7964 911 107.011 127.442 459.559
433 0 82.156 11.0887 911 106.509 126.576 459.798
434 0 84.309 10.0345 846 107.181 127.835 463.848
435 0 88.3541 11.137 984 107.42 127.289 460.278
436 0 93.2923 13.1736 1229 104.536 126.037 458.712
437 0 96.3261 12.8937 1242 104.813 125.85 461.565
438 0 95.581 10.1903 974 110.372 124.977 451.821
439 0 102.592 13.7048 1406 104.435 126.171 456.135
440 1 53.2995 9.6061 512 105.314 124.334 483.375
441 0 56.241 11.0951 624 104.138 124.058 480.455
442 0 60.211 12.6223 760 102.888 123.572 480.066
443 0 61.2154 11.2063 686 103.915 121.783 477.974
444 0 59.2808 10.4756 621 107.586 120.206 472.884
445 0 63.1017 13.7873 870 102.107 122.239 474.81
446 0 66.1508 12.9553 857 102.657 119.72 471.095
447 0 67.2455 10.6922 719 106.209 120.063 471.915
448 0 67.1207 10.8312 727 106.439 119.384 467.971
449 0 73.2097 14.6429 1072 100.791 119.734 465.724
450 0 75.3272 14.0852 1061 101.736 119.73 466.077
451 0 76.3131 11.6625 890 105.9 119.145 461.156
452 0 79.4037 14.2311 1130 101.11 118.745 468.063
453 0 80.2951 8.1076 651 109.422 118.183 464.455
454 0 83.2691 11.6009 966 106.451 118.097 457.473
455 0 88.5946 18.8838 1673 97.624 118.543 456.781
456 0 91.4327 14.8743 1360 102.435 117.803 456.076
457 0 93.4001 12.0235 1123 106.866 119.231 453.207
458 0 95.2847 11.8277 1127 106.036 118.456 453.99
459 1 49.0782 9.71918 477 106.379 118.7 472.753
460 0 52.2105 12.0665 630 103.975 120.063 471.695
461 0 54.1902 12.5115 678 102.552 119.395 471.242
462 0 53.2265 12.475 664 104.137 123.434 470.575
463 0 55.1078 11.1418 614 105.047 123.292 470.485
464 0 58.2036 12.5422 730 102.232 122.919 472.153
465 0 60.2093 12.7389 767 102.494 123.334 468.964
466 0 60.0671 13.5848 816 102.053 121.081 467.598
467 0 62.1444 15.0939 938 100.477 121.957 466.033
468 0 67.2505 15.3754 1034 97.1663 122.43 474.621
469 0 67.0921 19.4658 1306 94.1355 122.914 474.653
470 0 70.1786 13.6936 961 101.884 124.125 472.107
471 0 70.158 13.213 927 104.589 123.981 469.7
472 0 73.1858 11.136 815 107.291 124.001 470.844
473 0 73.3528 13.1556 965 106.972 124.378 469.914
474 0 77.1353 18.2277 1406 99.9189 123.069 470.633
475 0 79.2894 17.6694 1401 98.7488 123.789 476.507
476 0 82.2896 15.8465 1304 104.478 123.336 471.258
477 0 81.1637 13.6514 1108 108.776 122.613 468.696
478 0 86.1968 13.3648 1152 108.17 122.378 471.069
479 0 85.1057 13.4186 1142 110.054 121.947 466.52
480 0 87.1929 13.6938 1194 109.977 121.864 468.938
481 0 94.4389 13.3843 1264 109.593 121.926 469.522
482 0 93.355 14.5573 1359 107.238 121.458 473.407
483 0 100.415 10.2774 1032 112.036 120.86 471.59
484 0 103.209 11.3556 1172 109.376 118.764 471.533
485 0 106.225 16.3991 1742 102.44 118.456 470.665
486 1 57.3247 11.8274 678 105.765 118.434 486.708
487 0 61.3075 14.5496 892 101.399 117.106 485.176
488 0 61.1536 12.6076 771 102.261 117.167 489.947
489 0 64.2519 14.3031 919 98.9402 116.41 490.532
490 0 67.1521 17.0211 1143 97.965 114.051 485.86
491 0 69.2576 14.0634 974 103.094 114.638 483.602
492 0 71.2397 13.9108 991 104.93 115.354 480.085
493 0 69.1907 9.14863 633 112.893 114.774 473.079
494 0 76.3861 19.2313 1469 97.97 114.042 478.028
495 0 76.2106 12.8197 977 107.851 112.76 472.179
496 0 78.2854 10.3468 810 111.795 111.78 470.605
497 0 81.2541 15.5807 1266 106.138 113.127 462.776
498 0 82.3626 10.988 905 112.496 112.254 466.618
499 0 87.522 13.2424 1159 109.894 112.187 460.015
500 0 89.5396 12.3632 1107 111.255 114.407 459.547
501 0 93.4554 16.4464 1537 104.71 115.256 459.041
502 0 99.3666 14.3006 1421 106.689 116.513 457.984
503 0 96.4039 12.4476 1200 111.474 116.351 451.165
504 1 57.4016 10.2959 591 106.613 117.941 476.719
505 0 59.3463 9.52039 565 109.91 117.993 473.087
506 0 62.2512 13.558 844 105.831 117.717 472.45
507 0 63.0932 16.0873 1015 101.45 119.057 473.475
508 0 63.1119 13.6107 859 107.094 119.949 468.775
509 0 65.1046 14.4383 940 106.305 119.547 467.337
510 0 66.1471 17.7332 1173 101.61 120.552 468.148
511 0 71.08 11.9162 847 108.606 121.473 466.851
512 0 72.2011 14.9998 1083 104.664 122.107 467.117
513 0 75.2908 12.4849 940 107.773 122.361 465.535
514 0 74.1289 9.90167 734 112.414 123.007 461.508
515 0 79.1342 15.2905 1210 103.669 123.383 465.593
516 0 84.5173 13.7842 1165 104.507 124.155 467.287
517 0 82.3342 15.4857 1275 105.649 123.956 465.9
518 0 86.1428 14.4063 1241 106.824 125.028 463.803
519 0 88.1456 16.711 1473 104.276 124.006 465.591
520 0 90.3276 13.9492 1260 108.687 122.84 460.784
521 0 93.3203 15.1843 1417 106.411 123.462 462.11
522 0 96.199 13.9814 1345 108.004 122.281 456.281
523 1 51.2025 13.7298 703 100.1 121.27 487.35
524 0 54.3578 10.2837 559 107.041 120.327 484.208
525 0 56.4665 12.5561 709 104.169 120.946 485.391
526 0 57.0927 13.8722 792 102.518 120.631 485.508
527 0 60.175 12.5966 758 104.741 120.489 485.595
528 0 62.1146 11.2856 701 106.2 119.24 485.104
529 0 65.2084 15.1054 985 101.18 118.744 483.647
530 0 64.1664 11.6728 749 106.704 117.953 478.411
531 0 69.111 16.7267 1156 98.6964 117.549 482.723
532 0 73.2789 14.5881 1069 101.228 117.268 479.299
533 0 72.3224 14.6981 1063 103.825 115.252 475.878
534 0 78.2825 15.1375 1185 102.078 115.531 470.322
535 0 79.349 13.3209 1057 104.284 115.868 469.914
536 0 82.1114 12.7753 1049 104.812 114.618 471.203
537 0 83.1704 12.1678 1012 107.029 113.667 466.894
538 0 86.2824 12.123 1046 107.503 114.363 466.028
539 0 91.3406 16.9804 1551 101.288 114.152 462.542
540 0 95.3305 22.9412 2187 93.909 114.172 463.895
541 0 96.5172 18.4009 1776 100.914 114.673 454.412
542 0 99.6528 15.0121 1496 104.354 113.582 451.505
543 0 102.583 13.7547 1411 106.367 114.901 450.284
544 1 55.3156 9.67178 535 106.821 116.088 474.856
545 0 61.318 16.7488 1027 95.0078 115.713 475.979
546 0 59.106 13.0782 773 100.591 115.792 474.58
547 0 61.18 8.97352 549 106.097 114.736 470.652
548 0 65.1498 13.4306 875 100.714 117.457 470.064
549 0 67.1119 12.9634 870 101.348 116.517 468.731
550 0 69.2083 13.351 924 101.201 117.147 468.184
551 0 72.0815 14.4975 1045 100.435 119.188 463.596
552 0 74.0871 13.0657 968 100.733 118.944 466.633
553 0 76.2924 13.0026 992 102.432 119.277 463.625
554 0 77.1345 12.0569 930 104.602 120.053 464.47
555 0 81.3083 11.8438 963 105.079 120.18 467.194
556 0 83.3269 11.8329 986 104.978 121.282 463.142
557 0 87.2765 12.6036 1100 105.108 123.325 460.551
558 0 89.3061 14.1088 1260 103.757 123.725 455.698
559 0 94.3778 17.6948 1670 99.3102 124.252 460.558
560 0 97.5018 13.5895 1325 103.288 123.733 456.888
561 1 51.339 12.4856 641 100.268 124.785 477.236
562 0 51.4048 13.6369 701 98.1156 124.143 482.578
563 0 55.3325 13.4279 743 95.424 124.152 483.798
564 0 56.0495 11.1152 623 100.61 121.559 487.308
565 0 58.0557 14.176 823 97.4265 120.377 487.091
566 0 58.0443 14.6784 852 96.9988 120.439 486.227
567 0 63.0897 11.9354 753 99.761 119.622 484.846
568 0 61.1353 13.0367 797 100.516 119.279 484.859
569 0 66.1145 13.9606 923 98.8277 118.608 484.029
570 0 65.1123 13.469 877 101.312 118.332 481.749
571 0 68.2437 11.2098 765 103.603 117.843 483.512
572 0 68.139 9.68609 660 106.361 116.465 478.191
573 0 73.2854 14.6687 1075 100.56 115.75 475.105
574 0 76.1052 15.8202 1204 99.9427 114.998 478.231
575 0 79.2524 14.3213 1135 102.3 115.457 474.628
576 0 79.2624 15.8713 1258 127.731 116.622 473.732
577 1 45.3288 14.5382 659 96.7906 114.111 490.822
578 0 43.2759 8.96573 388 101.601 114.291 486.985
579 0 47.0286 10.9933 517 100.304 112.34 490.928
580 0 49.1388 13.0243 640 96.7234 113.416 492.753
581 0 51.0547 17.5694 897 93.1014 112.703 488.734
582 0 49.075 14.5288 713 99.108 112.641 486.344
583 0 52.0702 12.1951 635 100.479 112.131 483.706
584 0 56.3238 14.0971 794 98.1814 113.296 484.271
585 0 55.0868 12.1082 667 102.726 113.682 480.814
586 0 56.0907 14.7261 826 100.456 113.546 478.725
587 0 57.09 15.6595 894 99.9899 114.06 475.988
588 0 60.1347 9.62839 579 107.325 115.601 478.67
589 0 62.0978 14.8153 920 100.79 114.586 469.301
590 0 60.1326 14.5678 876 103.281 115.857 475.479
591 0 64.2698 14.5014 932 103.762 115.594 471.717
592 0 69.2732 13.6849 948 103.855 117.48 467.061
593 0 70.1699 14.4506 1014 104.992 117.271 466.551
594 0 71.1639 13.6867 974 104.021 116.997 469.902
595 0 74.3255 15.8627 1179 102.262 118.679 465.609
596 0 75.445 17.1781 1296 100.53 118.617 466.583
597 0 80.2473 15.203 1220 103.039 120.914 465.794
598 0 83.2871 14.2879 1190 103.991 121.923 468.168
599 0 84.2552 13.4947 1137 104.835 121.544 467.893
600 0 87.6834 17.1526 1504 103.023 122.201 462.743
601 0 88.4616 14.4017 1274 108.492 123.931 463.881
602 0 91.4294 16.7998 1536 104.361 123.251 463.167
603 1 52.0611 12.5622 654 104.688 121.453 487.714
604 0 51.142 13.0421 667 107.907 121.243 484.586
605 0 50.0732 11.603 581 111.275 121.551 486.671
606 0 54.0929 13.8835 751 107.675 121.768 486.485
607 0 54.0493 14.5608 787 107.761 121.263 487.828
608 0 55.1127 13.1004 722 109.269 121.227 489.256
609 0 59.1958 16.3187 966 103.441 120.527 488.903
610 0 58.5242 11.0211 645 113.296 119.647 486.074
611 0 62.085 16.2519 1009 105.003 119.627 486.832
612 0 63.1385 15.4106 973 107.394 120.254 483.431
613 0 66.1707 13.9488 923 109.551 119.751 480.905
614 0 71.2591 18.2433 1300 102.409 119.863 485.922
615 0 71.2664 15.0702 1074 107.719 118.096 483.067
616 0 75.248 12.9173 972 110.65 117.504 480.581
617 0 76.1025 13.7446 1046 110.21 115.687 479.716
618 0 82.2007 18.613 1530 103.33 116.067 476.541
619 0 83.3163 17.7996 1483 104.283 115.336 478.078
620 0 85.258 12.0458 1027 112.501 113.635 475.503
621 1 47.0664 11.8981 560 110.259 113.946 489.795
622 0 49.1464 12.9002 634 108.841 113.298 486.983
623 0 49.2281 9.95366 490 111.588 113.365 490.667
624 0 52.0584 13.3888 697 106.01 113.484 488.762
625 0 54.082 11.6675 631 115.038 112.444 485.282
626 0 55.1202 12.8628 709 115.749 111.67 479.544
627 0 57.2376 17.8204 1020 106.647 113.584 480.441
628 0 58.0732 10.4007 604 116.902 113.573 482.826
629 0 60.0622 11.3216 680 118.088 112.301 476.285
630 0 62.103 18.1473 1127 108.1 114.647 477.749
631 0 65.1636 18.3538 1196 107.188 113.759 475.808
632 0 67.2248 13.9681 939 115.66 115.492 474.275
633 0 68.1035 14.7716 1006 116.776 115.561 468.929
634 0 69.1483 15.1414 1047 115.5 116.619 471.548
635 0 72.1655 18.1943 1313 110.459 116.814 468.235
636 0 74.2372 14.0765 1045 118.165 118.765 467.611
637 0 78.3979 15.0769 1182 115.73 118.138 465.4
638 0 81.2223 15.4022 1251 115.301 119.54 464.054
639 0 83.5168 15.9848 1335 112.457 119.91 467.23
640 0 85.4329 13.5077 1154 117.177 121.112 464.579
641 0 91.586 14.6857 1345 114.897 120.751 461.653
642 1 50.1327 13.7036 687 106.734 120.492 486.335
643 0 49.0412 10.8684 533 117.278 122.649 480.794
644 0 53.1282 15.5473 826 110.639 123.217 480.415
645 0 54.209 17.7646 963 107.998 122.627 481.43
646 0 58.3021 15.4197 899 110.874 123.013 481.164
647 0 58.2381 14.0973 821 113.963 122.314 481.944
648 0 60.2146 15.179 914 110.782 122.575 484.77
649 0 60.224 13.3502 804 117.404 122.306 480.398
650 0 63.2038 17.4831 1105 109.951 121.611 482.749
651 0 65.4233 15.2392 997 113.584 121.655 481.851
652 0 65.1664 13.3504 870 118.986 122.062 484.593
653 0 68.201 14.5892 995 118.425 121.13 479.709
654 0 73.2215 14.6542 1073 115.26 121.558 482.105
655 0 70.1568 13.7407 964 120.416 119.811 476.918
656 0 73.1777 12.2168 894 120.29 119.044 477.201
657 0 79.2778 15.8052 1253 113.369 119.423 478.156
658 0 79.2799 14.3542 1138 117.251 117.713 473.386
659 0 82.2728 16.5547 1362 115.122 118.33 473.466
660 0 85.4002 14.5901 1246 117.907 116.803 474.09
661 0 88.3365 13.392 1183 120.037 115.263 473.503
662 1 49.3708 11.2415 555 120.492 114.515 484.515
663 0 48.2448 11.1515 538 119.125 115.426 489.151
664 0 49.1279 9.64828 474 122.108 115.838 489.468
665 0 50.3075 12.2049 614 118.249 114.796 485.866
666 0 53.4775 16.3246 873 107.754 114.726 485.981
667 0 54.0707 11.5959 627 117.464 115.552 486.625
668 0 55.107 14.3358 790 113.037 113.28 486.572
669 0 55.2586 11.5819 640 115.85 112.834 484.077
670 0 57.1653 14.6068 835 112.837 115.165 479.662
671 0 59.1697 14.0782 833 115.037 113.968 474.631
672 0 62.1003 14.2189 883 114.301 114.264 475.989
673 0 64.1289 16.7319 1073 110.139 115.277 473.907
674 0 65.3663 13.4014 876 117.156 113.96 471.31
675 0 67.1737 11.0758 744 118.027 116.184 470.653
676 0 67.2046 13.9871 940 115.665 116.695 469.382
677 0 70.1359 11.8057 828 118.353 117.85 469.719
678 0 74.2284 13.3507 991 116.513 117.913 465.765
679 0 77.3061 11.655 901 117.424 118.511 468.595
680 0 80.4115 15.7316 1265 112.287 118.958 462.982
681 0 80.1994 13.0924 1050 118.198 120.285 458.099
682 0 84.3759 16.0709 1356 112.376 120.386 462.048
683 0 87.3375 19.3044 1686 107.711 120.52 463.403
684 0 92.3495 17.1414 1583 112.299 121.768 457.855
685 0 94.1655 14.9524 1408 115.974 122.695 460.588
686 0 96.2046 13.6064 1309 118.782 122.601 457.219
687 0 93.4186 12.0319 1124 124.005 122.352 451.855
688 1 52.3063 12.3312 645 116.332 121.637 477.673
689 0 53.2807 11.7303 625 118.243 122.454 478.07
690 0 55.2081 11.6106 641 119.24 122.398 480.729
691 0 60.3328 12.6134 761 117.678 121.562 478.855
692 0 62.2186 13.6294 848 118.482 122.02 483.394
693 0 66.3413 17.621 1169 109.511 121.397 486.301
694 0 68.3129 16.1756 1105 114.531 122.681 477.643
695 0 71.3929 12.9285 923 118.103 122.218 481.653
696 0 72.2959 15.7547 1139 115.335 122.176 478.434
697 0 73.2602 14.7283 1079 117.087 120.925 480.474
698 0 76.319 15.0552 1149 115.279 120.651 478.622
699 0 78.6416 13.1991 1038 118.564 119.341 477.603
700 0 84.3971 15.5692 1314 114.828 118.397 475.48
701 0 83.4634 13.8504 1156 119.694 117.456 471.629
702 0 87.3939 13.5135 1181 120.631 117.436 468.002
703 0 89.4776 16.0487 1436 116.59 117.978 469.109
704 1 49.445 10.1527 502 117.932 117.793 493.685
705 0 47.3619 14.5264 688 112.804 116.561 490.487
706 0 47.3619 14.4209 683 137.95 115.53 490.479
707 0 51.276 13.2421 679 113.8 116.308 488.607
708 0 51.2804 12.9679 665 115.833 115.039 487.568
709 0 55.1198 13.3346 735 112.653 113.868 486.839
710 0 56.1286 14.9122 837 108.481 114.313 487.632
711 0 54.1087 13.0478 706 114.164 114.424 484.483
712 0 57.115 13.6041 777 112.495 115.098 484.656
713 0 59.1798 13.214 782 110.867 112.714 483.954
714 0 62.058 14.4542 897 110.229 114.59 481.46
715 0 63.0496 13.989 882 113.265 114.194 478.024
716 0 64.1007 15.0232 963 111.529 115.427 478.048
717 0 69.092 13.5761 938 113.468 115.267 475.683
718 0 71.2992 13.4223 957 113.345 115.941 473.736
719 0 73.2025 14.5487 1065 111.431 114.617 471.298
720 0 73.0939 11.8751 868 119.281 116.645 466.348
721 0 76.6357 13.4272 1029 116.709 117.537 469.241
722 0 81.5846 13.7281 1120 116.076 118.628 464.129
723 0 86.8621 16.1751 1405 110.724 118.809 464.045
724 1 46.3836 12.3966 575 113.962 120.19 480.165
725 0 46.2372 14.4905 670 109.282 120.422 483.224
726 0 49.5352 13.8689 687 111.533 120.575 478.534
727 0 50.3168 12.8585 647 113.923 123.311 480.419
728 0 48.3003 12.091 584 117.659 122.151 479.205
729 0 53.3849 15.9783 853 109.659 123.893 483.604
730 0 52.3146 10.7809 564 118.824 123.209 482.44
731 0 56.2582 14.1668 797 112.34 123.671 485.72
732 0 58.3889 13.0162 760 114.992 123.887 483.876
733 0 59.3059 14.3662 852 113.912 124.272 481.96
734 0 64.2479 16.7943 1079 109.133 123.731 481.672
735 0 65.3815 13.6583 893 114.071 122.207 484.876
736 0 64.2152 14.2645 916 114.562 123.269 484.752
737 0 69.2229 14.3883 996 114.346 121.464 483.397
738 0 69.1637 14.8922 1030 113.912 122.121 485.423
739 0 74.2051 16.1714 1200 109.999 121.464 484.605
740 0 74.1818 16.3922 1216 111.58 121.024 479.928
741 0 78.1539 16.3779 1280 109.605 119.777 482.3
742 0 80.1228 16.2875 1305 111.799 120.77 478.706
743 0 80.1458 14.7232 1180 115.401 119.295 475.486
744 0 83.1104 15.2688 1269 114.103 117.887 475.784
745 0 86.1364 13.1884 1136 117.552 117.126 475.975
746 1 45.1873 10.4897 474 116.162 118.831 494.278
747 0 44.0607 9.07839 400 116.368 117.102 490.342
748 0 47.0509 10.308 485 112.856 117.781 491.414
749 0 50.3813 12.5443 632 111.07 116.562 488.861
750 0 55.2436 14.6261 808 107.519 115.916 487.009
751 0 54.2072 15.4776 839 107.894 115.344 488.228
752 0 56.0492 11.8467 664 112.69 115.557 487.947
753 0 58.2655 13.4042 781 111.759 115.286 484.511
754 0 59.1486 14.9623 885 110.881 115.801 478.608
755 0 59.1418 12.9181 764 115.698 115.928 479.821
756 0 61.2271 17.0023 1041 108.903 116.384 478.319
757 0 63.4766 12.1777 773 116.371 116.887 476.585
758 0 67.2581 14.764 993 111.216 117.548 476.632
759 0 68.3189 13.9493 953 114.147 117.86 470.074
760 0 70.444 15.4449 1088 111.299 117.299 467.059
761 0 73.5285 14.4978 1066 111.647 117.979 469.424
762 0 76.4774 16.3839 1253 109.417 117.501 463.612
763 0 76.4269 14.3536 1097 114.031 119.781 462.169
764 0 79.3736 13.6191 1081 114.054 119.798 459.382
765 0 82.7215 16.9122 1399 109.939 121.282 461.344
766 0 81.4933 14.1484 1153 116.086 121.547 455.349
767 0 89.8428 16.2617 1461 111.223 122.95 458.239
768 0 92.7848 14.927 1385 112.924 123.114 458.055
769 0 92.6003 14.0064 1297 116.406 123.658 454.692
770 1 49.4632 10.4724 518 116.461 124.722 479.535
771 0 51.6049 14.6304 755 111.223 124.866 476.919
772 0 50.3058 11.7084 589 117.574 123.827 474.17
773 0 55.6856 14.7435 821 110.868 125.08 476.046
774 0 56.3524 14.9594 843 111.735 124.179 475.815
775 0 56.258 13.1715 741 113.896 124.152 478.318
776 0 60.265 17.3898 1048 106.116 124.315 479.675
777 0 59.2186 11.5504 684 115.512 123.414 481.364
778 0 63.2333 13.7744 871 110.639 122.917 484.023
779 0 66.2093 16.7801 1111 107.54 123.413 477.155
780 0 67.4591 14.2753 963 113.227 123.906 480.143
781 0 70.4744 14.6294 1031 113.651 122.587 476.099
782 0 70.4628 15.0718 1062 112.573 122.509 475.522
783 0 74.1608 16.626 1233 109.922 122.359 478.298
784 0 73.6092 13.4766 992 115.682 122.57 473.455
785 0 79.2322 12.8104 1015 114.358 120.465 476.423
786 0 82.582 15.8509 1309 110.422 118.559 470.17
787 0 85.3236 17.0762 1457 108.569 119.754 468.814
788 0 85.5754 13.2281 1132 113.649 118.898 471.634
789 0 88.5194 11.9974 1062 115.799 118.898 467.75
790 0 91.4573 12.6616 1158 113.992 117.631 463.811
791 0 96.4936 16.0736 1551 108.02 118.928 462.277
792 0 102.847 16.9669 1745 104.381 117.233 459.16
793 1 53.3744 10.4732 559 111.902 118.655 481.635
794 0 53.4023 11.3478 606 112.794 118.069 478.832
795 0 57.4131 15.0837 866 106.013 117.001 479.098
796 0 58.308 13.4458 784 109.444 117.574 477.758
797 0 62.2175 13.9028 865 108.561 117.805 478.273
798 0 64.309 12.6887 816 110.689 116.536 475.17
799 0 66.2124 12.8224 849 109.701 116.885 474.106
800 0 69.173 14.4999 1003 108.042 115.907 470.742
801 0 70.3087 11.7482 826 111.907 116.981 470.01
802 0 73.1057 13.3916 979 108.472 116.864 466.848
803 0 78.2568 15.8708 1242 104.785 117.086 462.816
804 0 76.0756 13.6706 1040 110.508 116.702 460.51
805 0 81.2055 10.5042 853 115.688 118.21 455.001
806 0 86.1652 13.9151 1199 109.123 118.777 459.528
807 1 43.0829 11.8608 511 105.282 118.339 476.986
808 0 45.0604 10.3639 467 112.514 121.221 480.358
809 0 46.2215 11.2934 522 110.531 122.797 475.148
810 0 51.2982 12.632 648 107.807 122.668 475.321
811 0 52.1771 13.9716 729 106.973 124.417 476.092
812 0 50.2364 11.207 563 114.828 123.844 473.439
813 0 52.2179 14.4012 752 110.112 123.641 474.213
814 0 56.4278 14.904 841 109.882 124.225 473.137
815 0 54.2939 12.3587 671 115.826 124.085 475.237
816 0 58.1213 12.732 740 112.835 123.747 479.588
817 0 58.1065 14.2841 830 112.378 122.741 476.72
818 0 62.0731 17.8016 1105 106.925 122.488 476.385
819 0 61.1595 12.1486 743 116.814 122.502 475.779
820 0 66.0845 12.832 848 116.088 123.802 476.353
821 0 68.06 13.0767 890 115.563 123.573 477.267
822 0 71.183 13.4021 954 115.917 123.684 474.428
823 0 72.0997 13.3288 961 116.682 122.535 472.599
824 0 78.0611 14.6424 1143 114.159 123.873 477.26
825 0 78.2864 14.5236 1137 115.296 122.655 474.596
826 0 82.2607 16.703 1374 112.917 121.868 474.423
827 0 86.191 16.2082 1397 114.659 120.44 470.843
828 0 87.1948 13.0283 1136 120.458 120.493 469.586
829 1 49.1799 11.8138 581 116.83 119.084 490.907
830 0 50.1565 11.8629 595 118.232 117.815 487.785
831 0 52.1004 12.4183 647 115.355 117.794 486.274
832 0 52.1852 12.7048 663 116.33 119.599 484.247
833 0 54.2121 12.3404 669 115.399 118.238 482.106
834 0 58.3863 17.2986 1010 107.247 118.407 486.894
835 0 59.0802 15.4366 912 112.001 117.13 482.278
836 0 59.0921 10.8813 643 119.928 116.624 479.751
837 0 63.1448 14.443 912 111.465 116.495 479.227
838 0 67.0799 14.192 952 112.228 116.423 474.638
839 0 67.108 13.6198 914 113.503 116.144 474.137
840 0 70.1131 13.9061 975 111.625 114.986 472.103
841 0 71.1187 14.6234 1040 111.566 115.879 471.091
842 0 78.0539 14.5797 1138 109.358 116.273 470.024
843 0 78.125 14.08 1100 111.825 116.985 463.68
844 0 83.357 14.192 1183 111.282 117.735 461.253
845 0 84.3909 14.9424 1261 109.156 118.331 460.902
846 0 87.4075 13.0767 1143 113.046 119.45 457.567
847 0 87.1656 11.8395 1032 114.692 119.856 453.034
848 0 92.2705 13.1028 1209 112.926 121.19 455.931
849 1 51.339 11.0637 568 114.164 122.106 472.871
850 0 51.0779 9.76938 499 115.297 122.613 477.066
851 0 54.1279 11.9532 647 113.643 122.869 473.087
852 0 54.4226 12.2192 665 115.295 123.677 471.761
853 0 58.2476 16.447 958 107.735 122.375 469.97
854 0 60.2743 13.9695 842 110.79 123.95 473.954
855 0 62.494 13.0413 815 113.698 123.643 472.123
856 0 64.2292 15.8183 1016 109.686 124.032 470.904
857 0 65.2421 13.6568 891 112.822 124.695 472.732
858 0 67.2011 14.0623 945 113.199 126.006 471.338
859 0 68.4411 13.3984 917 115.83 125.719 473.622
860 0 69.2499 13.6318 944 116.169 125.325 468.859
861 0 73.3268 13.433 985 115.775 124.879 467.617
862 0 75.3024 14.807 1115 112.752 124.565 470.785
863 0 78.3294 14.3752 1126 114.564 125.589 471.288
864 0 79.3492 15.0852 1197 113.568 124.587 469.779
865 0 80.251 13.4453 1079 117.361 123.748 469.34
866 0 83.3517 15.7165 1310 114.437 124.549 465.905
867 0 89.4821 15.2433 1364 113.17 123.395 467.213
868 0 88.1658 14.6088 1288 115.707 123.252 462.108
869 0 88.1658 14.5861 1286 146.515 124.25 461.998
870 1 52.1435 10.9314 570 118.551 123.398 487.016
871 0 54.1551 13.6275 738 116.717 122.617 482.02
872 0 54.1448 14.018 759 117.667 121.631 481.586
873 0 56.212 17.1494 964 113.982 120.107 480.645
874 0 57.2312 12.266 702 123.453 119.064 481.42
875 0 60.0798 16.1951 973 116.205 118.585 480.493
876 0 61.2463 14.8907 912 119.434 118.343 476.156
877 0 64.3458 13.1788 848 121.907 118.473 477.715
878 0 67.3 14.8589 1000 119.951 118.359 472.899
879 0 69.2301 14.7335 1020 118.688 117.989 475.419
880 0 72.1609 15.9228 1149 117.042 118.004 469.406
881 0 73.0748 14.7383 1077 119.285 117.484 470.35
882 0 75.2445 13.7153 1032 120.803 118.067 471.357
883 0 80.1626 15.8802 1273 116.693 117.188 464.298
884 0 82.4192 14.22 1172 119.279 117.432 464.71
885 0 83.2534 16.9122 1408 116.091 117.55 462.389
886 0 85.2792 14.3998 1228 121.152 118.904 457.181
887 0 90.3049 14.5175 1311 117.034 119.339 459.108
888 1 48.1825 16.0224 772 111.525 119.54 472.54
889 0 51.2947 13.6076 698 112.95 120.527 475.291
890 0 51.2228 13.2558 679 116.85 118.669 470.62
891 0 53.0674 13.6053 722 118.125 118.983 473.253
892 0 55.2065 14.5273 802 115.828 120.965 472.853
893 0 55.1768 16.8005 927 113.989 120.417 467.98
894 0 58.216 13.845 806 118.63 121.958 469.103
895 0 59.0782 14.9124 881 115.664 122.731 470.015
896 0 58.1234 12.6283 734 122.602 122.683 464.362
897 0 62.0645 14.0338 871 118.6 122.978 465.61
898 0 63.4456 13.8702 880 119.131 124.31 465.001
899 0 66.1252 12.0529 797 121.404 124.364 467.996
900 0 67.1646 14.3528 964 118.288 124.844 461.074
901 0 73.1872 13.8139 1011 118.315 124.403 461.961
902 0 76.4768 16.0702 1229 113.375 126.003 463.245
903 0 78.344 16.0446 1257 113.908 125.796 461.932
904 0 79.3326 16.5758 1315 112.955 126.262 463.882
905 0 82.2095 12.8574 1057 119.706 124.636 460.532
906 0 86.2618 15.766 1360 113.785 124.47 460.738
907 0 90.3351 16.782 1516 111.769 124.243 460.266
908 0 91.2724 13.6953 1250 116.316 123.642 462.124
909 0 94.3524 16.1416 1523 113.075 124.371 459.295
910 0 97.3698 14.789 1440 115.623 123.15 459.977
911 0 99.7011 14.3027 1426 115.846 123.114 453.591
912 0 105.285 15.1113 1591 113.665 122.043 455.321
913 0 105.239 13.1225 1381 118.02 122.338 455.904
914 0 106.208 11.7882 1252 119.124 121.6 457.115
915 0 111.346 14.2798 1590 114.361 120.245 452.972
916 0 108.261 9.07987 983 122.754 120.221 445.766
917 1 57.1774 9.12947 522 117.489 118.523 475.577
918 0 58.1936 12.4756 726 111.693 117.248 476.355
919 0 63.1315 12.2601 774 110.84 118.983 476.019
920 0 65.3618 12.6526 827 110.376 117.377 472.421
921 0 68.3073 13.3221 910 109.5 118.859 472.487
922 0 71.1626 19.8559 1413 99.9299 117.128 471.552
923 0 75.1532 14.5436 1093 107.362 117.14 468.16
924 0 69.493 13.5553 942 111.332 117.591 461.185
925 0 73.3247 14.1017 1034 109.265 117.76 466.16
926 0 78.2767 12.047 943 113.063 116.721 459.726
927 0 80.2071 13.6148 1092 111.767 117.142 461.774
928 0 82.4676 16.0305 1322 108.887 117.8 459.228
929 0 84.2764 14.0016 1180 111.969 118.545 459.445
930 0 87.4942 14.1381 1237 112.08 118.17 451.177
931 0 87.1996 12.7753 1114 114.452 119.054 451.145
932 0 90.3586 10.6022 958 117.03 118.011 451.872
933 0 96.3056 13.291 1280 112.942 119.23 445.296
934 0 98.5874 13.0544 1287 112.93 118.945 445.083
935 0 100.252 15.072 1511 108.919 120.732 449.441
936 0 102.135 15.6753 1601 110.235 120.969 440.046
937 0 108.431 21.9402 2379 101.292 121.587 436.842
938 0 111.349 20.6558 2300 102.99 121.916 444.144
939 0 114.434 13.5973 1556 114.064 123.573 439.961
940 0 117.302 13.8532 1625 114.007 122.546 437.826
941 0 124.453 15.7811 1964 109.982 123.164 439.541
942 0 127.253 13.5949 1730 113.518 124.358 437.221
943 0 134.315 15.2849 2053 108.917 124.643 442.236
944 0 139.233 13.5456 1886 112.818 124.243 433.647
945 0 145.435 11.8472 1723 114.009 125.022 438.41
946 1 79.106 15.5993 1234 110.03 124.54 459.223
947 0 87.244 12.9866 1133 110.785 125.925 465.729
948 0 87.28 16.2237 1416 107.223 126.46 461.601
949 0 91.2966 16.0247 1463 108.61 126.065 460.231
950 0 94.1651 15.4622 1456 109.707 125.812 461.289
951 0 98.3761 14.2209 1399 110.327 125.668 460.964
952 0 102.339 15.351 1571 108.906 126.12 459.98
953 0 102.159 15.4465 1578 109.489 124.495 460.005
954 0 105.377 11.6534 1228 115.836 124.881 452.554
955 0 109.392 13.1271 1436 112.443 124.453 456.794
956 0 111.23 11.7864 1311 114.469 123.079 451.878
957 0 117.306 13.5799 1593 111.343 121.836 448.707
958 0 124.333 15.8445 1970 107.457 120.611 453.241
959 1 67.0838 11.0459 741 109.263 119.773 476.332
960 0 67.2022 9.24077 621 112.499 117.219 472.507
961 0 71.3453 11.4794 819 108.856 118.648 478.282
962 0 71.0708 9.97597 709 111.92 115.464 471.477
963 0 74.1556 8.92717 662 113.864 117.745 469.884
964 0 78.1325 14.8722 1162 104.713 116.377 466.02
965 0 79.2139 11.6772 925 109.499 115.864 465.634
966 0 85.3173 14.616 1247 102.228 116.597 475.059
967 0 87.1395 16.0662 1400 102.671 117.63 472.646
968 0 88.1669 13.9054 1226 106.793 117.458 463.239
969 0 89.2464 12.2134 1090 109.369 117.493 461.127
970 0 89.1295 10.3445 922 106.372 116.939 471.355
971 0 97.1674 12.6483 1229 107.85 118.245 464.556
972 0 94.2445 8.59467 810 112.427 116.76 445.398
973 0 104.114 14.3689 1496 105.814 118.18 451.534
974 1 53.1172 13.1408 698 100.182 117.917 477.58
975 0 55.2285 8.72738 482 103.896 120.224 479.936
976 0 57.0847 9.89758 565 105.846 117.858 474.342
977 0 59.1122 11.1652 660 105.409 119.209 472.392
978 0 60.0724 9.5385 573 106.841 120.122 474.021
979 0 60.0848 9.13708 549 106.834 121.231 471.811
980 0 63.1248 8.0634 509 107.387 121.754 466.468
981 0 65.2249 8.24838 538 107.924 123.035 466.119
982 0 67.3343 11.0196 742 103.623 122.549 466.185
983 0 72.0634 11.7813 849 101.834 123.224 464.539
984 0 73.2165 8.70022 637 106.162 124.188 465.695
985 0 76.2645 12.3649 943 102.236 124.599 463.714
986 0 77.436 9.55628 740 105.359 125.351 459.746
987 0 81.3718 10.9866 894 103.101 125.341 465.608
988 0 87.4528 11.6177 1016 101.571 124.997 465.585
989 0 88.2454 11.8306 1044 106.799 125.676 461.734
990 0 89.288 8.60138 768 110.888 126.007 459.506
991 0 93.2267 9.67534 902 110.192 125.095 461.338
992 1 51.2959 11.2875 579 100.314 125.528 483.718
993 0 50.0379 12.3906 620 99.2694 125.442 482.845
994 0 53.532 11.806 632 102.228 124.793 488.081
995 0 52.4009 9.00747 472 107.167 125.672 485.371
996 0 53.5858 12.8206 687 103.702 123.083 484.166
997 0 55.4576 8.81755 489 107.057 122.202 486.812
998 0 58.2166 10.9247 636 105.154 123.533 481.653
999 0 56.5457 3.9614 224 117.085 123.031 482.223
1000 0 61.549 10.0733 620 107.074 121.618 479.298
1001 0 62.2897 11.4305 712 104.522 119.361 483.25
1002 0 65.2388 10.4232 680 103.504 119.903 487.59
1003 0 67.1772 9.16978 616 108.877 119.677 474.778
1004 0 72.6027 9.86189 716 107.337 118.61 476.415
1005 0 74.5529 12.2598 914 105.724 117.974 474.404
1006 0 75.3617 9.80604 739 107.755 118.425 476.211
1007 0 82.7774 8.10607 671 111.669 118.534 470.447
1008 0 80.7476 9.1272 737 111.992 118.092 464.49
1009 0 83.6157 11.9595 1000 107.675 116.196 465.597
1010 0 86.7875 10.7504 933 108.798 117.263 466.518
1011 0 89.6077 14.2845 1280 103.634 117.775 467.982
1012 1 46.5758 7.70787 359 107.482 116.15 483.866
1013 0 50.237 11.9036 598 102.696 115.584 482.814
1014 0 49.2394 10.3982 512 110.385 114.887 480.115
1015 0 49.544 9.12321 452 111.741 116.524 481.699
1016 0 49.3156 9.18573 453 112.868 117.574 478.082
1017 0 54.4158 12.478 679 106.504 117.576 477.638
1018 0 57.4705 12.737 732 107.404 118.281 473.302
1019 0 57.4881 11.1154 639 109.894 118.762 471.936
1020 0 58.4452 12.9523 757 107.708 119.527 472.136
1021 0 61.2632 15.5885 955 103.513 120.267 472.106
1022 0 63.2564 15.9668 1010 103.534 120.357 469.414
1023 0 64.1776 11.8577 761 111.202 120.31 465.932
1024 0 66.2027 13.4436 890 108.782 121.456 466.653
1025 0 67.545 13.1024 885 109.11 122.146 469.007
1026 0 70.3508 12.4092 873 109.615 122.746 467.399
1027 0 71.1807 11.3092 805 110.771 122.655 469.149
1028 0 78.4342 13.1958 1035 107.176 123.565 469.176
1029 0 79.5527 11.5647 920 110.937 124.082 464.126
1030 1 44.4413 14.221 632 102.35 126.025 480.962
1031 0 45.169 10.5825 478 106.316 125.19 485.061
1032 0 45.3351 11.0731 502 106.998 124.052 483.9
1033 0 48.58 12.1243 589 106.316 126.494 483.975
1034 0 49.4492 14.4795 716 104.61 126.514 482.587
1035 0 52.5842 15.3468 807 102.283 126.856 487.499
1036 0 52.4312 13.8658 727 105.893 126.594 486.477
1037 0 51.4878 12.8768 663 111.875 124.647 482.49
1038 0 55.3774 13.1823 730 110.781 125.54 486.941
1039 0 55.5026 12.7562 708 112.667 123.922 485.095
1040 0 58.3532 14.9949 875 110.547 123.442 483.133
1041 0 59.4016 16.2622 966 109.036 124.583 482.693
1042 0 60.4339 16.2161 980 109.424 123.751 484.432
1043 0 61.4248 13.952 857 114.805 122.764 484.973
1044 0 62.3768 12.3443 770 118.022 122.017 483.162
1045 0 63.435 13.7464 872 115.404 120.615 485.265
1046 0 65.3083 12.1118 791 119.099 119.778 481.919
1047 0 67.22 12.0797 812 118.398 120.119 480.458
1048 0 69.2329 15.1084 1046 112.163 118.737 477.902
1049 0 71.1047 12.573 894 115.287 116.53 478.971
1050 0 74.217 11.8706 881 115.006 116.773 480.246
1051 0 76.1314 13.2271 1007 112.97 115.218 477.788
1052 0 79.1642 16.0805 1273 107.932 116.488 475.537
1053 0 82.1523 18.3805 1510 105.276 116.007 471.117
1054 0 85.0657 16.1875 1377 108.142 115.834 471.848
1055 0 87.1148 14.5785 1270 112.065 116.541 470.307
1056 0 87.2527 12.2174 1066 118.574 115.941 466.26
1057 0 93.1565 16.4884 1536 111.56 115.665 463.74
1058 0 96.1857 14.025 1349 115.19 115.807 460.177
1059 0 97.1752 14.2217 1382 114.664 117.075 461.784
1060 1 50.215 12.2274 614 113.018 118.09 484.552
1061 0 52.4166 13.0493 684 111.794 120.243 482.75
1062 0 51.3029 13.0597 670 113.976 119.661 470.994
1063 0 52.1891 12.2631 640 112.289 119.298 477.253
1064 0 49.236 9.46462 466 119.916 118.429 471.144
1065 0 53.131 11.9892 637 116.168 118.488 466.611
1066 0 56.0573 10.632 596 116.416 119.404 469.151
1067 0 58.1204 17.8939 1040 106.11 120.826 467.19
1068 0 60.0829 15.4287 927 109.257 120.765 467.038
1069 0 60.1064 13.892 835 112.674 122.762 469.348
1070 0 64.1635 14.7124 944 111.257 122.82 466.965
1071 0 64.4346 13.7659 887 111.047 123.222 470.917
1072 0 68.1403 14.1179 962 111.639 123.506 467.681
1073 0 72.5653 14.1803 1029 111.58 124.177 469.012
1074 0 74.1824 12.6984 942 115.083 124.21 469.621
1075 0 78.1681 15.633 1222 113.444 125.13 470.507
1076 0 79.1716 12.0245 952 120.008 124.244 469.351
1077 0 83.2719 14.8069 1233 116.145 123.11 463.902
1078 0 83.2719 14.8309 1235 141.798 122.082 463.962
1079 0 86.3042 14.5879 1259 117.334 123.548 461.98
1080 0 93.5177 14.3182 1339 116.679 124.491 465.712
1081 1 49.1228 13.5986 668 112.49 121.928 481.504
1082 0 51.1022 14.97 765 109.169 123.638 487.044
1083 0 53.1807 15.0619 801 110.268 122.683 482.302
1084 0 54.1022 12.0513 652 116 123.402 484.025
1085 0 56.1181 13.0439 732 112.842 121.777 484.934
1086 0 56.2221 10.2451 576 119.441 121.306 481.877
1087 0 58.2063 10.8579 632 117.152 119.609 481.665
1088 0 59.2777 16.8023 996 107.897 120.912 485.907
1089 0 63.2679 14.0988 892 110.992 118.889 480.293
1090 0 67.4127 13.8104 931 111.764 118.401 480.32
1091 0 68.0816 11.5743 788 116.726 117.608 474.632
1092 0 68.1682 12.4692 850 116.493 116.345 473.931
1093 0 70.1626 14.7515 1035 113.232 115.901 471.161
1094 0 73.335 12.8452 942 116.238 115.332 471.109
1095 0 72.1088 12.5366 904 117.343 116.007 471.708
1096 0 77.1384 19.2252 1483 104.676 116.144 475.865
1097 0 81.1214 14.6324 1187 115.848 115.093 458.707
1098 0 83.1718 16.0631 1336 113.715 115.391 458.626
1099 0 87.326 15.4593 1350 113.381 115.166 459.721
1100 0 89.2254 15.2647 1362 115.017 116.787 457.338
1101 0 90.0729 14.0553 1266 116.788 115.85 457.486
1102 1 49.1248 14.738 724 109.641 116.533 476.159
1103 0 49.1126 11.3006 555 114.564 117.555 479.762
1104 0 51.225 11.1859 573 114.812 116.173 477.284
1105 0 57.2847 14.4018 825 108.37 118.458 478.718
1106 0 55.081 13.7616 758 114.766 116.731 476.588
1107 0 58.0662 12.1069 703 117.108 118.297 476.869
1108 0 60.1181 14.3883 865 113.696 117.48 477.761
1109 0 61.1449 13.2799 812 116.052 119.667 472.682
1110 0 64.2143 15.0745 968 111.814 120.3 476.33
1111 0 63.1861 14.6076 923 115.159 120.467 472.834
1112 0 70.2147 15.8514 1113 113.893 120.759 467.987
1113 0 71.1583 14.0672 1001 116.134 121.491 472.87
1114 0 75.174 15.7235 1182 113.893 121.007 470.184
1115 0 79.2274 13.8588 1098 117.277 122.33 464.975
1116 0 82.1897 14.065 1156 113.763 122.438 473.086
1117 0 86.254 15.2805 1318 113.055 123.209 468.253
1118 0 85.1631 13.48 1148 117.946 121.642 464.428
1119 0 91.3521 17.0221 1555 111.417 122.82 464.197
1120 0 92.2465 13.2796 1225 117.269 123.2 463.218
1121 1 51.1631 14.4245 738 106.798 121.85 490.966
1122 0 50.1069 10.5574 529 115.355 122.064 489.276
1123 0 53.0844 11.8114 627 113.836 122.252 490.4
1124 0 52.1516 9.45321 493 117.118 121.118 488.633
1125 0 56.1296 15.1792 852 107.069 121.52 492.022
1126 0 58.0767 13.3961 778 112.276 120.972 488.901
1127 0 60.0503 15.1373 909 109.453 120.217 486.962
1128 0 61.0978 11.9808 732 115.818 121.699 486.734
1129 0 62.2307 12.6465 787 112.752 120.231 488.504
1130 0 63.0863 10.6996 675 115.323 119.024 489.622
1131 0 68.2936 12.007 820 113.315 117.689 487.048
1132 0 71.1204 13.1748 937 113.093 118.749 484.47
1133 0 73.1506 13.3423 976 113.569 116.556 480.675
1134 0 75.0634 13.0023 976 114.147 117.607 482.71
1135 0 77.1668 12.9978 1003 116.406 116.839 481.644
1136 0 81.0816 15.5892 1264 110.225 116.137 478.32
1137 0 83.0727 12.8562 1068 115.509 114.561 475.673
1138 0 84.3011 11.969 1009 117.659 114.686 473.698
1139 0 87.0996 12.5603 1094 115.854 114.058 470.939
1140 1 43.0855 9.70165 418 113.273 115.089 496.278
1141 0 45.0609 9.56483 431 114.093 113.828 495.223
1142 0 45.0491 10.544 475 112.463 114.865 486.987
1143 0 45.127 12.0327 543 110.19 114.357 483.593
1144 0 45.1712 11.4675 518 112.357 114.274 484.436
1145 0 50.2144 10.3357 519 113.148 114.399 479.971
1146 0 51.1963 11.2899 578 109.465 115.208 482.882
1147 0 53.0985 10.9043 579 112.449 115.625 478.983
1148 0 56.1255 13.3629 750 108.183 116.401 479.449
1149 0 58.1409 13.7769 801 106.499 115.305 476.099
1150 0 60.0752 11.0695 665 110.582 116.448 476.4
1151 0 62.144 13.3722 831 109.264 117.343 472.68
1152 0 64.1519 13.4369 862 109.936 117.755 470.883
1153 0 64.3104 15.8606 1020 107.199 120.032 472.905
1154 0 69.2362 16.9709 1175 104.932 119.759 473.131
1155 0 72.2842 15.107 1092 108.91 121.605 471.603
1156 0 72.117 17.4161 1256 106.152 121.356 472.94
1157 0 75.1695 12.7445 958 112.353 120.576 471.126
1158 0 77.255 12.5817 972 112.491 121.445 468.885
1159 0 79.8418 12.3369 985 115.852 122.735 462.619
1160 0 83.36 14.2274 1186 113.338 124.35 464.104
1161 0 82.642 13.4435 1111 116.338 123.523 460.394
1162 0 87.3994 13.4211 1173 115.73 124.734 457.946
1163 1 45.1237 12.4546 562 115.822 123.185 484.772
1164 0 46.0795 11.8057 544 117.836 125.029 478.575
1165 0 51.0945 11.7821 602 116.729 125.12 481.535
1166 0 51.2608 14.5335 745 114.497 124.423 479.832
1167 0 50.0492 14.5856 730 113.586 122.895 483.696
1168 0 54.2186 12.5418 680 116.779 122.638 483.5
1169 0 54.3772 15.3189 833 112.999 122.299 484.085
1170 0 57.1591 14.7833 845 112.431 122.254 484.954
1171 0 58.2106 13.3309 776 115.421 120.379 482.774
1172 0 60.0778 15.1137 908 110.739 121.89 482.881
1173 0 66.3158 14.2801 947 111.464 120.295 481.062
1174 0 65.2659 11.9511 780 115.755 117.969 479.696
1175 0 67.2466 17.9191 1205 107.514 118.608 477.016
1176 0 70.3542 17.7957 1252 107.223 118.699 479.718
1177 0 71.097 13.348 949 114.871 116.436 477.238
1178 0 74.248 13.0239 967 115.153 115.991 470.461
1179 0 77.1781 16.2222 1252 109.494 116.851 470.924
1180 0 84.101 15.85 1333 107.831 116.521 472.103
1181 0 85.3856 12.4728 1065 114.894 116.609 468.267
1182 1 47.3055 10.3371 489 112.27 115.597 485.274
1183 0 49.3874 12.1893 602 109.272 115.674 486.656
1184 0 48.5316 13.4345 652 108.765 115.877 486.189
1185 0 50.3736 13.658 688 110.932 115.263 481.343
1186 0 52.2476 11.5221 602 112.096 115.924 481.743
1187 0 53.2225 16.9477 902 103.929 115.1 483.989
1188 0 54.0624 12.7445 689 112.125 115.489 473.15
1189 0 58.2388 16.0202 933 106.499 117.566 476.869
1190 0 60.1059 13.1435 790 111.327 117.128 474.715
1191 0 58.1119 12.2178 710 115.654 116.611 469.231
1192 0 61.0666 12.5764 768 114.38 117.727 470.236
1193 0 64.5161 15.2675 985 111.585 117.539 466.346
1194 0 66.2542 16.1348 1069 111.153 117.972 460.61
1195 0 68.2046 12.7704 871 117.796 119.831 462.03
1196 0 73.4578 16.7851 1233 110.654 118.917 463.757
1197 0 75.2282 13.2264 995 117.09 119.809 464.677
1198 0 78.4447 19.2237 1508 106.06 120.424 465.101
1199 0 78.3942 11.6845 916 119.443 120.16 461.532
1200 0 83.6279 14.1699 1185 114.037 122.214 456.804
1201 0 84.3373 12.2722 1035 117.758 122.696 457.882
1202 0 91.2806 14.4609 1320 113.483 123.307 448.686
1203 0 93.3642 12.4994 1167 116.834 123.021 447.604
1204 0 96.4709 14.2945 1379 114.136 124.513 448.064
1205 0 101.504 14.3443 1456 111.86 124.236 449.854
1206 1 50.1524 11.146 559 116.544 123.417 474.215
1207 0 51.1697 13.2109 676 111.76 124.895 476.447
1208 0 53.1631 11.7751 626 113.051 124.046 480.462
1209 0 55.1934 14.3314 791 109.307 123.804 479.908
1210 0 55.2557 13.1932 729 111.498 122.538 483.628
1211 0 57.0471 14.2163 811 110.223 122.936 482.233
1212 0 61.1193 14.7089 899 107.593 122.417 486.564
1213 0 60.0902 13.8126 830 111.907 122.155 480.733
1214 0 64.0721 15.3109 981 108.513 121.114 479.489
1215 0 66.1078 15.4142 1019 108.458 121.432 479.511
1216 0 68.2466 11.8248 807 113.295 120.092 481.14
1217 0 71.2866 15.0519 1073 109.945 119.044 480.677
1218 0 76.285 20.1612 1538 101.376 119.204 478.462
1219 0 78.2519 18.1465 1420 105.038 119.17 475.001
1220 0 75.1682 11.9998 902 115.32 117.601 479.685
1221 0 79.4448 13.6321 1083 113.274 118.082 474.09
1222 0 82.3087 13.6316 1122 112.795 116.649 473.608
1223 0 88.4978 12.2037 1080 116.269 117.858 470.639
1224 0 86.308 13.3823 1155 114.769 117.071 469.678
1225 0 88.2329 12.8864 1137 114.908 115.559 471.328
1226 0 95.5921 16.8529 1611 109.6 115.554 464.927
1227 0 95.4201 17.0928 1631 110.256 116.79 460.568
1228 0 99.6525 17.0894 1703 109.287 116.521 457.76
1229 0 103.587 12.3761 1282 118.285 115.906 456.261
1230 1 57.4156 13.5677 779 112.159 117.454 479.418
1231 0 57.4156 13.5677 779 151.094 119.467 479.375
1232 0 62.2615 13.0899 815 113.831 116.61 474.775
1233 0 64.5901 16.6744 1077 107.698 117.94 474.716
1234 0 63.1778 16.509 1043 108.276 117.71 475.771
1235 0 67.2467 12.9969 874 113.854 117.201 470.265
1236 0 70.3091 15.6025 1097 109.406 119.397 470.97
1237 0 73.2457 17.2297 1262 107.445 119.381 464.099
1238 0 76.3428 14.1729 1082 111.185 120.734 466.565
1239 0 77.2742 15.2444 1178 111.42 121.326 464.179
1240 0 78.2926 12.6193 988 115.335 121.675 463.731
1241 0 84.2813 17.4535 1471 106.891 121.663 460.723
1242 0 84.2236 15.0433 1267 112.335 122.766 456.613
1243 0 90.2392 17.1101 1544 108.006 122.778 458.331
1244 0 89.1828 15.1487 1351 112.836 122.878 458.361
1245 0 92.1666 14.7125 1356 112.819 123.453 460.164
1246 0 97.3521 14.0829 1371 112.408 124.452 464.166
1247 1 51.0375 11.9128 608 114.61 126.424 482.461
1248 0 56.1126 11.1205 624 115.829 126.793 483.755
1249 0 56.2664 11.41 642 116.801 126.642 480.569
1250 0 60.4562 15.0026 907 109.943 124.04 481.321
1251 0 62.2754 14.1789 883 110.376 125.73 484.735
1252 0 63.3177 15.2564 966 110.393 123.816 480.876
1253 0 65.322 13.8391 904 111.958 124.363 482.09
1254 0 68.1604 16.4172 1119 108.718 123.167 482.459
1255 0 67.1926 14.4212 969 113.074 124.514 481.409
1256 0 72.3797 15.6812 1135 110.121 123.785 478.673
1257 0 72.1476 15.0109 1083 112.357 122.808 479.348
1258 0 74.205 12.7889 949 116.659 121.638 477.965
1259 0 77.3036 13.1301 1015 116.683 119.843 474.419
1260 0 80.375 11.2473 904 120.694 119.913 474.506
1261 0 84.211 16.7199 1408 113.495 119.666 466.075
1262 0 83.2266 12.8084 1066 120.472 117.867 468.695
1263 0 88.2578 13.7438 1213 118.87 117.768 468.58
1264 1 51.2852 11.7773 604 119.341 118.773 486.078
1265 0 50.2516 11.0643 556 118.509 119.77 488.291
1266 0 49.0828 15.4229 757 112.155 117.863 486.155
1267 0 53.0657 16.5832 880 110.151 115.735 478.062
1268 0 54.2352 15.2484 827 114.979 116.32 473.718
1269 0 56.1556 14.3352 805 116.646 114.911 470.498
1270 0 59.3079 14.0791 835 115.515 115.879 470.886
1271 0 59.1497 15.0297 889 115.225 114.412 467.847
1272 0 60.4344 13.1713 796 117.76 115.842 468.796
1273 0 62.1904 13.7963 858 117.294 115.226 465.823
1274 0 65.1904 16.5669 1080 113.254 116.691 464.462
1275 0 66.2093 14.7109 974 116.522 116.718 462.814
1276 0 68.1507 13.118 894 118.691 116.474 465.512
1277 0 70.171 15.049 1056 115.307 116.426 464.259
1278 0 73.2396 12.6298 925 116.707 116.003 465.765
1279 0 74.3741 12.8808 958 116.775 118.381 464.926
1280 0 78.2132 13.4376 1051 116.749 118.465 467.45
1281 0 80.3866 13.9949 1125 117.519 119.985 460.955
1282 0 83.2034 17.4512 1452 111.819 119.982 460.197
1283 0 87.1875 14.6007 1273 116.742 120.404 460.884
1284 0 88.3387 13.369 1181 119.587 121.349 458.434
1285 0 94.2844 14.6366 1380 116.713 122.029 456.375
1286 0 95.5092 14.3756 1373 119.414 123.188 453.355
1287 1 52.2431 12.9204 675 117.373 122.643 478.313
1288 0 52.2108 11.511 601 120.857 123.933 478.028
1289 0 52.2015 12.5859 657 120.233 124.017 477.82
1290 0 55.1131 14.9874 826 114.867 124.289 478.758
1291 0 56.1145 11.53 647 121.267 124.141 477.196
1292 0 57.4047 12.3509 709 121.117 124.368 473.553
1293 0 61.1494 14.3092 875 115.966 124.373 479.323
1294 0 62.0855 15.978 992 113.115 124.385 480.031
1295 0 65.1729 12.1983 795 119.272 123.606 482.03
1296 0 68.319 13.7883 942 117.976 122.919 479.649
1297 0 69.434 13.7685 956 118.929 123.696 476.377
1298 0 70.1957 13.149 923 120.421 122.147 474.341
1299 0 75.4015 15.3843 1160 114.898 123.884 475.512
1300 0 78.3458 13.4021 1050 119.57 121.968 468.307
1301 0 81.3406 14.052 1143 118.961 121.481 463.941
1302 0 83.2422 17.2869 1439 112.805 120.66 464.306
1303 1 49.2529 13.3596 658 115.438 119.681 482.418
1304 0 49.331 14.0277 692 116.997 119.634 480.136
1305 0 51.3212 12.9966 667 117.139 118.96 483.051
1306 0 52.1671 12.4791 651 117.676 117.917 485.164
1307 0 53.4004 11.7977 630 120.106 117.965 485.894
1308 0 58.2886 17.0016 991 115.617 115.036 479.135
1309 0 58.3521 15.1666 885 115.447 114.949 483.921
1310 0 60.4773 15.3777 930 118.232 114.899 476.011
1311 0 63.2457 14.9101 943 119.181 115.737 473.726
1312 0 64.3459 17.5458 1129 115.614 115.454 474.81
1313 0 66.1553 14.8892 985 121.394 114.838 474.686
1314 0 69.0834 12.8251 886 123.916 115.37 476.284
1315 0 71.2781 15.7973 1126 119.274 114.483 470.606
1316 0 74.1569 13.2826 985 123.198 115.951 472.91
1317 0 77.1902 14.0432 1084 121.318 115.224 469.077
1318 0 81.3904 16.8939 1375 115.78 116.441 467.526
1319 0 83.278 13.605 1133 123.387 116.942 463.132
1320 0 85.462 14.7434 1260 122.517 117.938 455.47
1321 1 46.2 10.3247 477 121.553 118.679 480.254
1322 0 48.4104 11.4025 552 120.612 119.469 480.527
1323 0 49.1686 13.5046 664 118.136 117.758 476.527
1324 0 51.1572 11.6894 598 123.264 120.201 476.749
1325 0 54.153 18.6693 1011 110.66 121.101 474.596
1326 0 54.0614 13.0777 707 122.048 120.767 475.52
1327 0 56.0504 14.0409 787 119.212 121.562 475.86
1328 0 56.0258 12.2444 686 124.834 122.974 474.2
1329 0 60.0805 11.6177 698 123.385 121.777 476.819
1330 0 61.0502 12.1212 740 124.064 122.355 473.032
1331 0 64.0651 12.7683 818 122.59 122.792 473.038
1332 0 66.1551 14.9799 991 117.661 123.412 472.787
1333 0 67.2008 13.7945 927 119.902 122.413 472.697
1334 0 71.1251 15.0298 1069 118.289 124.456 473.503
1335 0 82.3364 20.4405 1683 104.606 123.352 466.992
1336 0 82.1871 17.1438 1409 111.578 124.41 471.831
1337 0 83.2705 19.959 1662 107.682 123.717 468.304
1338 0 85.2414 15.5441 1325 114.679 123.463 472.926
1339 0 83.1847 14.9907 1247 118.169 123.221 472.356
1340 0 85.4245 14.984 1280 119.391 122.117 473.191
1341 0 84.31 12.5015 1054 124.935 121.151 472.2
1342 0 88.2682 12.5413 1107 124.38 121.157 473.953
1343 1 45.2061 11.0826 501 120.579 118.94 493.132
1344 0 45.2398 12.6658 573 121.079 119.419 488.284
1345 0 50.1147 13.3095 667 118.721 117.088 489.439
1346 0 51.1146 15.6707 801 114.283 118.079 486.429
1347 0 52.2524 12.3822 647 117.83 116.887 483.312
1348 0 55.2049 13.6401 753 115.384 117.912 484.821
1349 0 56.1335 12.3278 692 118.204 117.189 483.65
1350 0 57.2303 10.8159 619 119.099 116.386 483.683
1351 0 61.1742 12.4399 761 118.568 116.024 477.98
1352 0 64.1281 12.8649 825 115.182 114.885 479.827
1353 0 67.1024 13.7849 925 112.961 115.116 476.558
1354 0 69.2018 13.9158 963 113.721 114.73 474.312
1355 0 70.2416 13.3681 939 112.859 115.078 472.265
1356 0 74.2088 13.3273 989 113.397 114.403 466.957
1357 0 73.2291 11.9215 873 115.525 115.475 467.258
1358 0 75.0753 10.3629 778 116.467 114.92 469.866
1359 0 81.3271 12.1977 992 114.769 113.952 464.52
1360 0 81.3271 12.2591 997 140.386 112.953 464.468
1361 0 85.2298 13.6455 1163 112.131 116.175 460.14
1362 0 91.3684 12.6849 1159 112.916 116.349 458.934
1363 0 93.472 13.5977 1271 113.021 117.326 456.326
1364 1 48.1444 12.6494 609 106.79 118.209 478.836
1365 0 50.2646 11.0217 554 111.894 118.166 471.688
1366 0 52.1867 9.19775 480 112.99 119.444 472.685
1367 0 54.0605 13.0779 707 107.661 119.542 474.836
1368 0 56.0222 12.4594 698 109.484 119.277 470.044
1369 0 56.2422 11.5038 647 109.963 121.611 474.066
1370 0 60.1538 13.7148 825 105.864 123.096 475.139
1371 0 62.0757 13.9024 863 104.933 122.654 474.005
1372 0 63.0791 13.5861 857 104.782 124.225 473.867
1373 0 63.0791 13.602 858 131.529 125.232 473.846
1374 0 66.253 12.1051 802 109.531 126.03 471.631
1375 0 69.3182 13.6472 946 106.796 124.871 471.874
1376 0 70.238 13.7248 964 107.159 125.818 470.293
1377 0 76.2656 13.7546 1049 106.289 125.154 469.214
1378 0 78.3531 14.2943 1120 106.213 125.611 469.955
1379 0 81.2568 14.9772 1217 104.274 124.333 473.151
1380 0 83.2561 15.6986 1307 104.171 125.104 470.653
1381 0 85.1893 13.9337 1187 105.87 123.88 469.084
1382 0 86.3314 13.4714 1163 107.831 121.866 469.733
1383 1 45.1332 13.0503 589 103.93 121.616 492.533
1384 0 45.0924 11.1549 503 106.495 120.831 494.177
1385 0 47.0742 13.2981 626 100.131 118.859 489.914
1386 0 47.0729 11.4078 537 105.369 117.616 489.939
1387 0 50.1156 10.9746 550 109.224 116.189 490.893
1388 0 52.1332 11.6816 609 108.386 116.842 489.581
1389 0 51.1496 16.0705 822 100.859 116.055 489.906
1390 0 56.2065 14.2866 803 102.356 116.027 484.472
1391 0 55.1057 10.2712 566 111.408 114.484 485.057
1392 0 57.0794 11.8256 675 108.803 114.8 478.273
1393 0 60.0626 13.4027 805 105.814 114.975 482.503
1394 0 61.0552 15.2157 929 104.543 114.724 478.903
1395 0 64.0844 14.3405 919 106.345 113.517 479.609
1396 0 64.113 13.0707 838 108.024 114.653 481.581
1397 0 66.1232 13.49 892 108.684 112.528 478.055
1398 0 69.162 12.4635 862 110.563 113.607 475.354
1399 0 71.1468 18.8062 1338 101.741 113.543 474.048
1400 0 72.2375 12.2789 887 112.991 114.038 469.25
1401 0 77.1848 13.7462 1061 108.757 114.589 469.268
1402 0 78.3337 16.4169 1286 105.914 115.098 466.735
1403 0 80.2927 15.4061 1237 108.768 114.887 460.039
1404 0 84.328 12.6055 1063 111.587 115.351 463.088
1405 0 86.1544 11.7464 1012 115.46 115.741 455.847
1406 0 87.2749 11.5383 1007 115.109 117.539 461.928
1407 1 45.5226 14.4324 657 106.968 119.362 478.973
1408 0 47.4971 15.7062 746 107.847 120.21 479.425
1409 0 48.624 12.792 622 113.396 120.945 479.04
1410 0 48.2857 12.5917 608 116.355 121.326 476.905
1411 0 50.1772 12.8744 646 116.43 122.354 476.893
1412 0 51.3403 13.0112 668 115.689 121.566 474.567
1413 0 54.4744 14.1167 769 112.257 121.714 479.974
1414 0 54.4254 13.174 717 116.077 122.753 473.194
1415 0 55.3275 14.0436 777 114.511 124.266 476.933
1416 0 58.3107 14.8 863 113.038 123.93 477.94
1417 0 60.0707 17.2963 1039 110.064 123.129 479.606
1418 0 61.2611 15.1809 930 113.345 124.016 481.988
1419 0 60.1806 13.1105 789 118.622 123.862 481.051
1420 0 62.1526 16.2021 1007 114.845 124.575 477.179
1421 0 65.0901 14.6259 952 117.666 124.175 480.851
1422 0 65.1223 13.9583 909 118.789 123.212 481.422
1423 0 68.2376 14.2297 971 119.308 122.857 479.557
1424 0 70.2572 16.4111 1153 114.02 123.127 474.349
1425 0 73.1765 16.3577 1197 114.374 122.218 474.189
1426 0 74.2071 14.756 1095 118.644 122.746 475.395
1427 0 79.3215 15.2922 1213 117.011 121.296 475.177
1428 0 79.3908 14.0319 1114 120.944 122.148 475.162
1429 1 41.1617 11.6613 480 122.421 121.031 493.69
1430 0 42.3385 12.5654 532 121.229 120.726 493.731
1431 0 44.2141 13.2989 588 117.752 119.269 495.554
1432 0 44.1472 12.7075 561 121.374 119.631 491.61
1433 0 47.0551 13.431 632 120.277 117.669 490.418
1434 0 48.1201 11.2427 541 122.784 118.917 491.987
1435 0 48.1107 12.2426 589 123.36 116.733 488.421
1436 0 50.0258 15.0123 751 118.081 118.309 487.204
1437 0 53.0823 14.8825 790 117.633 116.999 488.727
1438 0 52.1463 14.6127 762 119.705 116.194 482.448
1439 0 54.1022 12.0513 652 124.087 116.784 482.124
1440 0 56.1239 14.1473 794 119.592 115.174 481.961
1441 0 58.1394 13.4332 781 120.649 114.823 480.882
1442 0 58.1503 13.2759 772 122.085 116.425 477.259
1443 0 60.0786 14.4977 871 119.395 114.814 474.605
1444 0 62.2187 14.3365 892 119.025 115.567 474.942
1445 0 62.1131 13.2822 825 122.109 115.634 469.098
1446 0 66.1289 14.381 951 118.759 116.015 471.094
1447 0 67.2114 14.7297 990 120.342 115.773 466.315
1448 0 70.0967 16.1776 1134 116.597 117.908 469.213
1449 0 73.1148 17.5067 1280 114.509 117.359 464.516
1450 0 75.2497 14.2725 1074 119.98 117.842 463.723
1451 0 76.1727 14.4671 1102 121.447 120.034 459.865
1452 0 81.2544 14.8792 1209 118.923 118.95 460.861
1453 0 83.1238 18.1055 1505 115.898 121.399 462.691
1454 1 45.1892 10.9539 495 127.263 121.166 477.871
1455 0 46.2045 10.1072 467 129.094 121.645 475.743
1456 0 45.1586 11.3821 514 127.65 123.095 473.527
1457 0 50.1151 13.1497 659 121.168 123.364 477.311
1458 0 52.147 12.5223 653 124.34 123.283 479.758
1459 0 54.2637 13.6002 738 118.747 124.572 479.999
1460 0 53.1685 12.9588 689 121.914 124.218 477.521
1461 0 51.2237 13.1775 675 124.363 124.455 476.227
1462 0 57.147 14.6114 835 119.984 125.678 481.709
1463 0 58.3139 14.6277 853 119.715 124.32 480.698
1464 0 60.4152 13.7383 830 122.34 123.793 479.705
1465 0 61.1032 14.2873 873 121.958 124.03 480.546
1466 0 64.0886 13.6842 877 120.66 123.04 479.212
1467 0 67.1525 16.9316 1137 115.656 124.37 479.544
1468 0 70.1281 13.9459 978 119.941 123.354 478.497
1469 0 72.232 16.9592 1225 114.911 121.958 475.636
1470 0 75.1637 13.3841 1006 121.138 122.246 480.242
1471 0 80.1283 16.6733 1336 115.159 122.348 478.666
1472 0 81.1873 16.6159 1349 116.179 120.349 475.924
1473 0 83.1786 15.4848 1288 119.301 119.704 473.214
1474 1 41.1015 10.2916 423 125.059 118.953 494.012
1475 0 44.1019 10.9519 483 123.087 119.615 494.687
1476 0 48.1558 11.1305 536 124.373 119.69 493.752
1477 0 47.1066 13.9471 657 121.408 117.916 488.49
1478 0 48.1695 12.373 596 125.701 117.54 487.624
1479 0 53.071 15.8467 841 117.337 116.312 486.912
1480 0 55.068 13.6377 751 120.936 116.599 487.366
1481 0 54.074 13.1671 712 123.681 115.555 484.485
1482 0 54.0486 13.2288 715 121.965 116.161 486.792
1483 0 59.178 14.7014 870 120.467 115.605 479.046
1484 0 61.0854 12.8181 783 123.599 116.549 481.04
1485 0 63.0702 13.5722 856 122.799 116.241 480.161
1486 0 65.0678 13.4629 876 122.576 115.486 477.595
1487 0 66.0873 11.4848 759 126.186 115.709 476.872
1488 0 71.2616 15.4221 1099 119.429 116.812 474.245
1489 0 70.1032 13.637 956 125.018 116.584 467.003
1490 0 75.3857 14.2998 1078 122.43 117.222 469.509
1491 0 77.1775 16.1187 1244 121.052 117.48 464.076
1492 0 81.2209 17.6555 1434 117.706 116.321 458.869
1493 0 81.2317 15.4373 1254 123.997 118.272 459.23
1494 0 87.2432 15.3135 1336 122.417 118.579 461.954
1495 0 89.3759 16.0782 1437 121.7 119.275 457.367
1496 1 46.4137 11.7638 546 127.099 120.005 476.507
1497 0 46.2604 12.581 582 128.326 121.605 477.711
1498 0 51.2767 13.2224 678 126.049 121.053 475.892
1499 0 50.2469 15.2248 765 123.753 121.888 475.841
1500 0 53.307 13.8818 740 126.968 123.607 476.866
1501 0 55.1462 12.8749 710 126.706 122.379 477.8
1502 0 56.0587 13.361 749 126.124 123.401 477.467
1503 0 58.0579 12.6598 735 127.777 122.976 475.999
1504 0 61.1084 15.0061 917 122.255 122.662 476.57
1505 0 62.0361 13.1859 818 125.33 123.764 477.075
1506 0 66.0592 14.8806 983 122.275 122.996 477.115
1507 0 68.0953 13.4077 913 123.871 123.817 476.593
1508 0 70.1024 15.0922 1058 120.703 122.433 477.032
1509 0 71.0824 12.7317 905 126.196 123.071 478.76
1510 0 73.0909 13.0386 953 125.758 121.694 478.707
1511 0 80.0605 15.201 1217 120.486 122.967 477.995
1512 0 82.1263 14.7699 1213 121.472 122.069 479.093
1513 0 84.2149 13.4537 1133 125.047 120.774 476.635
1514 0 87.1402 15.8021 1377 123.435 119.85 473.219
1515 0 90.0988 16.0491 1446 122.176 119.928 471.43
1516 0 92.0779 13.7601 1267 125.357 118.948 473.344
1517 0 95.1059 13.7846 1311 125.778 118.405 470.998
1518 0 99.3002 14.4914 1439 123.574 117.272 466.117
1519 1 50.0925 10.4008 521 124.977 116.244 491.789
1520 0 53.128 16.3944 871 115.565 116.303 487.719
1521 0 56.1877 14.9321 839 116.753 115.108 486.453
1522 0 54.0987 12.5327 678 125.339 115.344 483.242
1523 0 56.1446 13.1624 739 123.256 114.06 483.07
1524 0 59.1343 12.2264 723 125.91 114.412 483.703
1525 0 61.0943 14.1584 865 122.209 114.603 478.726
1526 0 62.116 13.507 839 124.585 113.834 477.723
1527 0 64.1069 11.4808 736 128.495 114.568 473.679
1528 0 64.1069 11.434 733 153.568 115.561 473.614
1529 0 70.4338 13.6156 959 126.72 114.865 470.504
1530 0 73.561 14.6137 1075 123.994 113.781 468.364
1531 0 75.6217 18.3149 1385 117.666 115.751 466.28
1532 0 76.493 13.949 1067 127.008 115.19 463.071
1533 0 77.6079 12.9111 1002 129.244 116.234 462.133
1534 0 84.5264 15.2378 1288 123.256 117.008 459.252
1535 0 85.6016 14.7077 1259 124.515 117.425 460.026
1536 0 89.5131 16.1988 1450 121.741 118.188 457.196
1537 0 91.4015 17.8443 1631 119.186 118.887 455.034
1538 0 101.804 20.2447 2061 111.887 119.352 450.922
1539 0 98.4911 17.6361 1737 119.967 119.774 451.993
1540 0 102.468 16.8052 1722 121.235 119.992 451.521
1541 0 103.718 16.593 1721 122.309 121.76 451.804
1542 0 108.443 19.0884 2070 118.137 122.791 452.677
1543 1 58.4056 13.4063 783 126.421 122.047 472.612
1544 0 62.1985 15.9007 989 119.798 122.1 475.554
1545 0 62.1481 12.8403 798 126.031 122.981 475.768
1546 0 66.4254 14.5878 969 122.095 122.684 472.401
1547 0 68.1654 13.658 931 125.23 122.739 474.161
1548 0 69.2949 11.1841 775 129.648 122.733 475.063
1549 0 71.3341 13.9484 995 125.845 122.216 473.201
1550 0 72.2925 12.9751 938 127.676 122.836 473.156
1551 0 77.5029 14.9801 1161 122.605 123.32 472.417
1552 0 80.4213 16.6374 1338 120.094 122.515 470.491
1553 0 82.2444 13.8246 1137 126.106 122.22 469.73
1554 0 88.5727 16.9691 1503 119.528 121.424 470.448
1555 0 92.53 18.4589 1708 116.273 122.059 467.778
1556 0 92.2367 14.8314 1368 123.613 120.723 467.29
1557 1 48.2063 11.1396 537 120.004 119.104 493.585
1558 0 50.1234 11.3919 571 120.191 118.848 489.328
1559 0 50.4323 10.3307 521 119.361 117.702 485.221
1560 0 53.38 12.4391 664 114.2 117.517 486.077
1561 0 54.1803 13.0306 706 113.03 116.149 486.095
1562 0 57.138 14.2812 816 111.778 116.984 483.51
1563 0 59.1059 8.29021 490 121.843 117.302 485.696
1564 0 59.149 9.85647 583 120.952 116.168 481.756
1565 0 63.124 14.0359 886 112.966 116.04 480.142
1566 0 65.0345 12.1935 793 115.971 115.265 478.672
1567 0 67.3231 14.3339 965 113.477 114.618 477.487
1568 0 69.196 14.2783 988 113.737 116.05 477.248
1569 0 75.2419 12.8386 966 114.69 115.215 466.934
1570 0 75.2747 14.1615 1066 114.492 115.924 468.798
1571 0 76.2701 14.1471 1079 116.708 114.713 469.095
1572 0 78.1319 14.7443 1152 115.651 114.646 463.558
1573 0 82.0704 13.0985 1075 118.785 115.151 461.532
1574 0 86.2265 13.1978 1138 117.209 115.106 461.716
1575 0 89.1896 16.2127 1446 111.879 114.698 459.877
1576 0 89.3653 12.5552 1122 118.868 116.848 457.766
1577 0 88.1917 11.1462 983 120.937 116.875 453.812
1578 1 53.1919 14.4947 771 109.036 119.141 477.9
1579 0 52.1784 11.9015 621 113.953 119.01 477.258
1580 0 55.1665 13.9215 768 110.124 119.353 474.13
1581 0 54.2382 10.8595 589 116.868 120.84 473.779
1582 0 59.3862 14.7004 873 112.1 121.349 474.133
1583 0 59.4332 12.8043 761 115.69 122.06 471.187
1584 0 61.3185 12.7205 780 117.783 121.668 471.837
1585 0 63.2933 13.5875 860 112.229 122.61 473.37
1586 0 63.2069 9.98309 631 119.241 122.894 470.545
1587 0 68.4605 13.2193 905 113.824 123.608 471.314
1588 0 71.3919 14.0072 1000 113.363 123.372 467.413
1589 0 73.2688 14.5082 1063 112.944 123.895 469.163
1590 0 74.639 13.572 1013 114.553 124.623 468.216
1591 0 73.3985 12.6978 932 116.312 123.756 467.571
1592 0 79.8208 13.3424 1065 115.512 124.35 465.734
1593 0 82.6342 15.0059 1240 113.544 124.86 464.891
1594 0 84.4236 13.9179 1175 115.403 125.054 467.766
1595 0 86.9768 14.3831 1251 115.13 123.763 467.642
1596 0 90.6512 13.8443 1255 116.214 124.321 465.484
1597 1 45.3239 11.5833 525 116.341 123.486 488.783
1598 0 50.3721 10.9584 552 117.44 122.433 488.355
1599 0 52.2251 14.2269 743 113.596 122.659 486.507
1600 0 52.1681 12.6898 662 116.858 121.03 486.077
1601 0 55.3502 16.3504 905 109.257 119.756 487.483
1602 0 57.4679 13.9382 801 112.808 118.743 487.788
1603 0 58.3627 14.1015 823 113.919 118.994 484.409
1604 0 60.346 15.3945 929 112.058 117.227 482.493
1605 0 61.4233 13.3174 818 115.132 117.289 483.278
1606 0 62.4053 14.9026 930 114.526 117.187 480.306
1607 0 62.4589 12.7444 796 118.948 116.989 478.559
1608 0 66.4785 13.6285 906 116.201 117.322 478.837
1609 0 67.4655 13.77 929 117.282 116.812 478.154
1610 0 71.5164 14.6959 1051 116.138 114.92 473.104
1611 0 70.3585 14.3266 1008 117.524 116.086 473.978
1612 0 74.2481 15.6502 1162 114.673 115.672 471.679
1613 0 75.3251 13.7272 1034 117.956 116.585 470.997
1614 0 79.2701 15.9076 1261 115.058 114.998 466.452
1615 0 84.259 14.0757 1186 116.689 116.761 462.855
1616 0 87.796 15.8435 1391 114.2 115.694 457.385
1617 0 85.4692 16.9769 1451 114.312 116.947 461.16
1618 0 87.2784 15.0553 1314 117.582 116.918 460.286
1619 0 88.5094 15.8062 1399 117.002 117.642 454.702
1620 0 94.4658 16.7891 1586 114.814 117.589 452.605
1621 0 95.3289 14.1825 1352 119.579 119.213 456.271
1622 0 99.3462 16.2865 1618 117.011 119.278 450.094
1623 0 103.648 16.8069 1742 114.797 120.579 453.524
1624 0 104.642 14.65 1533 119.958 120.83 448.592
1625 0 107.249 15.4874 1661 118.902 121.386 448.315
1626 0 112.154 16.5041 1851 116.757 121.605 445.797
1627 0 116.507 15.6127 1819 117.731 122.3 447.745
1628 0 120.217 16.229 1951 117.117 123.847 444.539
1629 0 125.398 17.8871 2243 113.948 123.669 445.881
1630 0 126.224 15.726 1985 119.32 124.471 441.219
1631 0 132.373 19.0371 2520 113.43 124.092 438.704
1632 0 133.58 14.7477 1970 121.998 124.16 436.464
1633 1 74.2226 15.2649 1133 117.725 125.101 469.334
1634 0 77.1155 12.6823 978 124.506 124.683 464.517
1635 0 82.3912 17.1378 1412 115.761 126.555 468.292
1636 0 88.3178 14.9347 1319 117.866 124.011 465.775
1637 0 90.3061 17.1638 1550 115.274 123.592 465.932
1638 0 88.4322 13.728 1214 122.986 124.063 466.918
1639 0 90.2803 14.3553 1296 122.373 123.585 467.438
1640 0 97.3175 19.1333 1862 113.343 123.605 462.734
1641 0 103.651 15.3978 1596 118.462 122.26 460.817
1642 0 103.302 15.4208 1593 122.647 123.053 462.804
1643 0 104.421 16.4047 1713 119.468 122.126 465.941
1644 0 108.255 14.4289 1562 124.517 121.44 459.261
1645 1 57.1283 10.4502 597 126.377 120.635 482.285
1646 0 60.2257 9.34818 563 124.65 118.508 484.663
1647 0 64.2701 10.0358 645 126.321 118.977 479.154
1648 0 66.2231 13.8773 919 117.943 119.057 481.607
1649 0 69.0785 12.3193 851 122.08 117.729 475.53
1650 0 67.4606 13.1336 886 123.195 117.008 470.926
1651 0 71.4244 12.1667 869 123.28 115.819 468.611
1652 0 74.1438 12.8669 954 121.263 115.703 466.036
1653 0 74.2051 11.7916 875 123.101 115.058 467.339
1654 0 77.3162 11.8992 920 126.962 114.861 462.138
1655 0 82.2382 13.3393 1097 122.906 115.215 462.968
1656 0 84.2211 13.0965 1103 123.723 114.17 460.026
1657 0 86.1564 11.8737 1023 130.784 115.079 446.492
1658 0 87.3033 11.5116 1005 132.922 115.408 441.85
1659 0 89.1117 14.0273 1250 126.624 114.965 445.845
1660 0 89.1482 10.791 962 135.535 115.788 441.67
1661 0 95.1411 13.8952 1322 128.853 117.187 445.505
1662 0 98.1149 12.8625 1262 132.374 117.33 443.3
1663 1 53.0463 9.21837 489 123.679 117.767 467.922
1664 0 58.0392 8.95945 520 121.037 119.11 472.167
1665 0 61.0487 11.1059 678 120.662 118.361 469.745
1666 0 64.1216 12.1644 780 118.442 119.231 468.263
1667 0 71.2016 13.848 986 114.345 120.358 469.425
1668 0 70.151 11.2757 791 122.358 119.63 466.195
1669 0 69.2043 9.10348 630 126.856 119.252 462.156
1670 0 77.0888 12.3624 953 119.768 121.175 463.172
1671 0 76.1447 10.0729 767 120.799 120.823 469.857
1672 0 79.209 10.3902 823 123.236 121.701 461.734
1673 0 81.2148 12.904 1048 116.619 121.578 464.328
1674 0 83.1016 12.0816 1004 118.727 122.871 461.712
1675 0 87.3217 10.7648 940 118.968 123.105 466.483
1676 0 88.1448 10.1424 894 121.629 121.848 461.719
1677 0 88.1956 7.1092 627 128.051 121.864 453.545
1678 0 93.0941 10.2047 950 121.879 122.223 461.401
1679 0 95.2481 9.42801 898 124.163 121.516 461.85
1680 0 97.2034 8.89886 865 125.015 120.609 461.858
1681 0 100.568 10.1623 1022 125.322 120.549 453.175
1682 0 104.228 13.2881 1385 120.101 119.666 458.111
1683 0 108.123 10.4973 1135 124.408 120.814 455.724
1684 0 108.147 8.99698 973 126.026 119.997 455.222
1685 0 111.373 11.5916 1291 123.06 119.445 450.735
1686 1 64.1153 8.67188 556 117.888 120.219 481.059
1687 0 65.1598 7.78087 507 121.446 119.235 478.848
1688 0 62.4462 7.67061 479 123.737 117.282 480.251
1689 0 67.3533 11.4322 770 116.326 118.664 479.939
1690 0 69.5264 9.49279 660 118.489 117.332 480.22
1691 0 68.2799 10.3837 709 118.458 116.315 471.072
1692 0 75.521 12.182 920 116.466 117.112 471.008
1693 0 73.3134 8.83876 648 122.471 115.409 465.235
1694 0 69.316 9.33406 647 121.586 116.161 468.697
1695 1 36.1784 4.25668 154 122.636 114.597 485.351
1696 0 38.0596 5.22863 199 119.603 113.568 486.563
1697 0 43.0385 7.06344 304 116.02 114.523 489.375
1698 0 45.0601 10.3196 465 111.972 115.039 486.069
1699 0 42.1175 7.74025 326 116.049 114.586 482.123
1700 0 43.1135 7.14393 308 115.86 114.422 480.584
1701 0 49.1446 6.18583 304 118.128 114.493 478.964
1702 0 51.2469 6.30282 323 115.582 116.601 480.402
1703 0 53.2565 7.24794 386 115.769 116.345 477.886
1704 0 55.1424 7.25395 400 115.438 116.065 469.848
1705 0 246.292 4.83979 1192 145.471 116.102 378.331
1706 1 23.0267 8.77242 202 113.03 118.97 484.965
1707 0 21.0168 7.18472 151 114.722 119.583 486.781
1708 0 24.0294 5.95104 143 117.28 120.105 481.937
1709 1 69.246 12.304 852 110.504 117.058 459.711
1710 0 69.19 9.97254 690 114.955 118.268 460.954
1711 0 74.3794 11.6296 865 110.904 119.402 464.257
1712 0 77.6392 9.82751 763 116.481 119.658 462.6
1713 0 80.5701 11.0835 893 115.318 121.99 458.011
1714 1 41.2357 10.1611 419 111.408 122.895 479.062
1715 0 42.2806 9.88633 418 112.189 123.885 481.677
1716 0 42.3775 8.70744 369 113.58 124.591 481.206
1717 0 46.4621 11.3641 528 110.04 123.795 481.866
1718 0 49.5725 15.2302 755 103.466 123.714 482.731
1719 0 50.3549 11.5381 581 115.164 122.482 480.349
1720 0 51.1698 13.6604 699 112.037 122.7 483.637
1721 0 50.0244 12.314 616 115.269 120.938 483.672
1722 0 52.0334 14.1255 735 112.325 120.996 484.468
1723 0 54.0594 14.7246 796 110.917 120.528 487.616
1724 0 56.0937 12.5861 706 116.188 120.484 487.479
1725 0 56.1554 10.9696 616 120.831 120.474 487.914
1726 0 59.1005 10.626 628 122.232 119.518 483.876
1727 0 60.1634 12.9314 778 118.171 119.656 484.384
1728 0 61.2327 13.0649 800 118.669 120.15 486.172
1729 0 65.3691 14.8541 971 114.93 117.808 485.273
1730 0 67.2897 13.7317 924 117.36 117.169 485.29
1731 0 67.1897 14.9428 1004 116.295 116.248 483.575
1732 0 70.3962 16.9043 1190 112.696 116.489 482.629
1733 0 70.2629 15.7409 1106 114.544 115.987 482.154
1734 0 72.3464 15.5364 1124 116.786 115.888 478.615
1735 0 74.208 14.7963 1098 117.909 115.095 477.901
1736 0 76.4023 13.8216 1056 120.331 115.414 474.704
1737 0 80.5877 14.1709 1142 118.856 115.574 472.465
1738 0 81.5337 14.5829 1189 118.251 115.632 470.165
1739 0 82.7748 15.9106 1317 116.155 114.534 470.134
1740 0 85.6091 16.2015 1387 114.789 114.686 470.188
1741 0 89.6548 17.5785 1576 111.918 115.073 466.749
1742 0 91.6166 16.2088 1485 115.929 114.383 463.106
1743 0 90.5859 14.3621 1301 119.249 114.443 460.292
1744 1 53.2921 12.4972 666 114.458 115.632 483.908
1745 0 52.2336 13.8991 726 114.211 115.933 480.368
1746 0 52.0674 13.8859 723 115.723 115.786 478.238
1747 0 57.3453 17.3685 996 107.971 117.653 478.401
1748 0 53.3273 11.9638 638 119.826 116.908 471.911
1749 0 55.243 13.5764 750 116.775 117.675 471.557
1750 0 59.3618 16.2057 962 111.443 118.041 471.576
1751 0 58.5182 15.1064 884 114.93 120.368 470.517
1752 0 58.24 15.8482 923 114.818 119.853 468.437
1753 0 62.1779 17.659 1098 110.013 120.234 469.805
1754 0 62.2394 14.878 926 114.794 121.035 472.282
1755 0 65.0767 11.8937 774 119.357 120.995 472.213
1756 0 66.2837 15.7806 1046 114.396 122.023 470.598
1757 0 68.1837 15.0476 1026 116.116 121.488 469.384
1758 0 71.1528 15.4035 1096 113.481 123.185 471.237
1759 0 69.3551 14.3609 996 118.084 122.319 465.523
1760 0 71.3042 12.2153 871 122.332 122.676 462.772
1761 0 76.3352 16.9123 1291 113.314 122.843 464.734
1762 0 76.2369 13.3793 1020 120.018 122.926 466.276
1763 0 81.3148 15.8889 1292 115.908 122.804 465.307
1764 0 84.3381 13.3036 1122 119.894 123.029 468.742
1765 0 85.2623 14.6372 1248 118.499 122.916 464.654
1766 0 88.1757 15.3557 1354 114.503 122.286 459.779
1767 0 91.2374 13.1963 1204 119.949 121.803 451.175
1768 0 94.1316 16.3919 1543 113.424 121.457 453.414
1769 1 52.3069 10.7443 562 119.342 121.148 477.603
1770 0 56.0462 12.5432 703 113.023 120.991 484.366
1771 0 58.0411 15.1272 878 106.195 119.449 486.583
1772 0 56.1833 12.655 711 115.042 118.705 481.571
1773 0 60.0808 12.8161 770 112.549 116.542 482.349
1774 0 58.0986 13.6836 795 112.379 117.287 484.994
1775 0 64.1041 13.5717 870 112.243 116.42 481.439
1776 0 65.0365 13.5462 881 113.227 115.615 477.799
1777 0 70.1603 13.2981 933 115.407 115.208 462.808
1778 0 70.0645 12.9024 904 116.72 114.971 466.329
1779 0 72.0819 15.635 1127 110.445 113.846 467.004
1780 0 74.0437 14.4104 1067 112.582 113.051 468.308
1781 0 77.0803 14.7249 1135 111.108 115.205 472.448
1782 0 78.0771 17.5468 1370 107.883 115.25 466.426
1783 0 82.2978 13.7549 1132 113.493 114.292 461.398
1784 0 85.3286 15.3055 1306 110.075 114.923 458.824
1785 0 86.1735 12.2079 1052 119.234 113.548 445.359
1786 0 89.158 17.7213 1580 110.313 113.72 446.558
1787 0 91.1077 14.17 1291 115.036 114.5 449.156
1788 0 95.1234 16.2315 1544 111.782 114.917 446.9
1789 0 98.2003 13.1975 1296 117.26 113.301 449.029
1790 1 55.1198 14.2236 784 108.548 115.935 470.158
1791 0 54.2238 11.6554 632 118.093 116.699 461.027
1792 0 57.1844 17.1201 979 106.907 117.269 467.759
1793 0 59.2241 12.917 765 115.127 117.629 465.557
1794 0 63.3688 14.6129 926 110.032 118.368 462.883
1795 0 62.179 14.9729 931 111.389 117.858 462.946
1796 0 65.3663 15.0077 981 110.855 119.567 465.275
1797 0 66.351 13.7752 914 113.37 119.35 464.755
1798 0 68.2501 16.0146 1093 111.05 120.991 460.71
1799 0 68.1613 12.7785 871 117.38 120.724 459.437
1800 0 72.5068 13.7918 1000 115.595 121.303 464.959
1801 0 72.1709 16.4748 1189 111.868 121.865 466.833
1802 0 74.2267 14.3884 1068 115.111 121.643 468.919
1803 0 78.0976 13.1374 1026 116.721 121.602 467.89
1804 0 81.1692 13.8476 1124 115.021 121.83 467.196
1805 0 88.1406 18.0053 1587 107.429 121.48 468.722
1806 0 86.3248 17.6311 1522 109.425 121.442 468.954
1807 0 90.1023 13.9397 1256 115.162 122.533 468.239
1808 0 95.2109 14.3156 1363 113.423 120.725 468.185
1809 0 95.2936 12.5402 1195 118.481 122.08 465.456
1810 0 99.198 14.9701 1485 114.275 121.516 466.83
1811 1 59.0493 12.244 723 112.672 122.191 489.386
1812 0 59.0966 10.9143 645 117.078 121.18 485.474
1813 0 65.2309 15.1155 986 107.273 120.802 490.629
1814 0 66.1946 15.6659 1037 108.793 120.934 486.009
1815 0 68.4489 15.9535 1092 107.794 118.999 484.202
1816 0 71.2414 19.2164 1369 102.37 118.908 486.256
1817 0 73.2744 13.5245 991 112.902 118.642 480.4
1818 0 76.3182 17.7939 1358 105.92 117.774 480.685
1819 0 76.1604 14.9028 1135 110.91 116.237 476.253
1820 0 79.2135 14.7071 1165 111.29 116.391 473.627
1821 0 80.197 13.8285 1109 112.597 117.006 472.825
1822 0 83.2765 14.0256 1168 111.878 116.073 473.665
1823 0 86.2656 14.4901 1250 112.373 115.856 472.359
1824 0 90.392 15.6872 1418 110.42 114.98 469.752
1825 0 94.4485 18.1369 1713 107.444 113.887 453.202
1826 0 94.3086 15.3857 1451 113.104 115.218 449.852
1827 0 96.2402 13.1961 1270 116.873 114.999 447.356
1828 0 101.374 17.4503 1769 110.328 114.378 447.874
1829 0 106.362 17.4499 1856 110.276 114.217 440.118
1830 0 105.251 15.1732 1597 116.223 115.314 434.428
1831 1 60.1113 11.3456 682 117.786 115.833 464.802
1832 0 62.1352 12.7947 795 115.917 114.969 459.61
1833 0 65.1784 12.4735 813 117.343 115.593 459.264
1834 0 70.3793 15.9706 1124 108.873 116.663 464.707
1835 0 68.2364 14.8601 1014 112.513 117.082 465.058
1836 0 73.2481 16.2598 1191 109.789 117.876 462.668
1837 0 74.5185 17.2843 1288 108.123 117.14 461.02
1838 0 77.3155 16.1029 1245 110.199 118.038 466.526
1839 0 79.1764 16.0275 1269 110.647 118.693 464.898
1840 0 81.1191 15.5327 1260 113.106 118.683 460.931
1841 0 84.2028 13.2894 1119 116.895 118.866 458.223
1842 0 87.3735 13.7113 1198 115.715 119.926 458.099
1843 0 88.2174 14.4076 1271 115.629 120.203 453.747
1844 0 90.3167 12.1462 1097 118.767 121.415 455.209
1845 0 95.1836 18.1019 1723 108.206 120.746 458.509
1846 0 97.2495 12.4422 1210 119.297 122.496 455.832
1847 0 102.169 13.2232 1351 116.942 121.954 455.49
1848 1 59.4977 9.91635 590 116.834 122.705 478.075
1849 0 60.2024 12.4247 748 113.98 121.251 477.15
1850 0 58.1374 12.6081 733 114.995 122.096 480.338
1851 0 64.2631 16.0434 1031 107.684 122.815 484.418
1852 0 64.1584 14.6356 939 111.426 121.934 478.846
1853 0 66.0944 13.6925 905 111.67 121.722 483.022
1854 0 69.3483 13.0501 905 113.669 121.535 478.326
1855 0 73.109 13.1995 965 112.714 120.683 482.03
1856 0 76.1709 13.7979 1051 110.941 120.788 481.461
1857 0 77.2692 11.5052 889 116.513 120.286 473.279
1858 0 82.289 13.9144 1145 112.394 119.382 471.863
1859 0 84.2907 11.1875 943 114.844 118.815 469.628
1860 0 87.3225 14.979 1308 109.463 118.136 466.601
1861 0 88.407 11.9674 1058 114.14 118.085 469.13
1862 0 90.469 11.6946 1058 115.088 117.754 465.287
1863 0 92.3024 14.3333 1323 110.76 116.926 464.994
1864 0 95.2747 12.4902 1190 113.736 116.19 462.945
1865 0 99.4811 13.7514 1368 112.351 115.02 458.695
1866 0 101.42 14.1886 1439 111.516 115.338 454.441
1867 0 102.354 12.8183 1312 112.917 113.808 452.914
1868 0 106.344 13.7949 1467 109.303 114.637 457.523
1869 1 58.2302 8.99877 524 112.842 113.939 478.643
1870 0 58.2035 9.41524 548 116.662 114.757 475.701
1871 0 61.3534 12.2732 753 110.988 114.181 476.954
1872 0 59.2617 12.3014 729 112.447 114.394 473.062
1873 0 62.2404 13.0462 812 109.977 112.392 464.378
1874 0 65.0517 14.0965 917 110.119 113.383 460.509
1875 0 64.2223 11.6315 747 114.486 114.147 458.428
1876 0 68.1428 15.4675 1054 108.387 113.968 460.72
1877 0 71.2326 11.5116 820 113.533 114.962 459.434
1878 0 74.1091 14.5596 1079 110.161 115.956 454.576
1879 0 77.1294 15.0656 1162 109.485 115.943 454.693
1880 0 77.1547 13.9201 1074 111.584 116.612 453.047
1881 0 82.3417 15.2292 1254 110.28 117.799 447.577
1882 0 83.2376 17.9726 1496 107.166 118.772 449.23
1883 0 85.1937 13.2991 1133 112.455 119.298 452.982
1884 0 89.3831 19.4108 1735 104.568 120.197 450.49
1885 0 93.3816 17.3589 1621 107.326 119.857 448.473
1886 0 95.194 18.4886 1760 105.573 120.506 452.273
1887 0 97.2864 15.8193 1539 109.86 121.986 451.021
1888 0 100.226 15.3952 1543 110.428 121.849 446.485
1889 0 105.189 16.6273 1749 108.206 122.996 447.042
1890 0 109.292 16.2775 1779 108.483 122.942 445.958
1891 0 109.372 18.7159 2047 105.934 122.72 445.978
1892 0 115.371 17.2574 1991 107.518 121.59 447.384
1893 0 116.386 16.9693 1975 108.387 121.864 444.947
1894 1 63.0746 13.1749 831 109.42 121.029 470.838
1895 0 67.2157 15.5916 1048 102.97 120.015 472.271
1896 0 72.1559 13.9143 1004 108.704 120.217 462.168
1897 0 72.1323 12.5187 903 111.174 120.169 463.03
1898 0 74.139 12.5845 933 112.563 119.055 462.183
1899 0 78.2207 17.0287 1332 105.505 119.274 455.104
1900 0 82.0735 15.2302 1250 108.059 118.036 457.102
1901 0 84.1132 16.1093 1355 108.514 116.964 451.73
1902 0 84.0482 16.2526 1366 107.673 117.277 458.518
1903 0 87.1343 12.3717 1078 114.353 116.228 450.438
1904 0 93.1842 15.0455 1402 108.149 115.594 459.435
1905 0 95.2111 17.0043 1619 107.11 114.516 447.401
1906 0 95.2886 16.025 1527 108.01 114.574 450.288
1907 0 99.1663 14.2589 1414 110.548 113.935 450.603
1908 0 103.157 19.7273 2035 103.392 113.983 443.296
1909 0 104.151 16.092 1676 106.289 112.579 451.106
1910 0 108.22 14.9602 1619 109.846 113.615 444.217
1911 0 112.241 14.4867 1626 111.001 112.946 449.007
1912 1 63.0849 10.8584 685 114.81 113.101 473.631
1913 0 66.2036 14.0476 930 108.44 111.87 475.843
1914 0 69.2294 13.0292 902 109.093 112.513 473.358
1915 0 69.6738 13.879 967 109.417 113.758 464.798
1916 0 71.6759 13.3378 956 111.288 114.007 464.297
1917 0 75.623 13.8318 1046 110.844 114.011 462.988
1918 0 75.6402 12.3479 934 113.14 114.426 462.776
1919 0 76.3566 12.6774 968 113.444 114.551 458.668
1920 0 81.2374 15.5101 1260 107.449 114.346 460.768
1921 0 87.6533 14.8083 1298 108.763 115.518 455.693
1922 0 88.4454 16.2812 1440 107.166 117.118 451.978
1923 0 89.3346 17.4512 1559 103.99 116.724 458.255
1924 0 93.341 15.0095 1401 110.541 118.239 449.929
1925 0 96.6195 17.9363 1733 106.345 119.117 448.819
1926 0 98.3897 18.9044 1860 104.502 118.994 449.241
1927 0 100.428 15.5634 1563 109.74 119.716 447.759
1928 0 100.428 15.4539 1552 147.512 119.685 447.671
1929 0 108.868 14.614 1591 110.806 120.987 445.057
1930 0 110.652 13.2397 1465 112.958 121.93 445.733
1931 0 112.42 16.1092 1811 106.828 121.993 451.692
1932 1 62.2143 10.496 653 117.914 123.616 468.87
1933 0 67.3001 14.8291 998 109.207 122.758 469.232
1934 0 70.3542 14.5691 1025 111.152 122.785 464.126
1935 0 73.4245 14.8316 1089 111.477 122.294 464.966
1936 0 75.315 16.2916 1227 110.889 121.738 462.668
1937 0 76.616 13.5089 1035 115.229 122.452 466.084
1938 0 82.3396 14.8167 1220 114.017 123.238 465.917
1939 0 86.3896 17.3053 1495 110.411 122.759 467.382
1940 0 86.4779 14.5818 1261 116.874 120.632 463.134
1941 0 93.2806 21.2263 1980 105.906 120.472 461.611
1942 0 94.4948 16.657 1574 113.088 121.325 464.802
1943 0 97.2503 18.2107 1771 111.299 120.55 457.202
1944 0 99.305 15.2862 1518 116.794 119.715 460.893
1945 0 101.17 14.1445 1431 119.052 117.335 458.543
1946 1 53.3784 9.27341 495 125.158 116.584 479.776
1947 0 60.1525 15.8431 953 111.042 116.39 481.259
1948 0 59.5135 13.9296 829 116.216 114.639 476.498
1949 0 62.08 12.194 757 117.049 114.585 477.481
1950 0 66.1129 12.8568 850 116.691 115.467 471.929
1951 0 65.1905 15.355 1001 113.556 114.381 472.436
1952 0 66.4808 15.7489 1047 113.865 114.236 468.233
1953 0 73.1433 15.4901 1133 112.489 114.312 467.748
1954 0 73.4627 19.5882 1439 104.737 112.698 471.348
1955 0 74.3015 13.5663 1008 115.925 114.037 465.354
1956 0 80.1989 15.6985 1259 109.718 113.939 467.888
1957 0 79.3671 12.0831 959 117.18 113.358 463.262
1958 0 83.3203 14.0662 1172 114.428 114.282 459.889
1959 0 86.1939 15.7552 1358 110.867 113.842 458.64
1960 0 90.26 20.031 1808 105.336 114.995 460.534
1961 0 92.1369 15.0862 1390 113.823 114.907 456.567
1962 0 93.3266 15.3547 1433 114.883 115.767 453.685
1963 0 93.1589 13.5575 1263 119.862 116.854 448.663
1964 0 94.1626 13.0838 1232 122.111 116.273 444.001
1965 0 102.522 15.2162 1560 117.207 117.43 443.695
1966 0 108.221 13.0105 1408 119.476 117.977 452.172
1967 0 110.233 13.4986 1488 120.04 118.688 445.095
1968 1 63.2476 9.47072 599 117.758 118.915 468.329
1969 0 66.2945 12.0221 797 115.187 119.528 465.297
1970 0 69.1232 12.7743 883 113.82 121.356 463.293
1971 0 67.4852 10.832 731 120.621 121.544 456.014
1972 0 70.2163 14.4126 1012 114.575 122.216 458.804
1973 0 76.5167 13.5526 1037 113.27 122.453 462.346
1974 0 85.4572 19.8813 1699 103.37 121.467 456.268
1975 0 87.3597 15.1099 1320 111.788 123.357 456.076
1976 0 86.4278 15.9439 1378 113.075 123.983 452.266
1977 0 85.4884 15.4407 1320 115.505 124.22 454.014
1978 0 89.1868 15.3498 1369 115.252 124.861 457.85
1979 0 88.2958 13.6133 1202 120.82 123.354 451.878
1980 1 50.1093 11.8341 593 113.486 124.088 481.309
1981 0 52.0465 8.39634 437 119.812 122.835 482.645
1982 0 53.197 12.4443 662 112.144 120.184 482.606
1983 0 54.1583 8.84445 479 115.724 120.023 481.871
1984 0 56.2303 11.0083 619 113.074 120.743 478.796
1985 0 62.0741 11.5668 718 113.564 118.669 484.143
1986 0 65.0705 15.537 1011 107.595 118.875 484.527
1987 0 65.1722 11.4159 744 115.819 115.788 480.012
1988 0 68.2668 13.0078 888 113.729 116.676 477.181
1989 0 69.2816 12.9472 897 113.56 114.829 481.501
1990 0 71.1242 13.7365 977 111.362 116.44 480.303
1991 0 73.1966 14.3176 1048 111.422 115.519 477.295
1992 0 76.0853 13.3009 1012 114.298 115.642 471.329
1993 0 79.2146 13.1794 1044 113.313 114.322 473.307
1994 0 81.2683 11.702 951 117.821 115.22 464.299
1995 0 84.0881 13.3907 1126 113.15 113.978 469.489
1996 0 85.3296 13.2896 1134 113.854 112.995 467.728
1997 0 87.1744 13.1805 1149 114.782 112.275 463.523
1998 0 90.3327 12.6643 1144 115.033 113.32 463.869
1999 0 93.2832 13.4429 1254 114.112 113.073 459.25
2000 0 94.336 12.8265 1210 114.76 112.857 460.768
2001 0 98.4847 14.388 1417 112.598 113.944 456.426
2002 0 100.394 12.192 1224 114.587 113.753 456.965
2003 0 104.324 10.8604 1133 118.34 114.454 445.664
2004 1 63.1293 12.5298 791 107.422 116.034 473.214
2005 0 61.2048 10.375 635 111.331 115.972 470.683
2006 0 65.1014 10.3377 673 111.676 116.251 470.756
2007 0 69.1363 12.2801 849 109.333 117.385 465.276
2008 0 69.1832 13.0812 905 110.02 117.925 468.212
2009 0 72.0467 13.8799 1000 109.251 118.747 461.531
2010 0 73.2026 11.4067 835 112.998 120.055 464.794
2011 0 78.0523 12.2994 960 111.573 120.34 462.408
2012 0 79.0826 9.52169 753 116.28 121.661 463.56
2013 0 81.0992 9.09996 738 118.114 121.161 456.629
2014 0 86.0917 10.9883 946 113.688 121.988 462.653
2015 0 86.1756 9.84038 848 119.13 121.715 451.952
2016 0 89.1487 12.4848 1113 113.358 122.768 459.677
2017 0 95.1516 10.9299 1040 117.604 121.896 456.296
2018 1 53.1443 9.27663 493 111.562 121.858 476.527
2019 0 55.2633 9.35522 517 109.919 123.847 481.623
2020 0 56.1632 11.2529 632 109.505 122.003 477.897
2021 0 54.3197 8.81817 479 116.161 122.77 476.426
2022 0 55.2224 7.49696 414 119.966 122.121 480.367
2023 0 61.224 10.2738 629 115.893 120.784 478.238
2024 0 61.3039 10.0972 619 117.759 121.299 479.352
2025 0 59.1477 10.347 612 120.111 119.933 473.58
2026 0 63.1408 9.23334 583 120.244 119.986 473.358
2027 0 67.1484 11.2586 756 116.856 118.724 478.032
2028 0 71.207 11.8668 845 115.509 120.002 480.925
2029 0 72.2001 11.5097 831 116.859 119.436 478.632
2030 0 77.2846 12.6545 978 114.333 118.347 477.854
2031 0 78.6829 14.2344 1120 112.871 118.364 477.156
2032 0 76.5018 11.6206 889 120.396 117.395 474.363
2033 0 77.2111 10.2835 794 124.035 116.693 469.851
2034 0 87.9287 11.5093 1012 119.293 116.724 470.968
2035 0 86.4902 11.458 991 121.489 115.07 466.438
2036 0 87.4941 13.0066 1138 119.779 114.782 466.581
2037 1 47.16 5.87362 277 123.588 115.888 488.372
2038 0 50.2726 9.8662 496 115.369 115.349 488.169
2039 0 51.548 7.75975 400 118.168 115.455 483.755
2040 0 50.5737 10.0843 510 118.502 113.592 477.592
2041 0 53.3912 10.5261 562 117.822 115.701 480.457
2042 0 56.2872 15.2077 856 113.605 112.911 475.387
2043 0 57.3887 12.1278 696 118.592 112.889 476.231
2044 0 58.2688 13.8153 805 115.887 112.621 475.381
2045 0 57.312 12.5454 719 119.979 114.074 471.341
2046 0 58.3268 14.4702 844 117.623 114.383 468.956
2047 0 60.4803 15.3604 929 116.217 114.588 468.996
2048 0 62.3351 13.8285 862 119.147 115.103 466.456
2049 0 63.2566 13.9274 881 118.581 114.916 469.832
2050 0 66.4145 17.0896 1135 113.026 115.458 470.337
2051 0 70.2316 16.2605 1142 115.835 115.533 467.209
2052 0 68.1873 14.3282 977 120.654 116.04 467.712
2053 0 72.1576 14.6901 1060 119.775 115.889 466.934
2054 0 73.1111 13.3769 978 123.815 115.51 463.648
2055 0 75.2143 15.5954 1173 120.265 118.628 461.464
2056 0 78.0761 13.9095 1086 123.259 118.813 463.39
2057 0 82.123 13.979 1148 122.356 119.756 463.058
2058 0 82.3262 16.5318 1361 118.151 120.6 462.288
2059 0 83.3606 14.7792 1232 123.962 119.797 462.077
2060 0 87.4665 14.1426 1237 125.798 120.826 461.091
2061 0 92.2313 14.4962 1337 123.803 121.09 461.758
2062 0 94.4741 16.7665 1584 120.027 121.042 460.117
2063 1 48.2199 8.83453 426 128.646 120.631 484.716
2064 0 50.2691 12.8111 644 121.495 122.745 484.46
2065 0 55.2045 14.0749 777 117.753 121.985 484.656
2066 0 54.2946 12.027 653 121.726 122.711 483.452
2067 0 55.0703 12.6021 694 122.927 120.928 483.663
2068 0 56.3744 14.0667 793 120.032 121.874 483.764
2069 0 60.2895 12.2409 738 123.809 121.478 483.989
2070 0 57.2523 14.0256 803 121.783 121.112 482.685
2071 0 60.2906 12.5393 756 123.854 120.004 482.205
2072 0 63.1708 15.4027 973 118.423 118.213 482.336
2073 0 64.1582 14.2149 912 121.754 117.545 461.387
2074 0 65.2541 11.9533 780 126.913 116.974 457.653
2075 0 67.3875 13.2369 892 124.473 116.513 454.201
2076 0 68.1648 15.4919 1056 122.1 115.649 451.642
2077 0 71.4141 13.8908 992 124.378 114.773 450.082
2078 0 72.4153 14.334 1038 124.687 113.031 454.491
2079 0 75.2614 16.9941 1279 118.486 114.206 454.843
2080 0 77.152 16.3832 1264 123.965 113.629 446.918
2081 0 80.3583 14.4976 1165 126.676 113.786 444.061
2082 0 82.4796 15.8585 1308 122.807 113.873 444.27
2083 0 82.2094 13.0642 1074 131.025 113.508 436.705
2084 0 83.4508 17.8069 1486 121.611 112.682 438.381
2085 0 87.4552 14.0872 1232 126.964 113.138 436.446
2086 0 89.3891 16.6687 1490 124.069 113.558 428.846
2087 0 91.395 15.0774 1378 126.669 113.337 431.38
2088 0 95.4548 15.6723 1496 125.334 114.334 429.082
2089 0 95.3806 15.1393 1444 127.937 113.768 420.554
2090 0 98.2795 13.8381 1360 129.854 114.153 424.746
2091 0 100.236 14.8449 1488 129.126 115.497 422.583
2092 0 102.345 14.5293 1487 129.981 117.07 421.809
2093 0 102.352 14.5282 1487 150.089 119.087 421.68
2094 0 110.319 12.6542 1396 131.749 115.577 422.966
2095 0 111.352 13.6145 1516 127.533 118.477 430.321
2096 0 117.29 12.7973 1501 129.829 117.649 420.095
2097 1 69.1048 14.0222 969 122.36 119.47 449.504
2098 0 70.1306 13.8313 970 122.711 118.74 452.678
2099 0 73.1105 13.1582 962 122.698 118.706 449.311
2100 0 73.0764 13.1917 964 125.549 119.366 443.844
2101 0 78.0663 11.234 877 127.602 120.205 448.005
2102 0 79.232 12.2425 970 124.858 120.1 447.387
2103 0 82.2071 12.2131 1004 124.314 120.713 448.096
2104 0 87.202 13.119 1144 123.716 120.973 443.761
2105 0 91.1535 15.7866 1439 116.669 120.032 455.518
2106 0 89.3699 11.9615 1069 124.837 121.692 449.871
2107 0 97.2484 15.2805 1486 116.775 119.823 450.584
2108 0 102.155 14.6346 1495 117.421 119.636 451.038
2109 1 49.0803 5.9698 293 127.71 119.611 471.126
2110 0 58.0537 11.6788 678 114.227 119.26 477.891
2111 0 60.2295 13.0501 786 113.041 120.485 479.335
2112 0 62.5696 13.9844 875 117.265 118.778 478.213
2113 0 69.2757 16.6869 1156 110.283 118.873 474.778
2114 0 71.2262 17.0443 1214 109.387 118.004 474.462
2115 0 69.3255 13.1121 909 118.556 116.644 456.707
2116 0 77.3415 15.2053 1176 113.264 116.596 461.53
2117 0 77.4755 17.541 1359 111.196 114.536 455.99
2118 0 77.3869 13.7362 1063 116.322 114.613 458.776
2119 0 83.5059 13.999 1169 114.676 113.8 459.017
2120 0 83.1354 13.1232 1091 117.347 113.371 455.725
2121 0 87.2267 14.1814 1237 115.223 112.535 453.556
2122 0 91.1432 16.5564 1509 109.267 112.92 462.296
2123 0 90.2757 16.6158 1500 111.486 112.753 453.76
2124 0 91.1594 12.4507 1135 119.577 112.128 453.657
2125 0 98.2136 16.9834 1668 110.397 112.61 452.728
2126 0 99.2728 12.8434 1275 118.51 113.308 452.471
2127 0 105.195 13.7364 1445 117.242 112.22 447.24
2128 1 57.0757 12.5272 715 114.034 113.066 471.765
2129 0 55.0598 11.097 611 117.511 112.776 470.242
2130 0 59.1285 12.8026 757 111.178 111.869 470.439
2131 0 62.235 13.5776 845 112.502 112.438 471.595
2132 0 65.2143 12.7733 833 114.804 114.857 470.095
2133 0 66.2519 12.8449 851 113.882 115.031 465.308
2134 0 66.219 12.6248 836 114.935 115.949 467.786
2135 0 72.2281 15.4372 1115 109.426 116.386 465.413
2136 0 73.3687 13.8206 1014 112.225 116.54 464.388
2137 0 73.2986 15.621 1145 110.464 117.435 461.019
2138 0 77.2308 13.4791 1041 114.202 117.876 462.093
2139 0 80.3331 14.9129 1198 110.906 118.323 461.73
2140 0 83.2658 13.6671 1138 113.601 119.22 457.322
2141 0 86.4292 12.9586 1120 113.724 120.404 459.001
2142 0 88.2043 12.9245 1140 114.466 120.34 452.504
2143 0 89.2647 13.1407 1173 114.079 119.463 452.386
2144 0 92.4267 15.3744 1421 110.181 120.061 448.152
2145 1 50.0902 11.1599 559 113.522 123.02 474.945
2146 0 51.1244 9.3693 479 114.013 121.28 475.154
2147 0 54.2474 13.2541 719 109.997 123.092 473.494
2148 0 54.2049 11.641 631 113.277 122.471 471.529
2149 0 58.356 12.1838 711 112.477 122.994 480.997
2150 0 60.3115 13.0323 786 112.293 123.128 478.365
2151 0 61.3311 12.1961 748 115.294 122.168 477.676
2152 0 57.3639 10.0063 574 121.97 122.352 477.23
2153 0 66.1753 12.482 826 114.557 121.099 480.165
2154 0 66.1753 12.5424 830 138.226 120.087 480.364
2155 0 67.1494 12.7477 856 116.915 120.081 475.228
2156 0 71.2707 11.9685 853 116.591 120.043 475.178
2157 0 75.2496 17.1562 1291 107.845 118.792 471.593
2158 0 76.1358 14.6449 1115 111.231 116.979 469.307
2159 0 80.479 14.3889 1158 111.1 116.733 469.443
2160 0 82.3812 15.0156 1237 109.563 115.707 465.373
2161 0 84.1717 15.1833 1278 109.095 115.124 465.582
2162 1 45.1939 9.93497 449 114.626 115.423 481.394
2163 0 47.2041 13.5793 641 106.521 114.214 486.671
2164 0 48.6075 13.2284 643 109.272 115.359 480.051
2165 0 52.0629 13.1956 687 108.803 113.69 477.904
2166 0 54.1843 13.4725 730 107.852 114.074 481.207
2167 0 57.3247 13.2578 760 108.812 113.114 475.513
2168 0 56.3256 13.1024 738 109.279 114.008 480.136
2169 0 55.1722 12.2163 674 112.478 113.261 473.595
2170 0 62.3446 12.7677 796 111.245 113.364 474.832
2171 0 64.3541 13.8453 891 109.615 113.48 472.131
2172 0 62.274 12.1881 759 114.142 113.465 468.104
2173 0 65.3762 14.8219 969 108.456 114.164 471.078
2174 0 68.3322 13.3319 911 110.596 113.738 465.617
2175 0 69.373 13.9824 970 110.973 115.18 462.301
2176 0 71.4082 15.2644 1090 108.885 115.543 458.734
2177 0 75.2611 13.4997 1016 111.226 115.453 459.554
2178 0 74.3075 12.7847 950 112.618 116.776 455.992
2179 0 78.426 15.1608 1189 106.867 116.593 457.214
2180 0 80.7404 14.0202 1132 108.565 117.721 454.891
2181 0 82.3579 17.6061 1450 103.948 119.346 450.393
2182 0 85.3622 18.3454 1566 102.718 118.868 451.988
2183 0 86.396 12.9057 1115 111.885 119.644 453.957
2184 0 91.509 16.359 1497 105.536 119.646 448.2
2185 0 93.2466 13.7163 1279 109.909 120.041 448.433
2186 0 97.4174 14.5662 1419 108.518 120.474 447.536
2187 1 52.2188 14.2477 744 106.194 120.364 470.996
2188 0 55.1984 13.6598 754 106.007 121.212 469.351
2189 0 60.5803 14.5757 883 102.643 122.707 471.048
2190 0 54.3497 13.8363 752 106.544 122.504 472.572
2191 0 57.1385 12.8985 737 108.617 121.459 472.631
2192 0 60.4316 13.7511 831 106.422 121.256 475.539
2193 0 62.429 12.7665 797 106.986 122.198 471.965
2194 0 62.2161 15.6712 975 105.245 121.711 470.359
2195 0 66.1829 11.4229 756 109.862 120.294 474.11
2196 0 69.4464 17.3803 1207 102.356 119.716 469.075
2197 0 74.3118 15.3946 1144 104.829 120.153 470.368
2198 0 74.1219 12.9246 958 109.664 120.243 470.579
2199 0 79.3709 13.2416 1051 108.648 119.075 469.113
2200 0 80.3102 14.2946 1148 107.832 116.816 466.497
2201 0 85.1228 14.1208 1202 107.369 117.258 468.759
2202 0 88.262 14.8648 1312 106.338 114.457 464.854
2203 0 89.213 12.8569 1147 110.219 116.069 463.692
2204 0 95.2711 13.1519 1253 109.966 114.768 457.582
2205 0 97.2393 16.9479 1648 104.324 114.025 455.66
2206 0 96.3075 12.9896 1251 110.714 114.439 454.271
2207 0 102.345 13.3177 1363 109.982 114.337 453.952
2208 0 106.267 13.3155 1415 110.172 113.563 450.703
2209 0 112.231 16.8848 1895 105.311 113.298 445.56
2210 1 58.0678 11.2971 656 111.864 112.706 472.248
2211 0 60.1537 9.72508 585 114.316 112.453 471.388
2212 0 65.2332 11.9571 780 112.96 114.779 464.597
2213 0 69.2017 12.1962 844 111.94 113.429 469.616
2214 0 71.1834 15.3688 1094 106.486 113.498 471.889
2215 0 73.1047 13.0908 957 111.02 113.351 469.739
2216 0 75.2914 14.7029 1107 110.068 114.277 465.252
2217 0 78.3032 10.7914 845 114.83 114.049 465.976
2218 0 83.2068 12.7393 1060 112.057 114.589 462.35
2219 0 84.2122 13.6322 1148 111.418 115.096 457.303
2220 0 87.4329 15.1316 1323 109.46 115.605 455.947
2221 0 93.5288 14.124 1321 110.002 117.058 453.155
2222 0 93.5399 15.2448 1426 109.24 116.616 453.607
2223 0 98.4962 16.5286 1628 108.044 117.085 452.775
2224 0 101.701 15.8897 1616 109.084 117.256 454.084
2225 0 103.583 16.4988 1709 109.549 119.49 447.087
2226 0 105.37 14.0931 1485 113.032 120.42 450.876
2227 0 107.539 14.3297 1541 112.894 120.145 447.673
2228 0 113.292 14.8113 1678 112.497 119.712 448.574
2229 1 62.3592 13.3741 834 109.08 122.915 473.054
2230 0 66.2633 13.0993 868 110.032 121.085 471.483
2231 0 67.2856 12.0828 813 112.161 123.376 474.456
2232 0 68.1341 12.8276 874 112.883 123.128 475.547
2233 0 72.0924 15.064 1086 108.881 123.229 476.771
2234 0 74.3785 15.4211 1147 110.5 122.63 472.38
2235 0 79.1924 14.3574 1137 111.339 123.719 474.408
2236 0 80.2617 13.8921 1115 113.811 122.053 471.031
2237 0 84.3564 16.2762 1373 110.124 122.338 472.001
2238 0 84.389 16.104 1359 112.778 120.762 465.561
2239 0 87.2862 14.4926 1265 116.962 120.787 464.076
2240 0 90.231 14.5072 1309 117.34 120.696 466.225
2241 0 90.416 14.0683 1272 119.539 120.523 462.995
2242 0 96.4332 17.3177 1670 112.361 118.034 466.292
2243 0 97.4178 14.2479 1388 118.561 117.977 462.897
2244 0 102.174 15.2192 1555 118.706 116.31 458.462
2245 0 104.286 15.9178 1660 117.628 116.119 460.017
2246 0 106.234 13.3384 1417 123.903 115.284 453.529
2247 1 53.123 12.5934 669 123.834 114.68 473.481
2248 0 58.0556 11.1789 649 124.838 113.827 473.006
2249 0 63.0932 12.4261 784 122.858 112.5 475.032
2250 0 67.0784 13.0295 874 119.37 113.079 474.247
2251 0 69.0988 11.9539 826 123.218 113.772 468.389
2252 0 72.247 11.8621 857 122.342 112.466 471.288
2253 0 73.1966 10.8612 795 123.148 113.68 466.727
2254 0 77.2026 14.041 1084 117.324 113.555 463.802
2255 0 80.3271 14.6526 1177 117.01 113.113 462.958
2256 0 83.3188 13.3703 1114 118.528 114.09 465.099
2257 0 83.3029 14.4773 1206 118.701 115.294 461.988
2258 0 84.2365 12.6548 1066 126.698 115.594 454.989
2259 0 88.2781 16.7086 1475 117.627 115.997 457.344
2260 0 92.1895 16.9325 1561 117.83 115.368 453.421
2261 0 89.3502 13.1057 1171 127.292 116.5 454.157
2262 0 94.4115 14.458 1365 123.426 116.269 455.968
2263 0 95.3887 13.3768 1276 128.447 117.137 447.332
2264 0 97.2923 11.5425 1123 132.404 117.557 447.794
2265 0 108.35 18.2833 1981 116.188 117.217 441.775
2266 0 112.456 16.6288 1870 118.944 119.084 446.612
2267 0 108.321 14.2816 1547 127.653 119.827 439.723
2268 0 110.572 14.7687 1633 128.064 119.089 443.868
2269 0 115.761 15.9034 1841 123.595 121.308 443.655
2270 0 119.543 13.3592 1597 129.049 121.498 439.227
2271 0 122.885 13.3051 1635 128.105 121.415 437.106
2272 0 128.9 12.4515 1605 128.633 123.259 437.454
2273 1 74.5449 13.9916 1043 122.159 122.374 465.291
2274 0 77.5769 15.3138 1188 120.973 121.829 460.911
2275 0 78.3846 14.1227 1107 124.863 122.897 463.432
2276 0 82.7969 13.0198 1078 126.721 122.486 462.312
2277 0 86.5634 15.1565 1312 123.32 122.095 457.7
2278 0 87.5379 14.4852 1268 125.475 123.293 462.043
2279 0 93.4971 17.7332 1658 118.921 122.033 462.896
2280 0 94.3971 15.0217 1418 124.387 122.804 461.695
2281 0 98.4304 15.8691 1562 122.053 120.809 463.62
2282 0 101.677 13.6018 1383 127.225 120.918 459.94
2283 0 104.35 15.333 1600 124.801 120.589 457.461
2284 0 107.564 13.0806 1407 127.541 120.441 460.402
2285 0 113.486 18.6279 2114 118.2 118.671 457.024
2286 0 116.579 15.0113 1750 125.854 118.001 450.985
2287 1 65.3788 11.7775 770 125.63 116.612 475.027
2288 0 70.4138 13.5059 951 121.176 117.208 476.461
2289 0 73.5286 12.1857 896 122.962 115.1 474.627
2290 0 75.3968 11.9236 899 121.115 116.075 478.863
2291 0 84.3498 15.4476 1303 114.134 114.209 471.912
2292 0 89.5057 17.6302 1578 108.995 113.859 467.048
2293 0 89.7653 17.2561 1549 112.405 113.774 464.742
2294 0 88.4834 18.2407 1614 113.562 114.214 461.364
2295 0 90.5403 15.2529 1381 119.322 112.72 461.597
2296 0 88.5162 13.3083 1178 129.641 113.239 455.578
2297 0 92.3558 12.7658 1179 129.699 113.07 458.026
2298 0 97.33 15.6786 1526 123.077 114.251 459.308
2299 0 100.445 16.2876 1636 121.48 113.858 456.197
2300 0 103.335 16.6062 1716 120.241 114.224 454.899
2301 0 104.488 16.4038 1714 122.351 114.557 448.016
2302 0 107.276 14.1877 1522 126.509 114.452 446.639
2303 0 111.283 13.6499 1519 127.2 114.731 441.882
2304 0 115.475 14.2195 1642 124.236 116.468 444.934
2305 0 117.355 13.3271 1564 126.511 115.723 439.825
2306 0 119.591 15.6701 1874 120.053 117.631 443.291
2307 0 125.275 15.6695 1963 120.215 116.825 434.343
2308 0 129.479 17.3309 2244 115.236 119.392 439.865
2309 0 132.419 16.2968 2158 118.212 118.088 432.542
2310 0 141.432 17.641 2495 114.92 120.065 431.578
2311 1 76.3804 8.35293 638 121.886 120.371 457.668
2312 0 81.2745 12.4024 1008 115.738 119.428 455.539
2313 0 85.3934 14.4625 1235 114.283 120.92 453.077
2314 0 86.5844 14.0788 1219 113.833 122.36 455.901
2315 0 89.6344 13.8563 1242 115.01 122.013 450.269
2316 0 92.6678 10.9639 1016 121.422 122.793 450.317
2317 0 96.7597 12.9909 1257 115.731 121.746 454.391
2318 0 97.5256 11.6892 1140 118.775 122.786 450.32
2319 0 104.605 12.8866 1348 116.131 122.629 451.513
2320 0 105.596 11.866 1253 117.611 121.977 455.148
2321 0 109.573 13.8264 1515 115.619 121.036 453.116
2322 0 113.562 12.6187 1433 118.876 120.909 449.519
2323 0 116.494 16.7906 1956 112.724 120.761 442.897
2324 0 120.614 12.0881 1458 120.608 119.641 446.252
2325 0 126.476 13.378 1692 118.173 119.205 446.504
2326 0 130.556 13.228 1727 119.944 119.362 441.869
2327 0 134.564 13.763 1852 119.591 118.531 440.808
2328 0 141.453 15.8781 2246 115.927 117.732 437.411
2329 1 82.2896 10.3294 850 115.36 117.261 470.072
2330 0 84.3412 10.09 851 115.093 116.033 471.262
2331 0 87.5806 10.6074 929 115.56 115.464 465.868
2332 0 89.5789 11.6434 1043 114.782 113.909 459.509
2333 0 89.4774 12.4836 1117 113.2 114.512 465.087
2334 0 95.4175 12.7545 1217 113.18 113.007 458.818
2335 0 99.2622 12.2806 1219 115.629 113.142 459.185
2336 0 101.523 9.86971 1002 119.474 112.224 456.459
2337 0 103.549 11.8977 1232 116.232 113.407 454.009
2338 0 106.705 12.0425 1285 115.388 113.092 454.574
2339 0 112.228 12.1984 1369 115.766 112.663 449.56
2340 0 110.533 11.4264 1263 117.272 112.663 449.819
2341 0 117.484 16.2916 1914 109.723 113.814 441.256
2342 0 116.46 10.7762 1255 119.614 113.488 435.829
2343 0 120.447 13.0514 1572 113.702 113.707 445.052
2344 0 126.576 14.3234 1813 112.936 114.563 433.86
2345 0 130.692 12.9082 1687 115.2 114.674 431.142
2346 0 135.385 13.879 1879 113.406 115.848 432.679
2347 0 139.498 16.2153 2262 109.557 115.448 428.611
2348 0 141.477 10.6307 1504 119.33 117.033 420.615
2349 0 147.549 14.3342 2115 113.652 116.54 422.397
2350 0 157.538 14.8663 2342 111.681 118.68 421.126
2351 1 85.4132 12.8317 1096 110.224 118.118 455.212
2352 0 92.9061 11.4847 1067 111.429 119.738 454.592
2353 0 92.716 12.4574 1155 112.326 120.315 448.918
2354 0 96.7359 10.937 1058 113.492 120.834 451.85
2355 0 101.717 13.6949 1393 109.648 121.634 450.511
2356 0 101.612 12.3706 1257 114.513 121.796 445.216
2357 0 103.7 12.9604 1344 112.92 121.887 442.943
2358 0 110.991 13.3794 1485 110.279 123.104 451.325
2359 0 112.728 13.4838 1520 112.18 122.163 445.799
2360 0 115.635 11.5709 1338 115.43 122.833 447.2
2361 0 121.556 13.574 1650 111.94 122.264 446.097
2362 0 122.543 12.0121 1472 115.612 123.228 441.053
2363 0 125.06 12.7139 1590 112.904 120.665 449.852
2364 0 127.981 11.3064 1447 117.003 121.654 449.732
2365 1 82.3094 11.9306 982 111.124 120.736 474.503
2366 0 82.5546 10.6838 882 111.251 119.769 475.991
2367 0 81.5898 11.7294 957 114.093 118.786 470.629
2368 0 87.6986 12.2351 1073 112.01 119.653 471.87
2369 0 89.5713 14.134 1266 110.455 117.705 469.541
2370 0 93.7409 14.188 1330 110.764 116.268 466.989
2371 0 97.4938 13.2521 1292 111.267 116.462 468.666
2372 0 99.8147 14.4468 1442 110.384 114.968 465.628
2373 0 101.725 12.9073 1313 113.598 115.12 461.186
2374 0 106.936 16.421 1756 106.388 113.723 466.37
2375 0 108.874 15.1551 1650 110.375 113.587 457.954
2376 0 111.777 16.0051 1789 107.636 113.413 460.737
2377 0 114.939 15.3908 1769 108.3 113.156 459
2378 0 113.671 14.3924 1636 112.132 112.841 452.032
2379 0 116.688 12.7348 1486 114.106 112.148 453.616
2380 0 123.596 16.9827 2099 108.177 112.571 446.199
2381 0 123.769 15.3754 1903 110.108 113.262 448.317
2382 0 125.717 16.4815 2072 109.993 113.216 440.35
2383 0 130.801 15.1604 1983 111.572 112.184 436.441
2384 0 135.547 15.0723 2043 111.895 112.907 436.381
2385 1 77.4551 11.7617 911 111.216 114.463 464.087
2386 0 79.4839 10.694 850 113.209 114.229 462.822
2387 0 82.5825 15.7903 1304 105.265 115.308 463.423
2388 0 82.6409 15.2588 1261 107.515 115.196 457.521
2389 0 84.3203 10.5194 887 116.474 115.714 453.027
2390 0 89.7896 14.3224 1286 108.788 117.393 456.401
2391 0 88.5786 14.3601 1272 111.303 117.32 451.363
2392 0 91.5672 14.5467 1332 110.158 117.983 452.508
2393 0 95.5462 14.0246 1340 110.554 119.243 448.98
2394 0 96.572 14.8801 1437 110.06 119.039 449.415
2395 0 98.423 12.3244 1213 114.615 119.78 448.751
2396 0 109.523 16.7454 1834 105.43 119.524 447.919
2397 0 116.606 21.4998 2507 98.4376 120.541 442.933
2398 0 114.599 21.6145 2477 99.8825 121.393 444.341
2399 0 117.696 19.3974 2283 102.378 121.042 437.562
2400 0 119.545 15.8183 1891 108.805 121.416 444.629
2401 0 121.33 14.2587 1730 110.866 121.011 448.539
2402 0 126.625 19.5223 2472 103.627 120.499 446.594
2403 0 131.358 17.2353 2264 106.876 119.17 445.534
2404 1 56.1666 7.78043 437 107.156 119.76 480.22
2405 0 60.2673 10.4866 632 102.945 118.448 484.608
2406 0 64.2706 12.3229 792 101.206 118.773 483.466
2407 0 66.192 11.2098 742 103.554 118.795 481.04
2408 0 70.3747 14.096 992 102.848 118.976 480.02
2409 0 69.3905 12.581 873 103.837 118.709 483.184
2410 1 169.627 14.3845 2440 112.444 116.766 430.759
2411 1 77.4617 13.5164 1047 101.202 116.754 478.102
2412 0 80.3522 14.6107 1174 99.5008 114.399 476.339
2413 0 81.362 10.8159 880 105.477 114.641 467.198
2414 0 84.5357 13.379 1131 101.554 114.475 472.443
2415 0 85.3722 13.365 1141 103.583 114.069 461.048
2416 0 90.3347 13.0515 1179 104.088 113.576 467.517
2417 0 93.3373 10.1567 948 108.187 113.925 466.35
2418 0 94.522 8.68581 821 111.101 113.392 461.719
2419 0 100.545 14.1926 1427 103.865 113.33 459.795
2420 1 58.1632 10.3846 604 102.189 113.154 478.308
2421 0 62.2321 10.2198 636 104.459 113.781 478.475
2422 0 63.1092 10.3788 655 104.583 114.528 474.231
2423 0 67.1106 11.3991 765 102.516 114.088 476.829
2424 0 64.2721 10.051 646 105.065 112.61 477.639
2425 0 66.1554 10.1277 670 105.46 112.833 474.052
2426 0 68.1606 9.60966 655 107.812 113.131 465.018
2427 0 69.2146 7.9752 552 109.824 113.163 469.451
2428 0 71.2414 8.42207 600 108.153 114.267 470.697
2429 0 77.202 9.8184 758 106.719 114.617 469.443
2430 0 73.3486 11.8612 870 105.931 115.58 464.746
2431 0 79.3467 11.1662 886 105.777 116.46 462.319
2432 0 79.6026 9.64793 768 108 118.452 463.139
2433 0 81.4794 12.494 1018 103.962 118.937 464.839
2434 0 84.2695 11.5107 970 106.208 118.957 462.254
2435 0 88.3306 11.8985 1051 104.842 119.381 461.025
2436 0 88.3465 12.1227 1071 104.394 119.335 462.876
2437 0 93.3821 12.0259 1123 105.337 120.11 457.612
2438 1 169.607 13.2011 2239 111.686 119.384 414.337
2439 1 155.671 6.75142 1051 116.051 120.158 439.011
2440 1 98.4279 10.6068 1044 108.263 121.463 453.337
2441 0 105.779 10.314 1091 107.954 120.215 446.545
2442 0 109.411 12.1378 1328 105.701 121.337 449.983
2443 0 117.484 11.0228 1295 107.146 119.535 450.317
2444 0 120.525 12.2382 1475 105.49 120.908 451.267
2445 1 72.3488 14.5545 1053 99.0066 120.112 474.215
2446 0 71.1797 9.01942 642 106.069 119.648 469.366
2447 0 69.1336 11.7888 815 104.793 120.356 472.27
2448 0 78.4916 10.2941 808 108.571 119.692 471.708
2449 0 84.2526 13.234 1115 103.202 118.121 474.409
2450 0 87.4685 13.5134 1182 102.987 118.318 475.245
2451 0 87.3525 11.5738 1011 106.952 116.936 468.523
2452 0 90.4895 13.1065 1186 104.927 115.82 472.265
2453 0 88.4193 11.5812 1024 106.734 115.743 476.044
2454 0 94.4509 13.2344 1250 105.972 114.694 466.928
2455 0 98.479 12.7438 1255 106.227 113.7 464.827
2456 0 100.376 11.1281 1117 108.868 113.412 464.071
2457 0 102.451 16.3981 1680 104.557 112.025 459.38
2458 0 101.322 10.9453 1109 113.855 112.111 454.895
2459 0 105.474 11.9461 1260 111.675 111.883 456.375
2460 0 113.474 13.6066 1544 109.014 112.045 454.522
2461 0 111.286 13.7844 1534 108.677 112.308 446.113
2462 0 113.308 13.8472 1569 109.356 111.767 445.273
2463 0 117.468 15.3404 1802 107.146 111.749 447.243
2464 0 117.363 13.7266 1611 112.283 111.737 442.708
2465 0 118.385 11.5639 1369 116.221 111.595 444.071
2466 0 124.329 14.0676 1749 113.603 111.651 437.209
2467 0 125.314 10.342 1296 120.835 112.039 434.627
2468 0 131.291 15.5609 2043 112.394 112.057 435.862
2469 0 138.267 11.3042 1563 119.367 112.23 430.389
2470 0 145.287 13.6076 1977 116.412 112.91 410.24
2471 0 148.451 12.6978 1885 121.082 114.677 399.403
2472 0 150.414 15.7964 2376 118.742 115.106 398.515
2473 0 154.572 14.4075 2227 118.313 115.758 402.492
2474 1 88.546 13.3377 1181 118.002 115.781 433.099
2475 0 88.3901 14.5265 1284 117.958 117.505 430.421
2476 0 88.3423 11.0706 978 125.506 117.644 429.095
2477 0 97.6472 15.0235 1467 116.555 119.488 429.78
2478 0 97.3967 12.5672 1224 121.986 119.498 431.112
2479 0 103.508 13.9409 1443 118.898 120.268 429.191
2480 0 105.287 10.894 1147 125.495 118.852 430.441
2481 0 105.263 12.882 1356 122.992 120.45 425.329
2482 0 110.526 13.7343 1518 120.904 119.269 428.279
2483 0 114.295 13.3339 1524 120.894 120.194 428.324
2484 0 116.248 11.768 1368 124.691 119.62 428.249
2485 1 71.1894 11.3641 809 116.184 120.08 459.726
2486 0 68.348 13.7531 940 112.828 119.3 456.915
2487 0 71.347 11.6052 828 117.527 119.751 451.954
2488 0 75.2353 13.903 1046 113.588 117.941 473.415
2489 0 78.1166 12.9422 1011 115.306 118.443 470.519
2490 0 80.4118 12.7345 1024 113.572 117.924 474.616
2491 0 84.2139 13.8932 1170 113.18 115.708 472.062
2492 0 85.1811 12.6554 1078 115.242 115.878 472.144
2493 0 89.1176 13.2073 1177 114.531 115.15 471.769
2494 0 92.3847 16.388 1514 109.735 113.678 469.649
2495 0 96.2244 16.8356 1620 111.24 114.659 464.483
2496 0 98.3557 15.6575 1540 113.687 112.219 461.253
2497 0 102.357 13.5017 1382 114.993 114.538 469.137
2498 0 103.344 13.5082 1396 118.059 112.306 462.626
2499 0 107.416 15.305 1644 114.554 113.315 464.089
2500 0 108.329 14.7699 1600 113.81 113.177 462.464
2501 0 113.558 14.3187 1626 114.747 113.098 459.77
2502 0 117.268 17.6178 2066 112.094 112.421 455.622
2503 0 120.421 13.4279 1617 118.997 112.752 454.391
2504 0 123.576 14.8977 1841 115.91 112.639 450.322
2505 0 127.422 14.8875 1897 117.046 113.201 449.434
2506 1 73.1858 11.505 842 114.962 112.932 478.792
2507 0 76.2713 12.626 963 113.218 112.065 469.042
2508 0 77.2935 12.045 931 113.206 112.245 466.068
2509 0 77.2868 10.8298 837 121.307 111.786 458.794
2510 0 80.5972 16.1296 1300 110.855 112.242 464.915
2511 0 84.3292 13.6607 1152 114.782 112.259 458.392
2512 0 86.4929 14.718 1273 114.377 113.421 453.833
2513 0 88.355 14.8379 1311 114.878 113.979 438.71
2514 0 93.543 15.7254 1471 111.911 114.17 440.844
2515 0 91.1751 14.3131 1305 115.72 115.15 436.608
2516 0 96.3195 14.9814 1443 113.961 115.723 434.599
2517 0 98.3172 12.5817 1237 117.697 116.47 436.745
2518 0 101.259 14.3592 1454 115.113 117.724 432.037
2519 0 104.216 12.3014 1282 119.004 117.47 431.827
2520 0 107.329 13.0906 1405 117.693 117.847 430.497
2521 0 110.354 13.9189 1536 117.324 120.149 422.316
2522 0 109.312 14.7376 1611 117.928 119.361 430.692
2523 0 114.643 14.5147 1664 118.707 120.867 434.552
2524 1 67.0564 10.3495 694 118.225 119.594 467.679
2525 0 75.0698 14.3999 1081 110.103 119.896 464.561
2526 0 74.4275 11.7564 875 117.414 120.688 453.542
2527 0 78.4302 15.3385 1203 112.593 120.523 456.699
2528 0 79.4762 15.0108 1193 113.842 120.386 461.236
2529 0 83.2219 14.2751 1188 113.343 119.045 459.641
2530 0 85.371 13.3535 1140 116.437 120.196 456.898
2531 0 89.4256 15.0069 1342 112.747 118.966 457.089
2532 0 93.6145 14.047 1315 114.351 118.793 457.078
2533 0 97.342 14.8343 1444 113.655 118.316 457.762
2534 0 99.2965 13.5352 1344 117.167 117.073 453.589
2535 0 105.285 15.4912 1631 113.266 116.15 455.589
2536 0 107.474 19.4187 2087 107.78 115.427 453.819
2537 0 110.46 16.7028 1845 112.097 114.679 451.005
2538 0 112.256 13.9146 1562 117.366 114.325 456.984
2539 0 115.249 12.2257 1409 118.61 114.562 456.538
2540 0 119.553 13.0152 1556 118.057 113.317 446.851
2541 0 125.406 16.3948 2056 111.762 112.976 447.522
2542 1 70.2286 9.58299 673 114.575 112.967 477.486
2543 0 72.1901 11.539 833 110.27 113.827 476.014
2544 0 76.0863 12.8801 980 108.894 111.209 471.373
2545 0 78.1437 13.4752 1053 108.816 110.303 471.168
2546 0 82.1062 12.2646 1007 110.438 111.912 463.039
2547 0 83.1227 15.0982 1255 106.545 111.05 465.401
2548 0 85.2762 12.1253 1034 111.223 111.329 463.048
2549 0 87.3942 13.3762 1169 109.931 110.812 462.104
2550 0 93.2993 14.8447 1385 107.116 111.863 459.767
2551 0 93.3593 15.6706 1463 105.756 113.023 459.849
2552 0 96.3034 16.9049 1628 104.834 112.288 456.148
2553 0 101.499 14.8574 1508 107.807 114.536 456.16
2554 0 100.591 10.9553 1102 115.313 113.284 448.829
2555 0 103.251 13.0749 1350 112.496 116.119 449.428
2556 0 107.194 13.1351 1408 112.004 115.77 448.42
2557 0 112.225 14.8631 1668 110.029 116.036 448.159
2558 0 114.172 17.2371 1968 107.258 117.14 444.398
2559 0 119.355 14.528 1734 111.042 118.688 446.518
2560 0 116.379 13.2842 1546 114.325 117.301 438.984
2561 0 123.398 13.8089 1704 112.738 117.805 442.819
2562 0 127.57 8.99115 1147 119.885 118.402 436.466
2563 0 135.454 14.6175 1980 109.486 119.659 433.946
2564 0 142.944 12.4874 1785 111.115 119.503 437.564
2565 1 82.3983 14.794 1219 107.047 118.001 462.926
2566 0 89.4463 15.9537 1427 104.526 118.9 465.581
2567 0 88.7082 12.7384 1130 110.107 118.9 466.419
2568 0 90.9889 18.6726 1699 102.92 119.308 463.732
2569 0 95.38 13.9337 1329 106.828 118.959 468.382
2570 1 174.582 9.85782 1721 117.282 117.691 438.124
2571 1 99.4844 15.2587 1518 108.314 117.2 459.138
2572 0 107.028 12.2117 1307 112.047 117.233 461.837
2573 0 109.975 13.1848 1450 111.948 116.288 457.539
2574 0 114.342 13.8707 1586 108.805 116.067 455.978
2575 0 114.24 12.4737 1425 113.298 114.337 446.242
2576 0 118.403 12.1957 1444 112.703 114.376 453.882
2577 1 72.618 12.8481 933 106.024 113.505 479.069
2578 0 71.4145 13.7647 983 106.422 113.594 475.301
2579 0 74.569 11.9755 893 109.942 113.196 470.596
2580 0 74.6964 12.2362 914 109.22 112.525 471.214
2581 0 77.4491 14.2803 1106 107.232 113.173 464.68
2582 0 82.421 10.7012 882 110.946 112.338 466.486
2583 0 87.4069 15.1132 1321 103.405 112.004 465.042
2584 0 88.5769 16.0426 1421 102.234 111.495 459.672
2585 0 87.3325 12.0345 1051 107.995 113.021 457.627
2586 0 93.5665 10.8693 1017 108.053 111.068 454.618
2587 0 99.5291 10.9516 1090 106.161 111.82 459.522
2588 0 100.279 15.8557 1590 99.6811 110.872 459.97
2589 0 102.397 14.2972 1464 102.98 111.066 452.074
2590 0 108.335 15.1751 1644 102.428 111.506 450.722
2591 0 109.246 16.0006 1748 103.114 112.019 445.116
2592 0 116.291 13.492 1569 104.599 111.829 442.656
2593 1 64.374 14.8352 955 99.7445 111.821 451.735
2594 0 64.113 9.77961 627 106.874 111.797 456.923
2595 0 67.3887 12.3166 830 106.051 114.441 454.51
2596 0 66.0361 12.2054 806 105.416 113.297 457.988
2597 0 72.3984 10.6356 770 105.923 114.414 464.619
2598 0 68.1399 14.7784 1007 100.332 115.712 463.674
2599 0 76.1437 9.36388 713 106.504 114.76 464.247
2600 0 78.2231 10.9175 854 104.571 116.071 462.337
2601 0 80.1502 14.2108 1139 101.335 116.648 457.679
2602 0 82.2196 14.4491 1188 99.8047 115.773 461.716
2603 0 84.1748 10.4426 879 107.736 116.117 455.834
2604 0 86.0993 11.3938 981 107.1 117.906 456.382
2605 0 92.1312 11.0495 1018 105.936 117.477 459.686
2606 0 95.1626 11.9375 1136 104.913 117.408 455.091
2607 0 98.1563 12.857 1262 105.327 116.884 457.202
2608 0 98.1995 10.5907 1040 109.931 117.778 456.724
2609 0 108.325 16.5428 1792 101.654 118.188 455.415
2610 0 111.557 14.3156 1597 104.985 118.163 450.929
2611 0 112.348 12.7016 1427 108.961 117.102 431.165
2612 0 120.407 9.46787 1140 110.161 118.196 447.219
2613 1 69.1531 10.831 749 104.575 118.196 476.625
2614 0 71.3022 11.0516 788 107.688 117.83 470.613
2615 0 73.5655 12.8729 947 105.25 117.109 470.594
2616 0 76.339 12.9685 990 102.657 115.9 477.445
2617 0 78.3598 13.4635 1055 104.212 114.766 466.527
2618 0 81.5344 21.1812 1727 93.8008 114.153 463.99
2619 0 82.5304 12.3227 1017 105.773 113.804 460.02
2620 0 87.4559 13.5954 1189 101.927 112.425 471.51
2621 0 89.3698 13.5057 1207 103.809 112.666 465.651
2622 0 95.5833 16.3208 1560 100.49 113.717 460.62
2623 0 93.4586 13.5033 1262 104.883 113.347 454.99
2624 0 98.5253 15.1636 1494 101.622 112.199 454.94
2625 0 99.6827 13.9844 1394 103.643 111.738 455.861
2626 0 108.654 17.6892 1922 96.436 111.482 460.6
2627 0 111.601 16.2722 1816 98.6845 112.503 452.263
2628 0 105.517 11.9033 1256 106.382 112.353 450.975
2629 1 60.0893 11.383 684 102.221 111.446 471.58
2630 0 62.1147 7.77594 483 107.122 113.381 474.012
2631 0 64.1721 9.9576 639 103.978 112.502 469.84
2632 0 65.1936 10.3998 678 103.252 111.892 464.254
2633 0 71.3518 12.1791 869 100.352 110.833 470.779
2634 0 74.1514 18.9612 1406 94.5135 111.341 465.654
2635 0 74.1975 10.7281 796 104.477 111.822 465.345
2636 0 76.1968 10.1185 771 105.769 113.966 456.887
2637 0 78.334 11.7573 921 103.807 114.47 454.618
2638 0 83.2839 11.9351 994 102.461 115.264 460.851
2639 0 83.1536 11.1721 929 104.806 115.309 455.576
2640 0 88.2091 14.715 1298 99.3213 116.995 457.706
2641 0 94.8375 14.1083 1338 99.7175 117.237 454.88
2642 1 171.588 12.2502 2102 98.353 119.745 431.478
2643 0 166.952 11.0751 1849 99.5928 120.699 426.589
2644 0 165.878 17.8565 2962 96.4359 119.736 423.529
2645 0 172.089 17.6536 3038 94.3555 119.13 421.701
2646 1 322.41 12.3632 3986 98.2311 118.955 395.914
2647 1 132.756 21.2797 2825 90.6534 117.451 444.829
2648 0 132.624 16.8823 2239 96.1398 116.682 436.349
2649 0 138.598 18.0234 2498 93.7294 116.942 449.146
2650 0 144.573 17.1471 2479 95.5696 115.877 438.331
2651 0 146.644 21.5488 3160 90.7123 114.885 447.498
2652 1 287.533 17.5771 5054 96.162 115.137 383.333
2653 1 227.273 17.3492 3943 96.9419 113.081 402.628
2654 1 92.8119 16.1078 1495 95.1505 112.013 460.361
2655 0 95.8759 14.0181 1344 97.9278 112.185 458.4
2656 0 99.4044 17.8664 1776 93.1819 111.955 461.492
2657 0 97.8079 14.5183 1420 95.8979 110.895 464.358
2658 0 103.791 12.8046 1329 98.55 111.415 455.785
2659 0 107.827 14.2636 1538 98.8518 110.067 454.969
2660 0 109.805 16.3017 1790 97.1788 110.831 455.849
2661 0 109.678 18.9464 2078 95.4658 110.449 447.715
2662 0 114.571 19.4814 2232 95.1653 109.976 454.399
2663 0 123.18 17.4704 2152 95.2063 109.896 456.083
2664 0 124.582 16.415 2045 97.3829 109.115 453.352
2665 0 123.626 12.4488 1539 104.843 109.982 442.055
2666 0 131.872 23.4319 3090 92.8557 110.209 443.968
2667 0 131.514 14.4243 1897 102.521 110.751 439.617
2668 0 139.109 15.6783 2181 102.844 110.939 432.211
2669 0 137.523 16.6518 2290 101.955 110.557 434.877
2670 0 146.357 17.2455 2524 100.673 111.551 431.37
2671 0 150.953 15.3359 2315 103.429 111.664 426.543
2672 0 159.759 17.5514 2804 100.81 112.534 420.959
2673 1 93.5184 11.5806 1083 100.653 113.103 459.597
2674 0 94.3639 12.6214 1191 102.647 113.709 449.001
2675 0 99.4854 16.7763 1669 99.2864 113.912 454.865
2676 0 102.861 16.3036 1677 100.94 113.933 449.31
2677 0 105.707 11.3238 1197 107.652 115.153 442.65
2678 0 108.431 14.1103 1530 102.876 116.237 443.576
2679 0 111.583 14.6707 1637 102.521 116.624 447.183
2680 0 114.477 14.7191 1685 102.299 116.249 440.741
2681 0 118.282 13.4594 1592 100.195 116.205 449.952
2682 0 120.346 13.8102 1662 100.202 116.863 451.312
2683 0 124.606 15.7617 1964 100.597 116.216 444.078
2684 0 131.261 15.2139 1997 101.654 118.074 439.738
2685 0 133.255 13.493 1798 103.347 116.814 442.222
2686 1 79.3604 14.8059 1175 96.6902 117.311 470.487
2687 0 81.3163 13.8349 1125 99.3511 116.759 474.341
2688 0 82.2985 13.0258 1072 102.504 117.781 468.472
2689 0 85.613 15.0795 1291 99.426 117.833 473.022
2690 0 87.2781 11.4576 1000 103.5 115.785 470.976
2691 0 91.5502 12.6597 1159 100.451 116.36 474.928
2692 0 93.4535 15.7297 1470 98.1184 117.492 472.427
2693 0 100.079 17.1264 1714 95.9621 115.744 471.935
2694 0 101.67 17.301 1759 96.3957 115.63 465.774
2695 0 103.45 14.3257 1482 99.6761 115.352 464.784
2696 0 102.659 8.66947 890 108.974 113.54 458.449
2697 0 105.308 20.084 2115 94.9759 113.237 463.258
2698 0 111.257 16.2147 1804 98.6558 112.68 449.989
2699 0 113.799 13.6733 1556 99.2468 111.686 450.512
2700 0 114.344 12.6548 1447 102.542 112.063 450.419
2701 0 114.507 13.5101 1547 100.796 111.341 454.951
2702 0 116.851 12.9396 1512 91.2553 110.561 448.454
2703 0 126.426 18.2162 2303 85.8011 109.814 447.822
2704 0 132.505 16.3993 2173 87.8753 110.385 438.609
2705 0 135.332 20.9706 2838 85.0504 109.171 425.694
2706 0 142.479 17.2096 2452 87.1644 108.989 442.104
2707 0 147.739 10.0582 1486 94.9381 109.172 433.742
2708 1 84.3251 15.0252 1267 87.6172 109.654 459.564
2709 0 93.4358 19.3074 1804 82.7106 110.384 468.895
2710 0 88.5543 16.6 1470 86.9184 110.233 459.499
2711 0 91.5112 12.7088 1163 91.7618 110.976 453.089
2712 0 95.2708 12.4802 1189 91.6451 111.655 452.315
2713 0 98.5504 21.1567 2085 84.4988 110.761 450.413
2714 0 105.212 18.7526 1973 84.1885 110.261 443.291
2715 0 98.3316 13.7697 1354 89 112.679 446.376
2716 0 105.288 10.7989 1137 91.2014 111.603 446.911
2717 0 116.344 11.9904 1395 89.9763 111.211 441.222
2718 0 115.607 16.6599 1926 85.9117 113.519 438.874
2719 0 112.386 16.6391 1870 84.4134 114.375 449.242
2720 0 108.944 9.14227 996 93.6647 114.739 430.617
2721 0 118.254 21.327 2522 82.8097 114.385 442.067
2722 0 126.481 16.1685 2045 86.5668 115.765 434.006
2723 1 80.3491 14.773 1187 84.5661 115.21 463.137
2724 0 82.2489 18.286 1504 81.8052 115.499 466.757
2725 0 82.1914 20.2089 1661 81.233 115.153 452.476
2726 0 83.3108 18.437 1536 81.9512 115.003 458.003
2727 0 91.3991 13.3371 1219 83.1985 115.495 458.421
2728 0 91.412 20.2162 1848 79.6347 115.662 457.446
2729 1 166.529 21.4137 3566 80.3932 116.163 429.746
2730 0 172.12 22.4262 3860 81.3298 116.415 415.213
2731 0 174.698 24.8714 4345 78.553 116.567 432.281
2732 0 174.262 11.6205 2025 88.9368 116.018 417.405
2733 0 180.708 22.0908 3992 81.8272 115.231 419.798
2734 0 184.009 18.2654 3361 81.6391 115.434 436.558
2735 1 193.524 13.5901 2630 86.954 115.708 424.868
2736 0 201.649 24.8105 5003 80.9836 114.426 413.033
2737 0 206.673 8.88358 1836 92.5681 114.956 416.251
2738 1 122.707 22.2074 2725 80.7343 113.825 451.059
2739 0 118.483 14.0779 1668 86.4574 114.116 447.153
2740 1 74.4296 14.2417 1060 82.9604 111.942 480.237
2741 0 77.276 17.1593 1326 81.6388 112.448 472.531
2742 0 75.0617 16.3066 1224 82.339 111.601 472.866
2743 0 76.1999 14.0027 1067 84.1799 110.87 474.599
2744 0 84.5179 24.6338 2082 80.3886 110.954 476.309
2745 0 89.4986 10.5253 942 90.862 110.028 471.219
2746 1 164.748 11.6603 1921 91.6294 110.106 444.327
2747 0 172.837 13.695 2367 90.4094 111.293 440.674
2748 0 170.405 18.3504 3127 86.2411 110.364 447.09
2749 0 169.566 10.8925 1847 92.7369 111.448 443.803
2750 1 105.96 17.7048 1876 86.3236 109.442 457.131
2751 0 110.372 19.9417 2201 83.2063 110.184 463.624
2752 0 109.442 13.5414 1482 90.0607 110.685 454.855
2753 0 111.738 13.3437 1491 90.782 110.683 456.188
2754 1 203.107 15.7306 3195 98.7045 111.576 412.262
2755 0 207.101 12.7619 2643 102.975 111.912 399.138
2756 1 120.53 17.1824 2071 94.7132 112.837 450.458
2757 0 126.368 19.8942 2514 91.6957 113.138 445.893
2758 0 126.417 14.0567 1777 95.5256 113.97 440.637
2759 0 131.623 13.5767 1787 99.0576 113.126 432.31
2760 0 137.511 15.7806 2170 95.3986 114.429 442.006
2761 0 141.742 14.2089 2014 95.9126 114.479 439.154
2762 0 148.568 14.7004 2184 97.1529 114.672 433.254
2763 1 83.1792 14.054 1169 94.8152 116.861 463.689
2764 0 86.3256 12.9741 1120 94.692 116.387 462.154
2765 0 86.2626 14.595 1259 95.3241 117.033 452.174
2766 0 91.5958 15.2955 1401 93.4068 116.572 460.822
2767 0 97.2424 19.765 1922 88.32 117.692 458.531
2768 0 100.638 14.1 1419 93.4383 117.101 460.852
2769 0 98.5393 13.7712 1357 97.0951 119.242 453.348
2770 0 100.494 10.4583 1051 100.308 119.073 456.213
2771 0 105.382 15.6668 1651 94.4864 119.388 456.928
2772 0 106.291 10.283 1093 101.38 119.986 455.284
2773 0 109.719 15.0566 1652 94.6556 118.513 462.186
2774 0 118.617 18.4374 2187 91.9492 119.059 449.925
2775 0 115.313 15.5143 1789 95.967 117.651 452.049
2776 0 119.615 14.2123 1700 98.4529 117.696 456.631
2777 0 121.733 14.9344 1818 95.8702 117.532 461.177
2778 0 127.313 18.9691 2415 91.5143 117.422 460.363
2779 0 130.729 19.6742 2572 90.3526 116.816 461.661
2780 0 132.462 13.8304 1832 97.3886 116.237 455.615
2781 0 141.885 15.7945 2241 94.718 116.577 458.925
2782 1 82.4337 11.7306 967 98.3971 116.703 473.689
2783 0 80.2922 13.4509 1080 94.8232 115.156 472.149
2784 0 85.3136 17.8752 1525 90.5803 114.631 473.281
2785 0 85.156 10.0991 860 99.2314 113.323 462.385
2786 0 88.2922 18.0424 1593 90.9768 113.016 462.07
2787 0 90.2765 16.2168 1464 91.6762 112.758 468.717
2788 0 96.1733 11.8536 1140 96.2754 111.349 462.598
2789 0 96.1893 17.6943 1702 92.1733 111.188 461.345
2790 0 102.412 14.6956 1505 95.9522 111.367 465.343
2791 0 105.385 12.8766 1357 100.002 111.171 456.688
2792 0 105.335 13.139 1384 99.6012 111.694 460.77
2793 0 113.313 16.4146 1860 95.9839 111.652 457.335
2794 0 114.462 18.2593 2090 94.6938 110.797 453.954
2795 0 115.217 18.426 2123 94.9962 111.32 456.859
2796 0 117.364 14.3655 1686 99.812 111.893 453.826
2797 0 122.432 19.3986 2375 94.955 111.792 444.054
2798 0 128.573 15.2053 1955 97.1959 113.502 450.858
2799 0 130.303 13.4994 1759 100.49 113.488 442.118
2800 0 137.769 14.2557 1964 100.778 114.395 436.481
2801 0 140.516 17.2365 2422 96.244 114.345 442.647
2802 1 82.34 14.9381 1230 96.1114 114.572 459.484
2803 0 86.2791 9.88652 853 98.5826 113.041 463.885
2804 0 88.2654 18.399 1624 91.0911 115.131 463.76
2805 0 91.2348 16.9672 1548 93.3747 116.152 462.333
2806 0 101.565 16.6297 1689 92.2398 116.121 462.278
2807 0 91.3955 13.1845 1205 99.6672 117.135 457.134
2808 0 97.2599 15.875 1544 97.4158 117.594 452.083
2809 0 102.823 14.9286 1535 97.4749 117.801 451.052
2810 0 102.334 13.9152 1424 100.007 117.128 446.837
2811 0 105.359 10.4689 1103 103.545 116.61 450.777
2812 0 116.375 23.5189 2737 88.8889 116.979 455.068
2813 0 114.244 19.6946 2250 94.2556 118.312 450.328
2814 1 206.609 11.4516 2366 102.566 119.685 421.257
2815 0 204.424 9.92544 2029 105.605 118.371 416.746
2816 0 212.249 12.8764 2733 100.212 118.747 426.862
2817 1 234.844 15.4826 3636 102.2 119.479 389.375
2818 0 236.58 14.2742 3377 103.168 119.199 397.227
2819 0 245.575 19.8961 4886 96.2268 118.857 390.99
2820 1 196.799 12.7998 2519 101.696 117.554 425.445
2821 1 144.475 14.0647 2032 98.6225 119.304 446.061
2822 0 146.435 16.3076 2388 97.0084 119.067 439.95
2823 0 149.516 14.5269 2172 99.9807 118.505 433.256
2824 1 92.1983 11.703 1079 97.3957 117.226 468.564
2825 0 91.1603 10.0921 920 100.497 117.1 463.327
2826 0 93.5105 13.4103 1254 95.7233 116.847 463.914
2827 0 95.5193 11.7987 1127 95.5865 116.661 465.689
2828 0 102.416 13.3769 1370 96.619 115.947 455.183
2829 0 105.501 15.5164 1637 93.7856 115.309 454.936
2830 0 107.403 14.562 1564 95.2417 114.273 453.609
2831 0 108.545 11.2212 1218 97.8087 112.449 452.305
2832 0 114.275 14.8589 1698 94.0754 112.032 447.496
2833 0 115.441 18.555 2142 91.3525 112.166 448.783
2834 0 118.462 17.7525 2103 92.8412 112.899 438.31
2835 0 121.454 10.6954 1299 100.142 112.671 438.46
2836 0 129.316 19.3711 2505 91.5333 111.648 438.539
2837 0 134.518 15.2618 2053 95.1388 112.656 439.429
2838 0 139.46 13.6527 1904 97.5656 112.373 435.558
2839 0 149.527 13.2685 1984 100.253 111.9 431.408
2840 0 149.517 12.2327 1829 101.134 112.423 424.326
2841 0 158.498 12.3408 1956 99.5138 114.252 429.785
2842 0 163.567 15.0886 2468 97.2715 113.673 426.735
2843 0 168.494 19.1936 3234 92.6524 113.75 421.464
2844 1 96.5437 12.7093 1227 95.8435 115.928 446.714
2845 0 101.505 11.8221 1200 98.3783 115.459 448.247
2846 0 108.529 18.3453 1991 91.9011 116.479 448.95
2847 0 103.503 9.69055 1003 102.706 116.099 444.066
2848 0 111.625 15.6685 1749 95.5941 117.399 446.766
2849 0 112.483 15.3179 1723 96.112 118.673 446.306
2850 0 112.45 13.3482 1501 99.3218 118.786 439.752
2851 0 120.361 16.1098 1939 95.1212 119.441 444.66
2852 0 120.215 13.8336 1663 98.3404 119.307 438.112
2853 0 124.342 13.873 1725 96.8012 118.833 440.409
2854 0 130.721 15.2386 1992 97.6426 120.412 430.782
2855 1 185.445 21.8125 4045 93.2724 120.079 411.188
2856 1 139.887 15.1264 2116 97.4542 120.547 431.73
2857 0 136.557 17.6043 2404 95.8681 119.871 422.868
2858 0 143.302 14.8706 2131 99.3008 120.227 427.956
2859 1 87.4174 11.3822 995 100.779 120.336 456.106
2860 0 91.5976 11.3868 1043 98.7929 120.288 458.921
2861 0 93.5246 15.0762 1410 96.1248 121.059 459.662
2862 0 95.4174 15.2383 1454 96.5488 120.545 459.898
2863 0 98.2825 12.1079 1190 100.797 120.435 452.184
2864 0 99.4727 20.1563 2005 92.4409 119.591 458.379
2865 0 108.627 15.6591 1701 96.5514 119.851 455.15
2866 0 107.565 15.1815 1633 95.8769 118.94 458.904
2867 0 101.367 13.9394 1413 99.5881 119.019 457.956
2868 0 111.764 13.0184 1455 99.279 118.066 459.9
2869 0 113.519 10.5621 1199 103.42 116.93 454.198
2870 0 117.474 14.2159 1670 100.18 115.884 447.515
2871 0 118.776 10.7935 1282 103.101 116.923 453.416
2872 0 119.309 12.2371 1460 104.355 115.355 445.748
2873 0 127.792 15.8147 2021 98.6116 115.993 450.295
2874 0 132.556 12.9907 1722 101.41 114.521 449.449
2875 0 137.802 14.6514 2019 100.479 114.096 445.687
2876 0 139.58 13.3902 1869 103.331 113.884 435.644
2877 0 146.918 17.3225 2545 97.6546 114.334 440.035
2878 0 154.51 13.9603 2157 100.714 113.621 438.233
2879 0 152.331 15.6895 2390 101.6 113.382 429.325
2880 0 159.019 13.8977 2210 101.891 112.884 429.175
2881 0 166.978 20.7872 3471 96.0006 113.967 416.799
2882 0 167.511 14.9662 2507 103.14 113.353 419.695
2883 0 172.569 15.0549 2598 101.925 114.236 420.435
2884 0 181.18 17.7614 3218 98.5466 113.09 418.352
2885 0 190.494 18.1371 3455 98.7363 113.593 405.015
2886 0 195.138 19.704 3845 96.3412 114.084 413.62
2887 0 197.296 15.9912 3155 102.448 114.12 392.872
2888 0 205.673 20.732 4264 96.8947 115.02 396.411
2889 0 210.923 15.0102 3166 103.536 116.21 391.742
2890 0 219.206 20.0177 4388 97.1137 115.718 391.191
2891 0 229.407 22.3272 5122 94.7099 116.244 393.612
2892 1 174.911 13.0295 2279 102.72 117 414.975
2893 0 184.889 11.7801 2178 103.927 117.629 420.266
2894 0 191.101 14.4165 2755 103.976 117.988 402.205
2895 0 195.185 13.4027 2616 107.703 118.328 398.6
2896 0 204.69 19.3561 3962 100.435 119.371 398.5
2897 0 207.891 17.3216 3601 102.771 120.199 403.356
2898 0 219.011 15.4604 3386 105.978 119.586 389.193
2899 0 225.618 16.3462 3688 104.223 119.559 391.657
2900 0 232.866 15.2577 3553 106.665 120.43 384.702
2901 1 173.614 12.2398 2125 105.378 121.206 432.827
2902 0 170.835 14.9793 2559 105.544 121.891 421.884
2903 1 255.034 13.1904 3364 110.053 121.437 392.959
2904 0 264.551 16.39 4336 107.492 120.812 380.328
2905 0 275.589 21.064 5805 102.602 120.357 366.446
2906 1 63.1706 13.2815 839 103.366 119.468 471.809
2907 0 69.6457 16.6701 1161 98.3549 120.154 473.183
2908 0 69.3409 13.4697 934 102.097 121.088 475.684
2909 0 74.371 15.8395 1178 98.8022 120.257 473.236
2910 0 74.4285 14.43 1074 101.11 118.935 472.394
2911 0 77.3882 18.0777 1399 96.2602 118.911 473.074
2912 0 77.4319 14.516 1124 101.023 118.514 472.521
2913 0 79.6695 13.9953 1115 102.958 117.535 468.265
2914 0 85.6391 18.3327 1570 96.1045 116.296 473.415
2915 0 87.4132 18.4755 1615 97.3158 114.939 465.874
2916 0 90.6169 15.3393 1390 101.419 115.288 460.304
2917 0 87.5782 13.2681 1162 106.38 115.466 457.492
2918 0 97.6324 16.9513 1655 100.124 115.329 459.304
2919 0 98.2017 18.7064 1837 98.9407 113.992 459.413
2920 0 98.8728 19.075 1886 99.878 113.685 456.313
2921 0 102.153 14.5076 1482 105.887 112.463 450.724
2922 0 104.634 16.897 1768 101.407 114.334 453.41
2923 0 103.645 12.2726 1272 108.015 112.457 449.377
2924 0 103.645 12.3594 1281 170.062 112.479 449.467
2925 1 56.1567 12.8213 720 98.725 113.969 478.244
2926 0 53.4421 8.77586 469 106.704 113.26 472.625
2927 0 54.0846 11.7039 633 104.419 113.945 471.196
2928 0 54.0684 10.4312 564 105.193 113.507 469.564
2929 0 58.1948 14.0562 818 97.6907 115.357 472.774
2930 0 59.3703 11.0998 659 101.308 116.052 475.115
2931 0 59.3701 13.5253 803 100.846 116.136 468.281
2932 0 63.2276 14.772 934 99.531 116.226 465.698
2933 0 61.4864 11.9864 737 105.596 116.902 460.225
2934 0 63.3317 12.2372 775 105.796 118.2 462.813
2935 0 71.8576 13.9164 1000 103.645 118.721 465.853
2936 0 71.46 14.2317 1017 104.671 119.312 462.959
2937 0 73.6098 15.0252 1106 104.444 119.196 458.908
2938 0 78.7253 17.3261 1364 101.845 120.88 461.628
2939 0 79.462 15.6175 1241 105.253 120.583 461.572
2940 0 80.4073 15.7822 1269 106.342 121.456 459.878
2941 0 82.5385 14.7204 1215 108.799 121.753 460.267
2942 0 82.6198 13.3019 1099 113.37 121.022 453.42
2943 0 86.4217 14.1053 1219 111.773 122.194 458.422
2944 0 89.4767 17.1218 1532 106.826 122.296 460.051
2945 0 89.3928 12.8758 1151 114.471 122.205 457.422
2946 0 95.48 13.1651 1257 110.405 121.795 462.969
2947 0 95.3201 16.9849 1619 108.17 120.553 455.356
2948 0 100.529 16.3435 1643 108.884 121.03 455.448
2949 0 104.431 17.6863 1847 105.141 121.432 458.681
2950 0 106.67 15.2995 1632 110.295 121.484 449.344
2951 0 106.388 14.4754 1540 112.43 120.567 448.974
2952 0 107.592 12.2314 1316 115.881 120.022 449.135
2953 0 115.837 14.106 1634 111.024 120.233 448.295
2954 1 68.1311 9.4964 647 111.246 119.555 472.077
2955 0 72.5753 10.279 746 109.66 118.981 470.209
2956 0 67.5612 12.0039 811 109.259 117.158 467.423
2957 0 76.8161 12.914 992 105.585 116.866 466.737
2958 0 77.2857 14.5823 1127 102.608 115.791 467.264
2959 0 74.2798 11.1336 827 109.37 117.418 462.778
2960 0 83.3814 14.2598 1189 103.025 115.633 464.577
2961 0 83.2791 13.761 1146 104.665 115.348 461.394
2962 0 87.4118 10.1245 885 108.169 114.681 463.512
2963 0 85.3666 12.4639 1064 107.193 115.038 456.326
2964 0 89.2564 10.7219 957 107.598 112.854 449.447
2965 0 87.4349 15.3486 1342 102.139 113.265 456.004
2966 0 93.6423 11.3303 1061 107.161 113.133 451.433
2967 0 90.3809 16.6518 1505 100.398 112.799 452.637
2968 1 104.77 14.6702 1537 100.573 113.226 449.062
2969 0 98.3424 20.0422 1971 95.7549 112.3 450.442
2970 0 105.249 11.525 1213 106.172 113.195 441.658
2971 0 104.583 15.404 1611 101.22 113.485 442.422
2972 0 102.587 12.0873 1240 106.259 114.936 438.079
2973 1 119.641 18.146 2171 97.1562 115.31 440.718
2974 0 122.438 19.6017 2400 95.0821 115.294 443.484
2975 0 125.535 12.5941 1581 103.939 115.206 430.066
2976 0 129.8 18.1664 2358 98.7456 116.06 428.934
2977 0 127.371 14.4617 1842 104.393 118.179 430.429
2978 0 137.608 20.0498 2759 97.6067 117.273 430.21
2979 0 142.682 13.5056 1927 105.809 117.672 428.364
2980 0 149.645 11.4471 1713 108.607 118.95 424.175
2981 0 154.612 10.9759 1697 108.983 119.26 427.355
2982 0 156.681 14.4434 2263 106.952 120.027 412.467
2983 0 162.879 15.4102 2510 105.459 119.748 416.006
2984 0 167.628 14.6634 2458 105.89 121.692 423.074
2985 0 174.58 13.1115 2289 109.527 121.816 404.594
2986 0 179.581 18.0698 3245 102.429 121.97 419.801
2987 0 185.724 16.2876 3025 105.33 121.3 412.718
2988 0 193.906 14.8577 2881 107.148 121.82 403.863
2989 1 118.677 9.02447 1071 109.096 120.858 447.612
2990 0 124.626 10.9929 1370 106.641 120.968 440.807
2991 0 130.643 14.842 1939 100.605 120.374 445.899
2992 0 134.656 11.7856 1587 102.1 120.609 449.486
2993 0 140.423 12.5977 1769 102.976 120.336 431.505
2994 0 144.437 15.9031 2297 98.9917 119.889 440.745
2995 0 151.469 11.9166 1805 104.246 119.419 432.967
2996 0 160.557 13.3535 2144 99.8013 117.838 445.501
2997 1 98.2114 9.47955 931 100.798 117.76 471.68
2998 0 101.365 12.6374 1281 98.929 117.618 461.958
2999 0 101.569 9.9243 1008 103.809 118.435 463.776
3000 0 107.408 12.9692 1393 99.5585 116.985 464.076
3001 0 107.408 13.1182 1409 127.851 115.984 464.186
3002 0 110.374 9.68521 1069 105.341 115.331 459.381
3003 0 114.458 10.3182 1181 105.305 113.925 450.08
3004 0 120.487 11.6196 1400 100.401 114.109 461.659
3005 0 124.759 10.917 1362 104.446 112.568 440.916
3006 0 126.473 12.7695 1615 102.321 111.682 446.045
3007 0 129.416 16.42 2125 98.0311 112.338 442.841
3008 0 129.39 14.1356 1829 100.477 112.217 433.475
3009 0 126.244 13.5531 1711 101.555 111.761 431.354
3010 0 135.223 12.4387 1682 101.042 111.294 434.324
3011 0 135.326 9.30348 1259 106.026 111.228 424.372
3012 0 142.304 15.9237 2266 98.3067 110.867 438.668
3013 0 150.594 12.9487 1950 103.149 112.587 426.615
3014 0 151.307 15.0026 2270 99.6198 112.235 432.42
3015 0 150.659 11.9077 1794 104.731 112.867 423.656
3016 0 159.628 13.0366 2081 102.638 112.3 419.811
3017 0 166.815 24.5182 4090 89.7724 113.074 421.543
3018 0 170.522 16.9186 2885 96.7151 113.206 423.281
3019 0 177.629 16.1235 2864 97.3897 114.76 418.838
3020 0 179.469 12.693 2278 104.081 115.213 410.553
3021 1 199.506 10.095 2014 105.039 115.011 415.129
3022 1 128.398 13.0376 1674 98.6099 115.566 438.978
3023 0 126.63 13.7882 1746 99.1191 115.568 436.128
3024 0 129.566 16.4627 2133 95.5021 117.142 441.3
3025 0 134.702 19.0718 2569 94.701 119.068 432.963
3026 0 131.401 14.9923 1970 100.616 119.713 429.816
3027 0 138.633 14.203 1969 100.554 119.344 435.107
3028 0 143.764 11.4493 1646 106.012 119.233 429.314
3029 0 150.618 15.2505 2297 101.811 120.317 424.435
3030 0 152.659 16.4222 2507 100.852 119.643 427.633
3031 0 156.533 16.7568 2623 100.498 119.649 425.506
3032 0 159.481 14.5158 2315 101.908 118.63 423.444
3033 0 167.508 12.9785 2174 103.46 118.611 424.427
3034 0 172.722 13.5652 2343 102.203 119.87 425.088
3035 0 177.969 13.6148 2423 105.433 118.285 416.095
3036 0 184.58 18.7019 3452 97.303 118.282 416.928
3037 0 187.72 15.4752 2905 100.967 118.549 420.881
3038 0 193.834 14.3886 2789 102.179 118.733 400.422
3039 1 35.3154 11.015 389 83.5604 120.805 496.059
3040 0 29.0804 4.95178 144 91.2569 117.569 498.493
3041 0 35.2902 8.27426 292 88.8048 120.045 497.106
3042 0 34.1814 10.7368 367 87.3433 118.098 505.774
3043 0 31.3721 9.94513 312 88.109 117.163 504.917
3044 0 34.4125 10.316 355 89 116.344 499.882
3045 0 32.2454 7.81508 252 91.8571 116.012 500.671
3046 0 34.3005 10.787 370 89.1 114.535 500.886
3047 0 32.0968 6.91658 222 93.6937 114.072 500.131
3048 1 255.15 10.8642 2772 108.131 111.8 371.111
3049 0 262.11 17.1379 4492 100.002 110.955 375.922
3050 0 271.282 11.3867 3089 106.828 111.437 368.431
3051 0 281.469 13.664 3846 103.792 111.332 365.31
3052 0 291.484 17.5516 5116 99.3186 111.817 374.619
3054 0 322.347 23.9835 7731 92.9984 111.013 343.552
3055 0 317.667 29.1249 9252 89.3799 110.757 345.781
3056 0 327.635 22.406 7341 95.2116 111.187 332.697
3057 0 333.567 17.4717 5828 100.669 112.584 334.609
3058 0 348.143 18.7193 6517 99.8996 112.12 319.806
3059 1 38.2053 12.2496 468 88.9081 113.959 493.714
3060 0 38.3975 13.3342 512 86.2656 115.139 493.848
3061 0 37.2362 11.3331 422 88.6967 115.403 490.519
3062 0 37.2654 13.5246 504 86.998 116.429 489.837
3063 0 36.1513 9.68154 350 91.4229 116.946 488.537
3064 0 36.3568 13.285 483 86.5155 117.836 486.878
3065 0 39.1528 13.7666 539 86.2393 118.1 490.868
3066 0 35.1816 9.63572 339 87.7611 117.139 492.566
3067 0 33.0844 14.8106 490 84.6286 117.524 492.553
3068 0 43.4334 19.3169 839 76.6877 116.702 482.574
3069 0 42.1115 14.5566 613 81.3426 116.768 491.484
3070 0 38.0336 10.333 393 86.972 119.463 495.809
3071 0 39.082 9.05788 354 87.6271 118.506 491.415
3072 0 36.0424 13.9558 503 85.336 119.292 493.63
