time division length width area intensity CMx CMy
0 0 47.0182 14.9729 704 128.974 885.203 475.151
1 0 49.0385 16.1098 790 125.627 884.696 473.696
2 0 50.0506 16.0637 804 125.745 883.785 475.231
3 0 50.0463 16.0851 805 127.241 882.774 475.281
4 0 51.1351 13.4937 690 130.504 882.249 475.449
5 0 51.0656 15.3332 783 126.148 882.384 475.573
6 0 54.219 14.2386 772 127.838 880.146 473.57
7 0 55.0328 14.5004 798 128.164 879.497 473.386
8 0 57.0302 15.3252 874 127.143 878.215 472.185
9 0 57.0357 15.7095 896 129.797 877.243 472.388
10 0 61.1573 18.5751 1136 117.643 877.217 473.564
11 0 61.0944 15.0423 919 125.961 877.094 470.186
12 0 63.0784 18.2471 1151 121.241 877.312 467.995
13 0 65.1147 14.7739 962 127.189 878.282 469.099
14 0 66.0416 15.4751 1022 123.562 876.966 465.378
15 0 67.1319 14.3151 961 128.876 876.799 464.276
16 0 69.1186 16.1172 1114 126.59 876.542 461.82
17 0 70.1348 13.8733 973 133.252 876.431 459.391
18 0 76.2028 17.0597 1300 123.301 876.961 456.822
19 0 78.1577 15.0209 1174 128.547 877.177 457.246
20 0 79.1864 14.9521 1184 129.42 876.573 452.1
21 0 83.1771 15.9419 1326 122.91 877.033 452.367
22 0 84.1979 15.3211 1290 122.808 876.616 446.287
23 0 88.1501 20.2496 1785 119.996 878.103 444.56
24 1 44.0555 14.1186 622 127.506 878.64 468.058
25 0 46.132 11.1853 516 130.605 879.364 466.362
26 0 49.0155 14.2812 700 124.929 879.589 463.684
27 0 48.0575 13.9208 669 126.371 881.465 466.638
28 0 51.1181 12.9309 661 126.874 881.346 463.566
29 0 54.1899 15.9993 867 119.88 881.099 461.078
30 0 56.0895 13.2823 745 123.458 883.996 462.584
31 0 56.0895 13.2289 742 140.946 887 462.596
32 0 60.2043 15.9125 958 118.227 883.667 458.979
33 0 61.1794 14.8089 906 120.535 886.313 458.789
34 0 61.058 13.2333 808 122.089 886.098 459.157
35 0 66.1293 14.517 960 121.921 887.405 457.65
36 0 69.266 13.9895 969 119.004 886.595 459.078
37 0 67.3869 11.8866 801 126.001 888.749 456.96
38 0 73.1945 15.329 1122 116.555 886.487 457.422
39 0 75.4022 12.1615 917 120.046 888.422 456.009
40 0 79.2731 13.9518 1106 113.96 887.632 459.698
41 0 82.0676 15.7797 1295 113.744 888.032 454.75
42 0 84.1364 13.5257 1138 117.334 887.03 455.434
43 1 44.0454 12.7142 560 110.604 887.493 476.182
44 0 43.0611 13.655 588 118.303 886.944 477.636
45 0 46.0531 13.1587 606 123.388 886.947 479.031
46 0 46.0378 11.7295 540 126.365 884.726 479.35
47 0 48.3531 13.5876 657 124.199 883.878 477.148
48 0 50.1368 12.3462 619 127.498 884.145 477.893
49 0 53.2313 14.7282 784 119.82 881.642 475.034
50 0 53.1386 10.8772 578 129.948 881.803 474.76
51 0 56.1489 13.2505 744 126.038 880.793 472.411
52 0 59.1586 13.9287 824 123.801 880.437 472.102
53 0 57.0736 13.1935 753 127.38 879.912 470.919
54 0 61.1443 11.988 733 126.918 879.905 473.595
55 0 64.1924 14.5967 937 124.534 880.419 468.215
56 0 67.1915 14.6596 985 123.172 879.374 468.211
57 0 67.1915 14.7191 989 131.344 878.371 468.187
58 0 71.1739 14.2749 1016 125.278 878.647 462.206
59 0 74.1548 13.7415 1019 125.691 877.844 462.771
60 0 77.1202 13.9912 1079 124.34 878.268 462.994
61 0 79.0669 12.9637 1025 127.827 878.369 458.451
62 1 41.0332 11.7466 482 125.21 877.5 475.114
63 0 44.0443 14.2811 629 119.178 876.89 474.998
64 0 43.1233 12.1048 522 126.665 878.299 472.402
65 0 47.0443 11.5848 545 124.42 878.336 472.044
66 0 46.1169 13.0755 603 124.428 878.242 469.415
67 0 49.087 10.7157 526 126.62 878.348 469.654
68 0 49.1836 9.96266 490 127.439 879.565 469.678
69 0 54.0353 13.2876 718 121.592 880.24 466.331
70 0 56.0729 12.7334 714 123.681 880.794 465.623
71 0 58.0411 11.6986 679 125.434 880.33 464.495
72 0 60.2372 12.7164 766 124.522 881.664 461.457
73 0 61.0906 12.6042 770 124.888 882.243 460.852
74 0 66.2713 12.9619 859 120.861 882.924 464.932
75 0 67.0769 14.2672 957 121.781 883.478 460.062
76 0 67.1639 10.6754 717 126.746 883.979 460.389
77 0 71.0705 14.6052 1038 122.329 885.179 455.285
78 0 72.257 11.6667 843 128.116 885.781 457.734
79 0 78.0789 14.0243 1095 123.133 886.188 457.086
80 0 79.1259 13.1563 1041 125.12 887.699 457.268
81 0 81.0943 12.8369 1041 125.699 886.825 458.239
82 0 82.127 11.4944 944 130.005 886.529 454.575
83 1 44.0579 13.1872 581 119.571 886.165 478.43
84 0 44.1478 11.756 519 120.505 884.644 482.079
85 0 42.1359 11.4629 483 122.42 884.553 480.377
86 0 46.0855 14.0825 649 117.891 884.966 478.018
87 0 48.0522 12.6321 607 120.647 885.348 479.301
88 0 47.0712 10.9834 517 123.93 884.331 482.636
89 0 47.0712 10.2186 481 126.902 883.258 482.376
90 0 52.0653 12.6572 659 122.601 884.656 481.023
91 0 54.1247 12.1386 657 122.846 882.172 481.831
92 0 55.0502 12.0254 662 123.959 882.115 480.199
93 0 57.0539 13.7765 786 121.583 882.659 479.261
94 0 58.123 12.3359 717 125.234 880.649 478.469
95 0 60.0359 10.6603 640 127.677 880.348 477.989
96 0 61.0532 11.4327 698 127.021 877.832 477.01
97 0 64.1793 12.6832 814 123.955 878.894 477.042
98 0 67.0615 13.2714 890 123.18 877.891 476.788
99 0 68.147 12.385 844 126.239 876.551 471.353
100 0 71.1201 12.6125 897 127.749 877.002 467.358
101 0 75.1341 14.188 1066 123.539 876.355 465.533
102 0 79.2422 13.5281 1072 124.09 876.264 464.255
103 0 82.2465 16.8153 1383 117.958 876.061 461.54
104 0 82.2921 11.6293 957 126.812 875.083 461.861
105 1 44.1128 10.3371 456 127.248 875.094 476.318
106 0 49.0484 12.2124 599 122.169 876.282 476.005
107 0 50.2159 17.2057 864 111.381 875.843 474.065
108 0 51.0245 13.6797 698 118.761 875.552 472.408
109 0 53.2844 13.3059 709 119.676 876.55 472.781
110 0 55.0889 18.7515 1033 110.551 877.528 470.184
111 0 55.0892 12.0895 666 126.215 876.989 466.89
112 0 59.0903 14.8586 878 117.716 877.379 469.387
113 0 59.1384 12.5468 742 125.129 877.686 465.128
114 0 63.0386 13.2141 833 122.789 879.868 465.186
115 0 63.2401 14.1366 894 123.336 880.249 461.054
116 0 62.1467 14.0152 871 125.76 880.936 459.149
117 0 66.213 13.3811 886 125.093 881.038 462.379
118 0 67.2422 13.3696 899 127.181 882.165 459.901
119 0 67.232 13.3567 898 154.305 884.192 459.807
120 0 67.232 13.3865 900 153.732 886.177 459.772
121 0 75.1892 16.4651 1238 122.665 882.649 457.821
122 0 78.1281 14.4634 1130 126.503 884.184 457.367
123 0 81.1488 14.6028 1185 126.557 884.091 460.116
124 0 84.1873 16.9147 1424 121.723 883.417 454.176
125 0 87.2434 18.0644 1576 119.92 884.454 452.756
126 0 87.0765 14.1025 1228 128.916 884.888 454.026
127 0 89.2554 13.2989 1187 130.425 884.848 453.857
128 0 92.1181 13.1787 1214 130.384 883.254 455.424
129 0 97.1566 13.9568 1356 129.477 884.622 456.991
130 0 98.2696 13.8293 1359 131.753 883.554 454.091
131 0 103.282 15.8497 1637 127.811 883.161 456.489
132 0 105.207 13.212 1390 133.741 882.854 450.646
133 0 111.34 16.8672 1878 126.279 882.596 451.595
134 0 112.212 14.1963 1593 131.076 882.22 450.627
135 1 59.1731 12.0325 712 126.111 880.638 479.782
136 0 61.0552 14.4787 884 123.579 881.314 474.51
137 0 64.1139 14.4586 927 124.532 878.429 476.256
138 0 64.1139 14.5522 933 144.28 876.436 476.247
139 0 67.0462 14.5273 974 125.656 877.139 472.775
140 0 67.0462 14.572 977 153.567 877.113 472.808
141 0 72.224 15.6735 1132 122.213 876.408 471.847
142 0 71.1121 13.1061 932 128.387 875.613 469.776
143 0 78.2644 16.2654 1273 121.492 874.864 467.769
144 0 80.2159 14.7103 1180 125.547 874.588 463.206
145 0 82.4773 14.6101 1205 127.82 874.1 460.945
146 0 83.715 15.0869 1263 127.92 873.519 456.451
147 0 89.5829 17.7712 1592 121.751 872.959 454.521
148 0 89.212 15.7042 1401 126.019 873.414 457.371
149 0 96.4452 16.8282 1623 122.259 874.352 455.983
150 0 96.3117 15.2837 1472 125.991 872.911 453.57
151 0 101.627 21.1065 2145 115.948 874.763 449.221
152 0 100.306 14.2264 1427 128.98 874.919 447.149
153 0 107.318 14.3499 1540 127.913 875.608 447.189
154 0 109.394 15.1106 1653 128.041 875.771 441.67
155 0 114.425 18.0555 2066 121.077 875.028 442.512
156 0 118.317 19.414 2297 119.313 876.178 438.636
157 0 120.601 15.912 1919 125.076 877.569 433.368
158 1 61.0549 11.809 721 128.284 877.24 462.405
159 0 65.1387 13.8474 902 122.327 877.682 462.234
160 0 68.1296 15.0742 1027 122.334 879.171 461.805
161 0 68.126 13.5191 921 127.396 879.19 457.745
162 0 72.1101 14.4224 1040 124.282 879.941 460.141
163 0 72.1178 13.8939 1002 126.804 879.604 456.128
164 0 75.096 13.556 1018 126.143 880.519 456.525
165 0 75.096 13.516 1015 152.51 881.509 456.538
166 0 80.1215 12.0068 962 128.975 882.752 455.505
167 0 84.2128 13.4896 1136 125.922 883.232 456.173
168 0 84.2128 13.3946 1128 155.832 884.25 456.008
169 0 90.1694 12.9867 1171 126.213 883.74 454.908
170 0 90.1694 12.9756 1170 159.518 883.726 454.814
171 1 54.1223 12.5272 678 120.388 882.912 475.801
172 0 55.1634 14.4299 796 116.371 883.366 473.722
173 0 56.0884 13.1578 738 119.984 883.176 475.222
174 0 56.169 11.4298 642 123.595 881.776 477.33
175 0 61.214 14.0981 863 117.808 881.701 477.246
176 0 61.1654 12.8668 787 120.548 880.358 476.729
177 0 65.1548 15.7932 1029 114.922 880.377 475.992
178 0 65.0774 13.2304 861 119.763 880.343 475.945
179 0 69.1475 13.8978 961 118.131 879.085 471.927
180 0 70.2273 11.5625 812 121.506 878.631 473.378
181 0 76.4453 17.1364 1310 111.305 878.159 472.205
182 0 76.3077 13.7208 1047 117.415 876.779 469.33
183 0 79.1833 14.599 1156 115.979 875.888 467.25
184 0 80.1954 14.2901 1146 115.542 876.825 472.071
185 0 85.2404 16.9638 1446 111.595 875.216 464.303
186 0 87.3317 12.2865 1073 118.76 873.678 461.216
187 0 89.1329 12.4309 1108 118.252 874.962 458.083
188 0 94.2742 13.7365 1295 115.009 873.659 457.041
189 0 96.2549 11.6566 1122 119.331 873.753 453.986
190 0 100.449 16.2869 1636 112.078 873.446 454.223
191 0 101.457 13.7792 1398 115.751 873.901 450.986
192 0 105.281 12.7563 1343 116.687 874.701 450.879
193 0 106.352 11.2175 1193 120.07 873.813 446.066
194 0 113.438 14.4661 1641 116.165 874.947 445.04
195 0 115.47 14.4712 1671 117.554 875.141 436.835
196 0 120.485 14.9728 1804 116.214 875.356 433.947
197 0 121.578 14.7066 1788 117.312 876.039 431.163
198 0 122.403 13.7251 1680 119.107 876.36 434.058
199 0 129.416 12.2319 1583 122.323 876.667 429.044
200 0 134.419 13.8819 1866 119.66 876.494 424.355
201 0 141.311 15.3986 2176 117.541 877.594 424.608
202 0 143.327 13.9052 1993 120.527 878.76 417.804
203 0 149.337 13.9014 2076 120.747 877.856 418.992
204 0 153.303 13.2353 2029 122.076 879.79 417.309
205 0 160.644 20.4365 3283 111.586 880.374 422.427
206 0 162.475 14.156 2300 123.017 880.45 414.199
207 0 167.397 13.6263 2281 124.076 882.262 411.523
208 0 176.705 15.1212 2672 121.371 880.262 406.629
209 0 181.768 15.1732 2758 120.148 881.983 409.922
210 0 188.769 17.3651 3278 117.051 882.687 403.667
211 0 195.416 15.3314 2996 119.832 881.949 405.724
212 0 203.745 19.5538 3984 112.857 881.586 404.394
213 0 209.707 18.7643 3935 114.242 882.15 399.729
214 0 217.583 18.1448 3948 115.998 882.385 393.754
215 0 225.836 16.8884 3814 117.599 882.233 398.89
216 0 225.836 16.7422 3781 137.709 881.219 398.486
217 1 241.85 15.8156 3825 120.301 881.872 377.648
218 1 187.519 14.4678 2713 121.28 881.953 415.44
219 1 68.4145 13.1551 900 115.967 881.984 466.113
220 0 70.1799 12.9239 907 117.32 881.161 466.337
221 0 73.3298 13.2552 972 115.373 880.467 464.617
222 0 74.1242 13.9361 1033 114.404 880.579 464.058
223 0 77.3612 12.5644 972 116.663 878.965 461.734
224 0 83.2513 16.252 1353 110.45 877.107 459.297
225 0 84.3316 17.2533 1455 109.614 876.546 463.516
226 0 85.3842 13.3514 1140 115.483 874.08 459.27
227 0 91.6451 16.6839 1529 109.173 874.865 460.678
228 0 94.5814 15.3941 1456 111.356 872.78 458.501
229 0 98.4388 16.5991 1634 108.382 872.483 459.184
230 0 101.334 13.638 1382 112.886 871.287 452.58
231 0 105.568 13.9626 1474 110.785 872.271 448.065
232 1 56.2785 10.146 571 108.364 872.874 470.655
233 0 59.3597 13.7635 817 101.745 871.458 472.792
234 0 65.1828 12.58 820 104.04 871.9 468.187
235 0 63.176 12.5522 793 107.646 869.593 467.813
236 0 67.4891 12.5057 844 108.825 869.626 468.506
237 0 69.2637 14.3365 993 103.048 870.037 472.835
238 0 69.2637 14.1921 983 128.56 870.049 472.841
239 0 74.3003 14.4818 1076 107.281 870.942 463.05
240 0 74.3003 14.3337 1065 126.034 871.979 463.019
241 0 77.2849 13.3014 1028 107.461 872.635 461.218
242 0 79.2726 12.4633 988 109.439 872.653 458.092
243 0 82.1159 15.0154 1233 105.852 873.099 453.894
244 0 87.2515 15.2433 1330 105.284 874.614 456.49
245 0 89.1194 13.611 1213 108.327 874.394 452.703
246 0 92.4471 15.7712 1458 105.874 875.647 451.91
247 0 93.2415 11.1109 1036 111.89 876.218 451.223
248 0 98.2293 13.2445 1301 108.892 876.541 447.842
249 0 102.342 16.2201 1660 106.477 878.213 443.342
250 0 102.342 16.3765 1676 120.592 879.222 443.26
251 1 54.0455 10.0841 545 108.794 879.228 467.138
252 0 56.1517 10.1867 572 108.722 880.159 466.981
253 0 58.2426 10.0614 586 110.669 879.841 466.41
254 0 59.1974 11.2336 665 109.251 881.929 470.226
255 0 61.1827 8.58085 525 114.004 880.876 468.194
256 0 64.0963 12.4032 795 109.425 881.382 466.252
257 0 66.268 11.4686 760 109.759 881.755 471.518
258 0 71.1049 13.7403 977 107.65 882.203 468.64
259 0 73.1539 12.5215 916 108.64 882.729 467.91
260 0 74.1591 11.2865 837 111.369 882.649 468.154
261 0 78.2061 10.2166 799 110.967 880.243 469.38
262 0 80.1468 12.8015 1026 108.457 880.279 465.864
263 0 84.212 10.7348 904 111.944 880.978 465.004
264 1 45.0317 11.7029 527 104.803 878.647 486.683
265 0 46.0322 9.42817 434 106.037 879.419 489.138
266 0 50.5408 14.9978 758 99.0976 878.404 487.689
267 0 50.225 11.7471 590 104.356 877.841 483.285
268 0 52.1576 12.0979 631 108.174 875.556 485.35
269 0 54.0632 13.2807 718 107.04 875.095 482.758
270 0 53.0658 13.6246 723 108.473 873.571 480.169
271 0 56.0845 11.1082 623 111.252 873.286 482.398
272 0 59.1098 15.0229 888 105.082 873.471 479.146
273 0 60.1317 10.3107 620 112.069 873.713 478.484
274 0 62.0952 12.2393 760 108.914 872.351 478.347
275 0 65.1335 12.5895 820 107.868 872.112 473
276 0 62.2837 11.9614 745 110.27 871.569 471.733
277 0 65.1634 12.8446 837 108.823 871.375 468.375
278 0 69.1519 12.8991 892 107.405 871.613 471.05
279 0 72.2376 16.7918 1213 102.97 870.518 465.727
280 0 71.2174 12.6655 902 108.691 871.897 467.306
281 0 75.1466 11.1782 840 110.756 869.977 460.644
282 0 78.1796 14.7097 1150 106.559 871.164 458.384
283 0 78.277 21.3345 1670 98.8862 871.634 460.466
284 0 78.277 21.3984 1675 113.267 872.592 460.66
285 0 83.3764 15.6039 1301 107.268 873.669 451.55
286 0 86.2842 13.6178 1175 110.968 875.205 452.293
287 0 91.5567 16.8966 1547 107.063 874.679 450.187
288 0 90.3897 12.1585 1099 118.434 875.262 442.051
289 0 97.6907 14.7711 1443 112.906 875.905 443.415
290 0 97.6907 14.7916 1445 136.433 876.91 443.336
291 0 94.3848 13.0953 1236 117.892 876.84 442.769
292 0 103.369 11.338 1172 121.188 879.306 438.272
293 1 55.1938 13.0631 721 114.337 879.616 462.716
294 0 56.2491 12.1069 681 115.241 880.86 465.436
295 0 59.6476 11.4674 684 113.889 880.076 461.206
296 0 58.0622 12.1421 705 113.109 881.485 461.643
297 0 62.0606 15.8232 982 108.685 881.995 465.339
298 0 64.1327 16.3723 1050 108.569 881.03 464.156
299 0 66.0791 17.4185 1151 105.844 882.625 465.888
300 0 66.1242 13.8376 915 110.845 882.498 469.628
301 0 67.1577 11.9123 800 114.085 882.089 466.871
302 0 67.1577 11.8378 795 138.405 882.101 466.825
303 0 73.1716 15.6345 1144 108.023 882.049 469.33
304 0 78.1741 16.8598 1318 108.99 882.228 464.305
305 0 79.2619 16.742 1327 108.568 881.549 467.708
306 0 82.31 14.9921 1234 111.784 881.653 468.961
307 0 86.2425 16.7087 1441 109.713 880.468 463.685
308 0 86.459 16.5743 1433 110.814 879.811 465.317
309 0 87.242 11.9553 1043 119.527 879.129 464.14
310 0 91.1882 13.7299 1252 117.11 878.495 459.734
311 0 96.2682 14.9582 1440 113.728 877.813 463.347
312 0 99.134 18.5607 1840 107.786 876.34 464.589
313 0 101.345 13.0347 1321 117.97 875.958 455.717
314 0 104.304 14.1126 1472 115.593 876.194 451.221
315 1 56.2923 11.9554 673 114.675 875.147 476.845
316 0 57.1463 13.8942 794 108.513 874.916 475.836
317 0 61.1233 14.2008 868 109.618 872.798 476.305
318 0 63.2062 12.483 789 112.513 872.072 473.764
319 0 64.1458 14.2488 914 112.478 872.816 471.261
320 0 65.1545 14.4733 943 112.387 872.356 467.864
321 0 69.3836 15.8827 1102 109.069 872.666 469.101
322 0 72.0739 13.5 973 114.366 872.311 465.197
323 0 76.3062 12.345 942 115.611 872.825 465.523
324 0 77.2223 13.9726 1079 113.908 873.06 462.635
325 0 78.1734 12.3444 965 117.272 872.759 458.551
326 0 80.1026 13.6824 1096 115.451 873.357 457.953
327 0 86.3276 14.7114 1270 114.186 875.189 454.142
328 0 89.2479 14.23 1270 117.122 874.439 450.491
329 0 89.2479 14.2412 1271 143.389 872.442 450.659
330 0 92.4132 16.2747 1504 114.57 875.002 444.03
331 0 92.4132 16.2639 1503 137.786 877.995 443.989
332 0 101.755 15.9402 1622 115.784 877.466 443.413
333 1 55.5242 10.2298 568 119.03 876.065 466.371
334 0 57.2804 14.141 810 114.257 877.389 462.58
335 0 56.4486 11.4617 647 120.277 879.301 461.376
336 0 61.2684 15.6361 958 111.495 878.754 460.402
337 0 62.2077 14.4034 896 114.392 879.834 459.117
338 0 65.058 13.634 887 116.798 880.685 461.952
339 0 66.1201 14.0956 932 117.398 882.121 461.568
340 0 68.1921 14.2685 973 116.455 880.756 462.066
341 0 71.1624 14.1367 1006 117.562 883.385 457.596
342 0 74.1828 13.2241 981 117.753 881.526 461.034
343 0 78.2084 12.39 969 117.977 881.916 459.8
344 0 81.1159 16.1127 1307 111.293 883.718 462.635
345 0 80.1702 14.0825 1129 116.402 884.136 461.296
346 0 85.1386 14.541 1238 116.172 883.576 456.349
347 0 89.2937 14.1107 1260 116.59 883.813 459.099
348 0 91.2058 15.01 1369 114.931 883.55 462.309
349 0 96.2187 15.4336 1485 114.97 882.933 459.262
350 0 96.2187 15.34 1476 147.45 882.944 459.338
351 0 102.099 15.4165 1574 117.398 880.602 455.964
352 0 102.099 15.4067 1573 146.573 877.596 455.959
353 1 56.0393 13.5441 759 112.062 881.46 483.366
354 0 56.0639 11.6474 653 117.888 879.979 477.626
355 0 57.0469 10.6754 609 119.78 879.274 479.12
356 0 58.1275 14.279 830 112.872 878.746 478.408
357 0 59.1144 11.926 705 118.66 877.526 475.282
358 0 61.1234 11.6813 714 119.147 877.87 472.711
359 0 63.0628 12.9078 814 115.281 877.181 473.762
360 0 67.1563 12.8655 864 116.023 875.037 468.41
361 0 67.1563 12.8953 866 135.537 872.02 468.483
362 0 72.2433 13.0808 945 117.309 874.929 466.685
363 0 74.186 15.0567 1117 114.559 874.856 462.399
364 0 79.1905 15.5069 1228 111.728 874.123 463.98
365 0 78.1428 11.6198 908 121.337 874.629 457.056
366 0 81.2119 16.0691 1305 114.07 874.941 455.683
367 0 83.2938 13.0862 1090 118.048 875.323 458.178
368 0 89.1865 12.457 1111 118.399 875.779 452.947
369 0 91.2145 15.5238 1416 113.336 875.892 450.147
370 0 91.221 12.1463 1108 121.522 875.447 448.973
371 0 97.1466 13.9274 1353 118.378 876.97 446.755
372 0 101.278 12.3126 1247 118.406 875.694 445.187
373 0 103.285 11.6958 1208 121.352 877.185 442.474
374 1 55.1007 11.5062 634 113.677 878.349 463.74
375 0 56.0448 13.2751 744 112.648 877.441 460.372
376 0 57.2155 11.4479 655 116.504 878.614 461.814
377 0 61.1117 14.7926 904 112.309 878.11 459.831
378 0 61.1484 12.4778 763 116.63 880.696 458.155
379 0 62.1653 15.8931 988 108.436 882.203 465.738
380 0 65.1516 11.3274 738 117.092 882.18 460.6
381 0 69.5245 14.1389 983 112.373 882.916 461.475
382 0 70.3452 13.519 951 114.777 884.164 457.232
383 0 75.2313 13.8639 1043 112.932 883.331 458.121
384 0 74.2941 13.7023 1018 115.69 885.477 454.83
385 0 77.3444 12.5154 968 116.569 884.865 456.755
386 0 80.3601 15.6048 1254 112.581 886.169 455.937
387 0 84.3718 14.4243 1217 114.157 885.633 457.283
388 0 86.4816 14.4886 1253 114.745 885.935 454.259
389 0 86.8251 15.4909 1345 114.259 885.78 452.257
390 0 89.5611 13.22 1184 118.146 886.023 453.428
391 0 91.4524 12.542 1147 120.516 885.112 448.103
392 0 94.4847 14.2563 1347 117.004 883.712 447.293
393 0 97.2847 15.2131 1480 114.441 883.771 448.057
394 0 99.6067 12.9911 1294 118.265 882.495 448.566
395 0 105.428 17.5855 1854 109.705 881.587 448.365
396 0 106.346 13.7852 1466 117.656 882.78 442.533
397 1 61.2669 11.7845 722 108.259 881.906 476.76
398 0 59.4679 12.0906 719 113.713 880.484 466.95
399 0 61.1919 10.1811 623 117.345 879.989 467.56
400 0 67.3552 12.59 848 112.026 879.041 474.134
401 0 69.1447 12.1774 842 115.008 877.724 472.322
402 0 70.3673 11.5821 815 116.789 877.286 469.746
403 0 74.4105 13.5599 1009 113.075 876.37 468.571
404 0 72.1694 10.1844 735 119.063 876.408 467.234
405 0 79.3837 14.1591 1124 111.545 875.633 466.443
406 0 80.2752 10.028 805 116.933 876.846 466.812
407 0 82.374 11.8848 979 114.909 875.075 462.677
408 0 86.4914 15.1691 1312 109.498 875.829 462.213
409 0 86.2741 10.7796 930 116.474 873.573 458.052
410 0 91.1626 18.0886 1649 106.045 874.577 451.146
411 0 92.401 12.2942 1136 115.033 875.037 453.313
412 0 97.5222 13.5764 1324 113.242 874.48 450.393
413 0 98.2966 14.1612 1392 113.57 875.088 447.453
414 0 102.508 17.0327 1746 108.733 876.562 446.763
415 0 102.456 10.5118 1077 119.451 876.732 444.016
416 0 107.355 10.8891 1169 118.588 876.41 442.401
417 0 110.341 10.4766 1156 118.298 876.809 440.702
418 0 118.597 15.9954 1897 109.285 878.637 440.481
419 1 64.2036 12.289 789 108.228 880.435 464.257
420 0 65.2129 12.9422 844 109.43 879.649 462.263
421 0 65.1827 14.329 934 111.778 878.47 458.625
422 0 71.25 14.6667 1045 110.26 881.105 460.538
423 0 72.2947 14.4271 1043 112.343 880.447 456.244
424 0 72.3042 10.2207 739 118.433 880.92 458.34
425 0 73.3684 12.6485 928 144.032 882.167 455.02
426 0 80.3575 11.7848 947 117.067 883.629 451.925
427 0 80.3575 11.6853 939 142.471 884.635 451.886
428 0 87.1102 15.3139 1334 110.606 884.986 453.499
429 0 89.2781 15.0205 1341 111.018 884.427 456.017
430 0 92.2216 14.3892 1327 112.13 884.194 452.5
431 0 95.2153 13.7478 1309 112.672 885.043 449.052
432 0 98.2785 10.7552 1057 116.884 884.925 453.825
433 0 104.152 15.8614 1652 107.669 884.416 453.516
434 0 107.423 16.9423 1820 105.072 885.268 457.108
435 1 56.1147 11.6369 653 108.36 884.201 475.45
436 0 57.2316 11.6719 668 107.651 883.009 477.277
437 0 60.3008 14.2121 857 102.861 882.821 477.687
438 0 60.2773 12.1107 730 106.492 882.036 475.473
439 0 64.0848 12.2182 783 109.759 882.866 474.354
440 0 65.0673 13.2325 861 107.11 881.044 475.926
441 1 134.356 14.2308 1912 112.802 881.219 439.965
442 0 137.377 11.3556 1560 117.334 880.438 443.688
443 0 147.789 13.1201 1939 114.241 879.008 437.591
444 0 146.581 11.1065 1628 118.749 877.783 433.899
445 0 156.46 13.5881 2126 112.241 878.8 441.984
446 0 152.614 12.5742 1919 116.371 876.896 433.68
447 1 80.0487 13.5667 1086 109.728 876.35 470.11
448 0 84.149 12.0263 1012 112.599 875.638 465.413
449 0 87.371 16.4471 1437 107.233 876.251 457.589
450 0 88.1547 13.2154 1165 113.619 876.2 459.684
451 0 89.2594 12.5925 1124 114.833 875.498 461.915
452 0 93.2042 12.596 1174 115.723 875.378 456.491
453 0 97.3535 14.586 1420 112.463 875.408 453.954
454 0 100.323 15.2807 1533 111.066 875.174 453.337
455 0 103.448 13.5914 1406 112.885 876.048 453.688
456 0 105.52 14.528 1533 112.957 875.04 441.301
457 0 110.423 13.8015 1524 112.883 876.746 445.608
458 0 108.276 12.6067 1365 115.195 875.661 437.959
459 1 58.1257 12.0773 702 111.33 876.33 467.462
460 0 59.2405 8.60897 510 114.72 876.384 469.725
461 0 64.2155 12.8318 824 109.519 875.625 464.28
462 0 67.0658 13.7179 920 112.24 877.252 467.853
463 0 68.046 11.3894 775 112.637 877.129 467.813
464 0 69.1296 10.3574 716 114.032 877.094 467.3
465 0 73.105 13.4601 984 111.152 878.314 467.081
466 0 75.2406 10.925 822 117.487 877.908 462.13
467 0 79.1849 13.8031 1093 111.31 879.043 464.813
468 0 78.2325 10.0725 788 119.168 879.302 460.437
469 0 84.2398 13.1055 1104 113.794 879.957 460.542
470 0 86.181 15.4442 1331 110.464 881.219 461.703
471 0 88.1899 14.4007 1270 111.754 881.198 460.842
472 0 88.1899 14.2193 1254 144.113 880.16 460.671
473 0 94.2492 11.3847 1073 117.783 881.405 458.102
474 1 51.3024 10.6818 548 112.328 878.998 482.456
475 0 51.0618 14.1006 720 107.832 881.312 484.733
476 0 54.205 12.1576 659 108.783 880.106 482.883
477 0 53.2327 13.5067 719 108.647 879.883 478.385
478 0 56.1432 12.3434 693 111.17 879.385 480.97
479 0 61.1903 14.6102 894 108.555 878.886 484.837
480 0 60.1222 12.7075 764 113.554 878.554 485.107
481 0 59.0774 10.7147 633 117.295 878.562 484.447
482 0 64.1205 11.4316 733 113.809 878.22 486.697
483 0 66.2178 13.0629 865 111.602 878.384 485.05
484 0 67.3995 13.8725 935 109.872 876.089 481.04
485 0 68.1385 12.0783 823 112.944 875.06 482.581
486 0 66.324 9.54406 633 117.978 873.646 478.474
487 0 73.3576 12.6095 925 112.503 872.524 477.11
488 0 73.6216 10.7305 790 116.19 873.092 478.229
489 0 76.3334 13.4934 1030 112.485 872.522 478.031
490 0 79.452 13.354 1061 113.883 870.917 474.506
491 0 82.4677 13.8478 1142 114.579 871.224 473.135
492 0 85.3661 13.9282 1189 115.364 871.816 469.886
493 0 88.3132 12.5915 1112 116.853 871.7 467.887
494 0 93.3151 13.6741 1276 115.167 870.381 465.866
495 1 46.0332 12.3824 570 110.809 869.333 487.66
496 0 48.1494 14.4758 697 106.755 868.968 483.224
497 0 49.099 10.5908 520 115.404 869.971 481.975
498 0 49.0988 10.3465 508 117.152 869.041 480.081
499 0 50.1135 12.0526 604 115.492 868.93 477.869
500 0 55.1587 14.141 780 110.091 870.782 478.687
501 0 56.3299 11.1841 630 114.197 871.375 478.771
502 0 57.0944 12.7333 727 113.327 872.271 474.902
503 0 57.1082 13.1505 751 114.031 872.217 471.784
504 0 58.0998 13.3047 773 112.781 873.365 473.894
505 0 62.0514 14.5686 904 112.548 873.445 468.876
506 0 63.1081 13.0887 826 117.314 873.725 466.028
507 0 67.1937 14.5549 978 114.694 875.157 465.425
508 0 69.3145 13.0997 908 117.748 876.2 461.494
509 0 70.1972 14.7299 1034 115.169 876.411 461.601
510 0 68.063 9.96136 678 123.463 877.311 461.525
511 0 74.489 12.4716 929 119.249 878.334 460.499
512 0 79.2473 14.8522 1177 116.034 878.769 459.39
513 0 80.5212 12.8289 1033 119.027 879.165 459.752
514 0 82.2137 13.1973 1085 118.573 879.651 460.224
515 1 48.1052 13.3665 643 113.378 879.733 478.698
516 0 49.1824 13.6838 673 113.59 880.6 477.278
517 0 49.0584 10.1919 500 121.414 879.94 479.04
518 0 50.1735 14.5097 728 115.111 882.368 478.795
519 0 52.1076 11.4571 597 122.528 880.977 479.628
520 0 55.0754 15.5968 859 114.771 879.946 479.48
521 0 56.2197 13.3939 753 121.826 880.527 480.475
522 0 58.1841 15.2791 889 116.844 878.675 478.413
523 0 61.1989 14.3957 881 118.28 877.76 481.342
524 0 63.274 14.129 894 118.904 876.625 483.295
525 0 63.0525 11.9107 751 126.089 877.515 481.065
526 0 66.1847 15.1546 1003 118.563 876.794 477.781
527 0 70.0706 16.1837 1134 116.433 876.762 480.214
528 0 70.0706 16.198 1135 135.033 876.787 480.201
529 0 73.1083 16.1268 1179 118.346 875.088 476.138
530 0 74.2994 12.8265 953 125.235 874.285 473.846
531 0 75.124 16.0801 1208 119.545 873.867 473.342
532 0 80.3363 14.9496 1201 120.87 873.522 473.744
533 0 83.1598 14.7547 1227 123.463 871.726 471.213
534 0 83.1598 14.7908 1230 151.686 868.728 471.259
535 0 89.3169 14.6333 1307 124.001 872.552 466.068
536 0 93.3139 14.9603 1396 122.547 871.398 464.953
537 1 50.139 12.7645 640 119.195 869.962 485.361
538 0 51.5973 14.2643 736 121.535 871.613 479.654
539 0 49.0795 12.3677 607 121.152 871.331 476.127
540 0 51.1245 14.4549 739 116.586 871.309 475.704
541 0 52.1335 15.8439 826 115.758 871.625 473.231
542 0 55.1375 23.1966 1279 103.628 870.304 473.927
543 0 59.1841 14.4971 858 120.055 871.78 474.628
544 0 60.2257 13.3664 805 122.241 872.691 472.335
545 0 62.1797 14.8923 926 117.876 871.707 474.051
546 0 64.2268 13.8416 889 120.949 872.548 467.289
547 0 70.2277 14.2109 998 117.679 872.075 468.454
548 0 69.2016 12.6442 875 122.975 874.035 464.281
549 0 72.2042 14.0712 1016 120.954 873.816 465.202
550 0 73.1637 13.9823 1023 122.445 874.121 460.604
551 0 76.2779 13.7654 1050 123.291 876.224 462.292
552 0 76.2779 13.7917 1052 149.646 878.25 462.23
553 0 83.2552 14.6297 1218 121.95 876.966 460.815
554 0 85.1286 14.5075 1235 123.398 877.232 457.764
555 0 87.2476 14.9001 1300 123.285 877.962 455.584
556 0 92.3781 13.7695 1272 122.869 878.796 458.391
557 1 52.2198 12.6006 658 121.878 880.568 475.641
558 0 53.0612 12.3819 657 122.875 880.725 474.691
559 0 58.0326 11.5452 670 122.534 881.121 479.242
560 0 58.0699 11.8822 690 122.299 880.501 477.829
561 0 61.1488 13.9659 854 120.584 879.815 474.809
562 0 62.236 15.2966 952 116.972 879.598 476.699
563 0 63.3148 11.6876 740 124.172 879.18 477.178
564 0 67.1046 12.9052 866 120.484 879.488 478.589
565 0 71.1008 13.3191 947 121.244 878.135 476.82
566 0 73.1983 13.8118 1011 119.724 877.798 474.443
567 0 73.1983 13.7571 1007 142.497 877.774 474.379
568 0 79.3848 15.8469 1258 115.404 876.909 475.989
569 0 80.2608 12.6338 1014 121.8 876.325 473.865
570 0 84.351 12.6021 1063 120.52 875.869 475.308
571 0 87.4513 14.7053 1286 117.208 875.473 473.456
572 0 88.3526 11.9747 1058 121.326 874.581 466.898
573 1 46.2242 10.0164 463 118.961 872.365 487.419
574 0 51.0545 11.2625 575 116.25 871.659 488.106
575 0 50.115 11.0546 554 117.236 871.986 489.092
576 0 50.0943 11.5183 577 125.83 873.007 488.516
577 0 57.1229 10.9413 625 119.498 871.434 485.056
578 0 55.1535 12.7825 705 117.858 871.684 481.723
579 0 56.1775 12.8877 724 117.518 870.733 481.127
580 0 59.0925 12.4043 733 118.059 871.374 479.926
581 0 61.1317 11.0254 674 119.823 871.04 479.975
582 0 62.2259 12.8242 798 116.919 869.746 476.441
583 0 64.1412 13.2208 848 115.825 870.114 474.43
584 0 65.111 13.0085 847 117.179 871.298 472.501
585 0 68.2687 13.6959 935 115.713 871.329 472.04
586 0 71.2385 13.8268 985 115.625 871.624 470.227
587 0 74.1826 12.5636 932 117.745 871.73 467.226
588 0 72.2067 7.82476 565 126.057 873.241 467.593
589 0 79.1629 13.567 1074 114.818 872.554 465.615
590 0 80.2567 13.5565 1088 116.849 872.513 463.972
591 0 82.5228 13.7538 1135 116.335 872.241 462.012
592 0 86.1481 14.8814 1282 113.574 874.827 457.445
593 0 89.3116 11.8014 1054 119.062 874.521 453.885
594 1 49.103 8.47199 416 114.166 873.238 481.849
595 0 51.4615 13.2526 682 110.355 875.174 474.466
596 0 50.6767 10.0243 508 118.492 875.083 475.858
597 0 51.0865 10.2375 523 120.285 876.096 474.717
598 0 54.1093 12.4932 676 116.132 876.763 475.182
599 0 57.2203 12.8975 738 114.725 876.425 474.821
600 0 58.055 13.5217 785 114.203 877.411 472.132
601 0 60.1373 12.8872 775 114.938 878.929 478.102
602 0 59.2113 12.5483 743 115.382 880.28 476.762
603 0 62.1487 10.8128 672 117.167 879.482 479.708
604 0 65.1625 12.0468 785 117.223 879.829 476.181
605 0 66.1544 14.4813 958 113.122 880.118 477.787
606 0 68.3808 15.0188 1027 113.582 879.466 474.636
607 0 72.1555 13.7758 994 115.206 878.797 477.634
608 0 73.2163 16.9907 1244 110.617 878.87 474.24
609 0 75.2275 11.8707 893 118.95 878.181 471.693
610 0 80.2382 13.6593 1096 112.949 876.937 477.229
611 0 80.1971 12.3321 989 115.396 876.668 476.789
612 0 83.1937 11.7797 980 116.788 877.395 473.289
613 0 86.1573 11.9317 1028 115.052 877.285 469.411
614 0 90.4155 11.0601 1000 117.638 876.214 469.119
615 1 49.0956 12.5266 615 108.995 875.089 491.376
616 0 49.3531 10.4755 517 113.298 874.42 487.34
617 0 49.3531 10.435 515 132.685 873.427 487.295
618 0 54.1115 16.8541 912 103.521 873.248 486.209
619 0 55.0793 11.2202 618 116.316 871.176 483.316
620 0 58.1099 11.9945 697 113.864 870.142 478.057
621 0 58.1099 12.0117 698 129.554 869.146 478.181
622 0 61.0615 12.2991 751 113.482 869.386 479.105
623 0 62.057 12.8591 798 112.815 869.674 477.892
624 0 64.0719 10.3009 660 118.194 869.559 473.403
625 0 64.0719 10.379 665 149.287 869.549 473.531
626 0 72.1622 17.9318 1294 106.109 868.528 472.107
627 0 71.1401 11.9904 853 115.775 870.19 471.261
628 0 74.2369 13.8071 1025 113.087 870.139 470.02
629 0 76.176 14.8078 1128 112.481 869.243 462.32
630 0 77.1438 15.1405 1168 112.655 871.165 464.76
631 0 82.2201 17.2829 1421 109.042 870.051 460.586
632 0 84.1176 12.4825 1050 117.394 871.846 458.081
633 0 87.1223 15.3807 1340 112.353 871.804 458.655
634 1 48.1008 9.99983 481 113.857 872.759 480.339
635 0 46.0941 8.11384 374 115.476 872.783 481.479
636 0 52.199 14.1382 738 110.95 875.917 474.289
637 0 50.0781 12.3807 620 111.965 873.94 474.469
638 0 52.1273 12.9874 677 109.947 875.592 475.006
639 0 56.0405 14.1326 792 107.342 875.999 475.154
640 0 60.2034 16.2117 976 102.703 876.977 477.819
641 0 58.0289 11.9423 693 113.407 875.961 476.593
642 0 60.0452 14.1727 851 109.597 877.02 477.052
643 0 62.1892 15.8709 987 108.353 876.831 472.094
644 0 62.0522 12.5217 777 114.463 877.185 473.681
645 0 64.0675 12.8926 826 112.312 877.035 474.444
646 0 64.0617 12.7846 819 135.856 877.083 474.324
647 0 70.1581 15.4508 1084 107.379 877.228 474.39
648 0 74.2828 16.141 1199 107.03 878.168 474.162
649 0 76.0885 14.7591 1123 108.66 877.018 476.887
650 0 76.1318 11.9398 909 114.855 876.571 476.157
651 0 80.2099 13.8886 1114 111.825 876.471 470.776
652 0 84.1946 15.7849 1329 108.351 876.744 476.202
653 0 86.1643 15.5633 1341 109.834 876.047 471.721
654 1 45.0963 12.8614 580 107.326 876.045 494.757
655 0 46.1156 12.5771 580 111.238 874.062 492.434
656 0 47.0701 15.0626 709 104.392 873.74 492.096
657 0 47.0504 13.1136 617 110.211 873.895 490.943
658 0 50.4139 12.5164 631 112.574 872.472 489.956
659 0 50.0738 12.2819 615 113.878 873.093 491.364
660 0 51.1348 15.8601 811 108.625 871.898 486.662
661 0 53.0719 12.6998 674 114.349 870.766 488.481
662 0 51.0517 11.4198 583 118.664 869.83 485.763
663 0 54.1308 11.5276 624 118.09 870.631 485.204
664 0 57.0558 12.3563 705 115.501 871.149 481.688
665 0 55.089 12.507 689 119.44 870.089 482.816
666 0 58.1026 13.218 768 117.151 869.863 482.938
667 0 60.058 13.0707 785 118.922 869.99 476.62
668 0 60.281 12.956 781 120.166 869.337 475.875
669 0 64.161 12.8115 822 118.033 869.352 474.753
670 0 66.1171 14.0508 929 116.384 871.515 471.94
671 0 69.1518 13.1305 908 117.581 870.379 472.612
672 0 68.0666 15.1322 1030 113.609 871.988 474.319
673 0 72.1879 14.8778 1074 115.356 872.033 470.122
674 0 73.2936 13.3027 975 118.468 871.135 468.59
675 0 76.3042 13.918 1062 116.918 873.537 463.745
676 0 76.3042 13.8131 1054 154.165 875.548 463.779
677 0 81.337 16.5361 1345 113.753 874.998 458.199
678 0 82.5727 14.3268 1183 117.711 874.932 461.323
679 0 84.3664 11.9834 1011 121.373 875.737 461.363
680 0 89.3 14.9048 1331 117.203 875.919 456.124
681 0 90.1879 14.9355 1347 117.929 877.518 454.831
682 0 92.3982 13.9613 1290 118.65 877.081 455.572
683 0 92.3197 10.9727 1013 122.836 877.519 453.109
684 1 51.3381 11.9405 613 114.907 878.23 474.163
685 0 51.3049 9.88209 507 118.659 879.367 472.176
686 0 57.3101 13.7672 789 110.196 879.28 474.243
687 0 57.2503 13.3624 765 114.524 879.024 473.505
688 0 57.1337 11.4293 653 118.724 878.646 471.931
689 0 59.059 11.2599 665 118.701 878.699 473.627
690 0 62.1383 13.132 816 115.729 878.662 478.029
691 0 66.1199 16.6062 1098 111.995 877.976 477.311
692 0 64.0529 12.193 781 121.946 877.862 475.132
693 0 68.0791 12.5002 851 120.478 877.405 474.503
694 0 71.1375 13.0733 930 116.291 878.382 476.477
695 0 73.1656 13.1483 962 116.031 877.805 472.676
696 0 77.1192 13.6023 1049 114.358 877.798 475.924
697 0 77.0802 13.5054 1041 116.335 876.409 479.512
698 0 80.211 12.5419 1006 116.803 876.483 477.159
699 0 85.0853 16.2895 1386 113.105 874.701 470.589
700 0 88.0985 14.3589 1265 116.768 873.39 471.375
701 1 48.1853 13.116 632 113.807 872.413 489.551
702 0 46.0916 10.3707 478 120.195 872.686 488.312
703 0 48.1798 13.6572 658 118.422 873.691 485.372
704 0 49.1908 12.0754 594 121.628 873.158 485.012
705 0 53.0634 12.9279 686 118.475 871.315 486.866
706 0 53.0634 12.9845 689 143.743 870.327 486.866
707 0 53.0669 13.059 693 142.913 869.368 486.924
708 0 56.0902 13.2822 745 119.729 870.611 482.952
709 0 56.0777 12.1974 684 119.792 870.076 483.582
710 0 60.1184 12.8247 771 119.018 871.315 481.102
711 0 61.2078 13.2009 808 119.906 870.323 475.756
712 0 64.133 21.6113 1386 106.281 871.177 474.613
713 0 67.1675 15.841 1064 114.496 869.693 471.929
714 0 67.1675 15.9303 1070 137.47 868.69 471.96
715 0 72.2059 12.866 929 121.288 870.994 468.492
716 0 72.2458 13.6755 988 120.63 872.414 468.214
717 0 75.2539 14.2052 1069 120 872.355 464.694
718 0 79.425 13.8244 1098 119.155 872.587 463.817
719 1 41.114 11.31 465 118.08 871.011 482.454
720 0 43.0905 13.5993 586 117.195 873.346 478.201
721 0 43.0905 13.6921 590 138.647 875.346 478.208
722 0 46.1523 12.8921 595 113.639 875.018 472.126
723 0 48.0837 10.7729 518 118.116 875.359 470.737
724 0 49.0652 13.0642 641 114.621 876.211 470.513
725 0 52.1841 12.2451 639 115.474 876.302 468.559
726 0 54.0366 15.7671 852 109.847 876.854 469.187
727 0 56.1891 15.3767 864 111.28 879.109 479.127
728 0 58.3624 14.41 841 114.829 878.067 477.551
729 0 61.5206 11.4108 702 119.319 879.759 479.685
730 0 61.1219 13.8412 846 116.522 879.175 476.071
731 0 64.2973 12.7533 820 117.841 879.945 477.327
732 0 65.2778 13.8026 901 117.252 880.365 475.642
733 0 64.4446 11.9327 769 121.566 880.779 474.988
734 0 70.2517 13.0246 915 118.195 880.137 476.06
735 0 73.3136 14.2675 1046 115.549 878.992 478.188
736 0 78.2798 18.3955 1440 109.56 880.088 476.466
737 0 79.3894 12.9362 1027 119.198 878.298 472.135
738 0 82.327 13.5314 1114 117.948 878.953 472.811
739 0 86.2433 12.1401 1047 118.146 878.612 470.908
740 1 42.1156 7.3132 308 117.542 879.256 488.877
741 0 47.1116 11.823 557 111.512 878.183 487.314
742 0 44.0222 9.24533 407 117.025 878.332 485.172
743 0 47.0526 9.03245 425 114.487 875.873 486.391
744 0 51.0393 12.7745 652 110.635 874.534 488.118
745 0 52.0706 12.8864 671 110.844 873.56 485.657
746 0 52.0792 12.9994 677 110.706 875.161 483.278
747 0 54.1482 12.1888 660 111.252 873.536 482.912
748 0 56.0802 13.766 772 110.829 874.791 483.006
749 0 55.0987 10.8714 599 117.018 872.751 481.457
750 0 61.302 11.2884 692 114.234 872.629 479.379
751 0 63.1164 15.4318 974 107.96 872.106 475.631
752 0 65.1689 15.5749 1015 107.64 872.385 479.699
753 0 64.1109 14.3969 923 112.907 872.359 473.13
754 0 69.1096 13.3122 920 114.735 872.689 470.327
755 0 69.1353 10.371 717 120.049 872.252 471.139
756 0 74.103 14.3314 1062 112.94 872.408 468.135
757 0 76.1684 13.4833 1027 114.394 872.869 463.827
758 0 79.1472 15.1363 1198 111.847 873.609 458.644
759 0 80.1101 13.4939 1081 114.599 873.965 452.425
760 0 84.1188 13.6593 1149 114.47 873.249 451.66
761 0 88.1359 14.8861 1312 112.425 873.729 455.439
762 0 89.2548 15.2485 1361 111.106 873.295 453.904
763 0 94.2441 12.1917 1149 114.165 876.51 458.187
764 0 95.3354 12.1781 1161 114.717 876.598 453.56
765 0 98.3567 15.3726 1512 110.468 877.712 455.753
766 0 102.355 15.7492 1612 110.659 878.207 448.319
767 0 104.416 11.1764 1167 114.941 879.554 444.972
768 0 109.263 12.6575 1383 113.344 878.482 445.199
769 0 110.074 11.0926 1221 117.186 879.096 443.989
770 1 60.1468 13.3839 805 110.087 880.227 472.468
771 0 64.1173 13.9744 896 107.681 880.715 472.789
772 0 64.1173 13.8964 891 122.841 881.722 472.956
773 0 67.194 11.8909 799 113.91 880.766 470.165
774 0 70.1047 16.9033 1185 105.485 879.807 470.484
775 0 72.1803 13.2446 956 111.01 879.948 471.15
776 0 74.1369 13.6909 1015 110.038 879.982 467.633
777 0 80.1833 14.7163 1180 107.699 879.208 468.642
778 0 80.2578 12.7464 1023 111.187 878.873 469.937
779 0 82.3703 13.1601 1084 111.594 879.227 464.741
780 1 46.2333 11.5717 535 112.043 880.172 487.056
781 0 48.2958 13.4587 650 109.374 878.883 486.462
782 0 47.2456 7.6621 362 119.765 879.019 487.149
783 0 49.3818 13.1425 649 111.701 879.051 485.81
784 0 50.2186 11.211 563 115.21 878.686 489.22
785 0 53.3895 13.954 745 111.532 876.737 482.565
786 0 50.248 10.687 537 118.184 875.032 481.659
787 0 58.2395 17.8401 1039 103.472 876.014 486.43
788 0 58.2843 15.5273 905 107.848 874.878 484.096
789 0 60.2727 14.003 844 110.835 875.109 479.164
790 0 61.1699 10.103 618 115.929 873.498 482.097
791 0 64.2243 17.6102 1131 105.643 875.21 477.755
792 0 67.0258 13.3978 898 110.882 872.854 475.013
793 0 69.2224 18.3322 1269 104.816 874.118 476.013
794 0 70.0573 15.887 1113 107.895 873.886 473.577
795 0 76.0986 18.0949 1377 105.489 872.415 468.51
796 0 77.4917 17.0083 1318 107.241 873.127 469.865
797 0 76.1694 12.2621 934 113.155 873.544 473.728
798 0 81.1099 14.6591 1189 111.761 872.525 464.486
799 1 43.0618 11.6809 503 113.65 873.105 482.141
800 0 43.0618 11.6344 501 134.136 873.11 482.154
801 0 47.0465 13.6248 641 110.251 873.144 476.028
802 0 49.1849 13.2764 653 108.859 873.85 478.326
803 0 49.1975 14.3503 706 107 873.942 479.653
804 0 52.3456 13.3536 699 112.851 874.17 472.273
805 0 53.1015 13.6154 723 112.531 875.927 474.248
806 0 55.1477 15.0686 831 110.477 876.36 472.866
807 0 57.4374 17.2362 990 105.886 876.089 470.758
808 0 57.1199 14.6534 837 112.014 878.999 470.441
809 0 61.1647 15.7444 963 108.344 878.776 472.94
810 0 60.1589 11.1039 668 117.187 878.455 471.316
811 0 64.0788 14.2013 910 113.167 880.11 468.409
812 0 65.0287 21.0215 1367 104.429 879.348 464.364
813 0 67.0899 14.5178 974 114.216 879.014 465.597
814 0 70.1951 13.5764 953 116.873 879.937 467.058
815 0 70.1951 13.5337 950 144.329 880.938 466.869
816 0 74.0851 14.2134 1053 116.961 881.494 468.291
817 0 77.1806 17.3619 1340 111.755 880.561 466.029
818 0 77.1828 14.3296 1106 118.427 880.061 463.405
819 0 82.1211 13.1391 1079 119.956 880.037 463.68
820 1 40.1067 10.2975 413 118.884 880.932 487.981
821 0 45.1076 12.1709 549 118.368 880.783 485.625
822 0 46.0546 11.7035 539 120.204 880.404 484.408
823 0 46.121 11.3397 523 121.033 879.172 484.725
824 0 50.0373 11.3515 568 120.556 880.567 487.646
825 0 52.154 13.2876 693 118.214 879.341 485.505
826 0 53.226 14.2036 756 118.308 878.993 486.402
827 0 55.1815 14.3345 791 118.642 877.958 482.728
828 0 53.1832 11.2442 598 124.577 877.719 485.254
829 0 58.0975 13.5462 787 119.788 876.976 482.263
830 0 59.2166 14.6918 870 118.356 875.854 480.356
831 0 61.1896 16.0648 983 115.502 875.834 478.392
832 0 63.1197 15.3993 972 116.011 876.072 479.903
833 0 64.092 15.6338 1002 115.67 874.963 477.935
834 0 69.1462 20.5362 1420 108.038 874.501 475.702
835 0 70.1132 14.6477 1027 116.685 873.998 476.246
836 0 73.2365 17.9692 1316 111.147 874.569 473.954
837 0 74.337 14.367 1068 118.716 874.323 465.787
838 0 78.3427 14.2451 1116 118.001 874.204 466.272
839 0 82.1248 17.7169 1455 110.862 874.161 469.704
840 0 82.2763 13.9773 1150 118.983 873.242 462.007
841 0 85.3757 17.0423 1455 114.328 874.036 461.279
842 0 89.4961 19.1964 1718 109.403 874.463 461.285
843 0 90.2753 16.6491 1503 114.776 874.927 457.192
844 0 93.2767 13.9478 1301 118.507 874.733 457.932
845 1 50.1331 14.4815 726 115.605 874.821 473.103
846 0 54.2955 15.6735 851 113.061 876.042 475.189
847 0 54.0941 12.8295 694 119.293 876.223 471.39
848 0 58.1242 18.2196 1059 110.638 877.199 470.48
849 0 57.0857 13.1381 750 120.857 877.428 467.581
850 0 61.4128 18.107 1112 109.784 877.972 472.507
851 0 60.0476 12.973 779 121.239 877.935 469.416
852 0 61.2521 13.6322 835 119.592 879.353 469.394
853 0 64.0906 15.4313 989 116.763 878.256 467.61
854 0 67.1034 16.3628 1098 115.722 879.855 466.921
855 0 67.0884 15.0101 1007 120.264 879.648 466.326
856 0 67.0884 14.9653 1004 145.087 879.667 466.216
857 0 71.1806 13.3744 952 125.224 881.133 463.095
858 0 76.2513 13.7834 1051 123.552 882.449 465.679
859 0 79.1034 16.7882 1328 119.873 882.439 464.588
860 0 79.1799 13.2862 1052 127.433 882.209 464
861 0 83.2323 14.2613 1187 125.691 881.783 460.976
862 0 86.2469 15.0846 1301 124.721 881.424 459.186
863 0 89.1795 16.7303 1492 122.092 882.505 462.898
864 0 96.4155 16.6467 1605 120.935 881.422 463.126
865 0 98.3121 14.1386 1390 126.192 880.571 460.65
866 0 101.454 16.6577 1690 121.473 881.633 460.723
867 1 49.103 13.6244 669 125.725 880.658 483.958
868 0 50.0547 13.0058 651 128.673 880.713 481.767
869 0 54.0736 14.3323 775 124.636 878.874 485.284
870 0 57.0815 14.2954 816 123.425 879.57 484.46
871 0 58.0641 13.1062 761 127.146 878.89 483.306
872 0 60.0916 13.9787 840 127.001 877.654 480.671
873 0 62.0518 13.102 813 128.611 876.365 481.125
874 0 64.1074 14.8189 950 126.442 876.328 478.617
875 0 70.1184 17.2708 1211 119.672 875.601 478.813
876 0 71.1148 13.5134 961 127.895 875.496 471.94
877 0 72.1557 13.6787 987 128.457 875.347 471.412
878 0 76.4352 15.0454 1150 125.382 875.179 468.47
879 0 76.0841 14.3 1088 127.907 874.777 469.837
880 0 78.1007 14.2892 1116 129.187 874.691 466.243
881 0 82.1394 15.9485 1310 124.3 874.039 465.998
882 0 84.2375 13.7825 1161 129.408 874.852 465.691
883 0 88.1668 16.8771 1488 122.591 874.084 463.439
884 0 90.1944 14.7348 1329 128.163 874.302 459.649
885 0 92.3342 16.4186 1516 125.026 874.476 458.522
886 0 97.2981 15.5501 1513 127.998 875.881 451.283
887 0 101.346 15.6394 1585 128.008 876.399 451.765
888 0 104.383 17.5029 1827 124.649 876.592 449.516
889 0 106.436 14.9574 1592 128.866 877.297 438.317
890 0 111.447 14.7514 1644 128.689 875.897 436.586
891 1 60.1776 11.1337 670 125.967 876.204 466.704
892 0 64.214 14.3582 922 122.838 877.663 465.995
893 0 64.2291 13.7165 881 123.566 877.388 462.104
894 0 67.1587 13.684 919 124.901 878.461 466.806
895 0 67.1562 12.5528 843 128.241 879.135 463.647
896 0 72.1219 12.3679 892 126.76 878.475 464.922
897 0 74.2054 14.2847 1060 122.85 878.839 462.234
898 0 77.0803 12.6232 973 124.244 880.126 463.699
899 0 80.2372 14.6565 1176 121.709 880.229 459.569
900 0 84.2614 11.9746 1009 126.5 880.928 454.085
901 0 86.2677 13.0408 1125 126.127 880.248 454.081
902 0 88.1404 13.8189 1218 124.57 881.796 454.197
903 0 88.1404 13.7735 1214 128.092 883.797 454.094
904 0 88.1404 13.8302 1219 127.412 885.799 454.052
905 0 92.1515 10.8517 1000 129.235 880.933 457.658
906 0 92.2256 12.8598 1186 126.544 880.724 458.099
907 1 55.3172 12.2566 678 120.206 880.478 480.777
908 0 55.1568 9.97158 550 124.827 880.113 480.653
909 0 57.1427 13.7375 785 119.884 880.404 480.718
910 0 60.1455 9.24426 556 125.203 878.957 484.793
911 0 61.2618 10.3817 636 123.277 879.134 478.733
912 0 66.2496 13.4793 893 116.634 878.383 477.765
913 0 66.2496 13.5095 895 128.08 877.4 477.639
914 0 71.2642 13.4991 962 118.726 877.911 477.772
915 0 72.3498 11.8729 859 121.882 876.522 473.878
916 0 76.3363 13.9514 1065 118.155 876.73 473.869
917 0 74.2418 11.0181 818 124.205 875.401 469.946
918 0 84.3093 13.1065 1105 118.391 873.726 471.686
919 0 81.3018 12.4721 1014 120.681 875.406 469.063
920 0 88.3553 14.3738 1270 115.969 873.998 464.675
921 0 88.3568 13.0494 1153 119.108 875.445 463.924
922 0 92.2705 10.0682 929 123.889 873.493 461.65
923 0 96.3891 14.8668 1433 115.442 873.812 461.742
924 1 51.2134 12.6334 647 123.249 873.314 483.781
925 0 54.1746 14.2687 773 107.56 874.364 483.533
926 0 54.1746 14.1764 768 114.051 874.333 483.531
927 0 57.1588 11.9667 684 113.393 873.118 480.494
928 0 58.1246 11.6474 677 113.787 873.804 479.954
929 0 57.3297 9.99482 573 117.735 874.538 475.894
930 0 61.1089 10.604 648 116.727 874.046 473.437
931 0 61.1654 9.74406 596 118.394 875.279 472.772
932 0 65.1356 10.3476 674 116.214 874.662 472.334
933 0 66.0513 9.68944 640 118.725 875.33 468.559
934 0 68.2506 13.8607 946 112.592 875.297 466.64
935 0 72.2061 11.758 849 115.713 876.42 463.952
936 0 71.1737 11.5492 822 117.12 877.013 462.668
937 0 71.1737 11.6476 829 128.735 877.028 462.742
938 0 78.2675 15.1148 1183 112.483 877.955 460.861
939 0 81.1688 11.0141 894 119.463 879.621 464.204
940 0 83.1493 14.2274 1183 114.876 878.761 464.252
941 0 81.2914 13.2609 1078 119.548 879.332 459.551
942 0 83.4567 12.3178 1028 122.796 880.918 457.144
943 0 89.3277 12.9411 1156 121.164 881.698 455.409
944 0 92.3752 12.5791 1162 121.676 881.229 454.176
945 0 94.3986 10.1061 954 124.735 881.835 460.799
946 1 48.2248 8.75069 422 123.355 881.116 478.012
947 0 52.1366 11.2205 585 117.072 882.103 481.691
948 0 53.2105 12.1968 649 115.807 882.582 480.504
949 0 54.1692 12.1287 657 117.125 882.119 480.953
950 0 56.1351 11.882 667 118.793 881.97 481.561
951 0 59.0785 13.1351 776 115.33 880.428 481.068
952 0 61.0927 13.1276 802 116.409 880.67 480.892
953 0 60.1382 12.3881 745 119.013 879.05 482.681
954 0 61.0656 11.9544 730 120.715 879.745 477.941
955 0 65.3085 13.2142 863 117.009 879.1 483.484
956 0 70.0867 14.4963 1016 115.563 877.943 477.892
957 0 70.103 14.3503 1006 117.455 877.419 474.225
958 0 73.1829 13.5278 990 119.48 876.288 475.485
959 0 74.1242 13.275 984 120.209 876.423 476.567
960 0 76.139 13.0813 996 121.331 874.44 473.487
961 0 79.0729 14.3412 1134 119.381 874.576 471.961
962 0 82.1418 13.7202 1127 120.967 872.6 470.572
963 0 81.1142 13.857 1124 122.156 874.927 469.027
964 0 80.1663 13.2475 1062 124.359 873.132 468.797
965 0 87.13 14.4038 1255 122.429 872.696 466.483
966 0 89.2978 15.1964 1357 122.505 873.517 461.081
967 0 91.1646 13.1959 1203 125.622 873.915 467.579
968 0 97.1932 16.4518 1599 119.245 873.456 463.828
969 0 100.208 14.9988 1503 124.271 873.512 457.603
970 0 101.36 13.901 1409 127.788 872.835 453.981
971 1 56.0482 13.1494 737 123.45 873.798 482.551
972 0 58.1509 11.2466 654 125.881 872.373 474.442
973 0 56.2354 14.0125 788 123.931 875.038 472.486
974 0 59.1535 12.9494 766 126.897 874.744 468.582
975 0 64.0574 16.7974 1076 116.041 875.502 474.719
976 0 63.0723 14.0157 884 125.903 874.837 468.989
977 0 66.1011 14.9165 986 122.223 876.154 468.368
978 0 66.1059 11.8598 784 127.251 877.071 468.3
979 0 71.1652 14.7544 1050 122.204 878.013 462.932
980 0 74.1926 13.8558 1028 121.773 877.985 463.61
981 0 76.3215 16.4698 1257 119.097 879.16 458.113
982 0 80.1271 15.8748 1272 118.178 879.002 457.709
983 0 83.4422 15.292 1276 118.947 879.156 456.487
984 0 83.3398 14.0029 1167 121.492 880.269 459.238
985 0 88.1274 19.1427 1687 113.379 880.963 457.357
986 0 88.2444 11.9101 1051 125.083 881.242 454.531
987 0 93.2998 15.0804 1407 121.127 881.171 453.519
988 0 96.6287 13.3294 1288 123.523 880.911 451.667
989 0 98.1193 15.1244 1484 125.576 881.898 446.727
990 1 55.2022 10.4887 579 126.411 881.862 475.96
991 0 58.052 11.6447 676 125.29 880.769 475.527
992 0 60.0469 14.472 869 117.641 880.602 476.723
993 0 60.2086 11.9418 719 121.506 880.273 475.216
994 0 64.0723 12.8917 826 119.194 880.536 476.782
995 0 64.1327 10.6342 682 120.676 881.191 481.116
996 0 68.187 13.8883 947 119.458 878.968 471.394
997 0 70.222 16.7754 1178 113.025 878.643 475.001
998 0 75.2261 14.7821 1112 116.306 879.648 472.229
999 0 78.4037 14.2978 1121 117.533 879.647 473.961
1000 0 79.3756 13.1779 1046 121.476 878.015 468.555
1001 0 80.3504 12.5326 1007 122.606 875.969 467.189
1002 1 46.1691 9.98503 461 124.503 876.692 482.846
1003 0 46.1691 10.0283 463 157.482 876.706 482.909
1004 0 51.3213 12.6458 649 119.012 875.76 481.22
1005 0 50.0535 11.208 561 121.578 874.068 477.294
1006 0 50.1239 9.97527 500 124.156 874.928 474.958
1007 0 52.0803 11.5591 602 122.169 874.684 471.184
1008 0 57.0212 14.7489 841 114.036 873.778 470.554
1009 0 57.0379 11.2732 643 120.53 871.879 471.596
1010 0 56.0332 11.404 639 138.105 869.864 471.399
1011 0 57.0709 11.1616 637 122.898 873.488 468.542
1012 0 61.0552 15.4614 944 115.411 872.141 465.097
1013 0 63.0783 14.7277 929 116.818 871.997 465.589
1014 0 66.0407 12.9011 852 119.197 872.299 463.759
1015 0 67.0294 13.3225 893 118.717 874.106 460.935
1016 0 68.1269 13.0345 888 120.075 875.091 456.743
1017 0 72.3103 14.258 1031 116.42 875.507 462.027
1018 0 75.3292 18.2267 1373 110.546 875.985 457.444
1019 0 77.4176 13.5628 1050 118.738 876.452 454.278
1020 0 78.3143 11.6071 909 122.461 877.008 453.496
1021 0 81.1804 12.2936 998 121.419 877.88 448.714
1022 0 84.221 14.1651 1193 118.538 877.687 451.89
1023 0 85.2381 13.9961 1193 118.94 878.053 449.998
1024 1 46.0934 10.3702 478 119.322 879.192 469.324
1025 0 48.1034 12.2237 588 115.597 879.357 468.068
1026 0 49.1268 9.38387 461 120.688 879.479 464.766
1027 0 52.2161 13.176 688 118.097 879.682 470.903
1028 0 54.1578 12.6298 684 119.944 880.025 468.203
1029 0 56.1326 13.094 735 118.641 880.788 471.162
1030 0 58.1347 13.9676 812 116.655 882.171 470.001
1031 0 58.1347 13.8644 806 124.234 884.17 469.903
1032 0 64.1617 12.8737 826 115.852 881.214 472.69
1033 0 64.1408 13.9849 897 116.535 881.478 466.912
1034 0 69.4216 12.3737 859 120.226 881.527 466.077
1035 0 68.1941 13.1976 900 119.062 881.776 468.769
1036 0 72.1619 12.4304 897 118.433 881.861 469.531
1037 0 70.1659 12.6985 891 132.612 881.871 469.405
1038 0 75.0948 11.9849 900 121.152 881.32 470.366
1039 0 77.1448 11.809 911 121.428 879.695 470.1
1040 0 80.1072 11.4222 915 121.615 879.564 464.317
1041 0 83.2675 13.5347 1127 118.852 880.541 466.189
1042 0 87.2885 12.8997 1126 120.493 879.583 464.929
1043 0 91.1983 13.1801 1202 119.839 878.831 462.368
1044 0 93.3108 12.5173 1168 120.772 878.322 461.724
1045 0 96.228 13.8213 1330 117.334 877.003 463.912
1046 0 99.3335 16.1174 1601 113.59 876.544 464.009
1047 0 102.454 15.8315 1622 113.273 876.903 461.119
1048 0 102.249 14.0832 1440 116.501 875.593 457.579
1049 0 107.435 12.724 1367 118.301 874.638 456.195
1050 0 110.254 11.6731 1287 119.485 874.563 455.646
1051 1 60.1048 10.5316 633 114.954 873.126 480.551
1052 0 63.1059 10.5695 667 116.678 874.142 472.921
1053 0 68.4333 12.304 842 114.537 873.433 470.473
1054 0 69.1833 14.5555 1007 113.375 872.558 469.038
1055 0 71.1971 11.5454 822 118.074 873.253 472.611
1056 0 72.2101 11.7574 849 119.007 873.062 469.049
1057 0 75.1311 13.1503 988 117.147 872.286 466.278
1058 0 78.3948 12.4115 973 118.59 872.631 461.424
1059 0 79.1379 14.4052 1140 113.181 873.922 463.118
1060 0 82.3943 11.2022 923 118.884 874.173 457.581
1061 0 86.1042 17.7924 1532 109.05 875.657 459.753
1062 0 87.4267 13.3483 1167 116.772 875.627 457.757
1063 0 91.2266 13.5706 1238 116.901 876.103 459.048
1064 0 95.3075 14.2486 1358 115.862 875.686 456.686
1065 0 93.3103 14.4143 1345 136.723 875.709 455.291
1066 0 98.4138 12.5694 1237 119.745 876.477 450.625
1067 0 102.479 14.0419 1439 117.983 877.92 448.828
1068 0 106.366 14.3279 1524 118.198 877.904 444.682
1069 1 58.6354 11.1196 652 114.546 879.621 476.859
1070 0 58.5758 11.1309 652 126.933 881.59 476.969
1071 0 58.5139 10.7838 631 120.092 880.412 468.632
1072 0 63.5629 11.0756 704 117.04 880.646 474.21
1073 0 68.4147 16.8823 1155 109.316 880.707 473.515
1074 0 67.1602 12.8648 864 116.618 880.666 472.881
1075 0 69.2657 11.6652 808 118.897 882.006 471.692
1076 0 74.207 13.7858 1023 116.053 880.995 467.079
1077 0 75.6176 12.6426 956 117.978 880.113 464.515
1078 0 76.6231 12.7768 979 121.247 879.131 464.639
1079 0 79.498 11.9626 951 118.92 880.258 466.53
1080 0 78.3088 8.6708 679 124.047 881.218 461.92
1081 0 88.4555 14.414 1275 113.475 879.179 465.553
1082 0 92.3133 14.1258 1304 113.048 880.375 466.706
1083 0 93.3022 14.9085 1391 112.459 878.832 464.047
1084 0 95.5215 12.6673 1210 116.413 879.551 463.232
1085 0 98.5412 13.8318 1363 114.96 878.908 464.665
1086 0 105.689 14.8549 1570 112.546 878.494 466.03
1087 0 107.743 13.6622 1472 116.745 877.201 457.128
1088 0 107.438 13.7102 1473 116.629 878.411 455.54
1089 1 57.3199 9.36848 537 117.832 876.177 483.047
1090 0 58.3563 13.1948 770 108.847 875.862 484.365
1091 0 58.3509 8.56885 500 114.9 875.086 481.274
1092 0 60.0995 11.2647 677 115.999 873.829 477.155
1093 0 67.2635 15.0602 1013 107.793 873.379 480.865
1094 0 64.3439 12.2001 785 114.282 872.763 474.899
1095 0 68.1051 12.9212 880 111.372 872.323 478.367
1096 0 70.1156 12.7646 895 112.578 872.663 476.276
1097 0 71.1396 11.9624 851 114.94 871.808 471.2
1098 0 76.1005 12.3784 942 113.65 871.857 471.58
1099 0 77.1229 13.2516 1022 112.369 871.701 470.219
1100 0 78.1175 11.8539 926 115.301 873.319 467.032
1101 0 80.0678 11.3529 909 116.075 872.448 464.545
1102 0 85.4821 15.1026 1291 111.768 873.898 456.382
1103 0 88.7496 15.8536 1407 110.938 874.514 455.604
1104 0 90.5112 14.4844 1311 113.159 873.527 459.192
1105 0 93.4176 15.4682 1445 112.284 875.432 453.682
1106 0 97.7798 15.7906 1544 112.228 874.361 448.749
1107 1 54.3447 15.3649 835 109.31 875.865 471.713
1108 0 58.5453 12.042 705 113.858 875.179 470.538
1109 0 56.066 16.0882 902 109.324 877.387 469.537
1110 0 60.2128 14.3989 867 109.51 878.14 470.937
1111 0 63.0912 12.6642 799 113.546 878.395 468.327
1112 0 64.1263 13.1771 845 113.199 877.737 462.215
1113 0 69.0888 13.8807 959 110.263 878.457 469.809
1114 0 70.1937 13.0781 918 112.06 877.857 467.367
1115 0 72.1333 12.2551 884 113.965 879.069 465.43
1116 0 75.2111 16.4736 1239 106.789 879.588 467.574
1117 0 74.0609 12.2332 906 115.377 880.095 463.838
1118 0 75.1812 12.6361 950 115.336 878.332 464.006
1119 0 80.2702 14.5384 1167 110.334 879.077 463.139
1120 0 83.3456 14.1459 1179 113.449 879.874 456.632
1121 0 83.3743 14.0091 1168 114.434 879.14 457.029
1122 1 159.541 12.7742 2038 119.709 880.053 427.742
1123 1 90.3156 13.9622 1261 115.967 879.423 456.807
1124 0 89.5346 13.2239 1184 117.951 878.384 459.693
1125 0 97.1977 11.8624 1153 120.613 878.793 457.707
1126 1 53.3103 8.17854 436 121.314 877.906 480.493
1127 0 53.2313 11.5158 613 119.16 877.294 479.354
1128 0 55.1049 11.6505 642 119.151 877.112 482.181
1129 0 51.1574 8.42498 431 124.086 876.974 480.914
1130 1 68.1224 6.16537 420 123.714 875.026 485.1
1131 0 69.1688 8.03831 556 127.667 874.034 481.703
1132 0 62.2875 12.2015 760 119.499 874.528 477.772
1133 0 58.1398 10.1651 591 124.533 872.496 471.633
1134 1 70.1148 11.4954 806 120.416 874.032 479.34
1135 0 73.1558 11.8241 865 125.105 872.673 474.758
1136 0 74.204 11.6975 868 124.301 872.357 471.589
1137 0 78.4549 15.0532 1181 118.413 871.372 470.481
1138 0 81.3337 14.9753 1218 118.862 871.491 467.319
1139 0 83.2803 13.5446 1128 121.168 870.778 466.509
1140 0 86.1911 13.4353 1158 122.465 871.815 463.079
1141 0 86.1911 13.4701 1161 133.86 872.823 463.086
1142 0 91.2597 13.6643 1247 120.419 871.615 466.053
1143 0 93.4071 14.1745 1324 121.088 871.532 461.35
1144 0 97.3112 14.0272 1365 123.791 871.458 456.216
1145 1 54.2251 11.3232 614 124.577 871.562 474.406
1146 0 52.0826 6.60489 344 129.064 871.756 474.302
1147 0 55.2635 11.8704 656 121.527 873.02 470.614
1148 0 58.0985 13.1501 764 116.94 873.53 467.03
1149 0 59.1423 12.1909 721 119.035 872.322 463.046
1150 0 61.0762 12.0178 734 120.642 873.304 469.436
1151 0 65.1532 12.0332 784 120.028 874.145 468.338
1152 0 67.3009 12.7041 855 117.766 875.522 467.642
1153 0 69.3993 14.8705 1032 112.543 878.034 465.34
1154 0 73.2702 14.7945 1084 113.244 877.54 464.056
1155 0 74.1531 13.0541 968 117.324 879.338 464.094
1156 0 78.3951 16.4806 1292 112.721 879.05 462.956
1157 0 80.0812 16.708 1338 111.444 878.532 466.023
1158 0 82.2801 16.1278 1327 113.67 879.122 462.093
1159 0 86.2648 14.9771 1292 115.615 880.269 461.818
1160 0 89.4415 14.6353 1309 117.547 881.634 462.398
1161 0 91.447 12.9911 1188 121.338 880.785 454.664
1162 0 92.452 14.0073 1295 120.185 881.922 459.312
1163 0 98.5207 16.3925 1615 115.188 881.453 461.319
1164 1 56.0549 10.347 580 117.343 883.326 482.524
1165 0 55.1129 8.89083 490 124.078 882.059 479.198
1166 0 60.3929 13.3791 808 115.833 880.027 482.11
1167 0 60.2519 11.8668 715 120.617 879.81 477.731
1168 0 59.112 11.0299 652 123.745 878.521 478.822
1169 0 66.1422 13.1988 873 115.134 878.428 482.978
1170 0 68.1323 12.1528 828 118.059 878.345 480.857
1171 0 68.0833 13.7185 934 117.541 876.221 475.349
1172 0 71.2147 12.8064 912 118.27 876.669 478.684
1173 0 74.1948 11.8472 879 121.388 875.207 474.548
1174 0 74.1948 11.9011 883 139.072 873.23 474.614
1175 0 75.1625 11.1226 836 123.086 873.911 471.209
1176 0 80.0984 11.773 943 119.809 873.667 478.276
1177 0 80.2045 12.6926 1018 119.751 872.086 475.968
1178 0 82.1826 12.3262 1013 121.617 871.765 469.043
1179 0 84.0938 15.6849 1319 116.277 872.658 465.728
1180 0 86.1373 14.117 1216 119.885 872.104 461.719
1181 0 88.1593 16.1412 1423 115.655 872.361 468.737
1182 0 90.1144 12.8614 1159 122.291 871.422 459.024
1183 0 95.1441 13.1905 1255 120.905 871.158 462.682
1184 0 98.1635 15.6779 1539 117.695 871.477 459.695
1185 0 101.302 12.2012 1236 126.081 871.287 457.138
1186 1 57.0394 9.62492 549 123.927 871.095 479.889
1187 0 56.0884 10.5904 594 124.372 870.167 475.943
1188 0 60.1464 12.2036 734 121.932 871.362 472.144
1189 0 60.3329 9.29841 561 125.554 874.319 475.476
1190 0 63.1385 14.1435 893 119.927 872.704 472.535
1191 0 66.1057 13.7507 909 120.342 871.727 470.901
1192 0 66.0299 11.8128 780 125.541 872.926 466.385
1193 0 69.173 12.5049 865 123.687 873.161 466.31
1194 0 71.1824 14.9475 1064 119.041 873.425 465.758
1195 0 72.0958 13.6346 983 122.243 876.596 465.153
1196 0 75.3217 11.9886 903 126.77 875.818 458.377
1197 0 78.2923 12.9259 1012 124.946 876.627 462.309
1198 0 81.2019 12.1918 990 125.599 877.447 464.089
1199 0 83.1294 13.4008 1114 125.416 877.093 460.149
1200 0 86.0975 11.8935 1024 126.842 879.023 460.821
1201 0 90.0949 13.0085 1172 124.222 879.276 458.764
1202 0 91.1606 13.0649 1191 124.51 879.874 458.371
1203 0 96.1161 11.9647 1150 127.377 879.288 454.157
1204 1 51.1334 11.8905 608 118.184 881.668 481.952
1205 0 51.1334 11.8905 608 128.23 882.653 481.883
1206 0 50.0772 12.6005 631 117.7 880.523 483.815
1207 0 51.1482 10.2838 526 122.226 881.194 482.348
1208 0 53.0621 11.0248 585 122.207 880.581 481.662
1209 0 56.1926 12.4749 701 119.338 880.285 481.359
1210 0 58.079 10.8645 631 119.384 879.051 488.333
1211 0 58.079 10.8301 629 121.192 877.068 488.331
1212 0 60.0739 12.3681 743 118.948 879.23 485.067
1213 0 67.0966 14.2928 959 113.578 878.687 484.883
1214 0 64.2118 11.758 755 120.262 877.84 480.436
1215 0 68.165 11.1201 758 120.058 878.075 481.769
1216 0 68.134 12.4167 846 119.348 876.78 479.143
1217 0 71.106 13.0088 925 118.597 875.44 479.696
1218 0 71.1361 14.887 1059 115.835 875.501 476.295
1219 0 72.2007 10.4154 752 123.391 875.399 472.948
1220 0 77.2518 12.8541 993 119.108 874.046 475.535
1221 0 78.2081 11.1242 870 122.751 874.606 476.369
1222 0 80.24 11.9766 961 121.281 872.537 471.867
1223 0 83.3028 15.0655 1255 117.13 874.182 469.955
1224 0 85.1636 11.3076 963 124.487 873.29 466.826
1225 0 88.1984 13.4583 1187 120.623 872.286 463.762
1226 0 91.3972 14.6503 1339 117.462 872.146 462.31
1227 0 93.2824 12.6069 1176 121.544 873.445 461.993
1228 1 47.1121 10.6342 501 120.465 872.461 481.768
1229 0 50.0765 7.84799 393 125.931 871.56 482.081
1230 0 53.1681 14.1814 754 117.686 873.317 477.627
1231 0 54.2053 14.4082 781 108.759 874.351 478.147
1232 0 54.2102 14.3884 780 108.431 875.342 478.147
1233 0 58.1981 11.1859 651 126.966 873.445 469.565
1234 0 62.1575 11.9374 742 124.361 873.586 470.608
1235 0 63.1243 12.9902 820 122.615 873.18 466.11
1236 0 62.0441 11.7658 730 126.163 875.047 465.841
1237 0 62.0441 11.7175 727 136.568 877.018 465.853
1238 0 68.3719 11.4667 784 125.861 876.316 460.997
1239 0 73.3584 15.8537 1163 117.715 877.298 459.04
1240 0 73.1111 10.3131 754 129.401 878.808 447.936
1241 0 74.2922 13.2315 983 124.353 878.579 448.839
1242 0 76.0841 15.5617 1184 121.97 879.911 448.093
1243 0 76.2458 12.0794 921 129.769 879.958 448.28
1244 0 77.2247 13.2859 1026 128.827 879.364 448.862
1245 0 80.2671 14.6137 1173 126.579 879.873 451.211
1246 0 79.1687 14.6775 1162 129.275 881.044 453.436
1247 0 83.5103 13.0642 1091 131.134 882.257 459.126
1248 0 84.2954 15.1491 1277 128.52 882.37 458.233
1249 0 85.4121 15.0798 1288 129.875 882.422 460.375
1250 0 84.3219 12.4997 1054 139.406 880.26 456.8
1251 0 87.265 14.2554 1244 135.87 881.763 458.663
1252 0 88.3707 15.3444 1356 134.327 879.892 459.545
1253 0 88.3707 15.2765 1350 147.536 878.88 459.559
1254 0 95.2469 18.3943 1752 129.221 879.564 458.126
1255 0 95.245 15.1294 1441 138.085 880.724 456.635
1256 0 97.3153 14.6842 1429 139.008 880.052 458.835
1257 0 103.333 16.7613 1732 134.333 879.2 456.174
1258 0 105.277 16.6418 1752 135.68 877.97 452.76
1259 0 105.418 14.8837 1569 141.093 876.316 454.727
1260 0 109.195 16.237 1773 138.347 876.458 451.931
1261 0 111.216 15.0339 1672 143.336 876.312 449.858
1262 0 113.247 16.0357 1816 142.038 874.612 447.128
1263 0 113.247 16.0622 1819 159.846 872.617 446.998
1264 0 123.175 16.0585 1978 140.989 874.392 448.177
1265 1 57.2586 13.5002 773 138.374 874.781 474.878
1266 0 59.1145 12.8564 760 139.876 873.149 474.207
1267 0 61.0779 13.0653 798 141.788 871.906 477.198
1268 0 64.0479 14.2706 914 139.635 873.898 476.275
1269 0 64.0479 14.3018 916 147.428 874.888 476.29
1270 0 66.1878 14.0962 933 139.698 873.438 474.482
1271 0 70.1694 14.6788 1030 136.778 871.843 472.033
1272 0 71.0984 14.0369 998 138.338 873.147 469.907
1273 0 74.506 14.576 1086 137.014 872.494 466.508
1274 0 78.2594 15.6531 1225 134.332 873.835 464.839
1275 0 78.1207 13.8632 1083 138.057 873.784 463.604
1276 0 78.1127 13.2245 1033 141.941 873.693 461.067
1277 0 82.2853 13.7449 1131 139.419 873.689 460.565
1278 0 85.1512 14.1513 1205 138.017 873.1 458.695
1279 0 88.0687 13.0353 1148 139.943 875.419 457.956
1280 0 90.6327 15.0608 1365 136.816 875.582 452.832
1281 0 93.1616 14.4695 1348 138.8 877.184 446.889
1282 0 99.09 15.9855 1584 134.585 877.265 442.908
1283 0 97.3202 13.0292 1268 142.535 877.808 442.364
1284 0 105.254 16.2844 1714 133.648 878.703 443.243
1285 1 68.2624 11.866 810 139.76 879.036 463.093
1286 0 70.2123 16.3789 1150 129.097 880.366 463.801
1287 0 71.1013 14.2051 1010 136.566 880.068 458.837
1288 0 75.3125 15.8539 1194 132.92 881.36 458.925
1289 0 75.2714 12.3287 928 141.6 881.248 458.819
1290 0 79.3642 12.8395 1019 140.422 881.519 456.924
1291 0 82.2682 16.4827 1356 132.235 881.757 458.936
1292 0 85.3604 15.3116 1307 135.578 881.616 456.718
1293 0 87.1986 14.5186 1266 137.457 881.182 453.651
1294 0 90.4231 13.3815 1210 139.122 881.261 455.547
1295 0 94.4664 14.9789 1415 137.205 880.775 455.546
1296 0 94.4664 14.9471 1412 140.562 880.759 455.511
1297 0 103.408 15.1728 1569 137.644 880.33 454.5
1298 1 51.0398 7.95458 406 149.143 878.675 476.017
1299 0 58.3131 10.5808 617 142.682 880.658 477.41
1300 0 60.3515 13.0568 788 137.03 878.511 477.334
1301 0 62.2873 14.096 878 136.38 877.919 478.69
1302 0 67.113 12.9483 869 137.709 877.238 478.751
1303 0 69.2147 14.7512 1021 132.059 875.629 477.643
1304 0 72.2307 14.5921 1054 131.018 876.049 476.132
1305 0 74.4193 14.4989 1079 132.798 875.02 473.766
1306 0 72.5243 12.8509 932 137.036 874.033 469.3
1307 0 75.1459 14.2523 1071 133.33 873.986 468.856
1308 0 85.285 14.8678 1268 132.382 871.093 462.526
1309 0 86.1764 12.7645 1100 137.362 870.527 455.909
1310 0 93.4604 15.1615 1417 129.524 870.872 454.584
1311 0 94.3484 15.6336 1475 128.25 871.581 455.067
1312 0 96.4213 15.9094 1534 129.174 871.464 451.207
1313 1 54.1792 10.6129 575 132.99 870.635 470.122
1314 0 56.2203 10.4766 589 133.178 872.073 468.01
1315 0 60.2713 12.5433 756 127.503 871.582 467.731
1316 0 63.1395 11.8943 751 127.848 872.807 473.87
1317 0 65.1073 11.842 771 128.986 871.667 469.357
1318 0 67.1913 10.4329 701 130.24 872.819 470.331
1319 0 69.1201 11.7187 810 130.46 873.195 465.472
1320 0 72.2917 12.0346 870 129.521 874.439 462.625
1321 0 74.2095 14.0413 1042 125.994 874.944 460.03
1322 0 74.2095 14.0817 1045 138.125 874.938 460.029
1323 0 79.1007 12.7685 1010 125.173 875.337 462.906
1324 0 80.2056 11.2461 902 131.238 877.803 454.494
1325 0 82.3194 11.0788 912 131.967 878.721 454.836
1326 0 87.459 15.2643 1335 123.259 878.403 456.228
1327 0 91.4192 14.9859 1370 123.126 879.547 455.481
1328 0 92.3148 11.8724 1096 130.31 880.572 452.835
1329 0 95.387 12.8948 1230 128.142 879.516 455.215
1330 0 99.3006 13.2527 1316 127.124 880.299 453.661
1331 0 100.358 10.4824 1052 130.721 880.083 449.262
1332 1 57.252 10.2354 586 125.157 880.326 466.742
1333 0 57.1055 8.5631 489 128.663 878.483 465.313
1334 0 57.1278 8.59476 491 131.841 876.499 465.346
1335 0 62.1893 12.9283 804 121.854 880.031 469.065
1336 0 64.191 12.9457 831 133.712 884.078 469.513
1337 0 67.2257 13.8489 931 120.944 880.307 467.215
1338 0 67.3161 10.577 712 125.053 879.916 473.084
1339 0 71.227 11.2879 804 124.708 879.649 465.802
1340 0 72.0832 11.1538 804 124.991 878.51 467.257
1341 0 74.2016 12.1965 905 123.969 877.583 464.463
1342 0 76.0369 14.4272 1097 123.503 877.521 471.237
1343 0 82.1074 13.6041 1117 123.432 876.027 469.402
1344 0 85.1289 12.6044 1073 126.193 876.207 465.086
1345 0 90.1446 16.0964 1451 118.691 874.02 466.731
1346 0 89.1651 13.0096 1160 125.539 874.858 464.397
1347 0 90.1461 10.6716 962 130.951 873.225 459.351
1348 1 57.1143 10.8554 620 123.237 874.39 484.027
1349 0 57.1185 12.2377 699 128.133 875.489 485.07
1350 0 56.1366 11.7392 659 122.156 873.417 481.103
1351 0 60.1092 10.5308 633 123.809 872.747 478.746
1352 0 60.275 11.265 679 124.429 872.169 477.813
1353 0 61.224 10.3391 633 127.648 872.354 473.755
1354 0 63.1849 11.6325 735 126.77 871.918 471.835
1355 0 67.2585 10.0359 675 127.764 872.311 467.64
1356 0 67.2342 10.575 711 127.684 871.807 470.353
1357 0 72.3068 14.1066 1020 120.592 873.112 466.793
1358 0 75.41 13.0619 985 122.676 872.115 464.272
1359 0 77.3677 12.6151 976 124.69 871.562 463.958
1360 0 75.3457 11.9184 898 121.45 871.538 462.504
1361 0 79.1739 9.9654 789 125.901 873.28 461.373
1362 0 85.3379 12.1869 1040 120.85 873.765 461.375
1363 0 86.5188 12.1823 1054 121.12 874.637 462.843
1364 0 91.353 12.4243 1135 121.137 876.235 454.517
1365 0 93.3129 12.8707 1201 121.676 875.835 450.445
1366 0 97.5094 12.6449 1233 120.539 877.721 449.884
1367 0 97.5094 12.6244 1231 133.276 880.732 450.002
1368 1 57.3124 11.7427 673 116.527 877.394 468.673
1369 0 60.2182 11.5746 697 116.304 878.773 472.535
1370 0 60.0941 15.2927 919 111.746 879.4 468.587
1371 0 60.0918 15.2933 919 114.366 879.4 468.587
1372 0 62.0773 9.84257 611 119.239 880.645 469.635
1373 0 67.2161 10.7415 722 119.45 879.328 469.03
1374 0 70.1228 9.75432 684 122.68 880.582 468.775
1375 0 68.0492 11.3594 773 121.569 879.351 463.908
1376 0 76.1421 11.4391 871 117.881 880.417 473.14
1377 0 76.1079 13.1655 1002 116.572 879.987 464.967
1378 0 80.1045 12.1092 970 117.019 880.468 470.17
1379 0 77.1314 11.0331 851 121.751 879.873 463.591
1380 0 79.172 10.5088 832 122.471 880.725 461.44
1381 1 94.4263 17.9823 1698 106.385 880.168 469.897
1382 0 91.6431 10.5627 968 120.896 879.574 462.02
1383 0 93.5542 11.2448 1052 119.637 878.753 464.588
1384 0 95.4606 9.34417 892 123.232 878.25 457.543
1385 0 102.72 12.8796 1323 116.848 877.113 459.562
1386 0 103.391 13.0282 1347 115.799 875.726 463.878
1387 0 106.396 9.47408 1008 120.49 874.013 464.359
1388 1 61.2433 6.43336 394 120.175 874.401 482.569
1389 0 66.436 10.3408 687 114.675 873.195 481.856
1390 0 65.3376 9.67283 632 119.201 872.796 472.69
1391 0 65.1689 10.0048 652 118.118 872.532 470.825
1392 0 71.16 11.9027 847 113.45 872.881 476.71
1393 0 73.3965 12.8344 942 112.857 873.171 469.393
1394 0 75.2543 13.554 1020 112.527 872.799 473.454
1395 0 77.2789 11.465 886 116.88 871.763 472.442
1396 0 72.4261 10.093 731 121.369 873.312 462.637
1397 0 79.4751 13.2243 1051 117.016 871.316 458.731
1398 0 86.2227 14.8337 1279 113.439 871.192 458.574
1399 0 85.3939 17.5188 1496 110.717 870.965 454.232
1400 0 86.1171 15.1073 1301 114.478 871.439 454.957
1401 0 91.1415 12.8152 1168 119.171 871.538 448.338
1402 0 94.2061 13.7146 1292 118.782 872.026 444.721
1403 0 96.13 13.2217 1271 118.806 871.618 442.928
1404 0 99.1981 12.4297 1233 119.62 872.285 446.122
1405 1 53.0749 7.91335 420 121.974 872.45 463.138
1406 0 58.0589 11.54 670 115.333 873.985 464.773
1407 0 58.2248 9.73812 567 119.397 874.896 462.356
1408 0 59.1251 11.7717 696 116.875 876.573 461.721
1409 0 63.1816 11.2691 712 116.176 876.815 463.358
1410 0 61.1158 11.65 712 118.927 876.327 458.083
1411 0 65.1798 9.55818 623 121.109 877.693 462.878
1412 0 66.0998 11.5885 766 119.257 876.624 457.296
1413 0 71.1167 12.3459 878 118.977 876.978 466.598
1414 0 74.1108 14.8831 1103 115.796 878.172 465.31
1415 0 76.2253 13.3814 1020 118.777 879.458 462.598
1416 0 78.0974 13.2527 1035 119.125 879.229 463.471
1417 0 79.1466 12.9127 1022 120.034 879.393 461.892
1418 0 84.1768 15.9901 1346 112.993 880.43 467.62
1419 0 87.1292 17.0207 1483 112.537 880.081 461.201
1420 0 87.0788 13.6773 1191 119.815 880.694 460.941
1421 0 94.4978 15.7781 1491 115.369 880.471 462.137
1422 1 53.0857 16.2756 864 107.027 879.51 485.009
1423 0 54.2218 14.5882 791 113.028 878.713 483.198
1424 0 55.0313 10.2305 563 118.835 880.311 483.861
1425 0 57.0342 13.1675 751 110.361 878.858 480.846
1426 0 57.1185 11.765 672 115.591 879.988 483.653
1427 0 62.2457 10.4264 649 115.724 877.891 480.672
1428 0 57.2313 13.0523 747 114.652 878.837 477.681
1429 0 61.0975 12.4555 761 115.424 877.289 475
1430 0 62.0794 11.0826 688 116.414 876.131 476.395
1431 0 69.0401 9.76244 674 117.218 874.522 471.022
1432 0 72.2356 12.2931 888 113.038 874.314 471.439
1433 0 74.1455 12.3946 919 113.767 872.855 471.465
1434 0 77.1453 14.3884 1110 110.369 874.067 471.818
1435 0 75.0845 14.4504 1085 113.723 871.994 465.141
1436 0 80.2648 14.8758 1194 113.889 872.95 464.998
1437 0 80.1181 13.1805 1056 115.769 871.869 464.701
1438 0 80.1128 13.2813 1064 110.469 870.875 464.623
1439 0 89.2163 13.0245 1162 116.535 871.523 458.922
1440 0 91.2983 17.7002 1616 108.748 870.099 462.264
1441 0 95.0841 13.9455 1326 115.324 869.518 454.232
1442 0 99.1214 13.7407 1362 115.348 871.498 452.068
1443 0 98.1606 10.7986 1060 121.4 870.929 449.668
1444 0 102.287 13.3839 1369 117.589 871.657 445.493
1445 0 107.323 12.1782 1307 118.613 871.816 446.831
1446 1 61.405 9.99918 614 116.484 872.523 470.819
1447 0 63.3517 13.6224 863 111.592 872.176 468.474
1448 0 62.3795 14.508 905 114.125 874.878 462.445
1449 0 65.1449 11.7738 767 116.248 873.992 457.613
1450 0 66.0816 13.1201 867 112.907 874.3 458.836
1451 0 66.1541 10.6116 702 118.577 876.538 456.829
1452 0 66.1541 10.6418 704 145.324 878.555 456.952
1453 0 73.1509 10.1981 746 119.263 877.889 457.842
1454 0 77.276 14.9076 1152 111.689 877.188 458.291
1455 0 77.276 14.8817 1150 133.482 875.177 458.19
1456 0 81.346 12.6865 1032 117.167 879.604 456.821
1457 0 83.3372 14.3873 1199 115.665 879.607 453.219
1458 0 86.192 12.8202 1105 118.097 879.964 454.054
1459 0 90.1443 13.2454 1194 115.647 880.884 452.808
1460 0 92.3061 17.6586 1630 108.574 880.752 456.465
1461 0 95.2817 13.9376 1328 117.566 880.628 450.282
1462 0 97.2673 13.6428 1327 118.292 881.833 447.83
1463 0 97.2077 11.4188 1110 123.205 880.629 451.142
1464 0 100.255 12.4682 1250 121.277 880.622 453.67
1465 0 105.127 13.1841 1386 121.467 880.298 457.475
1466 0 111.346 16.4711 1834 115.257 879.053 454.347
1467 0 112.225 12.6442 1419 122.743 879.999 449.918
1468 0 118.396 16.0394 1899 115.887 879.351 449.649
1469 1 63.1658 7.45656 471 125.907 878.507 477.397
1470 0 67.0999 14.158 950 114.654 878.184 478.979
1471 0 64.2525 10.1163 650 122.105 878.528 477.177
1472 0 75.4268 14.5572 1098 113.874 875.637 474.66
1473 0 75.1294 12.4452 935 118.429 875.044 472.026
1474 0 76.1159 11.719 892 119.504 873.437 465.318
1475 0 78.1391 13.8087 1079 116.474 874.171 464.067
1476 0 84.4009 14.834 1252 116.181 874.873 468.399
1477 0 83.3206 13.034 1086 117.36 873.011 472.244
1478 0 87.3125 12.8504 1122 120.239 872.455 463.857
1479 0 89.3913 9.06128 810 125.883 871.427 463.422
1480 0 93.3015 9.9784 931 123.882 871.669 461.726
1481 0 99.2777 15.0688 1496 116.2 871.193 456.371
1482 0 102.386 13.8398 1417 117.493 871.84 453.841
1483 0 103.186 10.3018 1063 123.749 870.957 449.924
1484 1 58.1589 10.3338 601 115.839 872.451 477.278
1485 0 56.0951 9.96522 559 118.83 871.658 464.098
1486 0 56.1187 10.8698 610 118.064 871.225 465.162
1487 0 62.1511 11.7777 732 116.518 870.276 466.62
1488 0 68.2511 14.7397 1006 109.398 872.525 470.636
1489 0 65.1716 11.7843 768 116.71 871.982 464.556
1490 0 67.1422 9.15966 615 120.977 873.049 463.367
1491 0 72.2585 14.1713 1024 111.369 873.752 463.972
1492 0 76.2107 13.3446 1017 111.485 873.482 464.338
1493 0 78.2077 13.0678 1022 113.394 874.83 460.035
1494 0 82.3573 12.6522 1042 113.536 874.835 456.702
1495 0 84.2207 13.5834 1144 110.788 876.118 461.308
1496 0 84.2207 13.524 1139 129.646 877.104 461.309
1497 0 86.2269 12.9078 1113 113.78 877.608 450.39
1498 0 93.2864 19.3597 1806 102.975 878.33 455.586
1499 0 94.315 13.9957 1320 111.184 878.858 455.223
1500 0 97.329 14.0246 1365 111.359 880.196 450.785
1501 0 97.164 14.3572 1395 110.849 879.166 447.104
1502 0 101.134 17.9167 1812 105.128 880.291 447.842
1503 0 103.224 12.3034 1270 114.005 879.758 445.009
1504 0 107.122 13.9374 1493 110.986 879.674 442.879
1505 0 107.122 14.0214 1502 131.498 880.682 442.931
1506 0 112.193 14.3324 1608 110.46 880.867 443.794
1507 0 111.367 12.8854 1435 112.786 881.897 442.999
1508 0 118.799 16.4059 1949 107.287 880.613 443.485
1509 0 124.336 11.8308 1471 114.427 881.048 443.643
1510 0 128.381 13.8183 1774 111.651 879.365 438.07
1511 0 135.218 13.9922 1892 112.066 881.04 434.121
1512 0 140.311 15.5868 2187 109.068 880.221 435.783
1513 1 77.3351 15.1548 1172 107.471 878.696 473.259
1514 0 79.2031 12.7394 1009 113.149 877.812 469.611
1515 0 84.3117 10.5323 888 115.706 877.759 469.135
1516 0 85.107 13.8414 1178 110.746 876.596 467.556
1517 0 87.1677 11.6901 1019 112.83 876.146 470.598
1518 0 91.0957 14.6769 1337 110.113 874.972 465.456
1519 0 94.3079 15.5236 1464 110.135 873.631 459.067
1520 0 97.5324 14.1081 1376 111.779 873.379 457.711
1521 0 99.4839 14.7763 1470 111.473 872.425 460.296
1522 0 102.484 15.5146 1590 109.599 872.911 459.399
1523 0 104.337 13.9069 1451 112.613 871.75 455.805
1524 0 108.44 13.1501 1426 115.099 872.381 453.874
1525 0 111.406 12.3513 1376 116.924 872.521 441.037
1526 0 116.241 14.2291 1654 114.715 871.672 443.743
1527 0 120.468 16.8261 2027 110.207 872.233 442.778
1528 0 120.468 16.8676 2032 130.189 872.252 442.925
1529 0 129.376 13.4878 1745 115.735 871.891 438.822
1530 0 131.431 14.3725 1889 115.019 870.906 434.252
1531 0 139.441 15.7486 2196 111.276 873.134 439.801
1532 1 73.0564 11.7307 857 114.653 871.995 464.704
1533 0 78.253 14.632 1145 107.866 873.391 467.677
1534 0 79.2246 11.5494 915 115.449 874.003 457.744
1535 0 83.2989 13.0014 1083 113.253 874.535 461.141
1536 0 86.191 14.085 1214 112.616 875.321 456.277
1537 0 88.3829 12.6042 1114 115.274 876.142 457.377
1538 0 89.1711 12.3807 1104 117.312 877.157 457.493
1539 0 95.4112 13.8244 1319 114.791 877.65 456.939
1540 0 99.3889 18.8955 1878 108.227 877.758 455.28
1541 0 102.339 15.3607 1572 114.209 879.275 453.562
1542 0 100.403 17.0214 1709 112.999 880.15 457.027
1543 0 105.38 14.1014 1486 118.435 879.612 452.33
1544 0 108.31 14.8739 1611 118.58 879.875 451.514
1545 0 113.36 20.2364 2294 109.893 880.543 450.809
1546 0 117.423 15.4569 1815 119.512 880.174 446.26
1547 0 120.265 13.9359 1676 123.573 880.159 450.517
1548 0 121.229 15.3923 1866 120.698 879.258 445.601
1549 0 125.18 14.0998 1765 123.389 878.726 446.95
1550 0 132.272 16.6097 2197 118.325 879.33 445.902
1551 0 136.097 17.2156 2343 117.333 879.854 444.203
1552 0 139.14 14.1799 1973 123.055 879.046 439.194
1553 1 78.1659 11.7698 920 122.339 879.153 473.733
1554 0 82.2431 14.0559 1156 118.077 878.185 475.149
1555 0 82.2826 11.8373 974 123.717 877.68 471.957
1556 0 85.2105 11.8765 1012 124.94 876.632 466.426
1557 0 90.2396 16.833 1519 114.66 875.409 468.624
1558 0 93.2687 12.212 1139 122.965 875.321 462.52
1559 0 93.2687 12.1691 1135 148.607 875.326 462.523
1560 0 99.2252 18.3724 1823 112.84 873.967 461.235
1561 0 104.208 15.6706 1633 116.757 872.718 461.475
1562 0 104.243 13.2959 1386 121.405 873.68 459.88
1563 0 108.517 14.9377 1621 119.097 874.609 457.972
1564 0 111.401 14.8473 1654 119.894 873.508 454.127
1565 0 114.452 16.4872 1887 139.773 872.536 457.24
1566 0 114.478 16.5796 1898 138.969 871.535 457.331
1567 0 122.557 12.4676 1528 122.893 871.895 453.062
1568 0 125.4 13.3892 1679 124.029 873.479 445.295
1569 0 131.671 14.3236 1886 121.292 872.586 445.678
1570 0 136.538 15.0581 2056 119.96 873.209 442.677
1571 0 141.459 14.605 2066 122.357 872.091 439.282
1572 0 143.467 16.1849 2322 121.142 871.665 430.548
1573 0 150.507 14.2983 2152 122.428 872.204 434.232
1574 1 83.3817 15.0033 1251 119.656 871.888 456.667
1575 0 84.2523 12.2845 1035 125.558 871.64 454.838
1576 0 89.3995 15.6265 1397 119.259 873.797 453.162
1577 0 91.3325 13.6534 1247 122.215 874.051 453.051
1578 0 94.3642 15.5038 1463 118.271 876.267 454.097
1579 0 94.3642 15.5779 1470 148.132 878.259 454.205
1580 0 100.506 16.9641 1705 116.745 876.347 446.201
1581 0 100.442 16.298 1637 119.394 877.398 444.845
1582 0 104.351 13.4354 1402 124.521 877.748 446.095
1583 0 108.336 15.6088 1691 121.248 878.615 443.605
1584 0 113.319 15.1696 1719 122.927 878.321 444.343
1585 0 113.526 15.2212 1728 123.939 879.369 440.859
1586 0 117.51 13.0712 1536 128.089 879.879 441.533
1587 0 123.288 15.1596 1869 124.399 880.445 440.961
1588 0 125.386 17.0353 2136 122.273 879.882 436.128
1589 0 131.324 16.9124 2221 121.471 880.34 441.921
1590 0 136.209 18.3689 2502 119.434 881.124 438.544
1591 0 141.651 17.3949 2464 120.453 880.457 441.544
1592 0 145.608 18.0209 2624 121.201 880.649 435.772
1593 0 150.297 15.6424 2351 124.899 881.151 437.653
1594 1 78.1295 11.8265 924 127.275 881.239 467.435
1595 0 82.4144 14.4756 1193 122.104 880.16 473.578
1596 0 84.4775 18.206 1538 115.384 880.304 472.884
1597 0 91.324 12.4611 1138 126.589 879.422 468.839
1598 0 90.1997 14.6675 1323 125.09 878.252 464.858
1599 0 93.3642 16.2161 1514 121.812 878.758 466.1
1600 0 96.2943 16.003 1541 122.448 877.149 465.428
1601 0 101.514 16.3721 1662 121.667 875.691 460.461
1602 0 101.345 13.4985 1368 128.659 874.631 461.048
1603 0 101.345 13.5281 1371 158.961 873.645 461.229
1604 0 108.436 13.7685 1493 127.764 873.478 457.673
1605 0 112.496 24.4008 2745 109.703 873.173 457.176
1606 0 115.348 16.1424 1862 123.131 873.496 454.504
1607 0 120.275 16.1297 1940 123.647 873.356 448.647
1608 0 123.353 15.7272 1940 124.443 873.39 446.861
1609 0 128.302 14.3801 1845 126.07 873.027 447.023
1610 0 133.585 16.2443 2170 123.05 871.279 440.39
1611 0 137.493 15.4263 2121 124.343 872.575 437.397
1612 0 137.493 15.4772 2128 138.938 873.564 437.198
1613 1 78.4693 12.2213 959 122.592 872.594 464.502
1614 0 83.2396 13.4551 1120 118.355 871.007 467.172
1615 0 87.5185 15.9052 1392 114.729 872.618 462.153
1616 0 87.3216 14.6012 1275 116.765 871.522 462.703
1617 0 91.4004 14.9343 1365 118.234 872.99 451.91
1618 0 94.5029 12.952 1224 120.553 872.771 454.836
1619 0 96.3907 14.6383 1411 117.067 873.596 453.861
1620 0 101.414 15.0374 1525 116.957 873.747 449.351
1621 0 107.619 14.1517 1523 117.779 875.307 449.272
1622 0 106.496 13.8315 1473 119.587 875.346 444.663
1623 0 111.725 15.7172 1756 116.049 876.777 441.097
1624 0 114.521 13.133 1504 120.515 877.039 440.41
1625 0 117.36 13.5396 1589 119.783 877.554 437.062
1626 0 119.827 13.0772 1567 120.451 877.476 437.535
1627 0 124.57 13.8316 1723 118.887 878.066 432.548
1628 0 130.573 11.036 1441 121.249 879.581 440.73
1629 0 134.626 10.7854 1452 121.805 879.446 443.014
1630 1 76.3724 13.5389 1034 116.487 880.074 461.335
1631 0 84.3583 16.9041 1426 108.635 879.924 461.822
1632 0 87.3133 17.0993 1493 108.928 879.908 456.769
1633 0 84.3075 14.3641 1211 115.883 880.641 459.357
1634 0 85.3667 13.6236 1163 118.151 880.075 462.486
1635 0 87.2383 11.4858 1002 122.601 881.93 463.942
1636 0 93.3496 14.9545 1396 116.249 879.493 461.909
1637 0 93.3201 14.0806 1314 119.266 878.693 457.785
1638 0 99.3211 15.1931 1509 116.554 879.645 461.158
1639 0 99.4465 14.279 1420 119.482 878.918 456.751
1640 0 104.285 16.3303 1703 115.61 879.28 460.487
1641 0 109.208 15.2096 1661 115.87 877.719 464.11
1642 0 106.227 13.8289 1469 122.581 878.514 456.213
1643 0 112.304 15.5292 1744 118.99 877.537 450.393
1644 1 59.1137 15.8847 939 115.894 876.907 481.444
1645 0 60.3716 12.6384 763 121.777 875.494 478.567
1646 0 65.0632 15.0162 977 116.857 873.524 480.968
1647 0 69.078 12.9419 894 120.641 874.182 474.907
1648 0 71.1776 16.8733 1201 113.808 874.095 475.846
1649 0 70.0967 12.7253 892 122.365 873.368 471.078
1650 0 73.1686 14.3367 1049 118.956 873.158 468.033
1651 0 77.1057 14.3958 1110 117.377 872.214 470.622
1652 0 79.2444 14.2345 1128 117.642 871.944 467.723
1653 0 82.2292 13.0732 1075 118.469 871.502 468.012
1654 0 83.1485 12.4235 1033 122.961 871.42 460.751
1655 0 89.2022 14.8987 1329 117.825 872.041 458.804
1656 0 92.2144 18.3919 1696 112.103 871.35 457.906
1657 0 90.1567 13.0772 1179 123.786 871.517 453.588
1658 0 96.1189 15.6681 1506 117.368 871.959 452.352
1659 0 100.258 18.1132 1816 112.649 871.779 453.71
1660 0 102.236 15.9043 1626 117.651 872.545 446.659
1661 0 107.619 16.6606 1793 114.428 874.287 453.328
1662 0 106.174 13.572 1441 122.556 873.857 442.213
1663 0 107.254 17.6683 1895 116.266 874.01 433.761
1664 0 114.224 20.5473 2347 110.596 875.957 437.374
1665 0 114.306 15.3886 1759 119.251 875.474 431.458
1666 0 119.263 17.2224 2054 115.274 876.507 434.247
1667 0 123.401 12.7633 1575 124.564 877.93 431.198
1668 0 128.433 14.8093 1902 120.953 877.971 430.389
1669 0 134.303 16.2022 2176 118.576 877.669 428.809
1670 0 139.288 13.289 1851 122.492 879.619 429.709
1671 1 80.1066 13.3822 1072 121.324 879.07 458.982
1672 0 83.1055 12.43 1033 124.62 880.114 455.023
1673 0 87.138 13.2548 1155 123.425 880.087 454.628
1674 0 92.2325 13.1299 1211 122.958 881.382 455.036
1675 0 93.1988 15.1075 1408 120.957 881.741 453.058
1676 0 96.2282 16.3985 1578 119.247 880.457 451.62
1677 0 99.2456 13.2197 1312 125.002 880.565 453.495
1678 0 101.287 17.1493 1737 118.222 880.95 452.415
1679 0 108.38 16.4606 1784 118.643 880.186 451.409
1680 0 109.285 18.0629 1974 117.347 879.365 446.743
1681 0 112.151 13.5086 1515 125.43 879.374 446.051
1682 0 113.342 14.3725 1629 124.73 878.393 448.702
1683 0 119.269 14.9829 1787 124.213 879.339 442.566
1684 0 123.278 14.1469 1744 125.326 878.724 437.3
1685 0 126.339 15.2368 1925 124.548 877.882 436.778
1686 0 126.339 15.3397 1938 148.274 876.899 436.925
1687 0 135.463 16.558 2243 122.975 876.838 435.623
1688 0 138.387 13.6862 1894 130.035 875.344 433.857
1689 0 141.293 15.1812 2145 128.241 876.598 428.566
1690 0 144.374 14.7603 2131 129.525 875.208 431.124
1691 0 149.265 15.4826 2311 128.978 873.987 427.286
1692 0 155.566 16.8289 2618 126.051 874.516 418.45
1693 0 159.321 14.5744 2322 131.62 872.644 418.305
1694 0 163.302 18.132 2961 125.019 873.563 420.842
1695 0 169.342 17.9164 3034 126.195 873.082 414.902
1696 0 174.386 18.7285 3266 125.206 871.663 407.506
1697 0 180.292 18.6919 3370 126.087 872.616 410.441
1698 0 185.555 18.9162 3510 126.497 872.976 401.678
1699 0 192.347 15.7216 3024 133.065 872.485 397.122
1700 0 199.514 18.8307 3757 127.233 872.299 396.983
1701 0 206.377 16.9544 3499 130.727 872.334 396.539
1702 0 214.53 16.091 3452 131.95 873.56 391.86
1703 0 222.326 20.4429 4545 123.526 873.442 384.88
1704 1 152.316 13.0584 1989 135.898 873.419 416.115
1705 0 156.34 13.541 2117 136.723 872.647 408.057
1706 0 164.317 17.0706 2805 128.854 874.332 406.837
1707 0 172.151 14.3711 2474 133.093 874.437 407.516
1708 0 178.423 13.4175 2394 136.794 875.223 400.17
1709 0 178.385 13.3027 2373 151.571 876.223 400.11
1710 1 189.543 13.3163 2524 138.755 875.833 394.417
1711 0 194.537 15.0666 2931 135.357 876.967 393.156
1712 0 202.411 14.3174 2898 136.68 876.699 391.574
1713 0 211.666 14.9292 3160 136.8 878.625 383.846
1714 0 217.414 13.6238 2962 140.217 878.659 379.387
1715 0 224.815 13.7135 3083 139.682 880.004 372.431
1716 0 232.642 15.5862 3626 135.973 880.316 370.658
1717 0 239.695 15.0775 3614 137.178 880.042 373.105
1718 0 243.614 14.289 3481 140.259 880.033 366.768
1719 0 253.81 16.2562 4126 135.875 879.909 367.577
1720 1 352.544 11.4908 4051 143.905 880.723 342.965
1721 1 296.443 12.1406 3599 140.291 879.448 368.841
1722 0 297.8 25.6615 7642 117.534 879.136 333.511
1723 0 302.888 20.7932 6298 126.022 878.667 329.191
1724 1 229.879 13.2592 3048 135.947 878.451 387.383
1725 1 28.1275 7.82152 220 106.118 877.627 496.7
1726 0 39.3218 5.41684 213 111.371 877.808 494.62
1727 1 247.744 13.4332 3328 138.255 877.484 384.224
1728 0 255.097 11.8229 3016 142.827 878.044 372.695
1729 0 263.182 15.1568 3989 136.555 875.348 371.527
1730 0 273.935 15.1934 4162 136.857 874.835 361.01
1731 0 281.123 12.7666 3589 140.82 873.416 364.768
1732 0 282.946 7.15683 2025 150.01 873.677 367.758
1733 0 279.164 4.03347 1126 154.113 873.102 367.585
1734 1 44.3734 4.75511 211 117.431 872.976 488.692
1735 0 50.308 8.9449 450 113.038 871.093 482.224
1736 0 41.4516 6.22413 258 116.826 871.895 485.609
1737 0 32.2015 8.26048 266 112.962 872.549 493.376
1738 1 269.941 11.9545 3227 135.922 871.603 372.949
1739 0 273.012 11.5453 3152 139.266 870.623 358.368
1740 0 279.963 12.7231 3562 136.831 870.635 354.803
1741 0 279.963 12.7874 3580 145.862 869.617 354.981
1742 0 384.251 17.4495 6705 135.858 870.481 281.058
1743 0 310.07 11.549 3581 141.821 870.938 328.807
1744 0 318.971 14.4245 4601 136.207 871.14 331.635
1745 0 327.928 14.8783 4879 136.128 871.383 315.662
1746 0 335.675 11.6005 3894 142.683 871.769 318.854
1747 0 344.33 11.3234 3899 142.488 873.163 314.058
1748 0 359.206 19.248 6914 124.452 872.803 298.342
1749 0 368.583 17.5103 6454 129.448 873.444 297.909
1751 0 42.0893 9.93126 418 101.538 876.876 479.309
1752 0 36.2722 8.65677 314 106.86 876.424 478.99
1753 0 36.0223 10.0493 362 105.356 877.077 480.602
1754 0 36.0406 8.57367 309 107.761 877.638 482.576
1755 0 37.022 10.9665 406 103.781 877.623 479.635
1756 0 34.0873 8.03818 274 107.628 878.38 482.204
1757 0 45.7306 8.98742 411 101.214 876.489 477.039
1758 0 49.6279 12.4527 618 95.5566 876.282 469.28
1759 0 49.6279 12.493 620 82.9629 877.266 469.121
1760 0 37.0452 6.96446 258 109.519 880.419 485.116
1761 0 39.1529 8.83714 346 106.962 880.465 487.006
1762 0 46.104 19.3042 890 85.6798 881.436 488.887
1763 0 48.1349 16.2044 780 91.0423 877.171 489.359
1764 0 48.0824 26.4546 1272 81.7925 877.982 481.889
1765 0 47.0214 16.9497 797 91.7491 877.261 453.311
