time division length width area intensity CMx CMy
0 0 39.0943 13.6593 534 120.878 53.0112 482.663
1 0 40.0416 15.7586 631 116.905 52.1838 482.946
2 0 39.0467 12.293 480 126.833 52.1125 485.229
3 0 43.0213 12.5054 538 115.028 50.0929 484.515
4 0 44.2585 12.9467 573 118.218 50.3316 485.339
5 0 44.2256 15.8053 699 115.106 50.0744 482.745
6 0 48.0489 14.4852 696 116.276 47.931 481.707
7 0 49.0874 17.9272 880 111.528 47.3205 484.327
8 0 50.1048 16.9046 847 115.501 45.9315 480.841
9 0 50.0677 14.021 702 124.506 44.9886 478.238
10 0 53.1287 15.1895 807 120.998 44.5812 477.338
11 0 56.1076 13.9197 781 120.778 44.4763 476.842
12 0 57.1722 14.2727 816 120.808 44.5478 477.838
13 0 59.184 15.7306 931 119.278 45.6724 472.374
14 0 60.1269 14.9517 899 118.04 44.3949 473.339
15 0 61.1013 14.6151 893 122.479 44.1646 469.137
16 0 63.1116 20.0122 1263 112.407 43.9976 470.526
17 0 66.0854 16.1912 1070 119.572 44.0579 465.611
18 0 68.0839 14.9081 1015 121.329 44.469 463.131
19 0 69.1652 14.7618 1021 121.725 44.5965 463.681
20 0 71.2481 15.3408 1093 119.629 44.0128 463.092
21 0 76.2734 17.6339 1345 111.443 44.6357 461.842
22 0 79.1338 15.7329 1245 112.678 44.2691 457.945
23 0 79.0929 16.8283 1331 117.989 45.6371 455.369
24 0 82.2756 15.1442 1246 119.978 46.3844 454.348
25 0 85.2772 18.434 1572 111.691 46.8403 456.352
26 0 86.1893 14.4101 1242 119.879 47.2464 447.334
27 0 94.2708 17.0891 1611 114.967 49.1161 448.495
28 0 94.122 15.3524 1445 117.822 48.9495 445.171
29 0 97.2738 16.2737 1583 114.025 48.7581 447.724
30 1 55.0429 13.8437 762 115.39 51.4501 463.892
31 0 56.1476 18.4514 1036 108.466 50.7481 464.837
32 0 56.0486 14.5766 817 113.919 51.3819 462.141
33 0 59.1024 14.348 848 113.493 53.8644 463.071
34 0 64.1214 14.9092 956 111.059 53.681 461.957
35 0 63.141 12.4167 784 116.871 54.8418 461.895
36 0 65.1508 11.8341 771 114.838 54.1725 463.358
37 0 69.1605 15.6882 1085 111.191 56.3088 460.682
38 0 73.1738 16.2763 1191 107.737 54.1612 461.278
39 0 75.2781 16.8176 1266 105.986 55.8863 461.975
40 0 78.3837 15.5007 1215 105.956 55.4527 459.067
41 0 80.4408 15.788 1270 107.94 55.7252 456.994
42 0 85.5187 15.3651 1314 106.998 54.7976 459.198
43 0 89.5571 15.8223 1417 104.067 55.427 460.628
44 0 88.3186 13.3381 1178 116.436 54.6239 456.612
45 0 93.2418 12.8805 1201 123.19 54.9825 457.251
46 0 96.4411 13.9878 1349 120.401 52.8273 458.525
47 1 52.3548 15.4713 810 113.262 51.8802 479.405
48 0 53.1815 11.7146 623 122.958 51.8411 477.411
49 0 55.1675 11.2204 619 119.061 49.4313 479.103
50 0 58.0683 11.9859 696 121.595 49.3578 478.182
51 0 59.3215 13.7218 814 119.913 48.0553 474.944
52 0 62.3652 12.8918 804 121.757 47.8346 474.108
53 0 65.2737 15.5193 1013 116.34 47.5262 474.012
54 0 67.1276 15.6717 1052 117.394 47.6625 470.908
55 0 69.4535 15.6652 1088 117.81 48.0276 470.102
56 0 71.8106 13.0064 934 123.133 46.8287 467.136
57 0 76.4139 14.2775 1091 120.439 46.4381 464.72
58 0 79.368 15.0564 1195 118.792 46.3791 461.225
59 0 81.4226 13.3624 1088 121.378 45.4688 462.663
60 1 42.3155 8.74383 370 124.608 46.4486 477.238
61 0 46.4131 10.6651 495 122.105 46.3293 476.184
62 0 47.3343 15.4856 733 110.791 45.4502 473.303
63 0 47.211 11.2474 531 121.864 45.1262 472.192
64 0 50.2384 14.053 706 117.504 45.9575 471.725
65 0 54.3934 15.0938 821 114.572 46.8928 473.587
66 0 54.2335 13.4234 728 120.451 46.6236 468.003
67 0 55.2097 13.7295 758 120.202 46.5132 468.107
68 0 59.0791 16.6218 982 115.504 47.5458 465.223
69 0 58.1911 12.9229 752 122.988 48.266 465.262
70 0 59.1672 13.7914 816 121.816 48.9301 466.228
71 0 65.099 14.0402 914 117.903 48.6171 464.769
72 0 64.1185 15.0814 967 117.263 49.4767 460.451
73 0 66.0927 15.4177 1019 116.728 50.0363 460.1
74 0 68.138 13.8542 944 119.172 50.0456 457.829
75 0 72.0788 14.8865 1073 116.547 50.3374 458.231
76 0 72.1808 16.4587 1188 116.028 51.234 458.353
77 0 76.4963 14.6282 1119 119.612 52.05 455.962
78 0 78.1842 14.0566 1099 119.576 52.8153 459.598
79 0 80.3857 12.7261 1023 123.015 53.391 455.548
80 0 82.2679 12.6173 1038 123.095 54.6898 456.317
81 0 87.3549 16.0037 1398 116.258 53.7668 456.163
82 0 89.3339 14.6977 1313 119.23 53.4417 452.249
83 0 93.3289 16.4044 1531 115.059 53.2449 455.164
84 0 94.3087 12.6818 1196 122.334 51.8378 451.371
85 0 98.4028 12.6826 1248 121.401 52.2812 454.766
86 1 52.3038 12.5995 659 116.358 53.091 473.815
87 0 52.3429 11.0235 577 116.893 52.9723 478.78
88 0 54.2504 11.834 642 117.246 51.2601 475.673
89 0 58.2231 13.0704 761 112.619 52.2799 478.35
90 0 59.1689 13.1826 780 114.571 51.9423 480.528
91 0 62.1654 13.4962 839 114.749 49.7938 478.404
92 0 63.0933 15.3265 967 111.093 49.8656 479.118
93 0 64.2004 14.2367 914 114.313 50.1193 478.965
94 0 65.1852 15.4329 1006 112.586 48.0944 476.772
95 0 69.2803 13.3949 928 116.275 47.8448 470.853
96 0 68.3255 14.0504 960 116.354 45.5823 471.668
97 0 73.1594 15.2817 1118 113.488 46.3676 473.371
98 0 74.2227 15.1032 1121 113.493 45.2328 472.147
99 0 77.211 17.912 1383 107.802 44.6479 471.584
100 0 79.4476 13.5687 1078 115.313 44.7152 467.263
101 0 84.4225 15.6593 1322 110.82 44.3464 464.368
102 0 88.3438 13.9568 1233 113.004 44.0154 461.807
103 0 87.2665 14.1177 1232 114.002 43.9107 454.765
104 0 92.1455 15.3779 1417 110.692 43.0127 459.095
105 1 46.1328 13.1143 605 106.286 42.8529 481.554
106 0 49.107 15.1506 744 103.3 43.8925 479.168
107 0 50.145 13.7402 689 104.347 42.6212 475.205
108 0 55.6066 13.1099 729 105.503 42.6516 478.508
109 0 52.3387 14.1769 742 106.811 43.9326 475.205
110 0 54.379 12.3945 674 109.217 45.0252 473.071
111 0 57.2108 14.2456 815 106.028 44.7681 469.913
112 0 58.06 14.3128 831 105.018 44.935 468.994
113 0 58.1669 11.3638 661 109.551 45.3207 466.784
114 0 61.2186 16.3349 1000 102.145 47.297 468.642
115 0 61.4138 14.557 894 104.11 47.6655 465.994
116 0 64.193 12.6493 812 107.115 48.2672 463.865
117 0 67.693 17.9044 1212 100.262 49.396 465.77
118 0 68.1973 14.6927 1002 105.291 50.3064 462.904
119 0 70.1231 12.1073 849 109.104 50.3592 462.289
120 0 71.4118 13.6812 977 106.729 51.0829 462.798
121 0 74.2362 18.9665 1408 101.401 50.3068 461.369
122 0 77.2355 15.7699 1218 105.35 52 457.428
123 0 81.5792 13.6554 1114 107.389 51.4659 462.798
124 0 82.5968 17.2283 1423 104.157 51.3436 457.904
125 0 84.5851 11.1367 942 111.506 52.551 461.113
126 0 87.4378 13.0722 1143 111.01 52.8688 455.082
127 0 89.5955 17.2553 1546 104.956 52.9269 455.372
128 0 92.2491 18.7861 1733 102.341 50.9556 458.968
129 0 92.3042 11.1263 1027 112.257 52.4323 460.793
130 0 99.6629 16.917 1686 105.768 51.4579 456.138
131 0 100.605 15.9436 1604 106.173 50.8392 461.321
132 0 104.6 16.9217 1770 106.023 50.4644 451.143
133 1 54.3378 16.8575 916 101.16 50.6758 483.219
134 0 55.1986 15.5982 861 104.223 50.5796 481.374
135 0 57.0334 14.0619 802 104.701 48.7132 479.676
136 0 58.1765 10.7088 623 109.785 48.7608 482.247
137 0 61.1609 13.5381 828 106.455 46.5217 479.142
138 0 65.2625 13.7445 897 107.323 47.2899 478.533
139 0 65.35 10.329 675 111.67 45.0741 479.225
140 0 69.3735 17.413 1208 104.061 46.4081 474.123
141 0 70.4003 13.821 973 108.472 44.8777 472.454
142 0 73.9344 12.3758 915 110.319 44.2448 471.618
143 0 77.5748 16.7967 1303 105.955 43.6232 464.516
144 0 79.7027 12.12 966 112.549 43.3602 462.854
145 0 81.8147 12.1127 991 111.299 42.227 464.39
146 0 83.6409 13.3906 1120 111.441 42.0634 460.741
147 0 88.5173 13.8165 1223 111.678 41.2641 455.402
148 0 92.5281 13.0987 1212 112.484 41.5751 460.427
149 0 95.4035 13.1547 1255 113.251 42.4056 456.496
150 1 52.7235 15.7615 831 105.309 40.8953 476.608
151 0 51.275 12.0527 618 110.542 42.335 478.366
152 0 53.1499 12.3425 656 110.332 42.3186 474.591
153 0 54.0704 10.1534 549 114.319 42.9089 473.477
154 0 59.1665 14.4 852 107.979 43.4237 473.663
155 0 60.2341 9.51288 573 114.396 42.9738 472.538
156 0 65.7105 12.7833 840 108.387 44.7238 473.107
157 0 65.2127 12.6509 825 111.811 45.9588 467.965
158 0 69.8509 19.9711 1395 100.879 45.5376 471.416
159 0 69.3855 16.7038 1159 109.305 45.7179 465.078
160 0 71.4781 13.9903 1000 114.365 47.409 461.648
161 0 73.2173 12.9204 946 117.439 46.6216 456.522
162 0 76.4268 13.9218 1064 115.042 48.1513 457.461
163 0 79.3227 14.9516 1186 113.511 47.9427 457.969
164 0 82.2389 14.7497 1213 113.35 48.8442 454.015
165 1 40.2663 12.4918 503 113.471 48.9066 474.038
166 0 43.5534 12.9955 566 110.917 50.4205 473.11
167 0 44.2913 13.2983 589 109.272 50.7691 476.107
168 0 45.1587 14.0172 633 102.534 51.2417 473.118
169 0 46.0703 14.6732 676 109.007 51.3195 482.349
170 0 47.0141 14.8679 699 107.134 51.7525 480.944
171 0 49.0583 11.9857 588 112.104 50.2772 481.944
172 0 50.0301 13.6518 683 110.931 50.6442 478.982
173 0 52.068 14.193 739 110.414 50.1678 479.769
174 0 54.066 17.2382 932 105.207 49.3466 482.192
175 0 56.1527 15.0304 844 109.655 49.5889 483.334
176 0 57.1161 15.6523 894 109.727 48.3524 482.302
177 0 58.1188 14.109 820 112.215 47.4646 480.833
178 0 60.1498 15.9602 960 109.452 48.6323 482.578
179 0 61.2293 16.3974 1004 109.743 47.3924 479.94
180 0 62.1144 12.316 765 115.403 47.0771 481.058
181 0 64.157 12.1421 779 113.077 46.1836 484.75
182 0 67.173 13.2643 891 112.648 44.8474 480.184
183 0 70.0762 13.1999 925 114.202 44.5449 471.661
184 0 73.1656 12.8612 941 115.08 45.5409 474.446
185 0 74.1519 13.9983 1038 114.423 43.3141 470.266
186 0 75.1961 13.3517 1004 114.977 41.752 471.361
187 0 82.2732 17.6364 1451 106.296 43.1434 467.343
188 0 84.2148 15.1042 1272 110.461 41.7351 466.456
189 0 86.1935 14.5371 1253 112.312 42.0894 461.358
190 1 45.1528 15.6579 707 105.488 41.8911 482.915
191 0 44.0566 11.1448 491 112.377 41.7332 481.635
192 0 47.249 12.7833 604 108.031 41.4454 481.303
193 0 50.1498 13.8585 695 108.412 40.6734 478.587
194 0 51.027 13.8358 706 111.11 41.1388 476.691
195 0 53.073 11.5878 615 112.807 41.4504 477.901
196 0 56.0325 11.7967 661 113.221 41.7231 473.425
197 0 57.2002 13.9335 797 110.578 42.7566 471.335
198 0 57.1952 15.7181 899 109.123 43.2069 467.898
199 0 60.1215 15.7015 944 109.716 43.6112 466.286
200 0 63.1645 14.1377 893 110.136 43.7436 466.767
201 0 65.1604 15.7918 1029 109.205 44.7493 465.41
202 0 68.1803 16.5884 1131 106.905 45.9505 466.305
203 0 67.1718 15.2445 1024 108.494 45.2441 467.234
204 0 71.2215 18.9971 1353 104.341 47.0007 462.883
205 0 72.0733 14.0274 1011 112.191 47.4125 461.583
206 0 73.1883 12.3927 907 114.955 48.0893 457.949
207 0 78.4367 16.0002 1255 108.78 49.8064 457.409
208 0 80.416 16.6012 1335 107.749 48.1041 460.688
209 0 85.377 16.0699 1372 110.005 49.8608 454.587
210 0 85.3667 12.7684 1090 113.79 50.267 460.626
211 0 92.2383 17.0645 1574 106.325 49.7649 459.458
212 0 91.2843 11.4368 1044 115.3 49.2586 458.756
213 1 49.1661 12.0611 593 111.809 50.0776 476.971
214 0 56.414 18.3642 1036 98.557 51.0579 480.513
215 0 53.2051 15.5436 827 105.018 50.4389 480.917
216 0 53.0864 12.6398 671 110.435 50.3964 480.677
217 0 54.1 13.0869 708 107.662 50.3136 485.29
218 0 58.2327 20.1949 1176 99.3563 50.3844 483.134
219 0 60.0493 17.7354 1065 103.485 50.2225 480.529
220 0 61.1454 14.0975 862 110.276 48.8991 480.665
221 0 65.1146 15.9565 1039 106.808 48.3532 481.596
222 0 66.1995 15.0908 999 108.934 48.2653 477.777
223 0 66.1938 12.2217 809 113.827 46.5785 478.711
224 0 69.1319 14.2771 987 110.53 44.4498 476.018
225 0 73.2475 16.5193 1210 105.821 43.9636 479.097
226 0 74.1391 16.8737 1251 106.624 41.7082 473.23
227 0 76.3291 13.9265 1063 110.073 42.2794 475.802
228 0 79.2224 15.9803 1266 107.318 39.8144 471.913
229 0 82.1808 13.9449 1146 110.256 39.514 468.917
230 0 84.1523 15.4125 1297 108.039 38.3816 465.746
231 0 86.2436 14.4706 1248 108.083 39.2524 466.43
232 0 91.3247 15.3409 1401 103.736 39.6517 472.782
233 1 48.1111 12.6998 611 102.895 39.5974 483.723
234 0 47.2792 16.4766 779 100.914 40.1142 478.909
235 0 50.0601 15.0419 753 104.312 38.575 480.312
236 0 52.1564 12.52 653 107.828 38.2282 478.861
237 0 53.1791 12.8058 681 106.762 37.6814 478.339
238 0 56.2179 13.9279 783 104.139 37.1367 477.218
239 0 55.159 17.3136 955 102.59 38.4 476.972
240 0 57.217 14.1916 812 105.557 38.1773 477.825
241 0 60.2698 14.5015 874 107.212 39.9073 472.814
242 0 63.2228 17.1932 1087 102.715 39.9614 474.365
243 0 64.2272 14.2307 914 108.093 40.6072 468.268
244 0 65.1658 14.6856 957 108.567 41.7304 466.28
245 0 66.3248 13.1927 875 111.997 41.3669 464.656
246 0 69.2182 17.3509 1201 106.162 42.3847 462.426
247 0 71.2766 14.9699 1067 109.235 42.7188 462.611
248 0 74.3309 16.5476 1230 106.507 43.078 463.037
249 0 76.3692 15.1108 1154 110.595 44.727 458.324
250 0 78.3255 14.2099 1113 110.774 44.9632 460.146
251 0 81.3043 15.7187 1278 109.38 46.0047 459.47
252 0 87.6415 20.5154 1798 102.107 46.525 450.914
253 0 87.4922 18.3102 1602 106.05 47.3571 453.368
254 0 88.3484 15.337 1355 110.32 48.0059 458.407
255 0 93.3296 17.1757 1603 107.628 47.1915 460.13
256 0 95.4121 13.6356 1301 113.682 47.5934 455.372
257 1 50.1075 9.89871 496 113.335 47.5242 480.679
258 0 52.1574 12.6923 662 108.934 48.3958 474.825
259 0 56.1254 11.1536 626 112.323 49.3578 478.26
260 0 57.074 12.4925 713 112.874 49.5834 480.198
261 0 61.1995 14.4936 887 108.585 46.5716 478.18
262 0 62.1938 16.8827 1050 105.779 46.4933 477.76
263 0 65.2113 13.6939 893 110.371 48.1422 478.951
264 0 66.2888 10.9521 726 114.445 46.073 481.191
265 0 69.1097 15.4392 1067 108.993 46.5876 476.555
266 0 72.1174 15.3084 1104 108.606 45.8188 478.255
267 0 73.2633 14.4274 1057 109.985 45.3841 477.16
268 0 72.1483 9.72995 702 117.608 44.1795 474.405
269 0 77.0805 14.5173 1119 111.991 43.5853 470.359
270 0 82.1518 14.9966 1232 110.222 42.0081 473.55
271 0 87.5009 18.2855 1600 106.052 41.6938 470.462
272 0 86.1099 17.0596 1469 109.495 41.6202 464.375
273 0 89.1355 17.9278 1598 106.323 41.8279 470.897
274 0 93.1473 21.2459 1979 102.291 40.2764 466.364
275 0 93.3662 14.2021 1326 113.91 39.8688 460.354
276 1 52.1739 13.1867 688 107.031 39.9549 480.467
277 0 55.1542 11.7851 650 106.666 40.3277 481.257
278 0 56.1135 12.1361 681 108.753 40.3319 476.665
279 0 57.1338 12.287 702 109.011 39.1595 475.467
280 0 60.0846 12.782 768 106.947 40.2148 479.095
281 0 61.2064 17.7759 1088 99.3061 39.045 478.661
282 0 61.169 14.0267 858 107.054 40.3928 470.924
283 0 63.1795 14.4192 911 106.659 40.9221 468.794
284 0 66.2051 16.3432 1082 103.366 41.707 467.521
285 0 66.1439 16.1768 1070 103.837 41.6364 468.078
286 0 66.178 12.829 849 110.809 42.9953 461.326
287 0 71.3795 15.1164 1079 106.708 42.3642 463.204
288 0 73.2896 14.1221 1035 109.914 42.1053 457.85
289 0 76.3178 18.4492 1408 103.146 43.1101 459.124
290 0 78.2439 18.404 1440 103.894 44.1264 457.826
291 0 81.4194 15.4877 1261 106.463 43.7391 450.952
292 0 83.2427 14.1394 1177 109.166 46.401 452.311
293 0 83.4178 14.4574 1206 108.723 46.7338 450.119
294 0 87.374 16.7212 1461 103.882 47.9158 455.172
295 0 94.2475 15.2365 1436 105.811 47.4589 448.522
296 0 98.3491 14.8654 1462 106.88 49.8919 451.486
297 0 100.279 13.8813 1392 109.454 50.1609 445.814
298 0 104.353 13.4448 1403 109.03 49.7598 453.207
299 1 54.2103 14.7758 801 105.34 50.4569 477.096
300 0 56.0714 16.265 912 103.465 50.5921 476.132
301 0 56.0988 11.2302 630 110.894 50.1048 475.825
302 0 60.2593 13.2096 796 106.871 50.5163 476.957
303 0 63.1421 14.016 885 104.773 49.6655 474.967
304 0 65.0917 15.0096 977 104.595 49.5937 475.96
305 0 66.2064 17.6267 1167 100.663 48.7909 478.045
306 0 69.0844 17.3411 1198 102.26 48.8865 474.705
307 0 70.1938 14.8446 1042 105.397 47.2735 475.522
308 0 72.1292 13.8502 999 106.871 46.6176 475.494
309 0 76.2042 16.154 1231 103.601 46.3266 472.427
310 0 76.1629 13.1166 999 108.517 45.6877 473.267
311 0 81.2533 17.3654 1411 102.246 45.051 466.429
312 0 83.3223 16.1541 1346 103.635 43.5052 469.371
313 0 84.1865 16.1071 1356 104.092 43.483 466.488
314 0 86.1682 12.9978 1120 107.3 43.6071 466.421
315 0 90.5879 16.5364 1498 100.838 43.4833 467.451
316 0 93.4836 16.3879 1532 101.262 42.4732 464.885
317 1 49.3428 14.3486 708 100.003 40.4873 479.47
318 0 51.3379 15.0571 773 96.9431 41.1695 481.555
319 0 49.1919 10.6318 523 105.893 42.0229 472.885
320 0 53.102 11.7886 626 107.564 41.1134 477.419
321 0 57.0633 17.8574 1019 99.4092 41.58 476.916
322 0 55.0814 15.0868 831 104.296 41.5957 475.785
323 0 58.1765 13.5622 789 106.688 42.1901 472.025
324 0 59.1825 13.2641 785 106.757 42.307 471.86
325 0 63.0908 15.4856 977 103.993 41.7861 470.204
326 0 65.2173 15.2414 994 104.733 42.0101 465.471
327 0 68.1805 17.0577 1163 102.264 43.9931 462.715
328 0 69.2085 12.903 893 108.609 43.0202 460.964
329 0 67.1275 12.9008 866 109.885 44.3637 460.337
330 0 73.1057 15.2109 1112 104.395 43.6169 460.55
331 0 75.1913 14.6294 1100 105.892 44.3409 455.373
332 0 79.1611 12.8346 1016 108.234 45.7146 457.923
333 0 79.1001 12.5284 991 110.392 44.449 455.236
334 0 84.128 15.0485 1266 106.343 45.3697 451.287
335 0 85.138 13.2491 1128 109.848 46.9521 452.317
336 0 89.3242 15.1919 1357 107.314 46.7428 444.99
337 0 91.0926 11.7682 1072 112.718 47.6054 449.925
338 1 49.134 13.7583 676 107.096 49.9778 472.243
339 0 51.2307 12.0631 618 108.736 50.5615 474.107
340 0 50.0827 12.6191 632 110.068 50.2737 470.49
341 0 52.2537 11.425 597 110.586 52.9096 473.792
342 0 55.1031 11.8687 654 107.434 50.8563 473.904
343 0 59.3442 13.4807 800 107 51.6462 472.691
344 0 63.2219 13.935 881 106.221 53.3008 472.535
345 0 61.2246 11.5803 709 110.556 53.3441 468.763
346 0 67.2982 17.311 1165 99.8936 52.2704 473.554
347 0 70.5243 14.1653 999 104.269 53.0791 470.095
348 0 73.5808 13.8487 1019 104.416 52.1295 473.163
349 0 72.2903 13.3075 962 105.962 51.4345 472.122
350 0 74.329 11.7854 876 107.921 50.7568 472.902
351 0 78.1957 17.9805 1406 101.43 48.8065 468.378
352 0 81.4086 15.0598 1226 105.434 50.0995 466.594
353 0 85.453 14.429 1233 105.68 49.8532 467.296
354 0 84.1773 11.3926 959 110.13 48.5464 467.76
355 1 46.1377 10.5337 486 105.202 48.3765 486.702
356 0 46.195 13.3564 617 103.379 47.5462 485.146
357 0 46.195 13.1832 609 135.12 46.4975 485.085
358 0 49.2921 12.6998 626 101.264 46.222 486.58
359 0 52.0765 16.5718 863 98.7961 44.7404 484.446
360 0 52.265 16.0719 840 100.34 42.9071 480.885
361 0 54.0704 16.8854 913 100.527 44.2519 480.111
362 0 51.0841 10.2772 525 110.354 42.179 478.166
363 0 54.2484 11.5395 626 107.955 41.9824 476.518
364 0 59.1502 18.7489 1109 98.5329 41.8332 473.339
365 0 60.1435 11.8882 715 108.178 41.8657 474.119
366 0 59.1561 11.0217 652 110.037 42.316 471.902
367 0 62.1554 12.1631 756 109.202 42.7698 470.319
368 0 64.1568 15.5089 995 104.84 42.0995 466.41
369 0 66.121 10.6471 704 110.744 42.1818 466.71
370 0 69.1796 15.9874 1106 104.126 41.7071 460.02
371 0 74.4013 14.3949 1071 105.707 43.2894 463.414
372 0 74.1484 13.5404 1004 107.777 42.0478 458.132
373 0 78.1907 14.2344 1113 107.511 43.8185 458.398
374 0 80.3096 13.8962 1116 107.839 44.9543 454.204
375 0 83.3254 16.4416 1370 103.915 45.0591 450.931
376 0 86.1268 21.747 1873 97.889 46.1025 453.539
377 0 87.087 11.988 1044 109.389 45.7893 451.987
378 0 90.1761 13.8285 1247 108.346 48.4579 448.948
379 1 49.1384 13.0855 643 104.117 49.6081 471.341
380 0 49.0486 11.193 549 106.301 49.7468 468.293
381 0 53.3381 9.61789 513 104.754 52.2612 473.193
382 0 54.2005 14.6678 795 102.923 52.8742 471.473
383 0 54.1732 12.1647 659 106.185 50.7997 467.63
384 0 57.1904 14.2506 815 101.865 52.6932 470.885
385 0 58.2954 11.3217 660 105.15 52.0803 470.617
386 0 61.2325 14.2081 870 100.943 52.8149 471.591
387 0 63.1669 13.0765 826 103.717 52.4964 471.45
388 0 63.1219 11.66 736 107.323 53.0014 470.75
389 0 68.107 11.57 788 106.4 52.6866 472.8
390 0 70.1081 14.1068 989 104.051 53.1011 471.435
391 0 72.1412 16.1905 1168 102.294 52.53 468.391
392 0 75.2094 11.222 844 104.994 50.7938 477.419
393 0 79.4195 15.5629 1236 102.19 51.8592 470.113
394 0 82.1701 20.1046 1652 96.5236 51.063 473.111
395 0 85.3926 17.7299 1514 100.685 49.8507 468.357
396 0 86.4511 13.4411 1162 108.281 51.0525 467.027
397 0 89.4308 13.5188 1209 106.983 50.4864 470.749
398 0 91.3733 13.9756 1277 108.652 48.6226 464.615
399 0 94.305 15.6938 1480 107.886 47.0912 460.43
400 1 49.2423 12.0831 595 108.523 46.5546 485.044
401 0 51.2838 15.2875 784 102.548 46.324 486.277
402 0 49.0484 10.5202 516 112.388 45.7829 481.384
403 0 53.0235 12.7302 675 108.619 45.2015 481.465
404 0 57.1634 16.9339 968 103.39 45.3306 478.272
405 0 56.0845 12.8199 719 109.665 44.1961 477.602
406 0 60.1047 16.4879 991 103.043 45.2492 480.036
407 0 61.1074 16.5447 1011 104.864 43.2562 471.294
408 0 60.1668 12.349 743 111.345 43.4751 475.41
409 0 66.3724 14.7501 979 106.534 41.4576 469.544
410 0 67.2315 14.0262 943 107.507 42.2577 470.808
411 0 70.1635 14.2524 1000 107.558 42.699 467.191
412 0 72.1393 14.6384 1056 108.273 42.1922 464.519
413 0 73.2676 13.0754 958 110.789 43.0689 464.282
414 0 77.3551 16.3661 1266 104.997 44.3073 464.917
415 0 81.4506 13.321 1085 107.706 44.8313 464.993
416 0 79.253 19.4314 1540 102.619 44.2539 457.481
417 0 86.2815 15.9362 1375 106.344 43.4473 452.836
418 0 87.5482 15.6028 1366 108.031 45.2606 449.789
419 0 88.5603 12.1725 1078 113.299 46.872 450.609
420 0 94.3816 15.7976 1491 106.691 46.4031 455.03
421 0 97.277 13.2714 1291 112.505 46.1549 444.423
422 1 51.0933 11.0191 563 110.48 48.3144 467.396
423 0 55.2797 16.0638 888 103.511 48.2117 469.485
424 0 52.25 13.7225 717 108.245 48.5272 471.442
425 0 54.1697 11.7778 638 112.053 49.8495 469.596
426 0 57.218 17.3722 994 102.494 51.2897 471.286
427 0 58.2759 12.2006 711 109.813 51.5963 470.619
428 0 63.2424 14.7211 931 105.478 52.0677 471.854
429 0 62.656 15.9921 1002 104.42 51.8164 470.637
430 0 64.2512 12.2644 788 108.452 51.3807 472.51
431 0 67.0846 13.401 899 108.895 52.3682 466.246
432 0 71.3841 11.9775 855 107.751 53.7696 473.006
433 0 73.52 17.9407 1319 101.492 52.9181 467.167
434 0 75.576 15.415 1165 104.241 53.4738 470.665
435 0 78.5589 13.7858 1083 107.986 52.8587 466.901
436 0 84.77 16.1496 1369 103.25 51.4193 465.088
437 0 85.6169 14.5065 1242 105.788 50.9412 463.935
438 1 45.0584 11.8735 535 103.041 51.0056 486.602
439 0 44.1904 13.125 580 102.314 49.9828 488.716
440 0 48.2431 15.4012 743 105.584 48.5384 483.987
441 0 46.3408 12.1707 564 112.103 49.039 484.558
442 0 49.4188 12.3435 610 109.411 48.4213 486.151
443 0 51.1613 13.1349 672 109.732 46.8869 484.18
444 0 55.4335 15.2976 848 105.682 45.8762 482.039
445 0 53.2558 12.7686 680 108.549 46.5 485.224
446 0 54.4556 11.8629 646 113.458 44.5991 478.707
447 0 59.1853 12.5876 745 107.364 45.1638 482.823
448 0 62.3332 14.6631 914 101.713 44.3939 484.736
449 0 62.2204 15.1237 941 106.41 44.7779 480.076
450 0 66.2354 15.3543 1017 105.921 44.6657 475.882
451 0 67.392 15.7882 1064 106.387 44.0216 474.639
452 0 69.507 17.3076 1203 103.086 43.5162 474.85
453 0 70.3613 13.1038 922 110.697 42.8959 470.312
454 0 72.6472 14.4259 1048 109.259 42.7824 466.485
455 0 75.6005 15.7671 1192 106.799 43.5596 461.242
456 0 77.5115 14.0624 1090 108.883 42.4798 463.781
457 1 43.505 11.7228 510 107.882 44.3529 481.286
458 0 43.3829 11.0182 478 110.134 43.592 475.929
459 0 44.1691 15.8029 698 102.764 44.3825 477.818
460 0 44.1344 14.4558 638 103.265 46.6599 474.757
461 0 49.3902 18.6677 922 100.443 45.1898 460.921
462 0 53.2531 15.755 839 102.615 46.8999 464.055
463 0 50.201 14.1033 708 106.669 46.2585 460.716
464 0 54.2887 17.4438 947 100.825 46.2851 464.697
465 0 50.3139 12.3624 622 109.698 47.635 463.817
466 0 52.2491 11.3303 592 110.346 47.4341 468.622
467 0 56.3316 18.3556 1034 99.8965 48.2002 468.986
468 0 55.3595 16.6187 920 104.602 48.4598 467.987
469 0 53.2404 13.6926 729 110.228 48.8999 467.558
470 0 61.2329 15.6615 959 105.27 50.0469 471.024
471 0 61.0582 14.003 855 107.815 49.5497 471.099
472 0 61.1435 16.5185 1010 105.179 49.6545 472.163
473 0 62.0777 16.9465 1052 106.74 49.7605 470.082
474 0 63.1132 13.7848 870 112.682 47.7195 466.906
475 0 68.1009 18.2376 1242 105.376 48.9799 467.837
476 0 70.1979 16.7384 1175 106.879 48.206 475.039
477 0 72.2068 20.5244 1482 103.872 47.7375 471.237
478 0 74.1674 17.8246 1322 107.681 47.5401 471.203
479 0 75.113 13.5795 1020 114.113 47.0304 474.207
480 0 77.5238 12.8219 994 116.326 46.666 473.933
481 0 81.2506 14.0307 1140 115.373 46.7009 471.791
482 0 86.467 14.8612 1285 113.358 46.0942 469.714
483 0 88.4286 16.0808 1422 111.904 45.4557 468.52
484 1 41.351 10.5681 437 110.767 43.595 494.254
485 0 44.3197 13.5154 599 107.81 42.798 491.92
486 0 46.1746 11.1966 517 111.925 41.1992 489.718
487 0 48.227 17.1688 828 104.614 40.1027 484.837
488 0 51.152 17.6924 905 103.275 40.5934 487.713
489 0 52.0725 18.1286 944 103.269 40.2246 485.897
490 0 53.0735 13.2835 705 110.918 38.4582 484.929
491 0 55.1146 15.6039 860 107.921 39.1477 483.966
492 0 56.1218 17.8896 1004 104.731 39.9243 484.451
493 0 59.1687 13.7742 815 110.394 39.8 482.656
494 0 59.1667 13.0648 773 112.356 39.2135 482.55
495 0 64.3305 15.8556 1020 107.638 38.2274 478.988
496 0 68.1756 16.0908 1097 109.844 37.4129 480.596
497 0 69.2291 14.647 1014 113.849 38.4231 475.748
498 0 73.3147 14.5264 1065 113.762 37.5793 476.312
499 0 73.1126 16.372 1197 111.096 37.4612 475.166
500 0 75.093 16.0068 1202 113.062 39.0691 468.24
501 0 79.2758 13.8756 1100 114.928 39.9155 467.608
502 0 80.1856 12.3713 992 116.862 40.8206 467.499
503 0 82.5353 12.8066 1057 114.509 40.6897 463.087
504 1 42.0602 12.387 521 107.065 42.2303 481.455
505 0 44.0999 12.4717 550 107.127 41.6782 473.633
506 0 44.2222 13.8618 613 112.543 41.4649 478.393
507 0 47.2454 12.1705 575 115.263 43.1078 478.087
508 0 48.2613 13.5719 655 112.169 44.0321 477.272
509 0 49.1911 15.3483 755 108.713 44.2874 476.101
510 0 50.1641 15.0307 754 106.989 45.5822 482.643
511 0 54.1385 17.3444 939 106.188 46.688 476.018
512 0 57.2576 16.8187 963 104.727 47.1371 479.237
513 0 55.145 14.9243 823 106.937 47.2625 479.044
514 0 56.3489 17.924 1010 103.869 47.7416 477.632
515 0 59.0999 14.7547 872 108.095 48.3165 475.994
516 0 65.1565 15.7774 1028 105.515 49.0798 477.761
517 0 62.5688 15.9664 999 111.036 48.8839 471.909
518 0 66.2763 16.4916 1093 108.485 49.7511 474.865
519 0 66.2346 12.8936 854 114.859 49.0621 477.016
520 0 68.2942 13.3833 914 113.677 48.0755 477.601
521 0 72.3409 13.2567 959 113.056 48.3003 476.626
522 0 74.5486 14.7957 1103 110.353 47.5666 478.161
523 0 76.2967 15.8198 1207 110.102 46.6056 474.339
524 0 77.3829 15.0938 1168 112.807 45.2774 474.392
525 0 81.3522 14.3205 1165 111.879 46.1219 477.479
526 0 85.3226 16.0684 1371 109.164 45.5966 466.422
527 1 41.585 11.6629 485 114.122 45.1113 490.165
528 0 43.277 10.9758 475 113.718 44.4316 493.331
529 0 47.309 11.9216 564 111.727 44.0337 493.681
530 0 48.0301 13.1584 632 111.172 42.4066 492.535
531 0 49.1288 16.3448 803 108.575 41.8618 490.798
532 0 52.0872 12.6519 659 115.302 41.5736 490.134
533 0 51.1595 13.194 675 115.95 40.08 488.707
534 0 55.2353 15.606 862 111.544 40.1322 483.992
535 0 55.2487 15.8194 874 111.708 41.0698 481.809
536 0 56.493 13.1521 743 116.769 39.9489 479.887
537 0 59.3175 17.145 1017 110.776 39.1957 478.302
538 0 63.5091 13.4469 854 113.682 40.0574 482.16
539 0 64.2473 12.7476 819 116.637 39.4005 478.436
540 0 66.3067 12.0652 800 118.331 39.4975 473.534
541 0 68.5019 12.6858 869 117.664 39.6502 470.199
542 0 69.2182 11.5721 801 118.82 38.5705 466.77
543 0 75.4612 13.4771 1017 114.642 40.0256 465.312
544 0 76.5545 12.527 959 115.624 40.8832 464.049
545 0 84.4451 15.9749 1349 107.944 40.5589 467.353
546 1 47.3501 13.9387 660 101.135 42.0697 486.912
547 0 44.2025 13.8454 612 103.833 40.598 484.343
548 0 46.1016 11.4096 526 109.118 42.4087 481.055
549 0 43.1214 10.0182 432 114.551 41.9329 478.829
550 0 48.0481 15.6302 751 104.776 42.2344 482.589
551 0 49.1462 16.5221 812 104.767 44.2131 481.222
552 0 52.1259 12.278 640 111.177 44.2219 477.145
553 0 55.204 12.0281 664 111.285 44.3991 478.78
554 0 55.3633 14.2694 790 111.014 44.7797 475.572
555 0 58.2691 13.5749 791 112.779 45.2693 475.668
556 0 62.327 14.5523 907 109.099 45.935 476.24
557 0 60.3382 10.9715 662 115.427 48.0544 477.344
558 1 127.789 12.7241 1626 117.341 48.4779 444.692
559 0 136.826 15.4868 2119 112.402 48.4153 439.079
560 1 69.6154 14.4077 1003 109.642 47.1266 472.571
561 0 70.4215 15.9894 1126 108.032 47.8712 470.274
562 0 73.7825 11.561 853 113.83 46.9437 470.295
563 0 76.5974 11.0187 844 112.012 46.6991 473.382
564 0 80.4979 15.1805 1222 106.454 47.1522 469.201
565 1 44.2689 11.4979 509 107.326 45.5285 490.76
566 0 48.374 10.8943 527 107.934 44.9886 490.342
567 0 49.2705 8.90999 439 113.244 44.0888 486.166
568 0 51.1024 11.565 591 106.061 43.0795 488.396
569 0 51.0344 9.93448 507 112.424 42.9112 488.306
570 0 54.151 14.6812 795 105.854 42.488 488.594
571 0 56.0711 11.3606 637 109.462 42.0487 490.92
572 0 58.0449 11.3877 661 109.514 40.885 487.318
573 0 58.2254 12.4516 725 109.443 39.7793 482.93
574 0 58.1588 13.7039 797 109.001 39.3588 484.049
575 0 62.0979 14.0585 873 108.764 40.6942 480.134
576 0 65.0802 14.7357 959 106.052 38.8853 483.639
577 0 67.2435 16.2246 1091 103.667 39.3896 477.585
578 0 68.2395 11.782 804 110.325 39.7836 475.422
579 0 70.2021 12.2361 859 109.909 38.3714 474.421
580 0 71.1974 13.3432 950 108.848 39.8063 470.286
581 0 77.3791 13.7505 1064 105.109 39.4756 473.511
582 0 81.3923 14.1045 1148 105.691 38.8397 468.53
583 0 80.3262 10.8931 875 111.016 38.6091 463.445
584 0 85.2998 14.3377 1223 104.946 39.7244 464.593
585 0 85.2668 12.5606 1071 108.633 39.8422 461.886
586 1 51.0689 11.181 571 103.933 40.965 482.257
587 0 49.1029 12.4025 609 101.737 39.7389 483.782
588 0 49.1329 11.9268 586 104.502 41.0904 480.099
589 0 52.1895 12.6654 661 101.744 42.0106 476.239
590 0 51.0601 10.7324 548 107.907 42.7591 475.624
591 0 56.0795 15.5494 872 99.4828 41.43 478.288
592 0 58.1099 16.1418 938 98.5011 43.8017 471.989
593 0 57.2639 12.3114 705 105.339 43.061 470.62
594 0 62.3127 13.1915 822 100.663 42.6423 475.685
595 0 64.1684 13.5425 869 100.909 43.8573 472.039
596 0 70.1177 14.4329 1012 100.224 43.916 467.944
597 0 68.312 14.8583 1015 99.4177 45.9488 473.31
598 0 71.1212 15.9446 1134 97.5802 47.478 469.37
599 0 74.1545 11.8536 879 102.645 47.3618 464.838
600 0 75.4001 11.6976 882 102.026 47.5238 469.211
601 0 76.2856 8.38952 640 108.886 48.7672 466.403
602 0 77.0964 8.93687 689 106.819 46.7286 467.268
603 0 84.0773 12.9167 1086 101.199 46.2274 472.04
604 0 83.2639 11.4576 954 103.817 45.7138 469.604
605 0 89.1438 12.8332 1144 100.919 46.7535 472.668
606 0 90.2395 12.7439 1150 102.282 46.673 467.76
607 0 91.1271 11.3358 1033 104.925 45.5169 465.998
608 0 94.1675 11.8725 1118 103.717 46.4168 463.807
609 1 47.0704 10.4949 494 101.308 46.4595 489.103
610 0 50.2542 11.3224 569 97.7522 44.0808 487.909
611 0 52.2207 11.8344 618 96.4709 44.4935 490.018
612 0 52.1627 10.6398 555 99.7676 44.1117 489.393
613 0 54.2284 16.8546 914 92.0832 43.6915 489.335
614 0 54.2066 8.68898 471 102.338 42.5478 488.41
615 0 59.1057 10.6758 631 98.0222 41.0285 485.13
616 0 58.0861 13.2562 770 95.113 40.4481 483.756
617 0 63.0927 13.9636 881 93.9274 38.9807 484.822
618 0 62.1135 10.0139 622 99.8842 39.3103 481.243
619 0 64.1393 12.2702 787 96.8831 38.8679 480.605
620 0 66.1993 11.269 746 97.3874 37.6086 475.938
621 0 71.4058 11.0215 787 96.8412 37.3189 472.297
622 0 69.1386 9.30016 643 98.4603 36.8647 476.101
623 0 77.1391 14.4933 1118 91.9758 37.3122 476.657
624 0 81.2468 16.4806 1339 90.534 37.4757 474.546
625 0 78.1702 11.6668 912 99.5197 36.4539 467.564
626 1 42.1359 9.30322 392 96.2959 36.1658 491.431
627 0 44.082 13.1346 579 91.9983 38.9482 486.116
628 0 45.0615 6.94606 313 98.262 39.5751 487.649
629 0 43.1749 8.8709 383 97.5535 37.0574 482.248
630 0 50.0436 11.9496 598 95.6756 39.2843 482.839
631 0 46.2173 10.9699 507 97.2702 38.0552 481.412
632 0 49.1094 10.6904 525 99.6305 39.6971 475.175
633 0 52.1972 11.9547 624 98.7436 39.6458 474.498
634 0 52.1676 13.0541 681 98.3583 41.0103 477.069
635 0 55.1942 10.2728 567 101.563 40.933 475.162
636 0 55.1731 9.91426 547 103.159 42.7843 473.42
637 0 58.0799 11.467 666 101.586 42.5721 472.755
638 0 59.1416 9.63789 570 104.665 43.8947 473.086
639 0 62.1174 10.8665 675 103.655 44.043 471.627
640 0 65.2932 15.9435 1041 97.3602 45.9376 471.544
641 0 64.4492 12.0405 776 103.014 45.7204 470.371
642 0 67.4467 13.6849 923 101.298 46.6457 467.943
643 0 72.424 12.0402 872 101.224 46.6468 469.242
644 0 73.3096 10.6807 783 102.567 47.0843 472.264
645 0 77.3948 13.7606 1065 98.9925 46.3296 471.965
646 1 41.1899 6.33651 261 104.939 46.8697 489.686
647 0 43.2522 10.2654 444 100.399 45.7185 487.126
648 0 45.3008 12.1411 550 99.6709 46.5745 486.96
649 0 49.121 13.0698 642 97.3832 44.1713 486.41
650 0 50.0522 14.9244 747 96.1473 43.8541 488.78
651 0 49.0441 15.5982 765 96.0157 43.8928 487.936
652 0 49.0387 14.7027 721 97.337 44.2677 490.513
653 0 50.1473 13.7993 692 99.1416 46.3324 492.523
654 0 54.1433 13.7413 744 99.922 46.6895 487.848
655 0 52.1029 10.6904 557 106.007 44.9515 487.474
656 0 56.2617 14.8591 836 98.0227 44.4713 487.91
657 0 56.1094 10.1587 570 104.34 45.1474 487.721
658 0 59.0567 12.361 730 101.949 43.3233 485.725
659 0 61.128 14.9686 915 98.7781 43.7104 486.838
660 0 63.1223 16.1274 1018 98.6287 42.5147 482.555
661 0 63.2445 11.5109 728 104.724 41.3997 482.08
662 0 64.1529 12.8443 824 103.916 40.5376 478.721
663 0 67.1889 12.5914 846 104.266 40.5851 478.804
664 0 73.184 16.807 1230 97.6057 40.2984 478.618
665 0 72.2129 14.8311 1071 101.477 40.408 473.11
666 0 71.2166 10.8402 772 108.281 39.9106 474.988
667 0 76.2027 14.5139 1106 102.736 39.528 471.468
668 0 77.194 14.0425 1084 103.894 38.5803 473.012
669 0 81.2916 11.305 919 106.309 39.3428 472.51
670 0 83.2402 12.7222 1059 104.663 40.9065 468.649
671 1 46.0825 11.7615 542 102.596 40.7878 484.362
672 0 47.2913 13.1314 621 102.491 39.6248 480.548
673 0 50.3705 14.7308 742 100.317 40.2682 479.93
674 0 49.082 13.2431 650 104.089 40.6877 480.297
675 0 50.1345 11.2098 562 104.219 42.8327 481.238
676 0 52.2113 13.3879 699 102.977 43.5265 479.808
677 0 58.1181 14.9351 868 100.847 44.3376 474.303
678 0 55.1036 13.393 738 105.306 44.5149 475.947
679 0 56.068 11.7179 657 108.175 45.0167 473.913
680 0 57.0867 12.227 698 108.582 45.2206 472.673
681 0 62.1072 16.4876 1024 102.19 46.3018 472.956
682 0 60.1369 11.4572 689 110.724 45.9405 472.54
683 0 66.1698 13.6921 906 106.278 45.9724 473.445
684 0 65.2973 12.1904 796 110.897 46.8945 471.848
685 0 71.2624 14.6922 1047 107.262 47.8424 471.988
686 0 75.1548 16.3529 1229 103.841 47.7055 472.047
687 0 74.2363 13.6591 1014 110.629 47.7554 467.144
688 0 79.1758 16.7602 1327 105.953 47.0746 469.94
689 1 37.062 9.38967 348 113.216 48.4569 490.049
690 0 43.1405 13.1431 567 104.192 48.1041 494.203
691 0 44.0757 13.7264 605 102.21 47.7587 495.871
692 0 43.2289 12.5148 541 109.885 47.5286 492.658
693 0 46.2045 15.1501 700 105.117 46.84 493.901
694 0 46.2255 12.5472 580 108.245 47.3207 494.634
695 0 48.256 13.0346 629 106.734 46.9634 492.774
696 0 49.1613 11.4928 565 110.563 47.5416 493.258
697 0 50.0917 13.9744 700 106.849 46.1057 495.16
698 0 53.2103 23.3601 1243 92.9244 45.0434 497.973
699 0 52.2377 12.2708 641 109.187 44.5445 493.314
700 0 55.0724 12.7832 704 109.668 43.5213 490.946
701 0 58.3 12.0755 704 109.693 42.5014 489.472
702 0 57.403 12.5952 723 111.38 41.0277 486.97
703 0 60.4971 11.9345 722 112.008 41.4862 488.366
704 0 64.3737 11.9148 767 109.288 40.4641 489.472
705 0 64.2913 19.7694 1271 99.1605 39.5688 489.669
706 0 67.1644 16.1842 1087 104.038 39.9006 486.32
707 0 68.2055 14.5883 995 107.189 39.5116 480.911
708 0 68.2896 11.5684 790 111.391 38.5506 480.506
709 0 72.4042 14.2395 1031 108.117 38.2726 475.92
710 0 75.1479 14.5979 1097 106.979 39.6098 476.553
711 0 78.4784 12.4365 976 108.997 39 475.03
712 0 79.4663 12.5084 994 110.47 39.6137 469.798
713 0 82.3599 14.6916 1210 107.466 38.0694 463.771
714 0 87.5703 15.165 1328 105.178 40.0429 470.344
715 0 89.5424 14.6523 1312 108.478 39.3483 463.147
716 1 48.4523 11.0624 536 112.118 40.9459 480.735
717 0 51.4568 14.7697 760 104.812 40.7592 482.672
718 0 54.3095 13.0548 709 107.676 41.323 480.759
719 0 59.7786 12.2117 730 108.114 40.0644 478.689
720 0 56.4452 12.2951 694 111.016 42.4323 475.836
721 0 59.3608 14.9594 888 107.002 43.1182 476.921
722 0 60.3537 14.2162 858 109.252 43.021 473.626
723 0 60.1863 14.2059 855 109.489 43.4678 472.843
724 0 63.1527 15.8346 1000 106.216 42.888 474.621
725 0 61.09 13.2755 811 112.11 43.7842 472.432
726 0 64.0713 14.5151 930 108.98 44.0688 473.863
727 0 70.3026 14.7079 1034 106.948 47.7689 476.458
728 0 72.5234 14.8504 1077 108.198 46.5469 471.29
729 0 73.6724 14.1573 1043 108.086 48.488 476.852
730 0 75.3579 16.3088 1229 105.819 47.5972 470.852
731 0 77.3615 14.2965 1106 110.298 48.1184 470.707
732 0 79.55 12.8347 1021 111.292 48.6043 473.522
733 0 84.3303 14.289 1205 110.176 49.0656 470.902
734 0 85.3209 11.7673 1004 115.279 48.0747 466.675
735 1 44.0915 10.0246 442 112.165 48.1538 494.86
736 0 45.1292 12.0321 543 110.433 48.6685 494.247
737 0 45.1529 8.06149 364 117.245 46.2665 493.429
738 0 47.2158 12.0299 568 110.66 46.5334 492.137
739 0 51.0468 16.4947 842 103.203 44.5131 491.007
740 0 51.2029 11.679 598 110.378 44.5167 494.025
741 0 55.1132 12.429 685 108.791 43.3095 493.035
742 0 55.0603 13.6578 752 108.682 44.4694 489.258
743 0 59.0746 13.83 817 107.364 42.9253 490.031
744 0 60.1841 12.7608 768 109.016 41.5781 490.499
745 0 59.0839 11.6275 687 111.916 40.7482 485.805
746 0 63.1559 13.8863 877 108.013 42.2121 484.105
747 0 65.076 14.921 971 105.703 40.9269 481.793
748 0 69.0803 13.7955 953 106.049 41.3652 483.232
749 0 71.1006 14.9085 1060 104.906 40.1774 480.926
750 0 76.2853 16.8315 1284 101.639 39.9112 477.29
751 0 77.255 14.0444 1085 105.589 39.0903 476.992
752 0 80.1978 14.5765 1169 104.712 39.3798 474.79
753 0 82.363 13.3677 1101 106.047 38.9709 475.678
754 0 87.3289 14.6458 1279 104.301 39.5989 472.138
755 1 48.4717 15.2048 737 101.256 41.5889 486.145
756 0 50.5536 11.7104 592 106.206 41.973 484.895
757 0 50.0585 11.3667 569 109.51 43.6432 481.634
758 0 56.088 16.4206 921 99.6797 44.0185 481.079
759 0 54.0762 11.7612 636 108.142 44.3836 478.208
760 0 55.1228 14.1502 780 103.792 43.782 475.222
761 0 56.208 12.7918 719 106.157 44.0779 475.723
762 0 59.1071 13.4163 793 104.656 43.5233 473.619
763 0 62.3 15.4735 964 101.802 45.612 474.005
764 0 61.2231 12.4299 761 106.698 45.5046 471.398
765 0 69.2587 21.5135 1490 94.4671 46.1195 468.315
766 0 69.2285 14.9072 1032 103.44 47.1046 470.441
767 0 72.2917 16.2674 1176 99.9728 48.0944 472.426
768 0 73.2064 15.668 1147 101.421 48.1491 467.896
769 0 75.221 14.1716 1066 103.457 47.9315 467.715
770 0 77.3315 12.4917 966 104.171 49.4555 474.249
771 0 82.5127 11.9982 990 103.8 49.8273 474.77
772 1 40.05 11.3358 454 104.738 49.8877 486.513
773 0 40.2311 12.6767 510 103.369 49.7176 486.184
774 0 41.2621 10.7847 445 107.063 48.1371 483.207
775 0 46.5129 15.8666 738 98.1612 48.4485 486.077
776 0 45.4086 10.5487 479 104.797 48.4572 486.806
777 0 46.3509 11.8876 551 104.261 48.5554 487.815
778 0 48.2015 14.3979 694 101.092 48.0605 489.556
779 0 48.185 12.0577 581 104.852 48.2651 490.849
780 0 52.179 16.0984 840 99.5619 48.7405 492.927
781 0 52.0734 13.0969 682 104.397 47.8387 493.802
782 0 56.0955 12.5857 706 105.357 48.3683 490.154
783 0 57.2128 14.5597 833 104 48.1801 488.214
784 0 56.0786 11.2699 632 109.481 47.9826 489.688
785 0 61.0902 15.4689 945 103.522 45.3735 484.415
786 0 62.1705 14.3637 893 104.741 43.6473 485.928
787 0 64.4149 14.8879 959 104.425 44.8373 484.292
788 0 65.1659 12.6293 823 108.412 43.8165 482.925
789 0 68.1074 14.4625 985 106.145 43.997 481.276
790 0 68.1617 14.0108 955 106.985 42.7696 479.671
791 0 70.087 11.343 795 110.102 43.2918 478.196
792 0 75.3187 16.9679 1278 101.14 42.1408 479.43
793 0 77.1658 16.9505 1308 103.281 42.7768 471.776
794 0 81.2624 17.0189 1383 102.837 42.2191 471.625
795 0 83.3899 17.0284 1420 105.027 40.7831 466.909
796 1 46.0863 11.4568 528 110.985 40.5208 488.949
797 0 46.2319 12.0912 559 111.295 43.3309 487.002
798 0 46.2269 12.1574 562 112.61 42.1103 483.778
799 0 53.6392 14.989 804 105.618 42.3669 481.269
800 0 51.448 13.8003 710 112.108 41.2563 478.511
801 0 52.2553 13.013 680 113.172 42.3485 476.338
802 0 55.4128 16.8192 932 107.264 41.9764 475.859
803 0 59.2698 18.6604 1106 103.429 42.3165 473.618
804 0 55.2677 12.937 715 117.338 42.3776 472.34
805 0 59.2346 11.6317 689 118.438 44.1901 474.488
806 0 63.4035 21.9704 1393 102.486 44.0187 471.915
807 0 63.4235 16.3346 1036 109.663 44.2249 471.134
808 0 66.4558 17.1091 1137 109.519 47.2216 469.306
809 0 67.274 18.001 1211 108.874 46.9273 468.68
810 0 68.2125 18.3691 1253 108.586 46.9274 471.305
811 0 72.3742 19.1228 1384 105.488 48.0701 474.832
812 0 73.2491 16.0002 1172 114.476 47.9599 469.207
813 0 77.4873 15.7574 1221 114.097 47.6601 468.895
814 0 79.4287 15.2338 1210 117.317 48.0207 464.457
815 0 78.39 12.5654 985 122.166 48.3015 467.336
816 0 84.2326 16.3951 1381 114.996 49.4902 466.203
817 1 45.1854 15.4032 696 110.519 49.0891 490.727
818 0 44.1041 13.4001 591 117.513 49.0169 485.572
819 0 49.2803 14.1436 697 114.331 49.2252 481.577
820 0 48.1472 13.7495 662 118.505 50.4245 480.015
821 0 47.0368 12.4158 584 122.767 50.3836 479.767
822 0 51.051 14.0056 715 118.137 50.0112 482.238
823 0 49.0985 11.4871 564 123.968 48.195 487.257
824 0 53.0318 13.7465 729 119.38 50.1276 487.988
825 0 56.2366 15.1147 850 115.665 48.7729 487.744
826 0 58.1047 14.4395 839 117.905 48.0667 488.696
827 0 62.2348 15.2808 951 115.965 46.7119 487.361
828 0 62.1375 15.4496 960 115.798 46.7969 487.536
829 0 62.183 15.2775 950 118.06 45.7842 485.548
830 0 65.0878 16.9771 1105 114.699 44.4878 483.616
831 0 68.1918 15.2511 1040 118.375 44.5731 480.347
832 0 70.2991 14.481 1018 120.087 44.2888 477.891
833 0 72.2289 15.3124 1106 118.347 43.4349 476.183
834 0 76.4027 17.1853 1313 113.978 42.5164 474.938
835 0 75.1545 13.6652 1027 122.058 41.8909 472.722
836 0 81.2097 15.343 1246 117.518 42.6092 470.555
837 0 81.3959 14.0425 1143 117.496 42.3088 465.161
838 0 88.1254 16.0907 1418 112.202 42.3279 464.025
839 1 48.1073 10.4974 505 112.729 40.9861 480.752
840 0 48.0702 10.5887 509 113.961 39.8821 475.996
841 0 51.0372 15.91 812 105.781 40.4704 475.606
842 0 51.0424 15.8496 809 105.604 41.0235 474.514
843 0 52.1097 14.6614 764 106.33 41.4778 475.936
844 0 55.2151 13.3116 735 110.513 41.3973 469.74
845 0 58.1605 15.3713 894 106.562 42.1488 470.157
846 0 59.1378 13.5446 801 110.145 42.6492 469.866
847 0 61.0518 14.7416 900 108.722 42.9733 467.283
848 0 63.1501 11.3856 719 115.028 44.0751 466.068
849 0 63.0577 10.9582 691 115.906 44.4848 463.414
850 0 68.1748 14.0374 957 115.038 45.7638 468.172
851 0 70.1086 15.6186 1095 112.674 47.011 465.271
852 0 72.2297 14.6892 1061 114.485 47.8313 464.033
853 0 76.5226 14.7669 1130 113.088 46.6734 463.313
854 0 80.1689 15.9912 1282 111.8 48.3362 462.406
855 0 80.3714 13.8607 1114 112.65 47.8079 460.882
856 1 39.0543 8.24492 322 117.267 49.2578 482.245
857 0 44.3202 10.8303 480 108.027 49.7542 485.102
858 0 45.1251 14.1385 638 105.65 49.7335 479.561
859 0 43.184 14.635 632 107.122 50.5111 484.604
860 0 44.1182 11.2199 495 114.533 50.0909 480.067
861 0 46.1375 12.0943 558 112.901 49.5125 479.523
862 0 48.0843 14.1002 678 108.811 49.7699 481.751
863 0 45.2174 9.66442 437 117.954 49.9634 480.81
864 0 51.2847 13.0253 668 111.195 49.0254 482.525
865 0 53.0633 13.3237 707 112.826 48.9066 486.984
866 0 54.0492 11.3415 613 116.315 49.9315 486.282
867 0 56.0724 12.787 717 114.035 49.0851 484.714
868 0 59.2318 10.5855 627 115.196 49.4306 489.581
869 0 61.1582 12.3777 757 113.497 47.7041 485.544
870 0 64.3032 13.2497 852 111.748 46.8134 485.27
871 0 67.3871 15.9971 1078 107.363 46.2857 482.728
872 0 71.3147 15.2283 1086 109.13 45.0718 480.158
873 0 70.2189 14.2412 1000 111.64 43.682 480.105
874 0 75.1895 12.7012 955 114.192 43.5749 478.791
875 1 39.2755 14.7166 578 107.938 43.4048 493.76
876 0 39.3287 14.0355 552 110.969 43.2192 489.44
877 0 44.234 16.7292 740 103.564 42.8892 493.615
878 0 46.3403 14.9546 693 108.903 42.8947 488.268
879 0 44.2063 13.2108 584 113.24 42.4418 490.217
880 0 47.3417 14.765 699 110.878 42.3062 486.728
881 0 48.2374 15.0713 727 109.243 41.6396 486.671
882 0 49.1878 14.8411 730 110.366 42.2356 488.226
883 0 52.234 13.8033 721 110.888 41.1817 484.592
884 0 52.1207 15.0612 785 109.668 41.5108 484.163
885 0 53.0534 13.6278 723 109.347 41.527 486.79
886 0 55.1329 14.8187 817 110.957 42.8519 481.053
887 0 56.3815 14.3487 809 111.606 43.1817 479.593
888 0 61.1283 13.3162 814 111.26 43.3919 479.171
889 0 61.4032 13.6801 840 113.418 44.1702 475.395
890 0 63.095 12.7268 803 117.149 42.68 471.834
891 0 66.3389 17.697 1174 109.714 43.27 470.261
892 0 67.1395 14.7752 992 115.221 45.0565 468.857
893 0 70.4143 14.2443 1003 116.859 44.7976 467.767
894 0 73.3542 14.4232 1058 116.623 46.5359 467.66
895 0 75.5413 14.0453 1061 118.522 47.6305 463.923
896 0 78.9838 14.8005 1169 116.941 47.6501 465.417
897 0 82.6518 16.8296 1391 112.546 47.9051 464.781
898 1 43.2606 18.0534 781 104.697 49.2958 483.67
899 0 42.3389 9.731 412 120.498 49.7549 483.563
900 0 48.5008 14.1029 684 113.981 50.4678 480.699
901 0 48.5626 13.8378 672 116.375 49.756 481.932
902 0 50.2695 14.8599 747 115.617 51.7349 481.157
903 0 53.4959 12.1131 648 119.861 51.4306 484.023
904 0 55.1495 13.2549 731 119.506 51.6813 481.488
905 0 53.1372 11.9126 633 124.899 50.2828 481.292
906 0 56.5522 14.4999 820 118.443 49.9341 480.721
907 0 61.2868 13.3797 820 118.273 49.9244 483.874
908 0 61.4921 14.262 877 117.962 49.3364 482.715
909 0 64.2825 12.1028 778 121.814 49.9293 482.078
910 0 66.3113 14.266 946 119.138 48.7727 480.965
911 0 70.4758 13.5224 953 119.416 48.7555 478.165
912 0 72.3718 14.1077 1021 118.341 47.5622 477.731
913 0 75.4826 12.5062 944 123.643 47.5286 475.988
914 0 75.6049 14.1393 1069 120.312 46.9046 477.892
915 0 80.3165 17.2941 1389 113.47 45.4003 476.713
916 0 83.6149 15.3083 1280 115.694 45.843 475.947
917 0 85.226 14.6669 1250 116.011 44.3288 473.84
918 0 89.5185 16.0637 1438 114.412 42.7309 469.769
919 0 94.478 16.9563 1602 110.83 44.4357 471.101
920 0 95.4249 16.568 1581 112.456 42.7577 464.233
921 0 98.3553 13.9698 1374 117.985 44.0779 459.72
922 0 101.4 14.7041 1491 116.489 42.2971 459.964
923 1 58.2409 12.1736 709 116.406 42.7546 479.251
924 0 61.5251 10.8086 665 115.562 43.4752 480.904
925 0 61.2473 14.1394 866 114.348 43.2771 478.012
926 0 63.2328 14.0433 888 116.048 42.3367 476.544
927 0 66.2724 14.6516 971 115.16 42.4686 476.511
928 0 68.511 16.3915 1123 112.224 43.0677 477.752
929 0 67.2348 12.8654 865 121.392 43.8474 471.466
930 0 72.4853 14.0028 1015 117.325 43.4778 470.692
931 0 74.4443 14.9374 1112 116.161 44.6115 469.111
932 0 78.694 17.3584 1366 111.996 43.8375 467.121
933 0 81.584 19.4768 1589 108.424 44.9572 465.422
934 0 81.5574 15.768 1286 114.99 44.6998 462.381
935 0 85.6018 17.3828 1488 112.001 46.1216 462.147
936 0 83.2696 13.2942 1107 122.968 46.4598 455.24
937 0 85.3017 13.083 1116 124.037 47.3772 453.863
938 0 92.2805 14.185 1309 121.508 47.4515 453.435
939 0 92.2987 14.2689 1317 122.901 49.0645 450.308
940 1 50.0771 12.4009 621 114.424 48.8937 477.279
941 0 52.1567 10.5643 551 117.196 49.6189 477.232
942 0 54.1436 10.3244 559 117.116 49.5778 472.819
943 0 54.119 11.4747 621 113.498 48.0966 471.878
944 0 59.0806 15.775 932 109.191 47.0654 472.468
945 0 57.1495 11.2337 642 118.586 47.5498 473.005
946 0 59.0762 11.0874 655 118.308 46.887 474.553
947 0 63.21 10.2199 646 117.118 47.5294 477.096
948 0 65.0661 12.4335 809 110.693 48.1557 480.824
949 0 66.0972 12.3455 816 111.52 47.7757 480.956
950 0 67.1488 11.6458 782 115.494 48.1662 474.496
951 0 72.1895 12.1209 875 114.355 48.2571 475.128
952 0 71.444 11.7995 843 115.256 48.8446 474.778
953 0 76.478 18.5805 1421 106.578 47.4265 471.154
954 0 79.7464 16.0133 1277 110.522 47.8269 469.356
955 0 81.5205 13.4077 1093 114.788 47.4511 471.451
956 0 83.7671 12.869 1078 115.204 46.2848 471.149
957 0 86.5432 12.9068 1117 115.491 45.6786 465.132
958 0 90.6322 13.1852 1195 114.888 44.8184 466.842
959 0 92.6829 13.2603 1229 115.316 44.7779 463.731
960 0 94.4245 11.4165 1078 116.596 42.6095 465.038
961 1 52.3511 13.1229 687 108.432 43.1907 486.603
962 0 52.133 12.0078 626 111.016 40.468 485.883
963 0 53.3251 10.5016 560 110.539 41.9054 486.505
964 0 53.2314 11.4782 611 109.115 40.3601 485.077
965 0 56.1933 13.6849 769 107.579 40.6541 482.945
966 0 58.1641 14.8545 864 106.06 40.4595 483.484
967 0 61.1254 16.1635 988 104.88 41.0668 481.38
968 0 62.1413 11.9083 740 111.026 40.4824 481.661
969 0 60.262 11.4002 687 112.996 40.5793 477.817
970 0 65.0309 13.0553 849 107.933 39.8221 477.352
971 0 67.116 11.8303 794 110.438 41.2254 479.151
972 0 68.2887 13.4576 919 106.791 39.8248 471.565
973 0 70.182 13.0945 919 109.323 41.8999 470.094
974 0 72.5144 12.6733 919 110.3 41.8292 469.527
975 0 76.2978 12.6609 966 109.446 43.5248 465.4
976 0 77.1918 13.2397 1022 109.365 42.7573 466.967
977 0 81.277 13.0787 1063 108.403 44.8081 460.899
978 0 82.396 14.8551 1224 105.385 44.9551 465.795
979 0 83.244 11.0038 916 112.008 45.6496 457.01
980 0 88.3872 9.74123 861 109.822 45.8049 460.207
981 0 91.4738 9.66396 884 111.174 46.7613 456.742
982 0 94.5715 12.0121 1136 106.847 46.6408 455.016
983 0 97.3016 11.562 1125 106.399 47.088 455.464
984 0 95.311 10.3031 982 109.06 48.7485 452.955
985 1 56.0725 13.4469 754 101.37 48.7361 473.121
986 0 58.1734 15.5054 902 97.8182 50.8592 476.581
987 0 58.0913 6.35207 369 109.179 50.1247 476.141
988 0 63.09 12.4743 787 100.859 48.1588 474.309
989 0 63.1087 11.7733 743 107.896 48.7672 474.997
990 0 64.1581 10.4741 672 109.815 49.1815 473.67
991 0 69.2078 14.8249 1026 103.787 48.2466 474.273
992 0 71.232 12.5505 894 105.638 47.6711 470.661
993 0 74.3075 9.83749 731 110.047 48.9302 470.302
994 0 72.1802 9.11607 658 111.585 48.9514 472.544
995 0 79.5166 12.249 974 105.822 49.6201 475.408
996 0 82.3277 10.7619 886 110.124 46.7585 475.63
997 0 81.1396 10.9934 892 109.749 46.3285 471.115
998 0 82.3386 11.2341 925 108.774 47.213 475.796
999 0 87.2646 11.1042 969 112.601 46.8504 471.293
1000 0 92.2499 15.7399 1452 106.076 45.6674 465.702
1001 1 45.0197 7.55225 340 113.456 42.5471 489.929
1002 0 48.2275 10.72 517 109.056 43.4391 492.035
1003 0 47.2707 9.24463 437 106.927 43.9977 483.46
1004 0 51.2363 9.58305 491 108.475 43.4277 483.762
1005 0 52.0734 9.81307 511 115.695 40.9256 482.28
1006 0 50.0301 7.97521 399 117.764 41.4411 478.541
1007 0 57.1487 13.1762 753 108.793 41.3347 479.991
1008 0 57.1087 11.5569 660 112.242 40.6242 480.576
1009 0 59.1446 10.8717 643 113.379 39.0031 479.471
1010 0 60.067 12.4028 745 111.295 39.9772 479.008
1011 0 62.0609 13.1806 818 111.07 40.5697 476.916
1012 0 64.0552 13.4571 862 111.182 39.2784 471.295
1013 0 66.1841 13.6891 906 110.974 39.1104 472.855
1014 0 65.163 11.7244 764 114.088 40.0995 474.026
1015 0 68.223 13.4705 919 112.063 41.5637 470.962
1016 0 70.1378 11.8624 832 113.284 41.8293 469.95
1017 0 73.1336 14.5624 1065 108.417 41.5775 469.665
1018 0 75.1117 15.3904 1156 108.074 42.1237 465.814
1019 0 77.2286 12.1846 941 112.46 42.5792 468.156
1020 0 78.3185 12.7301 997 113.832 43.5777 460.868
1021 0 79.2547 14.9644 1186 110.56 44.4958 454.288
1022 0 84.2218 11.1135 936 116.387 44.3034 459.369
1023 0 86.2467 11.9541 1031 115.219 44.6615 459.106
1024 0 91.2356 14.2817 1303 111.739 45.9248 456.659
1025 1 49.0282 11.4628 562 109.879 45.8826 480.089
1026 0 49.1181 10.0574 494 113.059 49.3542 477.219
1027 0 53.1595 14.2025 755 104.666 49.253 480.746
1028 0 51.1509 13.5677 694 108.488 50.2651 477.441
1029 0 54.0931 12.7558 690 108.507 50.4725 476.222
1030 0 55.2324 9.05266 500 113.708 52.348 478.462
1031 0 58.1263 13.9524 811 105.528 51.7904 477.263
1032 0 59.1556 10.1089 598 110.45 51.5468 479.179
1033 0 62.0503 13.3762 830 106.627 51.1795 477.511
1034 0 64.0863 13.2478 849 106.539 51.5336 477.966
1035 0 62.0983 11.82 734 110.064 51.6035 478.933
1036 0 63.2124 10.2986 651 113.1 51.1183 475.786
1037 0 65.1496 13.2157 861 110.502 49.4924 476.236
1038 0 69.1934 15.6518 1083 106.936 49.9908 477.44
1039 0 71.3186 14.8629 1060 109.025 47.7396 474.73
1040 0 72.2107 12.325 890 113.589 47.409 475.445
1041 0 77.3028 11.6943 904 113.43 48.9093 477.763
1042 0 80.4683 13.7321 1105 111.071 47.6371 475.086
1043 0 81.2005 13.8423 1124 111.051 46.7571 477.286
1044 0 86.2421 12.4649 1075 113.93 45.867 473.059
1045 1 46.1159 12.5987 581 109.43 45.6867 494.535
1046 0 45.0576 9.6765 436 116.892 44.5826 492.546
1047 0 48.0911 12.6635 609 109.314 44.4943 489.281
1048 0 50.0971 12.2762 615 108.964 43.961 487.779
1049 0 52.1267 12.8149 668 107.816 41.5704 489.284
1050 0 51.2363 14.6381 750 105.853 42.032 489.156
1051 0 55.0948 13.4132 739 110.326 41.5386 483.984
1052 0 59.1004 14.7038 869 106.259 42.5696 487.818
1053 0 56.2018 11.9035 669 112.241 42.0583 484.877
1054 0 58.1971 14.3134 833 110.032 42.1957 481.855
1055 0 60.3604 12.7733 771 112.94 42.6693 482.468
1056 0 61.0646 11.7089 715 115.115 42.6238 481.852
1057 0 64.0891 14.0274 899 112.472 42.1135 476.409
1058 0 68.0856 13.6446 929 110.654 42.2024 475.984
1059 0 70.0369 14.1497 991 110.742 43.56 473.442
1060 0 73.3452 13.4569 987 110.519 43.8419 475.764
1061 0 74.2027 15.5385 1153 108.873 44.5898 474.531
1062 0 73.2281 12.5089 916 115.104 44.8461 471.587
1063 0 79.121 15.47 1224 110.294 45.29 471.02
1064 0 79.1757 13.5142 1070 115.282 44.8131 466.113
1065 0 82.1717 16.0274 1317 110.93 44.8299 463.114
1066 0 86.1934 15.5 1336 111.719 45.4424 461.002
1067 0 89.3048 15.2847 1365 112.073 46.7524 458.128
1068 0 88.2481 15.955 1408 113.165 45.3885 456.773
1069 0 88.1209 13.9467 1229 117.015 47.2156 458.909
1070 0 93.2475 16.3758 1527 112.378 47.2836 457.69
1071 0 96.172 14.1413 1360 116.102 47.3978 455.457
1072 1 55.1657 12.3446 681 113.799 47.931 480.351
1073 0 53.1975 9.66211 514 121.436 48.4377 479.442
1074 0 59.1077 13.3824 791 115.642 48.7535 481.961
1075 0 60.1742 14.7406 887 113.992 50.3687 478.268
1076 0 61.3233 13.0293 799 115.498 49.393 472.07
1077 0 64.0798 12.4376 797 118.265 46.788 477.508
1078 0 67.1838 10.8955 732 121.092 48.179 479.124
1079 0 68.1067 11.5848 789 120.978 47.1166 478.716
1080 0 73.1464 15.011 1098 114.291 47.8862 477.854
1081 0 73.1067 15.6347 1143 114.573 46.3482 478.08
1082 0 77.1483 13.7398 1060 117.432 47.5651 477.015
1083 0 77.1856 15.0028 1158 116.421 46.0682 472.302
1084 0 80.0829 12.7992 1025 120.147 46.4049 477.354
1085 0 83.1189 16.4463 1367 114.054 45.8603 479.873
1086 0 85.2968 15.2643 1302 117.337 45.4647 475.199
1087 0 88.2469 16.7598 1479 115.016 43.9182 471.858
1088 0 90.0629 13.535 1219 120.325 44.8187 474.736
1089 0 93.2478 15.936 1486 115.919 42.7126 470.048
1090 0 94.0922 12.7534 1200 123.782 42.2767 470.202
1091 0 99.2001 17.4798 1734 115.563 41.6511 463.364
1092 0 98.1603 13.101 1286 124.121 40.4238 460.736
1093 0 101.118 13.4991 1365 123.626 39.9853 462.886
1094 0 105.234 14.6435 1541 120.941 39.5003 463.832
1095 1 57.0669 12.5817 718 120.671 39.695 486.306
1096 0 60.1261 14.5694 876 114.495 40.4589 487.683
1097 0 60.2169 15.0622 907 117.165 40.9471 477.936
1098 0 63.324 15.8708 1005 115.396 41.0527 479.082
1099 0 68.3948 18.9634 1297 109.322 40.6037 478.509
1100 0 65.1866 12.3031 802 123.18 42.4352 476.951
1101 0 70.2173 14.4978 1018 118.336 41.3212 472.899
1102 0 71.3508 14.5198 1036 118.444 42.2577 470.369
1103 0 73.284 14.6417 1073 118.849 42.6906 471.038
1104 0 76.2925 16.1877 1235 115.563 41.6356 469.999
1105 0 79.4554 19.2183 1527 110.991 43.2986 465.492
1106 0 82.6087 14.7442 1218 119.25 42.4688 466.006
1107 0 81.4184 14.0386 1143 122.458 43.9388 463.675
1108 0 84.4288 15.6345 1320 120.322 43.0811 462.351
1109 0 87.3462 15.0894 1318 121.281 45.2936 460.637
1110 0 88.294 14.5537 1285 124.429 45.8763 457.357
1111 0 92.4736 16.2641 1504 120.685 46.0991 454.38
1112 0 93.2197 12.9265 1205 129.056 45.8697 451.2
1113 0 95.2483 12.9346 1232 129.057 46.8539 453.669
1114 0 100.294 14.6968 1474 124.909 46.4308 454.158
1115 1 54.1435 11.7281 635 125.561 48.463 476.395
1116 0 55.0486 10.3 567 127.919 48.5838 481.243
1117 0 58.0664 13.0024 755 124.364 48.8848 479.02
1118 0 61.2865 14.3425 879 120.504 47.1206 480.146
1119 0 60.192 12.6761 763 125.919 47.8126 477.835
1120 0 64.1596 13.0768 839 123.723 48.615 476.222
1121 0 64.237 12.3138 791 125.872 47.7295 477.432
1122 0 68.2032 13.1226 895 123.313 48.3452 478.366
1123 0 66.2919 11.2834 748 127.873 48.3663 481.242
1124 0 69.2213 13.3918 927 124.619 46.7433 477.741
1125 0 75.1999 13.4841 1014 123.082 47.0385 479.056
1126 0 75.2272 14.6755 1104 123.242 46.3188 476.743
1127 0 77.3254 10.4882 811 131.72 46.0666 476.277
1128 0 80.2047 13.9144 1116 123.981 45.724 475.969
1129 0 82.2348 14.6532 1205 123.09 44.5826 473.531
1130 0 86.356 15.274 1319 120.516 43.2092 474.238
1131 0 89.26 12.6821 1132 125.229 42.0875 468.972
1132 1 48.2433 11.5664 558 124.004 43.6129 492.326
1133 0 49.0702 10.3933 510 127.71 41.5686 489.39
1134 0 50.0991 11.2577 564 125.844 42.6312 491.566
1135 0 51.1898 11.9164 610 122.733 41.1689 482.818
1136 0 50.0942 10.4004 521 126.309 41.0576 478.668
1137 0 56.1395 13.4843 757 121.699 40.3871 483.649
1138 0 57.1149 12.0809 690 123.91 40.5725 483.119
1139 0 59.1445 12.4441 736 121.431 40.7867 482.564
1140 0 62.173 15.7464 979 113.618 41.236 485.806
1141 0 63.1558 15.153 957 116.065 39.582 480.941
1142 0 67.2184 17.3911 1169 111.014 40.793 481.163
1143 0 68.0894 14.5103 988 116.126 40.6953 476.738
1144 0 69.2012 12.283 850 121.236 40.4412 478.616
1145 0 71.1576 14.3063 1018 117.981 40.5825 472.152
1146 0 74.2422 15.207 1129 116.399 40.7458 470.641
1147 0 76.1499 13.3158 1014 120.327 41.4822 469.433
1148 0 77.5146 12.7718 990 120.609 41.9222 467.445
1149 0 79.356 13.1559 1044 119.302 40.8506 463.914
1150 0 84.2727 17.0637 1438 111.432 42.1426 464.163
1151 0 91.6133 20.6193 1889 105.214 42.6194 456.278
1152 0 88.4983 13.0963 1159 118.043 43.4564 457.997
1153 1 47.0842 14.336 675 108.464 45.917 481.274
1154 0 50.1827 12.9925 652 110.655 45.569 479.572
1155 0 51.2335 10.1106 518 114.112 47.5058 479.396
1156 0 51.2162 11.6955 599 116.264 47.571 479.539
1157 0 54.1654 13.7357 744 112.254 47.0484 476.917
1158 0 55.3923 13.5578 751 114.003 47.5273 475.558
1159 0 58.1485 13.7751 801 113.176 48.3546 475.814
1160 0 56.1508 11.0773 622 120.13 49.91 477.532
1161 0 61.2033 16.0776 984 110.008 48.501 477.236
1162 0 62.2141 12.0391 749 117.846 49.9186 476.514
1163 0 64.164 13.933 894 113.666 49.1667 478.875
1164 0 67.1747 12.2963 826 116.815 50.753 476.791
1165 0 67.2902 12.6467 851 117.502 49.6933 479.054
1166 0 70.2352 13.8107 970 114.394 48.667 480.745
1167 0 74.2791 15.8995 1181 111.233 48.1109 474.223
1168 0 74.0911 11.7423 870 119.782 47.8759 471.663
1169 0 78.1802 15.2724 1194 113.566 47.3174 472.613
1170 0 81.1656 12.6531 1027 116.653 47.371 474.278
1171 0 84.3406 15.5086 1308 111.495 45.0459 469.405
1172 0 88.1873 14.8661 1311 112.227 46.0122 472.603
1173 0 90.3971 13.6951 1238 114.551 44.3934 469.465
1174 0 94.288 14.3815 1356 111.414 41.7633 466.282
1175 1 50.1548 9.53049 478 113.692 43.3787 491.559
1176 0 49.1769 10.4724 515 112.86 43.6233 493.87
1177 0 52.2387 12.194 637 111.173 41.5761 493.049
1178 0 53.2693 11.5451 615 114.738 41.5577 484.229
1179 0 57.4526 14.7252 846 109.103 41.8747 485.154
1180 0 56.0788 10.6814 599 113.499 41.2771 485.735
1181 0 57.32 13.2938 762 108.252 41.3635 485.008
1182 0 59.3148 12.8636 763 107.82 40.2267 485.299
1183 0 63.4008 17.208 1091 104.335 40.0046 477.873
1184 0 65.3098 14.4236 942 107.64 39.9979 479.378
1185 0 66.2641 13.4009 888 111.928 39.4358 476.318
1186 0 68.4268 13.4596 921 111.768 40.0684 473.227
1187 0 71.4102 13.4575 961 112.605 39.2612 469.37
1188 0 74.2614 13.7622 1022 111.729 39.7025 468.015
1189 0 74.4383 14.9923 1116 111.036 41.836 469.049
1190 0 76.5061 14.7178 1126 111.393 41.4707 469.544
1191 0 80.5628 13.8401 1115 113.961 40.8368 461.724
1192 0 83.2949 13.8304 1152 114.089 41.9297 462.782
1193 0 85.5648 13.2064 1130 116.288 42.0319 459.486
1194 0 86.6628 11.562 1002 118.678 42.7435 458.363
1195 0 89.3537 14.4706 1293 115.327 44.2676 454.263
1196 0 91.3746 15.5514 1421 112.16 43.6904 459.882
1197 0 95.6158 13.868 1326 116.749 44.4284 455.33
1198 0 101.607 16.3276 1659 111.184 45.2604 454.465
1199 0 104.908 16.7004 1752 110.316 45.0594 444.351
1200 0 107.493 14.68 1578 113.554 47.071 448.435
1201 0 109.205 13.3693 1460 115.96 47.4753 445.281
1202 0 110.365 11.4438 1263 118.433 48.2676 447.403
1203 1 64.5456 11.5577 746 115.131 47.8418 471.429
1204 0 63.3983 10.7416 681 115.799 49.2438 473.915
1205 0 67.453 12.4679 841 113.44 48.874 473.501
1206 0 71.3703 15.3845 1098 109.798 48.7851 471.109
1207 0 71.4698 14.4537 1033 111.846 49.4705 471.076
1208 0 76.7307 12.8241 984 114.04 48.877 471.961
1209 0 77.7938 13.6643 1063 113.767 48.5597 470.752
1210 0 81.5369 14.472 1180 112.352 47.2822 470.986
1211 0 82.3307 12.7777 1052 115.49 48.1483 472.442
1212 0 87.4759 13.0207 1139 116.379 47.3889 467.632
1213 0 87.5586 14.1962 1243 114.309 47.2985 472.569
1214 0 93.5579 14.6754 1373 113.304 46.1275 470.069
1215 0 94.4086 17.0006 1605 109.38 46.3614 471.685
1216 0 98.6213 16.538 1631 110.773 44.9847 468.17
1217 0 98.6617 12.6087 1244 117.219 43.5643 469.771
1218 0 103.672 14.1697 1469 115.199 43.6739 465.56
1219 0 103.518 13.5338 1401 117.758 43.5161 457.33
1220 0 106.502 14.5068 1545 115.654 42.2091 458.396
1221 0 108.598 12.9376 1405 118.91 42.6833 456.679
1222 0 114.762 12.539 1439 117.695 40.533 452.448
1223 0 118.553 14.2805 1693 115.207 41.8754 450.372
1224 0 122.979 13.5227 1663 115.447 41.092 450.612
1225 1 69.5768 11.7999 821 112.141 40.028 477.681
1226 0 69.3785 11.848 822 110.112 39.5255 477.252
1227 0 73.6959 13.9221 1026 107.949 40.8402 474.205
1228 0 75.6342 12.0316 910 111.598 40.1582 468.816
1229 0 79.3844 15.2045 1207 107.738 39.6081 470.457
1230 0 82.7432 16.2793 1347 106.908 40.9154 467.762
1231 0 82.5478 15.3002 1263 106.535 39.6675 470.204
1232 0 84.4402 12.1743 1028 114.131 40.3093 461.119
1233 0 88.7158 13.0304 1156 112.912 41.6176 459.412
1234 0 93.6004 16.3247 1528 107.173 41.392 459.207
1235 0 95.5407 13.7952 1318 111.488 41.0971 450.441
1236 0 99.3748 12.79 1271 112.366 43.0968 451.606
1237 0 102.502 15.0924 1547 107.229 43.0601 456.15
1238 0 107.361 15.35 1648 107.312 44.111 447.505
1239 0 107.651 12.2432 1318 111.542 44.742 449.313
1240 0 110.607 12.1059 1339 111.744 44.9836 445.355
1241 0 115.752 13.4598 1558 109.694 45.1438 442.118
1242 0 119.478 13.3999 1601 110.259 46.4416 435.25
1243 0 120.621 10.9765 1324 113.713 46.1866 441.585
1244 1 63.2897 10.5704 669 108.628 46.9417 469.386
1245 0 68.4152 13.0819 895 105.61 47.6682 464.659
1246 0 71.2234 12.3695 881 108.035 48.6992 464.094
1247 0 73.4753 13.297 977 106.397 50.3245 472.871
1248 0 73.2397 12.9028 945 107.513 50.2508 471.016
1249 0 76.2669 10.8828 830 110.729 49.988 466.392
1250 0 76.5123 10.5996 811 111.963 47.8681 465.276
1251 0 80.4256 11.3024 909 111.218 49.2772 461.785
1252 0 83.6912 14.5296 1216 105.076 47.6768 468.053
1253 0 90.4076 13.9148 1258 105.387 48 465.448
1254 0 93.1546 12.2162 1138 107.989 46.9183 464.975
1255 0 96.5976 8.30249 802 111.706 48.5948 473.107
1256 0 97.6041 12.1409 1185 108.101 47.7046 468.455
1257 0 100.445 11.9468 1200 108.905 46.2925 457.671
1258 0 104.68 11.4826 1202 110.008 45.2987 451.161
1259 1 59.1762 10.9841 650 106.112 44.3323 477.522
1260 0 57.3483 11.3342 650 107.423 45.0154 482.846
1261 0 63.2699 11.6011 734 107.597 44.8965 483.358
1262 0 63.2039 9.61966 608 110.457 43.278 475.84
1263 0 65.1448 13.3242 868 105.058 42.6037 480.495
1264 0 65.2327 10.4395 681 110.001 42.9251 476.088
1265 0 70.5632 14.0016 988 104.531 43.0789 478.379
1266 0 70.6133 13.5669 958 104.518 41.5209 476.579
1267 0 72.2505 12.3321 891 107.095 40.7318 474.589
1268 0 73.4281 12.0117 882 108.551 42.1304 473.1
1269 0 77.4431 13.455 1042 106.049 40.7159 469.464
1270 0 79.4709 10.1169 804 110.359 41.944 473.219
1271 0 82.532 13.9946 1155 105.603 40.0857 467.535
1272 0 81.4435 9.22112 751 113.302 41.6858 462.736
1273 0 86.5038 9.96487 862 112.145 40.5186 460.124
1274 0 95.5294 14.7808 1412 103.107 41.1501 457.576
1275 0 96.6069 11.8418 1144 108.282 41.0612 458.559
1276 0 99.3109 11.5395 1146 107.833 41.2347 460.427
1277 1 54.2615 17.6552 958 96.3768 40.5626 476.014
1278 0 52.078 11.1948 583 107.84 41.6518 477.185
1279 0 58.104 10.8943 633 107.049 42.1185 475.397
1280 0 58.2958 11.6475 679 109.785 42.7275 473.178
1281 0 59.3607 11.1353 661 109.779 43.9924 474.812
1282 0 61.354 14.9624 918 106.001 44.0654 470.98
1283 0 64.4496 19.1157 1232 97.1153 44.4886 478.373
1284 0 66.1849 12.8277 849 108.647 45.47 472.906
1285 0 65.4101 10.9005 713 112.969 45.9635 471.202
1286 0 69.532 17.8479 1241 102.1 47.249 470.564
1287 0 71.3547 13.4539 960 109.12 47.1198 470.586
1288 0 73.1992 15.8608 1161 106.271 48.1051 465.781
1289 0 74.3406 14.0569 1045 108.699 47.845 468.513
1290 0 80.2784 14.1757 1138 107.714 48.5677 466.676
1291 0 83.5055 13.7356 1147 108.752 48.8631 463.672
1292 0 87.5201 13.9854 1224 107.051 48.143 469.264
1293 0 87.2747 10.4727 914 112.661 47.6652 466.996
1294 0 88.6098 16.3526 1449 104.509 48.4155 464.379
1295 0 94.2765 14.2347 1342 109.867 47.8271 458.394
1296 1 47.3275 11.0929 525 111.362 48.0419 484.924
1297 0 51.4543 10.9806 565 111.407 48.2142 483.389
1298 0 53.597 13.4522 721 106.725 47.0374 483.967
1299 0 52.0993 11.6316 606 110.244 47.6502 487.624
1300 0 56.0779 14.2124 797 105.044 47.0489 489.878
1301 0 57.0941 13.7142 783 106.885 47.7599 486.549
1302 0 60.1228 15.8176 951 103.494 46.8517 489.327
1303 0 58.1616 11.7259 682 111.229 45.1716 482.774
1304 0 65.1478 12.6328 823 108.465 45.3633 482.987
1305 0 63.1049 11.4096 720 110.524 43.6417 483.293
1306 0 66.1447 11.5807 766 111.392 42.7546 480.426
1307 0 68.2402 12.1336 828 110.895 42.9698 477.646
1308 0 73.1206 10.9955 804 112.757 38.6318 478.553
1309 0 80.138 15.1988 1218 106.761 37.124 467.984
1310 0 81.1675 14.5009 1177 106.979 37.2821 469.602
1311 0 84.1476 10.4103 876 111.792 37.8196 472
1312 0 86.1968 12.309 1061 110.808 38.8699 469.483
1313 0 89.2064 13.0484 1164 109.867 37.8531 463.74
1314 1 51.2179 12.398 635 107.959 38 482.11
1315 0 52.0257 10.4756 545 109.727 37.2862 481.582
1316 0 52.2381 10.3756 542 110.205 38.6624 481.915
1317 0 54.2004 12.5645 681 107.548 38.4082 475.256
1318 0 55.0717 9.38777 517 113.373 41.7253 477.3
1319 0 55.2406 12.0021 663 110.151 41.0422 474.03
1320 0 56.3671 11.9219 672 110.969 42.0432 475.457
1321 0 58.1643 13.565 789 108.231 42.5792 471.772
1322 0 60.1446 12.0875 727 111.568 43.8294 468.413
1323 0 61.2002 16.062 983 104.72 42.3032 466.794
1324 0 61.2142 10.8798 666 114.919 44.5045 466.673
1325 0 66.1987 13.4897 893 110.539 44.7346 463.876
1326 0 67.1246 9.20676 618 118.426 44.1521 463.317
1327 0 74.1755 14.7623 1095 107.754 45.4265 465.364
1328 0 74.2509 13.8719 1030 111.183 46.4437 465.339
1329 0 75.211 13.0832 984 112.204 45.5549 470.367
1330 0 78.0848 14.9197 1165 110.505 46.3502 464.43
1331 0 81.1635 12.9738 1053 112.531 46.8015 469.462
1332 0 83.3682 13.2664 1106 112.156 47.4286 462.308
1333 0 88.3003 17.18 1517 105.493 46.2815 463.79
1334 0 89.1495 15.8049 1409 108.676 48.2938 465.514
1335 0 93.2858 13.3139 1242 112.245 47.3269 467.251
1336 1 50.1191 9.57719 480 111.435 48.5396 493.867
1337 0 52.0626 10.3145 537 113.849 47.3035 485.304
1338 0 54.1107 10.2383 554 107.646 47.4296 488.352
1339 0 57.0304 12.73 726 108.529 46.5289 484.46
1340 0 58.0861 13.5488 787 106.826 45.4549 489.783
1341 0 60.0541 13.6211 818 107.397 44.769 486.846
1342 0 61.2277 11.0244 675 111.828 44.6963 485.853
1343 0 63.2521 11.9996 759 110.26 43.2016 484.427
1344 0 67.2181 12.809 861 108.355 43.5935 483.474
1345 0 69.079 13.3036 919 107.692 41.5354 480.342
1346 0 70.1952 13.1063 920 107.796 42.3946 481.071
1347 0 72.179 14.7965 1068 105.534 41.2022 479.556
1348 0 73.3744 13.8877 1019 107.974 42.1413 478.313
1349 0 78.3581 12.9406 1014 108.186 42.3817 473.127
1350 0 81.3082 14.3159 1164 105.65 41.8943 471.076
1351 0 84.2606 14.1703 1194 107.005 41.696 467.691
1352 0 86.3878 12.2471 1058 108.587 40.8469 468.679
1353 1 48.1754 10.8147 521 107.572 42.1593 483.873
1354 0 49.212 10.1398 499 107.457 41.9519 484.329
1355 0 50.2586 15.2213 765 100.539 40.9621 481.438
1356 0 51.2184 11.656 597 105.422 38.1893 479.03
1357 0 53.0687 11.438 607 105.297 39.458 481.959
1358 0 56.1571 10.2213 574 107.143 38.3728 475.967
1359 0 55.0556 11.3703 626 109.145 37.7061 470.454
1360 0 59.0756 11.5107 680 108.104 39.5162 473.234
1361 0 59.2075 11.7891 698 108.292 39.8238 469.934
1362 0 63.1861 14.2753 902 104.979 40.1452 469.56
1363 0 62.3614 11.3211 706 110.714 41.1785 467.585
1364 0 65.2395 12.6304 824 108.097 42.4648 466.549
1365 0 68.2284 14.0997 962 106.708 42.3836 465.306
1366 0 67.3049 12.2428 824 110.941 43.9587 462.375
1367 0 73.2122 16.7459 1226 102.394 44.509 463.655
1368 0 70.3997 11.7898 830 112.46 44.0651 459.369
1369 0 76.3094 13.7991 1053 108.456 45.3989 462.085
1370 0 78.2909 11.9426 935 111.06 46.1134 462.262
1371 0 81.4582 16.6834 1359 104.071 46.1177 459.272
1372 0 82.4844 15.6151 1288 106.628 48.1304 457.386
1373 0 85.7554 17.8181 1528 104.7 47.7278 457.791
1374 0 89.445 15.0707 1348 108.731 49.3932 461.77
1375 0 92.4147 14.6622 1355 110.613 48.11 461.137
1376 0 96.7253 16.5934 1605 107.401 48.7769 453.634
1377 0 99.6302 13.9215 1387 111.267 48.0714 455.017
1378 0 99.2729 13.0751 1298 114.017 48.4684 455.708
1379 0 105.283 13.3166 1402 112.412 47.1305 460.141
1380 1 58.0711 10.9521 636 113.374 48.3742 474.855
1381 0 57.2018 10.3493 592 111.221 47.0405 477.904
1382 0 60.0911 14.3948 865 103.168 45.8 483.151
1383 0 56.0309 10.4407 585 112.179 44.9521 479.106
1384 0 60.1039 12.1124 728 109.093 44.6854 479.295
1385 0 64.0776 14.3576 920 105.486 43.4554 477.191
1386 0 65.1721 13.8249 901 106.148 41.99 476.001
1387 0 69.093 16.0798 1111 102.742 40.3132 475.897
1388 0 70.0806 15.3538 1076 103.609 40.9089 476.518
1389 0 73.1651 14.4058 1054 106.037 39.8605 472.016
1390 0 75.3516 14.3328 1080 106.588 39.8083 471.388
1391 0 77.2167 13.896 1073 106.36 39.5918 469.222
1392 0 80.138 12.3038 986 107.368 39.4787 472.054
1393 0 83.1566 10.39 864 110.962 40.1215 470.223
1394 0 88.2099 14.5562 1284 104.702 40.8326 466.518
1395 0 88.3134 13.8258 1221 108.231 39.6364 461.976
1396 0 93.2969 15.5954 1455 104.792 41 463.68
1397 0 93.1883 14.8731 1386 108.486 38.6479 451.182
1398 0 97.2695 14.1257 1374 108.577 39.6361 451.194
1399 1 55.0974 11.6521 642 108.291 40.6931 470.143
1400 0 57.1863 10.3696 593 109.159 41.2546 476.826
1401 0 59.2072 12.1945 722 106.691 40.9238 469.392
1402 0 62.3061 17.3177 1079 97.9166 41.316 476.549
1403 0 64.3942 14.7529 950 102.962 40.4537 470.641
1404 0 64.3244 11.9706 770 109.052 40.9545 468.199
1405 0 67.2154 13.613 915 106.024 41.518 469.492
1406 0 71.4523 19.7614 1412 96.8477 42.7224 470.371
1407 0 71.4722 14.9708 1070 102.367 43.2897 473.922
1408 0 75.2494 17.6347 1327 100.729 43.8387 467.556
1409 0 74.2418 19.3287 1435 100.151 44.7624 464.631
1410 0 77.1173 14.0954 1087 108.017 45.5041 462.284
1411 0 79.2443 14.6383 1160 107.675 46.5026 460.238
1412 0 82.3245 11.2239 924 112.992 45.619 461.131
1413 0 83.2274 12.6641 1054 111.34 45.3539 459.932
1414 0 88.2344 14.2008 1253 109.559 47.0758 460.355
1415 0 91.2907 14.5141 1325 108.8 48.2626 460.729
1416 0 95.1936 13.8455 1318 107.999 48.2731 462.314
1417 0 96.3593 13.2525 1277 110.688 48.0486 457.002
1418 0 101.293 15.4107 1561 106.213 49.2249 463.029
1419 0 105.404 15.4549 1629 105.902 48.4764 457.037
1420 1 66.4052 9.44204 627 112.34 49.8373 478.1
1421 0 66.2656 6.62485 439 111.542 48.6424 487.073
1422 0 65.5353 12.848 842 108.227 47.9976 477.131
1423 0 57.1266 12.9362 739 109.549 47.3234 472.065
1424 0 63.335 10.4366 661 111.604 47.7368 475.467
1425 0 66.0265 10.4806 692 111.675 45.2124 472.559
1426 0 70.0962 12.1975 855 108.363 45.6889 473.009
1427 0 73.0654 14.3844 1051 104.31 44.2617 472.588
1428 0 74.0571 12.5849 932 107.403 44.8788 468.279
1429 0 77.167 13.0367 1006 106.115 43.507 462.517
1430 0 78.1077 10.844 847 110.479 43.4793 466.399
1431 0 84.0906 13.4498 1131 105.892 41.6437 466.975
1432 0 84.1305 14.9886 1261 104.757 41.6582 460.92
1433 0 85.2599 10.4856 894 111.432 39.9564 458
1434 0 92.4348 12.1275 1121 109.122 41.7877 464.113
1435 0 95.4154 14.0543 1341 104.776 40.2968 455.017
1436 0 95.287 14.2517 1358 105.899 41.0302 456.303
1437 0 105.235 8.97042 944 110.702 39.2606 460.743
1438 0 104.295 13.9125 1451 104.427 38.6485 452.47
1439 0 110.351 15.5504 1716 102.335 39.4878 449.996
1440 1 59.168 14.8391 878 100.042 38.3679 475.737
1441 0 64.1735 10.9703 704 107.182 36.7287 476.418
1442 0 64.1425 10.3052 661 109.129 38.8533 472.648
1443 0 66.2582 15.2736 1012 102.96 39.164 474.961
1444 0 69.2278 15.3406 1062 102.333 40.0424 473.579
1445 0 72.1876 14.4208 1041 103.077 39.3218 468.813
1446 0 75.1964 15.1337 1138 102.1 39.7179 466.591
1447 0 77.2534 13.2939 1027 105.018 39.3554 462.272
1448 0 78.1522 12.2965 961 106.852 41.4672 461.67
1449 0 81.6606 12.8091 1046 105.772 41.4704 458.241
1450 0 84.3165 14.8132 1249 101.994 41.8359 460.03
1451 0 86.5377 13.7628 1191 104.034 44.162 455.615
1452 0 91.2669 9.19282 839 109.35 42.6269 458.417
1453 0 99.2747 15.2305 1512 99.455 45.6627 464.249
1454 0 89.1022 9.10191 811 112.716 45.3342 446.764
1455 0 97.2156 12.1688 1183 107.451 45.0575 449.934
1456 0 101.257 18.2605 1849 99.0833 46.9989 446.779
1457 0 103.343 11.1376 1151 108.217 47.0556 449.376
1458 0 106.405 10.883 1158 109.446 47.38 447.586
1459 0 103.352 13.5556 1401 104.56 48.2284 445.049
1460 1 114.218 11.7845 1346 105.547 48.3358 447.981
1461 0 114.202 10.7529 1228 107.621 48.592 446.077
1462 1 66.2182 12.7004 841 102.573 49.8288 474.13
1463 0 66.2194 15.6299 1035 97.999 48.4425 475.334
1464 0 66.2893 6.75825 448 109.442 47.7946 467.268
1465 0 70.2003 13.2051 927 102.214 47.6591 471.187
1466 0 75.2434 14.0345 1056 101.705 47.3532 469.709
1467 0 79.2532 12.5295 993 103.73 47.9738 469.898
1468 0 79.3292 13.4503 1067 102.306 46.6317 467.833
1469 0 82.2939 10.6326 875 106.706 45.3909 466.342
1470 0 84.129 13.8121 1162 103.321 45.6971 468.697
1471 0 88.2814 14.5444 1284 102.551 45.3069 466.908
1472 0 90.3283 12.997 1174 103.963 43.4157 467.979
1473 0 95.2885 15.133 1442 101.799 43.9293 465.516
1474 0 88.1641 3.0965 273 118.934 42.2674 445.139
1475 1 100.376 13.1704 1322 104.974 42.9607 458.315
1476 0 106.404 15.5916 1659 102.52 43.0693 460.887
1477 0 106.233 13.5457 1439 106.791 41.3871 456.515
1478 0 109.351 17.6404 1929 100.992 40.9305 457.631
1479 0 114.471 11.8196 1353 109.597 39.728 451.697
1480 0 110.618 11.7793 1303 110.323 39.6562 436.098
1481 0 120.376 13.4662 1621 107.675 38.8081 448.302
1482 0 124.497 13.7996 1718 107.836 39.4389 442.5
1483 0 129.554 15.4067 1996 104.928 38.7169 437.565
1484 1 72.4152 12.0279 871 105.248 39.8898 471.526
1485 0 73.1482 14.3134 1047 102.572 40.1729 467.186
1486 0 75.2622 9.34068 703 106.834 39.7496 470.996
1487 0 79.2896 12.0697 957 106.647 38.2038 464.578
1488 0 80.3769 17.7912 1430 99.5168 39.6112 463.673
1489 0 81.3676 11.4296 930 108.96 39.1871 457.782
1490 0 87.3959 13.9137 1216 106.804 40.2845 458.447
1491 0 91.3511 13.5412 1237 107.077 40.8973 457.044
1492 0 91.5574 11.9488 1094 110.682 40.4333 450.237
1493 0 95.5569 15.5195 1483 103.576 42.3318 454.701
1494 0 99.5819 14.6814 1462 105.522 42.1717 450.905
1495 0 99.3745 11.9045 1183 109.405 42.9062 450.311
1496 0 105.314 14.1292 1488 105.696 43.9059 450.962
1497 0 110.796 12.9608 1436 109.095 45.0738 446.986
1498 0 109.369 11.6577 1275 111.685 44.9051 444.791
1499 0 112.234 13.6411 1531 109.389 45.1319 443.05
1500 0 118.4 16.4442 1947 104.454 46.6744 441.728
1501 0 123.296 13.8447 1707 108.535 46.4564 441.933
1502 0 129.416 13.9473 1805 109.41 47.6094 425.851
1503 1 65.1976 12.3931 808 110.324 47.1683 456.337
1504 0 69.4652 14.007 973 106.361 47.0832 465.398
1505 0 74.3696 12.9219 961 106.601 47.5588 464.866
1506 0 76.2758 15.4177 1176 103.214 46.6352 465.935
1507 0 79.3724 13.4808 1070 105.614 47.7065 469.864
1508 0 81.2342 12.5932 1023 107.402 46.2669 467.072
1509 0 88.7866 17.1084 1519 101.106 47.3074 467.876
1510 0 85.5652 14.4451 1236 106.184 45.7338 466.115
1511 0 92.5387 17.2468 1596 101.205 47.0852 470.817
1512 0 92.2962 14.0092 1293 107.872 46.0897 465.433
1513 0 96.436 18.7171 1805 100.828 45.2488 467.85
1514 0 96.2669 12.2057 1175 114.276 43.7081 461.923
1515 0 100.472 13.0185 1308 111.619 44.1346 459.17
1516 0 103.478 14.2446 1474 108.34 43.1486 461.947
1517 0 108.391 14.1524 1534 109.404 42.7093 456.894
1518 1 59.554 7.15317 426 113.171 41.6268 480.437
1519 0 62.2883 11.8963 741 108.748 40.7476 481.031
1520 0 62.1298 12.1681 756 104.599 41.3241 480.635
1521 0 66.0878 13.7696 910 105.851 40.7264 480.098
1522 0 68.3147 12.6473 864 108.322 40.4699 476.657
1523 0 71.2563 14.8197 1056 103.609 39.6894 478.496
1524 0 75.469 13.9528 1053 105.651 40.1529 477.664
1525 0 77.2194 13.9214 1075 107.425 39.7154 471.515
1526 0 76.6387 13.5571 1039 109.404 38.6939 467.658
1527 0 80.6637 13.1534 1061 108.841 39.7342 469.694
1528 0 83.2884 15.3923 1282 106.573 39.9633 466.122
1529 0 84.6871 16.2835 1379 106.18 39.7738 463.005
1530 0 84.5906 15.0608 1274 108.881 38.6389 457.297
1531 0 93.918 14.4488 1357 107.323 41.0015 463.147
1532 0 92.4532 13.8773 1283 110.364 40.2728 455.751
1533 0 95.5813 14.7518 1410 108.845 41.2652 453.808
1534 0 96.6428 15.3555 1484 108.969 42.2237 450.012
1535 0 99.7092 13.1181 1308 111.983 42.6697 449.316
1536 0 101.114 13.3612 1351 112.305 43.2791 445.318
1537 0 106.755 12.6177 1347 110.733 44.124 452.538
1538 0 106.627 12.5484 1338 114.937 44.8894 445.288
1539 1 59.3702 11.8915 706 112.265 44.5085 467.242
1540 0 64.4218 17.3544 1118 102.131 45.1538 471.304
1541 0 64.4146 12.373 797 113.203 46.6851 462.804
1542 0 66.3915 12.7426 846 111.142 47.682 472.368
1543 0 69.2869 12.0658 836 112.792 47.195 467.031
1544 0 71.3501 14.9825 1069 108.042 47.3171 472.384
1545 0 73.2836 13.823 1013 110.082 47.8963 470.005
1546 0 76.2933 14.4443 1102 108.613 47.6479 469.604
1547 0 78.675 16.1932 1274 108.543 47.7465 466.242
1548 0 81.6047 15.0972 1232 110.83 47.5106 465.258
1549 0 83.6443 14.203 1188 112.953 47.2096 466.164
1550 0 86.7323 12.1177 1051 117.705 47.5557 463.494
1551 0 88.6372 13.5383 1200 114.365 48.0275 466.378
1552 0 90.3341 16.7821 1516 110.569 47.2731 466.534
1553 0 95.5869 14.6673 1402 112.944 46.8802 468.333
1554 0 96.6988 13.3921 1295 115.919 45.9382 466.932
1555 0 99.6527 13.4166 1337 116.435 46.5767 464.108
1556 0 104.526 14.7044 1537 113.371 45.3097 462.079
1557 0 108.364 13.187 1429 114.589 43.9566 462.943
1558 0 114.587 11.5545 1324 115.036 43.5279 462.296
1559 0 116.408 20.3336 2367 102.289 42.6168 454.397
1560 0 117.372 16.3327 1917 108.215 41.9817 452.808
1561 0 121.519 13.6111 1654 112.137 40.8422 454.078
1562 0 123.693 14.536 1798 110.133 41.767 446.166
1563 1 69.4652 11.5454 802 111.37 42.687 480.203
1564 0 73.2673 17.7569 1301 103.302 41.9347 476.678
1565 0 75.4399 13.587 1025 108.708 41.5366 474.521
1566 0 79.2691 14.1417 1121 107.355 41.0401 471.821
1567 0 80.4736 14.949 1203 107.218 40.2411 468.789
1568 0 83.2501 9.86186 821 115.19 41.4994 467.736
1569 0 85.4199 15.3243 1309 106.704 40.9312 468.342
1570 0 88.179 13.6994 1208 110.357 41.4371 464.219
1571 0 91.273 16.5 1506 105.286 40.4714 467.851
1572 0 94.4475 18.4441 1742 104.783 39.8823 461.063
1573 0 98.4214 15.3727 1513 109.617 40.1362 456.246
1574 0 100.275 12.9943 1303 111.886 39.7506 460.408
1575 0 102.393 15.001 1536 110.819 39.1374 451.161
1576 0 106.503 16.7882 1788 107.196 41.2215 453.322
1577 0 112.714 18.1167 2042 105.577 41.5882 443.457
1578 0 116.513 15.363 1790 107.999 43.9363 448.034
1579 0 116.673 13.165 1536 111.088 43.8854 445.691
1580 0 122.518 12.4798 1529 112.546 44.0889 437.768
1581 0 127.798 18.7719 2399 103.118 45.2305 436.168
1582 0 130.408 15.7123 2049 107.104 45.489 434.086
1583 0 132.408 14.3723 1903 110.524 46.5124 424.72
1584 1 71.1512 12.101 861 109.145 46.1231 458.541
1585 0 76.2086 12.7545 972 107.305 47.037 459.341
1586 0 75.455 13.3457 1007 105.728 46.4777 456.816
1587 0 86.2334 25.2222 2175 91.0864 47.2749 451.747
1588 0 88.2737 15.6105 1378 102.811 46.9942 454.213
1589 0 87.268 13.7851 1203 106.226 47.3824 455.494
1590 0 90.0966 15.106 1361 104.976 48.0558 454.636
1591 0 89.1392 13.9894 1247 107.066 47.3809 457.017
1592 0 89.3366 10.5108 939 113.056 47.8126 455.349
1593 0 93.4238 14.2576 1332 107.953 48.4917 453.699
1594 0 101.647 12.6122 1282 109.408 48.422 452.051
1595 0 99.5303 11.7251 1167 112.138 47.1568 456.208
1596 0 105.532 12.2048 1288 110.026 47.8191 459.063
1597 0 110.506 14.5331 1606 107.493 46.9875 452.881
1598 0 113.391 12.8229 1454 109.851 45.9347 452.609
1599 0 122.556 15.0054 1839 105.632 46.565 446.766
1600 0 125.675 13.4473 1690 108.171 44.7077 442.87
1601 0 133.36 18.3488 2447 99.7666 43.4193 455.591
1602 0 134.544 12.9772 1746 109.443 41.9485 445.605
1603 0 140.589 11.9142 1675 109.377 42.637 444.873
1604 0 142.648 9.76528 1393 112.826 40.636 438.298
1605 0 155.542 21.5311 3349 96.106 40.8017 447.031
1606 1 85.3478 12.1034 1033 103.925 40.9439 474.399
1607 0 89.3251 11.4525 1023 107.599 40.4848 465.328
1608 0 90.5251 19.4421 1760 96.2142 40.4153 460.121
1609 0 91.4614 17.0564 1560 100.569 39.4564 455.932
1610 0 94.2449 14.1864 1337 104.438 37.65 451.21
1611 0 96.2784 12.6196 1215 106.569 39.0477 449.431
1612 0 99.5204 12.3894 1233 104.146 38.807 455.572
1613 0 107.814 13.9407 1503 103.768 39.6727 445.013
1614 0 107.513 13.7565 1479 104.047 38.3198 444.83
1615 0 112 14.3571 1608 101.916 40.2127 445.651
1616 0 113.739 13.6189 1549 104.338 39.0342 432.921
1617 0 117.876 12.7337 1501 104.983 40.2372 436.923
1618 0 125.137 18.3719 2299 96.2366 40.2497 442.398
1619 0 123.789 11.9073 1474 106.248 41.074 433.611
1620 0 133.229 13.7282 1829 103.407 40.8442 429.014
1621 0 136.872 13.3775 1831 104.859 42.3927 425.422
1622 1 74.2125 13.7039 1017 104.415 42.1475 455.422
1623 0 80.2941 14.4095 1157 101.906 43.6076 457.004
1624 0 83.1818 13.5486 1127 104.157 43.5475 452.644
1625 0 82.7797 10.2561 849 110.71 44.2992 448.349
1626 0 86.5642 12.6842 1098 105.964 44.5984 450.832
1627 0 88.4928 16.4646 1457 100.784 45.2588 444.485
1628 0 90.4798 12.8869 1166 106.193 46.5986 449.183
1629 0 97.598 14.5597 1421 103.701 46.803 447.626
1630 0 100.208 14.1506 1418 104.228 47.2701 449.006
1631 0 100.202 12.7144 1274 106.863 47.033 449.772
1632 0 104.334 13.5335 1412 107.125 47.1962 445.581
1633 0 109.476 13.866 1518 106.001 48.0296 450.918
1634 0 114.477 12.6139 1444 109.384 47.5235 443.176
1635 0 117.485 13.6357 1602 107.038 49.2029 449.308
1636 1 61.1574 9.36927 573 106.689 47.0471 474.562
1637 0 64.0997 9.26682 594 109.02 46.5421 469.04
1638 0 75.2018 13.364 1005 103.292 49.3114 480.597
1639 0 75.1984 13.6705 1028 105.077 48.3794 476.356
1640 0 78.2894 14.5997 1143 101.983 48.4891 480.36
1641 0 79.2156 14.8582 1177 103.781 46.7808 474.299
1642 0 78.3823 12.2094 957 108.967 47.5381 477.623
1643 0 83.1644 14.1767 1179 104.84 46.6141 479.062
1644 0 85.3679 16.0599 1371 102.445 45.7892 476.151
1645 0 85.3088 15.9538 1361 103.237 44.1984 470.017
1646 0 89.2581 13.3097 1188 106.136 42.3687 471.093
1647 0 93.3436 12.1487 1134 107.074 42.8871 469.241
1648 0 95.3473 15.4383 1472 103.573 42.7996 464.696
1649 0 96.5661 11.6604 1126 108.253 41.6989 461.029
1650 0 97.8891 10.7162 1049 111.002 41.4252 463.713
1651 0 105.353 15.2156 1603 101.187 40.3706 464.631
1652 0 110.263 15.463 1705 100.256 39.763 450.499
1653 0 113.398 15.7498 1786 99.1512 39.4127 458.608
1654 0 117.366 26.3195 3089 90.5685 38.4383 445.727
1655 0 119.271 16.5337 1972 102.59 39.0152 446.67
1656 1 70.0976 13.0818 917 102.836 37.6619 475.353
1657 0 72.1878 12.3151 889 105.627 37.4263 463.748
1658 0 75.2963 17.4776 1316 97.3701 37.8229 465.979
1659 0 78.2491 13.9682 1093 102.671 37.1354 461.27
1660 0 78.2445 14.608 1143 103.255 38.5634 463.404
1661 0 84.2968 11.9459 1007 105.524 40.2373 465.93
1662 0 84.3065 12.4427 1049 104.882 39.877 464.745
1663 0 83.1372 10.2361 851 108.417 40.5934 463.094
1664 0 87.1678 13.8469 1207 105.008 42.5352 456.559
1665 0 86.2649 10.7808 930 105.398 42.4688 462.927
1666 0 96.2487 22.0159 2119 93.5545 42.8575 454.378
1667 1 250.366 17.1988 4306 103 44.3579 392.633
1668 1 257.77 12.4995 3222 111.153 44.8836 377.017
1669 0 263.124 11.9944 3156 112.669 44.557 364.955
1670 0 274.955 13.3513 3671 110.236 46.4843 366.302
1671 1 194.87 12.5315 2442 107.686 45.932 419.866
1672 0 203.63 10.8629 2212 109.422 46.9919 422.678
1673 1 116.748 13.1651 1537 105.267 46.8426 452.504
1674 0 123.831 15.408 1908 103.341 48.3491 448.413
1675 1 68.1257 12.4329 847 104.838 49.3778 470.212
1676 0 70.25 11.1032 780 105.512 47.0705 469.047
1677 0 76.3587 14.9688 1143 100.522 47.0805 472.868
1678 0 78.6588 14.7218 1158 103.408 47.2971 465.594
1679 0 79.3402 11.0537 877 107.983 46.8415 465.171
1680 0 82.3358 11.0644 911 108.619 45.6323 465.038
1681 0 90.6842 18.8787 1712 97.2845 46.1916 468.995
1682 0 89.5555 16.4144 1470 101.266 45.2884 467.906
1683 0 90.3375 14.7668 1334 104.435 46.3643 467.75
1684 0 95.5609 16.9839 1623 101.315 45.7326 466.323
1685 0 97.6131 15.0287 1467 105.342 44.8746 461.945
1686 0 100.599 15.0399 1513 104.962 44.5664 465.586
1687 0 104.698 15.3584 1608 105.756 43.5697 461.524
1688 0 105.617 14.0792 1487 109.685 42.0794 455.04
1689 0 110.759 16.3779 1814 105.835 43.4719 459.395
1690 0 111.409 14.0204 1562 110.165 41.9878 457.593
1691 0 120.662 19.5588 2360 101.626 40.8318 452.299
1692 0 118.396 13.987 1656 110.571 41.285 453.695
1693 0 124.611 16.9889 2117 105.934 39.7071 448.193
1694 0 128.544 18.2739 2349 103.112 40.7229 450.637
1695 1 74.2566 12.3625 918 107.547 40.0087 479.132
1696 0 79.612 16.1408 1285 103.348 38.7066 472.679
1697 0 79.7597 13.4278 1071 109.806 39.62 467.672
1698 0 82.5751 13.8783 1146 108.812 40.0873 469.574
1699 0 85.046 13.4751 1146 110.209 39.9241 460.991
1700 0 88.5057 13.9087 1231 108.751 39.6588 459.136
1701 0 91.3478 14.2751 1304 109.452 39.6357 454.136
1702 0 90.3488 13.4036 1211 110.084 41.0801 453.403
1703 0 92.2188 16.6343 1534 104.075 40.2738 451.728
1704 0 99.6288 15.1964 1514 104.834 40.6268 451.284
1705 0 98.6289 16.6077 1638 103.816 39.9103 449.307
1706 0 100.886 13.6888 1381 107.909 41.6727 446.488
1707 0 108.542 14.4921 1573 105.709 41.9612 443.971
1708 0 109.701 14.3664 1576 106.435 42.6751 446.551
1709 0 112.634 13.2908 1497 107.872 42.1336 442.715
1710 0 117.441 15.8804 1865 103.775 43.4981 441.771
1711 0 121.364 18.803 2282 99.9238 44.2292 435.842
1712 0 126.323 16.3628 2067 102.367 44.2583 432.69
1713 0 132.539 16.795 2226 102.583 46.0391 431.982
1714 0 136.752 12.8627 1759 107.717 46.0375 434.646
1715 1 78.5341 13.1917 1036 107.224 46.9739 457.878
1716 0 82.2704 14.1971 1168 105.473 47.3442 454.721
1717 0 85.1423 14.2232 1211 104.283 47.213 456.858
1718 0 87.5356 16.8846 1478 101.409 47.4046 458.507
1719 0 88.5651 12.7816 1132 107.17 47.0424 458.037
1720 0 91.479 14.5826 1334 105.418 47.925 456.3
1721 0 96.3629 13.4907 1300 105.863 46.7746 456.932
1722 0 95.215 18.1694 1730 100.429 46.7977 458.185
1723 0 100.362 13.7303 1378 105.449 45.8636 458.466
1724 0 101.302 15.1231 1532 103.409 46.0274 462.255
1725 0 103.286 13.2836 1372 109.1 45.8601 454.391
1726 0 106.282 11.8459 1259 110.81 44.7434 452.88
1727 0 111.248 12.2249 1360 110.474 44.9015 450.83
1728 1 62.0538 10.3297 641 109.626 45.3604 476.585
1729 0 63.0456 10.3893 655 111.756 42.9084 470.684
1730 0 68.1081 15.1524 1032 103.422 41.7955 473.102
1731 0 74.2325 15.3437 1139 100.957 40.0694 474.274
1732 0 70.0611 12.3035 862 107.679 40.1821 469.516
1733 0 72.1243 13.9897 1009 105.724 39.7056 460.502
1734 0 75.0788 11.2682 846 109.013 39.8889 462.996
1735 0 85.1632 16.075 1369 101.958 38.5617 455.011
1736 0 86.1659 12.1742 1049 107.332 38.9504 457.612
1737 0 88.0669 16.6351 1465 100.678 38.3932 462.188
1738 0 91.1431 14.4169 1314 104.549 38.3135 455.33
1739 0 95.0683 19.102 1816 98.2291 37.5578 451.918
1740 0 95.0652 17.2618 1641 100.538 37.284 455.491
1741 0 98.1554 15.72 1543 103.59 37.7434 444.95
1742 0 101.119 17.1778 1737 101.37 37.3224 452.15
1743 0 103.21 21.0639 2174 98.506 37.8174 446.439
1744 0 108.378 17.6697 1915 102.646 38.3619 446.993
1745 0 109.471 14.634 1602 107.513 38.6192 445.765
1746 0 115.414 15.5873 1799 105.679 38.7932 438.145
1747 0 115.384 16.0768 1855 106.071 40.2809 440.837
1748 0 120.27 14.7086 1769 106.111 39.8163 441.721
1749 0 124.281 13.9282 1731 107.782 40.4598 434.898
1750 1 71.2269 14.2643 1016 106.721 40.6762 458.867
1751 0 72.1991 10.5957 765 111.647 43.1438 460.335
1752 0 74.2564 14.9213 1108 107.524 42.6083 459.55
1753 0 78.4987 16.2805 1278 105.14 42.9859 455.836
1754 0 86.67 16.8224 1458 102.687 43.9616 452.143
1755 0 85.1153 14.639 1246 107.551 43.9101 452.766
1756 0 87.5906 18.5408 1624 101.753 45.2309 454.063
1757 0 91.2355 18.4139 1680 101.345 44.9774 458.094
1758 0 94.535 17.8241 1685 101.805 47.0374 454.648
1759 0 97.6868 15.13 1478 106.856 45.9621 450.059
1760 0 100.298 17.8767 1793 101.557 46.536 457.065
1761 0 103.248 17.2206 1778 104.409 46.806 444.182
1762 0 105.239 15.6406 1646 107.074 46.9812 442.005
1763 0 111.306 18.265 2033 102.556 46.6483 439.408
1764 0 115.225 16.125 1858 103.55 47.451 442.878
1765 0 118.302 13.567 1605 105.981 47.0069 446.991
1766 0 125.453 13.7821 1729 105.367 46.5882 439.747
1767 0 128.354 11.1021 1425 109.251 46.3312 446.808
1768 0 133.566 11.4475 1529 108.132 45.6246 445.631
1769 1 75.0911 15.4879 1163 103.396 45.3543 468.5
1770 0 78.2721 14.3346 1122 103.437 46.1025 473.526
1771 0 79.2715 11.8706 941 109.021 44.6865 460.795
1772 0 85.4035 17.6691 1509 100.068 43.937 464.742
1773 0 89.3591 15.0516 1345 102.696 41.6015 466.097
1774 0 89.1987 15.4374 1377 103.596 42.4517 463.743
1775 0 92.4648 14.0053 1295 105.262 41.6015 464.28
1776 0 93.1462 10.5318 981 108.819 40.7982 466.81
1777 0 97.2902 12.9304 1258 107.896 40.4889 457.386
1778 0 103.355 15.6935 1622 102.889 40.0666 458.221
1779 0 106.356 18.4568 1963 98.3286 39.1182 459.996
1780 0 106.373 16.7618 1783 101.564 38.5132 455.446
1781 0 109.376 15.0765 1649 105.239 40.5009 447.867
1782 0 113.41 14.2315 1614 104.346 40.6537 454.651
1783 0 116.438 17.7434 2066 100.771 39.7043 447.417
1784 0 120.259 14.2525 1714 104.949 39.9737 445.132
1785 0 123.571 12.5111 1546 106.709 38.729 446.088
1786 0 131.465 17.5408 2306 100.46 38.6526 442.171
1787 0 136.264 17.224 2347 101.526 39.2194 438.337
1788 0 147.652 14.7915 2184 105.066 39.3082 431.081
1789 1 81.2355 16.1752 1314 100.68 37.8158 454.673
1790 0 84.2274 17.0966 1440 99.6472 39.5215 451.408
1791 0 85.1454 15.2093 1295 104.009 40.0842 450.896
1792 0 86.305 10.4397 901 111.508 40.4906 447.398
1793 1 97.1949 15.721 1528 101.015 40.9437 455.379
1794 0 96.1533 12.6257 1214 107.802 41.7611 449.67
1795 0 92.2893 11.1064 1025 113.372 41.439 443.1
1796 0 97.142 17.1296 1664 104.127 43.1382 443.575
1797 0 103.267 14.2543 1472 106.688 43.0041 447.209
1798 0 106.279 15.5723 1655 106.628 44.5202 439.955
1799 0 110.283 14.9887 1653 106.174 44.369 445.477
1800 0 114.235 14.7591 1686 108.02 44.9437 439.143
1801 0 118.226 14.7683 1746 108.049 45.4473 440.532
1802 0 123.413 17.17 2119 104.863 45.7815 433.398
1803 0 126.515 21.0805 2667 98.9738 45.9213 444.223
1804 0 131.489 15.5298 2042 107.741 46.0872 434.282
1805 0 134.249 17.9964 2416 103.921 45.904 437.356
1806 0 140.357 16.7288 2348 106.637 46.0358 434.146
1807 0 143.369 14.7661 2117 109.823 46.88 425.778
1808 1 85.3301 14.8951 1271 103.955 44.1212 467.142
1809 0 92.3501 16.1018 1487 103.549 45.6604 464.658
1810 0 93.2491 14.0913 1314 106.95 44.7184 463.276
1811 0 94.6035 14.8832 1408 107.105 45.8558 464.026
1812 0 95.3852 11.6056 1107 112.688 44.4959 460.4
1813 0 101.418 15.3326 1555 105.328 44.1878 468.606
1814 0 104.151 17.1673 1788 105.381 43.8249 462.045
1815 0 106.3 15.3057 1627 108.015 41.9723 459.371
1816 0 112.345 16.9033 1899 105.185 41.7846 461.168
1817 0 113.417 13.878 1574 111.273 41.406 459.672
1818 0 114.494 14.5247 1663 112.004 40.6091 453.802
1819 0 119.625 13.676 1636 112.542 39.2738 448.003
1820 0 124.394 13.6984 1704 112.153 39.4343 453.553
1821 0 128.654 14.3252 1843 112.44 40.0358 445.557
1822 0 131.376 15.7716 2072 110.999 39.2312 442.337
1823 0 135.494 15.4177 2089 112.005 39.0981 436.769
1824 0 136.487 12.8877 1759 115.508 38.0728 439.785
1825 0 144.63 18.4263 2665 106.394 36.8158 438.542
1826 0 148.382 16.5451 2455 110.089 38.3181 429.145
1827 0 152.5 15.9868 2438 111.614 38.2728 424.269
1828 0 155.429 15.0873 2345 112.968 37.6124 423.463
1829 0 163.59 16.1196 2637 110.814 37.6966 422.479
1830 0 167.771 15.0681 2528 113.363 38.6879 416.588
1831 0 175.638 13.4197 2357 114.605 38.8821 418.967
1832 0 178.289 14.5326 2591 113.579 38.1768 411.48
1833 0 184.592 13.1046 2419 116.122 38.8855 402.754
1834 0 189.448 14.7217 2789 112.63 40.3593 408.42
1835 0 195.738 16.144 3160 111.516 40.3972 400.584
1836 0 203.596 13.4678 2742 115.842 41.4883 393.81
1837 1 114.27 12.1642 1390 109.322 41.2475 438.332
1838 0 117.354 12.2535 1438 112.236 42.2051 435.444
1839 0 120.501 9.48543 1143 112.829 44.203 442.15
1840 0 129.562 18.0609 2340 102.295 43.7893 438.717
1841 0 132.692 12.5178 1661 110.418 43.7754 433.76
1842 0 134.567 12.1798 1639 110.837 44.8951 430.946
1843 0 137.261 14.2939 1962 108.912 45.239 425.643
1844 0 143.831 13.7175 1973 109.267 46.2793 422.42
1845 0 147.46 12.4644 1838 110.17 45.7492 425.04
1846 0 153.424 12.0125 1843 111.706 47.1329 425.37
1847 0 158.443 10.2876 1630 114.025 46.5472 417.146
1848 0 161.408 12.4343 2007 111.719 47.2696 414.712
1849 1 78.2832 13.3617 1046 98.6224 46.3547 466.842
1850 0 80.5013 11.0806 892 102.004 46.8274 467.198
1851 0 84.6382 14.9578 1266 97.6588 47.0261 463.632
1852 0 85.1735 12.3747 1054 99.9611 46.4032 472.139
1853 0 86.413 9.00327 778 105.625 46.5578 468.31
1854 0 92.2943 15.6998 1449 97.9517 46.1401 466.012
1855 0 93.6957 11.0891 1039 102.765 45.5034 467.781
1856 0 93.515 10.4582 978 104.54 45.8814 466.757
1857 0 101.518 11.8994 1208 101.647 44.6896 467.172
1858 0 102.432 12.9647 1328 100.186 43.698 467.189
1859 0 104.368 11.0475 1153 102.651 43.1206 461.942
1860 0 104.449 9.58358 1001 104.281 42.5604 458.813
1861 0 113.428 12.034 1365 101.021 42.211 457.286
1862 1 69.2127 12.122 839 97.646 42.4768 479.297
1863 0 62.2518 7.1002 442 106.638 42.0498 475.317
1864 0 66.2873 14.4221 956 96.9153 41.1454 475.223
1865 0 65.411 11.0532 723 101.004 40.1743 478.278
1866 0 71.2209 10.3902 740 102.501 40.7392 471.774
1867 0 76.2102 13.1085 999 97.5776 38.985 470.924
1868 0 76.2666 14.9607 1141 96.326 39.1376 471.749
1869 0 75.1397 7.86535 591 105.447 37.9408 465.543
1870 0 79.3923 8.65323 687 105.367 37.8341 463.218
1871 0 80.314 13.6091 1093 98.6798 36.322 463.911
1872 0 86.3786 17.3075 1495 93.2936 36.491 463.277
1873 0 85.4294 10.5584 902 101.763 36.0965 461.563
1874 0 83.3798 12.9168 1077 101.346 37.3853 458.246
1875 0 86.1392 12.4914 1076 101.823 38.6385 455.326
1876 0 89.2957 14.2336 1271 98.2557 38.5405 459.403
1877 0 90.1973 8.88053 801 105.884 38.9863 449.864
1878 0 96.4479 10.4512 1008 104.746 40.38 447.393
1879 0 99.4186 18.9703 1886 93.509 40.3086 453.617
1880 0 97.503 14.1637 1381 100.572 41.0181 450.085
1881 0 99.2737 13.0951 1300 102.596 41.4554 443.666
1882 0 108.52 9.06742 984 105.563 42.6291 449.923
1883 0 109.46 14.9095 1632 99.1281 43.3542 443.559
1884 0 111.456 9.40284 1048 105.302 43.6641 444.386
1885 0 121.494 9.81121 1192 105.05 43.4027 438.721
1886 0 123.552 12.7477 1575 100.749 44.073 441.997
1887 1 66.2411 14.4774 959 93.5089 45.2419 471.802
1888 0 66.3117 15.3668 1019 94.1492 45.3013 468.816
1889 0 72.3848 15.8459 1147 94.5527 46.7489 467.667
1890 0 79.8378 24.2993 1940 84.5428 46.3242 457.292
1891 0 79.6672 16.3681 1304 92.6649 45.4655 458.151
1892 0 78.2468 13.7641 1077 96.8812 44.4559 461.541
1893 0 77.2851 15.3975 1190 96.5672 44.9689 462.23
1894 0 81.2336 13.3565 1085 98.8101 46.1613 467.578
1895 0 82.3435 11.9014 980 100.869 45.3367 468.542
1896 0 87.3281 14.2795 1247 98.5004 45.818 468.954
1897 0 83.4331 13.8195 1153 100.321 45.7121 468.696
1898 0 88.4421 12.5393 1109 101.378 44.7394 472.28
1899 0 89.4838 15.1983 1360 98.0978 44.9397 472.055
1900 0 92.5009 14.4647 1338 100.074 43.509 464.586
1901 0 100.519 20.0757 2018 93.5213 42.3831 465.464
1902 0 99.3884 12.6172 1254 102.875 42.6029 463.922
1903 0 103.485 16.5338 1711 97.6172 41.4944 465.344
1904 0 101.651 11.7854 1198 104.783 40.6336 455.121
1905 0 114.015 17.7082 2019 94.995 39.3561 451.095
1906 0 110.458 17.3278 1914 97.1761 39.2759 445.414
1907 0 115.581 18.6709 2158 95.6571 38.7688 444.889
1908 0 117.375 15.2332 1788 99.7645 38.6862 454.48
1909 0 117.587 13.1903 1551 100.777 37.4649 452.972
1910 0 125.809 15.0864 1898 100.028 38.8498 443.362
1911 1 71.431 11.7176 837 100.817 38.5998 470.167
1912 0 71.3342 11.0887 791 101.255 38.9595 467.948
1913 0 72.2286 14.2188 1027 99.0594 37.3622 466.789
1914 0 75.211 14.825 1115 96.5991 37.5856 462.83
1915 0 78.4726 13.3295 1046 97.9532 37.8203 461.426
1916 0 81.4335 15.3008 1246 96.2857 38.5072 458.402
1917 0 81.3841 12.0171 978 100.262 38.4652 456.68
1918 0 87.2635 15.9975 1396 95.1662 38.7958 453.072
1919 0 87.3275 13.5925 1187 97.8922 38.8846 450.912
1920 0 90.4148 19.4658 1760 91.7597 38.8591 450.091
1921 0 90.3232 13.8946 1255 97.6996 40.0104 447.892
1922 0 92.4033 12.6078 1165 99.2292 41.618 447.91
1923 0 93.4933 12.771 1194 99.3283 41.0963 447.308
1924 0 99.3447 17.3034 1719 94.9936 42.5358 444.289
1925 0 104.344 16.1772 1688 96.0486 43.2784 434.646
1926 0 105.318 17.3759 1830 95.2902 43.612 437.678
1927 0 103.405 12.775 1321 102.493 44.2733 437.808
1928 0 105.211 12.5462 1320 102.696 44.5265 440.79
1929 0 113.334 16.6146 1883 98.2841 45.324 437.934
1930 0 115.557 12.0979 1398 105.097 46.5086 429.163
1931 0 120.501 14.3484 1729 102.054 46.4106 434.956
1932 0 125.408 18.2604 2290 97.2183 47.6777 436.546
1933 0 130.718 16.5241 2160 99.3518 47.2907 436.401
1934 0 133.364 15.7988 2107 101.788 47.103 428.834
1935 0 135.497 13.4394 1821 105.846 47.0988 421.71
1936 0 142.056 13.7129 1948 106.062 46.2469 427.838
1937 0 144.362 11.6097 1676 110.195 47.0119 428.771
1938 0 149.498 14.736 2203 107.546 47.7694 429.636
1939 1 159.454 13.2013 2105 110.951 47.1672 422.32
1940 0 161.411 12.335 1991 113.242 45.3164 422.355
1941 0 173.493 15.5914 2705 107.502 45.2451 427.992
1942 0 175.352 12.9112 2264 113.481 46.197 418.246
1943 0 180.387 14.3303 2585 112.026 45.1041 414.299
1944 0 186.305 16.0597 2992 109.5 44.4231 415.982
1945 0 192.336 19.6583 3781 104.658 42.3954 415.836
1946 0 197.572 16.0701 3175 110.534 41.051 405.55
1947 1 45.1555 10.8735 491 97.4582 41.0061 488.825
1948 0 49.0186 9.13938 448 105.152 40.8728 487.692
1949 0 50.0945 10.3405 518 104.284 40.5193 487.855
1950 0 54.0595 15.3904 832 97.4459 41.1959 486.02
1951 0 54.2218 11.1579 605 103.59 40.3388 483.75
1952 0 55.1748 13.3576 737 100.349 40.0258 484.559
1953 0 55.2779 10.4382 577 104.48 40.1941 480.225
1954 0 55.1313 10.6654 588 103.136 38.3163 478.77
1955 0 57.1703 10.5824 605 102.876 39.7041 480.765
1956 0 62.2049 15.3043 952 95.0662 39.6176 480.123
1957 0 60.2622 15.333 924 95.369 39.1126 470.072
1958 0 62.3624 12.3472 770 98.5857 39.7377 467.645
1959 0 66.688 11.3364 756 100.373 38.5198 469.921
1960 0 67.4712 14.2579 962 98.3919 40.1996 470.743
1961 0 65.487 16.8278 1102 96.167 39.6252 467.672
1962 0 69.3781 11.1707 775 103.525 40.4116 465.677
1963 0 70.5558 15.0236 1060 99.7094 41.2849 463.758
1964 0 67.4006 8.3382 562 109.55 40.6352 459.776
1965 0 74.3382 10.385 772 105.722 41.9456 462.728
1966 0 79.3556 11.3666 902 105.771 42.49 458.049
1967 0 78.6537 13.0954 1030 104.651 43.1777 456.71
1968 0 83.5133 13.9139 1162 102.909 43.5086 457.254
1969 0 85.6402 13.1714 1128 104.582 43.93 456.035
1970 0 85.5487 13.1855 1128 104.824 45.5957 451.746
1971 0 89.4328 12.5234 1120 105.332 45.5634 455.51
1972 0 93.8131 10.3504 971 109.136 45.9959 451.527
1973 0 95.4815 12.2118 1166 107.023 46.2007 451.026
1974 0 98.3231 12.9776 1276 107.283 45.4734 452.619
1975 1 59.2913 11.4182 677 107.168 46.7001 467.487
1976 0 65.3777 12.1295 793 105.081 47.4893 470.018
1977 0 64.2173 10.1375 651 106.154 47.5576 473.238
1978 0 66.6107 15.7782 1051 100.523 48.4434 469.456
1979 0 69.997 21.0866 1476 92.7107 47.5257 473.902
1980 0 67.359 13.9699 941 103.914 46.6546 470.759
1981 0 69.5823 12.3451 859 106.908 45.9104 469.286
1982 0 69.3432 11.133 772 107.987 44.8731 473.538
1983 0 77.8381 13.6437 1062 103.746 45.0612 475.061
1984 0 78.7762 11.2471 886 108.607 45.3792 471.098
1985 0 80.5434 13.9304 1122 105.172 44.3316 466.509
1986 0 86.6168 14.1774 1228 104.347 44.991 470.307
1987 0 84.0097 14.9388 1255 104.563 41.8088 468.704
1988 0 89.4341 16.4479 1471 101.886 42.7464 470.431
1989 0 93.6584 13.5706 1271 106.349 40.6011 465.256
1990 0 93.6694 14.6152 1369 105.063 41.9576 464.931
1991 0 93.5174 15.1416 1416 105.771 40.8757 459.689
1992 0 97.7078 14.8402 1450 106.473 41.2952 458.845
1993 0 104.487 19.0358 1989 99.5093 39.8276 459.726
1994 0 107.636 19.0458 2050 100.563 40.7527 458.178
1995 0 106.601 16.876 1799 105.118 39.3052 453.215
1996 0 109.724 15.7304 1726 105.793 38.6321 454.593
1997 0 112.396 16.7087 1878 105.117 37.5548 446.325
1998 0 113.984 14.7564 1682 108.225 38.4447 448.495
1999 0 118.609 18.0761 2144 103.161 38.0145 444.89
2000 0 122.478 17.2031 2107 104.181 37.7304 438.02
2001 0 121.695 14.4049 1753 108.6 38.7661 438.642
2002 0 126.566 17.161 2172 104.219 38.4029 440.628
2003 0 131.486 17.2338 2266 104.149 38.756 433.641
2004 0 141.751 17.6506 2502 102.2 40.0775 441.067
2005 0 140.75 14.5578 2049 108.472 40.2792 424.832
2006 0 146.792 18.0936 2656 103.947 40.6148 424.221
2007 0 150.632 13.1911 1987 111.72 41.7539 423.084
2008 1 89.1636 13.4248 1197 107.546 41.5848 449.439
2009 0 91.3756 16.1203 1473 101.544 42.6402 459.187
2010 0 97.3572 16.2494 1582 103.285 43.94 450.724
2011 0 98.6874 15.159 1496 104.515 44.1491 450.713
2012 0 100.466 13.5369 1360 107.469 45.6221 447.832
2013 0 102.279 14.5387 1487 106.311 45.0834 445.014
2014 0 107.92 12.8058 1382 108.636 46.1794 442.082
2015 0 112.861 12.2274 1380 108.48 46.0739 448.573
2016 0 113.55 11.2197 1274 110.634 47.1224 443.544
2017 0 117.743 12.9689 1527 108.749 46.4198 441.136
2018 0 120.622 14.3258 1728 106.334 47.2523 440.375
2019 0 127.741 11.766 1503 110.484 49.0852 435.89
2020 0 137.365 12.0628 1657 105.385 47.4846 450.709
2021 0 139.453 14.1123 1968 107.604 48.3018 438.265
2022 0 144.577 17.0221 2461 103.642 47.1028 439.42
2023 0 151.826 9.53068 1447 114.209 45.6614 431.527
2024 0 157.991 15.5895 2463 106.018 45.7312 432.016
2025 0 162.509 11.747 1909 111.678 45.1477 430.238
2026 0 167.699 13.1784 2210 110.59 45.1285 420.254
2027 1 96.327 12.8001 1233 105.436 44.1598 463.367
2028 0 97.4906 12.6371 1232 106.737 45.2768 458.801
2029 0 106.784 12.1367 1296 105.05 45.0895 464.499
2030 0 104.559 12.7297 1331 106.906 43.6409 455.936
2031 0 107.463 12.9906 1396 106.631 43.6461 454.89
2032 0 112.428 14.685 1651 105.323 42.338 453.247
2033 0 116.256 14.1411 1644 105.497 41.8473 448.176
2034 0 118.478 8.76953 1039 112.95 41.4033 447.333
2035 0 124.251 14.5512 1808 104.6 40.0631 445.171
2036 0 126.638 11.4973 1456 110.063 39.5852 441.457
2037 0 131.444 11.3661 1494 110.2 39.4177 440.74
2038 0 137.272 12.3841 1700 107.355 38.9029 439.482
2039 1 13.0139 6.37778 83 87.3132 37.8072 493.506
2040 0 12.0024 5.83219 70 86.8429 36.2143 492.657
2041 1 83.3848 10.5535 880 107.197 39.6625 447.933
2042 0 86.2832 9.77015 843 108.833 37.9217 446.943
2043 0 95.24 12.2848 1170 102.668 35.5085 456.706
2044 0 94.2969 14.465 1364 101.15 36.7001 455.689
2045 0 96.2473 13.6731 1316 102.964 38.2363 454.409
2046 0 100.335 14.5811 1463 101.548 38.0157 447.71
2047 0 105.374 14.2539 1502 102.254 38.4754 451.089
2048 0 105.35 11.6753 1230 106.581 39.378 448.558
2049 0 110.272 12.2244 1348 106.41 39.8197 446.148
2050 0 112.321 16.0789 1806 102.17 40.1545 443.673
2051 0 119.636 18.5813 2223 98.498 40.8947 433.447
2052 0 117.286 11.3995 1337 109.752 41.3366 437.304
2053 0 123.515 14.1278 1745 105.173 41.1868 436.587
2054 0 125.387 16.0384 2011 103.455 41.3406 439.473
2055 0 127.599 10.8779 1388 112.383 44.33 435.218
2056 0 132.544 15.542 2060 106.051 44.582 436.908
2057 0 136.477 16.1493 2204 104.936 45.3521 436.987
2058 0 139.479 12.5682 1753 109.377 46.1997 432.536
2059 0 143.344 15.85 2272 106.596 45.6404 431.353
2060 0 146.619 12.2767 1800 113.684 46.4489 428.775
2061 0 155.456 16.1139 2505 107.849 46.6379 423.35
2062 0 161.444 12.3201 1989 113.859 46.5918 422.866
2063 1 96.3903 10.9451 1055 110.666 46.3716 453.791
2064 0 101.129 14.437 1460 106.065 46.9973 448.425
2065 0 102.298 17.1363 1753 102.006 45.7051 434.179
2066 0 106.356 13.5488 1441 107.917 46.535 441.501
2067 0 110.395 16.0153 1768 104.14 44.099 455.723
2068 0 113.475 19.7488 2241 102.266 45.3155 450.163
2069 0 117.344 15.2543 1790 108.126 44.738 454.486
2070 0 118.757 12.1593 1444 113.712 44.3047 449.258
2071 0 120.487 11.7772 1419 115.49 43.1353 437.325
2072 0 122.445 11.2704 1380 115.446 41.6196 429.243
2073 0 128.575 12.5141 1609 111.285 41.1268 433.993
2074 0 125.373 13.1927 1654 109.722 40.3936 432.724
2075 0 129.314 14.2289 1840 107.873 39.8766 430.332
2076 0 138.584 14.9224 2068 106.26 39.1533 433.869
2077 0 141.419 13.2231 1870 108.518 38.2299 429.213
2078 1 82.3304 11.4174 940 109.646 35.8372 458.46
2079 0 89.413 13.6893 1224 103.955 37.8595 463.038
2080 0 90.3659 18.414 1664 96.8245 37.4453 460.505
2081 0 91.3984 15.3176 1400 101.979 36.8114 457.497
2082 0 94.4618 14.2174 1343 102.684 37.1057 455.421
2083 0 94.5186 10.4106 984 109.723 37.187 448.592
2084 0 95.3765 13.3052 1269 106.173 35.9543 450.246
2085 0 92.2179 12.0801 1114 104.473 36.8627 458.81
2086 0 102.677 14.2681 1465 103.852 37.1447 442.467
2087 0 109.441 14.8574 1626 101.777 37.0627 442.012
2088 0 109.519 13.541 1483 103.668 37.886 445.757
2089 0 114.72 15.5073 1779 101.039 37.4132 435.786
2090 0 110.246 10.8757 1199 109.183 37.598 422.862
2091 0 116.38 15.0112 1747 103.256 39.1608 426.236
2092 0 110.571 12.0466 1332 107.885 40.6944 430.405
2093 0 118.423 13.6122 1612 104.782 40.0639 429.662
2094 0 126.388 15.4682 1955 102.324 39.0885 424.578
2095 0 133.412 14.249 1901 104.11 42.5124 422.117
2096 0 134.398 11.3171 1521 109.166 41.3103 412.141
2097 0 134.425 12.6018 1694 107.468 43.5756 414.139
2098 1 75.1039 9.87964 742 107.635 42.5836 441.594
2099 1 89.2553 13.0749 1167 101.805 43.048 455.03
2100 0 92.3248 11.1779 1032 104.059 43.3498 453.234
2101 0 93.2592 13.9397 1300 100.756 44.1208 454.267
2102 0 96.2985 11.4851 1106 105.132 44.0226 449.338
2103 0 99.3208 11.1256 1105 104.112 44.6751 456.22
2104 0 102.379 11.6235 1190 105.85 44.7059 445.228
2105 0 105.177 11.9038 1252 105.212 43.7316 452.525
2106 0 108.221 10.2753 1112 107.676 45.1862 448.796
2107 0 114.129 14.6676 1674 103.763 43.3626 446.505
2108 0 114.442 12.0673 1381 109.894 42.9269 448.219
2109 0 120.351 13.0868 1575 107.714 43.3644 436.827
2110 0 123.336 21.8428 2694 96.4922 43.4105 447.991
2111 0 123.177 10.6676 1314 113.19 44.0814 442.278
2112 0 128.388 13.6384 1751 109.335 42.6385 439.751
2113 0 135.378 12.6682 1715 109.781 42.2939 441.313
2114 0 141.348 16.0809 2273 104.124 41.1575 441.219
2115 0 145.133 12.2301 1775 109.382 40.3279 434.37
2116 0 149.42 13.191 1971 108.152 40.8011 430.532
2117 0 156.438 15.1306 2367 105.266 39.1931 423.165
2118 1 90.3504 10.9131 986 105.731 38.7718 455.121
2119 0 90.1601 11.9676 1079 104.61 37.7359 451.986
2120 0 99.6053 12.7604 1271 104.271 38.5744 455.258
2121 0 98.3394 11.7755 1158 106.732 37.4888 453.909
2122 0 100.291 11.0379 1107 109.208 37.7245 449.898
2123 0 102.344 12.0769 1236 107.923 37.5437 449.232
2124 0 112.214 16.825 1888 99.6197 37.7606 456.533
2125 0 111.308 15.2999 1703 102.932 37.9436 453.408
2126 0 115.199 15.1477 1745 103.098 38.7519 453.461
2127 0 117.386 13.4173 1575 105.882 37.179 445.468
2128 0 122.386 13.2858 1626 105.954 38.9379 440.067
2129 0 126.317 12.9912 1641 105.297 39.0116 445
2130 0 125.214 14.3195 1793 104.323 38.1852 435.924
2131 1 53.1026 8.02221 426 106.786 36.5235 471.725
2132 0 58.0828 9.91688 576 101.493 37.651 476.342
2133 0 57.2785 16.3761 938 95.1674 38.5043 468.176
2134 0 59.3723 9.26357 550 101.305 40.0018 468.095
2135 0 61.2349 9.56971 586 102.486 39.9386 459.019
2136 0 57.2104 8.09294 463 105.475 39.9201 457.795
2137 0 66.3393 10.1147 671 102.261 41.0849 457.258
2138 0 62.3305 6.73828 420 109.1 41.5286 454.805
2139 0 66.3617 11.3017 750 100.537 42.2747 458.529
2140 0 74.3012 11.6149 863 99.8065 43.2769 453.685
2141 0 76.2736 11.5243 879 99.339 44.215 457.346
2142 0 69.3543 17.2304 1195 95.7732 44.3247 453.949
2143 0 72.1891 10.5002 758 104.201 43.2296 452.635
2144 0 72.3351 11.2394 813 103.308 44.0246 449.062
2145 1 79.2862 8.60175 682 105.805 46.1349 456.919
2146 0 86.171 14.332 1235 100.493 45.2016 462.51
2147 0 88.2623 13.9584 1232 101.594 46.9148 461.999
2148 0 88.4034 11.3344 1002 107.955 46.5299 455.758
2149 0 91.5399 12.8796 1179 105.63 47.894 462.832
2150 0 92.2046 10.9539 1010 108.09 47.9594 461.109
2151 0 99.436 17.8004 1770 99.2706 46.4051 455.536
2152 0 101.546 11.2264 1140 109.709 46.4816 454.399
2153 0 106.441 16.1967 1724 102.266 45.5632 458.247
2154 0 110.298 19.0212 2098 96.2569 45.1234 465.429
2155 0 110.48 13.7853 1523 105.829 44.3408 457.924
2156 0 116.601 14.8883 1736 104.695 43.9119 450.978
2157 0 119.56 15.1137 1807 102.981 43.1765 440.791
2158 0 117.312 12.812 1503 105.299 41.9434 444.434
2159 0 122.266 12.1129 1481 106.4 41.5969 439.901
2160 0 129.347 14.8129 1916 101.8 40.6258 432.305
2161 1 74.2075 14.0956 1046 102.205 40.3633 468.241
2162 0 74.4573 13.8334 1030 103.521 39.9728 471.22
2163 0 77.259 13.9272 1076 103.085 39.0316 472.073
2164 0 82.2633 15.0857 1241 100.99 40.0226 461.944
2165 0 82.5165 14.9425 1233 100.861 38.6569 462.743
2166 0 79.3967 10.5924 841 109.445 38.805 458.115
2167 0 86.2393 14.7612 1273 103.007 37.9207 457.678
2168 0 86.2393 14.8772 1283 128.859 36.8987 457.607
2169 0 90.3942 13.6513 1234 106.521 37.6653 453.376
2170 0 89.3539 12.4897 1116 110.494 38.069 455.97
2171 0 94.3109 12.7345 1201 110.95 38.4188 448.692
2172 0 96.2926 15.2556 1469 107.339 38.3976 445.493
2173 0 99.5636 19.6156 1953 101.418 38.8382 445.537
2174 0 103.412 17.9573 1857 102.926 38.5288 445.219
2175 0 103.207 12.1503 1254 113.274 40.1188 441.882
2176 0 104.192 13.3408 1390 110.619 40.5237 446.696
2177 0 107.194 12.8926 1382 112.437 40.542 444.438
2178 0 110.354 14.0638 1552 108.459 41.5451 444.946
2179 0 114.318 13.8386 1582 108.836 41.4362 438.046
2180 1 67.1156 10.2063 685 112.848 43.0701 456.055
2181 0 71.1638 12.689 903 108.554 44.4252 457.87
2182 0 70.4036 11.2352 791 111.717 42.866 455.125
2183 0 75.0846 12.386 930 109.132 43.1269 458.383
2184 0 78.2205 14.5103 1135 104.856 42.8344 458.606
2185 0 77.0644 13.6509 1052 107.791 43.597 451.692
2186 0 82.5929 14.4565 1194 105.144 44.5502 459.726
2187 0 82.4479 11.7529 969 109.013 44.5181 457.85
2188 0 83.4735 14.268 1191 106.317 45.2343 450.721
2189 0 85.6574 11.2074 960 109.338 46.2604 454.299
2190 0 88.5381 12.0739 1069 108.434 46.2778 450.822
2191 0 90.228 11.4155 1030 111.07 45.1932 448.573
2192 0 96.3305 14.7305 1419 104.183 44.9894 455.388
2193 0 99.233 15.5493 1543 101.843 45.7796 456.222
2194 0 102.3 10.9384 1119 110.326 45.3735 450.051
2195 0 110.272 16.0784 1773 102.527 44.3339 453.39
2196 0 111.211 12.9394 1439 107.77 43.5949 451.633
2197 0 110.29 13.8181 1524 106.499 43.7618 453.14
2198 0 117.249 12.6653 1485 109.02 44.2869 448.897
2199 0 122.238 10.2587 1254 112.022 42.8086 444.506
2200 0 129.311 11.0508 1429 109.675 40.951 445.313
2201 1 77.3524 13.9362 1078 103.805 42.384 473.528
2202 0 76.196 11.1161 847 110.804 39.2963 468.355
2203 0 80.2172 15.1838 1218 105.163 40.4565 465.608
2204 0 82.2016 13.0289 1071 108.053 39.4043 468.524
2205 0 86.3332 17.2356 1488 102.567 38.8259 466.71
2206 0 88.1702 12.9976 1146 110.031 39.0454 459.285
2207 0 91.3686 11.9188 1089 110.02 38.9431 463.904
2208 0 94.477 12.3416 1166 110.113 38.1955 459.953
2209 0 95.1691 15.2676 1453 106.739 37.8066 457.021
2210 0 102.233 17.6753 1807 102.353 38.0271 456.723
2211 0 103.548 18.629 1929 102.974 37.5018 447.898
2212 0 102.33 12.3132 1260 113.751 38.896 448.386
2213 0 105.305 13.8645 1460 111.275 37.7979 444.774
2214 0 109.204 14.6149 1596 110.437 37.6711 440.029
2215 0 112.175 12.9619 1454 112.663 37.4773 443.286
2216 0 113.31 13.291 1506 113.009 38.5226 438.083
2217 0 120.164 15.7118 1888 107.849 38.7595 441.601
2218 0 121.388 15.0179 1823 110.104 38.8524 434.294
2219 0 124.291 13.4282 1669 112.56 39.2427 431.539
2220 0 130.339 14.14 1843 110.486 39.8085 432.014
2221 1 80.3025 12.179 978 109.96 41.0808 454.678
2222 0 82.2166 12.5157 1029 107.68 40.8348 457.367
2223 0 83.4377 11.4696 957 111.266 41.5862 460.457
2224 0 88.3363 15.158 1339 107.795 41.4653 457.581
2225 0 90.2105 14.9317 1347 109.301 43.9733 452.116
2226 0 93.2619 12.7276 1187 111.95 44.5889 452.797
2227 0 95.0856 12.5045 1189 109.632 43.4718 448.129
2228 0 101.07 12.1895 1232 109.206 43.0495 448.213
2229 0 103.073 15.0864 1555 104.332 45.9183 447.952
2230 0 109.322 15.3675 1680 103.523 45.4476 445.425
2231 0 111.309 17.1863 1913 102.728 47.827 437.352
2232 0 112.183 12.2211 1371 110.267 47.8322 439.351
2233 0 114.141 13.1855 1505 108.98 47.5309 440.799
2234 0 120.368 12.0547 1451 111.079 46.9972 439.032
2235 0 122.181 14.8141 1810 107.551 47.8448 437.718
2236 0 123.196 11.5507 1423 113.086 46.2467 430.99
2237 0 132.253 15.5006 2050 106.465 45.9302 436.174
2238 0 138.501 13.9565 1933 107.166 44.2059 442.327
2239 0 143.249 12.3421 1768 111.476 44.2053 433.748
2240 0 148.242 13.849 2053 108.515 44.096 439.893
2241 1 208.675 11.7407 2450 114.155 44.3567 419.608
2242 1 160.336 12.7732 2048 111.199 41.5303 432.299
2243 0 168.377 14.9783 2522 108.796 41.9286 424.682
2244 0 178.491 13.0987 2338 107.707 40.311 442.41
2245 0 173.4 12.226 2120 112.863 39.983 427.234
2246 0 184.49 14.6078 2695 109.772 39.1989 421.006
2247 0 190.434 13.7161 2612 111.094 38.8434 417.435
2248 0 193.668 15.7486 3050 108.645 37.9928 412.683
2249 1 278.583 13.8738 3865 113.811 37.2041 375.084
2250 1 208.702 15.0262 3136 109.946 37.434 407.51
2251 0 214.675 13.8582 2975 111.843 38.7136 398.896
2252 0 225.37 16.2666 3666 107.116 37.3734 391.515
2253 1 159.37 10.1838 1623 106.057 38.2785 440.4
2254 0 164.216 15.0351 2469 102.94 37.9652 427.049
2255 0 172.584 12.8169 2212 105.774 37.2744 426.971
2256 0 172.764 11.8486 2047 108.711 38.2521 417.228
2257 0 180.52 13.1897 2381 107.267 39.47 415.402
2258 0 187.247 16.7907 3144 104.357 39.6937 413.765
2259 0 191.394 11.5939 2219 110.557 39.8423 412.627
2260 0 197.498 9.74696 1925 113.578 39.2094 405.917
2261 0 207.369 13.4012 2779 109.339 40.584 400.096
2262 0 210.43 14.5702 3066 109.005 40.4517 392.826
2263 0 217.534 15.2114 3309 107.027 41.214 394.691
2264 0 225.383 14.6462 3301 108.084 41.7861 391.603
2265 0 231.509 12.1896 2822 110.422 41.1584 394.071
2266 0 237.442 12.8832 3059 111.093 42.8859 375.97
2267 0 246.604 15.1538 3737 107.282 43.6235 381.479
2268 0 256.546 11.1403 2858 112.486 43.063 386.672
2269 0 263.765 13.3187 3513 112.839 45.1771 363.369
2270 0 274.088 14.7106 4032 109.203 45.4117 370.094
2271 0 282.924 16.0573 4543 107.202 45.2987 352.297
2272 1 85.2317 11.6037 989 97.7674 47.2467 456.122
2273 0 88.4697 12.7614 1129 98.2693 46.9114 461.006
2274 0 84.164 12.2974 1035 100.069 44.2483 458.664
2275 0 88.2562 15.5683 1374 96.1114 45.3748 458.828
2276 0 91.1088 13.0833 1192 98.9547 44.7215 462.417
2277 0 93.1843 13.2318 1233 99.5985 45.5637 459.864
2278 0 99.3613 13.5566 1347 98.605 46.5085 458.281
2279 0 103.252 12.174 1257 99.9634 44.8178 463.158
2280 0 106.175 18.6202 1977 92.3531 45.518 460.663
2281 0 107.316 11.9274 1280 99.7172 43.0641 457.32
2282 0 115.509 14.0076 1618 97.2435 43.7806 456.927
2283 0 123.326 11.3763 1403 101.107 43.0592 462.668
2284 0 123.383 15.5856 1923 96.4373 43.0712 460.185
2285 0 126.303 11.1241 1405 101.48 40.9929 461.437
2286 0 229.713 14.4093 3310 102.192 41.1326 405.346
2289 0 391.336 32.2204 12609 89.0309 39.3575 308.605
2290 0 272.614 26.2312 7151 89.3871 38.7434 369.158
2291 1 165.582 8.37653 1387 97.7138 38.7751 454.101
2292 1 94.3652 13.5431 1278 93.9155 38.3811 463.587
2293 0 95.2469 10.8035 1029 98.5296 38.2877 456.048
2294 0 100.315 17.0064 1706 92.3183 38.3962 451.332
2295 0 103.357 14.4354 1492 95.9732 37.1428 451.433
2296 0 104.257 16.3251 1702 97.7556 37.4818 444.522
2297 0 109.4 12.5869 1377 101.13 37.7328 449.722
2298 0 112.468 15.1421 1703 98.6524 38.7211 449.536
2299 0 112.179 14.6374 1642 101.086 38.1395 445.386
2300 0 115.201 19.0363 2193 94.8737 38.3429 448.495
2301 0 117.314 17.8581 2095 97.4339 38.5671 440.382
2302 0 127.239 11.6788 1486 104.861 38.3203 436.411
2303 0 125.636 18.0282 2265 97.9982 38.6221 432.259
2304 0 129.285 13.1029 1694 104.227 40.124 433.192
2305 0 134.348 14.5666 1957 101.725 39.8825 431.022
2306 0 135.402 16.9791 2299 98.9743 41.358 427.876
2307 0 139.441 12.2561 1709 104.949 40.6776 426.251
2308 0 147.568 16.9685 2504 94.8694 42.3558 445.229
2309 0 144.322 11.5783 1671 104.834 41.3728 432.706
2310 0 153.552 12.6341 1940 103.753 43.5124 425.577
2311 0 149.462 9.70812 1451 103.921 44.5065 436.643
2312 1 89.2363 14.6241 1305 99.9065 44.5617 443.448
2313 0 99.3933 15.1419 1505 97.1302 45.2385 451.569
2314 0 98.3348 16.0777 1581 98.2366 46.8507 448.462
2315 0 101.565 17.2501 1752 97.0999 46.4332 444.988
2316 0 101.389 19.2033 1947 95.5876 47.244 449.016
2317 0 103.424 18.3807 1901 96.9453 46.3335 451.675
2318 0 109.414 14.4315 1579 100.819 47.5643 449.64
2319 0 112.302 11.2375 1262 105.625 47.4437 448.54
2320 0 118.318 15.6105 1847 99.8836 45.7011 450.742
2321 0 121.373 16.3133 1980 100.509 44.6152 447.404
2322 0 126.355 18.7488 2369 98.2073 44.5568 455.097
2323 0 129.294 14.0455 1816 105.957 44.3689 450.407
2324 0 135.309 13.229 1790 106.459 43.2765 448.85
2325 0 139.518 13.7688 1921 106.632 42.9011 443.418
2326 0 149.472 14.4174 2155 105.304 43.1425 444.147
2327 0 150.351 16.7076 2512 102.648 42.2456 443.607
2328 0 156.531 15.4538 2419 104.841 41.8479 439.308
2329 0 162.74 14.4156 2346 105.115 41.188 440.77
2330 0 165.525 17.0428 2821 102.557 40.1287 433.911
2331 0 172.607 13.9276 2404 106.259 39.6098 414.593
2332 0 175.625 12.1965 2142 107.505 39.2488 415.1
2333 0 191.808 16.6051 3185 101.298 39.4427 414.364
2334 0 191.697 13.5161 2591 107.261 37.9556 402.568
2335 0 200.549 15.0836 3025 105.129 38.3544 407.962
2336 0 205.696 12.9706 2668 108.821 37.3336 403.013
2337 0 211.508 17.38 3676 101.683 38.4263 416.552
2338 0 205.674 14.1924 2919 107.321 38.2405 410.58
2339 0 207.593 10.6121 2203 110.801 37.4308 416.91
2340 1 157.38 12.5366 1973 108.358 37.3735 429.327
2341 0 162.548 15.0294 2443 106.426 38.1093 428.102
2342 0 171.41 14.0774 2413 108.202 37.9167 425.723
2343 0 175.548 14.338 2517 106.383 38.3421 410.11
2344 0 186.687 15.368 2869 104.266 38.9808 404.288
2345 1 58.1118 13.1643 765 100.157 39.5895 460.643
2346 0 61.0857 13.3255 814 101.818 38.8612 452.002
2347 0 63.4501 14.1686 899 101.06 38.9611 456.57
2348 0 64.2462 12.0163 772 104.21 40.6205 461.097
2349 0 66.1558 11.5334 763 105.254 39.9554 466.191
2350 0 66.1544 12.1836 806 105.159 42.6154 464.757
2351 0 67.1791 10.405 699 104.692 41.927 473.694
2352 0 68.2545 15.6034 1065 100.987 43.646 465.614
2353 0 70.4348 14.2117 1001 102.735 43.2318 467.211
2354 0 72.0773 10.2529 739 108.26 43.4777 468.242
2355 0 74.2131 13.6768 1015 104.199 44.2897 466.932
2356 0 75.232 14.9936 1128 101.662 44.5878 467.48
2357 0 76.3419 12.5226 956 105.803 44.6977 463.254
2358 0 81.2212 12.1766 989 106.246 45.6067 461.567
2359 0 88.145 16.2346 1431 99.137 44.9609 462.746
2360 0 92.2623 17.7971 1642 97.5238 45.687 461.238
2361 0 88.4692 13.9484 1234 103.134 45.3606 465.06
2362 1 155.602 12.3456 1921 106.975 45.9354 435.482
2363 0 158.746 10.9483 1738 109.381 43.5184 434.432
2364 1 96.3678 12.4834 1203 106.179 44.8254 462.595
2365 0 105.503 12.8054 1351 104.498 44.5329 464.622
2366 1 63.3633 12.0575 764 101.475 42.8403 482.168
2367 0 66.2911 15.7487 1044 98.8343 42.2404 479.433
2368 0 67.2347 11.2739 758 105.107 43.2137 475.055
2369 0 68.2456 17.7301 1210 97.2884 41.714 478.512
2370 0 73.3996 13.1063 962 102.243 39.6008 474.901
2371 0 74.2828 13.9467 1036 101.611 39.8031 473.585
2372 0 78.2365 13.3825 1047 100.384 37.2006 475.548
2373 1 165.409 9.96923 1649 103.116 37.9242 439.671
2374 0 168.395 10.1844 1715 100.877 36.0933 446.596
2375 0 167.271 8.06474 1349 104.63 36.152 449.907
2376 1 94.2662 30.6685 2891 81.9754 35.7835 462.144
2377 0 98.1304 26.5973 2610 84.9387 35.1789 461.213
2378 0 99.4432 28.8909 2873 84.1225 35.0418 459.921
2379 0 102.267 22.1869 2269 88.7845 35.0692 467.287
2380 0 102.649 19.854 2038 92.8749 35.1551 459.008
2381 0 104.563 23.0578 2411 89.6018 35.9896 461.504
2382 0 107.399 19.6371 2109 93.4528 36.349 454.391
2383 0 106.191 17.1955 1826 97.3505 35.2853 452.633
2384 0 106.469 16.4085 1747 99.2656 35.98 454.47
2385 0 111.52 24.2737 2707 91.2767 37.1703 447.668
2386 0 110.295 16.7188 1844 100.332 37.9187 453.582
2387 0 116.222 15.1693 1763 102.013 38.6778 447.965
2388 0 117.58 18.9658 2230 98.1946 38.4072 446.266
2389 0 122.586 16.6985 2047 100.229 39.0303 445.074
2390 0 122.333 15.5395 1901 103.436 40.3025 438.968
2391 0 131.758 24.1807 3186 93.0913 40.2357 431.977
2392 0 135.285 18.5756 2513 99.7521 41.1214 429.791
2393 0 135.299 17.1915 2326 101.854 42.804 429.756
2394 0 143.31 19.7335 2828 98.6475 42.5223 426.602
2395 1 85.1098 12.901 1098 104.409 43.1849 461.478
2396 0 89.2416 14.7801 1319 101.86 42.6512 458.78
2397 0 91.1913 14.508 1323 102.758 44.483 461.172
2398 0 95.3289 13.5741 1294 104.594 44.408 456.306
2399 0 98.197 17.8519 1753 99.3742 44.4096 452.468
2400 0 103.445 16.8689 1745 99.3989 44.7152 459.664
2401 0 105.27 17.7733 1871 99.3041 44.3009 455.986
2402 0 109.307 14.1528 1547 102.557 44.097 450.722
2403 0 109.364 13.9535 1526 102.805 43.0518 451.944
2404 0 112.309 18.1553 2039 97.5272 43.0809 451.582
2405 0 119.252 17.1485 2045 98.8005 43.1301 448.794
2406 0 120.37 14.0483 1691 103.071 43.0769 446.803
2407 0 125.424 11.0426 1385 105.064 42.3134 445.961
2408 0 132.236 14.3607 1899 101.955 42.3697 442.26
2409 0 139.394 9.4624 1319 105.19 42.2146 448.944
2410 1 77.3825 16.6058 1285 98.9362 40.7035 467.923
2411 0 85.2531 15.8938 1355 98.4856 40.4686 472.666
2412 0 86.3132 15.3395 1324 98.9637 37.9773 469.634
2413 0 89.5079 15.5852 1395 99.0437 38.1011 466.579
2414 0 91.255 17.5333 1600 96.5238 38.2012 465.909
2415 0 95.3048 20.6705 1970 93.8325 37.7711 461.156
2416 0 97.1096 17.9179 1740 96.9328 37.3523 459.313
2417 0 102.261 14.9325 1527 99.7701 37.8107 462.832
2418 0 102.416 13.9724 1431 102.48 37.3711 455.464
2419 0 105.398 12.2868 1295 103.293 37.0772 457.015
2420 0 108.335 15.6275 1693 100.072 36.1855 451.262
2421 0 113.166 17.4876 1979 98.2314 35.6256 448.427
2422 0 114.149 15.4359 1762 101.759 36.5131 446.619
2423 0 125.266 10.6413 1333 105.537 36.4246 449.765
2424 0 125.306 17.4293 2184 97.9025 36.3787 448.382
2425 0 128.217 12.5802 1613 105.88 36.5778 430.971
2426 0 133.131 15.4885 2062 102.161 37.1746 434.978
2427 0 134.471 14.6649 1972 102.466 36.464 437.693
2428 1 79.1534 12.5958 997 104.95 37.7452 461.608
2429 0 82.4333 16.4497 1356 100.402 37.7847 461.532
2430 0 84.5862 13.5956 1150 103.856 38.4591 458.051
2431 0 88.3282 21.6918 1916 94.5997 39.1545 451.699
2432 0 93.3958 18.3948 1718 97.2683 41.2736 455.869
2433 0 95.2927 19.9386 1900 96.4347 41.8468 454.648
2434 0 98.2127 14.2242 1397 103.865 41.7931 448.15
2435 0 98.1857 16.6725 1637 101.731 42.3341 447.948
2436 0 102.482 13.0754 1340 106.157 42.2978 451.04
2437 0 104.215 12.407 1293 106.543 43.0495 453.171
2438 0 112.282 16.4674 1849 100.785 43.0319 451.774
2439 0 111.404 16.0228 1785 103.406 43.0577 447.742
2440 0 117.727 18.5344 2182 99.8602 44.6072 448.126
2441 0 123.435 15.814 1952 102.93 43.8212 447.661
2442 0 126.503 16.2763 2059 103.64 45.0272 443.728
2443 0 129.521 12.7624 1653 108.704 43.8814 439.219
2444 0 131.621 14.8913 1960 107.405 45.0393 437.528
2445 0 138.491 14.3331 1985 107.731 43.5058 442.174
2446 0 142.384 14.4398 2056 108.51 44.3614 438.892
2447 0 148.492 17.6508 2621 105.852 43.7024 424.62
2448 0 157.47 17.235 2714 106.729 43.3755 434.641
2449 1 87.1665 9.8547 859 113.116 41.9336 467.021
2450 0 91.3042 14.1724 1294 108.415 42.3277 466.434
2451 0 96.3665 14.2892 1377 108.914 40.9274 464.426
2452 0 96.2065 13.2839 1278 111.84 39.6502 462.637
2453 0 101.29 18.1459 1838 103.699 39.451 462.343
2454 0 105.26 14.7444 1552 108.992 37.9336 462.276
2455 0 112.23 20.0481 2250 101.393 37.5711 457.585
2456 0 114.457 16.6175 1902 106.049 36.7366 455.853
2457 0 114.359 16.9816 1942 107.935 35.8311 452.374
2458 0 118.403 16.3763 1939 109.128 35.8102 447.746
2459 0 120.15 15.1727 1823 110.548 35.7471 439.511
2460 0 130.22 20.6497 2689 102.482 36.1491 442.017
2461 0 130.284 18.8741 2459 105.092 35.8772 436.385
2462 0 138.478 18.5084 2563 103.829 35.3215 441.678
2463 0 139.447 14.2922 1993 110.164 35.2198 442.878
2464 0 145.306 14.8032 2151 111.658 35.2934 431.2
2465 0 150.577 19.0401 2867 106.003 35.2742 431.353
2466 0 154.277 16.6778 2573 110.49 35.3945 425.529
2467 0 159.353 15.8453 2525 111.222 36.1347 428.835
2468 0 167.384 15.4077 2579 112.312 36.4343 425.874
2469 0 173.449 16.6332 2885 111.572 37.3536 419.223
2470 1 97.1279 13.3741 1299 115.193 37.9484 453.9
2471 0 101.35 13.5076 1369 113.833 37.9832 455.822
2472 0 106.281 16.6257 1767 110.499 38.8874 450.343
2473 0 110.458 15.2185 1681 112.083 39.3766 451.363
2474 0 110.16 14.2883 1574 114.949 39.3183 445.3
2475 0 113.191 17.5632 1988 109.974 41.0971 444.457
2476 0 120.385 15.5419 1871 112.89 40.9567 442.799
2477 0 124.477 17.8346 2220 108.682 42.882 444.732
2478 0 131.234 17.1755 2254 108.422 42.6894 441.386
2479 0 131.274 15.022 1972 112.923 43.4275 432.083
2480 0 137.388 16.1295 2216 111.592 42.0379 427.915
2481 0 145.368 14.0678 2045 113.837 43.7315 424.698
2482 0 150.429 13.3352 2006 114.344 42.7792 432.287
2483 1 90.3112 11.8922 1074 115.759 43.6043 459.638
2484 0 94.3434 12.8467 1212 113.94 42.901 458.695
2485 0 96.334 14.7196 1418 109.558 43.7581 464.172
2486 0 102.628 13.9338 1430 110.593 43.086 459.413
2487 0 102.619 11.4501 1175 115.627 42.8443 452.596
2488 0 110.417 15.5501 1717 108.537 43.2301 457.039
2489 0 112.37 13.4911 1516 111.1 43.3813 448.863
2490 0 116.443 15.0546 1753 106.855 43.1095 451.177
2491 0 116.292 13.3973 1558 111.221 41.0128 450.63
2492 0 123.333 15.1055 1863 108.351 40.956 450.354
2493 0 123.172 11.6016 1429 115.391 40.3849 443.013
2494 0 132.601 15.6107 2070 108.765 38.6169 441.598
2495 0 136.329 12.5652 1713 114.565 39.289 441.776
2496 0 142.267 17.5375 2495 107.069 36.885 436.344
2497 0 149.444 15.203 2272 110.04 37.9142 438.042
2498 1 64.2331 11.0379 709 108.353 35.3371 474.467
2499 0 68.3319 9.80508 670 112.809 36.2672 474.115
2500 0 69.2178 15.0395 1041 103.463 36.195 469.576
2501 0 71.3007 13.6605 974 105.945 36.3285 471.466
2502 0 70.1528 11.9311 837 110.033 35.5412 468.718
2503 0 74.2977 14.2804 1061 107.978 35.968 467.763
2504 0 77.1564 12.4293 959 109.408 35.2357 467.94
2505 0 83.278 18.108 1508 102.308 36.0703 465.081
2506 0 82.2208 14.9354 1228 107.82 35.8624 466.797
2507 0 79.3547 13.6728 1085 110.017 35.8553 464.731
2508 0 83.2738 13.2935 1107 110.485 36.3884 462.241
2509 0 83.2614 14.8088 1233 110.299 36.0178 449.234
2510 0 88.2771 13.6502 1205 111.501 36.6656 452.423
2511 0 95.6945 18.6531 1785 102.525 36.684 458.402
2512 0 94.384 14.886 1405 111.234 37.4484 449.686
2513 0 101.411 15.1068 1532 110.869 37.8701 452.366
2514 0 101.322 17.8244 1806 107.733 38.1323 451.617
2515 0 104.578 15.3951 1610 111.445 39.2373 447.14
2516 0 107.465 19.5598 2102 104.996 39.706 442.161
2517 0 111.312 15.7395 1752 109.648 40.5034 444.747
2518 0 117.284 12.5848 1476 114.639 41.8774 436.566
2519 0 120.321 14.2618 1716 112.933 41.9371 443.475
2520 0 127.243 14.264 1815 111.834 42.6826 446.041
2521 0 129.449 13.8278 1790 113.443 44.405 443.251
2522 0 132.325 13.1419 1739 114.7 43.8085 443.242
2523 1 76.1879 10.2378 780 116.215 44.8 469.908
2524 0 82.1296 14.7206 1209 108.888 44.5136 472.445
2525 0 82.5237 12.5419 1035 111.972 45.0599 473.946
2526 0 85.1625 12.4468 1060 113.87 44.2679 468.525
2527 0 89.2261 12.0368 1074 114.375 44.5056 466.665
2528 0 91.3942 10.8213 989 116 44.5238 462.642
2529 0 96.2508 12.5921 1212 111.724 43.1485 469.15
2530 0 100.29 13.2117 1325 111.097 44.4755 463.951
2531 0 105.137 12.5455 1319 111.089 43.0917 463.142
2532 0 108.282 13.6772 1481 110.965 42.8737 458.066
2533 0 114.24 12.9901 1484 111.615 42.4919 461.355
2534 0 115.249 9.89165 1140 117.914 41.2307 453.179
2535 0 120.416 15.2139 1832 109.368 39.9809 453.457
2536 1 70.369 5.48537 386 117.223 38.5803 486.319
2537 0 74.124 12.7489 945 109.403 37.7884 480.884
2538 0 78.2158 13.1431 1028 109.117 37.535 479.447
2539 0 77.4459 14.5521 1127 108.127 38.0958 475.918
2540 0 79.2526 11.6085 920 112.542 36.8 473.362
2541 0 85.1877 14.873 1267 107.346 36.5406 470.357
2542 0 86.3435 14.0949 1217 109.307 36.1873 465.645
2543 0 88.4435 11.7137 1036 112.042 36.7394 467.945
2544 0 93.361 15.4347 1441 105.828 35.4976 467.506
2545 0 98.2546 14.3912 1414 107.384 35.9639 468.718
2546 0 97.6936 13.962 1364 109.35 37.4531 462.259
2547 0 103.365 15.7984 1633 106.493 36.8212 462.27
2548 0 106.429 15.5409 1654 107.696 36.3434 458.134
2549 0 107.516 15.5326 1670 108.922 36.2168 454.863
2550 0 109.537 13.2193 1448 113.209 37.2106 451.308
2551 0 112.511 13.9365 1568 111.23 38.3744 455.404
2552 0 117.525 16.1498 1898 108.586 37.8024 446.721
2553 0 123.377 15.7404 1942 109.136 39.7101 450.094
2554 0 124.693 14.3874 1794 112.256 38.767 446.088
2555 0 126.246 15.0975 1906 112.89 41.5609 442.678
2556 0 129.525 13.9433 1806 114.255 41.0648 444.93
2557 0 136.546 15.3648 2098 112.269 41.1697 442.288
2558 0 137.365 13.3513 1834 115.701 41.7475 439.793
2559 0 144.452 15.6384 2259 112.309 43.3803 436.158
2560 0 149.615 16.1481 2416 111.343 42.4855 436.694
2561 0 161.313 20.1657 3253 104.56 42.2674 428.818
2562 1 89.3183 14.3979 1286 111.203 43.3064 459.34
2563 0 94.531 14.6724 1387 109.544 44.3143 458.358
2564 0 97.6001 16.6906 1629 106.087 44.089 461.756
2565 0 97.6552 14.1006 1377 112.065 42.8954 459.036
2566 0 102.877 15.0082 1544 110.091 43.6716 457.797
2567 0 109.753 18.241 2002 104.334 43.953 456.498
2568 0 108.6 14.8527 1613 111.288 44.093 455.895
2569 0 113.603 16.2408 1845 108.738 43.7545 457.01
2570 0 117.589 18.9134 2224 105.253 42.714 457.327
2571 0 121.982 13.7315 1675 113.513 42.317 459.471
2572 0 127.648 17.2584 2203 108.231 42.1748 458.149
2573 0 131.08 14.7315 1931 112.59 41.2926 457.07
2574 0 133.925 12.1411 1626 117.173 40.9969 448.988
2575 0 141.963 15.8704 2253 111.415 39.4953 446.936
2576 0 145.439 13.3321 1939 114.764 39.3858 444.925
2577 0 153.02 15.2006 2326 111.438 38.5727 448.378
2578 0 158.041 20.9122 3305 103.284 38.2563 448.494
2579 0 167.114 19.5376 3265 104.703 37.9838 441.299
2580 0 169.708 17.5536 2979 107.912 36.8943 437.43
2581 1 98.5792 15.8654 1564 108.4 37.2532 470.717
2582 0 101.814 14.8408 1511 108.562 36.7889 470.788
2583 0 102.574 18.5622 1904 102.939 36.3577 467.02
2584 0 105.674 13.7404 1452 109.475 35.7693 464.41
2585 0 112.844 19.8238 2237 99.6786 37.6339 458.623
2586 0 113.414 17.4141 1975 101.263 35.8562 463.802
2587 0 116.338 17.475 2033 102.971 36.9744 454.714
2588 0 119.486 13.7171 1639 107.783 36.5644 455.138
2589 0 123.361 17.4366 2151 102.601 36.6546 449.778
2590 0 126.454 15.4523 1954 106.362 36.827 446.296
2591 0 131.657 16.6493 2192 104.362 37.2792 449.64
2592 0 136.813 14.8159 2027 107.204 37.3138 440.385
2593 0 141.964 19.8995 2825 99.051 37.4241 443.593
2594 0 142.651 12.3448 1761 110.456 36.7053 435.776
2595 0 152.801 14.712 2248 107.75 39.2384 436.915
2596 0 155.688 14.0409 2186 108.005 39.0709 439.045
2597 0 157.587 17.7425 2796 103.276 40.074 437.611
2598 0 165.882 21.3404 3540 98.6251 41.1201 426.556
2599 0 172.004 15.6915 2699 106.244 40.601 423.145
2600 0 178.646 16.4571 2940 105.343 41.9071 424.691
2601 0 183.746 20.4413 3756 101.236 42.5202 417.672
2602 0 191.724 17.1132 3281 104.258 41.5002 419.855
2603 0 198.583 22.162 4401 98.9146 41.8889 413.336
2604 0 204.805 19.0571 3903 102.936 43.5334 414.393
2605 0 211.629 15.0688 3189 108.931 42.9608 405.642
2606 0 220.357 18.2703 4026 102.187 42.884 411.583
2607 1 339.115 16.5106 5599 107.437 41.9762 351.758
2608 1 167.603 14.8625 2491 108.415 43.2364 432.183
2609 1 56.1745 10.8768 611 106.367 44.4664 493.624
2610 0 58.1123 16.0207 931 103.483 43.9463 488.02
2611 0 59.1036 15.4982 916 105.261 42.6397 487.4
2612 0 64.3348 12.1552 782 107.621 43.1432 492.295
2613 0 67.3074 15.2138 1024 106.324 43.8633 488.034
2614 0 72.6424 15.184 1103 104.585 43.1487 490.515
2615 0 69.1979 14.0178 970 109.652 42.3402 486.724
2616 0 73.4657 15.5855 1145 107.847 40.4306 480.68
2617 0 79.3118 19.1144 1516 102.079 39.8826 480.827
2618 0 79.3114 18.648 1479 102.985 38.9371 480.666
2619 0 86.2208 17.8611 1540 103.295 38.6156 475.442
2620 0 86.2788 14.4879 1250 109.206 36.8712 477.893
2621 0 86.3826 13.9959 1209 110.467 37.3995 474.55
2622 0 88.4655 13.5533 1199 111.584 37.7014 472.985
2623 0 92.4278 16.0666 1485 107.008 37.5313 470.777
2624 0 92.4278 16.1532 1493 119.482 36.5151 470.619
2625 1 58.2885 18.5457 1081 101.936 35.6642 484.53
2626 0 58.3234 14.4196 841 107.093 35.5957 485.942
2627 0 57.2684 13.5328 775 109.385 36.3045 484.88
2628 0 63.4965 13.5913 863 110.206 36.387 481.875
2629 0 61.1034 14.9091 911 109.497 35.1471 478.058
2630 0 66.2764 12.9458 858 112.999 37.2704 478.258
2631 0 69.2476 17.0403 1180 106.198 36.7008 476.624
2632 0 66.1501 15.5555 1029 110.587 37.0496 475.201
2633 0 71.1244 15.7752 1122 109.773 36.8476 473.733
2634 0 71.2178 14.3363 1021 114.788 37.189 472.979
2635 0 74.2085 23.3801 1735 102.893 37.4035 468.997
2636 0 77.2176 14.2325 1099 115.314 39.2639 470.137
2637 0 77.1052 16.7693 1293 112.245 39.5893 465.203
2638 0 82.2936 18.033 1484 109.445 40.4872 467.012
2639 0 84.3868 16.377 1382 113.58 40.3813 465.203
2640 0 86.2512 16.5447 1427 112.737 42.0554 461.9
2641 0 89.2063 17.4651 1558 112.153 41.5648 462.987
2642 1 168.707 19.0568 3215 100.628 43.3593 438.098
2643 0 171.696 14.4034 2473 106.719 44.8281 432.961
2644 0 179.565 19.9594 3584 101.957 44.0014 442.116
2645 1 192.063 16.4425 3158 103.267 43.5006 419.636
2646 1 66.2416 16.153 1070 105.512 43.8822 483.132
2647 0 68.2774 18.5566 1267 101.051 42.056 483.766
2648 0 71.3292 16.8655 1203 102.904 41.7323 479.761
2649 0 77.515 21.1185 1637 95.733 41.6567 485.39
2650 0 79.2489 24.7574 1962 93.1764 40.2477 474.285
2651 0 74.6441 15.8887 1186 105.425 40.2993 476.338
2652 0 78.565 16.7759 1318 102.912 40.541 479.254
2653 0 79.2115 18.1792 1440 102.444 38.3451 478.428
2654 0 80.4875 14.3501 1155 108.41 37.1965 474.176
2655 0 81.3558 13.7175 1116 109.72 37.2151 470.285
2656 0 79.396 14.7615 1172 107.82 36.9096 472.893
2657 0 89.5094 21.9754 1967 96.5008 35.8943 474.802
2658 0 86.2605 13.1578 1135 109.026 36.3604 465.78
2659 0 91.7629 12.1727 1117 112.506 34.9919 461.778
2660 0 96.472 15.8699 1531 107.016 35.6852 462.569
2661 1 55.1642 8.44751 466 98.8348 36.1974 490.897
2662 0 50.183 9.28602 466 99.8197 34.7039 473.837
2663 0 54.1656 9.71096 526 99.4106 34.0627 476.125
2664 0 58.2686 9.54202 556 99.9011 33.6511 475.072
2665 0 63.3859 13.5046 856 97.8224 34.7897 471.63
2666 0 64.3223 13.1681 847 98.0968 35.0342 474.93
2667 0 68.2878 10.6461 727 100.454 35.3384 472.279
2668 0 74.1855 10.8107 802 99.6895 35.3292 472.825
2669 0 72.3021 11.286 816 101.028 35.0368 466.741
2670 0 74.5142 10.8033 805 99.6037 36.2037 470.325
2671 0 76.2868 14.1964 1083 98.1136 35.8403 458.981
2672 0 80.2532 8.21151 659 100.12 37.2747 469.311
2673 0 83.4271 5.75352 480 108.023 36.8958 459.075
2674 1 46.0887 9.22136 425 91.9153 38.7129 483.16
2675 0 47.1312 12.7729 602 89.4452 38.4153 480.748
2676 0 46.1273 8.23807 380 94.1053 36.95 480.266
2677 0 51.3998 9.1051 468 91.3462 39.156 484.312
2678 0 49.1224 12.0312 591 88.9932 40.0541 483.805
2679 0 51.189 11.6236 595 89.716 40.4353 482.923
2680 1 90.4329 2.55438 231 114.636 40.5498 448.152
2681 0 99.6732 10.3538 1032 100.327 40.0242 448.563
2682 0 109.109 17.258 1883 92.7727 41.0292 453.378
2683 1 156.928 10.8967 1710 112.578 40.8468 418.101
2684 0 161.669 15.3833 2487 106.343 42.7857 423.846
2685 0 165.16 13.8533 2288 108.934 41.6062 419.108
2686 0 174.584 12.6529 2209 110.488 41.7424 412.581
2687 0 173.896 12.9158 2246 111.732 40.9728 407.908
2688 1 65.3982 9.40393 615 97.5268 43.1268 478.82
2689 0 67.4687 11.472 774 95.9793 42.9922 475.939
2690 0 67.3914 8.68064 585 99.8479 40.7744 474.458
2691 1 201.919 11.4551 2313 114.426 40.9425 408.868
2692 0 206.393 14.6419 3022 109.745 42.1039 414.767
2693 1 39.1424 9.095 356 98.3624 42.5169 494.466
2694 0 40.258 11.0537 445 95.7888 42.5011 490.921
2695 0 42.0832 8.72081 367 99.3188 42.2153 492.226
2696 0 44.1357 9.10826 402 98.5771 39.9552 492.91
2697 0 38.0193 5.57612 212 95.7406 36.6651 495.061
2698 0 33.0372 6.02351 199 95.4623 35.9698 496.905
2699 0 36.3476 8.72134 317 86.6719 35.6498 505.647
2700 0 31.0729 6.11465 190 93.221 35.7 501.232
2701 1 14.0114 16.9148 237 84.519 35.135 503.865
2702 0 21.0505 3.42035 72 85.2361 35.8056 508.306
2703 0 23.017 11.4698 264 77.8523 34.0076 507.53
2704 0 29.048 2.20325 64 87.9219 34.75 502.219
2705 0 27.0567 5.46999 148 83.2838 33.6014 502.351
2706 0 29.1553 5.55645 162 80.8642 33.6111 504.352
2707 1 265.34 10.3264 2740 101.401 33.3529 380.296
2708 0 358.691 9.41478 3377 103.309 33.2855 347.745
2709 0 354.808 11.1187 3945 99.7247 34.5204 364.054
2710 1 302.734 21.3488 6463 91.1437 34.2516 367.198
2711 0 307.974 18.3587 5654 95.4583 34.4498 352.882
2712 0 315.155 9.41441 2967 104.88 35.4405 346.544
2713 0 326.245 15.0408 4907 99.4076 35.0414 342.131
2714 0 320.034 4.89323 1566 107.575 35.6303 347.757
2715 1 177.818 13.8344 2460 92.0293 38.1476 411.853
2716 0 187.068 17.0847 3196 88.3479 37.3727 418.282
2717 0 183.397 11.8923 2181 91.2164 36.8909 426.066
2718 0 185.393 14.1861 2630 90.4293 39.3065 410.255
2719 1 83.6289 6.36144 532 88.3609 39.4229 461.096
2720 0 90.0241 10.2972 927 85.521 39.1758 459.556
2721 0 95.5808 14.7101 1406 84.1828 38.9531 452.597
2722 0 98.6226 18.4745 1822 81.3754 39.6465 457.584
2723 1 343.68 19.9168 6845 87.124 39.8898 345.763
2724 0 377.76 27.5678 10414 81.7236 39.2709 322.209
2725 0 370.998 30.5365 11329 80.7591 39.2515 326.871
2726 1 156.129 6.738 1052 91.7528 40.0741 442.662
2727 0 156.646 5.65607 886 90.1501 40.6535 459.823
2728 1 116.648 23.0008 2683 79.7115 40.486 460.81
2729 0 118.918 12.8239 1525 87.3646 41.9075 459.412
2730 1 64.7816 14.6801 951 79.0873 42.9054 493.053
2731 0 63.5124 16.3118 1036 80.6477 41.3079 486.525
2732 0 62.4616 9.68595 605 85.0463 41.5521 488.309
2733 0 72.1483 14.4009 1039 80.3311 41.1973 491.817
2734 0 67.9147 12.4715 847 83.5667 41.1346 485.273
2735 0 67.4505 13.6544 921 83.7883 40.5331 483.874
2736 0 71.6856 14.3683 1030 84.6971 39.2136 484.045
2737 0 73.7768 23.788 1755 77.8849 38.633 489.336
2738 0 78.2514 12.4726 976 83.75 38.8412 490.247
2739 0 79.5991 14.9122 1187 84.6445 39.2005 477.018
2740 0 74.5248 10.7615 802 87.1546 37.1359 479.751
2741 0 82.7347 18.0335 1492 80.9564 37.2849 481.237
2742 0 91.1515 23.5103 2143 78.2431 36.0929 471.403
2743 0 90.4277 17.7711 1607 82.0348 35.9602 475.752
2744 0 87.8054 9.60077 843 87.0225 35.7794 484.675
2745 0 92.9143 9.6971 901 89.5239 34.9822 475.358
2746 0 95.7253 22.7422 2177 80.1856 34.2044 473.687
2747 0 99.89 16.1678 1615 85.644 35.665 467.593
2748 0 102.696 16.0766 1651 86.4016 34.722 466.448
2749 1 47.3471 18.396 871 78.6395 34.8772 489.079
2750 0 52.1342 16.3424 852 80.9296 33.3991 484.514
2751 0 60.3512 14.515 876 84.6313 36.1963 488.573
2752 0 59.1309 11.1617 660 88.5545 35.8576 482.073
2753 0 62.1978 12.5728 782 83.6918 34.2123 492.164
2754 0 63.2685 14.7783 935 91.7626 36.2364 481.94
2755 0 64.2093 12.1633 781 93.2958 36.5711 483.63
2756 0 64.2121 12.8948 828 93.1606 36.9203 481.482
2757 0 72.3158 15.2249 1101 90.3179 37.7012 474.314
2758 0 70.2882 17.3429 1219 88.3044 37.2502 477.754
2759 0 72.2435 14.8387 1072 93.1455 37.4832 471.665
2760 0 72.3134 12.9437 936 95.8205 38.6004 474.621
2761 0 79.6871 20.9946 1673 86.8051 38.5906 470.035
2762 0 78.1803 15.0422 1176 93.6063 38.6386 466.268
2763 0 81.4014 13.9187 1133 94.2171 40.1421 467.814
2764 0 84.7794 16.3955 1390 91.5381 40.6518 461.107
2765 0 85.5814 17.4337 1492 90.3834 40.7426 458.519
2766 0 87.6149 16.8122 1473 91.7359 40.6395 462.103
2767 0 91.8314 17.5321 1610 91.4155 42.546 459.674
2768 0 88.5527 16.3857 1451 91.7615 41.4824 463.104
2769 0 92.9149 17.4891 1625 90.7662 43.4462 462.708
2770 0 90.6223 11.5093 1043 95.3826 43.1409 470.045
2771 0 101.33 15.2373 1544 93.274 43.5823 460.328
2772 0 113.656 14.931 1697 93.3559 44.1397 458.171
2773 1 56.259 12.2292 688 95.8401 43.9549 488.166
2774 0 59.2819 18.3698 1089 89.787 44.2084 486.069
2775 0 61.0905 13.4718 823 93.842 41.921 488.846
2776 0 60.2115 10.8285 652 100.222 42.6534 485.521
2777 0 68.5509 15.0107 1029 93.3304 43.2235 486.147
2778 0 70.8827 14.8837 1055 93.0019 42.7166 487.963
2779 0 67.268 15.8322 1065 93.4347 41.6535 486.263
2780 0 71.2392 17.4202 1241 91.3312 41.3038 487.569
2781 0 71.2176 12.862 916 97.8526 42.0066 485.037
2782 0 75.5357 16.522 1248 93.097 41.4952 479.97
2783 0 77.3263 15.0919 1167 95.4293 40.0608 480.416
2784 0 83.464 18.7626 1566 89.5319 39.2114 477.609
2785 0 81.4128 14.1501 1152 92.5764 38.6389 473.635
2786 0 83.2811 17.555 1462 88.316 37.8338 474.523
2787 0 84.4768 16.324 1379 88.6091 37.3691 475.615
2788 0 90.2744 14.2787 1289 89.5919 36.3126 471.881
2789 0 91.3691 19.7003 1800 87.4133 36.1961 468.774
2790 0 96.426 14.6122 1409 92.3655 36.3471 464.105
2791 1 49.106 9.83587 483 95.4037 36.6605 486.679
2792 0 57.373 15.4079 884 92.0792 37 487.484
2793 0 54.3052 17.0149 924 86.9903 37.0801 485.34
2794 0 57.4918 13.0105 748 95.8275 36.5455 481.092
2795 0 59.1716 27.378 1620 82.913 35.7827 485.367
2796 0 62.1562 17.2469 1072 91.1381 37.2052 482.283
2797 0 63.4247 13.5909 862 95.8782 37.1868 477.956
2798 0 65.2358 11.9566 780 97.3115 38.9346 479.355
2799 0 74.0276 19.4117 1437 88.604 38.5734 475.562
2800 0 73.2911 16.9052 1239 92.8959 39.2082 470.446
2801 0 77.7959 20.2581 1576 88.717 38.835 472.852
2802 0 73.3932 15.1785 1114 93.9704 39.2397 474.095
2803 0 73.3139 18.9186 1387 90.3554 38.473 473.435
2804 0 78.4064 17.2435 1352 91.8402 40.3765 471.626
2805 0 88.6254 17.8391 1581 91.5199 41.2176 467.385
2806 0 85.5098 25.3538 2168 86.7449 40.5226 466.842
2807 0 88.624 21.2696 1885 90.0011 41.7597 465.067
2808 0 86.5501 12.2126 1057 100.384 42.2233 462.729
2809 0 90.3107 20.3852 1841 90.8686 42.264 466.431
2810 0 94.2819 17.3416 1635 95.4336 41.778 459.522
2811 0 99.3848 16.6625 1656 95.4511 41.3986 459.412
2812 0 102.557 19.8621 2037 92.9514 42.4404 454.736
2813 0 106.426 17.0635 1816 95.4785 42.8018 461.448
2814 0 107.568 14.2514 1533 99.225 44.15 457.177
2815 1 56.2447 13.868 780 97.7859 42.8654 484.54
2816 0 59.9048 13.5715 813 96.123 42.9938 488.125
2817 0 60.088 20.5033 1232 91.2987 43.4545 485.145
2818 0 61.0781 18.7629 1146 140.755 44.459 485.644
2819 0 67.1943 14.6887 987 97.0213 42.5836 485.051
2820 0 70.292 15.6348 1099 94.8217 41.3394 487.358
2821 0 70.1566 20.6395 1448 92.4883 43.0152 484.62
2822 0 73.1072 25.5515 1868 88.7998 42.5203 484.029
2823 0 74.1109 18.081 1340 97.7702 42.5433 478.167
2824 0 77.2125 16.202 1251 98.2982 41.223 485.236
2825 0 83.276 19.5855 1631 93.7345 41.0405 479.953
2826 0 83.3783 16.8389 1404 96.5784 40.7528 479.005
2827 0 89.4734 25.4824 2280 88.2456 40.4136 477.168
2828 0 89.2062 18.7431 1672 95.2715 39.9785 471.528
2829 0 92.4775 24.0599 2225 90.6715 39.8589 464.364
2830 0 96.3243 19.5797 1886 94.2529 38.9714 463.005
2831 0 101.48 32.4499 3293 84.181 38.0456 461.105
2832 0 101.48 32.3907 3287 123.32 35.0365 461.131
2833 0 105.693 14.2298 1504 99.2932 36.5991 462.176
2834 0 108.962 19.4562 2120 94.1208 37.0514 463.549
2835 1 56.125 10.6013 595 98.8101 36.7714 476.371
2836 0 62.3237 20.8749 1301 88.2752 36.3866 482.679
2837 0 63.3498 22.9993 1457 90.464 36.525 480.489
2838 0 67.3335 16.99 1144 97.4685 36.4406 476.74
2839 0 68.1835 21.5008 1466 94.9113 36.075 475.032
2840 0 70.2116 17.433 1224 99.4706 36.491 470.552
2841 0 76.2917 23.4626 1790 91.395 37.6866 472.36
2842 0 74.2279 19.4536 1444 96.9467 37.2742 469.759
2843 0 79.3303 17.8746 1418 96.914 37.579 469.104
2844 0 81.5652 18.1327 1479 98.4361 39.4544 464.748
2845 0 79.1403 13.9499 1104 106.396 38.9031 461.186
2846 0 86.3916 17.4901 1511 102.111 40.7002 459.884
2847 0 89.1758 19.4447 1734 99.865 39.6563 459.35
2848 0 92.1492 16.0609 1480 103.878 41.6446 458.478
2849 0 97.398 23.173 2257 96.0372 42.2871 458.326
2850 1 49.1716 13.9512 686 101.901 42.6181 478.643
2851 0 50.0969 13.3541 669 103.318 43.4424 480.004
2852 0 51.0838 15.9346 814 101.541 43.2801 478.258
2853 0 54.3054 20.0901 1091 96.1008 43.5041 479.503
2854 0 56.1972 15.9972 899 101.306 44.8966 476.336
2855 0 58.0725 18.4253 1070 98.4692 44.1897 475.005
2856 0 59.1166 17.2879 1022 98.7162 44.5323 477.354
2857 0 63.2783 15.0288 951 101.436 43.7823 473.818
2858 0 66.3948 18.7214 1243 97.0306 44.206 475.607
2859 0 66.0984 13.2227 874 104.944 43.8318 477.517
2860 0 70.2086 15.7958 1109 99.5365 43.5464 479.087
2861 0 69.1041 16.3811 1132 100.996 44.667 476.814
2862 0 72.0843 17.8957 1290 99.4108 44.0093 471.794
2863 0 76.1112 18.2365 1388 97.9726 44.2104 474.316
2864 0 79.1891 15.9618 1264 100.282 43.5032 472.564
2865 1 38.049 13.3512 508 100.604 43.0689 492.789
2866 0 41.1053 16.8835 694 97.2161 42.2608 491.229
2867 0 40.2147 18.0282 725 95.6193 42.7214 494.094
2868 0 42.1111 14.1768 597 98.1005 41.9514 493.049
2869 0 44.284 23.5299 1042 90.6804 40.9309 488.731
2870 0 44.0991 12.744 562 103.601 40.048 490.6
2871 0 43.3549 16.3303 708 100.73 41.1003 486.145
2872 0 44.3027 12.8435 569 106.58 39.6204 485.678
2873 0 51.2817 16.3216 837 99.5137 40.1553 489.368
2874 0 50.1866 16.2992 818 101.419 38.2518 486.024
2875 0 52.1464 16.1085 840 101.25 37.9595 485.07
2876 0 54.2204 14.6808 796 103.937 37.9033 482.416
2877 0 56.2185 17.4498 981 99.9337 38.3038 484.682
2878 0 56.2699 17.0251 958 102.582 37.6816 480.02
2879 0 58.1238 15.9315 926 105.103 37.6987 476.603
2880 0 61.2105 23.1823 1419 95.098 36.8696 474.771
2881 0 64.3087 17.1516 1103 101.038 38.0408 477.375
2882 0 63.2295 19.1524 1211 100.336 37.4401 473.225
2883 0 70.2499 20.1851 1418 97.6996 38.0501 470.095
2884 0 70.1606 15.4075 1081 102.35 37.3488 469.221
2885 0 75.4105 15.4223 1163 100.207 37.9931 466.244
2886 0 79.3241 18.6955 1483 97.2697 38.6082 460.847
2887 0 79.6605 14.5116 1156 100.949 38.2327 461.977
2888 0 82.4029 16.7834 1383 98.9602 39.3427 458.733
2889 0 82.4298 18.1973 1500 97.098 40.0933 460.092
2890 0 87.5052 14.182 1241 99.3521 39.8179 457.292
2891 1 45.0818 16.2594 733 96.4761 40.8786 476.139
2892 0 46.283 15.47 716 96.2458 41.0405 477.288
2893 0 51.3813 19.2872 991 93.1796 41.6287 477.099
2894 0 46.2393 14.2736 660 101.455 42.1879 474.292
2895 0 50.23 18.9926 954 97.675 42.6562 474.541
2896 0 50.187 17.7735 892 99.6614 44.1345 474.615
2897 0 52.3958 13.2072 692 105.718 44.6676 474.133
2898 0 56.1517 14.1937 797 103.161 43.9586 476.08
2899 0 57.251 14.5674 834 104.665 43.789 472.608
2900 0 61.4277 12.5676 772 106.501 44.8446 473.417
2901 0 62.225 14.994 933 105.065 45.3205 473.233
2902 0 69.3621 16.4355 1140 102.035 46.1684 469.288
2903 0 69.4332 17.8877 1242 101.501 45.7399 473.484
2904 0 70.2556 14.6038 1026 104.938 45.2758 475.062
2905 1 34.3836 11.9243 410 109.705 44.1512 489.663
2906 0 31.1778 12.0278 375 111.312 43.0667 488.845
2907 0 38.1643 17.5557 670 101.939 44.1627 489.187
2908 0 42.1569 17.2925 729 100.875 44.7339 490.265
2909 0 39.333 18.4324 725 100.956 43.9917 487.735
2910 0 41.0857 17.3296 712 101.459 42.6348 490.716
2911 0 44.1547 23.78 1050 93.9419 42.9029 491.72
2912 0 42.2398 13.9442 589 107.795 42.1494 491.065
2913 0 46.1668 14.5776 673 105.848 41.2689 490.068
2914 0 46.4527 16.2316 754 104.792 40.0385 487.308
2915 0 44.3135 14.3749 637 108.071 38.2355 487.443
2916 0 47.2267 16.0291 757 106.65 38.8811 485.199
2917 0 50.2031 22.8273 1146 98.918 38.8962 483.743
2918 0 48.158 14.4109 694 111.256 38.8285 483.55
2919 0 52.319 12.1944 638 115.086 37.4279 479.006
2920 0 51.4199 15.6165 803 111.037 37.6189 479.773
2921 0 56.39 17.4144 982 107.973 36.5652 478.125
2922 0 61.4686 13.7957 848 111.061 38.4481 476.755
2923 1 23.1698 10.7899 250 89.872 34.3 503.384
2924 0 20.1766 7.73172 156 99.25 35.3141 499.038
2925 0 20.1268 9.63887 194 97.3608 36.1546 498.289
2926 0 24.1406 9.8589 238 97.0504 36.084 496.597
2927 0 25.8344 8.1287 210 99.481 36.7143 496.081
2928 0 21.0766 10.96 231 96.4502 36.1212 495.455
2929 0 22.176 11.7244 260 93.0038 37.6231 495.127
2930 0 24.3852 15.9933 390 89.9897 38.6487 494.764
2931 0 24.0598 13.4249 323 91.1827 37.7059 492.545
2932 0 21.0887 11.5702 244 93.5164 38.7828 493.656
2933 0 19.0779 5.97551 114 101.877 38.0088 493.36
2934 0 20.3505 7.76393 158 99.5443 39.3354 494.335
2935 0 27.2024 11.6166 316 95.5981 41.0032 492.282
2936 0 20.0606 9.42146 189 97.8571 40.4921 495.386
2937 0 21.0808 10.6258 224 96.6295 40.4018 494.96
2938 0 33.9777 8.32899 283 94.7774 42.7739 495.64
2939 0 31.4259 8.36888 263 98.2472 42.0951 493.985
2940 0 27.5622 12.5172 345 94.2754 43.5478 494.71
2941 0 26.5398 12.1704 323 95.1115 43.483 497.195
2942 1 122.885 22.167 2724 103.133 44.2684 446.081
2943 0 127.137 16.6277 2114 110.933 45.4404 441.852
2944 0 134.126 17.6848 2372 108.524 45.5818 447.155
2945 0 137.48 20.1484 2770 104.289 45.326 451.529
2946 1 19.0972 8.79712 168 102.214 43.5655 502.06
2947 0 17.0628 10.9009 186 99.828 42.2581 503.946
2948 1 80.1796 16.3882 1314 105.679 44.5152 472.607
2949 0 81.5193 13.2975 1084 109.276 45.1882 474.356
2950 0 84.6115 16.2744 1377 104.467 44.8134 476.022
2951 1 18.0069 6.6086 119 104.437 42.2605 507.681
2952 0 19.0188 9.67463 184 101.913 42.3641 506.717
2953 0 17.0183 10.3418 176 101.17 42.4205 507.562
2954 0 21.01 10.0904 212 98.1085 41.2123 509.472
2955 0 20.0119 11.793 236 97.1144 41.2458 509.254
2956 0 19.2005 12.7601 245 95.1959 39.9347 507.976
2957 0 18.0095 13.8815 250 85.756 41.316 508.052
2958 0 17.2635 12.3382 213 89.4789 38.9249 508.352
2959 0 16.0439 6.10824 98 98.4388 42.6633 510.265
2960 0 18.0144 15.4321 278 89.1942 40.7338 505.853
2961 0 20.1202 11.2325 226 92.1062 41.2478 506.15
2962 0 19.0134 12.9382 246 94.9512 39.9878 505.789
2963 0 18.038 11.3649 205 99.1415 41.0732 504.917
2964 1 74.6452 8.34616 623 103.276 37.0931 475.907
2965 0 81.0836 11.667 946 98.7262 37.2632 474.352
2966 0 83.2115 15.01 1249 96.3074 37.1593 466.898
2967 0 82.5179 12.6033 1040 100.15 36.6596 473.032
2968 0 88.3323 12.5888 1112 98.0764 37.0414 473.058
2969 0 93.9847 12.768 1200 98.3 36.1033 469.735
2970 0 92.2401 8.09843 747 104.605 36.7805 462.317
2971 0 94.165 12.0639 1136 100.09 36.728 461.717
2972 0 102.431 19.1446 1961 91.2902 38.7511 466.831
2973 0 99.7731 11.2856 1126 100.932 38.6803 459.88
2974 0 105.271 8.39734 884 103.959 38.5803 454.992
2975 0 107.421 12.7722 1372 98.7974 38.4453 450.127
2976 0 114.174 15.3626 1754 95.4646 39.7406 457.059
2977 1 19.1586 13.6753 262 94.4542 43.9008 495.817
2978 0 20.0543 12.4163 249 94.8996 43.1807 496.088
2979 0 21.0192 10.8948 229 94.7555 43.9782 497.524
2980 0 22.208 13.6888 304 93.7204 44.2961 496.276
2981 0 21.1597 10.9643 232 95.3621 45.1379 496.892
2982 1 129.76 13.4094 1740 99.4029 44.7172 443.762
2983 0 124.508 7.18024 894 105.064 44.3546 448.93
2984 1 82.6845 14.2711 1180 95.0475 46.0492 467.57
2985 0 84.4015 10.4264 880 98.0886 46.0443 469.726
2986 0 89.5859 9.14206 819 98.0842 46.4005 476.339
2987 0 89.7221 11.5914 1040 97.499 45.5106 470.328
2988 0 92.974 8.8627 824 100.672 46.267 470.542
2989 0 96.1146 17.2919 1662 92.5794 45.4019 466.72
2990 1 161.648 7.83185 1266 104.875 45.6414 438.866
2991 0 169.878 13.4273 2281 99.5002 44.9399 437.017
2992 0 171.104 6.3295 1083 108.046 45.8412 422.778
2993 0 181.632 11.4462 2079 102.638 45.6508 412.166
2994 0 187.032 10.1587 1900 103.39 44.7858 427.173
2995 1 58.7829 11.9593 703 93.3016 43.7909 490.767
2996 0 62.8016 17.8817 1123 87.3963 42.6402 492.1
2997 1 18.0143 8.32672 150 101.54 45.4133 507.08
2998 0 18.0657 11.5689 209 98.3349 43.9713 508.871
2999 1 62.5586 10.1665 636 98.3019 43.6934 495.214
3000 0 66.493 14.9489 994 95.1992 42.5744 486.245
3001 0 65.3757 11.6557 762 98.0984 41.6955 487.979
3002 0 71.5396 13.3213 953 96.361 40.9538 485.092
3003 0 69.7366 10.4536 729 99.6996 39.7421 487.251
3004 1 17.095 9.18395 157 101.624 41.5605 507.567
3005 0 20.0874 7.21845 145 103.379 40.1517 504.241
3006 1 71.9134 14.6565 1054 94.9573 37.4573 482.641
3007 0 73.2943 7.99516 586 98.1911 38.2901 489.101
3008 1 85.9326 13.8946 1194 92.603 37.7253 477.903
3009 0 89.8345 15.7957 1419 91.3136 37.4404 474.531
3010 0 87.9705 12.1063 1065 97.8094 36.5822 470.892
3011 0 92.0471 14.0906 1297 96.0486 36.441 459.688
3012 0 93.7202 13.7537 1289 96.9752 36.0403 465.076
3013 0 96.7971 22.2734 2156 87.8822 36.9833 470.24
3014 1 56.5747 15.7491 891 92.5039 36.8732 481.001
3015 0 55.772 11.4036 636 96.9827 37.5157 481.42
3016 0 56.4174 13.6128 768 96.0495 36.4987 482.155
3017 0 64.7722 16.3187 1057 91.0407 38.4882 483.275
3018 0 60.867 12.8148 780 97.0859 37.4051 479.603
3019 0 63.5206 17.207 1093 92.2498 38.9698 480.047
3020 0 72.0248 19.2711 1388 88.8278 39.7817 479.725
3021 0 64.6426 12.7161 822 96.8966 39.7032 481.004
3022 0 65.5218 12.6675 830 99.5217 40.1169 477.776
3023 0 70.719 12.076 854 99.4672 39.9883 474.957
3024 0 66.4703 12.9231 859 100.211 41.4086 475.173
3025 0 70.6427 12.6977 897 99.5039 43.311 477.659
3026 0 72.6653 12.5645 913 101.766 43.3932 473.183
3027 0 74.4796 14.6483 1091 100.139 43.2236 470.593
3028 0 75.6969 11.9688 906 103.959 42.5861 470.748
3029 1 144.856 15.9883 2316 101.29 43.9534 443.895
3030 1 222.951 13.6981 3054 103.673 43.3111 417.443
3031 0 231.037 10.1196 2338 107.876 43.2836 421.01
3032 1 244.24 11.4437 2795 107.76 42.7338 410.089
3033 0 245.384 16.5414 4059 101.843 42.5519 403.942
3034 1 169.236 14.3764 2433 104.173 43.4903 437.792
3035 0 172.833 13.3076 2300 106.579 42.6043 435.706
3036 0 178.16 16.8556 3003 102.148 42.5894 434.826
3037 0 183.062 16.1967 2965 102.684 42.3885 433.821
3038 0 188.388 14.5975 2750 101.556 42.5716 428.536
3039 1 20.0629 11.3144 227 94.1189 43.6079 510.286
3040 0 22.0795 15.8065 349 92.1118 42.7307 507.943
3041 0 23.2578 11.308 263 95.3574 43.2966 509.395
3042 0 20.0679 8.8699 178 96.8258 42.1742 510.242
3043 0 21.1947 14.1545 300 92.4767 41.3267 509.067
3044 0 20.0173 10.7907 216 94.2732 40.2222 510.926
3045 0 21.0515 9.88051 208 90.2067 40.8269 510.332
3046 0 25.1042 11.9502 300 88.7467 38.8667 510.18
3047 0 26.1863 12.7166 333 89.8769 38.0781 506.58
3048 0 24.0425 13.1018 315 86.5111 39.1175 510.962
3049 0 23.1589 20.5968 477 85.5472 35.6709 508.453
3050 0 20.0779 7.47091 150 97.1467 35.7267 507.013
3051 0 17.0196 14.1014 240 91.4708 35.9208 508.808
3052 0 19.1047 9.3171 178 94.8315 36.6348 506.629
3053 0 18.2595 13.1986 241 91.7593 36.556 505.519
3054 0 20.0117 15.8407 317 88.7634 35.8044 505.868
3055 0 16.1242 11.4734 185 92.973 36.0162 505.584
3056 0 18.0934 11.109 201 92.408 36.3234 504.945
3057 0 21.0853 12.8051 270 90.7778 36.8185 502.222
3058 0 16.0191 8.73955 140 98.1214 37.3214 502.964
3059 0 18.0657 17.1042 309 87.3333 36.4628 504.162
3060 0 18.1353 12.517 227 92.9075 38.6784 500.978
3061 0 17.5973 8.97867 158 94.7532 38.4051 502.07
3062 0 18.0181 11.9879 216 92.8889 39.5093 500.565
3063 0 19.2461 10.4437 201 92.199 39.8756 501.677
3064 0 18.0638 10.7397 194 92.3814 40.8814 501.077
3065 0 22.2484 15.6416 348 86.2442 41.2098 501.454
3066 0 17.0056 16.0535 273 84.6996 41.8278 502.436
3067 0 19.1591 12.9965 249 86.6827 41.4458 500.47
3068 0 20.1465 22.1875 447 77.6309 42.3602 503.774
3069 0 21.4519 13.0524 280 83.5429 42.2607 503.114
3070 0 30.1673 17.8339 538 75.723 42.7677 501.5
3071 0 27.7942 9.57035 266 84.4023 42.4248 502.361
3072 0 43.8862 15.5174 681 73.5213 40.6593 495.047
3073 0 24.8815 9.60552 239 84.8787 42.9582 503.607
3074 0 30.6777 21.351 655 74.3786 43.0183 503.371
3075 0 24.4203 16.257 397 79.6625 42.5542 506.093
3076 0 20.0991 19.0058 382 81.1126 42.6649 509.157
3077 0 26.1344 8.68588 227 87.0617 45.4097 509.714
3078 0 19.1323 11.6557 223 86.8565 43.6816 513.372
3079 0 17.0223 12.2193 208 88.9808 43.149 509.476
3080 0 17.0426 16.5468 282 86.6454 42.7057 513.915
3081 0 20.0248 12.1849 244 91.2828 42.2459 511.586
3082 0 19.0611 9.12853 174 93.6552 41.9483 512.092
3083 0 22.1088 13.1622 291 86.5636 43.4364 511.12
3084 0 18.0252 12.8708 232 89.2888 42.4397 513.517
3085 0 17.055 15.8898 271 88.059 39.7528 512.273
3086 0 16.027 11.1687 179 86.933 38.5587 517.458
3087 0 18.0283 11.482 207 88.9952 38.8889 514.232
3088 0 17.0425 8.56681 146 90.8904 39 514.651
3089 0 17.0394 8.8618 151 92.4503 37.9272 513.265
3090 0 17.1577 9.03382 155 92.2258 37.5355 512.735
3091 0 16.1938 9.44807 153 91.3399 37.7059 512.902
3092 0 19.5929 10.6671 209 88.9426 37.1244 511
3093 0 19.0739 14.9419 285 84.786 35.8491 510.846
3094 0 17.5328 8.09911 142 92.1338 34.8732 509.451
3095 0 18.2894 12.4663 228 86.8465 34.0395 506.671
3096 0 17.1067 14.3803 246 82.4024 34.061 509.911
3097 0 20.4118 18.3228 374 80.2433 36.0749 507.976
3098 0 18.0468 14.9611 270 83.8037 35.3259 507.056
3099 0 19.0236 12.8262 244 85.8484 34.3607 504.504
3100 0 18.0359 10.8672 196 87.9337 35.4694 506.214
3101 0 16.043 11.8432 190 88.4737 36.0789 505.053
3102 0 20.0603 13.4594 270 86.4963 35.9222 501.733
3103 0 19.177 17.6253 338 83.2988 34.9497 504.009
3104 0 18.4404 16.594 306 84.781 35.9804 502.503
3105 0 23.2714 16.5869 386 79.0881 35.8523 499.645
3106 0 27.3607 15.1312 414 77.4662 37.4348 501.254
3107 0 30.8905 10.8448 335 79.803 36.5164 498.194
3108 0 38.286 22.3841 857 71.2625 36.3466 496.111
3109 0 38.3987 16.8495 647 74.0294 38.1515 499.648
3110 0 21.9406 10.0727 221 85.0498 38.5656 500.778
3111 0 31.6774 19.3513 613 74.721 36.7455 499.095
3112 0 22.0476 18.324 404 78.6139 37.9926 502.46
3113 0 20.4137 13.5203 276 83.6956 40.9167 505.54
3114 0 18.0725 15.1058 273 83.4799 42.1319 506.678
3115 0 17.0491 16.5991 283 84.1661 41.8198 506.269
3116 0 17.0192 8.28475 141 90.8511 42.4965 509.567
3117 0 16.0405 14.6505 235 84.8213 41.1447 509.566
3118 0 19.1843 14.8038 284 85.5739 41.8521 509.011
3119 0 18.2614 14.621 267 85.3221 41.9363 509.449
3120 0 18.0851 11.3906 206 89.8447 41.7379 509.976
3121 0 24.0471 13.0993 315 89.2825 42.0476 510.898
3122 1 99.2095 16.319 1619 92.8542 41.7276 471.374
3123 0 104.41 19.4713 2033 89.6695 41.5755 476.087
3124 0 105.802 19.9901 2115 90.2525 40.5801 467.994
3125 0 107.664 13.2542 1427 97.3749 41.2726 467.46
3126 1 65.3116 15.8318 1034 91.794 38.9304 494.031
