time division length width area intensity CMx CMy
0 0 48.202 16.2856 785 126.53 135.62 461.017
1 0 48.0503 13.8605 666 133.492 134.812 460.012
2 0 51.3939 16.2471 835 118.244 134.969 460.677
3 0 59.262 32.196 1908 94.7699 134.233 455.328
4 0 63.212 19.1578 1211 113.398 132.477 455.782
5 0 63.0711 19.8665 1253 112.217 131.796 452.263
6 0 62.3999 22.8206 1424 110.046 130.581 452.172
7 0 62.2043 17.957 1117 117.317 129.927 455.98
8 0 64.1698 18.0147 1156 117.807 130.477 456.443
9 0 63.1227 21.276 1343 113.724 129.298 453.251
10 0 64.0826 16.4007 1051 121.042 128.088 452.982
11 0 65.2095 15.7186 1025 123.313 127.696 453.558
12 0 61.0357 14.5816 890 128.384 128.064 452.678
13 0 67.0355 15.9617 1070 120.48 127.151 452.507
14 0 70.1521 19.5147 1369 115.633 127.683 450.566
15 0 71.1923 18.2323 1298 117.267 127.475 452.968
16 0 73.2394 19.566 1433 113.348 127.844 450.507
17 0 74.1821 13.9117 1032 121.109 127.079 447.369
18 0 77.1207 16.5714 1278 123.833 126.781 442.294
19 0 79.1418 14.8847 1178 123.957 125.695 440.651
20 0 84.1574 16.6593 1402 118.349 127.67 442.188
21 0 83.1727 18.5277 1541 116.183 127.978 442.819
22 0 89.1022 16.7111 1489 119.209 127.445 438.891
23 0 92.4772 20.2536 1873 114.758 128.417 439.595
24 0 93.2238 15.5325 1448 123.534 128.831 435.635
25 0 100.274 15.2383 1528 120.993 129.55 434.808
26 0 102.248 15.4331 1578 120.528 130.27 430.705
27 0 105.315 14.186 1494 122.925 130.149 431.248
28 0 112.436 19.5666 2200 112.155 131.271 430.317
29 0 110.443 15.6914 1733 117.739 132.257 428.589
30 0 119.213 17.4226 2077 115.019 132.249 426.944
31 0 122.308 17.8239 2180 114.921 134.097 420.844
32 1 61.1541 15.0603 921 118.422 134.855 450.584
33 0 65.1323 14.2479 928 115.669 135.659 451.003
34 0 67.1177 16.1358 1083 113.395 136.024 450.141
35 0 70.5195 16.6479 1174 113.278 136.116 451.893
36 0 72.1077 16.2812 1174 113.182 138.001 446.422
37 0 74.2519 18.7201 1390 108.466 137.606 450.95
38 0 74.3082 15.18 1128 113.906 138.121 446.66
39 0 78.0951 16.7616 1309 109.204 137.378 451.961
40 0 80.1845 17.2103 1380 109.03 137.436 447.466
41 0 82.23 15.4566 1271 115.253 137.377 446.893
42 0 83.1859 11.9972 998 117.774 137.214 446.005
43 0 92.2839 19.0824 1761 107.209 137.622 445.378
44 0 94.2089 15.3064 1442 117.355 135.294 446.494
45 1 43.1245 11.432 493 124.105 134.866 472.359
46 0 47.0409 14.9019 701 116.305 135.525 473.321
47 0 50.0605 13.3439 668 118.775 133.967 475.108
48 0 48.052 12.7362 612 124.886 132.389 472.114
49 0 52.1046 17.4265 908 111.076 133.664 478.454
50 0 52.1188 13.3733 697 125.373 132.105 472.516
51 0 52.1188 13.2774 692 144.104 130.103 472.561
52 0 59.067 18.4198 1088 113.487 130.453 470.638
53 0 58.2118 14.516 845 121.406 130.082 468.911
54 0 59.0563 12.8521 759 126.116 128.864 466.772
55 0 64.0523 13.1143 840 123.262 129.405 468.838
56 0 66.2973 13.9071 922 122.869 129.568 465.51
57 0 68.0942 18.0632 1230 116.284 128.196 463.272
58 0 71.1301 16.1816 1151 119.249 128.129 461.591
59 0 74.079 13.1616 975 123.224 129.404 457.314
60 0 77.1975 12.7077 981 124.058 128.142 455.992
61 0 82.2113 16.9563 1394 116.202 127.601 452.103
62 0 83.1629 11.5677 962 124.62 127.928 452.422
63 1 42.1509 10.0116 422 123.436 128.5 469.142
64 0 45.092 14.7255 664 115.739 127.672 467.492
65 0 46.105 14.5321 670 117.036 129.184 465.26
66 0 46.1078 11.5816 534 122.028 128.884 462.994
67 0 48.128 12.4875 601 119.106 129.463 462.606
68 0 51.162 13.682 700 117.087 130.056 461.08
69 0 53.0419 12.3299 654 118.917 129.702 461.44
70 0 54.1914 15.3161 830 115.754 130.17 456.954
71 0 57.2479 13.1184 751 119.097 131.598 457.956
72 0 58.0999 16.9363 984 113.258 131.908 455.133
73 0 61.1021 15.2695 933 115.522 132.424 455.353
74 0 62.1294 14.5342 903 115.921 132.979 458.195
75 0 65.0646 14.4472 940 118.394 133.921 456.591
76 0 66.0775 13.4236 887 120.299 133.545 455.981
77 0 69.1419 15.8948 1099 115.975 134.488 455.804
78 0 71.2696 13.0911 933 121.912 135.184 453.938
79 0 73.1859 13.7868 1009 119.929 136.659 453.815
80 0 74.0594 11.7878 873 123.781 136.923 453.816
81 0 77.1732 18.8148 1452 111.26 137.722 455.785
82 0 81.2562 14.6204 1188 119.912 136.785 453.018
83 0 80.1015 14.5316 1164 120.834 136.966 450.923
84 0 85.1044 13.4423 1144 120.991 136.782 454.94
85 0 86.1175 14.7821 1273 121.804 136.783 449.91
86 0 90.2513 13.2519 1196 123.564 135.961 450.068
87 0 94.3848 13.4661 1271 120.595 135.715 454.83
88 0 97.1693 12.9671 1260 123.462 135.864 447.255
89 0 101.106 15.8546 1603 118.745 135.688 449.347
90 0 101.308 10.3941 1053 127.468 134.639 454.821
91 0 109.365 14.9042 1630 120.563 134.328 446.939
92 1 50.2061 13.4844 677 117.474 133.721 474.931
93 0 52.2072 11.5884 605 121.443 133.03 474.283
94 0 55.0938 14.2847 787 114.609 131.526 475.978
95 0 56.0543 13.6832 767 118.042 129.847 472.357
96 0 57.0298 15.8689 905 113.815 130.436 473.465
97 0 58.1124 14.0934 819 117.346 129.946 471.193
98 0 60.0674 14.3006 859 115.683 128.936 472.32
99 0 61.2887 12.2861 753 119.981 128.542 469.376
100 0 65.3943 18.442 1206 109.119 127.46 467.254
101 0 64.2309 10.3221 663 125.024 126.65 465.184
102 0 69.0812 14.0849 973 116.343 125.416 462.044
103 0 69.132 13.8286 956 117.032 126.508 461.441
104 0 74.1956 12.6018 935 116.178 126.169 465.372
105 0 74.2366 14.5885 1083 115.567 126.359 455.306
106 0 77.1171 13.9917 1079 116.337 126.68 453.392
107 0 78.2116 13.1438 1028 118.476 127.064 450.422
108 0 86.1742 20.3077 1750 105.013 127.76 453.87
109 0 86.2156 20.8083 1794 105.717 127.402 451.113
110 0 89.2133 13.8208 1233 117.337 127.809 444.763
111 0 91.5121 14.5773 1334 114.07 128.453 443.637
112 0 93.2228 14.1918 1323 114.358 129.857 439.88
113 1 50.1769 10.6623 535 114.864 129.976 458.189
114 0 54.105 10.2024 552 114.46 130.299 460.554
115 0 56.0972 13.4053 752 112.691 131.46 458.545
116 0 57.2535 13.7284 786 112.718 131.578 456.323
117 0 58.0727 12.6738 736 114.518 132.516 458.107
118 0 60.1717 13.5944 818 112.741 132.72 457.676
119 0 64.167 12.1558 780 110.337 132.369 459.612
120 0 66.1727 10.4424 691 112.889 133.449 458.729
121 0 68.1953 14.6784 1001 109.956 134.9 456.156
122 0 69.2819 18.5618 1286 102.866 135.679 456.306
123 0 71.1266 14.425 1026 108.473 135.98 457.307
124 0 72.3312 12.1939 882 113.412 135.949 452.927
125 0 76.21 13.0298 993 113.969 135.966 454.698
126 0 77.2739 12.6174 975 114.261 135.961 453.647
127 0 83.1585 15.4043 1281 109.879 135.164 455.858
128 1 46.064 13.7852 635 109.274 135.331 473.027
129 0 47.2048 13.4096 633 109.425 134.788 474.942
130 0 48.095 12.9743 624 111.569 134.197 473.26
131 0 50.174 14.5892 732 107.908 134.322 477.077
132 0 51.1865 13.1675 674 111.837 134.671 475.135
133 0 51.126 14.3371 733 111.618 133.559 473.578
134 0 54.1437 11.1001 601 116.74 132.379 473.101
135 0 57.1585 14.4336 825 112.343 132.787 470.886
136 0 60.2695 15.5468 937 109.308 131.205 471.522
137 0 57.1481 12.5113 715 115.571 132.215 472.565
138 0 60.1917 15.6998 945 108.702 130.341 472.534
139 0 61.3356 16.0266 983 108.021 129.889 471.769
140 0 62.181 13.0586 812 112.994 128.384 466.031
141 0 68.1675 17.4423 1189 104.436 127.255 469.159
142 0 65.1714 11.1552 727 113.862 127.011 465.52
143 0 72.3017 11.8116 854 110.913 126.475 465.303
144 0 72.1301 12.935 933 110.553 125.726 461.011
145 0 77.1806 14.8612 1147 109.005 124.364 459.413
146 0 81.2167 14.1104 1146 111.452 124.459 455.25
147 1 45.2298 10.4135 471 109.363 124.265 475.626
148 0 47.2022 11.2071 529 110.94 125.716 469.026
149 0 47.115 11.9707 564 111.092 124.324 471.668
150 0 49.0608 11.231 551 113.334 125.243 470.054
151 0 50.2346 14.9498 751 108.577 125.306 467.332
152 0 54.1525 10.7844 584 112.906 125.827 467.411
153 0 52.0717 11.753 612 113.804 125.796 464.696
154 0 53.3562 13.9065 742 110.373 125.939 464.255
155 0 54.2246 10.6594 578 116.355 126.856 461.107
156 0 57.0828 13.822 789 112.355 128.318 460.181
157 0 60.2424 16.0352 966 108.507 128.142 457.179
158 0 61.1646 17.9352 1097 105.278 129.899 458.798
159 0 65.1435 14.8288 966 109.342 130.105 457.909
160 0 65.4403 15.22 996 109.504 130.474 454.713
161 0 66.1594 12.3641 818 115.171 131.851 452.417
162 0 68.3765 13.4403 919 113.94 131.731 451.417
163 0 69.2868 11.0411 765 118.058 132.991 452.017
164 0 74.2182 14.7403 1094 111.303 133.371 451.297
165 0 78.3849 15.4366 1210 108.974 133.47 451.004
166 0 82.2591 14.4665 1190 109.91 134.166 449.117
167 0 81.1236 15.5565 1262 109.932 134.376 450.223
168 0 83.2962 11.6692 972 115.643 134.15 450.845
169 0 90.4175 15.6275 1413 110.957 134.994 449.561
170 0 90.2664 11.2334 1014 117.726 134.631 452.325
171 0 93.3282 13.64 1273 116.31 134.196 446.83
172 1 49.3559 11.488 567 113.732 134.101 472.552
173 0 52.1518 11.3515 592 116.802 132.821 468.745
174 0 54.1717 10.3006 558 119.47 133.305 474.301
175 0 52.1773 11.9592 624 113.819 133.147 475.013
176 0 59.1288 14.7475 872 109.119 131.833 466.586
177 0 60.1845 18.7756 1130 104.318 132.251 470.061
178 0 59.1245 11.3658 672 117.625 130.484 471.28
179 0 59.1466 12.6127 746 115.767 130.217 472.559
180 0 60.0418 12.5079 751 117.298 129.398 468.796
181 0 63.233 15.2136 962 112.248 129.081 472.133
182 0 64.1061 14.2576 914 112.702 128.301 472.279
183 0 67.0328 15.7535 1056 109.663 127.582 472.773
184 0 68.1026 15.2123 1036 112.741 126.89 465.984
185 0 72.0861 13.8029 995 113.792 126.172 460.32
186 0 73.1627 16.6478 1218 109.675 126.039 460.768
187 0 75.2553 15.5869 1173 110.937 124.05 458.303
188 0 77.2142 14.0648 1086 112.339 124.622 456.952
189 0 84.2435 17.1883 1448 105.124 123.834 454.585
190 0 83.1575 16.4507 1368 105.666 124.061 457.66
191 0 87.1179 20.0189 1744 103.651 124.505 453.101
192 0 88.298 16.5009 1457 108.748 124.679 451.213
193 0 92.3076 16.0442 1481 107.799 123.921 454.797
194 0 95.2403 13.7967 1314 112.244 124.194 445.126
195 1 51.1309 12.8102 655 109.879 123.571 466.533
196 0 53.1476 13.3967 712 108.713 124.015 466.996
197 0 54.1557 14.8276 803 107.039 124.164 464.676
198 0 54.1538 14.3665 778 109.026 125.135 462.406
199 0 58.1333 12.6778 737 111.307 126.288 460.657
200 0 60.0413 11.7752 707 110.489 127.513 460.185
201 0 61.0827 9.98647 610 111.61 127.016 463.752
202 0 64.1616 12.7958 821 109.306 127.016 458.974
203 0 68.3369 16.2138 1108 104.766 129.422 457.332
204 0 67.2637 11.1501 750 110.847 128.965 459.828
205 0 68.1295 10.5975 722 113.105 129.314 456.206
206 0 70.2978 12.2479 861 112.184 130.771 453.776
207 0 73.3734 16.1775 1187 105.642 131.207 454.961
208 0 75.1867 14.6967 1105 108.384 132.001 451.037
209 0 82.4745 18.7088 1543 102.095 132.593 453.862
210 0 82.0954 13.8985 1141 110.952 131.679 452.931
211 0 82.2378 12.5854 1035 111.159 133.431 455.105
212 0 84.2561 11.9873 1010 113.935 133.466 451.281
213 0 89.4202 15.2426 1363 109.822 133.507 449.538
214 0 94.1303 13.5875 1279 112.319 134.458 451.438
215 0 97.1839 17.2457 1676 107.436 133.934 454.785
216 0 98.1845 14.2894 1403 113.199 133.539 449.5
217 1 52.126 12.7192 663 109.244 132.454 477.427
218 0 58.2288 13.5843 791 107.823 132.255 476.019
219 0 57.4126 12.4015 712 111.556 131.299 476.326
220 0 55.1045 12.6668 698 113.607 129.751 473
221 0 60.07 13.6341 819 110.274 129.769 476.35
222 0 60.1789 13.0278 784 111.941 129.173 475.971
223 0 62.0559 16.8719 1047 107.276 127.599 472.355
224 0 64.0995 12.0282 771 115.546 127.258 470.525
225 0 68.1993 16.3491 1115 108.732 125.797 470.912
226 0 70.3859 14.8894 1048 109.989 125.524 472.395
227 0 70.1629 13.0126 913 115.406 124.226 467.717
228 0 72.3506 12.3565 894 115.045 123.898 469.881
229 0 75.2239 13.9051 1046 115.257 123.397 464.842
230 0 79.4242 14.7562 1172 112.829 123.178 465.848
231 0 79.2564 16.2258 1286 111.183 122.369 457.909
232 0 83.2161 15.5739 1296 113.136 122.236 456.529
233 0 85.348 13.5445 1156 117.181 122.511 454.661
234 0 91.5617 20.4998 1877 107.766 122.03 446.283
235 0 95.3006 15.7082 1497 114.323 122.801 454.104
236 0 97.2768 12.0687 1174 121.033 122.112 450.509
237 0 99.2727 14.7372 1463 117.855 122.53 444.092
238 1 54.2805 13.8171 750 111.913 121.832 468.268
239 0 58.0906 13.4617 782 114.627 121.431 467.76
240 0 60.3182 12.202 736 111.988 123.755 467.668
241 0 56.1827 13.1001 736 113.245 123.192 463.916
242 0 59.1234 10.9263 646 115.774 124.334 463.689
243 0 58.0273 11.5463 670 116.969 124.13 460.182
244 0 61.3498 11.2307 689 116.887 124.467 460.425
245 0 65.0422 11.4233 743 117.859 126.143 456.732
246 0 68.151 15.9645 1088 108.744 126.142 460.778
247 0 75.3292 16.4876 1242 108.457 126.49 449.572
248 0 73.2486 14.4167 1056 115.94 126.045 448.134
249 0 74.1198 14.8138 1098 113.807 127.051 453.598
250 0 77.1042 15.1354 1167 113.915 127.666 453.251
251 0 78.189 12.0222 940 119.787 128.744 449.793
252 0 82.534 10.4805 865 120.854 129.711 451.286
253 0 85.1634 14.7716 1258 113.878 131.247 450.834
254 0 90.0721 13.6113 1226 116.436 130.645 449.483
255 0 92.2795 13.8167 1275 115.245 131.408 449.997
256 0 96.176 15.9915 1538 112.889 131.588 451.509
257 0 98.2871 13.4402 1321 116.674 132.469 451.263
258 0 102.172 13.8101 1411 116.605 131.644 445.917
259 1 55.0975 12.7411 702 111.152 131.456 469.724
260 0 60.7059 11.1686 678 109.745 129.497 475.099
261 0 57.2307 9.15592 524 118.036 129.422 469.351
262 0 59.1538 11.0221 652 116.098 128.578 472.839
263 0 59.136 10.9409 647 116.705 128.444 472.702
264 0 60.0457 11.358 682 112.034 129.519 474.93
265 0 63.0416 13.1818 831 109.548 129.089 472.859
266 0 64.0396 12.8202 821 109.437 127.724 469.889
267 0 67.1489 10.1119 679 113.062 126.536 471.358
268 0 68.1 13.348 909 110.063 125.905 465.285
269 0 72.0977 15.7703 1137 105.777 125.166 465.535
270 0 72.0972 12.816 924 111.09 124.487 462.067
271 0 75.0907 13.3971 1006 109.565 125.238 464.235
272 0 75.1625 9.73889 732 117.107 124.24 458.138
273 0 79.0867 12.2144 966 112.241 123.644 463.466
274 0 81.2302 11.1042 902 114.266 123.392 456.069
275 0 86.1587 19.4409 1675 102.389 122.288 451.325
276 0 88.0695 18.0539 1590 104.293 121.413 457.738
277 0 89.1296 10.2772 916 118.015 120.913 452.398
278 0 93.1901 13.51 1259 114.464 121.047 445.448
279 1 51.2025 8.41755 431 113.227 120.956 470.777
280 0 51.0281 11.0723 565 106.527 121.405 468.697
281 0 54.0602 13.7994 746 103.812 121.993 463.568
282 0 56.1488 11.4339 642 105.578 121.945 464.441
283 0 57.1141 13.2016 754 103.81 122.052 465.536
284 0 57.0495 9.58817 547 109.592 123.137 463.554
285 0 61.1055 13.403 819 104.017 122.54 460.695
286 0 61.0754 11.4776 701 107.702 123.629 453.7
287 0 62.094 9.59835 596 109.987 125.121 460.505
288 0 64.1997 12.2586 787 106.977 124.779 454.919
289 0 73.1173 10.5037 768 108.939 126.867 454.924
290 0 71.1657 12.0283 856 108.444 127.062 452.849
291 0 73.228 16.1277 1181 102.922 127.533 453.566
292 0 75.1501 12.3486 928 107.593 128.001 453.661
293 0 76.0756 12.9345 984 109.835 129.315 450.78
294 0 79.1241 17.9718 1422 103.044 130.215 448.874
295 0 81.1144 17.0993 1387 104.739 131.641 444.468
296 0 85.1599 11.9305 1016 111.848 131.075 449.405
297 0 88.1928 12.6768 1118 110.657 133.363 451.668
298 1 47.0763 10.175 479 110.722 132.674 470.453
299 0 50.1921 13.528 679 107.074 132.43 468.819
300 0 49.1801 12.1391 597 105.521 133.63 468.218
301 0 52.4341 11.8434 621 105.787 133.095 465.884
302 0 51.0681 11.9057 608 113.706 131.128 468.363
303 0 55.0448 15.3693 846 107.266 131.193 470.214
304 0 56.0755 14.641 821 109.864 131.609 469.324
305 0 58.1129 15.0053 872 108.775 133.278 470.468
306 0 60.0518 14.0878 846 111.204 132.697 470.914
307 0 61.1849 12.5194 766 113.128 131.906 473.273
308 0 61.246 17.4869 1071 104.346 131.687 474.779
309 0 66.1416 13.8642 917 111.294 130.51 470.993
310 0 66.0788 13.953 922 107.675 129.009 474.768
311 0 68.0774 11.1931 762 114.5 126.814 467.65
312 0 71.1458 14.4914 1031 108.99 126.718 467.496
313 0 71.1018 13.9378 991 109.694 126.507 467.821
314 0 72.2016 14.1548 1022 108.734 125.849 467.234
315 0 76.1479 18.0832 1377 104.765 126.332 459.293
316 0 75.1617 13.2514 996 111.725 125.362 458.561
317 0 78.3194 14.1344 1107 110.499 124.49 459.436
318 0 84.5995 17.1514 1451 105.879 123.457 457.675
319 0 82.1006 15.8951 1305 110.333 122.919 453.981
320 0 86.1016 15.5979 1343 110.299 122.076 453.812
321 0 87.2772 13.7837 1203 113.318 122.958 451.116
322 0 90.2075 13.9013 1254 113.216 123.109 449.856
323 0 92.1354 13.8058 1272 114.156 122.454 448.244
324 0 95.2807 13.0457 1243 115.58 122.247 446.22
325 0 100.503 17.0344 1712 110.341 123.487 442.3
326 0 103.398 13.8011 1427 114.878 123.717 440.478
327 0 105.453 16.3106 1720 111.71 124.68 431.744
328 0 108.39 15.4535 1675 113.445 124.747 430.696
329 0 113.409 18.1115 2054 108.004 124.774 435.341
330 0 116.428 16.4135 1911 112.72 125.734 425.005
331 0 118.258 13.1577 1556 117.499 126.679 428.701
332 0 123.591 19.8963 2459 107.169 127.698 426.222
333 1 68.3104 10.1741 695 114.476 127.879 451.872
334 0 71.3688 15.4689 1104 110.44 129.166 444.462
335 0 70.5312 11.5126 812 119.245 129.103 444.727
336 0 75.2514 12.4516 937 116.054 130.081 450.757
337 0 76.3629 13.0168 994 117.641 130.255 448.174
338 0 81.4067 16.5465 1347 111.543 131.561 448.269
339 0 83.3483 17.6488 1471 109.923 132.542 446.546
340 0 85.4297 16.8677 1441 114.047 133.115 441.399
341 0 85.2181 15.2315 1298 117.547 132.864 445.978
342 0 93.9085 14.9294 1402 116.137 133.71 445.281
343 0 93.2065 13.9583 1301 118.872 133.997 446.723
344 0 97.3473 16.775 1633 114.007 134.099 446.992
345 0 98.414 15.7904 1554 117.66 135.241 441.252
346 0 102.533 16.2387 1665 116.422 134.682 438.371
347 0 104.273 14.2415 1485 119.785 133.593 443.075
348 0 109.227 16.9738 1854 116.361 133.791 441.963
349 0 111.464 15.8616 1768 118.355 133.992 441.128
350 0 113.292 13.8315 1567 123.04 133.167 438.625
351 0 119.416 15.7517 1881 118.165 133.478 441.488
352 0 123.234 16.205 1997 117.776 132.318 441.54
353 1 66.199 13.5349 896 116.169 131.766 459.079
354 0 66.1881 12.7213 842 117.306 130.963 458.302
355 0 71.2289 18.9389 1349 107.904 128.927 463.975
356 0 71.0872 14.3767 1022 115.742 130.334 461.821
357 0 75.3088 13.1193 988 118.155 129.749 460.664
358 0 78.2318 15.9398 1247 111.908 129.058 463.236
359 0 79.1652 15.4108 1220 113.773 127.477 459.975
360 0 81.1594 13.1963 1071 117.701 127.899 454.504
361 0 85.1164 19.9727 1700 107.206 126.434 456.619
362 0 86.1775 13.623 1174 115.768 126.586 455.484
363 0 88.1318 14.2287 1254 115.186 125.953 446.25
364 0 93.1963 14.786 1378 115.048 125.829 446.462
365 0 95.1567 14.4709 1377 115.61 125.762 444.265
366 0 100.155 15.3561 1538 113.107 125.912 444.421
367 0 100.155 15.456 1548 131.534 125.908 444.475
368 0 105.143 12.3356 1297 117.061 125.618 432.523
369 0 111.217 15.9508 1774 111.079 126.263 428.102
370 0 117.335 14.9827 1758 109.679 127.093 435.863
371 1 64.0884 11.2345 720 107.803 127.679 461.407
372 0 65.0948 14.0257 913 106.37 127.829 453.951
373 0 69.2303 13.7801 954 106.221 127.814 454.197
374 0 71.1256 12.7943 910 103.235 127.615 456.37
375 0 71.2222 14.3775 1024 103.515 128.306 449.836
376 0 73.1164 13.8136 1010 103.26 128.51 454.745
377 0 79.1595 12.8222 1015 106.383 130.258 447.688
378 1 150.366 11.9242 1793 114.36 130.525 411.003
379 1 84.1429 13.7385 1156 105.255 131.517 446.36
380 0 86.2196 15.7969 1362 103.448 131.668 438.411
381 0 89.2437 12.0681 1077 107.958 132.907 441.771
382 0 93.5074 14.6512 1370 103.495 134.558 447.329
383 0 95.2208 13.3269 1269 106.533 135.887 444.34
384 1 49.2512 11.2688 555 104.391 134.166 464.391
385 0 49.1355 9.09729 447 107.996 134.268 462.709
386 0 53.335 12.8058 683 101.127 134.786 467.654
387 0 52.1431 5.56162 290 113.917 134.39 467.434
388 0 56.0854 15.7973 886 97.2246 134.83 470.45
389 0 58.0463 11.4219 663 102.808 134.238 470.531
390 0 60.1308 12.7555 767 102.866 134.434 468.078
391 0 60.0906 12.6975 763 104.779 134.069 463.258
392 0 64.1359 13.3311 855 103.613 134.619 465.377
393 0 65.0899 12.4443 810 103.277 134.037 470.783
394 0 69.5224 12.4133 863 104.41 133.976 465.934
395 0 73.243 13.9262 1020 103.55 132.494 464.293
396 0 75.2118 12.6842 954 107.178 133.012 460.768
397 0 76.187 12.9287 985 106.978 132.202 466.035
398 0 80.6177 14.1904 1144 104.401 130.13 465.997
399 1 43.3757 13.556 588 103.187 129.697 481.043
400 0 42.4992 9.20016 391 112.128 129.895 478.284
401 0 43.1192 10.6449 459 108.386 129.59 480.547
402 0 44.036 14.3746 633 103.335 127.114 476.349
403 0 45.0737 11.6698 526 110.384 126.572 476.378
404 0 46.1295 12.3999 572 107.913 126.573 476.271
405 0 45.0874 10.4907 473 111.78 126.63 474.171
406 0 49.1216 15.3904 756 103.04 125.372 473.981
407 0 50.1662 13.6945 687 109.93 125.6 468.897
408 0 53.1448 12.2307 650 109.677 125.446 469.5
409 0 55.3059 12.6207 698 108.504 126.223 469.788
410 0 56.1554 12.7147 714 109.943 126.141 465.674
411 0 58.2398 16.1402 940 103.515 124.987 467.347
412 0 60.3307 15.3156 924 105.591 125.975 461.47
413 0 61.0916 14.0445 858 108.566 125.819 460.051
414 0 64.1709 16.7833 1077 101.852 125.796 462.559
415 0 64.3335 13.7254 883 108.949 125.945 455.672
416 0 65.3328 9.76538 638 114.157 127.426 454.139
417 0 70.3453 14.1445 995 107.577 127.58 456.078
418 0 73.4155 20.8403 1530 97.8013 127.878 455.395
419 0 71.2728 12.7258 907 113.237 130.064 449.505
420 0 75.2797 12.9783 977 108.993 129.811 450.999
421 0 79.33 14.862 1179 106.376 130.719 449.758
422 0 86.4889 21.5866 1867 96.3856 131.085 449.355
423 0 84.5297 16.1363 1364 105.092 132.348 444.736
424 0 88.4119 16.3553 1446 104.593 132.434 444.37
425 0 92.5847 12.6803 1174 107.202 133.944 450.733
426 0 92.4282 13.286 1228 109.848 134.614 443.544
427 0 96.446 11.6853 1127 111.024 135.972 444.317
428 0 100.398 16.2454 1631 105.851 136.119 442.604
429 0 103.418 15.2101 1573 107.329 136.781 443.641
430 0 107.269 13.7412 1474 110.747 136.069 441.314
431 0 107.325 17.5076 1879 105.159 135.393 443.829
432 0 109.216 14.1096 1541 112.015 135.03 436.849
433 0 114.513 15.8497 1815 108.533 135.651 442.419
434 0 117.529 15.7409 1850 108.168 135.95 446.765
435 0 119.478 14.5382 1737 112.424 135.815 440.804
436 0 122.366 10.4441 1278 117.998 135.185 442.843
437 1 64.0902 16.9605 1087 104.566 135.126 467.206
438 0 64.3498 12.0125 773 111.988 135.367 468.708
439 0 66.2464 14.6725 972 108.917 133.908 466.378
440 0 67.219 17.0934 1149 103.562 132.92 469.856
441 0 68.1811 12.6575 863 110.189 131.305 466.056
442 0 71.1162 17.6331 1254 103.474 131.372 463.677
443 0 74.3201 15.043 1118 110.167 131.974 465.121
444 0 76.3042 16.1983 1236 108.373 131.736 462.901
445 0 77.1619 16.0572 1239 110.223 130.779 460.615
446 0 81.343 13.9901 1138 112.854 129.589 459.662
447 0 80.1671 12.4989 1002 116.681 129.362 458.985
448 0 84.3353 11.9167 1005 117.503 129.049 458.398
449 1 46.1163 10.8205 499 113.8 128.629 477.154
450 0 49.0601 10.7623 528 115.273 128.053 474.286
451 0 47.0858 12.9551 610 113.359 127.552 472.011
452 0 50.0904 13.4158 672 112.006 127.47 472.244
453 0 49.1555 11.9417 587 113.695 126.658 470.162
454 0 52.3162 13.1508 688 111.438 126.535 468.712
455 0 56.1584 18.6793 1049 101.961 125.698 469.881
456 0 56.0644 13.0386 731 112.419 126.658 468.078
457 0 57.1419 11.6377 665 115.182 125.666 466.642
458 0 57.1611 14.1005 806 111.918 125.062 463.813
459 0 60.0959 13.0458 784 112.574 126.003 464.171
460 0 63.3796 20.18 1279 101.702 127.042 465.869
461 0 62.1746 13.06 812 114.869 127.427 459.849
462 0 64.2522 14.0073 900 114.481 129.007 456.489
463 0 68.3455 14.3682 982 113.285 129.446 456.992
464 0 70.4456 14.8341 1045 112.442 130.343 456.346
465 0 72.2584 15.583 1126 111.609 129.833 456.881
466 0 77.3979 17.4165 1348 109.045 130.409 455.918
467 0 77.3772 13.9059 1076 114.773 129.531 458.098
468 0 80.2323 16.2902 1307 111.721 131.183 455.475
469 0 84.2676 16.8867 1423 106.736 131.918 459.243
470 0 85.5758 12.6087 1079 116.796 132.08 454.768
471 1 47.3082 15.6632 741 107.721 132.889 473.355
472 0 48.1121 15.1937 731 109.715 132.829 473.464
473 0 50.0862 12.5983 631 112.054 131.922 473.705
474 0 51.1089 14.3419 733 112.548 132.909 475.108
475 0 53.0438 15.6286 829 111.075 131.895 476.366
476 0 52.1201 10.5142 548 119.823 131.757 478.013
477 0 55.0224 14.9212 821 112.389 131.145 478.412
478 0 57.0337 15.7802 900 110.66 130.793 479.27
479 0 59.1741 15.4459 914 111.314 130.881 478.21
480 0 60.138 15.1817 913 112.294 129.745 477.622
481 0 62.162 13.7222 853 114.084 128.57 479.808
482 0 65.0633 12.68 825 114.755 128.352 477.072
483 0 64.0515 14.4259 924 113.075 126.558 475.109
484 0 70.4212 14.6121 1029 109.626 126.63 478.142
485 0 70.266 13.1073 921 113.368 124.216 472.958
486 0 73.5336 14.4424 1062 111.053 125.735 471.626
487 0 76.335 12.432 949 112.403 124.226 473.468
488 0 78.3147 13.7394 1076 113.266 123.647 467.768
489 0 81.4169 16.1146 1312 109.931 122.274 466.536
490 0 85.3097 14.3829 1227 112.817 122.742 456.984
491 1 45.1394 14.4885 654 107.677 121.031 477.532
492 0 47.3596 12.3101 583 109.172 120.058 475.563
493 0 48.1493 13.5412 652 108.307 119.571 475.304
494 0 49.076 13.2651 651 108.906 120.243 479.49
495 0 51.1514 19.8431 1015 101.071 121.102 483.928
496 0 55.1399 13.7831 760 110.862 120.213 475.37
497 0 53.1117 11.4476 608 115.997 118.656 473.77
498 0 55.1028 12.9213 712 111.942 119.678 476.348
499 0 57.1429 12.6175 721 113.112 120.57 472.01
500 0 60.0786 14.5143 872 110.486 120.307 468.142
501 0 61.0595 13.1183 801 113.263 120.798 465.73
502 0 64.189 14.7221 945 109.857 121.818 463.314
503 0 65.1857 15.5556 1014 107.619 123.05 463.943
504 0 67.1763 14.127 949 109.17 124.17 463.651
505 0 72.2539 16.2206 1172 106.852 124.853 461.892
506 0 73.1407 15.0532 1101 109.183 125.273 460.432
507 0 75.178 14.3393 1078 111.755 125.758 456.624
508 0 74.0708 12.7041 941 113.875 127.694 454.526
509 0 79.14 12.838 1016 114.094 127.936 455.976
510 0 82.3038 17.1924 1415 107.47 127.543 452.1
511 0 83.2997 12.365 1030 114.767 129.112 453.379
512 0 90.3666 13.3788 1209 112.406 129.494 454.434
513 0 92.1779 15.9908 1474 110.187 131.016 449.393
514 0 95.1865 14.6239 1392 112.413 130.806 445.434
515 0 96.3537 11.9663 1153 115.61 130.853 452.074
516 1 56.9768 13.8477 789 105.885 130.83 474.361
517 0 52.2245 13.9207 727 110.19 131.602 470.827
518 0 55.1053 16.7679 924 105.683 130.18 473.855
519 0 56.1383 13.4667 756 111.631 129.303 476.017
520 0 57.1087 13.343 762 111.253 130.728 477.866
521 0 58.0599 12.0048 697 114.397 129.343 474.419
522 0 62.2203 15.9112 990 107.137 129.241 477.708
523 0 63.0802 16.1382 1018 108.534 128.319 474.711
524 0 66.1893 13.9902 926 111.013 128.17 475.587
525 0 73.224 14.8449 1087 108.07 126.901 469.734
526 0 73.14 24.3642 1782 97.2632 127.211 473.447
527 0 78.4197 26.4092 2071 96.0763 126.597 466.612
528 0 75.1135 14.285 1073 112.32 124.715 471.735
529 0 77.1297 18.9162 1459 106.705 124.565 471.367
530 0 80.1393 15.8973 1274 112.13 123.931 464.099
531 0 83.5561 16.6475 1391 111.592 122.933 461.417
532 0 87.3325 17.7368 1549 108.675 122.254 463.708
533 0 89.4304 14.6147 1307 114.157 122.579 457.763
534 0 92.3331 15.769 1456 112.422 122.338 459.646
535 1 47.2289 13.9745 660 112.468 121.118 480.452
536 0 48.1089 11.183 538 114.465 120.533 481.783
537 0 52.0948 13.2835 692 111.753 119.889 478.461
538 0 52.0491 15.3509 799 108.487 120.015 479.75
539 0 54.1019 13.1788 713 113.837 120.463 473.707
540 0 56.1527 13.4989 758 112.58 119.321 473.439
541 0 58.1324 11.5254 670 115.155 120.421 471.982
542 0 63.2571 14.9865 948 106.993 120.494 471.052
543 0 66.1493 14.4522 956 107.725 121.426 468.166
544 0 64.1425 15.2941 981 107.194 120.517 465.388
545 0 66.0641 11.943 789 112.108 121.597 461.733
546 0 71.3614 18.2452 1302 102.801 121.99 457.645
547 0 72.3625 16.5141 1195 103.632 124.132 458.598
548 0 73.1062 12.7486 932 109.41 123.557 455.416
549 0 74.2411 11.6647 866 109.976 124.879 457.448
550 0 78.1084 14.1726 1107 106.481 124.891 456.718
551 0 83.2353 15.6905 1306 106.563 124.605 451.904
552 0 85.2646 14.8596 1267 107.227 125.522 452.343
553 0 87.5272 12.7389 1115 108.787 126.387 455.066
554 0 91.3275 18.5924 1698 100.112 126.927 450.592
555 0 94.3422 14.7654 1393 107.062 128.546 446.663
556 1 51.2339 13.1749 675 103.222 128.548 470.359
557 0 53.2659 14.6811 782 100.233 130.348 472.954
558 0 57.5888 13.4054 772 100.791 130.571 473.447
559 0 54.1026 12.1806 659 106.457 129.464 470.539
560 0 58.2911 13.2096 770 104.2 129.573 470.323
561 0 58.2911 13.0552 761 135.689 128.58 470.351
562 0 63.1501 11.924 753 105.201 128.964 475.449
563 0 62.1745 10.9048 678 107.963 128.193 473.299
564 0 64.1409 10.8979 699 109.472 128.14 472.505
565 0 69.3382 15.5326 1077 103.008 128.146 469.073
566 0 69.2308 13.8233 957 106.129 127.674 470.758
567 0 74.5793 14.4276 1076 107.201 127.075 469.728
568 0 73.604 13.5319 996 109.868 126.817 468.896
569 0 78.3012 16.296 1276 106.013 126.712 468.647
570 0 84.2262 15.3753 1295 104.821 125.377 472.728
571 0 87.5876 15.3446 1344 105.789 124.603 469.239
572 0 88.365 13.3198 1177 110.087 124.611 465.353
573 1 46.2485 12.9734 600 109.172 123.557 482.092
574 0 51.3497 16.67 856 99.9626 123.279 486.328
575 0 55.8227 17.896 999 100.23 121.61 481.228
576 0 51.167 13.4266 687 110.595 122.039 480.376
577 0 51.1075 12.5226 640 114.341 121.484 480.472
578 0 55.1994 16.5582 914 108.271 120.105 474.263
579 0 56.085 15.1912 852 110.931 121.014 474.049
580 0 57.0908 14.7484 842 110.979 119.767 473.781
581 0 61.1784 15.0053 918 108.892 121.386 473.966
582 0 62.2035 16.5425 1029 109.295 121.443 471.935
583 0 60.2319 12.6511 762 114.696 121.508 469.151
584 0 66.5227 15.2129 1012 107.458 120.725 471.361
585 0 70.3464 17.8545 1256 105.55 120.81 469.057
586 0 71.1681 12.7866 910 115.88 121.644 466.284
587 0 72.2612 16.897 1221 108.886 123.221 467.776
588 0 74.2397 14.4667 1074 114.525 123.624 461.426
589 0 73.2691 14.2079 1041 115.902 122.306 456.528
590 0 79.3935 15.7066 1247 111.9 123.197 455.359
591 0 81.2796 12.7584 1037 116.075 124.428 454.338
592 0 82.3626 12.8335 1057 118.511 125.358 451.462
593 0 85.1306 11.3708 968 117.166 125.619 454.011
594 0 91.4235 15.1165 1382 110.161 127.336 453.773
595 0 91.2231 13.7027 1250 113.518 127.135 450.327
596 1 46.1018 12.2989 567 112.185 127.309 468.788
597 0 51.3328 10.9092 560 113.257 128.121 470.08
598 0 53.1463 10.0101 532 114.43 129.008 470.274
599 0 52.0594 10.3728 540 115.087 129.867 470.128
600 0 54.231 14.1985 770 111.997 130.336 470.975
601 0 58.2699 13.0428 760 111.925 130.722 473.12
602 0 59.1883 11.0833 656 116.239 130.017 470.07
603 0 59.1773 13.4004 793 112.689 130.931 467.933
604 0 63.1505 13.1432 830 112.807 130.441 467.327
605 0 65.145 12.0347 784 113.565 130.293 472.505
606 0 69.308 15.0776 1045 108.182 129.239 470.958
607 0 70.1846 13.0513 916 112.295 129.64 469.808
608 0 72.137 13.7655 993 111.499 129.074 467.052
609 0 73.315 11.8666 870 114.414 128.226 466.832
610 0 78.5123 16.0612 1261 107.903 128.734 468.466
611 0 82.2251 14.8008 1217 108.93 128.074 466.082
612 0 84.2395 14.3401 1208 108.107 127.575 466.718
613 1 42.0883 12.3312 519 107.509 126.487 484.803
614 0 49.1867 11.9951 590 106.549 126.407 485.853
615 0 49.0859 16.4609 808 102.287 123.856 488.163
616 0 49.0599 10.742 527 113.928 122.283 485.017
617 0 50.1558 15.8307 794 107.244 123.223 482.877
618 0 53.1143 13.2168 702 110.309 122.538 481.741
619 0 55.0511 13.4784 742 110.485 121.922 481.063
620 0 58.1694 15.7987 919 106.641 121.866 474.491
621 0 55.192 11.0161 608 114.752 120.607 477.924
622 0 58.1369 13.795 802 111.274 121.797 475.791
623 0 59.1347 13.5284 800 111.572 120.37 474.938
624 0 60.2003 11.495 692 115.695 120.02 473.121
625 0 61.1766 14.7769 904 110.236 120.441 472.447
626 0 66.0985 18.896 1249 100.514 120.327 474.138
627 0 66.0874 12.0749 798 114.115 121.071 468.987
628 0 68.0584 15.5602 1059 108.954 120.875 465.304
629 0 70.0764 13.2284 927 112.973 121.711 463.039
630 0 72.1952 16.026 1157 108.078 121.859 463.7
631 0 74.2183 14.9424 1109 110.651 122.696 460.325
632 0 77.1644 15.1754 1171 110.668 123.017 456.962
633 0 79.2093 17.0687 1352 107.711 124.981 457.988
634 0 80.6037 14.6643 1182 113.21 125.536 448.717
635 0 82.2205 15.0206 1235 113.009 126.08 454.416
636 0 89.7262 22.9253 2057 101.362 126.11 448.388
637 0 88.4079 15.7226 1390 112.146 126.919 448.842
638 1 45.2374 11.7381 531 115.013 126.508 466.35
639 0 48.5653 14.6401 711 105.824 127.318 471.844
640 0 49.2944 13.9975 690 110.341 127.341 467.641
641 0 51.1125 14.7518 754 109.455 128.037 466.875
642 0 50.1213 13.607 682 114.509 128.374 465.001
643 0 52.0973 13.9739 728 112.508 128.757 469.416
644 0 55.1637 15.88 876 108.878 130.11 470.363
645 0 57.137 15.3666 878 109.506 130.557 472.173
646 0 59.1063 14.7869 874 109.483 129.587 469.164
647 0 60.2234 12.8522 774 110.428 130.695 473.612
648 0 59.2223 13.2383 784 133.047 131.671 473.689
649 0 69.4951 18.4905 1285 101.855 129.333 466.581
650 0 69.4744 16.7544 1164 105.777 128.565 459.808
651 0 70.4427 18.1282 1277 105.338 129.15 460.446
652 0 72.6992 13.8653 1008 110.169 129.428 460.757
653 0 77.4782 15.2817 1184 108.538 128.576 461.111
654 0 77.3499 18.927 1464 104.189 128.031 467.301
655 0 81.3471 13.3748 1088 113.232 127.933 459.94
656 0 82.4709 13.4593 1110 112.313 127.524 464.293
657 0 88.509 14.8459 1314 109.919 125.451 461.116
658 1 46.2449 13.0393 603 107.491 125.638 483.793
659 0 47.192 14.5576 687 106.364 124.215 479.461
660 0 49.1792 12.3426 607 109.259 123.942 481.012
661 0 53.1027 14.1236 750 105.728 123.933 483.741
662 0 53.0707 12.7566 677 110.025 123.199 482.405
663 0 54.1032 13.9918 757 109.758 122.092 480.589
664 0 57.1423 12.1626 695 112.071 121.847 478.017
665 0 56.1809 14.2219 799 109.18 120.77 473.362
666 0 61.0367 11.7798 719 111.943 121.207 475.377
667 0 61.0873 14.0291 857 107.373 120.956 477.309
668 0 65.1489 14.8583 968 106.741 121.259 474.6
669 0 65.2401 11.8639 774 112.82 120.722 468.32
670 0 68.1006 15.2128 1036 107.382 121.277 464.089
671 0 71.0705 14.2394 1012 109.278 121.423 461.976
672 0 75.1889 14.0446 1056 108.56 123.758 463.37
673 0 75.131 16.1851 1216 107.38 123.055 459.349
674 0 77.2779 14.3896 1112 109.437 123.571 461.112
675 0 79.1562 10.9909 870 116.075 123.102 456.383
676 0 85.289 14.914 1272 110.976 124.322 450.71
677 1 43.0716 12.0497 519 112.701 123.908 471.464
678 0 45.0727 12.3578 557 111.905 124.754 470.311
679 0 46.2326 18.4502 853 99.9754 126.382 472.483
680 0 46.1717 11.3056 522 113.808 128.676 472.071
681 0 49.0794 18.195 893 101.962 128.686 472.695
682 0 47.1432 10.0545 474 117.492 128.654 468.768
683 0 57.1087 13.7457 785 107.92 130.978 470.809
684 0 55.2319 14.4482 798 107.118 130.202 468.404
685 0 57.2947 14.4341 827 107.56 131.586 468.71
686 0 60.2065 16.2939 981 104.854 131.185 468.298
687 0 62.1931 13.2973 827 109.412 131.659 469.884
688 0 61.0893 13.7995 843 110.684 132.2 469.479
689 0 63.4044 14.857 942 109.506 131.637 467.687
690 0 67.4115 15.0123 1012 107.431 130.982 470.336
691 0 69.138 11.2529 778 114.575 132.256 470.575
692 0 70.2044 11.7087 822 112.692 130.777 469.546
693 0 72.149 12.9732 936 111.191 129.71 468.217
694 0 74.1808 11.472 851 109.563 129.94 468.323
695 1 42.037 12.489 525 108.739 127.446 483.861
696 0 45.0332 10.037 452 108.71 127.949 487.142
697 0 46.0372 15.0096 691 102.1 127.559 487.797
698 0 48.0629 12.7957 615 105.646 128.462 483.569
699 0 50.1627 13.6556 685 103.899 126.676 483.806
700 0 51.0494 13.438 686 108 124.499 483.703
701 0 52.0632 12.6001 656 109.165 123.649 484.264
702 0 53.0904 12.3939 658 109.891 123.105 483.269
703 0 57.2247 14.7139 842 101.576 122.608 483.02
704 0 56.0773 11.6268 652 108.587 122.155 479.853
705 0 57.1128 15.6182 892 103.334 122.721 479.763
706 0 57.2352 12.4923 715 107.95 122.67 478.648
707 0 61.2981 12.7736 783 106.229 122.171 478.903
708 0 62.1948 13.3291 829 106.356 121.719 478.119
709 0 63.3516 13.9697 885 108.776 121.676 471.141
710 0 67.1682 15.4835 1040 107.064 121.405 470.07
711 0 71.1839 13.6548 972 109.514 122.206 470.321
712 0 72.1603 14.2738 1030 108.754 120.919 467.311
713 0 74.2035 15.5653 1155 107.657 122.679 465.613
714 0 75.2338 13.6907 1030 110.304 122.077 466.407
715 0 83.2747 11.42 951 112.7 123.094 465.41
716 0 81.1574 14.6013 1185 107.837 122.84 466.613
717 1 45.3596 10.8687 493 112.775 123.436 478.191
718 0 45.4068 13.8526 629 108.808 122.879 473.1
719 0 47.5499 11.6088 552 114.121 124.187 470.355
720 0 46.0248 12.8626 592 110.269 123.486 472.889
721 0 48.0783 13.4156 645 114.093 123.752 471.966
722 0 50.0522 18.1011 906 105.161 123.608 474.01
723 0 52.2853 13.4454 703 112.514 125.415 470.826
724 0 53.0827 14.4303 766 112.206 126.131 469.312
725 0 56.1013 14.8303 832 110.403 126.392 471.644
726 0 54.0589 12.1534 657 115.703 127.47 473.279
727 0 56.0906 14.7262 826 112.289 127.854 468.712
728 0 59.0961 13.4188 793 113.932 128.506 470.057
729 0 56.0481 10.0628 564 120.617 128.457 469.03
730 0 61.045 11.6308 710 117.675 129.046 471.123
731 0 63.0907 11.9035 751 115.707 129.306 471.856
732 0 66.0761 15.5427 1027 110.449 130.029 468.577
733 0 67.091 13.2059 886 114.836 129.018 466.547
734 0 70.1937 12.8502 902 113.787 128.528 472.078
735 0 70.1152 14.8612 1042 111.891 128.888 468
736 0 71.0532 11.8925 845 116.547 127.824 469.082
737 0 77.199 14.3007 1104 111.834 128.947 468.263
738 0 79.1666 12.9095 1022 113.332 127.416 469.048
739 0 81.1422 13.4825 1094 114.039 128.55 465.088
740 1 42.148 10.9614 462 114.673 126.857 484.838
741 0 45.095 14.1479 638 108.107 127.342 486.282
742 0 43.0863 11.535 497 114.847 125.841 483.29
743 0 45.0869 11.001 496 117.472 125.169 482.383
744 0 50.0697 11.504 576 115.495 124.214 481.031
745 0 50.0274 13.4526 673 110.119 123.432 478.605
746 0 50.0597 10.907 546 115.659 123.423 479.815
747 0 52.0514 13.1409 684 109.561 123.107 481.532
748 0 54.0674 14.5559 787 110.948 122.389 475.159
749 0 55.0528 13.4961 743 111.899 123.443 475.342
750 0 59.0227 13.3 785 111.482 123.068 477.183
751 0 57.0644 10.8824 621 116.601 122.771 472.95
752 0 61.0678 12.4616 761 113.1 123.515 471.133
753 0 61.1649 13.8805 849 112.45 122.597 467.524
754 0 63.2696 14.4619 915 110.365 122.037 467.822
755 0 67.1256 14.674 985 109.378 122.295 465.69
756 0 70.0432 13.1919 924 112.903 123.224 463.231
757 0 72.2424 14.4375 1043 110.639 123.66 462.047
758 0 72.1939 14.9043 1076 110.264 123.679 461.12
759 0 75.1257 14.3227 1076 111.438 124.076 456.891
760 0 76.0776 14.2486 1084 110.2 125.07 461.97
761 0 81.2791 13.9888 1137 112.038 124.879 454.734
762 0 83.1651 15.2468 1268 109.711 126.509 451.307
763 0 86.0801 16.2639 1400 108.035 126.096 453.706
764 0 85.2346 12.5184 1067 115.057 127.444 448.938
765 0 92.2421 14.3969 1328 111.876 127.953 449.802
766 0 93.3317 12.8252 1197 114.785 128.038 447.337
767 0 94.1905 13.7063 1291 112.273 129.193 445.099
768 0 99.2474 16.615 1649 109.639 129.842 447.099
769 0 109.213 14.8059 1617 110.335 130.372 449.107
770 0 104.263 12.7466 1329 116.861 130.205 438.88
771 1 60.2169 15.1453 912 108.412 130.43 465.553
772 0 63.1603 13.4736 851 110.263 130.16 467.463
773 0 63.2506 11.8418 749 113.206 130.391 467.806
774 0 67.1919 14.6744 986 109.641 131.001 465.945
775 0 67.1602 12.2096 820 113.871 131.435 468.398
776 0 72.2397 16.5145 1193 106.543 131.735 465.847
777 0 73.1525 13.9845 1023 111.118 130.653 466.926
778 0 75.1465 14.1723 1065 111.437 130.424 465.838
779 0 77.2307 13.5827 1049 113.462 129.924 464.275
780 0 81.1934 16.1343 1310 108.84 130.42 462.608
781 0 83.177 12.263 1020 115.098 128.869 462.328
782 0 85.1932 13.1348 1119 113.339 129.161 463.902
783 0 87.3356 12.5722 1098 115.162 130.131 463.104
784 0 93.2168 15.3299 1429 110.307 128.515 462.903
785 0 92.2583 12.7035 1172 115.98 128.044 460.387
786 0 95.2957 12.3615 1178 115.97 128.425 458.08
787 1 49.1697 10.0265 493 117.46 127.274 479.341
788 0 53.1111 9.90376 526 116.785 127.757 480.325
789 0 54.0691 12.595 681 113.846 126.015 479.523
790 0 58.095 13.0648 759 114.713 127.358 480.124
791 0 57.2531 12.9949 744 116.403 125.41 471.617
792 0 61.2204 14.5866 893 112.703 126.239 472.693
793 0 63.1468 13.4132 847 115.107 124.852 471.867
794 0 65.2257 15.0861 984 111.903 124.391 471.064
795 0 68.1984 19.9858 1363 105.241 124.737 465.613
796 0 70.2728 17.0621 1199 108.727 124.935 464.116
797 0 70.2406 13.2829 933 116.308 124.703 463.224
798 0 73.2289 14.6937 1076 113.711 123.672 461.392
799 0 75.3186 17.8309 1343 109.587 122.924 457.211
800 0 78.388 17.8854 1402 109.13 124.426 457.227
801 0 79.3069 13.681 1085 117.062 124.697 457.079
802 0 83.2278 13.9256 1159 117.615 125.745 454.223
803 0 85.149 14.5157 1236 117.464 126.803 449.147
804 0 89.2783 15.6701 1399 115.756 127.153 448.456
805 1 45.0674 10.1626 458 121.017 127.402 468.614
806 0 48.0766 10.8785 523 118.631 128.01 468.824
807 0 48.0436 10.1574 488 120.693 129.178 466.91
808 0 51.1021 13.4632 688 114.154 128.587 466.626
809 0 54.2125 13.65 740 116.246 128.972 465.07
810 0 56.2276 13.392 753 115.814 130.102 466.392
811 0 55.2739 15.2875 845 112.871 131.233 468.733
812 0 57.3122 15.4941 888 113.752 131.169 465.115
813 0 60.1833 12.4952 752 118.294 131.602 465.117
814 0 61.2452 13.3725 819 116.906 131.248 466.095
815 0 61.2452 13.5194 828 151.357 132.205 466.093
816 0 71.153 16.3872 1166 108.751 131.638 463.063
817 0 70.1139 15.2609 1070 112.137 132.27 461.337
818 0 71.2403 16.1004 1147 110.835 132.193 461.916
819 0 73.2454 14.9498 1095 113.328 132.54 463.629
820 0 74.1856 18.8986 1402 107.19 132.4 466.412
821 0 78.4023 15.4332 1210 110.831 131.925 464.079
822 0 78.1422 15.3694 1201 114.019 131.692 461.62
823 0 81.1838 12.8597 1044 116.961 132.033 465.943
824 0 85.4544 14.3702 1228 112.651 130.756 463.696
825 0 87.2297 12.9314 1128 115.084 130.159 463.824
826 0 89.2638 13.4209 1198 115.574 129.275 459.425
827 1 46.098 10.3909 479 116.457 129.66 481.021
828 0 50.0568 11.427 572 114.719 129.397 478.572
829 0 53.0839 11.5101 611 113.475 128.11 478.408
830 0 53.0969 12.2418 650 113.754 125.982 477.509
831 0 56.3067 12.4319 700 112.147 126.85 477.26
832 0 57.3302 13.8496 794 112.708 125.763 472.344
833 0 58.1942 12.8707 749 112.597 124.733 473.686
834 0 59.2957 12.8003 759 113.976 125.324 471.02
835 0 64.1978 13.3338 856 113.452 125.086 470.12
836 0 65.2294 13.8588 904 111.26 125.211 470.929
837 0 64.274 12.3689 795 116.063 125.404 465.062
838 0 70.2979 12.5466 882 113.395 124.579 465.649
839 0 73.2403 14.0223 1027 111.134 125.055 460.256
840 0 74.432 15.5847 1160 108.153 125.032 460.337
841 0 80.3493 15.1339 1216 106.864 124.902 459.725
842 0 81.2121 20.7358 1684 99.978 124.662 456.186
843 0 82.4508 11.8131 974 111.595 125.586 453.667
844 0 85.2506 17.2902 1474 103.676 125.851 452.374
845 0 89.6221 13.3672 1198 108.555 125.819 452.295
846 0 92.4454 10.9795 1015 112.966 125.799 444.239
847 0 93.1417 14.2793 1330 108.386 126.663 447.37
848 1 51.3816 13.5846 698 103.554 126.128 467.615
849 0 51.0357 11.1295 568 109.185 127.465 467.359
850 0 54.1788 11.0929 601 108.913 127.541 464.948
851 0 52.0256 11.3021 588 111.427 127.507 464.128
852 0 57.1806 13.5186 773 106.536 127.272 465.3
853 0 58.0704 10.4701 608 110.179 128.38 468.275
854 0 61.1715 13.5848 831 108.495 128.475 459.953
855 0 65.1851 25.3125 1650 93.2594 129.789 462.593
856 0 66.2465 13.4649 892 108.739 130.439 463.029
857 0 69.4762 12.6374 878 110.13 131.475 460.614
858 0 71.2378 12.5495 894 111.124 130.386 460.421
859 0 71.453 14.3031 1022 108.307 131.56 463.35
860 0 77.3525 13.8716 1073 109.73 132.703 457.991
861 0 77.4769 13.9267 1079 109.305 132.373 452.854
862 0 79.7942 14.0361 1120 108.19 131.796 458.276
863 0 80.2462 12.1875 978 113.672 132.514 454.92
864 0 85.376 14.7348 1258 108.084 131.92 455.999
865 0 88.3635 15.3344 1355 108.634 132.041 450.94
866 0 92.3454 13.2438 1223 111.25 131.692 453.521
867 1 48.189 12.368 596 106.25 131.408 474.809
868 0 53.2522 11.8493 631 109.648 129.027 463.799
869 0 53.1171 11.6535 619 111.166 130.163 465.758
870 0 58.1276 11.8016 686 114.488 128.338 470.316
871 0 60.1375 16.9445 1019 105.416 128.451 476.935
872 0 58.2042 13.487 785 111.248 127.2 478
873 0 62.1322 18.8308 1170 102.483 125.936 477.315
874 0 63.1493 13.666 863 112.408 125.487 469.815
875 0 66.1976 13.9884 926 110.596 125.253 471.648
876 0 68.1572 12.6472 862 114.143 125.03 466.099
877 0 73.3143 16.477 1208 106.925 124.397 468.322
878 0 72.1243 12.6864 915 115.092 123.352 467.596
879 0 76.2367 15.2551 1163 110.059 124.653 465.51
880 0 77.1744 17.6872 1365 106.165 124.941 458.336
881 0 76.271 12.3638 943 116.221 124.601 460.722
882 0 84.4287 14.8883 1257 110.359 124.144 459.87
883 0 86.2132 20.0085 1725 102.031 123.973 461.124
884 0 89.4217 17.0652 1526 106.789 124.685 458.418
885 0 89.1919 19.4861 1738 102.287 124.673 461.727
886 1 48.1247 10.3481 498 112.542 124.273 475.57
887 0 48.1876 12.3891 597 112.034 125.961 474.429
888 0 51.1986 10.9769 562 116.621 125.528 469.861
889 0 53.1407 13.2102 702 113.631 124.594 464.708
890 0 54.1755 13.2901 720 113.592 125.826 464.26
891 0 53.1519 12.7371 677 112.708 127.603 469.564
892 0 57.1273 17.1722 981 105.516 127.846 465.354
893 0 55.055 13.4774 742 113.611 128.411 465.85
894 0 59.1177 15.2239 900 109.262 128.188 465.448
895 0 59.1434 14.0337 830 111.694 129.01 464.752
896 0 59.138 13.7982 816 113.523 130.246 463.762
897 0 63.3677 13.6189 863 113.396 130.835 461.849
898 0 68.2904 15.4487 1055 108.573 130.583 462.515
899 0 68.2438 12.1769 831 116.051 130.842 458.119
900 0 70.2453 12.7126 893 114.839 131.999 458.253
901 0 70.3709 13.7699 969 112.939 132.968 464.378
902 0 72.2365 11.3239 818 117.456 132.434 459.32
903 0 77.3757 14.3068 1107 112.387 132.543 458.99
904 0 81.5791 12.6748 1034 115.397 132.318 457.809
905 0 82.3163 13.521 1113 114.215 132.792 459.666
906 0 85.5897 16.065 1375 109.118 133.531 461.839
907 0 88.2419 13.837 1221 113.21 132.701 460.169
908 0 91.3036 15.4211 1408 109.967 132.625 462.098
909 0 94.3266 13.5699 1280 113.858 132.34 458.914
910 1 48.1366 11.2388 541 113.749 131.628 478.482
911 0 51.0286 12.2676 626 113.743 131.272 475.628
912 0 52.0687 10.4669 545 117.209 130.611 475.552
913 0 54.2917 11.6961 635 115.802 129.205 478.559
914 0 56.4089 13.5971 767 113.838 128.917 473.42
915 0 58.4345 16.0351 937 110.107 128.021 477.804
916 0 62.2388 14.605 909 112.11 127.637 473.19
917 0 63.3821 15.2251 965 111.176 127.113 472.733
918 0 64.489 12.4827 805 115.104 126.744 472.338
919 0 68.5147 16.4782 1129 106.205 124.985 475.081
920 0 66.4211 12.8574 854 116.117 124.794 468.429
921 0 69.4098 13.0241 904 115.628 124.816 465.28
922 0 72.3791 11.1773 809 115.687 124.806 460.624
923 0 77.2492 15.0552 1163 109.741 124.531 458.326
924 0 74.1923 10.001 742 119.535 124.416 460.997
925 0 80.3217 12.7861 1027 114.268 124.931 456.9
926 0 83.143 12.1357 1009 114.365 125.214 456.126
927 0 86.2779 14.3026 1234 109.724 124.715 451.596
928 1 43.1536 11.8878 513 108.949 125.581 467.743
929 0 44.2929 11.4014 505 110.739 125.475 467.194
930 0 47.1014 9.61755 453 113.883 125.389 466.23
931 0 50.0924 13.3753 670 112.378 125.118 469.03
932 0 47.075 13.1917 621 111.459 126.554 470.799
933 0 53.0928 13.1656 699 109.252 126.402 468.24
934 0 55.1654 14.0124 773 108.463 127.254 464.986
935 0 54.0767 14.6459 792 107.592 127.989 465.239
936 0 54.0935 11.2213 607 113.222 127.906 463.802
937 0 58.0659 12.9336 751 109.711 128.683 464.622
938 0 60.0668 13.2852 798 109.815 128.922 461.038
939 0 63.2066 15.0775 953 107.337 129.81 460.295
940 0 61.1789 9.13714 559 118.084 131.177 460.848
941 0 63.0901 11.3013 713 114.384 131.383 458.473
942 0 68.2197 10.9206 745 114.766 131.223 461.118
943 0 73.3508 15.3645 1127 108.886 132.327 458.768
944 0 76.3499 15.6647 1196 108.061 132.956 461.03
945 0 74.1891 11.9964 890 115.862 132.489 461.146
946 0 78.3134 13.9823 1095 113.264 132.111 456.976
947 0 82.1866 13.1287 1079 114.023 132.65 455.619
948 0 86.3069 15.8968 1372 110.642 132.988 456.138
949 1 46.1698 13.4937 623 111.839 132.332 478.933
950 0 51.0615 11.868 606 108.127 132.652 481.533
951 0 49.234 13.5678 668 109.213 131.931 476.656
952 0 53.0919 12.3371 655 113.07 131.504 477.359
953 0 51.0874 12.4884 638 114.045 132.418 476.61
954 0 54.2228 10.3093 559 116.617 131.689 477.9
955 0 58.1598 12.7408 741 112.655 131.105 477.433
956 0 58.2478 14.1121 822 110.911 129.461 474.904
957 0 57.1588 11.1444 637 114.568 130.281 476.714
958 0 63.083 14.7583 931 109.594 129.202 472.878
959 0 64.269 14.2993 919 109.444 127.787 477.449
960 0 65.1135 13.9142 906 111.45 127.504 472.234
961 0 65.0838 13.9973 911 112.404 126.631 472.666
962 0 67.1649 12.5363 842 113.303 127.181 470.749
963 0 68.1782 15.0488 1026 111.072 125.082 466.947
964 0 70.125 12.3066 863 115.43 125.638 465.903
965 0 75.2452 13.0374 981 111.577 124.555 460.193
966 0 74.2867 10.971 815 115.146 124.629 457.633
967 0 78.2696 13.9262 1090 111.01 124.845 456.531
968 1 44.0975 8.41318 371 110.989 124.31 477.984
969 0 46.1173 10.7552 496 110.165 124.411 474.901
970 0 49.0427 12.1527 596 107.149 123.602 476.008
971 0 52.2696 11.1346 582 109.595 124.285 470.612
972 0 52.3194 12.3472 646 109.873 125.693 466.952
973 0 52.0907 16.4137 855 105.07 125.312 470.687
974 0 56.294 13.163 741 108.47 125.269 469.042
975 0 57.2065 15.8898 909 104.979 124.55 464.146
976 0 59.1894 14.5634 862 107.783 125.661 465.749
977 0 63.5504 16.4122 1043 104.221 127.102 465.703
978 0 61.1463 13.8193 845 109.13 127.405 463.361
979 0 59.0472 9.04361 534 114.927 128.257 458.131
980 0 66.1016 12.3295 815 106.677 129.027 459.128
981 0 74.2671 22.8903 1700 93.6576 128.826 460.179
982 0 74.3698 18.4215 1370 99.392 129.141 453.728
983 0 75.2138 14.9574 1125 103.502 130.638 460.907
984 0 76.2848 14.1181 1077 106.503 130.472 456.018
985 0 77.2552 13.4101 1036 108.125 131.853 454.72
986 0 81.6456 11.6724 953 111.195 132.511 452.502
987 0 83.5971 13.4813 1127 108.648 132.075 452.508
988 1 44.4572 11.2693 501 109.78 133.188 470.353
989 0 46.3195 12.4569 577 110.203 133.078 471.868
990 0 47.0802 10.8538 511 112.211 133.108 473.554
991 0 50.2206 14.0779 707 107.833 132.513 474.373
992 0 50.0895 11.2998 566 112.625 132.11 479.403
993 0 52.0695 12.1952 635 112.124 131.488 479.531
994 0 56.3047 13.2848 748 111.234 131.164 478.853
995 0 57.0694 14.6313 835 109.378 130.764 477.916
996 0 56.1463 9.56429 537 119.291 131.074 478.946
997 0 57.2386 9.99325 572 118.4 129.841 476.344
998 0 60.144 19.0044 1143 105.638 129.982 476.215
999 0 60.0642 11.238 675 120.107 129.591 474.256
1000 0 64.0955 13.1991 846 115.944 127.521 476.073
1001 0 67.2792 14.3432 965 115.26 128.105 469.979
1002 0 71.1302 17.0111 1210 109.368 127.045 471.926
1003 0 70.1619 12.5282 879 116.237 126.873 471.37
1004 0 73.118 14.6886 1074 114.201 126.36 467.099
1005 0 76.2422 11.975 913 117.539 125.924 469.356
1006 0 76.1037 13.7838 1049 117.07 125.414 463.99
1007 0 79.0832 13.4036 1060 117.254 125.345 464.997
1008 0 81.1728 14.8079 1202 115.362 124.61 462.676
1009 0 83.1632 14.5257 1208 115.796 124.519 461.098
1010 0 86.1551 16.5632 1427 112.744 124.183 459.886
1011 0 92.2072 16.9943 1567 111.142 125.489 459.041
1012 0 90.1674 12.621 1138 120.703 125.43 457.293
1013 0 97.1037 15.19 1475 114.483 124.875 457.106
1014 0 94.2865 14.5832 1375 118.572 125.718 454.15
1015 0 102.208 13.5214 1382 120.682 125.187 449.515
1016 0 103.236 14.8591 1534 120.109 127.212 446.602
1017 0 103.402 13.7811 1425 122.721 126.396 443.251
1018 0 108.272 14.6668 1588 119.739 126.95 441.453
1019 1 55.1076 13.3738 737 121.252 127.085 468.019
1020 0 56.1043 11.6569 654 126.463 127.422 466.095
1021 0 60.1347 16.2801 979 116.83 128.185 465.957
1022 0 60.1117 14.2901 859 124.295 128.722 461.44
1023 0 62.1828 13.6211 847 126.77 129.191 459.808
1024 0 64.3036 15.489 996 121.443 129.163 460.334
1025 0 65.1526 13.8598 903 125.256 130.901 461.071
1026 0 65.1324 12.3902 807 128.865 130.732 459.596
1027 0 70.0674 13.6583 957 125.767 131.906 462.834
1028 0 72.1606 14.925 1077 124.634 132.538 457.409
1029 0 74.0939 14.0767 1043 127.058 132.771 457.407
1030 0 77.1242 13.9126 1073 127.454 132.903 457.157
1031 0 80.1621 16.2795 1305 122.946 132.771 458.205
1032 0 83.1075 14.764 1227 126.65 132.64 453.799
1033 0 86.333 15.4518 1334 124.434 132.772 454.999
1034 0 87.1956 16.2738 1419 122.978 132.56 454.97
1035 0 91.1327 16.7448 1526 122.645 133.072 457.023
1036 0 92.2161 17.4698 1611 123.39 130.998 452.014
1037 0 97.169 18.3186 1780 120.709 132.155 454.328
1038 0 99.3219 15.4951 1539 126.693 132.132 455.973
1039 0 102.093 15.8091 1614 126.198 131.732 452.586
1040 1 55.0823 14.1969 782 125.959 130.684 473.703
1041 0 57.0508 13.4442 767 126.405 130.699 480.823
1042 0 59.0768 16.2162 958 123.139 128.878 478.434
1043 0 61.0361 15.8595 968 126.583 128.968 475.686
1044 0 62.0949 14.494 900 129.556 126.887 475.494
1045 0 67.17 15.4682 1039 126.292 128.031 474.467
1046 0 67.1169 13.8266 928 128.246 127.267 473.647
1047 0 71.1696 16.819 1197 121.167 126.855 470.439
1048 0 74.0386 16.0997 1192 123.555 125.19 467.747
1049 0 78.0927 15.8786 1240 121.81 125.219 466.01
1050 0 74.1264 13.2342 981 128.795 124.495 463.791
1051 0 82.7463 15.6502 1295 120.151 124.669 469.007
1052 0 82.2715 13.1273 1080 129.441 124.423 462.481
1053 0 86.1228 15.8727 1367 123.456 124.792 459.453
1054 0 88.1895 13.437 1185 127.905 124.628 458.37
1055 0 92.2266 15.8848 1465 122.431 124.38 456.029
1056 1 47.0825 8.87804 418 127.995 124.294 473.955
1057 0 48.0349 12.4701 599 125.776 124.997 471.402
1058 0 51.1197 13.5564 693 122.421 124.582 469.007
1059 0 52.0633 12.3503 643 130.086 124.49 468.677
1060 0 54.0201 12.1066 654 127.734 125.838 467.231
1061 0 57.0603 13.7924 787 122.615 124.971 468.47
1062 0 62.2512 17.0599 1062 115.035 125.377 467.167
1063 0 62.1849 16.8208 1046 113.871 126.242 469.018
1064 0 64.1411 12.6596 812 125.323 126.936 462.437
1065 0 67.1533 15.204 1021 121.033 127.584 458.126
1066 0 68.0742 14.1463 963 124.68 127.533 458.916
1067 0 73.0546 15.5089 1133 120.019 128.096 458.307
1068 0 73.115 14.5798 1066 122.091 129.914 457.184
1069 0 76.1821 13.4284 1023 123.283 130.142 457.579
1070 0 79.1706 15.6624 1240 120.841 130.669 454.951
1071 0 83.1384 14.1451 1176 122.022 130.872 458.331
1072 0 87.1308 14.9086 1299 122.045 130.957 452.654
1073 1 48.0822 12.2291 588 123.935 131.932 472.738
1074 0 51.1928 12.2674 628 122.498 133.763 475.396
1075 0 50.2907 9.90242 498 125.392 133.018 475.139
1076 0 54.0978 13.3832 724 117.572 132.981 472.398
1077 0 54.1 13.1054 709 116.756 132.74 475.381
1078 0 56.1819 13.3851 752 116.649 131.512 473.096
1079 0 58.0841 13.1361 763 117.148 132.18 471.801
1080 0 60.2328 10.9575 660 119.717 130.867 475.361
1081 0 64.0705 13.5164 866 116.017 130.864 472.926
1082 0 66.087 12.8921 852 118.613 130.499 470.972
1083 0 69.165 12.9256 894 120.826 130.274 470.197
1084 0 70.1913 13.1783 925 122.026 129.498 467.823
1085 0 75.1194 14.9362 1122 117.555 129.141 468.358
1086 0 77.159 12.2863 948 120.084 129.153 471.127
1087 0 80.0839 13.2985 1065 120.006 127.933 468.449
1088 0 83.0768 13.6741 1136 118.295 126.092 463.497
1089 1 46.1117 10.8649 501 121.066 124.954 482.505
1090 0 45.0462 11.7879 531 119.461 124.834 481.804
1091 0 49.036 14.8462 728 111.225 124.721 481.964
1092 0 49.0991 11.0185 541 118.551 124.181 479.723
1093 0 51.0683 11.5727 591 122.032 123.081 471.343
1094 0 51.1863 12.1908 624 121.534 122.296 469.112
1095 0 55.0656 13.947 768 117.349 122.978 469.62
1096 0 57.0126 12.1026 690 118.313 122.203 477.629
1097 0 59.081 14.1501 836 116.538 123.078 474.51
1098 0 55.4124 11.6039 643 122.583 121.557 471.299
1099 0 59.0707 14.3557 848 117.797 122.719 469.346
1100 0 62.0252 12.6078 782 121.027 122.568 468.542
1101 0 63.3298 13.8797 879 118.978 122.942 465.629
1102 0 66.0557 12.5197 827 120.4 123.123 461.219
1103 0 69.1248 13.8301 956 117.422 123.666 463.173
1104 0 71.1472 12.945 921 119.227 125.524 462.478
1105 0 71.1442 10.7388 764 124.226 124.543 458.391
1106 0 71.1442 10.6966 761 139.152 123.557 458.353
1107 0 77.2174 10.8913 841 124.917 125.377 456.562
1108 0 80.1892 11.4479 918 120.4 126.981 456.141
1109 0 84.1949 14.1933 1195 118.812 127.474 451.55
1110 0 86.3024 14.1016 1217 118.756 128.386 445.99
1111 0 89.3388 13.8462 1237 118.735 128.703 447.624
1112 0 94.4359 17.038 1609 112.379 129.547 448.946
1113 1 50.05 10.4096 521 117.574 129.459 471.528
1114 0 50.0993 10.5391 528 118.555 129.136 472.259
1115 0 52.2083 11.3583 593 116.098 131.057 472.887
1116 0 55.249 11.4572 633 117.581 131.449 470.314
1117 0 57.1808 14.0956 806 114.261 130.67 467.491
1118 0 55.2482 11.4212 631 118.426 131.605 470.959
1119 0 58.2043 10.7896 628 118.291 131.554 472.347
1120 0 61.1575 14.0294 858 114.667 131.5 470.072
1121 0 61.2268 11.0409 676 120.561 131.484 470.683
1122 0 67.2408 13.7714 926 118.122 130.997 471.587
1123 0 67.2121 12.3787 832 120.631 130.434 473.532
1124 0 69.3619 13.9414 967 120.265 129.664 466.916
1125 0 71.3212 11.4272 815 124.174 129.455 463.368
1126 0 74.2467 11.7985 876 121.731 129.775 465.344
1127 0 78.2658 11.0393 864 123.522 129.767 466.953
1128 1 42.1271 10.8956 459 114.826 128.603 487.063
1129 0 46.0721 10.6138 489 111.963 128.382 489.401
1130 0 41.4358 8.61574 357 121.835 127.594 485.434
1131 0 45.2439 10.1008 457 119.409 127.201 484.711
1132 0 43.3137 8.17294 354 123.359 125.381 483.003
1133 0 49.239 8.69229 428 122.519 125.556 481.804
1134 0 49.3274 8.35236 412 126.289 124.316 480.01
1135 0 54.2388 15.6161 847 115.505 125.818 476.066
1136 0 53.628 9.93883 533 124.06 124.767 479.871
1137 0 54.2039 14.6668 795 116.704 124.518 475.752
1138 0 54.2473 8.94053 485 127.311 123.67 474.738
1139 0 55.2986 9.85559 545 126.114 124.27 473.172
1140 0 56.2162 10.2995 579 123.656 123.358 470.637
1141 0 63.4012 11.167 708 120.816 123.116 471.463
1142 0 63.1386 11.1817 706 122.187 122.473 467.445
1143 0 67.4985 13.2892 897 118.255 121.756 469.778
1144 0 70.3911 14.1637 997 116.733 122.307 466.233
1145 0 67.2333 11.1701 751 123.212 123.036 463.575
1146 0 70.4154 11.418 804 122.011 123.531 465.205
1147 0 74.5423 14.2738 1064 115.161 123.449 460.195
1148 0 77.2486 15.2624 1179 111.86 124.199 460.772
1149 0 80.498 14.3855 1158 112.968 124.39 457.646
1150 0 85.7122 16.2754 1395 109.483 124.275 457.231
1151 1 43.1803 4.6549 201 123.299 125.184 469.647
1152 0 46.2686 12.3626 572 112.469 126.551 472.131
1153 0 48.3321 9.2692 448 118.42 127.038 470.004
1154 0 48.2509 9.96874 481 117.491 128.526 471.563
1155 0 50.1028 11.7558 589 119.718 128.265 468.671
1156 0 50.1728 10.9621 550 121.351 128.987 470.013
1157 0 51.1885 10.686 547 121.373 129.85 469.826
1158 0 54.3753 12.0459 655 117.562 129.081 468.687
1159 0 55.2311 13.6155 752 114.858 131.386 470.176
1160 0 57.262 14.1455 810 113.156 130.832 469.33
1161 0 57.1369 10.2561 586 121.292 133.111 465.09
1162 0 60.2214 10.3784 625 119.952 131.291 468.515
1163 0 65.4021 12.9812 849 114 132.069 472.683
1164 0 60.2559 8.43071 508 122.333 131.825 471.356
1165 0 64.4922 10.2338 660 121.348 132.091 468.394
1166 0 69.3454 13.3823 928 114.934 131.469 472.95
1167 0 69.5428 11.1586 776 119.613 130.773 466.325
1168 0 72.6333 15.4199 1120 110.554 130.488 473.953
1169 0 74.6874 15.1833 1134 114.548 130.197 463.156
1170 0 75.6671 14.0748 1065 115.677 129.918 461.324
1171 0 76.633 10.9483 839 122.614 129.912 458.878
1172 0 82.4456 10.6737 880 120.786 128.802 459.714
1173 0 82.6803 10.3168 853 120.73 128.272 455.334
1174 0 89.4482 11.2579 1007 117.235 127.326 464.019
1175 1 49.5569 12.8943 639 112.545 125.531 476.383
1176 0 50.3483 11.48 578 114.28 125.505 480.064
1177 0 56.414 13.5959 767 112.256 125.866 480.784
1178 0 53.1794 14.1032 750 115.911 125.287 475.979
1179 0 54.279 14.2781 775 111.848 123.938 477.716
1180 0 55.3018 12.8025 708 114.712 124.243 477.552
1181 0 52.1747 9.04652 472 122.127 123.833 477.144
1182 0 58.1728 14.6804 854 112.597 122.938 474.781
1183 0 60.4135 13.7718 832 115.148 123.343 472.049
1184 0 63.1583 14.0124 885 115.063 123.426 471.631
1185 0 59.2585 14.3439 850 114.676 123.081 471.619
1186 0 66.1674 14.0099 927 114.929 122.561 464.985
1187 0 66.1674 13.9495 923 121.481 122.561 464.997
1188 0 70.5576 11.6784 824 119.992 123.765 462.127
1189 0 73.2678 11.9152 873 119.447 123.102 463.276
1190 0 75.2757 13.5236 1018 116.013 123.468 465.444
1191 0 75.2818 11.7558 885 120.567 125.21 460.175
1192 0 82.5867 13.9369 1151 119.659 125.073 453.495
1193 0 82.5145 12.7372 1051 124.001 125.395 447.389
1194 0 88.3766 16.8597 1490 114.809 125.984 451.711
1195 0 86.2946 9.82681 848 126.9 126.307 447.712
1196 0 85.4934 12.4805 1067 120.82 127.605 449.718
1197 1 54.4548 11.0734 603 118.189 127.697 466.844
1198 0 51.3411 13.3811 687 115.255 127.611 464.405
1199 0 52.386 14.6413 767 114.687 128.81 461.421
1200 0 56.3474 12.2632 691 120.624 128.76 463.812
1201 0 56.0641 12.3073 690 122.641 129.545 468.946
1202 0 59.2626 14.9673 887 118.39 130.175 466.541
1203 0 59.3835 11.8552 704 122.778 130.815 469.188
1204 0 58.2199 12.47 726 123.11 130.566 468.982
1205 0 61.2197 14.4888 887 121.212 130.661 466.493
1206 0 64.1791 12.3249 791 123.25 132.228 468.826
1207 0 64.1825 14.2095 912 121.753 132.015 466.455
1208 0 67.2927 12.1113 815 125.652 130.601 469.038
1209 0 72.1966 14.7375 1064 120.452 130.525 468.451
1210 0 70.2896 12.6619 890 126.037 130.797 464.691
1211 0 74.1568 14.4693 1073 122.283 131.181 466.342
1212 0 77.1574 11.2627 869 128.502 130.657 466.226
1213 0 81.1286 13.4108 1088 124.973 129.675 463.96
1214 0 82.1676 13.2047 1085 126.056 129.131 462.859
1215 0 91.273 13.5747 1239 122.995 129.922 465.467
1216 0 90.1162 14.215 1281 121.799 127.849 465.895
1217 1 53.0574 6.54008 347 131.749 128.078 480.334
1218 0 54.0389 8.62341 466 128.094 127.607 480.348
1219 0 52.3566 9.32069 488 127.453 126.24 479.861
1220 0 53.1053 10.9594 582 125.828 125.641 479.132
1221 0 55.2232 15.048 831 118.916 124.628 478.726
1222 0 56.1365 14.2688 801 116.893 123.17 481.529
1223 0 53.1026 10.6398 565 123.821 122.448 479.258
1224 0 56.0325 12.7961 717 121.393 122.609 473.752
1225 0 55.0623 7.88197 434 129.06 121.995 476.329
1226 0 60.194 10.8483 653 125.79 121.994 471.873
1227 0 64.1292 13.3637 857 120.949 121.546 469.756
1228 0 65.1069 9.72247 633 125.975 121.779 471.466
1229 0 65.161 9.54559 622 128.989 121.503 462.643
1230 0 69.3234 11.5401 800 123.935 121.956 461.648
1231 0 70.1018 12.6958 890 121.593 123.267 467.835
1232 0 76.1261 10.5877 806 126.078 123.139 463.493
1233 0 77.1456 12.9236 997 122.523 124.937 460.943
1234 0 79.0981 14.0585 1112 123.403 123.749 456.956
1235 0 82.1865 12.8732 1058 125.874 124.118 449.368
1236 0 84.1535 12.4059 1044 125.722 124.693 453.118
1237 0 86.2282 17.9988 1552 117.104 127.131 452.097
1238 0 87.2236 11.9692 1044 127.994 127.057 451.702
1239 0 86.2276 12.1423 1047 127.829 128.06 451.513
1240 0 88.1798 12.8941 1137 125.615 129.767 452.511
1241 0 91.2761 10.4518 954 128.996 130.673 453.095
1242 1 48.0638 9.54982 459 128.641 130.784 464.924
1243 0 51.0495 12.8307 655 123.069 129.227 469.043
1244 0 56.183 12.6551 711 121.104 130.461 469.792
1245 0 56.2845 11.9927 675 124.836 131.514 469.587
1246 0 57.4015 10.6617 612 126.654 132.077 469.307
1247 0 58.2659 11.3617 662 128.005 132.429 467.822
1248 0 119.501 10.1254 1210 131.526 133.071 442.744
1249 0 119.416 13.0803 1562 126.713 132.034 441.613
1250 0 128.451 15.0875 1938 124.243 132.871 437.105
1251 0 134.392 12.1436 1632 128.525 132.37 437.025
1252 0 135.352 13.6311 1845 128.388 131.822 435.143
1253 1 74.101 13.2792 984 121.666 130.579 465.983
1254 0 76.1267 14.4233 1098 120.255 131 468.657
1255 0 76.0885 12.3015 936 125.041 128.843 465.906
1256 0 79.222 12.7111 1007 125.803 127.914 463.581
1257 0 80.1275 10.5332 844 129.379 127.409 467.291
1258 0 86.1886 13.8765 1196 124.658 127.59 462.942
1259 0 87.1525 12.3003 1072 127.619 127.145 463.904
1260 0 91.2151 13.2215 1206 127.957 125.907 453.424
1261 0 94.0944 11.0208 1037 132.566 124.371 456.573
1262 1 54.0596 11.3208 612 126.062 124.645 476.119
1263 0 51.0765 11.9037 608 125.669 124.311 479.072
1264 0 53.2794 11.6368 620 127.974 124.002 480.073
1265 0 56.0885 14.6376 821 123.228 123.429 478.202
1266 0 55.0737 12.6013 694 128.924 122.3 473.759
1267 0 57.0606 12.5656 717 129.65 122.976 474.6
1268 0 60.1155 14.3224 861 125.467 123.407 476.014
1269 0 59.0913 13.3014 786 128.77 122.061 470.141
1270 0 62.1203 15.969 992 123.21 121.448 468.712
1271 0 65.2292 15.0546 982 124.212 122.551 468.477
1272 0 68.052 15.4882 1054 123.454 121.597 466.776
1273 0 69.0369 15.6003 1077 125.671 122.069 461.718
1274 0 69.0858 13.4615 930 127.153 122.815 463.398
1275 0 78.4143 9.22026 723 133.751 124.072 461.261
1276 0 77.1351 12.7568 984 128.939 123.378 458.524
1277 0 80.1936 12.6693 1016 128.685 124.291 457.106
1278 0 82.098 13.2159 1085 128.174 124.515 452.458
1279 0 80.0844 9.25274 741 135.565 125.582 452.212
1280 0 88.4615 12.5139 1107 131.602 126.238 450.74
1281 1 49.0342 9.97264 489 128.448 127.047 472.002
1282 0 51.066 12.7286 650 127.475 127.665 468.578
1283 0 51.3222 13.7367 705 127.16 129.468 465.096
1284 0 53.0621 13.0036 690 128.562 128.265 465.232
1285 0 53.1799 11.5645 615 132.218 129.246 466.447
1286 0 55.1372 11.9883 661 126.601 130.222 466.179
1287 0 56.1506 11.9322 670 127.409 130.9 466.888
1288 0 59.3442 13.8851 824 124.568 131.249 462.864
1289 0 61.0714 10.5778 646 129.915 131.907 465.608
1290 0 62.0889 13.2391 822 125.484 132.567 468.106
1291 0 64.0667 12.8928 826 126.672 132.316 466.109
1292 0 69.1741 13.2998 920 129.675 131.018 462.638
1293 0 71.0585 12.6656 900 130.282 131.242 465.477
1294 0 72.1082 12.2178 881 127.153 131.561 467.556
1295 0 77.148 13.688 1056 129.077 130.477 465.413
1296 0 79.1343 14.3806 1138 127.019 129.77 465.199
1297 0 79.089 14.667 1160 128.067 129.837 462.903
1298 0 82.0825 14.1078 1158 128.056 129.952 463.199
1299 0 84.232 10.9697 924 133.214 129.452 465.498
1300 0 85.1762 8.86398 755 137.309 128.899 461.683
1301 0 92.4502 13.8669 1282 130.973 128.393 460.334
1302 0 95.3157 14.5936 1391 130.357 127.387 457.804
1303 0 97.582 14.2034 1386 128.398 127.16 457.227
1304 0 106.828 16.7372 1788 122.468 126.738 450.804
1305 1 54.2093 10.5148 570 129.518 125.342 472.158
1306 0 55.0815 10.893 600 130.587 126.327 475.982
1307 0 57.0606 10.112 577 129.738 125.478 476.842
1308 0 62.2756 13.1191 817 126.465 123.093 470.409
1309 0 65.2114 14.154 923 125.431 123.506 468.181
1310 0 68.4472 10.3583 709 131.822 123.337 464.032
1311 0 65.3346 9.36716 612 135.688 123.144 465.485
1312 0 73.0947 10.3975 760 132.076 123.742 470.391
1313 0 74.058 11.0994 822 131.684 122.897 466.455
1314 0 84.1182 11.2223 944 131.772 122.809 461.935
1315 0 80.1432 14.0374 1125 130.52 123.843 453.174
1316 0 84.1117 16.3116 1372 126.509 124.016 455.827
1317 1 49.1025 11.8528 582 129.842 124.675 474.579
1318 0 44.0514 6.65132 293 139.372 124.597 474.833
1319 0 48.0855 10.8765 523 134.403 125.224 468.302
1320 0 50.1418 9.81217 492 134.874 125.909 462.894
1321 0 51.0633 11.4368 584 129.378 125.767 464.89
1322 0 56.1884 13.9531 784 127.267 125.478 457.944
1323 0 55.0697 11.6035 639 131.757 126.366 462.397
1324 0 56.2184 10.2813 578 131.855 127.261 465.763
1325 0 61.1203 11.9109 728 128.203 127.598 467.214
1326 0 59.0766 11.8829 702 130.66 128.017 463.967
1327 0 60.1212 14.5207 873 126.759 128.066 462.179
1328 0 64.2219 12.8928 828 128.017 129.335 466.744
1329 0 66.1565 13.4983 893 128.592 130.882 465.124
1330 0 66.1893 13.8693 918 129.154 130.638 463.606
1331 0 70.1041 13.9364 977 129.137 131.188 461.281
1332 0 73.1053 14.527 1062 127.422 130.87 458.125
1333 0 74.1788 15.2874 1134 126.968 131.387 460.944
1334 0 79.178 13.3118 1054 128.884 131.336 461.726
1335 0 82.1244 14.0519 1154 128.446 131.984 460.698
1336 0 85.2222 11.9453 1018 131.661 131.227 461.514
1337 1 45.1952 13.32 602 129.143 130.455 477.718
1338 0 48.2527 12.3102 594 129.549 129.673 481.566
1339 0 50.1278 13.6651 685 127.806 129.806 480.683
1340 0 50.1734 14.1908 712 128.667 128.782 477.68
1341 0 54.3384 13.9496 758 127.702 128.851 479.179
1342 0 54.2678 13.7835 748 129.646 127.602 477.676
1343 0 56.1518 13.9265 782 128.304 127.187 477.194
1344 0 57.1108 15.2511 871 126.536 126.315 477.914
1345 0 58.2173 13.484 785 126.071 125.414 478.047
1346 0 59.1189 12.551 742 128.306 123.632 477.88
1347 0 59.1373 10.8223 640 132.102 124.589 474.341
1348 0 63.207 12.1822 770 129.013 124.731 473.681
1349 0 62.3978 11.3305 707 133.678 123.795 470.843
1350 0 64.1875 15.3301 984 125.789 122.587 474.188
1351 0 71.1567 14.3486 1021 126.859 121.925 466.668
1352 0 70.2714 9.90445 696 134.106 122.366 468.938
1353 0 72.2991 13.1952 954 130.988 122.649 462.003
1354 0 77.2831 13.1723 1018 129.892 122.752 463.031
1355 0 79.2292 13.1643 1043 130.626 122.044 461.118
1356 0 83.2342 17.0122 1416 122.958 122.504 459.189
1357 1 170.706 12.1378 2072 134.51 123.143 414.541
1358 1 87.2775 14.0586 1227 128.103 123.205 450.602
1359 0 91.5196 14.5433 1331 128.191 123.838 450.062
1360 1 46.2061 9.45763 437 129.389 124.7 468.716
1361 0 45.2011 11.6369 526 128.266 124.156 466.165
1362 0 48.0903 11.1873 538 130.738 124.467 463.247
1363 0 51.078 11.3943 582 128.273 125.768 466.309
1364 0 53.1143 12.2189 649 129.703 126.71 461.524
1365 0 52.1345 13.1007 683 128.919 126.955 467.801
1366 0 56.2553 13.0121 732 128.221 126.914 466.605
1367 0 58.0909 13.3928 778 127.748 129.158 467.834
1368 0 57.1645 11.0558 632 132.04 129.438 465.525
1369 0 62.1879 12.5426 780 129.99 129.932 465.205
1370 0 60.1103 11.5621 695 131.445 129.437 463.406
1371 0 62.1062 10.9007 677 134.88 130.581 463.6
1372 0 66.1886 12.8119 848 132.489 130.167 463.553
1373 0 69.2326 13.6352 944 130.478 131.429 463.933
1374 0 74.1758 15.5711 1155 126.078 131.122 462.079
1375 0 74.5621 12.5399 935 129.481 132.71 468.927
1376 0 76.3402 14.2782 1090 130.984 132.11 461.573
1377 0 79.2413 13.0866 1037 132.984 132.321 456.457
1378 0 82.3342 15.0484 1239 129.55 131 460.364
1379 0 83.1946 15.1212 1258 130.817 132.149 464.113
1380 0 87.2147 13.3693 1166 130.886 131.126 462.732
1381 0 87.2696 11.5275 1006 136.624 129.796 459.704
1382 0 88.1087 12.757 1124 135.036 129.536 457.743
1383 1 46.223 13.3051 615 130.07 129.582 478.971
1384 0 46.0582 9.77026 450 135.989 129.06 482.491
1385 0 48.0656 12.0252 578 137.519 128.894 480.849
1386 0 53.148 13.7917 733 132.932 128.086 481.585
1387 0 52.0407 12.6824 660 137.005 127.439 479.695
1388 0 54.1484 11.1915 606 138.333 125.686 479.799
1389 0 57.1204 13.3402 762 134.668 125.752 479.108
1390 0 60.1699 14.5421 875 132.978 124.096 476.023
1391 0 61.1291 15.6718 958 130.975 124.103 475.454
1392 0 64.1056 14.3045 917 133.564 124.731 474.115
1393 0 65.0479 17.049 1109 129.647 124.189 472.575
1394 0 67.2635 15.9819 1075 132.199 123.449 468.623
1395 0 70.1933 17.3236 1216 130.034 122.816 468.243
1396 0 72.092 16.2431 1171 130.763 122.173 467.936
1397 0 71.0944 12.9265 919 138.308 123.187 469.788
1398 0 72.1698 12.1103 874 140.764 122.021 465.325
1399 0 76.1058 17.6333 1342 131.736 122.686 461.242
1400 0 77.3137 15.1978 1175 135.333 122.17 459.48
1401 0 80.1773 16.7005 1339 133.061 122.26 456.722
1402 0 88.3888 14.7756 1306 135.273 123.278 456.421
1403 0 85.1424 15.1158 1287 137.349 122.997 452.423
1404 0 89.224 16.2288 1448 136.01 123.925 451.672
1405 0 92.0911 15.3001 1409 137.219 123.98 451.202
1406 0 94.2763 16.3562 1542 136.444 125.296 446.118
1407 1 48.0914 11.5613 556 142.097 125.349 466.081
1408 0 50.1244 12.868 645 139.395 125.298 467.397
1409 0 50.2854 12.0711 607 138.437 126.27 468.975
1410 0 55.1441 13.7821 760 135.243 127.976 467.711
1411 0 57.4618 15.3145 880 133.442 129.117 464.977
1412 0 59.1186 15.8326 936 132.515 129.257 465.49
1413 0 58.1335 13.0562 759 138.893 130.204 465.875
1414 0 61.1887 13.205 808 138.16 130.405 464.587
1415 0 65.2197 16.6514 1086 131.745 130.546 460.792
1416 0 68.2056 15.0574 1027 133.44 131.052 463.691
1417 0 70.4048 14.8143 1043 134.339 131.341 462.905
1418 0 73.1292 15.6982 1148 132.161 131.78 464.909
1419 0 73.1086 16.1951 1184 131.648 132.183 466.409
1420 0 74.1592 14.779 1096 135.567 131.365 464.391
1421 0 79.2161 17.5596 1391 129.502 132.18 463.148
1422 0 80.0887 14.7586 1182 133.931 131.667 468.193
1423 0 82.174 15.4063 1266 133.509 131.175 464.107
1424 0 86.1725 16.5018 1422 132.274 130.793 461.87
1425 0 88.174 17.8738 1576 128.76 130.536 465.532
1426 0 92.183 15.3607 1416 133.971 128.965 458.143
1427 0 94.2175 15.1352 1426 136.471 129.421 459.581
1428 1 52.1532 13.9589 728 134.265 127.97 482.552
1429 0 51.0546 17.7065 904 130.511 128.247 480.238
1430 0 56.1629 17.4671 981 128.765 126.372 478.451
1431 0 60.226 18.9453 1141 124.636 126.61 471.445
1432 0 57.2041 14.2997 818 135.961 124.927 473.803
1433 0 62.1901 16.0476 998 131.435 125.788 475.02
1434 0 65.0623 13.8483 901 134.716 124.516 472.198
1435 0 68.0653 15.1178 1029 132.708 124.012 471.245
1436 0 73.3465 15.1882 1114 131.643 123.357 467.345
1437 0 73.4091 19.2483 1413 125.118 123.544 468.464
1438 0 74.251 16.2287 1205 134.219 122.969 466.01
1439 0 74.199 17.2779 1282 134.092 122.8 462.238
1440 0 77.1034 15.8229 1220 137.499 122.62 459.661
1441 0 79.1862 15.7351 1246 137.299 122.81 457.069
1442 0 81.2419 15.8908 1291 137.485 121.861 457.893
1443 0 86.2822 16.6662 1438 136.142 122.813 454.031
1444 0 87.212 16.9701 1480 135.576 122.611 449.178
1445 0 89.229 14.3003 1276 140.243 122.906 452.04
1446 0 92.1229 13.4277 1237 141.033 123.648 451.614
1447 0 96.3121 12.0338 1159 145.028 124.168 450.325
1448 1 52.153 15.2628 796 136.246 124.084 467.43
1449 0 51.1789 13.5994 696 140.874 125.241 466.404
1450 0 54.1896 14.3016 775 138.105 125.725 464.846
1451 0 57.118 14.3913 822 136.457 126.259 465.361
1452 0 60.0344 16.0908 966 132.44 127.175 463.578
1453 0 62.1733 15.489 963 132.977 127.161 464.6
1454 0 65.1409 15.5049 1010 132.79 127.914 462.718
1455 0 63.1823 15.6056 986 134.514 129.242 464.288
1456 0 69.1489 16.5729 1146 131.103 129.202 463.051
1457 0 69.2591 16.2722 1127 134.03 130.109 459.24
1458 0 73.1696 21.8533 1599 122.406 130.16 451.536
1459 0 78.164 21.263 1662 122.535 130.748 455.79
1460 0 76.2147 17.3589 1323 132.896 131.929 456.296
1461 0 80.1673 14.0955 1130 138.612 131.833 461.682
1462 0 77.2447 12.907 997 143.679 131.522 457.354
1463 0 83.1261 14.3276 1191 140.807 131.221 458.808
1464 0 84.1097 14.2314 1197 143.124 131.431 456.956
1465 0 86.1764 13.2983 1146 144.475 130.393 461.965
1466 0 93.204 17.1666 1600 136.618 131.061 458.528
1467 0 93.2252 17.2057 1604 137.555 130.491 458.862
1468 0 97.2247 15.0785 1466 143.153 129.223 457.542
1469 0 101.14 15.9977 1618 140.206 130.064 457.991
1470 1 54.1467 13.2972 720 139.757 128.339 474.471
1471 0 55.1604 12.1101 668 142.452 127.126 474.186
1472 0 55.1243 11.719 646 146.409 125.949 472.656
1473 0 61.0568 16.3454 998 133.678 126.382 472.323
1474 0 62.1127 15.9871 993 134.814 125.579 473.62
1475 0 64.1308 15.0786 967 137.142 125.616 472.394
1476 0 65.0841 14.6272 952 140.401 125.08 469.71
1477 0 65.1846 13.8069 900 145.367 123.383 469.872
1478 0 71.0765 14.3507 1020 143.097 123.128 467.54
1479 0 73.2575 16.9539 1242 137.365 123.17 465.424
1480 0 77.1891 14.5746 1125 141.284 122.451 460.909
1481 0 75.172 15.0322 1130 140.674 121.948 463.265
1482 0 81.0636 17.147 1390 135.129 122.471 457.933
1483 0 83.2131 14.8775 1238 141.378 123.079 457.328
1484 0 83.1133 17.807 1480 136.063 122.111 456.378
1485 0 90.1843 15.7123 1417 139.711 122.21 450.663
1486 0 91.2019 14.7694 1347 142.497 122.367 447.874
1487 1 54.1056 10.0544 544 136.103 122.228 468.949
1488 0 52.1424 9.1672 478 136.793 122.925 465.981
1489 0 53.093 8.5322 453 138.448 122.47 467.583
1490 0 56.2601 11.8379 666 133.177 123.312 463.362
1491 0 58.309 11.7478 685 131.236 124.254 462.765
1492 0 60.1345 12.1395 730 130.211 125.818 464.359
1493 0 63.1893 12.3755 782 129.303 126.125 462.336
1494 0 65.1663 13.5499 883 128.425 125.576 457.542
1495 0 67.1245 11.1435 748 131.822 127.779 455.9
1496 0 68.1363 12.3576 842 130.124 127.848 453.495
1497 0 73.1724 12.3134 901 128.66 128.599 456.521
1498 0 75.2362 12.0554 907 129.206 127.025 455.474
1499 0 79.1701 13.4394 1064 129.852 129.549 453.112
1500 1 45.1497 9.0809 410 125.454 128.949 472.876
1501 0 44.072 9.16682 404 123.042 129.651 475.302
1502 0 45.0479 11.6321 524 120.12 130.139 473.513
1503 0 46.0488 7.47033 344 126.939 130.663 474.706
1504 0 46.117 7.37256 340 125.668 130.738 477.641
1505 0 49.0961 7.5566 371 126.566 130.183 476.717
1506 0 49.0848 8.16953 401 128.304 131.065 472.828
1507 0 47.1066 8.76736 413 125.903 129.772 476.041
1508 0 51.152 10.3808 531 124.928 130.819 474.861
1509 0 50.1016 7.84406 393 129.776 129.338 474.893
1510 0 53.1179 10.392 552 123.612 129.082 479.447
1511 0 54.1391 9.43864 511 127.008 128.507 474.988
1512 0 57.0946 11.1044 634 122.021 128.349 481.333
1513 0 58.1063 10.7389 624 124.848 127.75 476.736
1514 0 59.0758 11.5953 685 123.145 126.521 474.904
1515 0 59.1009 9.05231 535 125.335 124.742 480.376
1516 1 130.425 6.12614 799 144.925 123.745 448.656
1517 0 132.648 9.87575 1310 141.004 123.653 443.207
1518 0 130.899 10.4585 1369 143.569 123.87 433.736
1519 0 130.431 6.2715 818 144.958 122.905 448.369
1520 1 113.251 6.80788 771 144.69 122.79 440.401
1521 0 113.441 3.97565 451 141.344 121.583 463.676
1522 0 113.286 7.62669 864 140.222 121.125 453.559
1523 0 110.298 5.85687 646 144.201 120.879 452.695
1524 1 79.44 7.86758 625 136.579 121.093 466.634
1525 0 80.298 12.8397 1031 129.552 120.65 462.387
1526 0 81.3491 13.1286 1068 129.222 121.924 459.47
1527 0 84.4635 13.0352 1101 130.393 122.516 455.876
1528 0 88.4836 13.5053 1195 129.339 121.348 455.4
1529 0 89.2992 9.35058 835 136.279 121.129 455.389
1530 0 88.2151 8.91004 786 136.327 122.434 455.321
1531 0 98.3339 12.6914 1248 130.71 122.409 443.664
1532 0 97.2387 11.4975 1118 130.794 123.908 443.984
1533 1 51.2124 10.5834 542 123.076 123.164 467.637
1534 0 54.0923 11.8686 642 121.601 123.136 464.974
1535 0 57.1137 10.8205 618 122.406 123.804 465.762
1536 0 57.0821 10.336 590 122.273 124.769 467.824
1537 0 58.0288 9.0817 527 125.165 125.402 467.554
1538 0 61.1707 10.9203 668 124.762 125.328 463.472
1539 0 66.0862 11.0613 731 123.706 126.317 462.937
1540 0 63.052 10.2138 644 126.562 127.017 459.615
1541 0 66.092 13.4812 891 120.496 127.184 462.695
1542 0 67.1847 9.8832 664 127.465 127.45 459.964
1543 0 69.0575 11.0632 764 125.272 128.575 458.627
1544 0 73.0987 10.0275 733 126.105 128.898 461.909
1545 0 75.1212 13.0988 984 123.025 129.782 460.611
1546 0 78.1626 14.3803 1124 123.221 129.536 456.552
1547 0 84.1214 15.7392 1324 118.881 129.33 455.103
1548 0 85.1079 13.148 1119 124.774 129.681 456.701
1549 0 86.2104 13.3047 1147 124.277 129.232 458.199
1550 0 89.2222 12.1943 1088 128.501 129.306 458.55
1551 1 49.0802 13.2844 652 121.095 127.328 478.281
1552 0 48.1784 8.77986 423 129.638 128.7 477.749
1553 0 49.1041 9.69369 476 130.105 128.868 477.174
1554 0 53.2 10.6955 569 126.707 127.698 481.838
1555 0 55.0585 10.4253 574 129.357 127.197 478.425
1556 0 58.1713 12.5663 731 125.523 126.482 480.166
1557 0 57.0875 14.9245 852 123.813 125.939 477.619
1558 0 62.1204 11.6548 724 128.066 125.059 478.996
1559 0 60.2386 12.6995 765 128.576 124.501 474.733
1560 0 64.0747 13.6403 874 127.006 123.537 476.371
1561 0 64.0998 12.4337 797 129.322 123.719 473.348
1562 0 68.2038 11.6856 797 129.787 122.324 470.916
1563 0 74.1274 18.5491 1375 117.271 123.425 470.974
1564 0 75.155 14.4634 1087 124.936 123.01 469.723
1565 0 75.0869 12.8651 966 128.7 121.404 465.964
1566 0 79.3619 11.0002 873 131.533 121.804 462.206
1567 0 79.2077 13.0543 1034 128.547 122.417 460.933
1568 0 84.3823 14.3632 1212 126.253 122.314 452.496
1569 0 85.4273 9.21251 787 135.104 121.463 453.752
1570 1 51.1895 6.56385 336 132.057 120.527 476.045
1571 0 51.2805 9.7308 499 128.491 121.824 473.587
1572 0 52.2826 12.9297 676 120.484 122.044 475.908
1573 0 53.2446 16.1143 858 121.597 121.389 468.298
1574 0 55.1968 13.5877 750 124.017 121.548 467.168
1575 0 56.19 13.6679 768 126.931 123.388 464.932
1576 0 56.2215 11.1523 627 131.152 122.844 464.405
1577 0 61.145 15.7331 962 123.069 123.991 463.777
1578 0 62.177 14.2818 888 123.223 124.083 464.216
1579 0 62.3657 13.0841 816 125.972 125.833 462.664
1580 0 64.3201 10.6343 684 130.427 125.654 460.668
1581 0 63.2195 12.591 796 129.023 126.085 460.129
1582 0 68.3666 14.1882 970 125.857 127.24 461.385
1583 0 71.232 13.0419 929 127.712 127.564 456.388
1584 0 71.1144 14.3431 1020 126.863 127.901 456.493
1585 0 77.2065 15.7629 1217 123.137 128.947 455.207
1586 0 76.1747 11.9987 914 131.954 128.789 454.104
1587 0 80.2642 13.2936 1067 130.27 130.237 454.574
1588 0 84.2005 14.1567 1192 128.051 130.451 454.936
1589 0 88.1931 14.8878 1313 126.675 129.736 453.647
1590 0 92.3714 12.6446 1168 129.212 130.557 455.324
1591 1 49.1512 9.84717 484 131.229 130.366 472.785
1592 0 51.2863 11.0166 565 127.811 131.037 474.193
1593 0 50.0996 9.02203 452 129.754 130.872 462.648
1594 0 45.1519 8.83684 399 132.479 130.15 461.419
1595 0 54.0884 10.0391 543 128.302 129.262 466.901
1596 0 55.1066 14.0818 776 122.621 128.316 468.626
1597 0 57.1575 7.3831 422 132.498 128.521 479.066
1598 0 61.2258 12.6744 776 126.003 128.398 475.858
1599 0 62.0869 12.4664 774 125.992 127.354 475.147
1600 0 63.2698 10.6528 674 128.337 126.878 475.274
1601 0 65.1219 12.4075 808 127.559 125.375 473.839
1602 0 67.1127 12.0096 806 127.773 125.12 473.155
1603 0 72.1713 12.1239 875 127.143 123.662 464.912
1604 0 74.2844 14.7272 1094 124.191 124.002 469.261
1605 0 75.2695 17.63 1327 119.301 122.91 468.583
1606 0 75.1036 12.2364 919 130.202 121.906 462.567
1607 0 80.2736 12.3951 995 130.094 122.112 461.622
1608 0 83.1453 15.3587 1277 124.361 121.527 460.516
1609 0 84.1871 13.6482 1149 127.682 120.979 459.627
1610 0 90.0987 13.8182 1245 128.958 120.663 457.438
1611 0 91.1339 13.2223 1205 130.665 120.451 454.804
1612 0 96.2042 14.3757 1383 131.024 121.672 447.701
1613 0 96.1866 14.3783 1383 135.663 121.661 447.679
1614 0 105.295 18.2914 1926 122.547 121.766 444.384
1615 0 109.446 19.1509 2096 119.234 121.241 440.213
1616 1 60.2263 15.4252 929 116.609 121.942 470.108
1617 0 57.0193 11.4523 653 126.361 120.842 464.118
1618 0 58.1242 8.20656 477 129.426 121.704 467.229
1619 0 65.1652 13.9645 910 122.725 121.842 460.618
1620 0 64.1118 12.5562 805 125.288 123.473 459.384
1621 0 68.1988 12.6248 861 125.465 123.537 455.583
1622 0 68.3057 14.3912 983 121.906 123.373 458.148
1623 0 74.1383 15.4576 1146 118.998 124.308 457.226
1624 0 72.1867 11.8304 854 127.666 125.116 451.91
1625 0 78.1305 12.9655 1013 125.302 126.058 456.114
1626 0 79.3721 14.4131 1144 122.724 126.513 453.513
1627 0 82.1571 14.7766 1214 123.213 127.944 450.82
1628 0 86.209 16.0308 1382 120.31 128.187 453.732
1629 0 89.2584 18.6425 1664 116.987 128.887 449.41
1630 0 91.2255 12.1786 1111 127.391 128.706 449.899
1631 0 95.2621 13.7725 1312 127.785 129.366 451.095
1632 0 98.3178 15.1651 1491 125.347 129.965 447.073
1633 0 100.245 15.7714 1581 124.514 130.281 444.024
1634 0 101.341 10.7065 1085 132.245 130.818 445.515
1635 0 109.39 14.0872 1541 125.554 131.156 447.123
1636 0 112.258 15.794 1773 124.175 130.636 445.733
1637 1 60.326 9.79677 591 130.076 129.618 468.242
1638 0 65.4504 14.3162 937 125.765 128.551 466.399
1639 0 64.0664 13.6109 872 127.495 128.705 466.99
1640 0 68.1188 13.8581 944 123.102 127.24 470.16
1641 0 71.1549 11.6787 831 128.112 127.527 467.579
1642 0 68.1181 10.8194 737 132.227 126.555 464.354
1643 0 76.0942 12.8131 975 127.079 126.579 465.121
1644 0 78.1997 9.7187 760 131.204 125.153 466.888
1645 0 82.3336 10.421 858 126.997 124.231 469.324
1646 0 85.1688 16.3558 1393 121.222 124.294 462.544
1647 0 87.1494 12.0942 1054 127.711 123.695 461.517
1648 0 90.2113 11.462 1034 130.369 123.287 457.191
1649 0 91.1671 11.4515 1044 131.834 122.791 455.404
1650 0 92.208 8.37238 772 136.892 122.254 452.303
1651 1 50.209 9.42062 473 129.962 122.638 475.345
1652 0 50.2492 10.4678 526 130.686 122.127 469.401
1653 0 54.6823 9.34488 511 128.875 122.822 471.845
1654 0 56.2039 14.0204 788 125.533 121.745 470.681
1655 0 55.1752 11.7082 646 130.012 120.997 471.814
1656 0 58.1566 12.2944 715 130.344 120.484 468.966
1657 0 58.1602 17.0047 989 123.361 121.77 465.026
1658 0 62.1565 12.5007 777 131.044 121.288 465.568
1659 0 65.2796 14.706 960 126.27 122.061 466.06
1660 0 67.1579 13.9224 935 127.688 122.828 462.554
1661 0 67.1694 11.0765 744 132.719 123.028 462.485
1662 0 71.3815 14.5136 1036 128.191 123.044 458.627
1663 0 71.2875 11.4045 813 135.399 124.704 451.845
1664 0 74.2459 13.8459 1028 131.155 124.78 452.531
1665 0 73.3384 12.5037 917 135.325 126.122 453.774
1666 0 78.416 13.4666 1056 135.536 126.574 450.121
1667 0 78.3319 17.0812 1338 129.676 127.325 446.288
1668 0 82.3962 13.9327 1148 134.539 127.227 449.184
1669 0 83.3009 13.1451 1095 136.491 128.06 450.379
1670 0 88.4003 13.9592 1234 135.042 128.99 449.458
1671 0 90.3877 14.991 1355 134.279 128.681 445.255
1672 0 92.566 16.2263 1502 131.22 130.18 448.577
1673 0 95.4873 14.6302 1397 136.277 131.052 444.999
1674 1 55.2503 11.4931 635 136.891 130.967 464.872
1675 0 54.3138 10.0159 544 138.748 130.73 466.119
1676 0 57.1502 12.3534 706 133.946 129.455 455.735
1677 0 57.0948 13.8542 791 131.049 130.139 453.338
1678 0 57.3452 11.4395 656 133.401 130.273 464.413
1679 0 62.0283 12.3653 767 135.684 130.256 469.898
1680 0 66.1647 13.9198 921 130.954 128.685 470.788
1681 0 69.3683 12.8445 891 133.806 128.358 467.841
1682 0 70.236 12.4295 873 135.402 128.829 469.585
1683 0 74.2778 11.9147 885 136.736 127.795 467.659
1684 0 76.1078 15.5306 1182 130.068 127.517 465.903
1685 0 80.2467 14.7046 1180 130.581 126.659 462.288
1686 0 81.158 10.4734 850 139.833 125.292 463.661
1687 0 83.2894 15.236 1269 131.758 124.809 462.63
1688 0 83.3939 14.9891 1250 134.138 124.676 459.737
1689 0 88.3179 15.2517 1347 131.239 123.513 454.334
1690 0 88.3627 11.7131 1035 138.501 123.353 455.411
1691 0 93.2531 12.45 1161 135.879 123.403 457.705
1692 0 97.3013 19.0028 1849 124.643 123.128 452.21
1693 0 101.304 17.8868 1812 126.704 123.102 449.797
1694 0 98.365 11.559 1137 139.782 121.871 450.214
1695 0 103.352 14.5715 1506 133.578 122.132 451.026
1696 1 58.0362 12.027 698 130.842 122.299 473.288
1697 0 61.114 12.2722 750 129.393 121.701 472.307
1698 0 61.0975 12.0299 735 131.842 120.497 468.546
1699 0 64.0873 13.0447 836 132.128 121.116 465.331
1700 0 66.0957 14.0403 928 128.072 121.166 463.582
1701 0 66.1472 10.7941 714 134.945 121.845 457.584
1702 0 70.2988 13.3857 941 129.733 122.217 460.302
1703 0 73.421 13.3885 983 131.982 121.851 457.809
1704 0 74.2688 12.7375 946 134.869 122.2 451.338
1705 0 76.2771 11.1567 851 137.458 123.318 451.201
1706 0 76.2867 12.0991 923 136.777 123.878 449.709
1707 0 82.2107 14.0371 1154 133.095 125.366 446.908
1708 0 83.2498 13.958 1162 132.91 125.83 448.781
1709 0 88.1799 12.5199 1104 135.825 126.784 443.591
1710 0 90.1455 15.9076 1434 129.649 127.047 443.814
1711 0 93.318 14.5738 1360 131.606 127.237 439.704
1712 0 95.244 12.8932 1228 134.468 127.727 440.265
1713 0 99.1685 16.3459 1621 128.042 128.416 440.685
1714 0 101.38 12.9315 1311 134.802 129.207 438.214
1715 0 104.298 13.1738 1374 134.463 129.488 438.522
1716 0 103.129 11.4032 1176 136.475 130.696 438.23
1717 0 112.188 16.8645 1892 125.879 130.743 439.525
1718 0 110.156 11.3566 1251 136.679 130.604 429.251
1719 0 118.264 18.4587 2183 121.834 131.615 439.509
1720 0 118.245 18.5547 2194 112.23 131.585 439.708
1721 0 125.282 11.7096 1467 137.097 129.882 437.859
1722 1 71.3053 10.3358 737 132.038 129.205 466.83
1723 0 75.1294 13.9626 1049 126.737 128.57 466.207
1724 0 77.1471 11.8993 918 130.304 127.769 463.153
1725 0 80.3118 13.9581 1121 126.522 127.981 464.013
1726 0 84.1972 12.5301 1055 130.68 128.429 459.49
1727 0 88.1244 15.637 1378 125.16 126.786 461.482
1728 0 88.1899 13.8111 1218 130.228 125.928 458.031
1729 0 92.2474 13.4096 1237 129.551 124.508 461.776
1730 0 95.1069 11.5239 1096 132.823 122.476 460.732
1731 0 99.1431 11.8616 1176 133.23 123.33 455.092
1732 0 104.295 15.0726 1572 127.145 123.165 455.315
1733 1 55.1082 12.3031 678 128.674 122.379 474.568
1734 0 57.1049 11.3826 650 129.538 121.329 474.425
1735 0 59.0511 13.3444 788 127.024 121.951 472.353
1736 0 61.1729 11.4266 699 129.821 120.717 469.236
1737 0 61.0653 14.8857 909 125.966 120.09 468.354
1738 0 64.2984 12.8464 826 127.799 119.7 467.937
1739 0 65.1323 14.2019 925 125.482 120.343 467.205
1740 0 68.1027 12.3049 838 129.319 120.076 461.563
1741 0 70.1736 14.4641 1015 126.149 119.695 462.779
1742 0 71.1773 14.1337 1006 125.332 121.317 464.743
1743 0 74.5312 10.7069 798 132.138 119.986 458.112
1744 0 76.1614 13.8784 1057 129.052 120.451 456.509
1745 0 79.2117 14.5181 1150 127.934 121.187 456.08
1746 0 77.2407 10.6421 822 136.793 121.972 451.7
1747 0 81.2801 12.6968 1032 133.671 121.787 451.15
1748 0 83.6093 13.8023 1154 132.991 123.403 446.397
1749 0 87.35 14.7224 1286 130.561 123.731 449.208
1750 0 90.3964 13.8059 1248 133.643 124.517 443.2
1751 1 181.514 13.5416 2458 137.544 126.032 404.514
1752 0 187.853 13.2072 2481 138.341 125.832 402.671
1753 0 192.554 15.4242 2970 137.435 126.276 383.94
1754 0 201.821 14.0967 2845 138.795 127.531 390.078
1755 1 108.492 16.5543 1796 128.101 127.288 437.977
1756 0 112.216 15.292 1716 130.957 127.149 434.344
1757 0 112.187 12.8803 1445 137.51 128.284 436.277
1758 0 119.449 13.9641 1668 135.128 128.534 435.891
1759 1 63.1106 14.5934 921 128.509 129.152 464.194
1760 0 65.2518 10.835 707 135.269 129.803 458.95
1761 0 66.2447 13.7068 908 131.289 130.247 461.999
1762 0 68.1436 14.2346 970 129.858 129.848 462.275
1763 0 70.4559 14.1649 998 132.062 129.534 461.55
1764 0 75.3135 13.3442 1005 132.872 129.792 463.566
1765 0 76.3222 14.2816 1090 132.955 128.995 463.961
1766 0 78.3335 15.1659 1188 131.431 128.717 462.611
1767 0 80.7013 13.3331 1076 134.566 128.623 459.642
1768 0 91.98 20.1457 1853 120.005 129.287 459.134
1769 0 97.4061 20.8919 2035 118.417 128.152 450.91
1770 0 95.4659 23.4534 2239 117.177 127.553 455.891
1771 0 96.6429 14.6105 1412 131.832 126.596 454.706
1772 0 96.3584 17.6425 1700 127.854 125.552 453.576
1773 0 97.5087 13.5988 1326 135.337 125.69 456.608
1774 0 99.5119 13.6969 1363 136.189 124.225 456.171
1775 0 102.444 13.3536 1368 137.83 123.569 450.667
1776 0 105.163 15.3572 1615 132.449 122.298 442.846
1777 1 59.2068 10.59 627 135.472 121.391 468.332
1778 0 63.1664 13.2191 835 129.999 121.674 469.668
1779 0 62.1214 14.3912 894 131.905 121.084 460.64
1780 0 67.1988 13.8842 933 132.074 120.682 456.893
1781 0 68.1464 12.0476 821 139.22 120.563 442.417
1782 0 73.191 14.1957 1039 134.867 120.465 442.862
1783 0 75.3308 16.1289 1215 132.8 119.835 442.053
1784 0 78.1636 15.0838 1179 134.312 118.6 442.061
1785 0 79.0646 13.685 1082 138.132 120.952 440.546
1786 0 80.0784 14.286 1144 139.949 120.683 440.303
1787 0 86.1028 14.1227 1216 139.16 120.926 439.086
1788 0 87.1745 18.1475 1582 132.08 121.407 436.037
1789 0 91.1322 16.4925 1503 132.26 122.126 436.825
1790 0 93.1941 13.1983 1230 138.586 121.541 435.312
1791 0 97.1506 15.8002 1535 133.332 122.995 435.438
1792 0 100.155 13.3093 1333 136.395 122.99 438.466
1793 0 106.119 15.4261 1637 130.737 124.361 443.604
1794 1 56.1358 11.1515 626 137.955 124.182 459.981
1795 0 55.0761 11.6203 640 139.067 125.964 459.186
1796 0 55.0761 11.4569 631 139.42 127.978 459.163
1797 0 61.1013 10.4908 641 136.495 126.529 465.075
1798 0 63.1949 11.9155 753 134.457 126.422 455.661
1799 0 67.2585 13.6786 920 130.196 126.754 457.905
1800 0 69.1896 12.6898 878 132.432 127.756 456.887
1801 0 73.1191 15.7004 1148 125.637 128.976 461.875
1802 0 75.2325 13.5447 1019 129.968 129.365 458.895
1803 0 77.293 13.4682 1041 131.167 129.707 457.15
1804 0 76.1651 10.556 804 137.502 129.78 454.616
1805 0 83.2289 14.2619 1187 130.36 130.098 456.931
1806 0 87.3696 13.8034 1206 132.93 131.032 455.334
1807 0 90.1627 12.4885 1126 135.115 129.541 456.212
1808 0 90.4034 10.1213 915 139.071 129.886 455.938
1809 0 95.5024 14.0101 1338 132.099 129.194 454.994
1810 0 99.3589 14.3923 1430 132.539 127.98 447.985
1811 1 53.1768 10.4557 556 134.75 127.585 470.982
1812 0 55.3803 13.0552 723 126.77 127.69 472.743
1813 0 60.2974 14.9924 904 123.904 127.298 468.107
1814 0 61.2986 9.15193 561 133.036 126.772 472.922
1815 0 64.267 14.1597 910 125.725 126.615 466.199
1816 0 65.3827 12.3733 809 128.941 125.273 470.768
1817 0 66.1799 13.2517 877 127.4 124.413 467.429
1818 0 67.0804 13.1633 883 127.238 123.826 469.412
1819 0 72.0891 11.9158 859 128.602 124.065 466.731
1820 0 79.129 14.0909 1115 123.192 123.237 468.785
1821 0 76.2374 16.0158 1221 122.93 122.941 463.6
1822 0 79.1921 14.5343 1151 123.948 122.159 466.168
1823 0 77.2271 12.0683 932 132.778 122.208 457.461
1824 0 80.2964 12.292 987 131.957 121.635 455.829
1825 0 85.2174 16.4286 1400 124.767 123.006 457.444
1826 0 89.1023 17.4743 1557 123.344 122.29 455.908
1827 0 89.137 12.8903 1149 132.056 121.075 450.834
1828 0 89.2078 12.1626 1085 133.958 121.455 446.916
1829 0 94.2672 14.7241 1388 129.773 121.932 446.372
1830 0 95.204 12.6675 1206 134.522 121.661 442.038
1831 0 97.1264 15.9998 1554 129.106 121.349 442.464
1832 0 101.299 14.4819 1467 132.126 122.143 439.586
1833 0 104.317 14.3697 1499 132.479 122.528 437.087
1834 0 105.164 13.4742 1417 134.098 122.896 441.189
1835 0 114.437 12.7581 1460 134.795 123.138 435.218
1836 1 61.1613 11.8539 725 129.909 123.279 456.192
1837 0 63.2302 9.77381 618 132.681 123.947 452.816
1838 0 68.1545 12.0462 821 129.798 124.883 451.124
1839 0 70.2492 11.7297 824 131.5 125.532 450.027
1840 0 68.3902 14.622 1000 124.281 125.022 453.568
1841 0 76.1949 16.0641 1224 123.854 125.848 447.398
1842 0 79.098 15.8285 1252 114.619 126.154 443.976
1843 0 82.1472 14.3888 1182 116.493 126.91 443.024
1844 0 83.177 13.0325 1084 118.899 127.125 444.098
1845 0 85.2124 13.3079 1134 119.187 128.263 439.234
1846 0 89.3493 13.6319 1218 118.402 128.096 443.472
1847 0 91.1179 14.0368 1279 118.697 129.617 443.965
1848 0 99.4047 19.7576 1964 107.758 128.978 447.563
1849 0 101.471 16.0341 1627 114.449 129.063 443.353
1850 0 99.2982 13.0214 1293 120.422 128.852 444.292
1851 0 105.384 13.6453 1438 120.506 128.857 426.453
1852 0 107.361 12.3881 1330 123.416 128.792 429.462
1853 0 110.343 12.5155 1381 122.271 128.064 434.348
1854 0 115.2 15.3819 1772 117.876 127.594 436.523
1855 0 116.521 12.058 1405 124.777 127.7 432.144
1856 0 122.388 14.8463 1817 121.165 127.035 423.99
1857 0 127.21 14.1341 1798 121.428 126.833 418.991
1858 0 134.175 16.5232 2217 116.531 125.788 433.25
1859 0 137.223 12.9206 1773 122.756 124.165 433.805
1860 0 144.19 13.2326 1908 121.678 123.941 430.974
1861 1 80.1109 13.5936 1089 116.034 122.444 461.937
1862 0 84.1947 16.4025 1381 111.7 121.563 459.72
1863 0 86.3192 13.2995 1148 117.069 120.814 458.761
1864 0 89.2237 13.7407 1226 115.108 120.815 458.482
1865 0 93.295 14.0093 1307 114.922 121.116 456.106
1866 0 91.2637 10.1026 922 121.298 121.21 458.377
1867 0 95.1615 9.99354 951 123.271 120.502 453.694
1868 0 99.1183 12.5103 1240 119.748 120.707 449.592
1869 0 100.143 10.7147 1073 122.86 119.58 451.191
1870 0 102.186 11.3519 1160 121.303 119.602 454.103
1871 0 106.252 13.3645 1420 120.365 120.291 445.531
1872 0 108.263 12.5251 1356 122.158 120.303 442.644
1873 0 108.239 15.281 1654 117.62 120.063 440.9
1874 0 115.386 14.8891 1718 117.689 120.258 443.776
1875 0 116.348 9.91854 1154 126.09 121.167 438.719
1876 0 122.262 15.0578 1841 117.701 122.384 433.878
1877 0 127.122 10.84 1378 123.57 122.911 431.718
1878 1 71.1461 10.12 720 120.721 122.651 457.746
1879 0 76.1852 12.4565 949 119.967 123.901 454.096
1880 0 76.1044 10.2491 780 123.917 125.231 450.571
1881 0 79.1901 8.46065 670 127.787 126.649 450.628
1882 0 80.1057 11.0978 889 126.09 126.379 449.546
1883 0 80.1057 11.2102 898 144.816 126.356 449.569
1884 0 88.2355 11.186 987 124.941 127.308 448.934
1885 0 91.1111 12.5012 1139 123.822 128.025 447.801
1886 0 95.2711 12.9 1229 123.442 128.168 446.937
1887 0 101.288 12.2324 1239 123.404 127.351 448.906
1888 0 102.205 13.5022 1380 122.848 129.234 443.217
1889 0 102.206 14.0304 1434 122.374 128.685 446.531
1890 0 106.256 13.8627 1473 122.676 129.299 446.395
1891 0 109.294 12.6265 1380 127.004 129.096 438.775
1892 0 118.418 11.4932 1361 126.758 129.655 441.909
1893 0 119.345 12.1831 1454 123.091 129.461 445.194
1894 0 124.282 14.8613 1847 118.099 129.681 446.223
1895 1 139.277 7.28762 1015 129.464 128.988 443.554
1896 0 141.662 10.9133 1546 124.266 128.684 440.862
1897 0 142.38 12.3823 1763 123.539 128.151 439.618
1898 1 77.2362 12.6884 980 118.604 127.352 467.768
1899 0 81.3748 13.7512 1119 121.84 126.507 467.001
1900 0 82.2458 13.2773 1092 122.993 125.937 464.566
1901 0 84.2903 14.4026 1214 124.15 125.437 463.242
1902 0 86.2884 13.791 1190 125.836 123.516 459.159
1903 0 90.3168 15.5674 1406 121.289 123.263 463.134
1904 0 92.2896 13.6202 1257 125.395 121.936 461.35
1905 0 96.2135 13.2622 1276 126.975 123.076 458.35
1906 0 98.2619 13.7286 1349 126.507 121.746 455.313
1907 0 102.338 13.5531 1387 123.952 121.721 458.952
1908 0 105.454 15.2769 1611 123.068 119.718 450.889
1909 0 107.177 17.6716 1894 120.147 120.752 448.883
1910 0 113.449 16.9062 1918 121.496 119.578 447.406
1911 0 112.323 12.4017 1393 128.349 119.698 444.38
1912 1 63.0874 13.8063 871 122.972 119.401 469.675
1913 0 62.0885 15.1719 942 118.558 119.105 470.793
1914 0 64.052 11.5843 742 128.098 120.795 463.465
1915 0 62.1102 11.6406 723 125.184 120.326 452.74
1916 0 69.0868 12.6363 873 124.934 120.244 461.771
1917 0 71.1719 14.6266 1041 122.408 119.667 457.538
1918 0 72.0771 11.8207 852 128.142 120.69 456.257
1919 0 75.1678 14.6206 1099 123.323 121.049 446.917
1920 0 79.1681 13.7429 1088 123.887 121.611 449.307
1921 0 78.1671 15.7355 1230 121.277 122.24 446.252
1922 0 80.1822 13.5317 1085 123.781 123.107 451.523
1923 0 85.1433 14.3053 1218 122.844 124.624 448.917
1924 0 87.2349 15.166 1323 123.124 123.872 444.627
1925 0 87.1219 14.9446 1302 123.998 124.969 445.463
1926 0 94.1568 12.1606 1145 128.439 125.839 442.91
1927 0 94.2006 14.2674 1344 125.597 126.173 441.368
1928 0 95.2475 11.6224 1107 128.691 127.373 438.411
1929 1 59.2346 11.0408 654 125.156 127.005 465.156
1930 0 57.0811 11.072 632 127 128.487 462.323
1931 0 59.1003 12.2673 725 121.988 128.956 462.799
1932 0 60.0689 11.6699 701 121.546 128.305 461.598
1933 0 57.089 8.39041 479 127.246 128.929 460.683
1934 0 62.1588 14.8169 921 116.78 128.644 463.711
1935 0 65.1873 14.5427 948 121.301 128.631 451.742
1936 0 66.0359 13.3109 879 121.688 129.2 454.545
1937 0 68.0591 16.8089 1144 115.505 128.604 455.584
1938 0 72.1151 14.8374 1070 118.15 128.571 453.985
1939 0 77.145 16.1384 1245 115.708 127.137 454.414
1940 0 77.0954 13.8659 1069 119.375 127.657 456.42
1941 0 79.1956 13.6876 1084 120.137 127.227 457.506
1942 0 84.1362 18.0778 1521 113.466 126.159 451.854
1943 0 85.1351 18.4413 1570 114.311 125.088 456.416
1944 0 86.2515 13.8085 1191 122.568 123.406 458.186
1945 0 93.2253 12.9364 1206 121.949 124.585 459.799
1946 0 95.381 14.7514 1407 120.445 123.87 454.236
1947 1 51.0768 11.982 612 121.338 122.011 476.556
1948 0 53.1 12.5235 665 121.955 122.047 474.62
1949 0 54.0155 11.3671 614 123.762 122.487 473.088
1950 0 59.0934 15.0609 890 117.847 121.497 469.044
1951 0 58.099 13.1672 765 120.898 120.495 471.25
1952 0 63.1642 15.151 957 116.698 120.618 469.96
1953 0 61.1227 13.0557 798 122.165 120.957 467.075
1954 0 63.2348 15.6876 992 117.503 120.995 464.724
1955 0 65.2198 13.4468 877 118.056 120.262 467.141
1956 0 66.1042 13.8418 915 118.64 120.515 463.263
1957 0 72.2988 15.7264 1137 113.938 120.741 460.004
1958 0 71.2243 15.1774 1081 115.747 120.441 456.363
1959 0 75.218 17.3629 1306 110.418 120.56 460.734
1960 0 73.3 11.3097 829 115.924 120.497 464.311
1961 0 78.291 14.5994 1143 116.182 122.727 449.598
1962 0 80.3053 13.2245 1062 118.564 121.98 453.115
1963 0 82.1908 15.537 1277 115.616 123.023 450.484
1964 0 86.2962 12.8395 1108 119.76 123.109 450.849
1965 0 91.3273 22.1949 2027 106.776 123.546 450.321
1966 0 90.5576 15.2831 1384 118.129 124.816 445.107
1967 0 91.4648 14.552 1331 117.849 125.512 444.497
1968 0 99.6854 16.6223 1657 113.186 126.104 444.608
1969 1 50.223 15.4511 776 115.405 126.934 464.438
1970 0 51.1664 11.6287 595 122.237 127.032 463.876
1971 0 57.4223 16.2829 935 114.566 128.308 461.338
1972 0 56.4593 13.9747 789 118.153 127.981 463.248
1973 0 59.308 17.7379 1052 113.188 128.721 462.616
1974 0 62.2051 14.4843 901 119.233 130.149 461.042
1975 0 63.3179 13.9297 882 119.303 129.344 460.39
1976 0 67.2431 13.6668 919 119.532 129.927 461.75
1977 0 69.4664 14.2659 991 119.165 129.248 460.681
1978 0 71.1515 13.675 973 121.795 130.247 461.327
1979 0 74.3314 14.6775 1091 121.269 130.263 461.417
1980 0 78.2924 17.2941 1354 116.878 129.185 460.925
1981 0 81.3225 16.908 1375 118.331 129.592 458.76
1982 0 86.4216 17.9353 1550 117.052 128.952 457.701
1983 0 88.3777 13.9062 1229 124.526 128.858 461.553
1984 1 46.1976 11.4075 527 129.85 127 481.522
1985 0 49.3157 12.1462 599 127.688 126.658 482.683
1986 0 53.3597 14.4491 771 124.868 124.9 481.106
1987 0 53.2873 17.7716 947 121.875 125.435 478.625
1988 0 55.342 14.6905 813 126.764 123.002 479.216
1989 0 56.2963 16.0934 906 125.257 123.641 478.461
1990 0 59.4214 17.7714 1056 123.143 123.657 474.926
1991 0 61.4264 14.2284 874 128.428 122.916 475.225
1992 0 63.3587 16.6986 1058 123.256 122.547 475.482
1993 0 66.5401 17.388 1157 123.6 122.633 471.369
1994 0 66.4977 15.6697 1042 125.961 121.774 473.903
1995 0 69.2319 18.4308 1276 121.496 120.334 471.221
1996 0 70.2691 19.0126 1336 122.813 120.177 466.663
1997 0 74.4676 17.0947 1273 125.308 120.885 466.563
1998 0 76.3696 13.9453 1065 130.683 119.921 465.028
1999 0 79.3624 16.5948 1317 126.557 120.371 464.099
2000 0 84.4448 22.1446 1870 115.82 120.803 452.864
2001 0 82.2228 17.1607 1411 126.531 120.788 454.778
2002 0 88.4369 21.4729 1899 117.457 121.27 459.521
2003 1 42.3037 14.065 595 133.943 121.218 476.497
2004 0 44.186 15.5705 688 132.092 121.545 472.933
2005 0 46.2191 16.8978 781 129.086 121.594 472.684
2006 0 48.2058 18.7944 906 126.627 122.497 470.313
2007 0 51.2334 16.4151 841 129.252 123.283 469.596
2008 0 51.1083 17.0227 870 129.739 123.969 470.203
2009 0 51.1504 15.8748 812 135.452 124.411 467.08
2010 0 59.1634 20.1983 1195 121.76 125.468 465.12
2011 0 62.1189 16.6294 1033 128.882 126.926 465.094
2012 0 64.2737 20.0549 1289 121.73 126.174 462.019
2013 0 65.126 22.0649 1437 119.617 127.634 460.578
2014 0 70.1681 21.6623 1520 118.114 126.736 458.971
2015 0 72.1833 23.662 1708 115.676 127.565 457.913
2016 0 71.275 17.9025 1276 127.619 127.929 462.938
2017 0 76.7858 24.2363 1861 115.733 128.309 455.974
2018 0 71.2889 22.2615 1587 122.277 128.758 458.849
2019 0 68.1287 20.6521 1407 128.622 129.012 461.296
2020 0 70.0938 21.7423 1524 128.262 129.043 464.312
2021 0 71.2341 17.4495 1243 137.879 127.508 464.475
2022 0 74.2046 18.0043 1336 135.706 128.611 465.74
2023 0 78.3062 20.2538 1586 132.665 128.32 463.551
2024 0 79.1838 16.9984 1346 138.848 127.178 463.899
2025 0 81.0825 15.1204 1226 144.454 126.821 461.699
2026 0 85.1814 17.539 1494 138.503 126.718 462.773
2027 0 88.1299 16.4984 1454 140.047 127.169 463.709
2028 0 93.1325 18.479 1721 135.919 125.887 460.851
2029 0 96.2063 15.7682 1517 141.569 125.193 459.26
2030 0 97.1793 16.3821 1592 142.512 124.911 455.391
2031 0 101.161 17.6748 1788 140.162 123.113 452.757
2032 0 107.209 15.8196 1696 142.621 123.4 454.08
2033 0 110.181 17.09 1883 141.622 122.369 449.84
2034 0 113.384 19.4208 2202 136.868 122.437 447.64
2035 0 112.299 14.7018 1651 147.971 121.389 447.971
2036 0 119.268 16.1317 1924 145.478 121.455 441.621
2037 0 127.201 17.4291 2217 141.038 120.279 444.279
2038 0 129.286 15.4773 2001 145.693 120.793 438.983
2039 1 65.1045 15.406 1003 144.566 119.749 470.639
2040 0 68.141 15.6587 1067 143.691 119.984 466.9
2041 0 70.1135 21.9073 1536 129.643 119.866 469.369
2042 0 70.0682 17.1262 1200 142.635 120.379 463.988
2043 0 71.1285 15.1838 1080 146.412 119.803 462.6
2044 0 74.3311 14.4354 1073 148.413 119.543 461.459
2045 0 75.3039 16.3205 1229 144.188 119.819 460.346
2046 0 79.1244 17.2008 1361 142.559 121.015 458.314
2047 0 80.1474 17.1309 1373 144.448 121.269 453.768
2048 0 81.1953 14.3727 1167 150.718 121.568 453.392
2049 0 78.2833 14.0132 1097 153.152 121.332 451.957
2050 0 86.0951 19.0255 1638 140.303 122.413 452.813
2051 0 88.1795 14.754 1301 151.602 123.736 447.357
2052 0 90.0808 16.7738 1511 147.107 124.314 446.317
2053 0 92.0752 15.5091 1428 150.819 124.764 445.425
2054 0 95.2901 18.0711 1722 144.645 126.077 442.825
2055 0 101.358 26.5101 2687 127.324 125.916 441.49
2056 0 100.251 18.1246 1817 145.694 127.26 439.86
2057 0 104.179 21.5303 2243 138.949 127.25 441.728
2058 0 103.204 19.2821 1990 145.971 128.057 441.042
2059 0 108.289 19.171 2076 147.452 128.611 440.076
2060 0 108.363 19.4808 2111 149.134 127.771 438.906
2061 0 112.391 17.9819 2021 153.363 128.008 436.374
2062 0 115.174 20.1434 2320 148.732 128.78 436.887
2063 0 117.283 20.3525 2387 150.634 128.903 433.671
2064 0 116.22 18.4563 2145 158.576 127.821 439.007
2065 0 120.276 17.2437 2074 161.426 128.886 439.054
2066 0 126.347 20.1113 2541 154.018 126.962 436.298
2067 0 132.256 28.8455 3815 136.14 127.63 434.637
2068 0 140.54 26.818 3769 137.89 127.166 423.819
2069 0 146.448 26.2824 3849 138.276 127.779 423.266
2070 0 145.463 23.5936 3432 146.81 126.296 427.581
2071 0 149.533 25.6198 3831 143.218 125.446 419.442
2072 0 152.294 27.703 4219 142.395 125.201 428.083
2073 0 153.164 19.9655 3058 161.316 122.998 423.15
2074 1 86.2483 12.0582 1040 171.011 122.013 463.56
2075 0 88.0957 15.5967 1374 167.289 120.525 457.723
2076 0 88.1044 16.0832 1417 167.863 120.202 454.37
2077 0 91.2054 18.3213 1671 161.064 120.58 456.171
2078 0 98.1082 18.1942 1785 159.56 120.835 451.571
2079 0 100.278 14.4298 1447 168.205 119.838 441.756
2080 0 106.273 15.2531 1621 164.911 119.967 439.589
2081 0 108.302 15.6968 1700 164.719 120.682 437.047
2082 0 108.374 15.0775 1634 168.569 118.967 435.322
2083 0 114.274 18.1319 2072 159.21 119.626 431.941
2084 0 117.219 18.5295 2172 158.443 119.583 433.984
2085 0 118.352 16.434 1945 164.85 119.82 431.166
2086 0 119.217 18.806 2242 159.796 119.763 428.214
2087 0 126.23 21.2786 2686 151.07 120.343 421.326
2088 0 137.509 22.3404 3072 146.705 120.871 409.806
2089 0 140.345 18.7965 2638 155.558 122.06 414.091
2090 0 142.467 21.5629 3072 149.541 121.923 406.843
2091 0 147.589 22.4136 3308 147.306 122.1 403.758
2092 0 152.943 24.6824 3775 141.929 123.136 397.955
2093 0 151.338 22.5984 3420 148.578 123.152 398.761
2094 1 102.351 9.82897 1006 156.118 123.592 438.834
2095 0 101.379 10.8504 1100 155.214 123.992 437.485
2096 0 102.353 13.4925 1381 149.91 125.996 432.178
2097 0 105.552 12.2972 1298 151.515 126.502 433.783
2098 0 104.377 13.6716 1427 151.701 126.467 431.98
2099 0 108.417 13.2359 1435 152.243 126.031 428.58
2100 0 109.346 14.1843 1551 149.965 126.153 429.136
2101 0 114.315 11.8707 1357 153.834 126.867 429.205
2102 0 115.385 13.338 1539 150.57 127.812 428.751
2103 0 115.467 13.1293 1516 150.704 126.91 426.6
2104 1 69.3984 8.91952 619 146.633 127.396 460.187
2105 0 70.33 10.1521 714 145.559 128.119 458.983
2106 0 76.659 9.77054 749 143.782 127.877 448.02
2107 0 79.5702 7.76673 618 147.958 128.579 455.07
2108 0 79.4967 11.4093 907 139.871 128.154 455.074
2109 0 79.3642 9.36191 743 144.715 126.6 452.471
2110 0 78.3881 8.10072 635 144.707 127.409 458.753
2111 0 86.5292 9.77704 846 144.485 125.247 455.755
2112 0 88.3612 11.2606 995 141.484 126.019 460.572
2113 0 90.5706 9.91492 898 145.556 125.292 453.697
2114 0 90.4021 8.10822 733 148.317 124.078 458.06
2115 0 93.2179 8.44258 787 146.207 123.324 460.504
2116 0 99.4624 9.32011 927 144.81 122.717 454.049
2117 0 99.5727 11.5092 1146 140.993 121.747 452.308
2118 0 98.3153 8.49308 835 147.371 121.159 450.76
2119 0 101.411 9.43685 957 147.227 121.932 444.034
2120 0 104.553 11.64 1217 142.136 120.039 444.926
2121 0 108.358 11.259 1220 140.573 120.316 447.386
2122 1 64.4849 11.5531 745 136.039 120.138 466.248
2123 0 65.3916 11.24 735 134.744 120.328 467.384
2124 0 68.435 11.31 774 134.597 119.592 468.08
2125 0 68.5877 11.7222 804 135.524 120.361 463.057
2126 0 69.7082 11.1752 779 137.298 119.721 462.834
2127 1 16.0189 8.48997 136 120.926 122.574 488.404
2128 0 15.0107 9.3933 141 118.418 121.206 487.05
2129 1 138.094 9.43559 1303 142.804 119.87 431.708
2130 0 137.901 10.6599 1470 142.103 119.998 429.897
2131 0 139.885 9.47923 1326 144.738 120.973 432.118
2132 0 139.123 12.0325 1674 140.333 121.047 428.453
2133 0 137.766 9.84281 1356 145.594 121.883 422.499
2134 0 145.114 10.888 1580 142.4 122.085 425.171
2135 0 145.83 13.2757 1936 139.11 122.702 417.914
2136 0 143.76 9.47411 1362 145.949 123.287 422.973
2137 0 148.824 11.4296 1701 143.078 123.969 409.001
2138 1 217.032 8.89729 1931 147.259 124.364 400.824
2139 0 221.384 10.8499 2402 145.982 124.246 390.398
2140 0 230.355 13.9871 3222 140.977 126.037 376.269
2141 0 238.233 11.2159 2672 146.399 126.421 375.53
2142 0 254.63 7.85061 1999 118.683 127.356 273.52
2143 0 41.0962 16.9115 695 100.988 127.61 340.748
2144 0 46.7621 19.3746 906 97.1921 128.44 261.456
2145 0 43.0301 15.9888 688 101.911 127.907 214.56
2146 0 55.02 26.136 1438 87.5848 127.656 204.132
2147 0 43.3372 30.9896 1343 86.7022 127.523 198.561
2148 0 49.7913 26.9525 1342 84.1557 128.763 182.072
2151 0 425.446 34.2135 14556 67.6296 129.51 328.195
