time division length width area intensity CMx CMy
0 0 72.5983 24.8353 1803 98.2529 438.407 397.709
1 0 71.1721 29.4076 2093 96.1314 437.833 389.796
2 0 73.4569 33.8566 2487 91.0696 437.327 393.353
3 0 78.1577 26.0371 2035 94.5032 436.927 388.169
4 0 76.0832 23.7503 1807 101.488 436.266 391.652
5 0 76.3817 19.756 1509 105.881 434.556 394.388
6 1 40.077 13.6737 548 113.35 433.378 416.119
7 0 40.077 13.5739 544 153.204 428.403 416.081
8 0 45.131 13.5384 611 106.455 433.272 424.496
9 0 45.095 13.8153 623 113.09 431.889 419.037
10 0 49.1039 20.6297 1013 100.388 430.86 422.897
11 0 48.0444 13.321 640 113.164 430.402 422.031
12 0 50.1112 15.306 767 110.905 430.992 419.819
13 0 50.1057 16.7246 838 106.661 429.933 422.746
14 0 51.2966 13.5292 694 113.049 430.295 423.895
15 0 56.7801 15.6217 887 108.716 430.301 424.758
16 0 53.0769 17.258 916 107.033 430.353 424.367
17 0 56.0799 13.7839 773 110.448 429.721 423.631
18 0 54.0701 19.4562 1052 110.276 429.843 422.64
19 0 58.0845 18.8691 1096 107.151 428.68 423.562
20 0 58.0844 15.6152 907 112.558 430.472 421.74
21 0 62.6098 15.7323 985 110.113 430.704 428.454
22 0 62.3553 14.9306 931 113.644 430.174 427.016
23 0 67.4172 15.723 1060 113.57 431.139 430.192
24 0 65.0909 16.7612 1091 115.192 431.207 428.003
25 0 72.5375 16.0882 1167 112.404 432.308 427.574
26 0 71.3626 16.3251 1165 113.41 432.888 425.702
27 0 75.1069 18.3339 1377 111.139 432.794 425.723
28 0 74.2036 17.3981 1291 112.723 433.912 427.049
29 0 78.2597 16.7008 1307 112.598 435.044 426.554
30 0 80.2326 17.6985 1420 110.43 434.849 431.664
31 0 84.1479 18.8715 1588 111.261 436.484 425.191
32 0 85.1044 18.9062 1609 110.667 437.354 429.699
33 0 90.0773 17.3185 1560 109.552 437.904 430.038
34 0 93.2582 21.8748 2040 106.049 438.616 426.057
35 0 97.2954 18.1612 1767 111.774 438.763 424.401
36 1 52.1427 19.7151 1028 101.785 440.042 452.629
37 0 50.1222 15.7216 788 109.373 440.207 452.671
38 0 54.0994 16.8024 909 106.206 440.53 455.173
39 0 61.1388 16.7324 1023 103.203 439.672 461.421
40 0 57.1539 12.3701 707 110.986 439.993 460.638
41 0 61.0922 14.65 895 109.107 439.826 464.004
42 0 59.0735 13.0177 769 110.588 439.853 463.534
43 0 65.188 16.8743 1100 106.557 440.176 460.086
44 0 67.0963 14.1737 951 114.789 437.947 461.717
45 0 69.2409 15.0778 1044 121.016 437.759 463.589
46 0 74.1532 18.1112 1343 114.454 438.375 463.8
47 0 72.0806 17.6053 1269 119.986 436.814 460.611
48 0 77.1511 15.9298 1229 122.992 435.26 461.216
49 0 77.3577 15.3314 1186 121.218 435.917 461.03
50 0 82.2623 17.1889 1414 120.616 434.278 459.785
51 0 82.2623 17.2132 1416 141.959 433.273 459.888
52 0 88.086 19.4923 1717 116.656 432.684 454.811
53 0 91.1867 16.4388 1499 121.985 432.488 452.078
54 1 49.0567 12.72 624 126.101 430.726 471.779
55 0 50.1111 12.0133 602 125.738 431.407 473.045
56 0 54.1297 14.1512 766 122.111 431.828 471.144
57 0 56.1198 14.5938 819 121.978 430.309 468.137
58 0 58.2334 13.4631 784 123.541 430.052 466.866
59 0 59.2283 12.6966 752 126.059 431.628 464.291
60 0 63.1678 14.7544 932 121.662 430.423 460.974
61 0 68.2063 15.6877 1070 116.483 429.482 463.14
62 0 67.104 16.2881 1093 117.03 429.841 461.145
63 0 69.2322 13.1442 910 124.433 430.42 454.815
64 0 74.2896 14.255 1059 122.082 429.862 452.709
65 0 77.4027 13.6817 1059 123.581 431.229 449.261
66 0 80.0805 19.6552 1574 110.4 430.58 456.3
67 0 82.1072 12.9343 1062 123.586 431.528 447.439
68 1 43.0577 9.35952 403 123.248 431.449 467.469
69 0 44.0525 12.0538 531 117.757 430.75 467.098
70 0 46.1155 13.5746 626 116.885 431.527 463.396
71 0 46.1544 15.9898 738 114.984 433.131 461.194
72 0 45.0469 9.47901 427 126.002 433.468 464.632
73 0 49.1092 14.6816 721 115.621 434.089 464.954
74 0 48.1229 11.8239 569 124.118 434.601 461.023
75 0 51.2853 12.8302 658 122.497 435.26 461.96
76 0 51.0297 11.5031 587 124.509 434.896 459.818
77 0 54.1048 11.8104 639 122.911 435.828 461.684
78 0 57.1657 13.6096 778 119.688 436.748 462.058
79 0 59.1571 13.4726 797 119.562 438.163 463.62
80 0 61.0582 13.5445 827 120.547 438.519 460.705
81 0 63.0814 17.9768 1134 112.253 439.188 463.3
82 0 65.1633 15.0084 978 118.854 438.254 461.482
83 0 67.2066 16.427 1104 116.564 438.549 459.785
84 0 70.2555 14.3192 1006 121.119 438.732 459.327
85 0 72.3029 14.8127 1071 120.717 438.844 457.292
86 0 75.1201 15.5884 1171 118.12 437.952 458.973
87 0 77.219 14.9575 1155 119.746 437.838 459.344
88 0 81.1457 15.429 1252 117.598 437.958 462.21
89 0 84.5197 13.1567 1112 121.035 437.665 462.653
90 1 47.1782 10.4921 495 122.315 436.453 477.642
91 0 48.0698 11.7537 565 120.628 436.211 478.908
92 0 48.0896 12.7263 612 119.134 435.454 479.448
93 0 52.0953 14.5694 759 116.09 434.902 476.302
94 0 53.0914 14.5786 774 116.806 434 475.758
95 0 52.0818 12.6532 659 123.134 432.602 474.646
96 0 55.3825 12.0796 669 123.271 433.016 472.155
97 0 58.1293 13.4528 782 119.478 432.375 474.087
98 0 60.1226 13.7552 827 119.832 431.279 470.116
99 0 60.166 13.4627 810 121.162 430.762 467.284
100 0 64.1624 15.1335 971 115.646 429.62 469.873
101 0 64.1141 13.2732 851 122.388 428.792 465.282
102 0 70.2203 14.1412 993 118.118 427.74 462.373
103 0 72.2207 12.7526 921 120.706 428.785 460.113
104 0 75.4731 13.2763 1002 117.552 428.278 465.463
105 0 77.2208 15.4751 1195 116.3 428.677 457.815
106 0 76.3229 11.9361 911 122.909 429.194 451.924
107 0 82.235 15.4557 1271 116.341 429.384 452.884
108 0 87.4168 16.5986 1451 112.738 429.859 454.218
109 0 86.6609 14.8741 1289 117.431 429.693 444.893
110 1 45.1664 9.78604 442 124.204 429.989 464.81
111 0 51.1061 15.4385 789 112.578 430.569 464.479
112 0 52.1322 13.0438 680 117.31 431.925 463.24
113 0 48.1669 11.7093 564 121.986 432.296 462.44
114 0 55.1252 15.6916 865 112.505 432.857 462.113
115 0 55.0988 14.0656 775 116.533 433.591 460.64
116 0 57.1497 16.868 964 112.291 433.718 459.162
117 0 57.117 13.5686 775 118.409 434.585 460.089
118 0 58.3215 13.2198 771 119.093 435.004 458.385
119 0 63.2179 14.8534 939 115.602 435.147 455.78
120 0 63.3311 15.9953 1013 114.548 436.04 457.205
121 0 63.3326 15.616 989 116.094 437.316 454.557
122 0 66.3788 11.2687 748 122.69 438.082 456.825
123 0 69.1895 16.3175 1129 114.238 438.422 457.252
124 0 70.4005 14.6732 1033 117.75 438.398 454.194
125 0 74.3443 14.2311 1058 117.982 438.44 455.117
126 0 75.4768 15.1702 1145 117.186 438.369 453.598
127 0 75.4583 16.5919 1252 116.526 437.506 454.372
128 0 78.3402 15.5603 1219 119.001 438.562 454.74
129 0 81.4233 19.3433 1575 112.156 437.583 458.129
130 0 81.3828 14.5485 1184 122.104 436.97 455.72
131 0 87.2158 15.3527 1339 119.532 436.714 456.526
132 0 87.5162 17.6996 1549 116.224 436.976 455.577
133 0 89.2442 15.9002 1419 120.459 435.771 452.737
134 0 92.2638 14.4043 1329 123.646 434.662 454.136
135 0 97.6315 16.972 1657 118.049 434.984 453.944
136 0 103.442 16.0864 1664 118.948 433.392 453.718
137 0 104.356 14.6709 1531 123.783 434.547 450.118
138 0 108.296 14.6081 1582 123.814 433.092 454.023
139 0 111.405 12.7822 1424 127.693 432.814 448.705
140 0 117.422 14.5288 1706 124.172 431.544 447.574
141 1 67.1346 12.9888 872 123.055 430.164 470.539
142 0 67.2783 13.1395 884 125.508 429.697 465.889
143 0 69.077 15.0846 1042 122.993 429.188 463.119
144 0 71.2018 12.6542 901 124.532 428.215 465.969
145 0 75.1172 13.4989 1014 125.716 426.803 458.745
146 0 78.086 14.4968 1132 123.415 427.36 457.765
147 0 81.274 12.4148 1009 127.729 427.731 455.949
148 0 80.339 15.6213 1255 122.761 428.027 456.322
149 0 81.0985 11.4429 928 132.867 427.61 455.639
150 0 85.1184 11.5251 981 134.254 427.513 451.759
151 0 87.1759 12.9738 1131 130.904 427.812 451.263
152 0 92.1883 14.6548 1351 126.15 428.485 447.383
153 0 96.1574 14.6531 1409 126.227 428.167 444.3
154 0 101.1 14.6687 1483 125.815 428.308 443.406
155 1 65.1307 15.1542 987 123.376 429.437 457.196
156 0 65.1758 10.4794 683 131.906 431.019 460.029
157 0 68.1008 14.8456 1011 125.361 430.68 454.434
158 0 70.1669 15.0071 1053 124.692 432.198 453.726
159 0 75.2196 15.6608 1178 121.731 432.314 453.892
160 0 75.3396 15.5695 1173 122.893 432.778 453.867
161 0 76.1607 17.3843 1324 120.125 434.024 453.626
162 0 82.2786 17.7932 1464 119.115 433.691 450.193
163 0 83.1023 14.8853 1237 125.186 435.053 448.241
164 0 86.2312 15.3889 1327 124.179 435.567 448.818
165 0 87.154 15.5357 1354 125.2 435.961 444.589
166 0 91.12 15.8802 1447 122.289 436.382 448.01
167 0 92.1555 15.2568 1406 124.605 436.573 444.846
168 0 97.1302 17.8832 1737 118.842 436.744 447.212
169 1 163.363 13.4425 2196 126.607 437.385 421.23
170 1 102.285 16.8745 1726 121.532 436.979 443.9
171 0 106.426 17.5708 1870 119.124 436.563 448.059
172 1 60.0681 13.0519 784 125.335 436.746 471.777
173 0 61.1673 14.6483 896 123.462 435.779 470.348
174 0 62.0695 14.8221 920 126.688 436.158 466.909
175 0 63.1717 13.4237 848 129.116 435.818 467.205
176 0 69.3279 16.2128 1124 121.456 434.907 466.41
177 0 70.2674 15.996 1124 121.805 435.26 467.588
178 0 72.1954 13.5327 977 126.866 433.826 467.34
179 0 75.1155 15.0701 1132 124.233 433.311 464.603
180 0 74.1395 14.4727 1073 127.07 432.293 463.566
181 0 79.1921 14.951 1184 125.199 431.943 465.617
182 0 80.32 17.7291 1424 121.624 431.15 462.989
183 0 85.1795 16.6237 1416 122.812 430.186 463.317
184 0 84.2 16.1995 1364 124.941 429.413 458.466
185 0 88.3629 14.8479 1312 127.56 428.764 455.862
186 0 87.4145 13.9107 1216 129.426 428.521 455.337
187 0 96.2659 17.2024 1656 119.856 427.03 455.998
188 0 96.496 18.1044 1747 118.244 427.355 455.208
189 0 100.446 16.2277 1630 122.756 427.05 448.175
190 0 103.205 17.0244 1757 120.935 426.968 444.92
191 0 105.247 15.915 1675 124.966 426.908 446.3
192 0 108.129 16.8779 1825 124.018 427.48 441.041
193 1 60.1374 13.0368 784 124.823 426.899 467.764
194 0 61.2065 13.577 831 126.377 427.201 461.537
195 0 64.2156 16.2733 1045 120.943 427.071 457.682
196 0 67.1026 11.0875 744 128.905 427.075 457.733
197 0 65.1538 11.5726 754 130.509 427.236 452.276
198 0 71.1529 11.4542 815 128.294 427.92 455.64
199 0 74.2748 16.1024 1196 120.88 429.313 450.125
200 0 75.1989 16.0109 1204 145.395 431.273 450.147
201 0 78.303 14.2651 1117 123.784 429.856 447.014
202 0 79.2013 14.3306 1135 125.131 429.768 446.248
203 0 83.4031 17.5533 1464 118.893 432.339 447.574
204 0 86.3107 14.6679 1266 123.978 432.084 444.15
205 0 88.3266 13.6652 1207 124.015 432.524 444.469
206 0 88.3266 13.6765 1208 145.837 433.526 444.675
207 0 94.2318 13.3713 1260 125.719 434.286 443.071
208 0 99.2451 13.2802 1318 124.102 435.059 446.174
209 1 58.1611 11.7261 682 119.496 435.77 466.025
210 0 54.2198 12.2464 664 120.703 434.628 460.902
211 0 53.5871 11.9618 641 121.58 436.09 463.633
212 0 57.2977 14.765 846 117.208 436.082 460.817
213 0 58.215 13.0379 759 121.498 435.723 462.81
214 0 61.2638 12.8787 789 120.037 436.764 465.973
215 0 62.3082 14.99 934 115.233 436.746 470.411
216 0 64.3066 13.6222 876 118.285 436.051 467.594
217 0 66.3194 12.2287 811 120.766 435.619 469.088
218 0 68.2585 13.8444 945 119.875 435.239 464.002
219 0 69.4663 11.9482 830 125.578 434.677 462.353
220 0 74.4837 14.4595 1077 119.06 432.734 462.498
221 0 75.3383 12.9018 972 123.443 432.955 462.433
222 0 80.5311 16.3043 1313 116.925 432.35 464.321
223 0 79.5362 14.0942 1121 122.962 430.63 460.534
224 0 84.2635 13.9444 1175 122.027 429.752 459.873
225 0 89.3787 13.5267 1209 120.681 428.446 461.853
226 0 88.3713 13.2962 1175 123.411 428.154 456.645
227 0 92.4444 12.5264 1158 124.303 426.843 455.31
228 0 96.3553 12.1322 1169 122.983 426.719 454.885
229 0 98.3687 14.3643 1413 120.837 426.244 452.58
230 1 52.1064 11.8987 620 120.398 426.089 476.866
231 0 55.3375 12.3967 686 119.809 425.449 471.848
232 0 58.0933 13.771 800 116.08 425.03 476.358
233 0 57.1535 12.4052 709 118.848 424.819 471.891
234 0 59.2448 13.537 802 117.206 424.266 469.884
235 0 61.2184 11.9735 733 118.486 425.408 471.902
236 0 62.1913 15.2111 946 115.5 424.605 462.396
237 0 64.1639 14.1668 909 115.67 424.799 464.123
238 0 68.2022 13.416 915 117.076 424.38 462.749
239 0 67.1698 14.8728 999 115.623 425.04 463.28
240 0 71.1819 12.4048 883 120.007 426.75 456.926
241 0 74.2283 16.9477 1258 113.591 426.288 456.241
242 0 77.221 16.7571 1294 114.377 427.503 454.312
243 0 77.1304 11.7593 907 122.826 427.408 456.294
244 0 82.2555 14.7103 1210 116.8 427.524 455.829
245 0 85.2633 22.6475 1931 105.316 428.837 454.897
246 0 86.2861 13.8956 1199 120.757 429.227 448.182
247 0 86.3509 12.8198 1107 123.413 429.648 446.911
248 0 93.3163 15.6028 1456 119.977 429.858 445.632
249 1 48.1779 13.9691 673 118.18 430.4 466.639
250 0 49.0981 11.0799 544 122.204 431.101 468.186
251 0 51.0711 13.4322 686 120.308 432.057 463.338
252 0 54.1039 13.1783 713 119.285 432.496 464.105
253 0 56.1403 13.5375 760 118.568 433.799 466.584
254 0 57.1375 13.3713 764 119.698 433.7 465.196
255 0 58.0649 12.0038 697 122.587 433.382 464.912
256 0 61.2587 13.8592 849 119.171 433.723 466.188
257 0 61.134 11.8919 727 122.425 434.623 466.689
258 0 61.2253 11.8415 725 124.146 434.164 463.923
259 0 65.1705 13.1194 855 120.54 434.156 465.278
260 0 69.0907 13.7645 951 119.468 433.061 464.834
261 0 68.2136 14.22 970 120.449 433.433 463.026
262 0 70.1688 14.4794 1016 121.116 432.737 464.139
263 0 72.1706 13.1494 949 123.182 432.525 464.389
264 0 76.181 12.8641 980 122.277 433.241 467.334
265 0 78.1961 13.5557 1060 123.486 432.899 462.863
266 0 83.1313 14.0862 1171 120.911 431.429 462.185
267 0 84.2348 12.3939 1044 124.014 430.473 462.522
268 0 88.2185 14.1467 1248 122.107 429.467 455.314
269 0 91.2068 15.4813 1412 117.562 428.368 460.397
270 0 95.1344 13.5703 1291 121.823 427.555 456.191
271 0 98.353 17.8236 1753 114.319 427.957 455.973
272 1 51.1922 10.861 556 120.941 426.595 477.101
273 0 56.0506 12.2746 688 119.64 426.032 474.315
274 0 55.0436 12.808 705 117.25 425.874 474.166
275 0 59.2492 14.3293 849 116.133 425.857 467.239
276 0 59.0367 13.4662 795 118.283 423.745 467.888
277 0 63.1314 14.842 937 114.459 423.63 467.495
278 0 64.0722 13.9218 892 116.851 423.712 464.281
279 0 67.0332 15.1268 1014 115.693 424.732 461.437
280 0 66.0855 13.4069 886 119.453 424.594 459.753
281 0 69.116 12.9637 896 120.655 424.779 458.574
282 0 71.1669 13.2505 943 119.482 425.529 455.026
283 0 76.2954 13.2118 1008 118.101 425.812 455.992
284 0 78.1448 14.3452 1121 116.791 426.816 453.983
285 0 78.2 11.8286 925 121.691 426.174 451.325
286 0 82.0994 14.8113 1216 116.69 427.41 449.572
287 1 48.1069 12.0357 579 118.287 428.95 465.539
288 0 48.0423 12.6763 609 117.75 428.553 463.374
289 0 49.094 13.1992 648 116.498 430.585 464.102
290 0 51.0975 12.6033 644 117.887 430.804 462.234
291 0 54.0627 11.7641 636 117.731 430.392 463.374
292 0 55.1528 16.1188 889 111.693 431.01 463.949
293 0 55.0973 12.6322 696 120.697 432.214 460.394
294 0 54.0955 13.3468 722 119.726 433.14 459.251
295 0 58.0581 13.8137 802 116.55 434.474 462.057
296 0 59.0661 16.4561 972 106.429 434.379 468.235
297 0 59.2211 12.6138 747 118.321 436.19 461.244
298 0 61.1748 10.7888 660 119.789 435.806 462.756
299 0 65.23 12.8162 836 115.829 435.278 462.215
300 0 66.0754 11.7896 779 117.275 435.431 464.836
301 0 68.1534 12.1931 831 119.619 435.167 462.019
302 0 72.0345 12.258 883 118.804 434.635 464.689
303 0 76.2385 13.3135 1015 116.599 434.517 463.401
304 0 79.1344 14.1531 1120 117.231 434.805 460.758
305 0 78.1587 14.2658 1115 139.58 433.822 460.677
306 1 41.1835 11.9465 492 118.508 434.138 481.421
307 0 43.185 9.193 397 124.045 433.244 480.937
308 0 45.2038 13.3396 603 116.36 433.617 479.561
309 0 44.1005 11.179 493 122.523 432.039 478.856
310 0 49.197 14.7163 724 114.59 431.587 480.704
311 0 48.1098 14.1135 679 117.686 429.68 478.368
312 0 51.0893 12.7033 649 119.085 429.545 475.074
313 0 50.167 11.6411 584 119.49 429.404 477.988
314 0 50.167 11.6013 582 147.5 429.376 477.921
315 0 58.3363 14.0222 818 113.073 428.889 475.87
316 0 53.0837 12.3578 656 120.681 427.727 471.965
317 0 57.051 12.8131 731 118.9 426.918 471.152
318 0 60.1269 17.0306 1024 110.614 426.097 470.148
319 0 61.2417 15.3653 941 114.651 425.413 462.959
320 0 61.0984 15.0086 917 115.301 424.637 465.913
321 0 63.0821 14.0135 884 116.91 425.452 465.01
322 0 63.228 13.8546 876 118.34 425.716 462.067
323 0 67.1034 13.4121 900 118.834 425.031 458.947
324 0 70.2289 17.4857 1228 111.694 424.723 456.9
325 0 72.1528 15.3424 1107 114.867 425.557 456.131
326 0 75.1122 14.8444 1115 115.471 425.387 451.256
327 0 77.1309 16.5174 1274 113.068 426.526 445.486
328 0 80.1379 13.0151 1043 118.265 426.404 447.755
329 0 86.2951 10.7074 924 121.052 426.285 445.804
330 0 84.1872 19.124 1610 108.137 427.611 443.271
331 0 84.1506 12.644 1064 117.657 428.916 432.053
332 0 88.2414 11.1059 980 119.074 430.246 431.942
333 1 45.1344 10.1032 456 117.366 430.469 445.539
334 0 48.247 11.752 567 113.859 431.228 446.721
335 0 51.1042 10.7036 547 115.746 431.377 452.998
336 0 52.1953 14.5415 759 109.007 431.847 454.989
337 0 53.3219 18.6415 994 103.731 431.809 456.8
338 0 54.1659 13.4956 731 109.639 433.294 460.487
339 0 55.1449 12.9477 714 112.398 434.417 458.015
340 0 57.4062 11.8628 681 114.087 435.098 459.228
341 0 59.0691 14.2206 840 111.36 435.005 457.282
342 0 60.1054 11.9623 719 114.68 436.513 459.218
343 0 63.1885 14.2273 899 111.788 436.732 456.505
344 0 65.169 14.9304 973 110.169 436.891 459.856
345 0 69.0943 16.6873 1153 107.576 438.322 457.304
346 0 70.2398 14.1088 991 111.53 437.683 456.909
347 0 74.0357 15.8032 1170 110.524 436.752 457.858
348 0 74.0692 14.3244 1061 116.101 436.643 459.928
349 0 80.2057 18.8889 1515 106.908 436.884 462.748
350 0 81.1508 14.9968 1217 115.842 436.16 455.998
351 0 83.3942 15.097 1259 116.079 436.293 455.885
352 0 89.2163 11.87 1059 121.445 435.108 454.431
353 0 91.2501 15.3315 1399 114.502 434.442 458.442
354 0 90.2696 11.1776 1009 121.875 434.18 454.918
355 0 92.1676 12.1843 1123 119.718 432.489 458.248
356 1 104.167 15.4751 1612 114.991 432.54 451.472
357 1 55.1177 12.3917 683 116.028 432.095 470.908
358 0 56.1446 10.9182 613 118.71 432.16 471.25
359 0 56.0808 11.6974 656 116.489 429.726 469.599
360 0 59.0579 12.6655 748 114.159 430.357 470.896
361 0 60.0833 12.466 749 115.947 428.781 465.498
362 0 63.0819 13.4111 846 113.605 428.857 465.916
363 0 66.2165 11.4473 758 115.074 428.586 461.608
364 0 69.1906 11.6923 809 114.534 428.899 461.723
365 0 71.2927 11.586 826 116.169 428.745 457.11
366 0 77.2805 13.6904 1058 112.615 428.862 457.216
367 0 77.2805 13.6645 1056 137.955 428.876 457.4
368 1 40.1171 9.62182 386 116.311 428.163 468.821
369 0 49.2932 11.604 572 108.974 428.977 469.591
370 0 43.0533 9.8947 426 114.235 429.664 468.873
371 0 48.0182 11.6622 560 110.518 429.88 468.018
372 0 49.0372 13.5407 664 108.645 429.104 463.301
373 0 50.0576 12.2858 615 115.158 428.937 463.863
374 0 53.0718 12.7186 675 115.397 429.871 460.677
375 0 55.1825 13.8268 763 113.502 430.561 459.781
376 0 54.0462 12.0638 652 119.173 430.132 456.793
377 0 58.0608 11.6085 674 119.313 431.945 457.849
378 0 58.0893 10.1396 589 121.91 431.682 457.007
379 0 61.1592 14.3396 877 114.786 433.01 456.018
380 0 61.1477 10.7445 657 120.521 433.04 454.408
381 0 63.1528 13.6969 865 115.414 434.249 453.517
382 0 68.2127 12.3584 843 116.874 435.036 454.229
383 0 66.0786 14.1952 938 115.272 436.71 451.997
384 0 72.1393 15.4701 1116 111.118 435.789 456.335
385 0 70.1287 12.5626 881 119.351 435.88 450.234
386 0 75.0627 14.9209 1120 113.526 436.787 454.826
387 0 79.1964 17.3745 1376 110.9 437.448 449.907
388 0 77.2486 14.3692 1110 117.111 437.351 451.219
389 0 83.086 13.1912 1096 117.573 436.776 453.611
390 0 84.1073 16.0747 1352 111.947 436.748 457.854
391 1 45.1059 8.60198 388 120.222 436.302 474.515
392 0 47.1368 11.7955 556 114.167 435.876 475.757
393 0 49.1138 12.6441 621 113.443 435.681 475.159
394 0 50.2092 9.50025 477 114.509 436.616 469.6
395 0 51.1849 13.3242 682 109.636 435.15 468.434
396 0 50.0269 11.9336 597 114.832 433.975 476.318
397 0 52.0744 11.618 605 116.372 433.704 475.967
398 0 51.0839 10.6687 545 117.312 431.732 476.149
399 0 56.0685 13.8759 778 111.76 431.337 474.294
400 0 57.155 14.8368 848 109.827 431.883 474.626
401 0 58.2033 13.6762 796 112.775 431.02 474.619
402 0 57.0771 12.5795 718 116.145 430.007 470.465
403 0 59.1314 13.4108 793 113.934 429.836 471.228
404 0 60.1025 12.8946 775 115.905 428.973 468.174
405 0 65.1006 14.1166 919 112.632 428.553 467.225
406 0 69.2128 16.312 1129 108.046 427.349 465.465
407 0 69.1864 15.4077 1066 109.535 427.132 465.066
408 0 74.1329 18.4803 1370 104.214 426.817 460.701
409 0 76.131 17.7063 1348 105.999 427.665 455.229
410 0 78.1597 14.5855 1140 112.323 427.137 453.411
411 0 81.1203 12.7095 1031 115.493 426.895 453.314
412 0 83.1918 15.5063 1290 112.484 427.597 445.341
413 1 43.095 14.3172 617 109.579 427.528 467.807
414 0 44.1616 11.2768 498 114.347 427.743 466.709
415 0 47.034 10.7369 505 115.428 427.418 465.521
416 0 50.2307 13.4579 676 112.373 428.726 462.645
417 0 49.2052 12.0516 593 115.629 429.062 460.025
418 0 53.1218 14.7585 784 108.469 429.582 463.629
419 0 53.1646 14.4457 768 111.363 431.135 460.349
420 0 54.0591 11.7834 637 116.009 431.237 456.614
421 0 57.0884 15.6424 893 109.768 432.183 456.073
422 0 61.213 15.6339 957 108.629 432.85 453.328
423 0 60.1054 14.5245 873 110.497 433.624 452.623
424 0 63.1976 11.8675 750 113.528 434.107 457.543
425 0 66.1045 13.4484 889 111.24 435.514 455.538
426 0 68.4519 12.5197 857 113.623 436.854 452.686
427 0 69.3559 12.1547 843 113.893 438.304 453.588
428 0 71.2903 12.3018 877 114.513 438.507 454.62
429 0 73.2446 10.7448 787 116.399 439.245 454.522
430 0 78.3468 13.0829 1025 113.609 438.582 451.714
431 0 80.1406 13.0396 1045 113.253 438.364 450.011
432 1 47.1438 11.3907 537 112.16 437.801 469.16
433 0 47.1363 11.2228 529 110.25 438.384 473.259
434 0 47.2649 9.75354 461 115.254 437.761 470.098
435 0 49.2628 12.9104 636 111.148 437.203 473.972
436 0 52.2997 12.5813 658 112.195 437.614 474.114
437 0 51.265 13.2059 677 114.064 437.626 467.83
438 0 55.1956 10.1639 561 117.945 437.128 471.69
439 0 60.0792 12.9662 779 111.515 435.828 474.655
440 0 58.2332 8.12252 473 120.968 435.226 473.304
441 0 62.1947 14.937 929 108.577 433.822 473.178
442 0 64.1823 13.8512 889 111.514 433.78 466.61
443 0 65.3108 12.1419 793 115.41 433.716 469.42
444 0 68.2035 17.2865 1179 106.661 433.388 469.327
445 0 69.1585 14.4162 997 113.04 432.547 464.731
446 0 71.1645 12.8856 917 115.017 431.161 464.089
447 0 75.2155 14.4518 1087 112.903 431.047 462.1
448 0 77.1348 13.5218 1043 115.908 430.74 459.347
449 0 78.4154 12.8419 1007 117.497 430.759 458.825
450 0 81.4006 12.1129 986 120.012 430.404 452.499
451 0 85.3162 14.3115 1221 114.99 429.989 452.626
452 0 90.3695 13.9317 1259 116.019 429.885 451.083
453 0 93.2537 18.3371 1710 109.296 429.274 449.661
454 1 51.3403 11.005 565 116.163 429.26 468.503
455 0 53.3576 13.1565 702 110.969 428.095 467.943
456 0 53.115 14.6663 779 112.822 428.944 465.082
457 0 55.2019 13.5503 748 114.447 427.846 468.975
458 0 56.1496 12.3776 695 118.194 427.035 465.119
459 0 59.0972 15.2968 904 111.692 428.009 466.055
460 0 55.0643 12.5671 692 121.201 427.861 461.795
461 0 60.1449 13.135 790 118.472 428.749 459.437
462 0 60.0794 13.7818 828 116.87 430.804 460.675
463 0 59.0402 13.5501 800 117.826 431.622 461.491
464 0 62.0841 14.4804 899 115.123 432.632 463.596
465 0 66.0862 16.8265 1112 109.612 432.574 466.351
466 0 68.0472 15.9301 1084 114.658 432.864 459.622
467 0 69.0894 14.9372 1032 116.157 431.856 459.339
468 0 70.4275 12.2395 862 121.294 433.338 458.142
469 0 77.2855 13.7024 1059 116.544 434.289 457.966
470 0 77.0856 11.5586 891 121.361 434.468 456.375
471 0 80.1372 16.0225 1284 114.238 435.614 453.114
472 0 82.2369 15.9782 1314 114.001 435.543 456.937
473 0 85.2299 11.6508 993 120.301 434.876 457.948
474 0 92.196 15.6189 1440 111.778 436.525 459.758
475 0 92.2904 13.3275 1230 115.671 435.613 462.849
476 0 96.3461 15.5481 1498 112.737 435.283 459.831
477 0 99.1567 13.9577 1384 114.043 434.942 460.843
478 0 99.1197 14.7095 1458 113.458 434.32 461.949
479 0 103.235 12.1761 1257 119.247 434.035 455.565
480 1 60.2308 14.4943 873 112.616 433.092 479.371
481 0 61.1342 13.1023 801 113.623 431.916 479.69
482 0 61.1342 13.1187 802 145.02 430.911 479.915
483 0 63.3645 11.1103 704 112.365 428.993 480.973
484 0 64.254 13.5244 869 111.464 428.353 475.191
485 0 64.3333 9.01555 580 117.797 426.034 477.005
486 0 69.2262 12.1052 838 112 427.7 472.379
487 0 69.3463 12.9784 900 114.367 426.843 474.226
488 0 76.3076 12.8952 984 113.908 426.356 470.747
489 0 77.2736 12.7987 989 115.431 425.144 468.005
490 0 79.3361 13.8651 1100 112.414 425.835 465.728
491 0 82.3563 11.8388 975 115.815 425.153 462.636
492 0 85.5271 11.9377 1021 115.559 423.963 458.675
493 0 89.366 14.2336 1272 111.054 423.706 459.176
494 0 92.4066 14.934 1380 110.433 423.883 455.459
495 0 95.2873 14.3356 1366 109.614 424.323 457.675
496 0 98.4513 15.0328 1480 108.679 423.445 451.287
497 0 100.336 11.5113 1155 113.719 422.661 448.607
498 1 51.2377 14.6181 749 100.471 422.111 477.98
499 0 51.0841 13.7029 700 104.387 422.763 473.566
500 0 53.2698 16.4821 878 100.943 422.286 471.278
501 0 52.1829 8.94929 467 112.107 422.625 469.355
502 0 53.0885 12.3567 656 105.851 423.082 469.771
503 0 56.3356 14.2894 805 103.421 424.516 461.538
504 0 57.107 13.8337 790 104.181 425.739 465.406
505 0 59.1299 11.4155 675 106.684 426.532 464.068
506 0 61.0571 14.0361 857 104.258 426.76 461.581
507 0 61.141 9.97694 610 108.12 427.325 464.034
508 0 63.1087 12.2963 776 107.273 428.642 454.905
509 0 66.0808 9.68512 640 110.228 429.82 453.925
510 0 68.1958 9.88331 674 109.773 429.487 454.03
511 0 71.2127 12.0625 859 107.526 431.035 454.305
512 0 73.4707 12.9848 954 106.453 431.736 451.886
513 0 74.1564 13.2827 985 106.053 432.969 451.963
514 0 75.1162 11.6087 872 107.36 433.737 456.203
515 0 82.7413 12.9077 1068 105.221 433.186 449.162
516 0 84.4626 12.0527 1018 105.72 433.445 449.994
517 0 86.325 12.4877 1078 105.306 434.606 445.609
518 0 89.4641 11.9825 1072 105.729 433.762 452.325
519 0 92.2721 13.7636 1270 104.131 432.706 448.158
520 0 93.2508 10.4128 971 106.8 434.023 456.271
521 1 51.3355 12.993 667 102.376 432.544 471.96
522 0 55.115 9.52554 525 107.147 431.109 475.69
523 0 55.1078 12.1943 672 105.156 431.179 474.75
524 0 59.3092 11.6002 688 104.512 431.097 478.843
525 0 62.2657 14.1651 882 101.108 429.868 474.058
526 0 63.7352 14.3249 913 99.3899 430.163 479.827
527 0 64.1604 13.248 850 100.019 428.572 480.404
528 0 65.3429 9.90161 647 106.646 427.552 473.161
529 0 72.46 12.7519 924 102.252 426.939 475.047
530 1 131.913 14.737 1944 102.046 426.391 441.356
531 1 72.2861 12.4367 899 104.857 425.399 468.307
532 0 72.4269 13.6551 989 103.901 424.57 466.443
533 0 77.5973 12.9128 1002 103.291 425.104 468.254
534 0 80.4031 12.997 1045 105.215 424.75 462.79
535 0 81.7479 20.0005 1635 95.4122 423.8 466.808
536 0 85.5143 16.3832 1401 100.919 422.899 454.565
537 0 86.5175 11.5584 1000 108.761 422.7 452.248
538 0 90.4765 15.5068 1403 103.1 422.876 453.302
539 0 93.5374 15.1169 1414 104.253 423.784 453.464
540 0 95.3737 15.0356 1434 103.199 422.919 454.172
541 0 97.4578 12.1591 1185 110.219 423.802 444.643
542 0 100.592 15.697 1579 105.243 423.928 443.803
543 0 104.377 13.7004 1430 107.867 424.734 441.226
544 1 59.271 11.2534 667 102.858 424.34 467.543
545 0 59.5399 15.7709 939 97.7519 425.515 461.335
546 0 62.3837 12.0544 752 105.637 424.871 458.58
547 0 62.5325 12.0257 752 111.543 426.081 462.195
548 0 64.272 11.109 714 111.172 425.538 465.434
549 0 68.4266 15.5641 1065 104.201 427.038 461.075
550 0 68.1887 12.7734 871 109.811 427.169 460.874
551 0 72.2468 13.5923 982 108.525 427.041 457.456
552 0 72.3932 13.7858 998 107.678 427.992 458.449
553 0 72.2364 11.6285 840 111.235 428.617 457.444
554 0 74.5085 14.0521 1047 106.581 429.5 459.097
555 0 79.2538 11.3307 898 112.247 430.899 452.749
556 1 152.639 13.7776 2103 112.205 431.334 419.148
557 1 86.2436 11.0153 950 110.756 433.108 452.328
558 0 87.539 12.3945 1085 109.853 433.184 450.659
559 0 94.3884 14.8535 1402 106.135 433.225 450.078
560 0 91.34 13.8274 1263 108.561 433.398 448.331
561 0 97.5687 13.4674 1314 108.928 432.601 452.349
562 0 99.3918 15.6552 1556 107.116 432.916 448.731
563 0 102.496 12.4882 1280 112.278 432.08 442.909
564 0 109.374 13.5498 1482 109.262 432.045 440.804
565 1 56.0951 10.2505 575 110.637 431.917 471.184
566 0 59.112 15.2253 900 104.657 431.049 472.138
567 0 60.0637 14.6844 882 105.839 428.739 479.229
568 0 59.097 11.625 687 112.052 429.789 477.662
569 0 62.2251 12.1494 756 112.66 429.485 474.702
570 0 65.1153 13.4684 877 109.68 428.171 475.676
571 0 63.1517 11.987 757 113.037 426.906 472.086
572 0 67.2488 13.9631 939 109.158 427.181 471.53
573 0 71.1814 13.6412 971 111.33 426.993 469.85
574 0 73.2245 13.4518 985 111.613 426.236 466.092
575 0 78.0963 15.276 1193 108.12 424.806 466.557
576 0 78.0963 15.1992 1187 133.57 423.757 466.475
577 0 81.2754 14.6785 1193 110.714 425.311 462.595
578 0 84.2227 14.4023 1213 109.506 424.018 462.346
579 0 89.1922 14.6537 1307 108.678 424.8 462.6
580 1 43.1611 10.1944 440 110.618 421.318 480.711
581 0 44.1469 11.7562 519 109.834 423.329 476.803
582 0 48.276 14.5207 701 106.227 422.937 477.058
583 0 49.5766 10.0451 498 112.494 423.289 471.671
584 0 49.4029 10.7281 530 112.423 422.755 471.749
585 0 51.3777 11.4252 587 112.055 422.825 472.53
586 0 54.4153 14.8488 808 108.973 424.152 468.496
587 0 55.3824 11.6102 643 113.939 425.215 468.9
588 0 55.2517 12.2892 679 114.149 425.66 465.526
589 0 58.2515 12.4975 728 112.36 424.405 465.595
590 0 61.2182 14.4401 884 109.181 425.207 462.646
591 0 62.2861 10.3875 647 114.484 426.348 462.515
592 0 65.1743 13.5483 883 112.289 427.546 459.67
593 0 67.3233 12.7148 856 114.199 427.741 456.194
594 0 70.1154 13.2496 929 112.075 429.081 461.183
595 0 68.2116 11.2444 767 117.141 429.163 456.437
596 0 72.3058 13.0418 943 115.635 429.734 454.104
597 0 76.3126 15.62 1192 109.712 430.356 458.979
598 0 79.2836 14.5049 1150 110.328 431.073 461.11
599 0 81.229 13.8374 1124 112.924 432.011 457.875
600 0 85.4382 13.975 1194 112.696 432.054 457.828
601 0 87.4581 11.8914 1040 117.343 432.746 451.981
602 0 86.4936 9.57297 828 118.944 432.309 451.353
603 0 91.1308 9.29433 847 118.375 432.915 459.962
604 0 93.3843 11.3509 1060 114.646 432.544 457.841
605 0 94.2673 10.1202 954 118.105 432.621 455.527
606 0 100.42 14.4991 1456 110.41 431.599 453.855
607 1 161.586 15.5768 2517 112.839 432.236 427.214
608 1 107.268 11.131 1194 115.143 431.374 456.926
609 1 57.1886 15.003 858 107.487 430.516 475.291
610 0 60.1258 12.4073 746 111.098 431.056 476.252
611 0 60.1491 13.0842 787 109.26 430.832 477.586
612 0 63.0556 13.1154 827 109.317 429.683 476.034
613 0 65.0845 11.6618 759 111.603 429.065 475.941
614 0 66.0493 9.99254 660 114.126 428.52 476.185
615 0 72.0943 13.9401 1005 107.785 426.797 473.154
616 0 73.1282 13.155 962 109.45 425.367 474.436
617 0 72.1892 9.89068 714 116.968 426.027 468.605
618 0 78.1401 14.3332 1120 108.607 425.436 465.509
619 0 81.4201 12.0363 980 110.896 424.756 468.499
620 0 83.2002 12.1514 1011 115.016 424.746 461.466
621 1 45.0879 11.6439 525 110.37 422.992 483.392
622 0 44.0266 8.881 391 116.616 424.159 482.604
623 0 47.0841 11.3202 533 113.919 422.227 478.049
624 0 50.2028 10.4974 527 114.121 422.309 475.002
625 0 51.0681 14.2946 730 110.337 422.284 475.684
626 0 53.1253 11.1058 590 117.097 421.997 469.947
627 0 56.1619 13.4255 754 111.382 422.885 473.278
628 0 56.0522 13.202 740 113.403 422.897 467.881
629 0 58.0746 11.4508 665 114.989 423.579 471.131
630 0 57.0263 10.8371 618 117.532 423.615 467.312
631 0 63.0847 12.8874 813 113.164 424.721 466.24
632 0 62.07 14.5964 906 111.172 424.991 467.958
633 0 63.0991 12.7736 806 115.819 426.81 462.226
634 0 65.1122 13.5459 882 114.797 426.672 461.239
635 0 66.1641 12.2574 811 117.566 427.614 460.708
636 0 69.1904 14.9154 1032 113.494 427.602 458.088
637 0 70.0679 13.2158 926 116.002 428.701 456.356
638 0 74.1678 14.2784 1059 114.764 428.694 452.708
639 0 77.157 16.11 1243 111.219 429.822 449.025
640 0 82.1022 12.6062 1035 115.663 429.769 455.642
641 0 83.3049 13.6126 1134 114.146 430.234 455.531
642 0 86.1446 11.7245 1010 115.166 431.522 459.079
643 0 89.0982 16.4313 1464 109.551 431.581 454.374
644 0 95.472 15.68 1497 108.947 432.717 454.38
645 0 94.4597 15.5834 1472 110.847 433.361 454.124
646 0 98.2392 13.6402 1340 114.369 432.325 446.742
647 1 51.2101 12.6928 650 111.526 432.942 468.712
648 0 51.2101 12.9467 663 131.106 433.94 468.922
649 0 58.1868 14.1269 822 107.227 431.54 468.271
650 0 59.2088 12.6502 749 111.983 430.864 471.801
651 0 62.2215 13.8859 864 110.742 431.336 472.583
652 0 63.1979 11.5827 732 114.398 432.02 470.712
653 0 62.1914 10.9018 678 116.841 430.602 474.839
654 0 65.0903 11.6607 759 115.593 430.424 473.568
655 0 65.0903 11.7683 766 134.589 430.428 473.471
656 0 69.2843 12.2683 850 115.572 429.565 471.382
657 0 76.2505 17.9933 1372 106.05 427.824 468.241
658 0 79.1697 15.9404 1262 109.249 428.359 466.699
659 0 80.1999 11.4963 922 118.567 426.887 464.861
660 0 82.2644 12.4355 1023 117.364 426.613 467.062
661 0 85.1661 11.4952 979 118.89 426.302 466.661
662 1 45.1083 11.6608 526 113.897 426.148 485.652
663 0 47.1048 10.5509 497 115.805 425.74 482.213
664 0 45.0954 10.6219 479 119.783 425.526 479.161
665 0 49.1844 13.3376 656 113.166 424.355 477.384
666 0 50.2066 12.7672 641 114.281 424.746 478.242
667 0 53.1005 13.5592 720 113.843 424.206 476.825
668 0 54.0814 13.2948 719 114.164 424.758 479.132
669 0 56.0916 12.9253 725 115.67 424.248 475.193
670 0 55.2015 12.2098 674 118.131 424.65 473.685
671 0 59.1703 16.3257 966 108.697 425.001 474.514
672 0 61.069 11.8718 725 118.789 426.95 468.103
673 0 61.1867 12.8786 788 119.07 425.409 466.424
674 0 64.2584 13.399 861 118.803 426.652 464.398
675 0 66.2056 14.8779 985 116.004 426.146 464.319
676 0 67.2133 10.9502 736 124.429 426.876 460.796
677 0 70.2563 16.9238 1189 114.067 427.262 459.248
678 0 74.3224 15.648 1163 115.1 427.322 459.822
679 0 75.2129 15.157 1140 117.141 428.667 456.626
680 0 78.5606 16.0259 1259 115.93 430.363 455.185
681 0 82.3862 15.4516 1273 115.609 430.541 455.935
682 0 83.5146 15.0513 1257 117.22 430.308 453.159
683 0 85.9056 12.4905 1073 121.076 432.921 454.191
684 0 90.7186 13.3159 1208 118.756 431.795 449.872
685 1 48.5651 11.5103 559 116.462 433.179 472.32
686 0 49.3529 13.7986 681 110.665 432.789 475.777
687 0 52.2323 13.574 709 113.079 434.293 472.557
688 0 54.0856 18.4338 997 106.537 432.989 476.57
689 0 61.312 15.6087 957 107.826 432.132 478.73
690 0 56.0554 12.8266 719 115.268 431.53 475.616
691 0 58.0363 13.0263 756 116.19 432.167 474.823
692 0 60.041 12.9245 776 115.434 431.96 475.97
693 0 60.1015 14.4922 871 112.011 431.455 477.933
694 0 60.1015 14.5421 874 129.435 430.4 478.112
695 0 66.1162 11.4495 757 117.042 429.831 476.482
696 0 69.2918 13.8977 963 113.202 430.385 473.011
697 0 72.0666 13.4459 969 111.976 430.35 477.04
698 0 73.0633 13.7552 1005 114.314 429.136 470.788
699 0 75.2464 16.3463 1230 109.58 427.888 470.075
700 0 81.5423 14.0786 1148 110.837 426.94 471.932
701 0 80.0951 10.6623 854 118.701 426.165 468.438
702 0 81.0882 12.9489 1050 116.13 425.817 462.834
703 0 85.3177 12.7289 1086 115.887 425.013 464.488
704 0 88.2248 15.7212 1387 111.885 425.054 462.893
705 1 102.211 13.1884 1348 114.999 425.181 460.513
706 1 49.0885 15.2582 749 108.943 424.94 480.37
707 0 49.0887 11.469 563 115.611 425.474 476.709
708 0 51.0424 11.3827 581 116.005 426.115 478.855
709 0 53.1354 12.4964 664 114.971 425.441 480.429
710 0 56.2101 13.0759 735 114.985 425.027 478.592
711 0 55.2266 11.6248 642 120.12 425.732 474.026
712 0 57.1219 15.038 859 115.007 424.263 471.07
713 0 56.1756 11.4106 641 122.885 425.895 470.967
714 0 58.1481 12.193 709 119.896 425.542 471.697
715 0 62.1594 12.5806 782 119.547 426.262 469.073
716 0 67.6008 14.127 955 114.209 424.678 468.318
717 0 68.0904 14.0548 957 115.66 426.719 468.609
718 0 70.1327 10.4801 735 122.683 426.06 463.736
719 0 71.0632 12.6366 898 118.533 427.277 463.631
720 0 75.4766 13.6864 1033 115.566 426.106 463.051
721 0 71.2552 12.8412 915 119.993 426.667 459.955
722 0 72.2452 13.8002 997 153.518 428.834 458.748
723 0 78.227 13.9721 1093 116.094 428.586 459.124
724 0 78.227 13.9977 1095 149.451 428.582 459.015
725 0 85.2905 14.1985 1211 116.289 430.016 455.693
726 0 87.1836 13.0873 1141 116.678 431.059 460.975
727 1 48.1066 10.8093 520 115.427 430.44 476.487
728 0 48.0556 12.0277 578 115.178 430.704 476.088
729 0 52.1114 15.4669 806 109.555 432.98 473.302
730 0 53.1347 13.5693 721 116.352 433.793 472.709
731 0 53.1212 15.0599 800 112.294 433.781 475.612
732 0 55.1973 12.1383 670 118.931 434.327 474.034
733 0 57.1328 14.8251 847 113.753 433.528 473.143
734 0 61.2405 15.0391 921 113.62 433.148 472.643
735 0 61.1178 15.0202 918 114.34 433.419 474.082
736 0 60.1978 11.4788 691 119.344 431.612 475.224
737 0 60.3061 10.397 627 124.172 433.491 472.265
738 0 65.0864 11.6614 759 120.02 431.593 476.478
739 0 68.1384 15.9969 1090 114.218 432.558 470.431
740 0 71.238 13.1391 936 118.997 431.172 471.04
741 0 72.1126 13.1738 950 118.695 431.489 470.3
742 0 75.1225 14.2966 1074 117.578 429.616 468.876
743 0 80.4009 16.256 1307 111.884 427.989 467.293
744 0 80.2747 12.4323 998 119.225 428.008 467.409
745 0 79.1999 14.0909 1116 115.072 427.125 466.025
746 0 83.2826 14.4688 1205 115.711 426.851 463.368
747 0 87.452 14.3736 1257 115.067 426.049 462.023
748 1 164.443 12.9467 2129 121.1 425.697 416.832
749 1 90.2165 13.9775 1261 115.967 426.621 459.203
750 0 92.4044 11.5579 1068 120.034 425.634 455.031
751 0 95.3733 12.0788 1152 118.074 425.668 454.756
752 0 98.1613 11.6135 1140 118.146 426.296 456.405
753 1 54.0885 13.8292 748 114.269 424.989 474.126
754 0 54.0885 13.8662 750 134.719 422.992 474.157
755 0 57.0453 13.463 768 113.935 424.421 472.52
756 0 56.1697 12.035 676 119.096 425.12 466.419
757 0 60.1076 12.6773 762 116.211 425.488 469.752
758 0 58.2019 10.7385 625 121.219 426.309 466.882
759 0 60.1744 12.4638 750 117.733 426.176 465.555
760 0 63.0203 13.6147 858 115.909 427.572 461.048
761 0 67.1365 13.4204 901 115.765 427.493 457.726
762 0 69.2305 15.9901 1107 109.816 429.093 458.351
763 0 73.2513 13.6789 1002 113.306 428.662 453.808
764 0 75.1041 14.9659 1124 111.876 430.323 452.925
765 0 78.1649 14.431 1128 113.91 431.315 452.843
766 0 82.2147 14.377 1182 114.193 431.537 450.986
767 0 82.1641 13.3513 1097 116.495 432.5 452.236
768 0 87.3071 15.5772 1360 113.074 433.266 447.635
769 0 87.2325 11.968 1044 119.441 433.622 451.229
770 1 44.1289 10.6053 468 122.528 433.329 470.964
771 0 48.0198 12.7031 610 117.895 433.61 472.748
772 0 49.4358 12.8854 637 119.841 433.378 470.603
773 0 51.1522 15.5223 794 114.356 432.798 472.38
774 0 49.0935 12.2827 603 122.575 433.629 473.242
775 0 55.1679 14.0118 773 116.788 434.128 475.04
776 0 56.1304 14.1456 794 116.37 434.392 476.259
777 0 57.1581 14.8535 849 116.522 433.419 477.164
778 0 60.3608 13.585 820 119.185 433.195 475.388
779 0 63.241 15.7493 996 114.846 432.691 474.859
780 0 61.1346 13.413 820 121.229 432.904 473.39
781 0 64.134 13.1288 842 121.582 431.432 475.817
782 0 70.1955 15.5566 1092 114.78 431.69 477.283
783 0 70.2173 14.4409 1014 118.584 432.675 475.438
784 0 71.2237 15.0652 1073 116.753 430.723 477.194
785 0 74.2447 15.1391 1124 118.415 430.565 473.369
786 0 78.1529 20.204 1579 109.346 430.192 472.596
787 0 78.1994 16.0231 1253 117.867 429.425 468.88
788 0 81.2001 16.0098 1300 117.058 429.38 471.169
789 0 83.2167 14.6004 1215 120.156 427.911 467.449
790 0 87.2086 16.8103 1466 116.065 429.131 466.78
791 0 89.1053 17.7655 1583 114.09 428.021 465.1
792 0 93.1291 14.7 1369 120.321 429.016 456.639
793 1 51.0478 13.4384 686 119.184 427.007 476.499
794 0 51.1265 13.4568 688 117.86 426.494 474.315
795 0 55.0731 14.6351 806 116.243 426.804 470.736
796 0 53.1039 12.2025 648 121.366 426.488 472.586
797 0 55.061 13.0582 719 116.94 426.469 474.282
798 0 55.0915 11.2903 622 119.987 425.005 472.593
799 0 57.1214 11.9395 682 119.946 424.249 469.094
800 0 61.1307 11.091 678 119.559 425.941 467.367
801 0 66.0604 14.7744 976 113.664 425.331 461.961
802 0 68.1157 16.6335 1133 110.444 426.232 460.762
803 0 67.1907 14.0496 944 115.553 427.407 458.227
804 0 73.1911 14.8105 1084 112.787 427.664 460.627
805 0 73.1406 13.8364 1012 117.262 428.12 454.777
806 0 75.225 13.7188 1032 118.234 428.791 453.332
807 0 80.1651 12.4493 998 119.852 429.89 454.115
808 0 80.1497 15.8828 1273 114.46 429.834 454.82
809 0 84.1633 14.8996 1254 117.357 430.514 448.346
810 0 87.1525 16.4883 1437 112.729 431.376 453.427
811 0 91.3198 14.9913 1369 116.283 432.838 444.457
812 0 95.3048 16.1062 1535 113.262 432.836 446.565
813 0 97.4901 12.9244 1260 118.47 433.04 446.258
814 1 50.1949 13.5671 681 117.372 432.369 469.9
815 0 52.1227 11.1468 581 120.806 433.472 469.379
816 0 54.2525 11.9073 646 120.18 432.878 469.46
817 0 57.3746 13.6994 786 118.598 433.98 468.42
818 0 56.1587 14.6015 820 117.256 433.5 469.721
819 0 58.0664 13.0885 760 120.634 434.166 469.792
820 0 59.1696 14.9232 883 118.438 434.009 470.837
821 0 61.1299 14.0848 861 119.901 433.288 468.976
822 0 64.2357 15.4276 991 117.501 433.23 469.758
823 0 66.1519 12.6225 835 122.642 433.29 469.747
824 0 66.3806 13.7239 911 121.412 432.123 468.595
825 0 70.2615 13.1651 925 122.412 431.676 467.475
826 0 72.3071 13.332 964 122.137 430.665 465.395
827 0 75.2466 13.7681 1036 121.143 431.556 466.987
828 0 76.3705 14.5606 1112 120.894 431.325 465.297
829 0 81.5414 14.9004 1215 119.756 430.229 462.643
830 0 83.1898 15.3384 1276 119.45 429.095 462.045
831 0 86.125 13.3759 1152 121.562 428.977 461.513
832 0 88.1783 14.981 1321 119.04 427.702 458.714
833 0 91.2823 11.7109 1069 122.748 427.008 460.018
834 0 94.1898 13.9081 1310 120.452 427.327 451.905
835 0 98.1868 13.7391 1349 121.274 427.158 454.288
836 1 54.1299 13.209 715 119.536 427.084 472.351
837 0 56.2009 14.893 837 115.683 427.264 469.485
838 0 56.1021 13.4933 757 120.004 427.535 470.384
839 0 58.1373 13.3821 778 119.378 427.707 468.21
840 0 61.152 15.2244 931 114.863 427.479 471.479
841 0 62.3957 15.2254 950 117.164 427.495 465.976
842 0 64.627 12.3787 800 121.279 426.866 466.352
843 0 67.2547 12.6385 850 120.327 428.049 464.319
844 0 68.1562 14.2173 969 118.099 428.114 461.498
845 0 73.326 13.7332 1007 118.339 428.188 460.269
846 0 75.3264 15.9041 1198 115.218 428.254 457.012
847 0 77.2922 13.4684 1041 120.824 429.22 450.962
848 0 79.4164 13.2718 1054 120.727 429.194 451.173
849 0 84.4372 16.8646 1424 113.36 430.528 452.017
850 0 84.2812 13.1702 1110 118.675 430.492 451.298
851 1 43.1063 10.8105 466 122.335 430.554 469.712
852 0 46.1214 14.8304 684 115.936 430.098 469.654
853 0 44.2679 11.069 490 124.014 431.343 468.806
854 0 48.0723 13.3133 640 119.998 431.164 468.025
855 0 49.1944 13.5585 667 119.313 432.105 468.625
856 0 50.1504 12.3229 618 120.773 432.524 470.697
857 0 52.1514 13.7484 717 118.805 433.9 467.378
858 0 56.2866 15.2434 858 114.221 432.653 471.297
859 0 56.1305 14.3594 806 117.124 433.937 468.77
860 0 58.073 14.7056 854 115.568 434.526 470.573
861 0 59.1272 13.6316 806 118.829 434.703 468.525
862 0 63.1748 14.9743 946 115.685 433.957 467.251
863 0 67.2584 16.5184 1111 111.722 434.893 470.181
864 0 65.2753 14.4005 940 117.587 434.18 467.823
865 0 68.191 13.7702 939 117.678 434.011 467.983
866 0 71.2386 20.1015 1432 107.889 433.879 467.091
867 0 73.1868 15.0847 1104 114.639 433.407 468.766
868 1 40.0685 11.9046 477 116.285 430.738 483.507
869 0 39.0111 13.3295 520 115.269 432.006 486.975
870 0 41.1176 11.9657 492 118.006 431.815 482.205
871 0 44.233 14.1297 625 111.834 431.718 481.704
872 0 44.233 14.1071 624 133.279 431.7 481.699
873 0 45.0961 14.5911 658 113.22 428.116 480.605
874 0 47.0883 12.4872 588 114.709 427.951 485.306
875 0 47.0713 14.0425 661 115.569 427.679 479.159
876 0 47.0713 14.2125 669 138.235 427.686 479.142
877 0 51.0553 14.8662 759 113.789 426.908 476.469
878 0 53.1031 13.7657 731 115.669 426.153 476.176
879 0 53.0603 11.7037 621 119.082 427.234 475.158
880 0 56.08 12.3217 691 116.9 427.149 473.017
881 0 57.0675 16.3841 935 110.793 427.036 471.98
882 0 60.0391 11.4425 687 118.822 426.539 469.688
883 0 60.0504 14.2714 857 114.77 426.548 466.358
884 0 63.0871 12.8711 812 117.055 427.017 468.17
885 0 66.0732 13.0915 865 116.803 427.195 463.164
886 0 67.0448 10.933 733 119.422 426.435 462.774
887 0 70.1053 12.6524 887 117.036 427.829 460.433
888 0 74.16 12.2438 908 117.882 428.309 458.609
889 1 35.0383 11.9013 417 116.168 428.662 476.578
890 0 36.0565 9.62379 347 119.787 430.11 476.87
891 0 39.0786 13.7671 538 112.753 430.835 475.543
892 0 42.0491 13.4842 567 112.679 430.947 470.668
893 0 42.1554 12.5725 530 116.758 430.506 469.966
894 0 41.0842 11.4886 472 118.697 430.314 472.496
895 0 43.1605 10.3335 446 119.677 431.123 471.96
896 0 46.0764 14.5628 671 113.261 432.575 469.778
897 0 49.0634 13.1462 645 113.983 433.442 470.842
898 0 48.2329 11.0713 534 117.251 433.125 471.125
899 0 48.1827 12.0998 583 119.091 433.943 469.336
900 0 53.1688 11.3977 606 118.18 435.596 469.518
901 0 54.37 10.5757 575 117.043 435.943 476.24
902 0 54.204 12.4529 675 117.101 435.926 468.659
903 0 55.1603 13.1616 726 116.789 435.756 468.435
904 0 60.1345 13.1372 790 115.477 435.16 471.484
905 0 62.1337 13.3583 830 114.657 435.101 472.03
906 0 65.2916 16.3421 1067 110.152 436.573 472.061
907 0 68.2864 16.094 1099 110.451 435.021 471.9
908 0 68.1994 15.4254 1052 111.705 434.77 472.875
909 0 77.5829 16.2922 1264 107.686 434.688 474.328
910 0 75.2254 15.6729 1179 111.471 433.953 467.52
911 1 39.1434 11.9049 466 116.886 432.768 487.163
912 0 39.1434 12.0327 471 137.817 430.771 487.246
913 0 43.1673 12.2083 527 114.926 431.3 485.97
914 0 42.0912 13.542 570 114.812 430.884 486.156
915 0 44.0728 14.6803 647 113.025 429.955 484.304
916 0 47.0467 14.1349 665 112.904 429.367 483.964
917 0 48.0831 14.3293 689 112.782 428.733 479.959
918 0 49.1448 13.1245 645 115.313 428.371 479.983
919 0 49.0303 13.3591 655 116.203 426.988 478.047
920 0 52.0589 14.618 761 112.213 426.912 480.863
921 0 55.1408 17.7364 978 108.629 426.568 476.226
922 0 52.0484 14.8708 774 116.428 426.444 473.341
923 0 61.2201 14.5867 893 112.355 426.329 475.395
924 0 60.1456 15.7285 946 112.424 426.542 473.624
925 0 59.285 13.8821 823 115.962 426.655 471.64
926 0 62.1116 13.3792 831 118.117 427.111 468.563
927 0 65.0715 14.8145 964 115.26 426.746 466.188
928 0 67.2068 15.177 1020 113.692 427.531 466.024
929 0 69.0801 14.8523 1026 114.968 427.333 463.927
930 0 70.1065 14.8774 1043 115.97 427.362 460.716
931 0 73.2132 18.6032 1362 111.084 428.283 455.334
932 0 77.2715 18.6097 1438 109.926 429.958 455.152
933 0 78.3398 13.7989 1081 117.971 429.842 453.38
934 0 83.2517 17.357 1445 110.896 430.584 451.869
935 0 83.2987 13.8297 1152 117.423 431.46 451.105
936 1 46.0712 16.4528 758 112.03 430.769 470.243
937 0 43.1546 16.4061 708 114.551 431.67 473.294
938 0 44.0751 15.4055 679 118.795 431.95 469.13
939 0 46.0545 14.6348 674 119.923 432.774 467.763
940 0 47.2191 13.8715 655 121.582 433.502 469.754
941 0 49.1883 16.3047 802 115.784 433.685 469.67
942 0 49.1193 14.5157 713 121.331 433.899 468.92
943 0 54.0578 15.7794 853 118.836 434.777 469.007
944 0 55.2418 15.0973 834 119.721 435.512 469.085
945 0 57.2488 17.5025 1002 116.055 435.046 469.183
946 0 60.0746 16.1633 971 116.704 434.485 472.311
947 0 61.2212 15.0275 920 120.326 435.374 469.184
948 0 64.0956 18.332 1175 115.212 435.53 467.563
949 0 64.1611 14.3857 923 122.699 435.577 468.56
950 0 73.2062 12.9497 948 120.804 435.407 471.816
951 0 75.4623 20.6196 1556 108.735 434.641 469.303
952 1 33.0845 13.1784 436 123.727 433.929 486.289
953 0 35.2333 12.6869 447 127.447 433.953 486.262
954 0 35.1065 14.1284 496 126.216 433.567 485.895
955 0 39.5116 15.4132 609 118.742 433.553 488.209
956 0 40.062 16.5993 665 119.233 432.182 485.278
957 0 41.1349 17.236 709 120.543 432.678 483.028
958 0 40.1366 15.821 635 125.137 431.506 482.545
959 0 43.1956 15.0941 652 126.13 430.851 483.781
960 0 43.2606 14.2162 615 127.985 430.346 485.371
961 0 45.0759 17.881 806 122.36 429.548 482.313
962 0 49.0719 17.6068 864 121.044 430.134 479.454
963 0 50.0805 15.4152 772 126.111 427.972 479.528
964 0 51.0746 15.213 777 126.664 428.779 478.019
965 0 52.1224 18.3606 957 121.053 427.643 473.591
966 0 54.096 16.7295 905 123.133 427.299 475.472
967 0 55.095 15.9361 878 126.085 427.563 472.692
968 0 59.1636 18.339 1085 120.448 426.613 471.455
969 0 59.0507 15.021 887 127.947 426.737 469.683
970 0 62.0646 16.7567 1040 124.052 426.871 466.17
971 0 66.1832 23.0572 1526 112.965 426.926 462.218
972 0 68.1772 17.1025 1166 121.426 427.858 461.557
973 0 69.1263 17.6199 1218 121.311 427.915 462.231
974 1 34.2058 13.9158 476 131.555 427.952 476.126
975 0 34.1073 15.4513 527 127.313 427.378 474.509
976 0 34.0466 17.1529 584 128.558 428.613 473.95
977 0 38.1076 14.4853 552 129.937 429.899 473.663
978 0 40.0515 12.5838 504 131.879 430.349 474.208
979 0 38.1068 15.1679 578 133.09 430.621 470.038
980 0 39.0482 14.8022 578 129.957 431.656 470.149
981 0 42.1222 21.5801 909 117.633 431.201 471.32
982 0 43.1173 14.936 644 128.596 431.453 472.815
983 0 42.1687 15.6277 659 128.86 432.774 471.22
984 0 44.2256 18.7448 829 122.049 433.086 470.139
985 0 47.3052 16.3618 774 125.885 434.338 470.15
986 0 49.1647 15.9667 785 125.692 434.874 470.018
987 0 49.1683 19.0977 939 122.162 434.005 470.045
988 0 51.0756 14.6645 749 128.3 435.486 471.093
989 0 54.2256 17.1875 932 128.443 435.622 469.499
990 0 53.1091 16.5697 880 130.641 435.183 467.907
991 0 57.2328 16.5115 945 130.673 434.607 470.651
992 0 60.0944 17.6223 1059 124.906 435.093 472.884
993 0 62.1 18.5024 1149 123.258 434.598 470.896
994 0 64.1696 15.646 1004 130.926 434.102 470.445
995 0 63.0954 15.3419 968 130.727 433.66 472.158
996 0 72.2358 16.5707 1197 126.223 433.764 471.944
997 0 76.4244 17.3636 1327 122.619 432.87 470.319
998 0 75.102 18.1886 1366 124.731 432.448 467.403
999 0 74.1658 16.7463 1242 129.411 432.631 469.23
1000 0 81.0787 15.4295 1251 129.708 430.406 467.803
1001 0 84.1591 15.2093 1280 131.9 431.143 463.367
1002 0 91.1392 17.007 1550 126.715 429.974 462.043
1003 0 91.2547 15.1225 1380 130.454 429.836 458.312
1004 0 95.1703 18.1779 1730 125.487 429.482 458.883
1005 0 96.2527 16.4047 1579 129.317 429.027 454.867
1006 0 102.272 16.7103 1709 127.639 428.38 456.693
1007 0 103.19 15.8155 1632 130.066 428.231 452.974
1008 1 51.1318 15.6263 799 132.124 427.034 479.031
1009 0 52.1506 16.4907 860 129.907 426.912 477.793
1010 0 52.3583 14.5727 763 134.585 426.596 477.393
1011 0 54.1431 17.1213 927 129.978 427.726 477.88
1012 0 55.1875 15.8188 873 135.998 428.017 475.454
1013 0 56.1445 14.4271 810 140.051 427.28 474.233
1014 0 57.2045 14.4569 827 140.116 427.732 471.692
1015 0 59.2741 15.9935 948 138.332 427.192 468.92
1016 0 61.1466 16.534 1011 136.969 429.026 470.02
1017 0 63.1704 17.7931 1124 135.051 428.274 465.477
1018 0 65.2209 15.2252 993 139.903 428.84 466.211
1019 0 66.2769 16.7026 1107 138.624 429.427 463.171
1020 0 68.0542 17.6477 1201 137.395 429.655 460.582
1021 0 72.2146 18.6389 1346 133.088 430.578 459.103
1022 0 72.275 17.129 1238 140.011 431.168 457.859
1023 0 75.3036 19.5475 1472 133.756 431.285 459.985
1024 0 76.1426 16.2327 1236 141.156 431.485 456.279
1025 0 82.2126 22.2229 1827 126.849 433.286 455.996
1026 0 82.2643 13.2864 1093 145.962 433.066 455.367
1027 0 87.3055 16.1616 1411 138.085 434.352 454.219
1028 0 94.3009 19.2469 1815 130.22 434.786 447.556
1029 0 94.1496 15.9002 1497 138.877 435.15 447.443
1030 0 101.343 18.4226 1867 131.762 435.461 443.456
1031 0 104.392 15.9687 1667 137.613 435.13 446.18
1032 0 110.27 17.575 1938 133.297 435.062 440.978
1033 0 111.484 17.9309 1999 134.893 435.296 441.903
1034 0 121.381 18.4048 2234 130.872 435.196 434.039
1035 1 139.892 19.4651 2723 124.656 435.306 431.212
1036 1 195.874 30.1623 5908 99.5305 433.199 405.163
1037 1 238.798 10.2891 2457 131.092 434.675 424.031
1038 0 240.836 10.7085 2579 130.475 434.338 414.708
1039 0 240.759 13.2414 3188 125.566 434.153 423.184
1040 0 240.453 9.4738 2278 141.184 433.296 427.883
1041 0 246.664 18.1056 4466 115.337 433.329 402.664
1042 1 100.816 23.2998 2349 118.169 431.674 449.005
1043 0 100.371 24.1603 2425 118.863 431.018 448.526
1044 0 109.523 22.4702 2461 120.518 429.545 448.351
1045 0 119.785 21.5303 2579 119.26 429.974 445.532
1046 0 111.559 20.9396 2336 123.712 429.804 444.478
1047 0 203.663 12.6483 2576 146.638 429.52 402.463
1048 0 208.576 16.9003 3525 134.623 427.955 402.286
1049 0 214.524 14.6557 3144 139.893 427.759 400.013
1050 0 219.847 14.3645 3158 140.771 427.191 397.598
1051 1 182.493 10.5867 1932 147.895 427.392 421.232
1052 1 133.851 23.6606 3167 118.336 426.787 426.13
1053 0 134.769 22.1194 2981 121.901 426.927 425.963
1054 0 138.81 18.1255 2516 130.522 427.105 432.917
1055 0 137.662 18.7633 2583 130.859 426.818 430.255
1056 0 145.788 24.4739 3568 119.767 426.693 425.233
1057 1 218.562 16.7321 3657 135.875 427.634 396.872
1058 0 222.441 25.382 5646 120.405 427.213 377.452
1059 0 229.79 17.3767 3993 135.565 427.543 376.03
1060 0 231.174 15.2439 3524 139.325 428.282 368.271
1061 0 231.763 16.8448 3904 138.091 428.09 378.903
1062 1 260.533 24.3117 6334 121.136 427.741 361.802
1063 0 256.408 17.2888 4433 137.146 429.085 362.895
1064 1 168.895 20.2255 3416 135.204 429.759 403.028
1065 0 171.668 14.9591 2568 148.521 430.647 400.241
1066 0 176.692 13.5999 2403 153.692 430.662 398.039
1067 0 183.724 14.8484 2728 149.934 431.261 394.036
1068 0 187.579 15.6788 2941 147.208 432.852 387.615
1069 0 196.083 14.9681 2935 148.449 432.996 387.138
1070 0 198.879 13.4856 2682 151.928 433.685 385.913
1071 0 205 16.1073 3302 146.13 433.752 382.694
1072 0 209.102 17.7282 3707 142.732 433.682 385.316
1073 0 214.91 18.5706 3991 140.375 434.841 384.19
1074 0 216.924 14.7794 3206 150.317 436.063 384.06
1075 0 215.9 14.34 3096 150.318 437.051 382.041
1076 0 213.582 6.68128 1427 156.188 434.539 411.286
1077 0 215.72 5.16874 1115 159.673 435.038 413.702
1078 1 182.643 7.81854 1428 156.646 433.858 406.376
1079 0 187.689 11.5723 2172 149.076 434.655 406.092
1080 0 196.243 13.1724 2585 145.237 433.374 410.698
1081 0 198.813 12.796 2544 145.59 433.491 411.328
1082 0 204.716 14.63 2995 144.066 433.104 405.395
1083 0 208.505 12.9541 2701 150.14 433.116 400.134
1084 0 214.717 12.7284 2733 151.255 432.222 400.609
1085 1 98.2482 11.6949 1149 143.48 431.907 461.049
1086 0 99.1622 14.2292 1411 142.795 431.505 456.96
1087 0 99.1622 14.2695 1415 133.382 431.503 456.946
1088 0 97.2335 11.8478 1152 152.96 428.846 457.799
1089 0 97.2148 13.3725 1300 152.832 428.275 456.492
1090 1 236.907 15.8036 3744 154.288 428.17 386.528
1091 0 243.737 16.8009 4095 152.165 427.6 387.476
1092 0 248.853 14.4985 3608 159.215 427.202 382.311
1093 0 254.881 15.3523 3913 157.164 426.785 381.973
1094 0 257.848 15.5091 3999 158.874 425.861 374.896
1095 0 264.857 15.5933 4130 158.971 426.395 373.734
1096 0 269.985 14.6823 3964 161.398 425.592 372.305
1097 0 276.604 15.6614 4332 161.015 426.122 363.917
1098 0 276.604 15.5927 4313 147.444 427.123 363.797
1099 1 39.1195 10.4807 410 145.302 425.68 487.473
1100 0 41.278 11.047 456 146.377 425.395 485.287
1101 0 39.2367 11.8512 465 147.596 425.477 484.467
1102 0 36.2209 11.5403 418 149.797 425.634 483.754
1103 0 39.0665 12.6707 495 147.895 426.125 483.321
1104 1 254.473 16.544 4210 158.472 427.556 386.206
1105 0 257.833 17.8721 4608 156.433 426.625 384.025
1106 0 266.059 16.2934 4335 160.85 427.715 377.083
1107 0 268.803 17.1018 4597 160.135 427.538 382.355
1108 0 276.195 16.6259 4592 161.825 428.956 379.679
1109 0 276.204 16.6362 4595 159.537 430.962 379.93
1110 1 104.546 10.0912 1055 169.227 430.666 460.255
1111 0 111.752 25.1896 2815 93.7041 430.776 444.814
1112 0 105.544 14.4301 1523 113.722 432.454 462.179
1113 0 108.461 15.9873 1734 109.747 432.622 451.803
1114 0 102.366 24.1389 2471 98.9976 431.546 442.687
1115 0 106.232 18.1583 1929 108.284 432.586 443.366
1116 0 106.342 15.2714 1624 118.005 433.464 456.082
1117 0 104.91 13.4115 1407 124.05 433.031 453.203
1118 1 34.1903 13.2494 453 140.002 434.404 484.117
1119 0 35.2001 11.7613 414 144.935 433.785 483.391
1120 0 35.0505 13.5519 475 144.133 433.438 480.998
1121 0 36.0281 15.5156 559 140.17 433.422 480.746
1122 0 36.0692 12.6147 455 151.391 433.218 483.958
1123 0 38.0279 12.3067 468 152.043 432.767 485.297
1124 0 38.0372 13.5394 515 151.901 432.192 482.746
1125 0 40.0504 12.709 509 154.271 432.143 483.971
1126 0 40.0264 12.8915 516 157.281 432.581 484.419
1127 0 42.1708 14.4176 608 151.798 432.429 487.405
1128 0 44.1881 13.5331 598 156.505 430.963 485.962
1129 0 45.0893 13.684 617 156.086 430.736 486.559
1130 0 43.1315 14.3746 620 159.911 430.161 485.374
1131 0 46.2909 14.9057 690 155.891 429.565 488.187
1132 0 46.1602 14.2547 658 157.951 427.742 487.357
1133 0 47.1077 15.2204 717 158.862 427.781 484.052
1134 0 50.065 14.4812 725 159.554 426.462 483.763
1135 0 51.1236 14.0444 718 162.288 427.937 484.221
1136 0 53.2458 14.7242 784 158.939 426.838 483.258
1137 0 52.1027 13.9916 729 161.778 426.358 482.505
1138 0 51.0749 13.6858 699 164.441 425.19 482.187
1139 0 55.1103 15.1696 836 157.018 425.819 480.078
1140 0 57.1485 15.6785 896 153.551 425.232 477.59
1141 0 59.2662 13.8021 818 158.004 424.977 478.888
1142 0 56.2546 13.5456 762 164.777 424.171 475.333
1143 0 56.2546 13.5811 764 172.914 423.181 475.319
1144 0 60.1567 13.1324 790 163.189 424.405 471.956
1145 0 65.1581 15.2859 996 154.228 425.448 469.983
1146 0 67.1705 15.7063 1055 152.362 425.719 469.649
1147 0 69.1033 15.1223 1045 153.452 425.83 468.228
1148 0 71.3783 15.1166 1079 153.503 426.337 466.139
1149 0 73.2698 15.8046 1158 151.559 426.952 463.416
1150 0 76.1598 15.8483 1207 149.344 426.706 462.562
1151 0 79.1772 15.4464 1223 150.118 427.49 457.5
1152 1 45.0532 12.2078 550 151.945 429.298 476.884
1153 0 42.2551 10.129 428 160.981 429.273 476.269
1154 0 46.5055 14.2349 662 150.32 430.616 470.147
1155 0 47.287 13.7036 648 150.841 430.304 466.593
1156 0 49.052 14.3929 706 144.424 430.834 469.262
1157 0 49.0607 13.7585 675 146.003 431.92 467.641
1158 0 52.02 14.4368 751 141.45 431.336 467.882
1159 0 52.0213 14.0135 729 142.025 433.318 469.11
1160 0 55.1398 13.1303 724 143.644 432.738 467.006
1161 0 55.0599 14.3662 791 142.636 434.535 468.435
1162 0 57.2376 14.0292 803 141.436 433.158 466.868
1163 0 61.1934 13.4328 822 141.858 434.55 468.545
1164 0 64.18 14.4749 929 138.277 434.11 468.84
1165 0 68.4842 14.1493 969 138.895 434.63 467.146
1166 0 69.2488 13.8342 958 140.291 434.105 469.027
1167 0 72.3332 14.6267 1058 139.594 433.337 465.601
1168 0 75.3059 14.1556 1066 139.429 432.736 463.24
1169 0 75.3814 14.1414 1066 141.273 432.487 467.232
1170 0 78.2556 14.5932 1142 141.196 431.84 461.996
1171 0 83.2153 13.8316 1151 141.406 431.771 467.4
1172 1 43.1087 11.2738 486 134.685 430.093 485.778
1173 0 47.1414 13.4489 634 132.306 430.188 481.953
1174 0 47.098 12.5908 593 134.378 430.17 480.835
1175 0 51.0849 12.9197 660 133.12 428.745 478.891
1176 0 52.1074 12.5318 653 133.799 428.628 480.836
1177 0 54.04 13.2494 716 131.265 428.189 480.373
1178 0 55.0456 12.2989 677 135.736 427.253 477.093
1179 0 54.0276 12.4751 674 134.267 426.829 478.519
1180 0 54.041 11.8429 640 137.684 426.595 470.914
1181 0 60.1706 14.9242 898 128.084 425.926 472.143
1182 0 62.0539 14.004 869 131.204 425.326 469.892
1183 0 63.0629 13.2725 837 133.14 425.72 469.119
1184 0 66.0444 12.9761 857 133.926 425.812 465.791
1185 0 68.1636 13.0275 888 134.03 425.582 470.355
1186 0 71.1531 13.3937 953 133.341 425.066 465.865
1187 0 71.0981 13.39 952 144.05 425.044 465.711
1188 0 74.1493 9.10326 675 139.276 426.207 460.696
1189 1 41.0234 10.4331 428 127.32 425.636 476.593
1190 0 42.0814 10.6936 450 130.358 425.896 475.962
1191 0 43.1265 12.6604 546 124.416 427.808 475.068
1192 0 44.1105 10.315 455 125.626 428.437 471.673
1193 0 42.0605 9.65276 406 130.803 427.052 468.345
1194 0 45.1385 10.5896 478 128.619 428.289 469.544
1195 0 49.1315 12.8431 631 123.39 428.54 468.539
1196 0 48.1534 11.5257 555 126.573 430.449 466.822
1197 0 47.0335 9.86531 464 131.293 430.754 464.722
1198 0 53.0418 14.0267 744 121.798 430.94 464.832
1199 0 52.1133 13.9888 729 122.783 431.815 465.355
1200 0 52.0813 11.9813 624 128.252 431.609 462.128
1201 0 54.1065 11.0708 599 129.613 432.063 464.207
1202 0 55.2154 12.6233 697 126.887 432.575 462.937
1203 0 58.1756 14.5078 844 123.104 433.346 460.872
1204 0 61.1499 13.3279 815 124.357 434.083 461.567
1205 0 61.1318 12.3667 756 126.481 434.131 461.606
1206 0 66.2933 12.3693 820 125.727 434.373 463.917
1207 0 67.3233 12.7742 860 127.299 434.296 461.331
1208 1 35.0688 11.8909 417 120.859 433.904 481.53
1209 0 35.1282 10.3051 362 124.119 434.055 481.834
1210 0 37.0419 11.2035 415 121.455 434.229 482.002
1211 0 38.0902 13.0742 498 119.916 433.536 481.038
1212 0 38.1898 9.40042 359 126.292 433.958 481.83
1213 0 38.3697 10.0079 384 127.385 432.711 479.365
1214 0 44.1048 11.382 502 123.426 432.365 482.823
1215 0 44.3467 12.5376 556 122.64 431.853 481.82
1216 0 43.141 14.0006 604 120.306 429.763 481.861
1217 0 45.1392 11.9408 539 124.512 429.631 481.64
1218 0 46.0422 12.141 559 125.038 429.256 479.306
1219 0 46.0583 11.9631 551 119.924 429.241 479.39
1220 0 48.1087 13.033 627 124.155 427.048 475.581
1221 0 51.0447 11.343 579 126.154 426.216 477.63
1222 0 52.0347 10.5122 547 128.303 426.548 477.165
1223 0 50.1395 9.3539 469 132.859 425.74 471.868
1224 0 53.0869 11.0385 586 128.807 425.666 473.807
1225 0 57.0284 14.3788 820 121.998 426.015 472.627
1226 0 58.1858 11.8414 689 126.145 425.684 471.795
1227 0 61.1505 12.4284 760 124.737 425.216 470.368
1228 0 58.0746 11.3303 658 127.875 425.052 468.488
1229 0 56.0252 12.7978 717 126.918 425.211 467.047
1230 0 66.1964 13.1125 868 122.017 426.052 466.835
1231 0 69.2528 11.393 789 127.787 427.408 463.574
1232 0 74.2025 11.4147 847 128.026 427.183 460.727
1233 0 73.1135 15.3597 1123 123.386 428.787 456.42
1234 0 75.217 11.8723 893 128.831 427.882 453.899
1235 0 78.2793 10.8075 846 129.892 427.848 452.747
1236 0 79.2807 10.9611 869 132.934 427.837 453.432
1237 1 44.1392 9.58331 423 128.22 429.196 473.317
1238 0 47.135 12.4748 588 122.116 429.665 465.498
1239 0 47.1309 12.7305 600 121.563 430.328 466.308
1240 0 48.2016 14.7713 712 118.853 431.378 462.674
1241 0 50.0805 12.6396 633 122.547 432.169 466.916
1242 0 51.1021 11.4868 587 125.106 432.351 466.305
1243 0 54.069 14.0561 760 119.659 432.758 466.995
1244 0 53.2116 11.5952 617 125.321 433.224 465.716
1245 0 54.0917 12.5528 679 123.47 433.741 466.985
1246 0 57.2721 9.95249 570 127.205 435.072 467.165
1247 0 58.0702 10.6939 621 126.174 435.422 466.224
1248 0 60.1699 11.9163 717 123.547 435.205 468.826
1249 0 62.1225 16.8699 1048 116.364 434.434 467.173
1250 0 64.2052 14.7963 950 119.227 435.369 467.966
1251 0 64.2052 14.7029 944 119.426 436.368 467.954
1252 0 71.1256 13.2442 942 122.093 434.5 470.594
1253 0 71.0651 14.1279 1004 121.688 433.203 469.673
1254 0 71.0426 10.8245 769 128.04 433.023 469.464
1255 0 76.0563 13.0561 993 122.224 432.429 465.322
1256 0 80.0644 11.3534 909 125.737 431.51 466.249
1257 0 84.106 8.38228 705 131.448 430.58 469.762
1258 1 40.0703 7.93605 318 126.412 430.783 490.299
1259 0 43.1562 9.63941 416 122.925 430.519 490.284
1260 0 44.1173 16.3881 723 112.062 429.387 483.95
1261 0 44.0892 12.7242 561 120.426 428.308 486.46
1262 0 43.0256 6.74018 290 128.134 428.434 483.597
1263 0 46.022 12.9721 597 119.499 427.72 482.479
1264 0 47.085 10.4067 490 123.394 427.045 479.867
1265 0 51.0934 12.5261 640 119.592 425.512 479.967
1266 0 50.0674 10.2462 513 124.575 425.936 479.049
1267 0 53.0533 11.0455 586 120.877 426.292 481.648
1268 0 54.0241 17.6958 956 112.047 426.654 477.542
1269 0 55.2079 16.7911 927 113.47 425.487 476.266
1270 0 58.0996 12.5474 729 118.776 425.182 468.709
1271 0 57.0548 8.5006 485 124.998 426.037 468.961
1272 0 60.0969 10.8159 650 121.392 425.178 466.869
1273 0 62.0859 13.5135 839 119.405 425.328 465.11
1274 0 65.1918 11.6732 761 121.347 425.766 465.298
1275 0 63.2019 11.7243 741 121.737 426.854 464.356
1276 0 66.117 13.8088 913 119.447 426.922 460.517
1277 0 70.3524 10.9307 769 122.385 427.67 458.146
1278 0 73.3342 13.4589 987 117.587 428.054 460.024
1279 0 75.212 11.3014 850 122.016 428.627 454.339
1280 0 77.1737 12.5043 965 121.489 429.442 451.26
1281 0 82.2624 10.5273 866 123.544 430.328 455.132
1282 0 82.1932 8.45569 695 128.445 431.407 448.786
1283 1 40.2763 10.999 443 120.736 432.266 472.081
1284 0 40.0998 9.77561 392 123.806 432.52 470.64
1285 0 42.1353 13.0295 549 122.552 433.616 467.485
1286 0 45.1217 9.44113 426 125.293 433.65 473.479
1287 0 46.0444 15.0724 694 117.592 434.197 467.772
1288 0 47.0411 14.5405 684 98.0029 434.284 467.887
1289 0 51.112 9.93897 508 125.352 435.201 469.104
1290 0 51.0784 9.12324 466 128.3 435.532 471.672
1291 0 53.0525 12.629 670 122.224 435.266 467.973
1292 0 51.2277 7.78875 399 128.925 434.742 469.99
1293 0 55.0432 12.7718 703 122.358 434.774 467.491
1294 0 57.0408 11.9213 680 123.438 434.941 470.01
1295 0 56.1644 11.4129 641 126.334 434.005 469.593
1296 0 60.0506 11.3904 684 126.765 433.105 469.057
1297 0 65.0947 12.2283 796 124.438 433.369 468.783
1298 0 67.1112 12.442 835 124.138 433.459 470.109
1299 0 68.0975 13.3632 910 124.347 432.785 467.496
1300 0 70.1486 14.954 1049 124.621 432.042 470.016
1301 0 73.1489 12.8505 940 127.653 430.803 469.549
1302 1 40.0128 9.87184 395 131.048 429.866 486.263
1303 0 39.0745 8.36864 327 133.853 429.431 486.517
1304 0 40.087 8.35683 335 135.045 428.833 484.045
1305 0 43.0983 12.3439 532 128.152 427.609 484.355
1306 0 43.0625 9.96226 429 133.326 427.97 480.417
1307 0 45.0629 12.9597 584 128.921 427.533 479.94
1308 0 45.0629 13.0262 587 107.068 426.521 479.949
1309 0 49.0268 11.2388 551 135.789 425.365 476.515
1310 0 53.1309 15.6594 832 127.877 425.121 474.305
1311 0 53.0949 12.5248 665 133.958 424.844 475.976
1312 0 54.0512 10.9526 592 139.848 425.549 470.667
1313 0 58.0691 13.6906 795 134.089 424.733 469.547
1314 0 58.0691 13.6906 795 116.436 424.733 469.535
1315 0 62.1484 15.5112 964 130.858 425.423 465.321
1316 0 67.155 15.6355 1050 130.989 425.701 465.038
1317 0 68.0685 16.9682 1155 130.467 426.699 463.44
1318 0 69.0849 10.7983 746 141.338 426.552 461.617
1319 0 70.0853 13.4978 946 136.829 427.073 459.144
1320 0 77.1704 14.7855 1141 132.94 427.32 454.814
1321 0 79.1447 13.1279 1039 134.919 428.822 453.826
1322 1 40.0276 13.1909 528 132.121 428.566 474.191
1323 0 40.0369 10.3904 416 137.959 430.209 470.053
1324 0 41.2245 12.0559 497 134.652 429.698 473.901
1325 0 44.2155 12.3939 548 135.086 430.411 473.066
1326 0 43.0402 11.7332 505 136.111 431.257 471.507
1327 0 44.0299 11.0607 487 138.499 431.129 468.984
1328 0 47.0586 11.8151 556 136.667 431.826 469.665
1329 0 46.0312 9.53701 439 141.219 433.399 470.38
1330 0 51.0567 11.3403 579 137.632 432.653 470.867
1331 0 51.0567 11.2032 572 126.766 431.629 470.972
1332 0 54.0986 13.1242 710 134.613 432.875 470.172
1333 0 55.1081 12.4845 688 136.26 434.045 467.326
1334 0 56.1252 14.5033 814 133.362 433.168 470.174
1335 0 57.0806 12.9992 742 134.978 433.818 473.868
1336 0 61.0793 18.3204 1119 124.338 433.003 477.422
1337 0 64.1668 14.1195 906 133.221 433.134 472.501
1338 0 67.1675 17.7914 1195 127.541 432.833 471.319
1339 0 67.0771 13.313 893 136.111 432.516 472.533
1340 0 69.075 13.3768 924 137.824 431.509 471.992
1341 0 70.0639 13.7446 963 137.192 431.355 472.399
1342 0 72.1833 12.6345 912 140.23 430.238 466.865
1343 0 73.1358 10.2002 746 143.752 429.753 465.257
1344 0 76.1229 15.5669 1185 134.156 428.585 462.781
1345 0 78.1734 12.4979 977 139.526 428.625 465.742
1346 0 83.1064 15.1493 1259 133.611 426.782 465.303
1347 0 87.084 12.3674 1077 140.251 427.713 458.122
1348 1 46.062 9.27011 427 140.326 427.7 480.487
1349 0 48.1741 12.8077 617 134.921 426.601 479.151
1350 0 49.2595 10.8608 535 139.652 425.964 477.458
1351 0 49.0369 11.3588 557 138.722 424.587 476.557
1352 0 53.0891 14.033 745 132.89 425.545 473.497
1353 0 52.1313 12.1232 632 135.092 425.225 474.639
1354 0 53.1046 11.8634 630 136.521 425.287 474.176
1355 0 58.2041 14.5351 846 132.014 424.662 469.522
1356 0 58.0577 14.3995 836 133.284 425.013 467.751
1357 0 59.0385 11.7381 693 138.356 425.583 466.921
1358 0 64.071 14.6556 939 132.259 425.944 463.422
1359 0 65.0475 13.1289 854 135.554 426.361 464.391
1360 0 68.179 12.0418 821 138.937 427.653 459.262
1361 0 72.1464 13.7637 993 134.209 426.936 460.482
1362 0 71.0726 13.24 941 138.477 427.489 456.658
1363 0 74.2272 13.9706 1037 136.581 428.314 457.225
1364 0 79.0611 13.6856 1082 137.457 429.405 452.855
1365 0 79.3287 13.2991 1055 139.061 430.017 452.718
1366 0 83.1122 13.4998 1122 138.693 429.898 447.934
1367 0 84.1444 11.4327 962 142.287 431.932 447.775
1368 0 90.1579 12.467 1124 140.14 432.395 449.392
1369 0 93.2847 11.2344 1048 142.672 432.773 448.547
1370 0 95.2169 10.0717 959 143.105 432.706 446.539
1371 1 53.0237 11.5797 614 136.901 433.591 466.086
1372 0 51.0795 8.84895 452 143.987 433.044 467.987
1373 0 57.0326 13.6063 776 133.222 434.072 469.696
1374 0 60.1114 9.9482 598 138.142 433.771 468.987
1375 0 59.0546 8.68687 513 140.464 435.349 471.669
1376 0 64.1918 14.6592 941 130.826 434.56 468.286
1377 0 65.0218 10.7349 698 138.067 434.668 468.855
1378 0 67.1201 13.4237 901 133.898 433.282 468.002
1379 0 67.1212 11.4122 766 139.329 434.497 468.136
1380 0 70.3515 13.3899 942 135.324 433.363 464.968
1381 0 73.3424 12.2576 899 138.364 432.289 466.508
1382 0 76.0964 13.2464 1008 136.983 431.971 464.746
1383 0 79.1183 15.9887 1265 131.685 431.782 467.219
1384 0 80.3399 11.414 917 141.96 431.32 464.011
1385 1 47.1508 11.6223 548 134.391 430.843 484.042
1386 0 50.2064 12.3291 619 133.551 430.15 481.675
1387 0 49.2446 13.2197 651 134.619 429.773 478.536
1388 0 52.1429 11.1233 580 138.786 427.76 478.59
1389 0 54.2033 13.3571 724 136.084 427.612 476.768
1390 0 56.0831 12.3032 690 138.687 425.829 477.754
1391 0 57.1574 13.4191 767 137.159 426.164 476.801
1392 0 59.0618 13.3419 788 137.485 426.665 476.589
1393 0 62.2932 15.0899 940 134.949 426.043 472.934
1394 0 64.0604 13.7839 883 137.35 425.473 470.829
1395 0 67.1115 12.442 835 140.605 424.832 468.157
1396 0 67.3567 12.5006 842 139.513 424.251 467.202
1397 0 69.1226 11.429 790 142.771 425.306 466.651
1398 0 72.198 15.7622 1138 134.857 424.207 463.54
1399 0 74.1791 14.3841 1067 137.797 424.74 459.41
1400 0 73.3246 11.8241 867 143.81 424.258 456.116
1401 0 78.2778 12.2385 958 142.349 424.404 457.144
1402 0 80.2359 12.6876 1018 141.413 425.641 457.567
1403 0 86.1697 13.2645 1143 139.604 425.099 451.302
1404 0 87.1292 12.5216 1091 143.14 426.008 449.727
1405 0 89.1825 12.1436 1083 143.704 426.185 448.44
1406 1 48.0446 12.9463 622 133.553 427.606 470.701
1407 0 49.1695 11.3078 556 139.791 428.282 466.933
1408 0 51.0213 12.7594 651 138.16 427.955 465.347
1409 0 52.0723 14.1726 738 136.217 428.698 463.917
1410 0 55.2658 12.847 710 137.703 430.413 466
1411 0 54.1263 12.0089 650 140.294 431.208 462.946
1412 0 56.0683 11.4682 643 141.078 431.229 466.798
1413 0 58.2137 11.475 668 138.651 432.338 470.021
1414 0 60.1775 12.7623 768 138.958 432.579 461.029
1415 0 64.1922 13.8179 887 135.255 432.642 461.069
1416 0 64.2468 15.1136 971 132.66 433.237 464.493
1417 0 68.1894 13.1105 894 135.473 433.72 465.059
1418 0 67.2196 9.78882 658 141.254 434.201 467.857
1419 0 73.3414 14.5757 1069 131.088 434.37 464.131
1420 0 76.1485 16.0476 1222 128.079 433.616 462.381
1421 0 77.1134 12.4881 963 134.994 434.196 465.546
1422 0 79.1942 13.0818 1036 134.713 433.974 466.64
1423 0 82.5944 13.4755 1113 133.848 433.268 460.493
1424 0 83.4782 12.8177 1070 135.266 433.098 458.474
1425 0 88.5994 13.8489 1227 132.625 432.676 457.412
1426 0 90.5096 14.33 1297 133.604 431.21 454.109
1427 0 93.6472 13.7324 1286 135.458 431.473 450.582
1428 0 94.7417 12.4866 1183 137.467 430.166 457.303
1429 0 100.452 11.9958 1205 139.482 430.419 453.987
1430 0 102.487 10.8599 1113 140.256 428.472 455.192
1431 0 109.389 13.4932 1476 136.098 428.818 450.822
1432 1 53.3932 12.6233 674 130.421 427.154 477.184
1433 0 56.5349 11.1259 629 135.204 428.105 473.111
1434 0 59.3892 12.9316 768 131.171 426.919 472.71
1435 0 59.2414 12.3731 733 135.166 426.188 472.561
1436 0 59.044 11.6693 689 136.325 425.405 475.019
1437 0 63.4175 12.5675 797 133.171 425.813 473.839
1438 0 65.2458 11.7862 769 135.826 425.75 469.598
1439 0 65.2458 11.7249 765 130.66 425.752 469.685
1440 0 70.5 14.4255 1017 133.052 425.064 462.516
1441 0 73.3301 17.9735 1318 126.434 425.343 461.983
1442 0 74.3053 13.6733 1016 136.055 424.362 457.433
1443 0 76.5992 11.4884 880 139.276 425.342 456.909
1444 0 79.3059 14.1099 1119 135.466 424.946 453.142
1445 0 83.3516 16.0885 1341 131.676 425.696 453.501
1446 0 84.5079 13.5727 1147 136.738 426.525 448.829
1447 0 87.9305 12.4303 1093 137.701 427.104 445.345
1448 0 91.5443 12.1144 1109 138.108 427.23 440.833
1449 0 92.5898 14.4832 1341 135.24 428.321 436.338
1450 0 95.6932 16.4693 1576 131.156 428.951 436.612
1451 0 100.548 14.9183 1500 133.117 429.289 435.195
1452 0 105.231 18.0744 1902 125.571 429.681 435.32
1453 0 108.576 16.9098 1836 128.743 429.81 428.649
1454 1 59.2251 11.431 677 131.956 430.16 457.077
1455 0 57.1543 10.9703 627 134.88 431.568 454.167
1456 0 61.2845 12.8091 785 131.168 431.856 458.696
1457 0 64.2562 11.5631 743 133.604 432.953 462.052
1458 0 64.1528 13.0002 834 133.343 432.788 458.112
1459 0 65.4194 11.4186 747 134.58 433.011 462.349
1460 0 65.4194 11.5409 755 129.191 433.008 462.192
1461 0 70.2253 11.4346 803 135.385 434.483 462.067
1462 0 73.3071 12.6454 927 132.413 434.293 458.578
1463 0 75.4271 12.237 923 133.736 434.07 458.104
1464 0 77.2963 11.9411 923 135.032 434.165 462.914
1465 0 81.3316 14.238 1158 130.87 433.218 459.877
1466 0 85.3598 12.7109 1085 134.122 433.75 457.368
1467 0 87.3201 13.6509 1192 132.727 432.987 457.052
1468 0 87.2839 14.6533 1279 132.156 431.798 455.952
1469 0 94.2224 16.3019 1536 127.919 432.488 454.847
1470 0 94.3817 13.1064 1237 133.963 431.641 456.15
1471 0 96.1591 10.7114 1030 136.441 431.016 457.603
1472 0 100.262 11.9587 1199 135.887 429.58 452.532
1473 0 105.405 14.3067 1508 131.466 429.16 453.932
1474 0 107.336 16.0338 1721 128.485 428.086 449.306
1475 0 110.412 12.9424 1429 134.539 428.463 446.23
1476 0 114.494 11.6687 1336 136.376 427.833 445.981
1477 0 118.528 14.4861 1717 131.81 426.255 442.914
1478 1 59.2493 7.94946 471 138.837 426.667 468.431
1479 0 62.0789 11.9042 739 131.556 425.632 467.746
1480 0 65.1734 11.922 777 131.972 425.435 464.125
1481 0 68.0427 12.2864 836 129.538 424.921 464.211
1482 0 69.2045 11.1409 771 132 424.934 462.244
1483 0 70.1126 13.5068 947 129.185 425.842 460.342
1484 0 78.0466 11.4803 896 132.343 424.316 457.055
1485 0 78.105 14.1604 1106 127.953 424.699 456.733
1486 0 78.1151 13.0192 1017 131.326 424.809 451.013
1487 0 78.1988 13.4017 1048 130.319 425.14 453.4
1488 0 84.0912 13.3189 1120 131.242 425.823 447.697
1489 0 86.1636 13.1262 1131 132.431 424.919 442.315
1490 0 86.0949 13.218 1138 132.091 425.901 443.483
1491 1 46.0665 9.94216 458 130.699 426.662 465.572
1492 0 50.1102 8.9403 448 134.596 428.116 464.982
1493 0 50.1006 8.40309 421 125.694 429.093 464.097
1494 0 53.0376 7.63609 405 138.911 427.588 460.444
1495 0 56.032 9.9586 558 136.242 430.138 458.702
1496 0 56.032 9.88721 554 126.083 432.144 458.671
1497 0 61.1692 13.34 816 130.506 430.996 456.352
1498 0 61.1962 12.8603 787 130.665 429.572 454.352
1499 0 64.0847 14.0751 902 129.426 431.788 455.89
1500 0 68.1107 12.1273 826 131.407 431.971 456.38
1501 0 70.0883 11.2002 785 134.321 432.242 453.434
1502 0 71.2183 13.1848 939 131.322 432.994 456.625
1503 0 74.2364 14.0497 1043 129.787 433.44 455.27
1504 0 74.1932 11.7127 869 134.97 433.495 457.283
1505 0 76.143 12.3321 939 135.314 432.867 454.233
1506 0 78.2817 11.5991 908 136.388 433.846 457.184
1507 0 81.1126 11.182 907 136.811 432.542 458.528
1508 0 83.343 11.0867 924 138.511 434.082 458.953
1509 0 83.1098 12.285 1021 139.704 432.318 455.127
1510 0 87.1472 10.924 952 141.499 431.903 454.504
1511 0 91.1702 9.11482 831 145.048 431.511 457.223
1512 1 48.0804 9.06815 436 134.718 430.445 478.177
1513 0 51.1156 12.2076 624 131.237 430.45 477.538
1514 0 52.1073 9.86426 514 137.677 429.685 478.59
1515 0 54.0768 13.6658 739 131.637 428.622 476.087
1516 0 52.0509 9.6444 502 142.633 427.108 476.327
1517 0 51.1178 10.5051 537 142.261 426.616 471.59
1518 0 57.0151 13.7157 782 133.368 426.49 475.441
1519 0 60.1809 13.7918 830 133.535 425.983 472.243
1520 0 59.0412 13.1095 774 136.672 426.032 469.132
1521 0 61.1192 13.1383 803 136.971 425.547 468.47
1522 0 63.0601 14.0501 886 134.179 424.67 469.699
1523 0 64.1196 11.4473 734 140.347 424.458 467.872
1524 0 69.0326 12.9794 896 136.692 424.357 463.621
1525 0 70.0957 15.0508 1055 132.61 423.693 462.595
1526 0 71.0711 13.4935 959 136.102 424.705 460.416
1527 0 73.081 13.054 954 136.46 425.304 460.406
1528 0 77.0536 12.2252 942 137.947 424.283 458.134
1529 0 78.1921 12.0473 942 138.935 424.385 455.975
1530 0 82.1677 15.5292 1276 132.593 425.558 450.321
1531 0 79.17 11.1406 882 142.016 424.544 448.609
1532 0 85.1522 13.7401 1170 134.998 426.482 451.228
1533 0 86.251 12.5796 1085 138.067 426.572 447.159
1534 1 44.0573 11.4397 504 134.298 426.381 468.98
1535 0 49.0955 12.2618 602 130.855 427.289 464.402
1536 0 50.116 12.8701 645 131.068 428.536 465.609
1537 0 51.0223 9.68204 494 134.271 429.146 468.684
1538 0 51.0567 12.0846 617 131.645 428.852 467.856
1539 0 53.0881 10.9817 583 135.002 429.523 464.343
1540 0 53.0941 11.6774 620 133.345 430.376 464.66
1541 0 59.1936 13.2447 784 130.022 430.478 460.608
1542 0 59.1541 12.9661 767 130.801 430.579 461.224
1543 0 61.1254 13.6277 833 128.327 431.861 462.917
1544 0 61.1505 13.0988 801 130.251 432.37 463.488
1545 0 65.0787 13.9984 911 128.993 432.89 462.361
1546 0 66.1135 12.5239 828 132.797 432.686 460.092
1547 0 65.0474 9.17793 597 139.968 432.33 458.191
1548 0 70.076 14.3273 1004 130.26 432.896 459.444
1549 0 73.0717 14.4652 1057 129.753 432.352 459.923
1550 0 74.0842 10.677 791 137.052 432.392 462.192
1551 0 77.1192 12.9929 1002 134.071 430.904 458.165
1552 0 79.1644 9.44869 748 138.473 431.932 463.243
1553 0 82.2435 12.4144 1021 135.14 431.371 460.091
1554 1 42.0706 9.95945 419 133.558 430.492 481.391
1555 0 44.0955 10.1144 446 132.404 429.852 480.693
1556 0 46.0707 9.29007 428 134.561 429.549 482.907
1557 0 45.1109 10.0641 454 135.511 429.046 478.46
1558 0 49.0389 12.5615 616 130.471 428.349 480.792
1559 0 50.0339 12.8513 643 131.044 427.641 475.299
1560 0 51.1235 12.8317 656 131.811 426.434 474.639
1561 0 54.0341 10.3823 561 135.367 426.743 473.212
1562 0 58.0706 14.8784 864 125.295 426.132 471.997
1563 0 56.3401 14.7675 832 126.921 426.56 472.645
1564 0 57.0591 11.1288 635 134.469 426.164 471.874
1565 0 59.1124 12.3324 729 133.082 424.756 470.719
1566 0 62.0941 11.7241 728 132.466 424.705 474.654
1567 0 63.1188 10.3456 653 136.568 424.841 467.038
1568 0 66.072 12.4258 821 130.721 424.738 470.044
1569 0 68.0412 13.8152 940 130.127 423.947 466.197
1570 0 67.129 10.8299 727 136.228 423.424 464.158
1571 0 73.1154 13.1299 960 132.468 424.348 461.559
1572 0 73.0658 13.6179 995 131.227 424.88 464.339
1573 0 73.0434 9.17262 670 140.188 424.476 460.348
1574 0 79.0622 12.1044 957 134.747 424.606 456.39
1575 0 81.1366 10.8706 882 137.35 426.122 453.765
1576 0 85.1466 12.9659 1104 132.951 425.832 451.803
1577 0 91.0892 12.603 1148 130.108 427.176 455.648
1578 1 48.0609 12.3177 592 128.182 427.056 467.625
1579 0 48.1424 11.6737 562 130.185 428.667 467.678
1580 0 48.1354 10.9067 525 130.592 428.874 471.674
1581 0 51.2248 10.9712 562 131.959 429.26 469.68
1582 0 52.1079 11.1499 581 132.386 430.003 470.386
1583 0 56.1284 12.8099 719 128.961 430.248 468.96
1584 0 56.0361 12.2064 684 131.884 430.879 467.572
1585 0 58.0701 12.4505 723 131.6 431.748 466.311
1586 0 58.1766 13.4934 785 130.389 431.772 467.275
1587 0 61.049 13.9724 853 131.579 433.059 463.487
1588 0 62.1962 14.5668 906 131.226 433.414 467.734
1589 0 65.101 12.9952 846 134.076 432.539 465.077
1590 0 68.2134 14.9237 1018 127.85 433.605 470.918
1591 0 64.1188 12.1805 781 135.85 434.209 467.499
1592 0 71.0882 11.535 820 137.19 433.821 466.816
1593 0 71.0816 11.8033 839 138.821 432.638 463.446
1594 0 74.1391 11.7347 870 138.349 432.214 466.669
1595 0 71.201 10.4493 744 144.223 432.337 463.565
1596 0 82.2358 13.2059 1086 135.599 431.083 468.565
1597 0 82.1468 15.1071 1241 134.368 431.477 463.874
1598 0 84.147 12.9773 1092 139.91 431.534 462.758
1599 0 88.2072 14.3299 1264 137.863 430.43 458.007
1600 1 45.1693 9.65257 436 139.881 429.89 483.103
1601 0 47.0572 11.2204 528 137.71 428.373 482.684
1602 0 45.2876 11.1289 504 139.155 428.548 481.756
1603 0 52.0764 15.7845 822 130.254 426.431 480.133
1604 0 51.0505 12.7521 651 136.43 426.65 480.739
1605 0 53.0533 13.3828 710 135.069 425.484 475.811
1606 0 53.0738 13.8487 735 136.318 424.667 477.249
1607 0 54.1162 15.0787 816 133.755 424.79 475.026
1608 0 55.0982 13.9932 771 135.704 424.508 472.412
1609 0 58.118 12.4918 726 136.705 424.346 472.898
1610 0 60.0773 14.5479 874 134.145 423.7 471.26
1611 0 61.0547 15.0848 921 132.776 423.267 471.958
1612 0 69.1231 9.47585 655 141.698 424.111 468.785
1613 0 69.1147 10.2004 705 125.4 425.174 467.441
1614 0 67.1898 11.9512 803 136.387 424.11 465.516
1615 0 70.1403 16.6381 1167 126.976 423.66 462.805
1616 0 72.25 12.8996 932 132.839 424.512 461.048
1617 0 74.0982 11.7007 867 134.051 424.89 460.418
1618 0 78.1913 13.1217 1026 131.618 425.652 455.991
1619 0 81.2581 12.9095 1049 132.329 425.446 456.19
1620 0 84.2089 13.324 1122 131.291 427.291 448.918
1621 0 82.2068 13.0038 1069 123.217 429.219 450.053
1622 1 44.0536 12.6437 557 128.031 427.194 468.522
1623 0 47.1024 13.46 634 125.595 428.202 468.295
1624 0 46.0411 13.5097 622 129.444 428.81 466.063
1625 0 48.089 14.4732 696 125.231 429.445 469.149
1626 0 48.089 11.0004 529 122.945 429.478 466.503
1627 0 52.1067 10.728 559 131.116 431.47 467.95
1628 0 52.1067 10.7472 560 124.693 433.484 467.973
1629 0 54.0951 14.6963 795 126.838 431.972 464.582
1630 0 56.0694 14.0005 785 128.126 431.971 461.679
1631 0 57.0809 12.894 736 131.117 432.366 462.723
1632 0 61.0356 15.3189 935 125.694 432.674 462.398
1633 0 60.0621 11.6712 701 131.743 432.844 461.753
1634 0 62.0518 10.4268 647 132.932 433.564 464.893
1635 0 66.0734 12.3802 818 129.208 433.669 465.209
1636 0 70.3555 14.043 988 126.525 433.63 467.112
1637 0 70.1978 12.5788 883 130.135 432.475 465.411
1638 0 75.1217 13.0189 978 128.196 431.252 468.001
1639 0 75.0778 9.6167 722 135.145 431.226 467.119
1640 0 76.1128 12.7968 974 131.361 430.088 462.873
1641 0 79.3255 10.2111 810 134.821 430.838 465.436
1642 0 84.2183 11.3633 957 133.437 429.734 461.806
1643 0 86.289 12.0293 1038 132.703 429.591 461.526
1644 0 90.2459 10.0392 906 134.579 428.313 464.173
1645 1 46.0394 12.5979 580 126.936 426.829 482.476
1646 0 44.0614 5.19729 229 141.057 427.507 483.284
1647 0 48.1056 12.5141 602 130.033 427.108 478.576
1648 0 47.0654 7.9464 374 136.353 426.438 479.281
1649 0 52.0593 11.9287 621 129.369 425.815 478.728
1650 0 54.0817 12.2037 660 128.645 425.003 474.544
1651 0 57.1773 15.7755 902 122.751 425.204 473.411
1652 0 58.0707 10.1084 587 131.302 424.91 475.225
1653 0 58.1934 12.2522 713 129.248 425.506 470.797
1654 0 61.0723 10.2501 626 131.874 424.69 468.821
1655 0 66.3009 12.9259 857 127.032 424.009 470.606
1656 0 68.0867 10.7363 731 131.395 423.684 464.373
1657 0 72.1435 14.5405 1049 127.141 424.941 457.884
1658 0 72.1435 14.7207 1062 109.031 425.977 458.179
1659 0 78.1392 14.2438 1113 128.42 425.129 455.417
1660 0 80.0755 16.3721 1311 125.545 425.423 452.414
1661 0 79.3722 11.7547 933 133.407 425.763 451.335
1662 0 87.1339 13.2784 1157 129.638 425.78 450.198
1663 0 88.2975 15.4025 1360 126.489 427.69 453.199
1664 0 91.2779 14.0669 1284 130.173 427.643 444.728
1665 0 91.2819 16.4436 1501 128.017 429.289 443.935
1666 1 52.0797 12.2504 638 131.044 429.636 462.614
1667 0 53.0702 12.116 643 130.603 430.072 467.949
1668 0 53.0947 11.9974 637 132.075 430.215 464.865
1669 0 55.1844 13.029 719 130.873 430.921 463.634
1670 0 58.0874 14.7536 857 129.014 431.471 464.513
1671 0 61.061 13.0034 794 132.372 431.54 463.189
1672 0 61.3838 11.4037 700 130.763 433.04 467.513
1673 0 65.0706 13.032 848 129.419 433.717 464.065
1674 0 68.0465 12.1241 825 132.417 433.709 463.185
1675 0 68.1167 12.6254 860 132.437 433.546 462.77
1676 0 71.1029 19.1272 1360 122.952 432.807 459.455
1677 0 73.1146 11.311 827 135.134 433.045 462.565
1678 0 77.2552 14.4715 1118 130.764 433.061 459.992
1679 0 79.2918 12.0441 955 134.562 433.495 459.141
1680 0 82.1696 11.7075 962 135.061 431.79 459.672
1681 0 84.2569 13.2689 1118 131.619 431.636 463.166
1682 0 84.2408 13.1884 1111 110.229 430.617 463.24
1683 0 84.2553 14.0169 1181 108.406 428.653 462.217
1684 1 44.0466 11.6467 513 133.565 430.211 481.626
1685 0 46.0605 11.9408 550 132.969 429.542 481.053
1686 0 48.0661 12.4828 600 132.67 428.257 478.168
1687 0 49.0477 12.0903 593 134.148 427.41 478.528
1688 0 49.0477 12.2738 602 106.691 426.422 478.399
1689 0 53.0707 11.4753 609 134.612 425.8 476.133
1690 0 52.1918 8.75617 457 140.193 425.663 475.383
1691 0 56.0692 15.6414 877 128.393 425.869 473.231
1692 0 58.0574 14.0034 813 130.923 425.207 473.322
1693 0 60.1517 13.5325 814 131.221 425.311 474.455
1694 0 59.0676 10.9028 644 137.887 424.412 470.207
1695 0 63.1135 15.5434 981 129.302 424.667 467.906
1696 0 65.1088 13.224 861 133.455 424.987 466.484
1697 0 67.0746 13.1495 882 134.689 424.971 465.796
1698 0 68.117 14.3283 976 132.851 423.878 465.159
1699 0 72.3935 13.7167 993 133.668 424.736 460.303
1700 0 74.3603 12.2646 912 136.997 424.643 457.402
1701 0 78.2669 16.316 1277 130.283 424.938 458.012
1702 0 77.1516 10.2785 793 140.363 425.617 458.245
1703 0 82.2274 11.2614 926 138.716 425.154 455.344
1704 0 86.0833 13.5566 1167 136.195 425.212 451.377
1705 0 89.2372 13.0663 1166 136.992 426.477 449.475
1706 1 47.212 13.0264 615 133.616 426.701 467.672
1707 0 47.1864 15.3222 723 131.311 428.498 468.337
1708 0 49.0925 11.7941 579 135.532 429.276 468.513
1709 0 51.1088 11.2114 573 136.199 429.634 468.721
1710 0 52.073 13.1546 685 134.477 429.834 465.045
1711 0 52.073 13.3082 693 124.359 430.811 465.058
1712 0 54.0946 11.9235 645 136.935 430.591 464.519
1713 0 56.0823 10.7164 601 139.215 431.304 463.339
1714 0 58.1671 11.7077 681 136.971 432.17 462.461
1715 0 57.0786 14.6114 834 133.48 432.695 464.246
1716 0 63.0835 12.9828 819 136 433.836 463.927
1717 0 61.1488 11.9381 730 137.399 433.307 464.34
1718 0 67.173 12.0584 810 135.806 433.374 464.757
1719 0 66.1302 12.4149 821 137.012 434.396 462.403
1720 0 66.1302 12.309 814 133.041 435.446 462.059
1721 0 72.2428 14.3821 1039 134.226 433.255 462.504
1722 0 74.1465 13.271 984 136.186 433.335 461.823
1723 0 77.1243 15.1703 1170 134.027 432.47 459.981
1724 0 77.1243 15.0925 1164 127.222 431.49 460.137
1725 0 83.1014 16.4498 1367 131.269 432.034 460.108
1726 0 86.1928 16.115 1389 132.525 432.199 457.826
1727 1 44.3033 9.32211 413 141.741 430.872 480.617
1728 0 46.1102 12.3617 570 134.67 430.06 479.204
1729 0 46.0717 10.5271 485 138.918 427.86 478.264
1730 0 47.0682 11.3877 536 138.052 426.349 477.479
1731 0 50.0508 12.3475 618 135.62 427.07 475.903
1732 0 51.0422 16.3003 832 129.865 426.906 475.447
1733 0 53.0929 14.3334 761 131.919 426.42 475.256
1734 0 54.1757 14.1576 767 132.885 425.314 472.758
1735 0 57.0841 13.2611 757 132.579 425.968 472.984
1736 0 58.2469 12.0693 703 135.67 424.596 468.236
1737 0 60.1635 9.65701 581 138.231 423.969 470.077
1738 0 63.2643 13.9099 880 131.175 423.576 470.424
1739 0 61.1767 12.1615 744 134.944 424.292 467.177
1740 0 66.1977 14.1697 938 133.103 424.018 461.458
1741 0 66.1189 15.1696 1003 132.274 423.568 458.861
1742 0 69.2086 11.6026 803 138.103 425.06 460.941
1743 0 72.3377 15.9806 1156 131.273 423.864 456.99
1744 0 75.164 14.1025 1060 134.224 424.149 459.001
1745 0 76.0955 12.5763 957 138.913 424.702 450.57
1746 0 81.1805 13.5993 1104 136.73 425.484 449.076
1747 0 80.3331 11.4523 920 142.554 424.938 448.833
1748 0 85.2274 11.792 1005 141.362 426.436 449.646
1749 0 90.2632 14.2029 1282 137.782 426.714 443.59
1750 0 91.1608 12.8564 1172 140.845 427.48 443.914
1751 0 93.2055 9.67754 902 145.549 428.68 440.6
1752 0 102.231 15.9248 1628 134.387 428.547 443.433
1753 1 51.2288 11.6341 596 137.775 428.789 463.077
1754 0 51.081 14.8783 760 133.072 430.224 466.357
1755 0 53.1386 13.7941 733 134.651 430.15 461.385
1756 0 57.1074 13.5709 775 135.387 429.717 463.986
1757 0 59.1623 11.8826 703 137.634 431.145 464.72
1758 0 60.1283 14.4192 867 134.128 431.622 463.218
1759 0 62.2669 17.3447 1080 129.441 432.184 461.868
1760 0 66.2882 16.0964 1067 130.041 432.821 461.055
1761 0 67.2861 13.9999 942 132.987 432.961 460.476
1762 0 69.1657 14.1399 978 132.401 432.587 463.541
1763 0 69.4246 12.4884 867 136.932 432.02 460.385
1764 0 74.2134 13.8924 1031 133.722 432.404 463.38
1765 0 77.1946 12.3454 953 137.502 431.739 463.402
1766 0 80.3538 15.046 1209 132.668 431.3 462.279
1767 0 82.3414 13.529 1114 135.93 431.182 458.378
1768 0 81.3397 10.7205 872 139.454 431.213 463.899
1769 0 89.3309 13.0414 1165 135.912 429.797 459.854
1770 0 93.1969 11.8459 1104 136.476 429.914 466.368
1771 1 47.1201 11.9057 561 120.162 428.948 485.597
1772 0 50.2005 11.9122 598 135.891 428 478.055
1773 0 51.108 11.3877 582 138.419 428.715 478.948
1774 0 53.0849 13.7139 728 134.687 427.198 480.385
1775 0 55.105 13.6648 753 132.074 426.198 478.503
1776 0 57.0448 12.3237 703 133.595 424.861 479.452
1777 0 56.0423 10.7776 604 119.676 422.791 478.177
1778 0 62.085 16.8479 1046 127.032 424.442 474.798
1779 0 62.1117 13.5884 844 132.568 423.999 470.687
1780 0 64.1114 15.1923 974 131.226 423.75 469.975
1781 0 63.1055 9.74559 615 140.694 423.631 467.813
1782 0 73.2232 14.2168 1041 130.184 423.806 471.192
1783 0 69.1136 12.2552 847 138.419 422.999 464.51
1784 0 70.0591 10.0487 704 142.368 421.821 462.881
1785 0 75.2038 14.1482 1064 134.889 423.833 460.38
1786 0 77.1809 11.5054 888 140.393 423.86 459.746
1787 0 77.0895 12.8422 990 139.594 424.21 450.535
1788 0 82.1351 13.2221 1086 138.376 424.231 452.348
1789 1 42.0884 8.55343 360 137.328 425.458 473.406
1790 0 44.1496 10.555 466 136.76 425.116 470.863
1791 0 46.0929 9.89307 456 136.796 425.904 468.371
1792 0 50.0654 13.8619 694 129.68 425.872 467.16
1793 0 50.0516 13.8058 691 111.003 424.864 467.211
1794 0 50.0426 10.8108 541 136.028 426.937 466.616
1795 0 53.089 12.9782 689 133.074 427.999 463.38
1796 0 53.089 12.6768 673 102.679 428.99 463.404
1797 0 55.0483 10.7724 593 138.325 429.071 462.342
1798 0 59.058 15.3239 905 128.699 429.807 462.936
1799 0 60.0726 13.5003 811 131.742 430.038 463.662
1800 0 62.0653 12.6158 783 133.137 430.798 462.152
1801 0 62.0584 13.4389 834 131.713 431.604 466.3
1802 0 66.0476 11.2949 746 137.135 431.851 461.94
1803 0 67.0832 12.7603 856 135.042 432.157 459.868
1804 0 70.0753 13.0288 913 133.763 432.041 459.67
1805 0 73.1875 12.2972 900 134.821 432.27 460.877
1806 0 72.1668 12.9838 937 134.188 432.931 460.391
1807 0 77.1073 14.5901 1125 131.427 431.57 457.624
1808 0 80.4541 11.2859 908 135.812 431.906 460.927
1809 0 78.1313 7.28261 569 142.432 431.257 458.822
1810 0 84.2576 11.1325 938 136.045 430.493 451.163
1811 0 89.2034 12.1296 1082 134.116 429.746 457.97
1812 0 92.4472 13.2941 1229 129.829 430.851 462.579
1813 1 46.1992 10.0002 462 131.063 430.017 477.379
1814 0 50.2974 10.08 507 127.627 428.876 480.852
1815 0 50.363 11.7547 592 126.49 429.027 478.216
1816 0 50.1329 8.31789 417 132.211 427.767 480.144
1817 0 56.1381 15.2303 855 120.551 426.585 478.172
1818 0 53.0944 11.4513 608 127.992 426.308 475.153
1819 0 59.122 16.948 1002 119.371 426.183 474.77
1820 0 61.0426 13.2039 806 126.532 425.732 475.754
1821 0 60.085 11.9165 716 130.628 425.317 470.566
1822 0 62.0707 10.8908 676 131.663 424.516 473.747
1823 0 64.0637 14.189 909 128.409 424.388 470.436
1824 0 68.1926 14.6057 996 127.736 423.894 468.732
1825 0 68.0855 13.0571 889 131.476 425.091 467.684
1826 0 65.0947 14.5019 944 130.636 424.378 468.034
1827 0 71.0913 14.1086 1003 131.908 423.531 462.109
1828 0 74.1637 12.7825 948 133.944 424.313 459.802
1829 0 74.1097 12.8323 951 134.701 424.588 456.417
1830 0 75.1653 11.6676 877 137.487 424.405 454.091
1831 0 82.0888 17.1522 1408 128.779 423.885 454.422
1832 0 79.1476 10.9795 869 140.297 424.574 454.163
1833 0 84.3455 14.654 1236 131.853 425.258 455.188
1834 0 86.0881 15.3215 1319 134.071 425.579 444.898
1835 0 87.1062 13.1449 1145 137.092 425.503 452.826
1836 0 86.1069 10.9167 940 139.421 426.221 452.723
1837 0 95.0947 16.7202 1590 132.032 427.043 439.815
1838 0 96.2554 15.1784 1461 135.814 427.858 439.033
1839 0 100.183 18.6558 1869 130.295 429.089 441.357
1840 0 100.208 12.0848 1211 142.725 428.874 436.361
1841 0 104.374 13.6145 1421 139.535 429.32 438.79
1842 0 109.108 13.7662 1502 125.334 429.641 433.865
1843 0 113.318 12.9017 1462 126.356 430.376 436.371
1844 1 54.0721 10.597 573 126.923 430.525 464.834
1845 0 59.1683 12.5236 741 123.723 431.428 462.401
1846 0 65.5311 13.8713 909 117.871 431.597 462.444
1847 0 64.0417 13.6318 873 122.102 432.533 457.462
1848 0 67.0928 13.0416 875 122.096 432.4 461.673
1849 0 68.073 14.2494 970 119.627 432.399 465.359
1850 0 71.0763 14.4915 1030 121.355 432.235 459.887
1851 0 76.1981 18.2157 1388 113.661 432.463 462.747
1852 0 77.2095 14.9852 1157 118.771 432.22 463.214
1853 0 81.1419 14.3452 1164 120.791 431.297 460.028
1854 0 85.1078 13.9823 1190 121.734 430.885 461.739
1855 0 88.175 15.9569 1407 118.758 430.733 457.829
1856 0 90.2615 12.1757 1099 124.939 430.17 462.578
1857 0 94.2299 15.303 1442 117.593 430.219 462.698
1858 0 99.2936 17.0706 1695 115.724 429.117 460.958
1859 0 104.211 15.4878 1614 119.368 427.455 454.493
1860 1 57.2236 12.39 709 120.068 426.458 476.254
1861 0 57.189 13.1144 750 119.691 425.516 475.485
1862 0 61.2057 14.0673 861 118.164 424.689 471.02
1863 0 63.1605 16.181 1022 114.814 424.317 471.839
1864 0 62.034 12.477 774 122.81 424.045 469.585
1865 0 66.1082 13.9771 924 119.958 424.273 469.71
1866 0 70.3313 14.2753 1004 120.251 424.886 466.141
1867 0 71.2765 13.9457 994 121.135 424.252 465.04
1868 0 72.0823 12.9852 936 122.755 424.072 465.007
1869 0 76.3148 10.8498 828 125.016 423.103 466.164
1870 0 79.4598 13.1765 1047 123.682 423.004 460.172
1871 0 81.2966 12.9157 1050 122.38 423.535 463.258
1872 0 85.2329 12.7768 1089 124.378 423.47 459.525
1873 0 87.4901 16.7905 1469 117.747 423.38 453.667
1874 0 91.2792 17.5615 1603 118.13 423.629 451.979
1875 1 48.0464 11.926 573 122.942 424.487 473.613
1876 0 48.0573 9.57191 460 126.113 426.002 468.82
1877 0 52.2415 11.2363 587 123.734 426.399 467.705
1878 0 53.0603 11.3267 601 125.686 425.978 467.945
1879 0 53.0603 11.2513 597 140.132 425.992 468.05
1880 0 56.1106 14.8635 834 121.795 427.354 462.145
1881 0 59.0467 13.1591 777 123.223 429.017 463.642
1882 0 58.0874 10.6908 621 130.348 428.831 460.944
1883 0 58.0767 10.6928 621 138.451 428.796 460.805
1884 0 66.0916 12.8156 847 124.75 429.824 459.548
1885 0 68.0836 13.2925 905 126.22 430.663 457.909
1886 0 72.146 14.1519 1021 123.614 431.011 457.581
1887 0 72.0822 12.8742 928 127.006 430.518 454.303
1888 0 77.0794 15.1532 1168 121.716 431.897 457.876
1889 0 79.1437 16.072 1272 119.144 432.034 458.719
1890 0 81.0732 14.4314 1170 122.848 432.275 457.226
1891 0 85.1325 12.4159 1057 124.958 432.144 458.689
1892 0 87.2511 12.848 1121 124.981 432.383 458.357
1893 0 94.3069 17.2522 1627 117.91 432.681 455.659
1894 1 55.5432 16.8158 934 111.169 433.259 481.102
1895 0 50.1888 15.2424 765 119.941 431.706 473.718
1896 0 50.1888 15.2424 765 129.519 431.733 473.745
1897 0 56.0834 15.4769 868 120.427 430.712 476.717
1898 0 55.0561 14.7486 812 123.536 430.484 478.256
1899 0 59.108 14.3974 851 123.598 430.316 477.268
1900 1 109.226 11.9385 1304 132.574 429.422 453.6
1901 1 60.0747 13.117 788 129.9 429.102 474.56
1902 0 65.2048 14.6922 958 124.228 427.082 475.769
1903 0 67.1728 17.5666 1180 119.476 426.961 475.22
1904 0 67.0608 15.061 1010 125.524 425.421 470.525
1905 0 70.1136 14.3339 1005 127.009 426.118 470.935
1906 0 71.0724 14.7596 1049 126.49 424.891 468.524
1907 0 73.0761 15.6139 1141 124.816 424.975 468.656
1908 0 73.0922 14.5296 1062 128.556 422.882 463.766
1909 0 77.1616 14.6316 1129 128.515 424.012 465.068
1910 0 77.1422 15.789 1218 128.36 422.942 461.401
1911 0 80.262 15.1878 1219 130.153 423.238 457.166
1912 0 82.1871 13.6639 1123 132.14 422.933 459.484
1913 0 86.2629 17.551 1514 125.295 423.401 453.161
1914 0 87.4367 13.1867 1153 134.402 423.975 454.241
1915 1 45.0921 10.7779 486 130.603 422.84 474.669
1916 0 45.0921 10.8223 488 138.039 421.82 474.613
1917 0 47.1386 10.6282 501 132.842 423.012 471.086
1918 0 49.2111 14.1228 695 125.686 423.768 468.803
1919 0 50.1747 13.174 661 125.818 424.49 469.039
1920 0 50.0278 12.8729 644 128.955 424.972 465.28
1921 0 52.1203 11.7421 612 130.552 425.997 465.319
1922 0 55.0292 13.4837 742 124.546 426.722 466.276
1923 0 57.0649 13.7913 787 125.858 428.254 462.818
1924 0 57.0894 11.8586 677 131.273 427.139 459.858
1925 0 58.0596 14.8468 862 125.753 428.292 461.188
1926 0 61.0548 15.3305 936 124.655 429.176 460.512
1927 0 62.0452 17.2294 1069 121.744 429.42 459.777
1928 0 62.0752 13.097 813 130.555 430.371 455.502
1929 0 65.0219 15.2718 993 127.148 430.222 456.054
1930 0 66.1211 15.5775 1030 126.164 431.705 454.688
1931 0 70.1049 17.2599 1210 121.987 432.421 458.965
1932 0 73.1245 14.1539 1035 125.692 431.734 459.706
1933 0 76.0703 12.2913 935 130.27 432.379 457.465
1934 0 78.1828 14.7347 1152 126.682 431.873 456.246
1935 0 81.1683 18.0243 1463 118.526 432.299 462.145
1936 0 84.1277 14.9059 1254 126.45 432.641 456.444
1937 0 86.2832 13.2355 1142 128.68 432.415 456.377
1938 1 47.0344 13.3732 629 122.819 431.952 478.048
1939 0 47.1663 11.7245 553 127.398 430.445 478.018
1940 0 48.1114 13.1778 634 124.308 431.085 479.409
1941 0 48.095 11.1862 538 130.513 430.632 478.5
1942 0 51.0295 13.9135 710 125.058 429.593 478.452
1943 0 53.0231 14.3711 762 123.916 428.751 480.142
1944 0 51.0716 12.316 629 132.304 426.847 474.242
1945 0 57.1069 10.7693 615 133.387 427.324 472.488
1946 0 57.1297 11.8852 679 130.823 426.483 472.876
1947 0 58.1756 12.0669 702 130.556 425.57 475.765
1948 0 60.1104 10.331 621 134.63 425.343 473.594
1949 0 63.0836 13.2681 837 129.247 425.473 472.308
1950 0 64.0786 17.0104 1090 124.535 424.298 468.489
1951 0 65.1258 10.9634 714 135.74 423.226 466.591
1952 0 71.1152 14.4414 1027 127.654 423.265 467.08
1953 0 69.0633 12.9012 891 130.838 423.352 468.27
1954 0 74.2685 12.7914 950 131.216 423.569 464.665
1955 0 74.2164 10.9949 816 134.477 423.001 458.016
1956 0 79.1234 14.787 1170 126.474 423.016 460.544
1957 0 78.0984 11.4215 892 131.716 423.22 461.259
1958 0 78.1628 13.2544 1036 130.48 423.091 452.63
1959 0 79.2865 12.8647 1020 129.58 423.472 454.706
1960 0 87.2975 13.4254 1172 127.222 423.416 448.464
1961 1 47.3567 14.7603 699 124.072 424.391 469.607
1962 0 51.1877 11.2918 578 129.981 423.915 467.166
1963 0 50.1057 13.5114 677 127.321 425.08 465.21
1964 0 51.0688 11.553 590 131.108 425.481 463.846
1965 0 54.0348 13.3247 720 128.761 426.125 463.625
1966 0 52.0556 10.143 528 135.443 427.057 461.409
1967 0 53.1182 10.5613 561 132.961 427.829 459.982
1968 0 58.0481 11.7316 681 128.814 428.457 461.266
1969 0 59.2232 10.891 645 129.947 429.816 463.691
1970 0 59.2232 11.0598 655 122.615 430.782 463.641
1971 0 62.1878 9.95371 619 133.265 431.024 459.606
1972 0 67.1961 12.0989 813 128.55 430.636 460.696
1973 0 72.2065 17.0483 1231 122.056 431.429 457.892
1974 0 73.2104 10.7089 784 133.821 432.662 455.814
1975 0 80.2703 16.1579 1297 123.571 431.76 457.08
1976 0 83.1406 13.411 1115 127.993 432.281 457.744
1977 0 82.066 14.1837 1164 127.897 431.754 459.594
1978 1 45.0944 13.9485 629 124.777 433.057 476.25
1979 0 44.0486 6.06149 267 138.382 432.948 477.854
1980 0 52.0518 12.6413 658 125.514 431.821 479.131
1981 0 51.0772 11.8448 605 129.949 431.693 473.251
1982 0 54.1586 12.9065 699 129.117 431.482 476.143
1983 0 54.0373 11.6586 630 130.797 431.581 476.452
1984 0 56.061 18.2837 1025 120.098 430.521 478.147
1985 0 60.0512 12.5227 752 128.416 430.101 477.62
1986 0 59.1013 12.1148 716 132.895 428.175 473.39
1987 0 63.0792 13.3324 841 130.025 428.37 474.084
1988 0 67.0634 16.805 1127 123.447 426.284 471.972
1989 0 68.1511 17.0503 1162 122.765 427.004 473.052
1990 0 68.1019 13.891 946 130.367 426.458 468.611
1991 0 72.192 13.2009 953 131.41 425.83 468.076
1992 0 75.0704 15.9317 1196 127.118 425.732 461.763
1993 0 77.1448 15.6459 1207 127.871 425.618 464.659
1994 0 78.0565 11.3636 887 135.567 424.444 463.355
1995 0 82.3834 14.2869 1177 130.908 423.123 458.746
1996 1 44.1021 10.453 461 129.291 422.883 482.718
1997 0 45.0601 11.8952 536 129.151 423.709 479.075
1998 0 46.1129 8.24064 380 135.897 423.016 477.971
1999 0 48.0834 14.4125 693 124.247 423.38 479.362
2000 0 50.1183 12.5503 629 126.51 423.526 472.919
2001 0 50.1597 16.6468 835 122.83 423.576 473.331
2002 0 51.0382 15.5962 796 124.686 423.922 473.515
2003 0 53.0745 17.8617 948 121.888 424.662 472.862
2004 0 54.0858 17.1579 928 124.616 424.795 468.845
2005 0 52.1682 13.1306 685 134.489 424.78 463.937
2006 0 55.0616 14.8198 816 131.402 425.676 463.572
2007 0 56.0425 13.1686 738 133.533 426.527 466.39
2008 0 58.0318 12.5621 729 134.025 427.303 463.859
2009 0 58.079 11.3811 661 138.669 427.372 462.313
2010 0 62.1353 15.4502 960 130.967 428.624 459.877
2011 0 66.066 14.7428 974 130.806 429.768 461.51
2012 0 68.1173 12.8455 875 135.319 429.099 457.571
2013 0 68.0916 11.4845 782 136.884 431.075 460.377
2014 0 73.1326 13.7422 1005 131.816 429.765 459.769
2015 0 73.0911 11.1231 813 136.86 431.116 460.189
2016 0 76.1051 11.944 909 137.596 431.175 451.645
2017 0 80.1575 14.5713 1168 131.202 431.862 455.433
2018 0 83.0704 12.664 1052 134.001 432.082 454.845
2019 0 87.2026 12.4194 1083 134.348 431.914 452.087
2020 1 46.0586 10.7906 497 133.954 432.177 473.153
2021 0 46.0869 11.3264 522 131.216 430.634 474.835
2022 0 49.0889 14.5654 715 124.908 431.764 476.969
2023 0 52.0592 12.4858 650 130.094 431.426 475.123
2024 0 52.0561 11.9486 622 132.712 430.415 472.879
2025 0 53.0882 12.79 679 131.059 430.047 475.756
2026 0 56.0643 15.5179 870 126.2 429.744 473.616
2027 0 57.046 14.0062 799 128.116 430.218 475.212
2028 0 57.0833 11.5445 659 133.255 428.674 472.552
2029 0 60.065 12.8694 773 131.616 428.219 473.149
2030 0 62.1006 12.5281 778 132.739 427.422 470.285
2031 0 65.2472 13.2266 863 130.188 425.625 474.466
2032 0 67.0885 13.4896 905 130.518 426.339 467.829
2033 0 69.0514 15.1336 1045 127.976 425.247 468.055
2034 0 71.0859 13.9549 992 130.065 425.304 466.14
2035 0 73.2008 12.6091 923 132.95 424.356 459.843
2036 0 77.1343 15.6351 1206 128.118 424.434 463.758
2037 0 76.1695 13.1286 1000 132.071 423.333 464.358
2038 0 81.1598 11.2864 916 134.712 423.672 461.66
2039 0 82.1346 16.1321 1325 128.35 423.168 456.856
2040 0 82.2297 11.7719 968 137.03 423.024 454.815
2041 0 89.1305 13.34 1189 134.786 422.708 449.804
2042 0 94.0714 15.3075 1440 130.633 423.693 450.613
2043 0 93.1432 13.3343 1242 135.845 422.794 449.382
2044 0 96.2248 12.4292 1196 136.479 422.62 448.851
2045 0 99.2564 18.9005 1876 126.774 422.993 443.513
2046 1 52.0583 10.6611 555 136.016 423.867 468.744
2047 0 52.1389 10.0693 525 136.347 423.99 464.773
2048 0 58.0514 13.1952 766 130.811 424.662 465.428
2049 0 54.091 11.0739 599 137.604 424.506 462.905
2050 0 60.0849 12.7819 768 133.874 425.464 461.812
2051 0 63.0536 16.7635 1057 127.11 426.655 461.136
2052 0 66.0833 14.2396 941 131.507 427.363 458.221
2053 0 65.0887 13.7658 896 134.412 427.863 453.596
2054 0 68.0973 10.3088 702 139.375 429.16 454.03
2055 0 71.1405 12.0747 859 134.744 428.639 456.142
2056 0 74.1095 13.3991 993 132.131 430.458 454.33
2057 0 78.1046 15.3 1195 129.341 430.393 454.644
2058 0 79.1978 11.9448 946 135.746 431.334 455.352
2059 0 85.1424 11.8625 1010 137.365 431.745 450.053
2060 0 86.2072 15.0452 1297 131.963 431.04 449.656
2061 0 90.2533 13.2294 1194 135.324 431.067 452.048
2062 0 92.1856 13.8091 1273 134.725 431.969 451.699
2063 0 94.2237 12.6826 1195 138.842 431.857 446.68
2064 1 49.2574 8.28303 408 140.922 431.547 472.35
2065 0 52.1809 12.6675 661 133.284 432.407 469.195
2066 0 54.1297 9.16317 496 139.167 430.448 469.448
2067 0 57.1174 11.7652 672 136.978 430.932 474.857
2068 0 57.0308 12.2565 699 137.133 430.426 474.634
2069 0 59.2351 12.6614 750 135.812 430.588 476.105
2070 0 62.0711 13.3073 826 137.023 429.16 469.76
2071 0 64.0618 12.4567 798 137.203 428.361 473.515
2072 0 69.0835 17.1676 1186 128.392 427.972 474.618
2073 0 70.0603 14.4161 1010 135.021 426.08 470.243
2074 0 72.1396 11.5609 834 141.536 425.591 466.637
2075 0 77.0945 15.241 1175 133.151 424.247 468.848
2076 0 76.0784 14.1827 1079 137.338 423.752 466.262
2077 0 80.1893 15.002 1203 136.038 424.243 464.554
2078 0 82.1958 13.8937 1142 137.533 424.2 464.463
2079 0 86.094 13.102 1128 139.325 423.153 460.64
2080 0 87.0956 15.5921 1358 135.632 423.334 457.747
2081 0 89.1193 13.8242 1232 141.081 424.145 453.322
2082 0 90.3465 15.2745 1380 138.242 422.201 454.292
2083 0 94.3607 14.1478 1335 141.476 422.785 448.5
2084 0 96.4404 15.7714 1521 137.244 422.796 451.604
2085 0 99.2316 12.7076 1261 143.4 423.028 445.988
2086 1 55.1558 12.1655 671 136.297 422.727 471.613
2087 0 56.0947 11.6232 652 139.244 423.39 467.08
2088 0 60.0873 14.4623 869 134.33 424.181 465.627
2089 0 61.1436 12.6751 775 136.494 425.138 462.924
2090 0 62.0756 13.2097 820 136.266 424.732 461.894
2091 0 65.1032 14.9301 972 135.548 425.087 462.041
2092 0 68.0929 13.1438 895 138.428 426.212 461.69
2093 0 69.1 13.0101 899 140.365 426.156 458.963
2094 0 72.1115 12.6748 914 140.046 427.737 458.167
2095 0 73.0561 12.5794 919 140.26 427.908 456.534
2096 0 73.1845 13.5548 992 139.285 429.634 458.168
2097 0 78.0859 13.3699 1044 140.58 430.269 455.14
2098 0 80.117 14.9781 1200 139.344 430.392 454.202
2099 0 81.1119 14.7081 1193 140.749 429.956 453.14
2100 0 86.3178 15.7789 1362 138.196 430.074 450.769
2101 0 87.2513 14.4869 1264 141.097 430.722 451.999
2102 0 90.2745 12.0189 1085 147.656 431.606 451.478
2103 0 91.1373 14.9116 1359 141.531 430.687 449.407
2104 0 94.4037 13.8766 1310 144.358 431.86 445.842
2105 0 99.211 15.9055 1578 139.89 432.423 445.992
2106 0 102.144 15.8013 1614 140.418 432.094 447.275
2107 1 52.0337 10.8583 565 145.963 432.416 470.738
2108 0 55.1923 11.6139 641 143.047 432.125 472.27
2109 0 59.2454 14.2796 846 135.395 430.645 474.171
2110 0 58.0488 13.2647 770 139.118 431.575 470.553
2111 0 61.1241 11.7302 717 142.074 429.197 473.927
2112 0 64.2837 14.0315 902 137.714 429.718 471.131
2113 0 65.0679 12.9096 840 140.37 429.33 468.987
2114 0 70.2174 14.0848 989 136.485 427.916 465.321
2115 0 72.0586 12.476 899 140.353 426.786 469.201
2116 0 75.1016 13.8745 1042 137.064 426.295 466.652
2117 0 79.129 14.9503 1183 134.171 425.347 464.373
2118 0 81.2352 13.9841 1136 134.743 424.57 463.832
2119 0 85.2621 12.6551 1079 137.494 425.426 463.694
2120 0 88.1736 14.8684 1311 133.201 423.447 457.224
2121 0 94.1578 18.8195 1772 123.696 423.797 462.609
2122 0 95.1962 14.822 1411 133.203 423.795 456.42
2123 0 97.1793 15.3016 1487 131.738 424.16 453.856
2124 1 51.1835 10.4526 535 137.415 423.136 477.116
2125 0 53.1001 14.0301 745 133.44 423.489 471.999
2126 0 55.0716 14.6173 805 132.524 422.749 469.691
2127 0 55.0297 13.8652 763 134.988 424.145 470.41
2128 0 56.1531 13.5522 761 135.716 423.005 467.385
2129 0 59.0881 13.9622 825 134.642 423.275 467.005
2130 0 59.0496 13.8189 816 134.278 423.31 467.455
2131 0 62.3456 15.366 958 132.352 424.296 462.819
2132 0 63.0493 12.9105 814 136.657 424.131 464.512
2133 0 68.6709 16.8339 1156 126.291 424.976 465.248
2134 0 68.3043 14.7429 1007 133.222 424.905 459.4
2135 0 69.087 14.9956 1036 133.089 425.652 459.152
2136 0 70.3501 12.1393 854 138.782 426.465 455.978
2137 0 74.389 13.2546 986 135.812 426.856 457.219
2138 0 76.2423 13.6801 1043 135.604 427.53 452.272
2139 0 79.4072 14.1045 1120 133.347 427.446 452.177
2140 0 81.3346 17.3235 1409 127.316 429.086 452.604
2141 0 86.258 15.9637 1377 130.308 429.552 451.503
2142 1 47.3136 11.7725 557 132.031 429.901 472.14
2143 0 47.2295 14.3978 680 130.343 429.581 468.485
2144 0 51.1833 12.9534 663 130.928 431.282 470.977
2145 0 52.225 15.7779 824 126.428 430.038 469.187
2146 0 52.1911 13.508 705 131.045 431.479 469.674
2147 0 54.0495 12.9881 702 131.138 430.226 471.433
2148 0 59.1276 14.6463 866 126.208 432.119 471.148
2149 0 60.1148 14.988 901 124.041 431.831 468.846
2150 0 61.0648 13.7559 840 125.562 432.227 468.171
2151 0 62.083 11.6135 721 128.856 431.549 472.305
2152 0 64.1562 11.3317 727 128.945 430.999 472.824
2153 0 68.1493 15.2313 1038 124.276 430.982 468.487
2154 0 69.1185 14.3956 995 125.022 430.032 469.772
2155 0 69.0774 13.2315 914 128.053 428.595 466.779
2156 0 75.1422 12.656 951 128.8 427.914 464.088
2157 0 74.125 11.8583 879 130.984 426.744 464.177
2158 0 81.19 13.9549 1133 126.918 427.094 464.933
2159 0 81.19 14.0165 1138 135.459 427.097 464.837
2160 1 42.0204 13.66 574 125.981 424.524 484.12
2161 0 43.0694 12.863 554 127.347 424.756 483.276
2162 0 44.1058 13.2636 585 127.232 423.867 482.378
2163 0 47.0792 13.6154 641 126.509 423.952 480.813
2164 0 48.0466 17.6495 848 120.916 423.336 480.67
2165 0 50.0558 12.7857 640 128.244 422.47 479.072
2166 0 52.0596 12.9275 673 127.721 423.658 478.303
2167 0 53.0398 15.9503 846 124.761 423.213 475.019
2168 0 54.0743 12.4088 671 131.241 422.27 474.398
2169 0 55.1486 12.5298 691 130.113 423.376 475.289
2170 0 57.1441 13.1247 750 128.811 423.943 471.657
2171 0 58.1474 13.6206 792 129.394 422.846 468.098
2172 0 60.0737 12.8842 774 129.607 423.954 470.416
2173 0 62.0457 12.4908 775 132.706 423.773 464.706
2174 0 63.1469 13.0648 825 130.492 425.051 465.844
2175 0 65.137 13.6789 891 131.318 425.006 461.396
2176 0 69.0718 15.7662 1089 126.307 425.817 461.47
2177 0 69.1126 15.3662 1062 128.958 426.34 458.192
2178 0 70.0884 13.8682 972 131.386 426.612 461.313
2179 0 72.1375 16.5794 1196 127.568 427.714 455.29
2180 0 76.1993 14.7902 1127 129.346 428.73 456.291
2181 0 77.1276 15.1826 1171 129.997 428.909 453.487
2182 0 79.3336 14.4453 1146 132.806 429.333 452.653
2183 0 81.1041 14.1916 1151 132.82 429.679 454.267
2184 0 87.2017 14.8048 1291 130.177 430.242 451.08
2185 0 87.0752 14.0568 1224 133.935 430.85 448.31
2186 0 93.3493 15.201 1419 129.9 431.593 448.192
2187 0 97.2447 14.6846 1428 131.647 431.954 447.538
2188 0 98.1525 15.2721 1499 131.218 432.668 449.851
2189 0 104.166 15.1009 1573 130.881 432.284 450.337
2190 1 53.0648 13.1914 700 132.76 432.754 472.391
2191 0 53.093 12.9019 685 135.572 431.794 471.974
2192 0 58.0884 14.0303 815 131.81 432.007 472.14
2193 0 61.0755 17.6176 1076 124.45 432.029 470.22
2194 0 62.0722 15.2081 944 129.051 431.974 472.762
2195 0 64.1042 14.5856 935 129.686 431.56 473.267
2196 0 66.0645 12.7451 842 133.234 430.844 472.651
2197 0 70.0644 14.7864 1036 128.807 430.004 471.107
2198 0 68.0779 13.3523 909 134.019 431.304 469.903
2199 0 74.147 12.2459 908 131.698 428.925 473.848
2200 0 77.1299 13.8597 1069 130.532 428.845 468.891
2201 0 81.2345 15.683 1274 127.195 427.677 465.714
2202 0 81.0846 16.9329 1373 127.33 427.272 463.019
2203 0 82.0995 14.6042 1199 131.606 426.144 460.761
2204 0 85.1195 13.6984 1166 134.021 426.326 461.28
2205 0 88.3907 13.2254 1169 133.873 425.169 458.323
2206 0 92.4104 16.048 1483 129.328 424.401 452.182
2207 0 94.1399 16.603 1563 128.536 423.901 445.727
2208 0 98.4514 18.1105 1783 125.918 424.182 447.604
2209 1 53.2252 14.2226 757 131.008 422.152 470.402
2210 0 53.1594 10.666 567 135.899 422.991 470.621
2211 0 59.1207 12.077 714 131.658 423.992 470.972
2212 0 57.0812 14.6108 834 129.402 423.157 465.065
2213 0 61.0556 14.8553 907 129.673 423.965 465.955
2214 0 62.1455 14.4982 901 130.532 423.392 461.89
2215 0 62.1788 11.9816 745 132.201 424.788 465.981
2216 0 65.0315 13.9163 905 129.264 424.078 460.218
2217 0 65.034 15.3304 997 132.974 424.095 461.617
2218 0 69.2322 12.5231 867 131.408 425.013 458.161
2219 0 72.1231 13.5463 977 129.038 425.734 455.608
2220 0 75.2831 13.3098 1002 127.625 426.486 452.879
2221 0 76.2134 10.2869 784 131.883 426.533 454.453
2222 0 79.22 12.9008 1022 128.816 427.067 450.496
2223 0 82.2187 14.656 1205 125.939 427.878 443.432
2224 0 83.2044 12.4152 1033 128.587 428.82 446.961
2225 0 87.3214 13.7881 1204 125.207 429.033 442.821
2226 1 44.1501 12.2083 539 128.165 429.451 461.41
2227 0 47.2342 12.0675 570 127.881 429.674 460.393
2228 0 48.103 12.1406 584 127.762 431.798 460.606
2229 0 50.1403 13.2428 664 123.66 431.047 461.306
2230 0 53.5106 14.6326 783 119.533 432.953 461.489
2231 0 53.2966 13.1903 703 122.219 432.666 459.807
2232 0 57.0608 11.7419 670 123.387 432.081 462.988
2233 0 58.4867 13.7638 805 121.499 433.421 459.225
2234 0 59.4124 15.7375 935 119.03 433.002 460.045
2235 0 59.4124 15.9058 945 129.902 433.994 460.064
2236 0 64.1954 13.0383 837 125.52 431.757 460.734
2237 0 68.2877 15.0832 1030 121.747 430.949 459.559
2238 0 69.257 13.8614 960 124.693 431.833 460.732
2239 0 73.2481 12.328 903 125.742 431.075 464.32
2240 0 76.3044 13.7607 1050 124.667 430.276 461.705
2241 0 79.1823 11.8713 940 127.967 429.476 461.395
2242 0 79.3956 11.1089 882 129.582 430.022 462.302
2243 0 84.1633 12.345 1039 127.536 427.565 457.548
2244 0 85.2328 12.4131 1058 127.332 427.482 461.336
2245 0 92.2649 15.2821 1410 121.959 426.472 456.156
2246 0 94.2418 14.5583 1372 124.292 426.757 453.461
2247 0 96.4751 13.5475 1307 125.192 424.774 452.36
2248 0 101.318 14.1337 1432 125.507 424.446 445.647
2249 0 106.297 13.7915 1466 124.975 424.529 447.752
2250 0 103.366 10.8159 1118 131.821 425.29 442.182
2251 1 63.0886 10.7309 677 126.739 424.858 467.021
2252 0 63.2454 10.4513 661 130.083 425.139 462.958
2253 0 67.3082 12.6879 854 122.911 423.665 464.666
2254 0 70.1964 12.8639 903 125.337 424.461 458.616
2255 0 72.2083 11.4668 828 127.245 425.242 454.728
2256 0 74.2479 13.7378 1020 123.022 425.081 455.63
2257 0 76.1467 11.7536 895 124.703 424.962 453.903
2258 0 79.2244 10.7164 849 127.777 424.504 446.723
2259 0 73.2026 9.80839 718 141.794 423.522 447.88
2260 0 82.1095 10.6321 873 126.963 426.076 448.639
2261 0 88.1705 16.729 1475 116.502 425.849 447.866
2262 0 87.1456 10.2702 895 128.508 426.898 443.472
2263 0 92.2402 12.153 1121 125.29 427.095 442.333
2264 0 95.2108 12.7507 1214 123.415 427.663 443.278
2265 0 96.2537 12.0203 1157 124.828 429.716 440.491
2266 0 102.336 14.2179 1455 120.656 429.361 441.664
2267 0 104.388 13.3253 1391 122.513 429.786 439.863
2268 0 105.311 12.5437 1321 124.639 430.674 432.389
2269 0 110.647 14.9123 1650 119.692 429.946 438.85
2270 0 115.395 15.9539 1841 119.383 430.475 432.872
2271 0 119.558 13.6336 1630 123.226 430.536 433.463
2272 0 121.51 12.18 1480 119.765 431.712 433.907
2273 0 126.6 16.4613 2084 113.579 432.275 432.368
2274 0 137.856 16.9815 2341 111.573 432.584 430.117
2275 0 136.907 13.9803 1914 117.736 433.286 424.611
2276 0 143.646 12.3637 1776 119.764 432.992 421.428
2277 0 154.514 15.1572 2342 115.577 432.38 423.726
2278 0 157.614 17.4413 2749 113.102 431.417 421.683
2279 0 163.447 14.0412 2295 119.094 432.058 420.139
2280 0 169.371 14.1464 2396 118.64 429.901 416.116
2281 0 169.371 14.1818 2402 141.659 427.886 415.963
2282 1 90.1443 11.049 996 116.204 430.103 462.346
2283 0 95.1169 13.6989 1303 113.012 429.719 459.823
2284 1 53.1519 9.74564 518 111.942 427.583 479.846
2285 0 53.1519 9.8209 522 133.471 426.579 479.851
2286 0 57.1799 10.8954 623 110.106 427.108 478.013
2287 0 55.0351 9.68473 533 113.073 427.3 477.634
2288 0 60.3436 10.5562 637 110.438 425.529 478.27
2289 0 59.1243 8.15232 482 112.674 425.12 480.195
2290 0 60.1458 10.3748 624 110.157 423.369 476.119
2291 0 62.0858 13.4652 836 106.629 424.688 472.664
2292 0 61.0866 13.2599 810 123.954 425.76 473.359
2293 0 66.0838 13.6191 900 104.606 423.841 472.418
2294 0 68.2901 9.2107 629 111.413 423.482 470.886
2295 0 73.1376 16.6672 1219 100.163 423.778 470.241
2296 0 73.0818 10.1393 741 109.644 423.212 462.686
2297 0 71.093 8.25679 587 113.951 423.591 460.911
2298 1 146.328 12.4241 1818 115.664 423.234 419.453
2299 1 157.479 8.10904 1277 114.606 423.684 437.4
2300 0 158.773 12.3951 1968 112.793 423.84 421.247
2301 0 165.466 8.43074 1395 116.366 424.294 426.331
2302 0 166.42 9.18161 1528 117.86 425.063 419.357
2303 0 176.527 13.658 2411 110.976 424.83 415.445
2304 0 175.695 9.59047 1685 113.892 425.364 424.268
2305 1 53.1352 14.6795 780 100.665 427.468 468.214
2306 0 51.0738 10.2205 522 106.249 426.596 470.661
2307 0 51.0382 12.6768 647 106.059 428.253 466.181
2308 0 53.1218 12.2172 649 108.085 428.057 465.589
2309 0 55.2103 15.1059 834 102.072 428.471 466.809
2310 0 57.2802 13.8093 791 103.869 428.436 466.402
2311 0 59.2564 11.8806 704 106.777 428.75 464.851
2312 0 60.283 8.37716 505 110.719 429.713 463.178
2313 0 64.2083 10.6684 685 107.089 429.987 464.961
2314 0 62.1569 9.68516 602 109.445 429.939 465.164
2315 0 65.202 10.3985 678 108.391 430.084 464.42
2316 1 135.835 12.5004 1698 109.998 430.492 431.863
2317 0 138.494 10.9607 1518 112.005 431.487 432.987
2318 0 136.795 6.60845 904 117.507 431.321 434.512
2319 0 136.553 5.56558 760 119.895 430.662 432.953
2320 0 140.595 6.05997 852 116.77 430.966 449.516
2321 0 143.684 11.4627 1647 113.897 430.317 429.11
2322 0 143.268 6.89618 988 117.929 429.105 444.332
2323 0 144.354 6.04072 872 120.14 428.862 448.47
2324 1 50.0658 12.5834 630 108.444 429.492 480.148
2325 0 52.1024 13.1856 687 108.435 429.767 478.37
2326 0 51.0803 12.3139 629 113.008 428.574 482.674
2327 0 54.1253 10.8637 588 114.179 427.165 479.177
2328 0 58.1087 12.4766 725 111.521 426.825 479.866
2329 0 57.1114 11.4163 652 114.819 425.957 479.422
2330 0 62.1076 13.6376 847 111.542 425.269 476.793
2331 0 63.3424 13.1192 831 114.143 424.55 473.828
2332 0 66.1435 13.637 902 113.251 424.432 474.422
2333 0 65.3085 13.7961 901 115.044 423.741 470.121
2334 0 66.2763 13.0062 862 116.65 424.399 469.974
2335 0 71.3248 13.9503 995 114.232 423.409 470.173
2336 0 67.3466 10.5425 710 122.531 424.135 469.908
2337 0 74.4926 13.6121 1014 117.665 423.209 467.072
2338 0 75.6448 13.1668 996 120.817 422.266 462.226
2339 0 78.4096 13.557 1063 120.708 422.594 461.161
2340 0 80.325 14.3791 1155 119.749 422.745 458.552
2341 0 83.5366 12.1982 1019 122.976 423.043 459.878
2342 0 82.6338 14.2557 1178 122.367 422.859 454.52
2343 0 90.4399 12.8483 1162 124.624 422.867 450.685
2344 1 46.2719 15.0199 695 118.36 424.023 471.337
2345 0 51.2993 17.6221 904 114.546 425.986 469.264
2346 0 51.2417 16.2368 832 120.171 425.358 462.778
2347 0 53.1733 15.2896 813 122.346 424.999 464.977
2348 0 54.3113 13.5147 734 126.183 424.857 463.661
2349 0 54.3775 12.3764 673 130.92 426.394 461.807
2350 0 56.2692 13.3288 750 129.845 427.931 460.201
2351 0 57.5518 14.8214 853 126.237 428.774 460.353
2352 0 61.6278 13.9223 858 126.174 428.11 463.234
2353 0 63.6804 18.0118 1147 121.348 429.437 458.449
2354 0 63.3643 17.2968 1096 123.996 429.959 459.014
2355 0 66.2403 17.0893 1132 124.031 431.094 456.695
2356 0 68.3446 15.5682 1064 126.731 431.732 458.877
2357 0 69.1719 13.358 924 131.352 432.187 461.352
2358 0 73.4997 14.0681 1034 129.495 431.46 457.184
2359 0 76.3154 16.5235 1261 124.993 432.704 457.829
2360 0 78.3118 20.5205 1607 117.037 431.925 460.35
2361 0 82.5289 15.643 1291 125.457 431.599 458.894
2362 1 42.5895 11.0825 472 131.415 431.436 478.4
2363 0 43.0672 13.8853 598 128.677 431.291 478.584
2364 0 43.0672 13.9085 599 156.558 430.327 478.446
2365 0 46.1933 12.2962 568 129.655 429.963 481.734
2366 0 48.0776 14.123 679 127.698 429.794 479.839
2367 0 51.1014 12.1914 623 129.835 429.432 482.22
2368 0 52.0845 15.7244 819 123.239 428.193 479.133
2369 0 53.095 15.6324 830 123.219 426.382 477.834
2370 0 52.1676 13.8783 724 126.673 425.61 479.76
2371 0 58.0931 16.9039 982 119.274 424.091 476.839
2372 0 61.0442 15.7918 964 119.369 425.134 477.639
2373 0 60.2215 14.5463 876 123.938 423.989 472.46
2374 0 63.1547 16.705 1055 118.193 423.253 475.372
2375 0 66.2159 12.0364 797 126.73 423.079 473.723
2376 0 66.2146 14.2718 945 124.343 421.741 467.781
2377 0 71.252 16.8416 1200 118.535 422.025 469.731
2378 0 71.252 16.8416 1200 137.322 422.047 469.6
2379 0 73.1503 15.4066 1127 123.622 422.354 460.75
2380 0 76.1535 17.7405 1351 119.969 422.842 459.859
2381 0 79.3936 13.1749 1046 125.512 422.184 463.881
2382 0 82.2404 17.5583 1444 119.935 422.949 456.082
2383 0 85.2248 14.3737 1225 126.012 423.074 456.225
2384 0 88.3132 17.2115 1520 121.185 423.485 456.136
2385 1 44.0574 14.7535 650 123.215 423.243 473.668
2386 0 46.0991 14.3604 662 126.412 424.005 471.598
2387 0 46.1727 14.3808 664 126.946 423.273 469.389
2388 0 48.0668 13.502 649 129.08 424.733 467.909
2389 0 52.0854 15.513 808 122.933 424.931 469.913
2390 0 52.1226 17.0751 890 119.72 424.481 470.661
2391 0 54.0577 15.2245 823 125.034 426.717 464.589
2392 0 56.2499 15.6622 881 123.851 426.568 464.705
2393 0 56.3141 14.8098 834 126.464 426.143 461.335
2394 0 59.1657 15.6002 923 124.496 428.215 464.847
2395 0 63.0933 21.809 1376 112.851 428.061 464.797
2396 0 65.2498 18.1303 1183 118.175 429.188 464.501
2397 0 66.3482 15.7502 1045 126.036 427.613 460.99
2398 0 67.2582 16.3697 1101 123.694 429.918 461.838
2399 0 70.217 16.2496 1141 124.747 430.092 461.573
2400 0 71.4001 16.3865 1170 126.547 430.35 458.483
2401 0 78.14 18.4925 1445 121.188 430.502 460.028
2402 0 79.1974 17.0586 1351 125.141 431.018 457.478
2403 0 81.2372 15.1655 1232 127.899 430.787 462.834
2404 0 86.3134 15.5596 1343 128.236 429.695 461.69
2405 0 87.1999 16.3074 1422 127.139 429.219 458.797
2406 0 93.2927 16.9788 1584 125.244 428.016 458.879
2407 0 98.2582 15.5305 1526 127.024 427.538 458.74
2408 1 53.1488 15.2402 810 125.325 428.533 479.889
2409 0 53.1053 13.5015 717 128.775 426.141 479.439
2410 0 57.0775 14.8395 847 125.641 425.993 478.414
2411 0 59.1502 17.1259 1013 121.003 424.669 476.439
2412 0 59.034 13.0603 771 129.578 424.851 476.03
2413 0 64.0594 16.0164 1026 121.804 423.659 475.632
2414 0 64.0948 16.9124 1084 121.899 423.188 472.339
2415 0 64.0948 16.9592 1087 144.681 422.182 472.194
2416 0 69.1142 12.6602 875 129.527 422.349 467.944
2417 0 74.1574 14.8603 1102 124.681 421.709 464.76
2418 0 77.1229 15.4429 1191 122.73 421.708 465.091
2419 0 78.2436 15.3367 1200 123.747 421.617 463.178
2420 0 79.2735 14.8599 1178 125.352 421.342 459.233
2421 0 79.2735 14.9356 1184 152.112 420.344 459.345
2422 0 86.2679 16.0894 1388 124.141 421.288 453.999
2423 1 47.0863 10.2153 481 123.441 421.123 476.351
2424 0 48.3164 13.7842 666 119.541 421.159 474.12
2425 0 51.2612 13.3824 686 120.138 421.66 472.55
2426 0 53.0802 14.3745 763 117.963 421.853 470.997
2427 0 53.0812 12.9989 690 119.987 423.374 471.625
2428 0 52.262 13.2984 695 121.491 423.574 468.869
2429 0 53.1884 10.961 583 126.232 424.801 465.369
2430 0 57.1673 11.3876 651 125.252 425.197 464.472
2431 0 59.0881 13.4206 793 121.235 425.798 462.188
2432 0 63.1676 14.2953 903 118.988 426.667 461.137
2433 0 64.3135 13.7918 887 119.773 427.003 460.537
2434 0 67.1211 14.1237 948 119.976 427.783 458.6
2435 0 68.3305 12.6444 864 123.119 428.287 454.837
2436 0 71.2335 12.4099 884 123.076 427.833 455.879
2437 0 76.3026 13.3678 1020 120.229 429.053 456.948
2438 0 77.1857 11.6213 897 124.253 429.409 455.602
2439 1 41.0509 11.6441 478 116.291 430.519 474.163
2440 0 42.0641 9.12892 384 117.211 429.747 476.943
2441 0 43.059 9.68439 417 118.321 430.93 477.655
2442 0 46.0999 13.1237 605 114.089 429.803 475
2443 0 43.3568 8.90287 386 123.358 431.036 475.417
2444 0 47.1501 11.2619 531 117.785 430.055 479.75
2445 0 49.2277 10.5225 518 121.274 430.197 478.693
2446 0 48.3016 9.93756 480 124.127 428.931 478.577
2447 0 53.1997 10.1692 541 122.645 429.098 481.209
2448 0 54.1831 14.0819 763 118.522 428.292 477.832
2449 0 57.1856 13.2551 758 120.898 427.621 478.026
2450 0 58.1799 11.9629 696 123.997 426.738 476.955
2451 0 57.1118 9.13996 522 129.728 425.971 473.872
2452 0 64.3358 12.5591 808 122.722 425.827 474.885
2453 0 67.1259 16.2828 1093 117.329 424.32 471.954
2454 0 68.2972 12.6359 863 124.196 424.876 470.638
2455 0 72.1225 12.0767 871 124.76 423.586 470.24
2456 0 72.2054 11.1764 807 126.589 422.134 470.218
2457 0 76.1757 11.1715 851 126.803 421.897 466.145
2458 0 76.1189 12.3754 942 123.345 421.639 467.917
2459 0 81.1331 11.0682 898 125.86 421.48 462.54
2460 0 80.128 9.79683 785 126.036 420.527 460.51
2461 1 43.158 11.1914 483 123.733 422.033 480.915
2462 0 42.04 10.9182 459 125.089 422.248 478.647
2463 0 45.0941 9.13644 412 126.199 421.25 478.687
2464 0 46.2239 13.2615 613 120.956 421.197 472.932
2465 0 47.2781 12.6063 596 122.371 420.899 471.584
2466 0 49.1294 10.4011 511 124.591 421.759 473.008
2467 0 49.3602 12.2163 603 123.701 422.181 467.924
2468 0 54.3046 11.8222 642 122.902 422.868 465.326
2469 0 55.5484 12.4576 692 120.935 423.552 464.896
2470 0 52.2002 7.68197 401 130.529 423.337 466.546
2471 0 56.3204 12.3756 697 122.594 424.341 461.366
2472 0 56.1623 7.97688 448 124.728 422.781 471.328
2473 1 188.505 10.9599 2066 138.239 424.442 395.327
2474 0 195.785 14.6436 2867 131.846 425.374 393.936
2475 1 64.3183 9.63956 620 124.373 424.956 462.471
2476 0 69.2235 10.3289 715 122.145 426.296 460.01
2477 0 70.2599 11.8844 835 120.452 427.122 455.538
2478 0 73.1985 11.9811 877 121.075 427.32 454.993
2479 0 74.2412 11.2741 837 121.926 426.444 454.958
2480 0 79.1577 13.1004 1037 119.151 428.119 455.353
2481 1 39.1429 11.2664 441 117.494 427.753 473.78
2482 0 42.171 10.3151 435 118.12 428.209 476.375
2483 0 41.1715 11.5128 474 116.785 428.348 474.215
2484 0 42.2344 10.6075 448 118.317 429.732 477.77
2485 0 43.0971 9.81504 423 121.017 428.279 473.766
2486 0 44.2968 10.7231 475 119.966 428.114 477.996
2487 0 46.2241 11.7688 544 119.127 428.226 474.912
2488 0 50.0837 11.6605 584 118.892 427.688 477.003
2489 0 50.1443 9.97123 500 121.656 427.838 475.264
2490 0 53.1238 10.6167 564 120.915 427.293 476.564
2491 0 56.1417 12.0766 678 121.139 427.111 474.714
2492 0 58.0721 15.2741 887 116.212 426.493 475.152
2493 0 59.22 11.1449 660 124.556 425.673 477.309
2494 0 62.0378 12.3473 766 124.243 425.73 474.595
2495 0 62.0458 12.8937 800 124.291 423.429 474.351
2496 0 66.1356 13.9562 923 121.132 423.744 471.757
2497 0 69.0899 13.5476 936 121.654 422.682 469.759
2498 0 70.129 12.6196 885 124.99 422.759 466.212
2499 0 71.2491 13.8247 985 123.834 422.91 467.253
2500 0 72.1398 14.5689 1051 122.386 422.477 465.266
2501 0 75.0706 15.5587 1168 120.368 421.673 462.598
2502 0 77.1936 13.6928 1057 125.904 422.046 461.396
2503 0 80.2541 14.0554 1128 124.599 421.739 460.592
2504 0 82.1168 13.5904 1116 127.725 421.307 458.521
2505 0 84.1884 14.0637 1184 125.795 421.633 458.222
2506 0 88.3301 12.7476 1126 128.864 422.186 458.884
2507 0 93.4846 12.1838 1139 130.566 423.528 453.282
2508 0 92.1258 13.4164 1236 129.104 421.655 450.006
2509 1 50.0765 10.6237 532 127.466 423.126 473.669
2510 0 51.1797 13.8336 708 121.767 423.441 470.225
2511 0 50.2331 8.12213 408 133.297 424.953 469.703
2512 0 54.0777 11.2616 609 126.624 424.657 469.81
2513 0 56.0914 13.3354 748 123.864 424.651 467.618
2514 0 57.1231 13.182 753 125.323 423.954 464.448
2515 0 60.0756 15.2475 916 119.216 425.975 466.598
2516 0 61.0428 11.5493 705 126.545 425.75 464.477
2517 0 62.148 14.6264 909 121.284 426.415 461.716
2518 0 62.2165 11.8779 739 126.587 427.932 461.134
2519 0 65.0457 11.9454 777 126.368 428.179 460.166
2520 0 68.0701 12.1346 826 125.51 428.948 460.737
2521 0 69.1555 12.884 891 124.517 428.412 459.25
2522 0 73.0776 12.4799 912 124.342 430.341 458.284
2523 0 76.1456 15.8643 1208 116.712 430.041 461.529
2524 0 81.1152 15.3732 1247 116.308 430.747 463.321
2525 0 84.1249 16.1545 1359 113.738 429.811 463.875
2526 0 86.1 13.3333 1148 120.672 429.246 457.678
2527 0 89.2547 13.7024 1223 119.122 429.711 459.225
2528 0 92.2595 13.1369 1212 120.701 429.215 457.063
2529 0 96.2919 14.8507 1430 116.187 428.682 459.341
2530 1 48.1097 12.3884 596 115.837 428.29 480.446
2531 0 52.0982 10.9985 573 117.131 426.887 480.941
2532 0 50.1047 10.3783 520 119.787 426.59 480.571
2533 0 55.0806 14.034 773 112.552 425.304 479.464
2534 0 56.2231 12.9306 727 115.305 424.16 477.67
2535 0 57.2734 11.6983 670 116.34 424.419 479.04
2536 0 61.0997 13.1752 805 114.88 424.122 479.035
2537 0 65.2194 12.3889 808 115.145 423.134 477.481
2538 0 66.0885 14.5108 959 112.112 423.411 475.895
2539 0 67.3332 17.1684 1156 108.931 422.5 474.667
2540 0 69.1872 13.2684 918 116.205 421.472 470.497
2541 0 72.1164 16.0851 1160 111.387 421.338 468.069
2542 0 75.139 16.1035 1210 110.352 421.094 468.378
2543 0 77.3746 16.9435 1311 108.116 420.773 469.98
2544 0 78.4432 14.3161 1123 114.325 421.632 461.851
2545 0 79.3897 11.009 874 120.906 422.128 460.557
2546 0 83.3655 21.0879 1758 105.968 422.12 459.315
2547 0 85.2759 14.2244 1213 116.848 422.221 455.334
2548 0 89.2588 16.5026 1473 112.25 421.566 454.388
2549 0 92.3641 15.493 1431 114.036 422.087 450.496
2550 0 92.6845 12.9148 1197 118.356 423.06 445.334
2551 0 98.4755 15.1916 1496 113.85 422.203 446.916
2552 0 99.4511 14.0572 1398 116.172 424.211 443.763
2553 0 100.392 12.5409 1259 119.866 423.081 438.553
2554 1 54.1415 11.2668 610 118.707 424.956 465.02
2555 0 55.4446 10.4789 581 118.582 424.828 467.296
2556 0 58.2159 11.2512 655 118.391 425.789 466.121
2557 0 59.2899 12.2955 729 117.597 426.074 465.383
2558 0 64.2335 16.5334 1062 108.84 427.149 465.84
2559 0 64.2049 14.0799 904 113.767 426.83 463.348
2560 0 66.2108 13.0794 866 117.05 426.916 460.248
2561 0 69.2231 15.0239 1040 113.565 428.062 460.978
2562 0 72.2388 14.369 1038 114.565 427.604 461.012
2563 0 73.5301 14.0079 1030 116.904 429.832 454.889
2564 0 75.3073 14.1155 1063 116.3 429.17 455.295
2565 0 79.2785 14.9851 1188 115.871 429.641 452.77
2566 0 83.2228 15.5006 1290 115.222 429.319 453.528
2567 0 86.1499 14.6605 1263 115.333 428.636 450.798
2568 0 86.2458 11.8267 1020 121.894 429.019 446.796
2569 0 93.1514 14.5677 1357 116.878 427.587 444.147
2570 0 96.4205 15.059 1452 116.905 427.861 445.78
2571 0 100.458 13.9561 1402 116.879 428.667 454.88
2572 0 102.417 12.3807 1268 121.319 427.588 451.56
2573 0 109.303 14.3638 1570 117.953 427.192 440.064
2574 1 57.1515 14.0329 802 111.546 425.594 469.676
2575 0 60.2332 13.3979 807 111.907 425.679 469.712
2576 0 60.2151 12.6214 760 115.375 424.578 473.543
2577 0 66.1317 14.6828 971 112.857 423.982 477.146
2578 0 66.1749 12.3461 817 117.435 422.595 474.646
2579 0 68.1013 13.7149 934 115.385 423.215 471.652
2580 0 70.1105 13.0508 915 116.78 422.669 471.186
2581 0 73.234 16.0035 1172 112.52 421.613 465.14
2582 0 74.1819 13.723 1018 117.375 421.848 466.383
2583 0 77.0571 15.521 1196 113.97 421.608 463.624
2584 0 81.2344 14.3905 1169 114.643 421.044 465.21
2585 0 84.0849 14.7351 1239 113.738 420.13 459.457
2586 0 84.2381 14.0673 1185 115.162 420.921 457.932
2587 0 88.2701 13.2774 1172 116.054 420.802 453.99
2588 0 92.2365 15.6663 1445 112.311 421.581 453.318
2589 0 91.2249 14.6671 1338 113.849 421.14 453.618
2590 0 96.4212 13.6796 1319 115.977 421.159 447.761
2591 0 97.1829 12.7594 1240 118.066 422.803 443.623
2592 0 102.429 13.6681 1400 115.721 423.116 447.259
2593 0 104.715 14.2196 1489 116.451 423.794 441.683
2594 0 109.545 15.0258 1646 113.278 423.859 445.776
2595 1 59.1952 11.4874 680 114.816 423.537 467.647
2596 0 61.2698 12.1267 743 114.699 424.408 468.861
2597 0 60.2656 11.7148 706 117.118 424.353 462.041
2598 0 62.3238 11.6488 726 115.858 425.603 462.313
2599 0 69.2422 14.2832 989 110.482 427.182 460.757
2600 0 72.6989 15.8324 1151 107.264 427.748 463.511
2601 0 72.5304 13.5254 981 111.069 427.842 462.818
2602 0 71.3465 12.4603 889 115.183 428.086 456.496
2603 0 77.4193 15.2675 1182 109.434 429.163 458.244
2604 0 81.4819 12.5304 1021 112.55 428.795 460.08
2605 0 83.3901 14.8339 1237 107.85 429.129 459.915
2606 0 88.3549 15.1548 1339 106.302 428.405 457.706
2607 0 91.4847 13.2918 1216 111.902 428.918 458.808
2608 0 93.3393 12.1278 1132 114.705 428.557 458.857
2609 1 59.4697 16.3276 971 101.614 428.814 480.602
2610 0 52.2592 11.9213 623 113.173 427.623 478.748
2611 0 55.218 12.7495 704 111.96 427.381 480.176
2612 0 59.3039 16.4576 976 104.552 427.128 479.046
2613 0 58.4044 11.1635 652 114.454 426.623 479.044
2614 0 64.133 14.0957 904 110.597 426.405 475.54
2615 0 66.5004 13.4886 897 111.054 425.159 475.962
2616 0 68.1921 13.506 921 111.214 424.658 471.269
2617 0 70.3278 12.2285 860 112.843 424.305 471.933
2618 0 72.2476 13.8551 1001 109.659 423.387 474.109
2619 0 78.4555 18.8769 1481 102.02 422.366 468.621
2620 0 77.5316 13.7492 1066 110.616 423.065 468.337
2621 0 76.5342 12.5042 957 113.388 422.217 465.006
2622 0 85.4206 17.2324 1472 104.93 421.99 455.337
2623 0 89.3617 15.8122 1413 107.108 420.81 461.723
2624 0 92.3645 13.869 1281 111.216 421.099 449.672
2625 0 96.4876 14.0122 1352 109.607 421.452 443.838
2626 1 53.1164 13.1221 697 105.974 420.835 465.158
2627 0 53.0914 12.3749 657 107.347 420.948 463.333
2628 0 56.1308 12.5778 706 106.708 421.827 462.81
2629 0 57.2726 12.6588 725 106.406 421.919 465.88
2630 0 57.2184 17.8089 1019 101.338 421.095 470.097
2631 0 58.0923 14.0122 814 109.313 421.896 468.385
2632 0 59.1732 12.1508 719 111.673 421.555 468.389
2633 0 63.1184 14.7184 929 107.296 422.892 466.841
2634 0 64.3803 13.6843 881 110.697 424.143 465.145
2635 0 65.0977 12.6579 824 112.683 423.818 462.914
2636 0 67.3499 15.1448 1020 107.435 424.547 466.616
2637 0 69.2266 13.4775 933 111.027 425.663 463.214
2638 0 71.1259 12.6958 903 114.19 424.973 460.616
2639 0 79.2446 15.3827 1219 109.201 426.782 460.429
2640 0 76.3082 16.8265 1284 108.892 427.158 459.671
2641 0 78.1878 14.1966 1110 112.952 427.146 459.442
2642 0 81.2848 9.34984 760 110.738 429.917 463.583
2643 0 85.3106 11.757 1003 104.473 430.539 464.732
2644 1 54.1995 11.6422 631 102.571 431.13 478.532
2645 0 59.2024 20.8775 1236 93.5194 429.396 470.106
2646 0 59.2265 11.0086 652 104.34 428.853 470.96
2647 0 60.1155 10.9622 659 103.813 428.646 473.78
2648 0 60.218 13.5175 814 102.241 428.534 472.9
2649 0 65.1649 19.842 1293 94.7494 427.267 470.752
2650 0 63.4383 11.4915 729 105.695 426.176 470.546
2651 0 69.3236 11.9584 829 104.865 426.615 472.732
2652 0 69.2537 14.3241 992 101.596 424.858 469.388
2653 0 72.1784 10.197 736 107.562 424.552 470.076
2654 0 74.2234 16.9623 1259 98.6616 423.65 472.261
2655 0 77.2458 14.4344 1115 102.691 422.178 466.985
2656 0 77.1247 11.8509 914 106.614 422.089 465.142
2657 0 80.2122 12.7038 1019 104.414 421.599 465.738
2658 0 83.3063 16.4093 1367 100.59 420.331 457.722
2659 0 87.1469 16.8566 1469 100.413 420.78 457.848
2660 0 90.1253 20.2829 1828 96.3972 419.632 459.668
2661 0 92.1726 14.0063 1291 103.368 419.605 456.802
2662 0 91.0701 13.4402 1224 105.33 419.614 451.181
2663 1 48.0989 6.94403 334 109.458 419.132 471.045
2664 0 49.0467 10.6633 523 103.96 418.897 470.272
2665 0 54.4032 14.3742 782 96.72 419.101 475.735
2666 0 54.0683 12.0773 653 102.628 419.314 468.772
2667 0 58.0299 13.9066 807 100.186 419.415 466.224
2668 0 57.1527 15.5548 889 98.964 420.157 467.88
2669 0 60.0954 15.2424 916 97.6507 420.663 469.948
2670 0 66.3401 20.621 1368 93.3224 420.651 465.949
2671 0 64.2347 14.9141 958 100.652 421.031 462.937
2672 0 66.1869 12.8878 853 104.553 421.858 457.851
2673 0 67.2023 13.3031 894 104.606 423.339 455.255
2674 0 76.7941 24.6373 1892 91.3451 423.292 459.642
2675 0 76.1815 14.833 1130 101.215 424.267 460.673
2676 0 76.2883 12.8591 981 105.828 423.764 454.309
2677 0 78.2341 17.5243 1371 99.768 423.964 456.036
2678 0 85.4238 19.5964 1674 97.4922 425.275 453.429
2679 0 85.3963 16.1834 1382 101.483 426.103 451.327
2680 0 86.1879 13.2733 1144 104.694 425.721 457.643
2681 0 89.1614 20.8498 1859 97.0845 425.826 445.613
2682 0 91.204 13.245 1208 106.051 426.316 449.878
2683 0 94.2531 14.217 1340 105.819 427.747 450.869
2684 0 100.276 14.9986 1504 104.885 426.562 449.995
2685 0 100.473 13.5161 1358 106.533 427.705 453.627
2686 0 108.581 13.6395 1481 106.828 427.506 449.598
2687 1 52.1781 12.9365 675 104.431 427.994 473.166
2688 0 53.3393 12.0549 643 106.491 426.765 471.344
2689 0 56.0651 15.4642 867 100.828 425.2 475.328
2690 0 58.0494 13.6608 793 104.473 426.158 471.269
2691 0 60.168 11.1687 672 108.665 425.818 472.631
2692 0 62.0788 12.9191 802 105.673 425.42 472.178
2693 0 65.1102 18.8757 1229 98.0871 425.518 474.683
2694 0 68.1091 14.5795 993 104.338 424.542 467.822
2695 0 69.298 13.0163 902 107.031 423.668 471.538
2696 0 68.1288 12.2562 835 108.412 423.859 470.501
2697 0 75.2464 15.9742 1202 103.09 422.433 467.827
2698 0 78.1492 14.0501 1098 106.385 422.383 464.693
2699 0 77.0891 19.6785 1517 96.2663 422.38 468.432
2700 0 81.2212 15.7594 1280 99.7492 421.334 466.991
2701 0 86.1406 14.6621 1263 102.333 420.391 466.627
2702 0 88.161 16.5946 1463 91.6138 418.99 459.613
2703 1 43.0473 14.426 621 89.1095 419.976 485.77
2704 0 43.1735 12.1371 524 91.8702 419.473 482.529
2705 0 46.2309 13.5407 626 93.0703 417.915 476.639
2706 0 48.0524 12.2991 591 94.225 419.992 476.904
2707 0 49.0531 18.9183 928 88.0603 419.985 477.448
2708 0 49.2525 14.2328 701 94.0242 419.458 471.545
2709 0 51.038 12.5593 641 94.8783 419.555 474.752
2710 0 55.0562 14.8757 819 95.0733 420.442 471.458
2711 0 55.0515 15.4401 850 95.3671 420.704 470.087
2712 0 58.1093 15.0922 877 94.5496 421.193 473.661
2713 0 60.1016 15.923 957 94.7022 421.334 469.047
2714 0 59.0945 13.1823 779 99.1297 422.184 467.399
2715 0 64.172 17.7959 1142 93.8336 422.242 466.842
2716 0 68.1778 16.457 1122 94.0963 423.048 467.759
2717 0 71.1265 15.1701 1079 95.316 423.216 465.679
2718 0 68.2031 14.1782 967 99.6567 423.264 460.156
2719 0 71.1067 13.9509 992 99.9466 424.364 458.356
2720 0 76.209 12.4264 947 100.185 424.715 460.627
2721 0 78.4038 13.4815 1057 98.2744 424.822 459.696
2722 0 81.3014 15.2765 1242 94.5089 424.721 461.706
2723 0 84.2251 16.1591 1361 93.5606 425.381 459.451
2724 1 45.1249 11.7673 531 95.742 426.761 480.343
2725 0 45.0538 11.8081 532 98.312 426.85 475.098
2726 0 49.1375 12.3531 607 96.4712 426.114 477.886
2727 0 50.0589 14.7626 739 94.1069 427.889 476.168
2728 0 52.044 10.6833 556 97.196 427.856 479.635
2729 0 50.0339 10.1731 509 99.5462 427.173 475.346
2730 0 52.0859 14.1689 738 94.8238 426.606 474.411
2731 0 57.504 17.3379 997 90.0903 427.554 480.587
2732 0 59.0448 19.6631 1161 88.0353 427.349 481.218
2733 0 58.0641 11.4701 666 96.8514 427.707 480.713
2734 0 59.0969 18.4951 1093 89.5124 427.156 480.091
2735 0 64.2603 13.9277 895 93.3173 426.284 481.117
2736 0 66.3492 14.3483 952 93.0441 426.708 480.867
2737 0 66.3118 20.0115 1327 88.1688 425.573 472.788
2738 0 70.3351 13.7627 968 94.7996 425.537 475.754
2739 0 69.1291 18.4872 1278 90.4061 423.976 473.741
2740 0 69.1029 14.9053 1030 95.166 423.898 478.002
2741 0 76.059 11.8724 903 97.8704 423.741 475.68
2742 0 75.2249 14.8222 1115 94.348 422.605 475.051
2743 0 79.2075 13.0038 1030 97.4495 422.427 469.711
2744 0 80.142 12.4404 997 98.996 421.832 470.346
2745 1 45.0822 12.9098 582 95.4485 421.253 490.38
2746 0 44.251 10.6664 472 101.428 420.324 483.64
2747 0 43.1796 16.443 710 93.2549 419.714 487.639
2748 0 44.0335 11.6956 515 101.897 419.538 482.99
2749 0 48.1881 14.5472 701 96.6519 418.626 483.929
2750 0 51.3196 13.3672 686 97.7172 419.07 481.458
2751 0 52.3752 11.6849 612 101.729 421.234 481.212
2752 0 52.156 15.5687 812 96.0899 421.821 478.601
2753 0 53.0729 14.8663 789 98.3143 421.6 473.177
2754 0 59.4826 18.2575 1086 98.3361 420.886 477.284
2755 0 59.8338 13.2367 792 106.927 422.566 474.828
2756 0 58.22 15.2868 890 106.236 421.942 469.64
2757 0 59.1089 10.9967 650 111.777 422.603 470.745
2758 0 61.2283 13.3435 817 108.84 423.543 468.327
2759 0 65.0974 14.9929 976 105.461 424.318 464.358
2760 0 65.1751 13.7629 897 106.989 424.852 464.516
2761 0 68.1293 14.3844 980 106.438 425.809 463.09
2762 0 73.168 15.4439 1130 103.152 425.948 464.599
2763 0 75.3803 16.7683 1264 102.036 425.393 461.684
2764 0 74.2529 13.1981 980 106.81 426.734 462.961
2765 0 77.0702 13.7018 1056 106.72 426.374 460.101
2766 1 40.2222 10.5166 423 107.721 428.343 477.884
2767 0 43.2652 13.1514 569 103.432 427.801 477.543
2768 0 42.1308 12.39 522 104.05 429.6 475.082
2769 0 44.1006 11.6098 512 105.396 429.797 475.092
2770 0 46.1452 20.4572 944 93.2913 428.104 482.099
2771 0 51.1354 13.6305 697 101.611 428.148 477.337
2772 0 46.1258 10.1462 468 107.269 428.205 478.618
2773 0 51.1023 8.7276 446 109.325 428.002 478.709
2774 0 55.0718 10.5135 579 106.016 427.952 479.534
2775 0 55.0545 16.6744 918 99.1329 427.474 475.668
2776 0 54.1441 14.6092 791 101.415 428.152 480.221
2777 0 57.2479 16.8041 962 97.6663 427.679 480.765
2778 0 59.1123 15.4452 913 99.5608 427.767 480.19
2779 0 60.2446 13.4286 809 103.059 426.801 476.905
2780 0 60.1785 13.7923 830 103.235 427.618 474.467
2781 0 61.258 13.5492 830 102.717 426.298 479.004
2782 0 62.1662 12.4827 776 104.747 425.461 476.353
2783 0 66.0958 13.7376 908 102.813 424.742 473.101
2784 0 68.1417 17.4049 1186 96.2808 424.53 479.939
2785 0 67.1755 13.6061 914 103.449 424.744 469.78
2786 0 74.3968 13.3474 993 101.726 423.646 472.38
2787 0 77.258 12.2965 950 102.695 423.723 470.257
2788 0 77.2808 13.5868 1050 102.638 422.95 465.454
2789 0 77.138 9.56727 738 107.786 422.882 463.36
2790 0 83.3085 17.4892 1457 98.1482 422.264 459.106
2791 0 87.2906 21.1821 1849 93.7101 421.698 461.998
2792 0 87.1265 16.5851 1445 98.1792 421.055 464.016
2793 0 91.2541 21.347 1948 94.1776 421.064 459.218
2794 0 93.348 13.4015 1251 104.291 422.196 448.58
2795 0 97.2951 13.8136 1344 103.475 422.163 449.502
2796 0 101.391 20.199 2048 96.8057 422.843 441.055
2797 0 103.299 14.2305 1470 103.15 422.911 446.454
2798 0 105.283 9.10875 959 109.13 424.246 444.504
2799 0 108.391 17.0862 1852 100.612 424.389 433.32
2800 0 112.357 15.0057 1686 102.545 424.436 432.928
2801 0 116.33 15.5591 1810 101.809 424.777 433.688
2802 0 124.455 18.9064 2353 97.8784 424.836 425.187
2803 0 128.617 16.1176 2073 99.6189 425.532 431.344
2804 1 70.2545 12.6967 892 99.8632 426.479 458.501
2805 0 79.2991 13.922 1104 98.4801 427.534 457.727
2806 0 76.1665 14.0613 1071 98.5864 426.985 460.894
2807 0 80.2974 15.0067 1205 99.2124 427.375 456.315
2808 0 84.6812 15.9303 1349 98.768 427.51 452.358
2809 0 90.6839 18.3054 1660 94.6108 428.58 458.487
2810 0 95.2977 12.6656 1207 103.145 428.657 452.021
2811 0 94.3006 11.1028 1047 139.914 429.75 454.947
2812 0 95.333 15.556 1483 100.391 430.459 453.704
2813 0 99.4041 9.96941 991 106.868 430.321 451.533
2814 0 103.558 15.2668 1581 101.458 431.408 449.479
2815 0 105.341 14.5528 1533 104.103 430.578 442.633
2816 1 56.0668 20.208 1133 93.2118 430.069 463.541
2817 0 57.1342 10.8166 618 102.752 430.037 464.223
2818 0 61.3842 22.5465 1384 93.2059 430.239 471.785
2819 0 61.1699 15.8738 971 99.9928 429.61 475.082
2820 0 61.2047 14.7864 905 102.791 429.928 470.494
2821 0 63.2604 11.9822 758 105.297 427.854 475.412
2822 0 67.42 13.1563 887 103.781 429.225 474.95
2823 0 69.1575 14.4453 999 102.325 427.984 475.847
2824 0 70.1637 9.15003 642 108.078 427.039 474.679
2825 0 74.3535 16.7981 1249 100.039 427.529 471.763
2826 0 77.1669 19.1922 1481 99.2957 426.623 464.603
2827 0 77.3317 15.6081 1207 103.679 424.854 464.428
2828 0 81.2796 15.1084 1228 104.416 424.02 465.46
2829 0 81.1516 15.2061 1234 105.943 423.336 458.383
2830 0 87.2363 15.2803 1333 105.364 423.349 457.938
2831 0 90.1778 18.5744 1675 99.5218 423.521 460.53
2832 0 91.3382 14.0467 1283 106.299 423.535 454.321
2833 1 48.0492 10.8847 523 105.147 423.174 475.996
2834 0 51.2062 12.1665 623 105.278 422.49 473.477
2835 0 56.1945 16.4607 925 97.8541 421.629 475.545
2836 0 56.1945 16.3895 921 124.801 420.619 475.445
2837 0 55.2177 12.2787 678 106.844 421.258 467.28
2838 0 54.0664 13.7794 745 105.57 421.784 465.848
2839 0 58.3389 12.5645 733 106.326 422.239 465.929
2840 0 59.2816 10.2561 608 110.724 422.801 464.641
2841 0 63.2514 14.1815 897 106.56 422.273 464.427
2842 0 67.1864 14.8244 996 105.678 422.755 463.455
2843 0 69.1354 13.8569 958 107.811 423.818 457.881
2844 0 67.1618 11.4797 771 111.632 424.41 458.158
2845 0 72.1531 16.0353 1157 105.366 424.74 455.106
2846 0 76.2271 18.7466 1429 100.8 424.707 458.32
2847 0 77.2009 13.5491 1046 109.374 426.002 451.929
2848 0 82.3826 16.2898 1342 103.996 426.319 447.954
2849 0 82.2875 12.8087 1054 107.915 428.136 455.655
2850 0 85.4404 19.7682 1689 99.804 427.951 449.423
2851 0 85.1813 13.1954 1124 108.587 428.674 448.172
2852 0 92.1485 16.3866 1510 102.766 429.107 449.415
2853 0 92.4104 19.7597 1826 99.7098 429.927 448.019
2854 0 97.1889 15.938 1549 105.844 429.628 447.277
2855 0 97.1889 15.938 1549 105.844 429.628 447.277
2856 0 101.208 15.7694 1596 105.83 429.511 446.995
2857 0 100.361 14.1688 1422 109.07 431.105 443.947
2858 0 110.311 21.9561 2422 97.2618 430.427 453.411
2859 0 109.282 11.9415 1305 111.681 431.379 452.538
2860 0 111.603 15.4565 1725 106.29 431.192 451.591
2861 0 119.173 15.0286 1791 107.247 431.332 449.856
2862 0 120.489 17.653 2127 105.08 430.902 443.588
2863 0 123.25 13.144 1620 110.378 431.125 444.315
2864 0 130.55 16.8977 2206 105.17 430.3 445.491
2865 0 132.36 13.6521 1807 109.55 430.209 446.188
2866 0 136.395 16.4448 2243 106.712 429.684 442.014
2867 0 137.506 15.5339 2136 109.247 429.556 441.521
2868 0 142.479 15.3496 2187 108.865 429.205 438.966
2869 0 149.525 14.0779 2105 110.21 428.505 437.939
2870 0 152.244 25.7679 3923 96.9258 427.876 438.186
2871 0 157.377 18.783 2956 105.1 426.042 428.383
2872 0 162.492 24.1304 3921 98.5853 426.519 432.308
2873 0 168.538 21.6213 3644 101.86 425.139 423.085
2874 0 172.503 17.0026 2933 107.976 425.141 422.656
2875 0 176.658 19.3199 3413 105.122 424.775 425.933
2876 0 181.849 18.5924 3381 107.223 424.902 411.335
2877 0 185.522 17.5666 3259 109.665 423.938 408.114
2878 0 192.461 17.8946 3444 109.94 423.977 406.625
2879 0 196.639 17.7635 3493 110.831 423.454 396.957
2880 0 203.546 17.8731 3638 110.691 422.962 401.74
2881 0 207.635 19.0334 3952 109.693 423.001 400.078
2882 0 216.543 17.4007 3768 112.163 423.222 392.515
2883 0 219.443 18.0776 3967 112.057 422.37 388.217
2884 0 223.536 15.7514 3521 116.335 424.303 383.016
2885 0 227.413 14.3791 3270 119.213 424.588 374.985
2886 0 236.53 17.7483 4198 114.185 424.53 373.704
2887 0 245.763 16.4874 4052 115.968 425.068 373.245
2888 0 252.358 15.6523 3950 118.637 425.401 366.092
2889 0 257.67 21.5508 5553 111.114 425.792 361.255
2890 0 266.527 19.9379 5314 112.151 426.652 366.497
2891 0 274.601 21.7152 5963 110.684 427.365 359.423
2892 0 276.473 13.2997 3677 124.936 428.071 353.397
2893 0 288.44 18.3365 5289 116.365 429.165 354.583
2894 0 296.583 21.9939 6523 110.412 428.847 353.211
2895 0 304.23 18.1343 5517 117.415 429.221 341.674
2896 0 313.137 19.0875 5977 116.226 430.771 347.656
2897 0 314.776 22.5748 7106 111.141 430.397 353.465
2898 0 324.91 29.4882 9581 103.614 429.484 328.944
2899 0 329.914 19.9628 6586 116.963 431.154 330.494
2900 0 336.761 21.1663 7128 115.519 431.427 323.66
2901 0 344.869 18.4128 6350 120.454 432.102 320.625
2902 0 350.708 18.3971 6452 120.031 431.048 323.045
2903 0 361.477 19.0828 6898 118.612 432.292 327.402
2904 0 372.103 17.8419 6639 120.352 432.131 322.106
2906 0 381.89 23.334 8911 110.549 431.059 306.869
2908 0 383.919 25.7346 9880 108.268 430.602 304.303
2910 0 382.705 19.2812 7379 119.117 429.848 302.978
2911 0 382.867 18.0245 6901 121.997 428.919 301.017
2914 0 385.13 30.8156 11868 106.315 427.141 299.93
2916 0 383.872 21.752 8350 118.969 425.809 296.191
2917 0 381.967 18.7739 7171 122.645 426.188 294.14
2918 0 383.103 27.6453 10591 110.663 424.997 293.625
2919 0 379.624 23.0702 8758 120.488 424.633 292.017
2920 0 376.633 14.7677 5562 135.792 424.037 286.719
2921 0 378.8 19.1843 7267 126.121 424.453 291.172
2922 0 376.183 23.1084 8693 117.492 424.661 289.254
2923 0 376.744 22.2485 8382 119.088 425.029 289.674
2924 0 378.977 29.1654 11053 109.25 425.375 293.092
2925 0 373.779 18.9524 7084 124.097 423.032 289.504
2930 0 370.724 20.3089 7529 118.674 425.419 287.086
2931 0 371.36 18.9843 7050 120.065 425.941 288.385
2933 0 362.637 18.0759 6555 119.869 426.533 283.989
2934 0 353.699 20.3224 7188 115.071 427.54 279.369
2935 0 354.965 21.4585 7617 112.427 427.599 280.472
2936 0 359.817 19.9935 7194 114.119 428.273 282.57
2937 0 361.761 22.4955 8138 109.75 428.062 282.407
