time division length width area intensity CMx CMy
0 0 34.0129 12.3777 421 130.304 59.5392 476.556
1 0 34.049 13.4218 457 127.322 59.2254 477.814
2 0 36.0414 16.4255 592 113.24 58.8108 477.497
3 0 37.1673 15.1746 564 112.349 57.7872 477.704
4 0 37.0679 16.807 623 119.809 57.1316 477.156
5 0 36.0265 12.4353 448 126.931 55.7746 478.261
6 0 38.0475 14.7185 560 124.302 54.3125 475.441
7 0 41.0574 13.9804 574 122.098 53.8031 477.131
8 0 40.1139 13.3121 534 125.234 54.4176 477.198
9 0 39.0464 13.7017 535 125.942 53.2336 476.836
10 0 43.021 14.4813 623 121.064 52.2039 472.777
11 0 44.028 13.7867 607 123.685 51.6063 472.493
12 0 46.1126 13.8574 639 123.208 51.8404 471.926
13 0 50.2748 14.5003 729 117.004 51.1468 471.322
14 0 45.0415 13.1878 594 125.249 51.5185 470.965
15 0 51.076 14.7623 754 120.589 51.2904 467.625
16 0 52.0622 14.0409 731 119.36 51.7483 467.155
17 0 53.2193 15.6146 831 115.235 50.9483 462.974
18 0 55.0648 14.7826 814 121.891 50.8182 463.84
19 0 59.1959 14.5449 861 117.977 49.7096 461.61
20 0 58.0954 15.991 929 116.297 51.5296 460.749
21 0 57.0611 13.3541 762 122.87 51.8189 457.358
22 0 60.0898 14.7113 884 120.293 51.3462 455.871
23 0 63.0916 14.6137 922 121.241 52.3774 456.764
24 0 66.1016 15.1887 1004 120.155 52.7321 453.386
25 0 68.1342 14.9998 1022 118.352 53.6292 452.57
26 0 73.19 16.4503 1204 113.945 54.4111 450.326
27 0 73.1827 13.7601 1007 121.071 54.2076 448.558
28 0 83.0751 17.6948 1470 110.391 55.3912 448.874
29 0 79.3382 19.4484 1543 108.227 56.2353 445.003
30 1 158.318 11.2937 1788 118.402 56.3965 416.31
31 1 132.336 14.501 1919 112.288 58.1496 428.319
32 1 88.0943 19.377 1707 108.477 58.9637 442.31
33 0 90.2372 14.2181 1283 113.415 59.5978 441.636
34 1 47.0592 13.1962 621 111.188 60.2963 461.786
35 0 46.0641 11.5057 530 114.364 60.3151 464.536
36 0 48.1091 14.3008 688 111.288 62.0465 460.382
37 0 53.0544 13.0998 695 110.141 61.613 461.44
38 0 54.0274 11.9754 647 109.683 61.9567 462.61
39 0 56.0863 16.2785 913 102.934 61.2705 461.872
40 0 61.1455 14.9153 912 102.258 61.671 465.532
41 1 121.3 15.6719 1901 107.662 61.4687 437.187
42 0 128.381 14.5115 1863 106.688 61.3876 430.206
43 0 129.555 14.9666 1939 107.037 61.7457 433.555
44 0 136.508 13.0615 1783 113.962 59.6343 429.574
45 0 139.519 15.1593 2115 118.518 59.5702 430.304
46 0 141.616 11.1569 1580 123.104 60.1494 432.201
47 1 74.1832 16.3379 1212 112.157 58.7178 461.137
48 0 80.4531 14.0206 1128 116.48 57.3466 457.607
49 0 80.3019 12.179 978 115.08 57.6728 459.543
50 0 88.4114 17.3846 1537 107.452 56.4079 461.068
51 0 88.2912 15.8793 1402 110.998 55.3338 456.554
52 0 93.1311 14.3776 1339 112.759 54.4847 452.534
53 1 46.0707 12.025 554 112.128 53.8375 472.886
54 0 51.0346 12.5209 639 110.618 52.5728 472.817
55 0 52.1939 14.2737 745 107.913 53.0644 472.852
56 0 54.0681 12.9651 701 110.927 53.4622 469.854
57 0 56.0394 13.0265 730 110.468 51.5781 467.581
58 0 60.2074 14.9483 900 107.554 51.4333 463.497
59 0 61.2845 14.7509 904 106.487 53.0564 466.607
60 0 61.1593 14.1761 867 109.059 51.7682 461.629
61 0 65.2434 16.5994 1083 105.729 50.8532 458.136
62 0 66.3014 12.8353 851 110.024 51.0717 460.049
63 0 68.2574 14.3574 980 110.133 52.1122 452.979
64 0 69.269 13.7435 952 111.046 51.1639 452.244
65 0 65.3537 6.57958 430 119.105 52.5744 458.109
66 0 78.5652 15.0703 1184 107.255 52.2939 450.669
67 0 82.608 16.9717 1402 104.034 53.1498 449.26
68 0 83.3302 13.6925 1141 109.684 53.7537 447.036
69 0 85.321 13.3613 1140 109.299 53.321 442.323
70 1 44.2985 9.9552 441 108.549 53.3129 461.002
71 0 44.0948 16.1924 714 98.9342 54.9034 464.192
72 0 44.106 9.31847 411 108.161 55.5426 464.209
73 0 45.0596 13.8483 624 102.271 56.2788 465.846
74 0 46.0533 10.1187 466 110.09 56.9399 461.773
75 0 49.0952 12.8526 631 107.658 57.6228 461.494
76 0 51.0384 12.6179 644 107.53 57.5171 460.96
77 0 53.0447 18.3053 971 101.379 58.6169 460.191
78 0 52.1302 12.6798 661 110.374 59.3389 460.327
79 0 55.0816 14.4331 795 107.06 60.7987 460.904
80 0 56.089 11.981 672 111.202 60.9405 459.521
81 0 60.0637 11.8208 710 110.377 61.4606 460.961
82 0 60.2198 11.6573 702 112.053 60.537 461.533
83 0 62.2934 12.8264 799 109.13 61.015 461.942
84 0 66.3255 12.7553 846 106.7 60.8593 466.301
85 1 212.742 12.0757 2569 119.159 61.0642 396.662
86 1 145.257 14.4709 2102 110.581 60.1603 422.568
87 0 151.319 13.118 1985 111.479 60.1083 421.844
88 1 114.169 14.3297 1636 106.693 60.0043 442.392
89 1 76.1625 15.7164 1197 102.967 60.203 461.074
90 0 79.2308 11.1699 885 108.766 59.2373 458.44
91 1 42.0741 14.4745 609 101.997 59.0755 476.808
92 0 44.0788 12.6591 558 101.495 58.0663 475.719
93 0 45.0668 10.0296 452 105.044 57.3053 476.226
94 0 47.0553 11.2633 530 104.43 55.3509 477.809
95 0 47.0874 10.6186 500 106.246 53.848 474.576
96 0 50.2033 10.9953 552 105.444 54.2989 474.125
97 0 52.1588 12.0401 628 103.763 53.9379 475.976
98 0 53.127 13.9289 740 102.803 52.7486 472.946
99 0 55.0224 10.9773 604 106.79 52.3245 473.627
100 0 51.0947 9.98147 510 109.796 51.2961 469.014
101 0 59.127 14.4942 857 104.568 50.6406 465.071
102 0 59.0962 12.505 739 105.679 49.3857 467.137
103 0 60.0621 13.6192 818 105.374 50.2958 460.98
104 0 62.2283 13.3541 831 105.446 49.8508 465.974
105 0 66.2133 15.2688 1011 104.002 50.0722 461.864
106 0 70.1666 15.8622 1113 102.45 50.5202 461.481
107 0 71.167 15.836 1127 103.532 50.606 456.611
108 0 74.1138 15.5572 1153 103.861 51.1396 456.385
109 0 72.1581 11.1283 803 112.113 50.7833 452.23
110 0 79.3261 17.0057 1349 104.022 51.9896 450.362
111 1 43.1098 12.9669 559 104.571 52.5134 468.309
112 0 44.0597 10.168 448 110.277 54.2567 467.866
113 0 50.1816 14.7664 741 99.6545 53.8745 463.328
114 0 47.1396 10.3735 489 106.147 54.1554 469.505
115 0 49.0721 9.53698 468 108.075 55.0513 467.769
116 0 50.0418 14.7876 740 103.704 55.1027 463.965
117 0 51.0886 13.3689 683 104.1 56.022 466.507
118 0 54.0645 11.1349 602 109.118 56.3173 462.626
119 0 55.1366 12.2423 675 109.376 56.4207 460.736
120 0 57.058 14.6693 837 105.719 57.5842 460.057
121 0 60.1804 15.9022 957 103.36 59.162 461.716
122 0 60.1959 14.5525 876 107.068 59.6747 457.19
123 0 63.1269 13.354 843 107.631 60.1613 461.941
124 0 66.4034 18.0714 1200 102.084 60.27 458.113
125 0 64.0956 12.9338 829 110.959 60.1399 457.472
126 0 69.4045 15.9644 1108 104.941 60.2906 460.757
127 0 68.221 12.7966 873 111.1 59.3288 459.478
128 0 70.2158 11.1371 782 113.9 60.3338 461.078
129 0 70.0648 11.1326 780 114.788 59.0423 461.64
130 0 75.1781 14.8713 1118 107.453 58.7531 466.004
131 0 77.3286 14.0181 1084 110.826 58.0784 457.47
132 1 151.44 13.5499 2052 119.104 58.8787 418.627
133 0 161.49 15.8648 2562 115.052 57.5363 418.463
134 0 165.339 13.5782 2245 118.542 56.5305 423.117
135 1 135.465 16.7276 2266 111.607 56.7586 442.084
136 0 136.524 12.452 1700 121.165 55.5588 433.945
137 0 138.388 14.1269 1955 116.646 56.5166 434.036
138 1 49.1373 10.9489 538 115.792 54.4238 474.545
139 0 52.0328 11.2814 587 110.807 54.0818 479.455
140 0 53.049 10.5374 559 113.24 52.3077 474.447
141 0 55.0253 11.3584 625 113.49 51.2592 471.608
142 0 56.0343 11.9748 671 112.623 51.1788 468.954
143 0 59.0724 12.5439 741 110.553 50.6869 469.576
144 0 63.1752 11.5393 729 111.671 49.8656 467.623
145 0 63.1146 12.4852 788 110.722 48.5266 466.41
146 0 65.0758 12.7083 827 111.346 48.3797 461.733
147 0 65.1557 9.71519 633 115.139 48.7346 462.332
148 0 74.1756 15.4768 1148 106.693 49.2857 460.149
149 0 75.1842 17.1978 1293 105.588 48.522 458.289
150 0 75.1452 12.9882 976 115.161 49.0389 454.977
151 0 79.1327 16.6177 1315 107.285 49.2616 457.287
152 0 82.1196 13.4073 1101 112.252 49.6385 450.167
153 0 84.1884 14.8595 1251 109.785 49.6571 447.172
154 0 87.2746 13.2455 1156 112.608 49.6003 444.682
155 1 47.0937 11.8062 556 109.335 50.5953 465.784
156 0 48.0679 14.4171 693 105.359 52.0274 462.567
157 0 51.2311 13.6831 701 106.198 51.786 459.512
158 0 52.0726 13.8461 721 108.055 52.835 460.252
159 0 54.042 13.3785 723 107.858 53.2531 461.194
160 0 55.1885 14.2058 784 107.096 53.6786 455.551
161 0 55.0228 10.0504 553 113.188 54.9114 458.732
162 0 58.1008 10.8949 633 111.717 54.951 457.55
163 0 59.0623 13.9683 825 106.613 56.2073 459.131
164 0 61.1216 10.3728 634 110.446 56.3565 459.926
165 0 63.0696 14.6663 925 103.862 57.1124 460.85
166 0 68.234 15.1391 1033 103.773 57.4482 457.719
167 0 70.4364 12.167 857 108.739 57.7503 453.743
168 0 72.0873 11.2502 811 108.713 57.8804 461.932
169 0 78.1044 13.3155 1040 107.388 58.749 460.456
170 0 76.1067 13.3234 1014 109.006 58.1312 459.53
171 0 80.3296 10.3573 832 112.642 57.6683 461.331
172 0 79.1548 10.65 843 114.54 58 455.8
173 0 83.0958 14.4051 1197 108.352 57.2105 459.843
174 0 84.0963 11.6414 979 115.07 57.474 457.181
175 0 90.1879 13.0949 1181 110.73 57.6545 457.108
176 1 166.376 14.0766 2342 115.479 56.7421 411.247
177 0 171.543 13.023 2234 115.701 57.0421 422.296
178 1 48.0952 10.9574 527 109.653 55.3359 480.08
179 0 49.0784 13.2034 648 108.168 53.9614 478.523
180 0 51.07 14.7053 751 109.457 52.8788 477.389
181 0 55.1282 15.3642 847 106.68 52.6151 478.211
182 0 52.0505 10.4898 546 115.557 51.6777 476.918
183 0 56.1802 13.5101 759 111.426 51.0145 474.82
184 0 55.1459 10.5357 581 116.742 50.136 472.818
185 0 58.0346 16.0077 929 107.168 49.8138 472.155
186 0 69.0912 14.517 1003 107.935 49.2901 467.766
187 0 66.255 10.037 665 114.435 47.788 469.004
188 0 64.1408 12.9403 830 110.596 48.0434 468.341
189 0 66.0606 13.7904 911 109.31 47.966 465.606
190 0 65.0765 13.3842 871 111.214 47.9208 463.568
191 0 69.1645 13.533 936 113.153 47.8761 460.738
192 0 68.158 15.8749 1082 110.603 49.146 461.398
193 0 73.1292 12.4574 911 115.383 48.3052 457.083
194 0 78.1502 17.492 1367 107.619 49.0717 451.881
195 0 79.1322 15.7458 1246 110.779 48.5297 454.281
196 0 81.1948 15.7522 1279 110.063 48.8139 455.633
197 0 82.1178 16.0258 1316 110.256 48.4795 446.339
198 0 86.1028 17.2352 1484 108.262 49.4501 447.013
199 0 90.252 15.1797 1370 112.169 51.0613 442.361
200 0 90.1204 12.2947 1108 116.699 51.9946 442.189
201 0 93.1253 11.8443 1103 116.694 51.3182 444.995
202 0 98.179 12.7726 1254 115.817 51.1603 441.089
203 1 54.1059 13.8617 750 106.737 53.1147 466.244
204 0 54.0443 14.3031 773 106.617 53.3195 465.232
205 0 57.0686 11.8279 675 109.696 53.9659 463.335
206 0 57.0431 13.0954 747 111.428 54.3106 460.19
207 0 61.0479 11.4992 702 112.066 55.0299 462.346
208 0 65.3125 13.9636 912 105.9 55.6941 463.887
209 0 63.0562 13.7338 866 106.64 56.7182 465.365
210 0 70.3056 13.4413 945 107.388 55.8667 460.906
211 0 67.2296 10.5608 710 110.485 57.7084 464.645
212 0 74.2885 12.6938 943 108.33 57.4751 460.9
213 0 70.1176 12.1795 854 112.123 56.8653 456.917
214 0 77.2392 12.2865 949 108.808 58.254 462.675
215 0 79.3579 13.3194 1057 108.713 58.245 461.871
216 0 83.3262 16.9694 1414 102.429 57.7779 463.727
217 0 85.1793 14.4636 1232 104.214 57.2589 466.712
218 0 89.2964 11.2658 1006 110.074 56.7992 461.128
219 0 88.2361 9.17992 810 114.001 56.0062 458.22
220 1 47.0532 10.1375 477 107.514 54.7505 478.323
221 0 51.1099 12.4829 638 103.306 54.6238 480.945
222 0 52.1198 15.4068 803 101.649 53.8917 478.847
223 0 54.1804 12.846 696 107.026 52.2988 478.483
224 0 57.0959 14.4494 825 103.353 51.303 478.647
225 0 54.1655 11.3726 616 110.253 50.0373 474.857
226 0 54.1655 11.3541 615 129.556 49.0195 474.938
227 0 58.1595 15.9389 927 103.41 48.3474 472.545
228 0 61.2004 11.111 680 109.172 48.2838 471.026
229 0 63.09 14.8201 935 103.855 47.4171 473.644
230 0 62.1669 14.2037 883 103.879 47.0408 474.774
231 0 67.2675 12.3983 834 106.753 46.4101 465.342
232 0 71.353 15.122 1079 102.204 46.2465 471.734
233 0 70.2361 14.1665 995 106.7 46.607 461.799
234 0 72.308 12.8063 926 108.378 46.095 464.298
235 0 76.3247 13.9929 1068 107.86 47.0974 462.32
236 0 77.2122 12.1613 939 110.962 46.3461 457.669
237 0 81.4031 11.9774 975 109.433 46.4974 459.131
238 0 83.2267 13.4692 1121 108.994 45.8947 453.706
239 0 85.1699 12.9154 1100 109.249 46.3755 455.348
240 1 45.1624 7.81624 353 113.11 47.5212 471.773
241 0 46.0666 10.1809 469 109.785 47.1663 472.759
242 0 49.0347 9.97254 489 112.757 48.0757 468.029
243 0 51.1029 11.5258 589 110.932 47.854 467.891
244 0 52.075 11.7139 610 110.956 48.277 467.302
245 0 55.118 13.4257 740 111.078 50.0824 465.847
246 0 57.1534 17.4268 996 104.061 50.1516 467.078
247 0 57.0935 14.8353 847 109.809 50.4911 461.194
248 0 59.25 12.9958 770 112.896 50.5649 462.861
249 0 62.194 15.5481 967 108.929 51.2958 461.823
250 0 61.0931 12.8984 788 114.57 51.7348 462.235
251 0 62.0971 10.8057 671 117.31 53.1431 459.844
252 0 68.1355 12.754 869 112.539 54.3026 460.525
253 0 67.1165 12.8582 863 113.861 55.4577 456.55
254 0 70.0715 15.7411 1103 109.578 55.4805 457.08
255 0 72.1952 15.3473 1108 110.338 55.3754 458.51
256 0 73.1872 10.5346 771 116.584 55.5473 462.118
257 0 77.1183 11.9297 920 115.726 56.4261 457.889
258 0 79.3304 14.0678 1116 112.114 56.1926 458.481
259 0 82.2935 15.469 1273 107.165 55.956 464.592
260 0 83.1719 14.6083 1215 112.308 55.1391 456.393
261 0 89.3065 13.9967 1250 112.289 55.3584 460.03
262 0 95.1645 14.7114 1400 109.795 54.5036 457.759
263 1 45.0623 11.8281 533 108.383 53.6886 477.604
264 0 47.0768 8.90035 419 109.126 54.8306 485.764
265 0 52.1208 12.9315 674 105.329 54.3457 482.638
266 0 47.1165 9.40222 443 113.607 52.833 478.201
267 0 52.0718 12.9437 674 108.153 50.9481 477.691
268 0 51.0909 13.9751 714 108.626 50.5644 478.835
269 0 55.122 12.9168 712 109.454 49.6039 475.41
270 0 58.1219 15.5879 906 105.589 48.8499 475.389
271 0 59.0712 14.4063 851 108.298 49.2985 472.073
272 0 60.1552 11.6033 698 111.248 48.139 473.279
273 0 64.1798 15.0359 965 106.308 47.2021 469.848
274 0 66.2013 13.2173 875 108.419 47.5029 468.043
275 0 68.2759 15.9939 1092 105.175 46.7674 466.386
276 0 70.278 14.6703 1031 106.679 45.9195 463.992
277 0 73.1613 12.5886 921 110.391 45.4875 461.181
278 0 75.1278 11.8332 889 112.276 45.8032 455.744
279 0 76.3006 13.5779 1036 109.093 46.6264 459.351
280 0 80.0828 15.0969 1209 107.687 46.6518 453.417
281 0 81.2424 13.552 1101 111.013 46.8529 451.884
282 0 85.3654 11.3981 973 112.989 47.0555 452.62
283 0 86.3666 13.3964 1157 111.729 47.1495 449.757
284 0 89.7187 14.3225 1285 111.199 48.214 445.574
285 0 93.4959 13.2305 1237 111.597 47.6936 444.513
286 1 143.542 12.1985 1751 115.293 48.7367 420.548
287 0 147.344 14.931 2200 111.514 50.1114 418.135
288 1 103.389 12.7189 1315 112.915 49.5878 440.339
289 0 106.464 11.3184 1205 114.676 51.2905 436.98
290 0 109.465 13.2736 1453 109.753 51.8754 441.752
291 0 113.304 14.5802 1652 108.696 52.1895 434.415
292 0 120.561 18.0905 2181 102.876 53.0381 438.438
293 0 120.562 14.872 1793 108.033 54.5482 434.595
294 0 126.427 11.8171 1494 111.843 55.1573 431.511
295 1 76.1696 13.4962 1028 106.054 56.3969 453.82
296 0 80.2659 12.7202 1021 107.578 56.333 453.404
297 0 82.179 9.41847 774 112.443 57.9858 454.357
298 0 83.1478 13.037 1084 107.35 57.6162 455.097
299 0 84.1218 12.5413 1055 110.551 56.891 447.124
300 0 90.5288 12.184 1103 110.732 57.2665 448.868
301 0 98.4029 15.3146 1507 106.832 56.996 452.288
302 0 95.5603 14.19 1356 109.577 56.3392 445.768
303 0 99.9005 15.9258 1591 105.464 56.0955 450.08
304 0 100.567 13.4239 1350 110.904 56.2696 449.307
305 0 102.313 13.097 1340 112.728 56.4179 449.998
306 0 106.537 16.858 1796 106.892 56.0095 450.35
307 0 108.444 15.7685 1710 109.541 55.4088 442.66
308 1 192.164 16.3402 3140 111.34 55.228 403.171
309 0 198.784 16.7619 3332 110.829 54.1161 400.882
310 1 118.517 12.589 1492 115.466 53.3592 438.657
311 0 121.321 9.77572 1186 118.723 51.3406 442.936
312 0 128.449 14.4493 1856 111.338 51.7214 444.386
313 0 131.187 14.5899 1914 110.172 50.8741 437.064
314 0 140.294 15.4105 2162 108.806 50.0611 432.039
315 0 140.545 18.2006 2558 104.009 50.3683 439.759
316 0 145.489 15.5132 2257 107.993 49.37 432.261
317 0 149.418 14.195 2121 111.342 48.8331 426.611
318 0 154.614 13.4593 2081 112.211 47.9068 427.007
319 0 157.91 15.4202 2435 110.523 47.4567 420.201
320 0 162.713 14.2889 2325 113.086 46.7781 411.1
321 1 87.4178 11.4851 1004 117.588 47.2908 449.755
322 0 89.4241 11.6412 1041 118.259 47.7205 445.302
323 0 94.3156 14.0062 1321 114.352 46.9296 445.996
324 0 96.4181 16.7915 1619 110.58 46.8468 443.143
325 0 100.894 14.1435 1427 115.403 47.4029 441.301
326 0 102.431 15.8252 1621 113.411 47.5608 436.593
327 0 104.616 15.208 1591 114.551 48.3558 434.863
328 0 111.615 15.3564 1714 113.627 48.1896 435.557
329 0 113.427 16.0367 1819 113.259 48.3639 431.694
330 1 60.2974 12.6042 760 116.325 48.9605 454.425
331 0 64.3051 13.8714 892 113.289 50.4832 456.785
332 0 70.2748 15.4536 1086 108.193 51.9668 456.9
333 0 67.2287 13.4466 904 115.158 52.2301 450.212
334 0 70.1433 18.063 1267 108.065 52.8871 450.61
335 0 71.5896 14.7228 1054 114.234 53.3899 448.124
336 0 73.3802 15.2357 1118 114.443 54.085 446.123
337 0 75.3912 14.8691 1121 114.023 54.2132 448.653
338 0 78.3276 19.2142 1505 107.316 55.3681 449.042
339 0 79.5012 14.6161 1162 116.599 56.7126 442.75
340 0 85.1453 16.3015 1388 113.085 57.4741 446.422
341 0 86.2204 15.356 1324 114.448 57.2983 440.921
342 1 166.79 13.8438 2309 116.37 58.4158 409.852
343 1 94.3066 12.8411 1211 116.407 58.2667 446.208
344 0 98.3468 15.1301 1488 113.192 58.2406 442.964
345 1 51.1009 12.1524 621 113.295 59.942 470.047
346 0 49.0499 10.6218 521 117.568 59.6641 469.013
347 0 53.1024 15.5549 826 109.891 58.4177 468.628
348 0 57.2527 13.9557 799 109.536 58.3917 473.232
349 0 56.0809 11.3051 634 114.388 58.4448 473.418
350 0 58.1536 12.8969 750 114.036 57.9507 470.619
351 0 62.6278 12.9016 808 109.793 57.5854 474.386
352 0 62.0587 11.9081 739 113.483 55.7645 472.042
353 0 65.1677 15.2836 996 108.592 55.5914 469.406
354 0 68.1171 12.9336 881 112.061 55.2338 467.569
355 0 68.1647 13.174 898 113.239 53.706 465.213
356 0 70.1682 13.1256 921 112.912 53.798 465.189
357 0 74.2345 13.7672 1022 111.637 53.4892 462.808
358 0 78.2812 19.4044 1519 102.877 53.1251 463.795
359 0 76.09 12.6955 966 114.355 51.8934 460.163
360 0 82.1882 13.4813 1108 111.845 52.3754 461.968
361 0 86.0934 15.3903 1325 108.936 50.5396 460.205
362 0 86.1409 16.206 1396 107.253 50.7994 458.481
363 0 88.2396 14.7779 1304 109.15 50.2239 454.923
364 0 91.4073 13.6751 1250 111.648 50.1864 447.449
365 0 93.2508 17.8122 1661 105.455 50.1541 450.764
366 0 95.3242 16.2183 1546 108.409 50.3596 439.816
367 0 99.2014 16.2397 1611 108.063 50.2452 434.806
368 0 102.249 14.3962 1472 108.382 49.6393 443.838
369 0 105.253 12.8167 1349 113.199 50.2772 433.403
370 0 110.407 15.6875 1732 107.488 51.1934 433.595
371 0 115.289 14.8843 1716 108.175 51.5956 433.424
372 0 118.174 17.2457 2038 105.699 51.9092 427.062
373 0 119.157 14.2669 1700 109.976 52.2306 424.726
374 1 67.1412 13.5833 912 106.872 53.0603 452.363
375 0 69.0953 12.4755 862 110.732 53.8782 453.175
376 0 70.1534 12.9858 911 109.594 52.6773 451.576
377 0 73.361 11.9409 876 109.792 54.4966 452.892
378 0 74.2065 11.5084 854 112.008 54.2295 449.418
379 0 80.0816 13.249 1061 108.965 55.5203 445.534
380 0 84.3177 13.4729 1136 107.024 55.8451 443.987
381 0 83.196 9.08697 756 111.693 56.8175 450.862
382 0 84.1653 11.6556 981 110.245 57.4679 446.683
383 0 90.123 16.3887 1477 101.049 59.2255 451.246
384 0 93.0852 14.7714 1375 102.583 58.2182 451.08
385 0 95.2368 9.95414 948 111.204 58.4842 445.994
386 0 102.153 14.2433 1455 106.088 59.3423 442.451
387 0 103.159 13.135 1355 108.231 59.5904 443.705
388 0 109.356 14.055 1537 105.208 59.7183 447.068
389 0 108.367 12.227 1325 108.512 59.2091 446.244
390 0 115.45 12.0312 1389 108.243 59.1238 444.731
391 0 119.266 12.9123 1540 108.938 58.9903 437.746
392 0 123.456 14.9689 1848 105.527 58.6721 438.178
393 0 124.098 10.4353 1295 112.003 58.1529 438.217
394 1 68.0793 11.7069 797 104.886 57.7666 465.798
395 0 72.1148 9.59581 692 106.882 55.8483 467.769
396 0 77.1036 14.902 1149 99.1375 56.3708 467.598
397 0 79.1706 13.6162 1078 103.145 55.7625 463.174
398 0 79.2842 9.83803 780 106.283 53.2962 467.647
399 0 86.2741 15.4739 1335 102.512 53.1521 459.615
400 0 86.4521 12.4231 1074 107.745 53.3743 454.391
401 0 86.1519 11.3172 975 110.329 52.6051 452.851
402 0 93.0822 12.4836 1162 106.945 51.3167 455.153
403 0 91.2869 9.47562 865 112.347 50.7503 451.258
404 0 99.2903 11.7131 1163 106.758 50.2863 452.551
405 0 97.2388 12.6493 1230 108.453 50.1911 442.49
406 0 102.196 12.5837 1286 106.72 48.654 447.656
407 0 102.292 7.1169 728 114.405 48.0385 449.107
408 1 56.0765 11.8588 665 103.323 47.5985 465.931
409 0 57.1614 13.4706 770 102.178 48.4468 466.117
410 0 58.1409 10.2854 598 105.209 48.8244 461.291
411 0 64.2072 13.3786 859 102.921 47.5972 460.334
412 0 62.1062 10.5947 658 107.5 48.0897 457.556
413 0 64.0666 9.91156 635 108.748 48.7638 454.709
414 0 68.0505 13.828 941 102.24 49.0319 454.574
415 0 70.1085 12.7945 897 102.181 49.3322 457.038
416 0 73.1837 13.145 962 103.676 50.8274 451.027
417 0 74.2226 13.5673 1007 104.288 50.8232 449.453
418 0 77.3045 13.5568 1048 104.199 51.2891 448.343
419 0 81.0468 13.6218 1104 104.195 53.1123 446.037
420 0 84.1522 15.0798 1269 101.682 53.3712 445.941
421 0 88.2254 11.8787 1048 105.734 54.4179 444.816
422 0 88.1472 15.3607 1354 103.069 54.8264 438.369
423 0 89.2715 11.8067 1054 107.408 56.7211 443.509
424 0 91.4261 11.2331 1027 109.757 56.3067 435.576
425 0 97.2084 13.4968 1312 105.6 58.2477 439.345
426 0 101.157 10.9533 1108 106.945 59.0875 444.283
427 0 104.229 14.1803 1478 104.164 60.5927 436.981
428 0 105.526 12.6888 1339 106.862 59.9567 438.282
429 0 109.406 13.1163 1435 105.268 60.7533 440.056
430 0 111.333 11.8922 1324 107.786 60.7598 437.808
431 0 116.284 10.8699 1264 107.267 60.3774 441.438
432 0 119.402 14.2712 1704 103.641 60.2318 439.39
433 0 123.539 12.2633 1515 103.927 60.9901 440.55
434 0 125.263 13.8509 1735 103.883 60.483 435.595
435 0 130.521 9.66126 1261 108.464 60.3553 438.682
436 1 72.2259 12.9455 935 101.542 59.7369 461.853
437 0 73.3596 12.4183 911 102.151 59.5554 463.627
438 0 76.3669 14.9803 1144 99.9589 59.0682 462.578
439 0 79.2533 14.7249 1167 100.423 58.0197 462.462
440 0 82.2223 10.9703 902 105.642 57.5832 461.504
441 0 81.3474 11.9365 971 103.913 55.8568 457.88
442 0 87.1915 15.0129 1309 99.3361 56.0802 457.548
443 0 88.1189 15.0705 1328 100.927 55.4691 458.673
444 0 90.2066 13.6686 1233 102.851 55.0714 455.152
445 0 93.4271 16.3871 1531 98.4206 54.6551 458.048
446 0 91.2455 10.4334 952 104.47 53.1145 455.358
447 0 97.3473 13.5802 1322 101.728 52.0703 449.765
448 0 100.205 14.9593 1499 100.16 52.4149 447.416
449 0 101.191 11.7599 1190 105.497 52.3277 449.797
450 0 104.363 10.6551 1112 108.638 50.8687 448.075
451 0 107.343 11.9896 1287 105.043 50.77 447.72
452 0 111.382 14.8049 1649 102.738 51.1061 440.914
453 1 59.4389 11.2721 670 106.249 50.206 462.357
454 0 58.2513 9.93968 579 108.359 50.3057 461.777
455 0 67.0057 20.0878 1346 94.5245 49.818 457.08
456 0 67.254 13.7984 928 102.93 50.444 461.13
457 0 69.2514 14.2524 987 102.693 49.8592 461.325
458 0 67.2869 11.2206 755 108.076 49.4397 457.956
459 0 72.1523 14.0536 1014 101.418 50.3994 460.479
460 0 76.1665 16.7396 1275 98.9616 50.3624 460.296
461 0 78.1389 13.7832 1077 104.816 51.1495 452.423
462 0 79.1666 11.0779 877 108.455 52.1916 449.559
463 0 82.1735 12.2911 1010 106.881 52.5881 452.4
464 0 86.2722 11.5448 996 105.46 53.5 453.917
465 1 48.083 10.0451 483 103.915 53.0725 473.072
466 0 49.3042 14.015 691 102.373 54.0796 467.352
467 0 52.019 11.4958 598 105.875 52.0953 470.886
468 0 54.1757 11.0197 597 107.68 53.7236 468.37
469 0 58.3767 9.62713 562 107.488 54.8096 470.263
470 0 56.0757 11.6093 651 106.932 54.7604 467.788
471 0 60.1049 14.7409 886 102.411 56.1151 468.089
472 0 60.053 14.2874 858 104.669 56.0699 467.373
473 0 59.0463 16.36 966 102.154 55.9037 468.637
474 0 62.0654 15.822 982 103.081 56.6253 469.477
475 0 62.0579 9.99067 620 111.587 55.6855 473.156
476 0 65.0986 16.0833 1047 103.765 55.7202 470.838
477 0 69.2026 15.4908 1072 103.908 55.4702 473.407
478 0 71.1706 13.854 986 106.007 54.8631 472.732
479 0 73.0761 11.577 846 109.983 54.3688 473.632
480 0 74.2123 12.4508 924 109.511 53.105 473.513
481 0 77.1329 13.6777 1055 108.921 52.0038 470.353
482 0 80.1328 12.7538 1022 109.403 51.8229 470.611
483 0 85.2773 13.1805 1124 109.416 50.9502 468.502
484 1 47.1891 11.1678 527 107.167 50.7818 489.404
485 0 44.2443 10.7811 477 108.711 48.174 487.671
486 0 49.0907 12.4056 609 105.435 49.8949 488.544
487 0 50.0525 14.4049 721 103.847 48.4397 485.01
488 0 54.0495 13.6542 738 108.039 46.9472 481.625
489 0 53.0338 14.4625 767 108.907 45.9179 484.773
490 0 54.1514 15.0135 813 107.681 46.3026 483.482
491 0 56.1067 11.6564 654 114.786 45.4281 481.188
492 0 57.2327 13.0869 749 112.068 44.5874 477.929
493 0 59.1366 12.7163 752 110.904 44.1263 480.432
494 0 63.0988 14.9765 945 108.956 44.672 475.622
495 0 66.19 21.7707 1441 98.177 44.6037 478.237
496 0 64.1814 12.1686 781 114.014 43.9475 472.73
497 0 67.2639 13.9748 940 111.367 43.3021 469.636
498 0 72.046 16.5033 1189 106.235 43.0883 470.595
499 0 75.1992 12.939 973 112.794 44.1932 466.733
500 0 77.1427 15.0371 1160 110.123 44.1043 463.5
501 0 77.1384 14.0527 1084 113.398 45.1033 458.773
502 0 79.2014 14.7598 1169 111.982 45.3054 458.856
503 1 43.139 10.5705 456 110.316 46.7851 476.629
504 0 46.1631 11.2427 519 112.543 47.7611 474.47
505 0 49.2519 13.766 678 108.323 48.7847 473.304
506 0 51.1001 13.9726 714 109.752 48.5336 471.602
507 0 52.1365 13.0043 678 113.313 49.5767 469.739
508 0 50.3765 14.3122 721 113.085 50.8322 467.466
509 0 55.265 15.4709 855 110.945 52.0515 466.272
510 0 55.4004 13.8808 769 113.876 51.264 465.805
511 0 59.4339 14.4026 856 111.474 52.9977 470.396
512 0 59.069 12.934 764 114.272 53.9555 471.177
513 0 58.2314 13.412 781 116.812 54.977 464.361
514 0 63.189 15.0659 952 111.013 54.6891 469.682
515 0 63.2086 17.2445 1090 108.227 54.8202 469.567
516 0 66.174 16.638 1101 109.276 54.9264 467.51
517 0 65.4163 14.6141 956 115.524 56.501 460.888
518 0 69.3531 12.0254 834 118.832 55.199 465.186
519 1 136.279 14.4042 1963 114.434 54.8609 443.65
520 0 139.548 15.2922 2134 112.981 55.2793 442.175
521 0 144.387 11.767 1699 118.436 54.3967 438.792
522 1 78.265 12.5982 986 116.455 53.6724 466.532
523 0 81.4678 12.4957 1018 116.693 53.6159 463.029
524 1 42.1152 10.3763 437 116.449 53.4462 485.444
525 0 47.0356 12.5437 590 110.12 52.7068 485.093
526 0 46.0911 11.8461 546 114.315 52.0165 482.914
527 0 47.3387 9.67495 458 113.323 50.4127 481.122
528 0 51.11 12.4829 638 112.177 48.4906 484.795
529 0 54.222 14.3484 778 110.423 47.9807 483.772
530 0 52.0259 12.5899 655 115.644 47.2076 479.16
531 0 57.0348 17.7611 1013 105.849 46.4719 477.832
532 0 58.0681 11.7276 681 115.608 45.4963 476.884
533 0 59.12 14.2591 843 109.051 45.6157 480.516
534 0 61.1724 12.0479 737 114.406 45.2863 476.913
535 0 60.1148 12.1268 729 116.591 44.1207 471.176
536 0 67.213 16.1725 1087 106.267 43.1325 473.349
537 0 69.2726 15.7205 1089 108.034 43.247 470.833
538 0 69.0913 14.9657 1034 110.549 43.5397 468.537
539 0 70.213 11.3512 797 116.521 44.6085 467.009
540 0 76.1037 12.5224 953 113.885 43.5645 463.215
541 0 78.2949 13.6024 1065 110.52 44.477 463.823
542 0 80.2526 12.498 1003 112.286 44.7747 457.701
543 0 84.2099 14.0957 1187 107.665 45.2553 458.076
544 0 90.2426 13.9402 1258 105.712 44.9038 458.685
545 1 44.088 17.8507 787 99.9898 45.6239 476.466
546 0 44.0231 10.9942 484 109.198 45.5682 472.506
547 0 47.1406 13.5976 641 105.913 47.9298 470.688
548 0 48.041 9.72087 467 112.681 46.7623 474.647
549 0 51.1101 14.0677 719 107.344 48.0876 470.759
550 0 52.0602 14.7714 769 107.85 48.1235 470.407
551 0 51.0934 11.5866 592 113.534 47.8615 467.931
552 0 53.1319 11.3868 605 113.431 48.9504 466.96
553 0 60.1425 15.7792 949 104.121 49.8841 469.013
554 0 59.1318 12.5144 740 111.562 50.2716 467.953
555 0 63.0922 19.1624 1209 101.244 51.8387 466.256
556 0 63.1578 12.255 774 111.2 52.0659 468.124
557 0 66.2834 15.0264 996 107.383 53.8635 464.332
558 0 70.1847 17.3257 1216 103.27 53.7525 466.354
559 0 72.1855 14.6567 1058 109.094 53.7354 464.109
560 0 69.1268 11.3125 782 115.719 53.6049 463.788
561 0 77.1184 17.8557 1377 104.235 52.8606 467.16
562 0 75.1156 12.8335 964 113.671 53.1297 466.879
563 0 78.1094 13.8396 1081 112.003 52.4884 466.435
564 0 84.2044 14.6904 1237 109.194 52.4446 470.161
565 0 82.0696 13.5129 1109 113.212 51.9243 463.074
566 0 87.1112 12.4209 1082 113.212 51.6349 467.865
567 0 89.1137 17.8311 1589 105.799 51.1422 464.316
568 0 93.2129 14.8155 1381 109.684 50.6713 464.896
569 0 94.1783 9.80056 923 118.819 50.4193 463.464
570 0 99.3138 13.4926 1340 111.799 50.0119 459.05
571 0 100.237 14.1964 1423 111.749 48.903 458.34
572 1 56.1682 11.8216 664 113.011 48.497 482.23
573 0 56.0571 12.8084 718 112.999 47.7758 480.868
574 0 57.235 13.331 763 114.413 46.7143 476.073
575 0 60.1413 15.0479 905 110.851 45.9215 476.434
576 0 62.16 13.4974 839 113.75 47.0405 475.52
577 0 65.0936 13.9645 909 112.234 46.824 474.59
578 0 67.0705 12.9118 866 114.572 45.4538 469.893
579 0 71.519 15.7301 1125 108.794 46.3778 469.977
580 0 78.3941 13.075 1025 112.423 44.9922 467.723
581 0 76.3899 15.6565 1196 108.604 45.546 464.287
582 0 78.3154 14.7991 1159 111.387 45.522 464.31
583 0 79.2907 13.0659 1036 113.722 45.89 461.255
584 0 81.2884 13.4829 1096 113.24 45.5757 457.992
585 0 88.3555 16.9882 1501 109.227 45.6862 455.556
586 0 88.3484 14.522 1283 115.27 46.4583 453.434
587 0 94.4018 14.184 1339 115.776 47.9208 452.273
588 0 97.3188 13.1732 1282 118.02 48.1365 448.492
589 0 102.459 18.5928 1905 106.966 47.1543 451.537
590 0 101.238 18.2243 1845 109.354 47.69 440.672
591 0 109.473 15.8121 1731 111.075 49.186 446.158
592 1 56.1694 12.4267 698 115.466 49.7393 467.754
593 0 57.1587 13.2963 760 114.482 49.7974 466.059
594 0 61.0333 13.9432 851 114.053 51.5946 466.378
595 0 63.1724 16.1305 1019 110.611 50.7291 459
596 0 64.1719 12.1704 781 117.137 51.128 462.195
597 0 72.3333 17.129 1239 106.595 51.9919 463.689
598 0 67.3495 11.7595 792 116.659 53.0871 462.664
599 0 74.1671 15.6808 1163 109.268 54.2296 462.145
600 0 76.2673 12.4824 952 113.749 54.0557 461.881
601 0 79.5017 16.6789 1326 107.338 54.8771 456.199
602 0 83.5143 15.0753 1259 109.207 54.3995 456.863
603 0 85.308 14.2308 1214 110.139 55.1203 459.526
604 0 87.4229 12.8342 1122 113.401 54.4528 457.03
605 1 47.0988 12.3145 580 108.75 54.4931 479.853
606 0 50.062 11.4658 574 109.064 53.4181 480.422
607 0 51.7067 12.8417 664 111.715 53.7108 474.675
608 0 52.2562 12.0751 631 111.796 53.2187 477.082
609 0 56.1037 14.4554 811 108.551 52.6745 481.064
610 0 56.2665 13.4361 756 109.725 53.086 483.63
611 0 57.1451 13.6145 778 111.285 52.6684 481.29
612 0 59.4715 14.3598 854 110.81 52.582 474.981
613 0 64.6171 14.5937 943 108.261 52.0562 476.997
614 0 63.3313 14.3215 907 111.912 51.2007 475.149
615 0 66.6026 15.7351 1048 107.857 49.8989 476.822
616 0 66.4054 15.4054 1023 112.04 48.0919 466.67
617 0 68.6737 14.2558 979 114.605 49.048 470.21
618 0 71.2612 15.8431 1129 111.632 48.0726 469.545
619 0 76.7096 15.7086 1205 109.906 47.7046 471.462
620 0 77.8586 17.8143 1387 108.73 47.4477 462.355
621 0 79.4265 13.7612 1093 115.007 46.2415 463.324
622 0 81.7861 12.9606 1060 116.737 47.184 461.927
623 0 84.6151 13.0946 1108 114.906 45.7915 462.245
624 0 88.6481 14.4729 1283 113.691 45.5612 455.344
625 0 92.6695 14.1578 1312 113.02 45.8476 455.758
626 0 92.1824 14.3737 1325 113.217 45.7615 450.183
627 1 50.3928 13.5932 685 110.937 46.3752 471.063
628 0 51.1229 10.7584 550 114.375 46.2364 469.793
629 0 56.3547 12.6875 715 111.333 47.3105 468.351
630 0 56.2447 14.4903 815 109.437 47.1521 465.406
631 0 57.4207 11.5638 664 113.44 48.0437 464.601
632 0 60.3078 14.6913 886 109.585 48.4752 463.83
633 0 58.2612 12.5126 729 114.647 50.2771 460.134
634 0 64.5787 16.3986 1059 106.055 50.1945 463.76
635 0 65.4277 18.5701 1215 105.458 51.1547 460.114
636 0 68.5182 12.1865 835 114.425 50.9605 458.79
637 0 69.4088 12.6497 878 113.497 51.91 458.268
638 0 73.2861 15.9375 1168 109.981 51.7295 453.541
639 0 74.489 13.7873 1027 113.209 52.5589 452.387
640 0 77.2931 16.5215 1277 108.75 52.6265 456.301
641 0 78.3698 13.0152 1020 114.03 52.7373 456.203
642 0 84.4181 11.3957 962 115.528 54.0811 456.84
643 0 88.4898 18.5332 1640 105.259 53.8366 456.044
644 0 87.2744 15.8007 1379 111.561 55.2306 452.302
645 0 89.5041 11.776 1054 118.598 55.537 451.992
646 0 91.325 10.8076 987 119.995 54.3789 449.526
647 0 96.5413 14.4809 1398 113.218 55.5401 449.281
648 0 100.596 13.7182 1380 114.813 54.7609 449.966
649 0 104.827 14.4428 1514 113.026 53.8785 449.235
650 1 54.292 10.5172 571 113.984 53.2452 473.743
651 0 57.261 12.2596 702 112.01 53.8419 471.846
652 0 58.1909 12.4074 722 111.42 54.3102 471.497
653 0 61.2177 14.718 901 107.576 53.2098 473.583
654 0 60.1983 12.6083 759 112.601 52.9091 470.966
655 0 66.129 13.5946 899 109.541 52.8209 473.447
656 0 66.1528 15.177 1004 107.939 52.3645 473.44
657 0 68.3331 11.2391 768 114.185 50.207 469.943
658 0 71.2223 12.5382 893 112.012 50.8903 468.725
659 0 71.3468 14.6888 1048 109.77 49.4303 467.603
660 0 77.2579 14.1733 1095 108.983 49.2046 471.563
661 0 79.4028 16.2337 1289 107.713 49.1055 464.108
662 0 79.187 15.154 1200 109.228 48.6642 465.96
663 0 79.4246 10.5761 840 117.429 47.331 461.961
664 0 88.4002 16.2895 1440 106.603 47.8979 462.117
665 0 88.1788 16.5459 1459 106.672 46.8903 457.111
666 0 89.3337 14.9887 1339 107.809 46.9044 462.805
667 0 94.513 16.0613 1518 106.934 46.6555 460.839
668 0 96.3015 15.3996 1483 110.43 46.7148 455.468
669 0 99.3102 16.0608 1595 110.431 46.5956 449.927
670 0 105.281 16.3942 1726 109.378 46.7509 445.782
671 0 105.187 13.1575 1384 115.402 47.065 444.335
672 0 111.24 15.6957 1746 110.586 49.0865 440.003
673 1 62.1413 12.0693 750 108.12 46.5947 468.801
674 0 63.3327 12.3475 782 111.615 48.3082 458.33
675 0 66.1874 13.9755 925 106.933 47.3384 463.565
676 0 67.2973 12.5116 842 111.512 47.4976 458.798
677 0 71.2811 14.3516 1023 108.634 48.2219 457.198
678 0 73.1622 14.5567 1065 107.715 48.3577 457.425
679 0 75.2875 14.3052 1077 106.858 50.4448 455.915
680 0 75.2493 15.7344 1184 105.53 52.3497 454.237
681 0 81.157 13.4677 1093 108.871 51.6157 453.759
682 0 81.073 16.0226 1299 106.515 51.6428 453.286
683 0 83.0819 12.7344 1058 111.374 53.2637 450.285
684 0 89.0952 8.67611 773 113.587 53.0375 453.968
685 0 92.1041 17.0242 1568 103.83 54.6307 449.598
686 0 93.3582 10.9042 1018 112.588 54.4116 451.263
687 1 48.1067 12.6386 608 106.35 54.9046 471.65
688 0 50.1044 9.22075 462 110.898 56.5022 475.048
689 0 54.1657 11.5017 623 105.125 55.8844 476.132
690 0 54.0676 8.89628 481 109.287 55.0561 475.347
691 0 56.1 10.9982 617 106.898 56.0794 474.992
692 0 57.0838 13.4539 768 104.694 55.444 473.503
693 0 59.153 11.4449 677 106.62 54.8936 476.05
694 0 61.1678 12.3431 755 104.946 54.5113 473.457
695 0 64.5395 13.759 888 101.627 51.8119 477.401
696 0 65.3182 13.2122 863 103.11 52.4334 472.816
697 0 65.2463 11.3723 742 106.654 52.6038 468.543
698 0 68.2339 11.5045 785 106.108 52.0395 469.925
699 0 71.2389 11.9176 849 105.027 50.5842 468.283
700 0 73.2184 13.0432 955 102.584 49.423 468.22
701 0 77.4136 16.9996 1316 96.5144 48.7895 469.692
702 0 78.2768 9.60693 752 106.544 48.8098 460.432
703 0 78.092 11.5633 903 102.693 47.8483 468.076
704 0 83.1907 12.826 1067 103.404 47.0141 460.136
705 0 84.1868 12.1515 1023 104.557 46.8876 461.501
706 1 44.2107 9.90711 438 103.587 45.2694 477.893
707 0 49.1309 12.3955 609 100.31 46.0115 474.944
708 0 51.142 11.5756 592 100.938 45.1841 477.218
709 0 52.1095 14.2776 744 99.5349 45.2433 475.298
710 0 56.1267 14.1644 795 99.566 44.8843 473.937
711 0 54.1083 9.75821 528 106.261 44.8201 473.348
712 0 58.0689 12.8812 748 101.904 43.615 471.045
713 0 57.1279 13.9687 798 102.351 45.995 467.373
714 0 60.0941 9.85122 592 107.465 44.9662 467.137
715 0 62.1719 16.3579 1017 98.7335 46.2812 467.195
716 0 61.1177 11.9605 731 102.937 45.6566 470.276
717 0 64.3355 11.0514 711 107.162 46.3376 467.156
718 0 66.0945 12.5426 829 104.801 45.9662 462.888
719 0 67.1879 15.1069 1015 102.47 47.6394 460.678
720 0 71.0786 13.6609 971 104.541 47.2987 460.614
721 0 71.1246 12.6398 899 106.943 48.317 458.348
722 0 71.3895 13.9656 997 105.295 48.2287 457.456
723 0 78.1173 13.6589 1067 104.966 50.3899 455.017
724 0 82.319 12.075 994 107.643 50.7867 458.706
725 0 82.1131 12.8725 1057 108.456 50.9697 455.276
726 0 85.0989 14.8533 1264 106.557 52.2611 455.047
727 0 89.3511 13.2735 1186 107.604 52.9266 456.057
728 1 37.0988 3.04592 113 122.664 53.2655 469.717
729 0 47.0985 10.9982 518 108.284 53.1776 473.521
730 0 52.0669 14.0012 729 105.708 53.6722 472.01
731 0 54.0564 12.006 649 108.245 54.0431 472.564
732 0 58.1254 12.9375 752 107.162 54.246 474.299
733 0 58.1744 15.402 896 106.689 53.3493 472.013
734 0 63.2055 13.29 840 109.283 52.7964 474.967
735 0 61.1371 14.2139 869 107.003 53.0921 479.574
736 0 63.0709 14.2379 898 109.267 52.0702 475.216
737 0 66.1108 13.9614 923 110.683 53.0856 474.296
738 0 64.0748 10.4097 667 117.961 52.3343 474.652
739 0 69.0927 14.9075 1030 111.717 52.4631 472.947
740 0 70.0702 14.5854 1022 113.693 51.2505 471.871
741 0 70.1642 12.8413 901 117.997 51.6437 469.599
742 0 75.2088 12.0863 909 118.238 50.5842 472.224
743 0 78.0819 15.1892 1186 113.314 48.9359 468.197
744 0 81.1448 16.8711 1369 110.06 49.8181 467.915
745 0 81.1921 12.7106 1032 113.822 48.7578 467.231
746 0 84.2278 17.3814 1464 108.419 48.9365 465.471
747 0 87.2541 15.9763 1394 111.351 48.1944 461.314
748 0 89.4225 16.1592 1445 112.614 47.5183 459.84
749 0 92.1351 16.9317 1560 109.576 48.5891 457.243
750 0 95.2679 15.5771 1484 113.788 48.2298 458.327
751 0 100.26 18.5818 1863 108.743 47.9678 452.485
752 0 102.223 15.9847 1634 113.373 48.2791 451.136
753 0 106.133 15.0283 1595 113.469 46.9906 449.718
754 1 59.0795 13.0164 769 112.203 46.0793 473.36
755 0 59.4766 12.1897 725 115.177 46.5559 472.223
756 0 61.1968 14.1184 864 115.012 47.3067 464.579
757 0 61.1287 12.2365 748 118.535 47.6832 466.814
758 0 67.166 13.9952 940 112.893 47.884 466.07
759 0 67.2646 13.0678 879 115.032 48.0034 462.165
760 0 71.3165 13.9238 993 114.194 49.3555 459.878
761 0 72.1671 13.635 984 116.223 49.1768 455.656
762 0 76.1986 12.9136 984 116.189 50.628 454.598
763 0 76.207 13.7258 1046 115.461 50.2505 454.369
764 0 81.133 13.8168 1121 112.634 51.3649 456.248
765 0 82.122 16.1711 1328 108.58 51.8652 457.672
766 0 85.1442 14.8806 1267 112.272 52.1026 450.489
767 0 88.1322 14.7619 1301 110.503 53.0492 454.006
768 0 91.255 15.0786 1376 111.442 53.8757 450.994
769 0 92.0796 10.8928 1003 118.106 54.1396 449.605
770 0 96.0996 15.0261 1444 112.006 54.3913 445.515
771 0 97.324 11.9909 1167 116.603 54.6007 450.464
772 0 101.232 13.8 1397 114.994 54.476 445.071
773 0 104.192 15.078 1571 112.402 54.2202 446.748
774 0 107.177 12.6427 1355 116.569 55.2022 447.241
775 0 108.12 14.7058 1590 115.005 55.8252 442.009
776 0 115.179 14.4818 1668 114.375 55.9508 447.122
777 0 122.201 17.4794 2136 107.918 55.3516 440.779
778 1 65.2298 10.44 681 115.819 54.5389 470.946
779 0 66.1186 10.1938 674 117.004 54.2893 463.858
780 0 70.2897 11.2534 791 114.402 55.2971 468.731
781 0 73.0974 13.0237 952 111.439 53.0095 464.589
782 0 78.2289 10.661 834 116.362 53.0504 467.247
783 0 77.1539 11.1466 860 116.364 54.0907 464.792
784 0 82.1516 10.0911 829 117.024 52.222 465.753
785 0 85.1861 12.8659 1096 112.226 51.8422 461.604
786 0 92.236 14.2461 1314 105.448 51.4665 469.621
787 0 88.1805 12.2249 1078 114.025 50.6957 459.186
788 0 92.2037 12.8303 1183 113.032 50.6306 457.149
789 0 100.131 11.5849 1160 113.079 49.256 457.552
790 0 100.196 12.1362 1216 114.084 50.509 451.692
791 0 100.119 11.8759 1189 115.701 49.5997 450.519
792 0 104.246 13.3819 1395 111.802 49.9025 446.66
793 1 57.0944 10.2812 587 112.688 48 467.819
794 0 59.1001 9.5093 562 111.375 47.9448 469.201
795 0 65.315 12.2483 800 107.664 49.8062 464.335
796 0 63.211 9.9508 629 111.038 49.4849 461.798
797 0 67.1709 11.4484 769 110.142 47.9415 464.373
798 0 66.056 10.0218 662 115.32 46.7976 457.631
799 0 71.17 11.6622 830 110.748 45.3904 454.635
800 0 71.2492 11.0317 786 113.44 47.7048 453.102
801 0 77.0764 13.1039 1010 108.859 46.7901 452.639
802 0 76.1794 12.208 930 112.153 48.4398 448.515
803 0 79.1097 12.3499 977 110.986 49.6213 449.588
804 0 86.2184 14.4285 1244 105.775 50.2701 453.527
805 0 84.3348 11.146 940 114.462 50.584 446.886
806 0 85.3495 11.7283 1001 113.114 51.1918 447.284
807 0 92.2459 13.3448 1231 110.543 52.6824 445.985
808 0 97.4463 13.1868 1285 110.397 52.6148 444.261
809 0 100.255 15.9991 1604 105.039 53.1602 448.128
810 0 96.4205 13.6278 1314 110.189 53.9269 447.301
811 0 101.208 10.6612 1079 117.507 55.2373 439.171
812 1 56.1319 12.0431 676 107.788 55.1524 462.654
813 0 56.1291 11.2954 634 108.954 55.3107 464.233
814 0 57.0913 12.4012 708 105.691 54.9619 467.585
815 0 59.1877 10.8637 643 108.086 55.5023 466.412
816 0 60.1543 11.8695 714 107.347 54.8179 467.434
817 0 59.0484 9.9918 590 112.741 54.622 463.28
818 0 65.0657 12.1108 788 107.887 55.1053 465.429
819 0 66.0718 13.1524 869 106.801 55.9218 463.123
820 0 67.1277 11.1578 749 109.144 55.3939 468.382
821 0 71.1906 11.6027 826 110.033 54.4661 462.625
822 0 72.1678 14.1753 1023 106.933 54.4663 466.64
823 0 73.0968 13.9541 1020 107.844 54.8471 466.726
824 0 75.0426 12.3263 925 111.398 53.4714 462.259
825 0 80.1011 15.2557 1222 106.535 52.9141 464.764
826 0 81.0785 15.2075 1233 107.908 52.3285 459.339
827 0 82.1841 11.3161 930 113.965 53.0602 464.138
828 0 83.1158 12.5849 1046 108.902 53.4321 462.098
829 0 88.0652 10.4355 919 113.286 52.1284 452.952
830 0 86.1179 10.4508 900 114.281 51.0167 463.859
831 1 51.0846 12.9589 662 107.991 50.7009 477.456
832 0 53.3353 12.4308 663 107.578 48.9759 476.738
833 0 51.151 10.5179 538 112.156 48.2974 474.217
834 0 52.1238 9.22803 481 115.503 48.6029 472.285
835 0 55.1312 11.3547 626 113.219 48.9185 472.484
836 0 56.1001 11.4616 643 113.608 48.9331 471.572
837 0 59.1082 12.9931 768 108.917 49.4883 471.249
838 0 58.2241 11.576 674 112.102 48.6795 468.364
839 0 62.1105 12.8803 800 109.251 48.8325 467.801
840 0 64.0938 13.4959 865 109.118 48.7353 464.059
841 0 65.2312 12.0954 789 110.01 48.858 465.345
842 0 68.1859 15.1644 1034 105.516 48.5948 465.655
843 0 70.1846 12.4101 871 110.899 49.4328 461.222
844 0 72.2777 13.462 973 108.898 49.6855 459.244
845 0 74.1443 12.2869 911 111.285 49.7278 457.615
846 0 77.1852 12.1526 938 112.166 49.693 455.593
847 0 80.3582 14.0745 1131 109.054 50.6835 453.003
848 0 84.1313 15.0004 1262 107.163 50.7876 450.399
849 0 85.1869 12.725 1084 111.724 52.0203 447.969
850 0 88.3614 15.629 1381 106.581 52.2694 448.042
851 0 93.2349 13.1067 1222 115.038 52.2111 444.7
852 1 51.185 12.445 637 110.209 52.7425 467.381
853 0 55.1339 10.4654 577 112.759 53.9289 465.837
854 0 56.1515 12.395 696 109.961 53.6566 464.22
855 0 58.1696 12.6183 734 107.881 54.8106 466.67
856 0 60.1378 13.6852 823 107.668 55.2333 466.002
857 0 64.2645 12.2463 787 111.883 56.0483 466.186
858 0 63.1426 11.4344 722 116.843 54.6856 463.6
859 0 68.3168 10.7441 734 114.902 56.0504 466.328
860 0 66.5014 12.5862 837 113.965 56.7861 464.519
861 0 66.1518 11.0352 730 116.123 56.8671 465.568
862 0 70.2293 13.7122 963 112.093 55.9917 462.725
863 0 79.2704 13.1449 1042 111.181 57.0413 463.182
864 0 80.1431 12.1657 975 112.917 56.2759 464.389
865 0 83.3054 12.028 1002 111.119 56.3443 467.814
866 0 79.3083 11.2599 893 117.099 56.075 461.581
867 0 82.328 12.596 1037 113.111 55.6827 465.354
868 0 85.155 12.9763 1105 112.872 53.8262 463.228
869 0 89.2382 14.6238 1305 111.15 54.7939 462.498
870 0 93.4277 12.2448 1144 114.477 53.7526 462.015
871 0 95.2686 16.0808 1532 107.383 53.7076 461.253
872 0 98.4985 15.0256 1480 110.697 52.2845 454.564
873 0 101.616 15.4996 1575 109.517 51.0273 453.497
874 0 386.224 18.8388 7276 108.918 50.8142 299.056
875 1 107.226 13.5322 1451 112.25 50.1668 450.4
876 0 110.36 13.1025 1446 113.895 50.0256 447.899
877 0 112.364 12.6197 1418 115.378 49.366 442.709
878 0 112.479 11.7711 1324 116.884 48.4675 447.022
879 0 111.423 12.3493 1376 118.836 49.5836 443.015
880 0 121.428 15.046 1827 111.696 49.5889 442.556
881 1 65.2692 10.7248 700 115.214 49.0557 466.767
882 0 68.1732 11.7788 803 113.081 48.528 464.418
883 0 72.2473 11.2669 814 114.063 48.5885 462.424
884 0 81.1404 9.58832 778 117.081 48.8779 460.305
885 0 80.2772 12.8928 1035 111.51 49.1739 459.704
886 0 80.1289 12.5423 1005 110.364 48.8378 461.898
887 1 150.777 10.8239 1632 119.895 50.5968 421.267
888 0 153.772 12.5835 1935 115.794 50.7276 424.382
889 0 158.71 10.7428 1705 120.347 50.5971 416.704
890 0 163.296 13.6317 2226 115.961 51.9128 414.903
891 1 91.4256 15.2802 1397 109.163 52.4202 449.776
892 0 94.4562 14.2182 1343 111.33 52.3909 444.78
893 0 99.2758 13.1855 1309 113.594 53.3025 447.319
894 0 102.424 15.9338 1632 107.325 53.0509 448.673
895 0 104.46 11.4111 1192 117.206 53.901 441.245
896 0 104.292 10.998 1147 116.891 55.265 444.905
897 0 112.237 12.1796 1367 112.967 55.5523 442.707
898 0 116.225 11.3487 1319 112.893 54.8969 442.545
899 1 60.1907 13.4074 807 105.431 55.6592 465.792
900 0 62.3502 15.6054 973 101.771 56.7112 464.747
901 0 63.0641 11.6231 733 107.775 57.7149 469.577
902 0 66.1296 12.0218 795 106.974 57.2277 464.155
903 0 67.0752 13.1345 881 109.11 56.4064 466.213
904 0 69.0643 12.6838 876 110.1 56.1336 465.788
905 0 71.1642 12.4501 886 109.664 56.6445 467.852
906 0 73.4002 12.7929 939 109.818 57.0969 465.457
907 0 74.2753 10.8246 804 112.119 56.5846 465.99
908 0 79.1559 17.0802 1352 101.868 56.5111 469.112
909 0 80.2279 9.39823 754 113.095 56.2427 466.663
910 0 82.1354 10.1905 837 112.743 55.4671 462.355
911 0 81.26 12.1831 990 110.431 54.8394 460.929
912 0 88.2853 11.6101 1025 109.985 54.278 460.26
913 0 88.2248 14.4971 1279 106.2 53.4871 461.568
914 0 96.2611 13.7543 1324 106.994 53.145 460.366
915 0 97.2123 12.7144 1236 109.639 52.1877 457.727
916 0 97.2412 13.9653 1358 107.576 51.4764 458.722
917 1 241.855 14.4963 3506 111.443 51.1942 393.157
918 0 251.461 13.6641 3436 113.251 50.8667 384.586
919 0 260.214 12.9125 3360 114.943 49.5235 382.081
920 0 259.088 11.1622 2892 120.169 49.3026 374.303
921 1 109.304 9.42326 1030 117.312 48.7767 446.133
922 0 116.16 10.8987 1266 114.397 48.5806 444.949
923 0 119.285 13.3546 1593 110.574 48.2097 446.813
924 1 244.394 14.5871 3565 112.034 48.963 393.284
925 1 305.011 12.3471 3766 118.662 49.2958 358.687
926 1 78.3378 9.33138 731 113.59 50.0834 465.41
927 0 77.2151 10.4125 804 111.419 49.648 465.077
928 0 77.2097 13.6382 1053 108.335 50.4122 456.533
929 0 79.238 12.3804 981 111.176 49.9256 457.707
930 0 81.1968 12.2172 992 111.134 49.7077 456.532
931 0 83.1956 12.4526 1036 111.65 50.0743 452.777
932 0 85.6759 12.7107 1089 111.391 51.404 452.304
933 0 93.3119 10.9525 1022 113.476 51.271 448.932
934 0 95.3419 12.7856 1219 110.213 51.84 450.655
935 0 94.116 14.1102 1328 111.341 52.6642 443.466
936 0 98.1568 12.969 1273 112.126 52.6253 444.233
937 0 107.368 11.754 1262 112.786 53.1807 448.609
938 0 102.216 11.8671 1213 115.73 53.399 442.289
939 0 111.503 15.0041 1673 108.45 54.2415 445.185
940 0 109.307 14.8481 1623 111.518 54.8546 438.765
941 1 60.0952 10.2171 614 112.088 54.4088 467.997
942 0 63.2754 12.4535 788 112.782 54.9645 465.122
943 0 65.1707 14.1014 919 109.889 55.5887 464.597
944 0 67.2228 12.5404 843 115.149 56.9182 463.641
945 0 72.2625 12.5653 908 114.313 56.2764 465.862
946 0 71.1856 13.0082 926 116.728 56.1404 462.091
947 0 74.2605 11.9579 888 116.452 56.7973 465.609
948 0 77.7977 13.9336 1084 113.657 57.012 465.433
949 0 80.2648 11.1257 893 119.246 57.271 462.062
950 0 83.1565 10.8951 906 119.235 57.0375 464.789
951 0 84.507 12.6617 1070 117.326 56.4785 464.384
952 0 82.3796 6.80994 561 122.768 56.0606 471.15
953 0 92.4975 13.1679 1218 117.305 56.4335 458.412
954 0 94.4299 12.1042 1143 118.121 55.8469 461.782
955 0 97.5862 14.3873 1404 116.144 55.9879 454.514
956 0 101.453 13.8093 1401 115.515 54.0457 457.046
957 1 60.1564 14.1963 854 110.05 53.8642 477.618
958 0 61.0788 12.4266 759 114.142 52.6443 475.48
959 0 62.137 13.084 813 114.638 52.0664 475.854
960 0 66.1514 14.0435 929 111.887 51.6728 473.894
961 0 64.102 12.0589 773 121.185 51.1488 475.944
962 0 67.1017 11.8775 797 121.336 51.8833 473.094
963 0 69.1376 15.0714 1042 114.69 49.7793 473.298
964 0 74.1362 13.5831 1007 117.371 50.428 469.432
965 0 74.2473 13.9803 1038 116.964 49.0925 467.672
966 0 75.2952 11.9397 899 122.128 49.0367 463.67
967 0 79.1829 14.4602 1145 116.644 49.1057 463.182
968 0 80.36 12.3569 993 120.705 48.2367 458.985
969 0 81.274 11.4551 931 123.011 48.2245 458.912
970 0 86.4179 13.8166 1194 114.332 48.3032 461.508
971 0 91.4248 13.0162 1190 115.376 48.7597 457.904
972 0 94.6739 13.3405 1263 114.5 49.8076 453.958
973 0 98.157 14.3647 1410 111.978 49.8362 453.236
974 0 98.5568 13.5455 1335 116.619 50.4412 444.109
975 0 104.492 14.2211 1486 111.486 49.9482 443.984
976 0 112.568 11.593 1305 114.428 51.1387 445.888
977 0 108.445 12.0245 1304 115.4 52.5429 440.619
978 0 114.419 13.7389 1572 111.609 53.0611 441.955
979 1 62.4372 10.5386 658 114.486 53.7599 463.374
980 0 61.1495 13.1481 804 108.857 54.3694 460.016
981 0 62.2264 11.3135 704 113.027 54.1108 460.033
982 0 65.144 12.9099 841 108.369 54.5065 461.819
983 0 69.4106 13.5714 942 107.538 55.7792 458.735
984 0 69.3326 11.7117 812 109.405 55.6022 458.847
985 0 72.4007 10.3728 751 111.714 56.984 457.253
986 0 74.4227 11.9587 890 108.306 57.5404 457.858
987 0 72.1068 8.94507 645 113.496 56.9147 455.964
988 0 83.3378 11.6394 970 104.935 58.0608 459.93
989 0 79.0612 9.78988 774 113.137 58.0129 457.955
990 1 163.59 10.7403 1757 115.051 57.7763 422.294
991 0 168.393 14.8106 2494 111.41 57.0457 419.504
992 0 172.635 13.3172 2299 110.596 57.3058 426.234
993 0 176.449 14.2307 2511 111.321 56.7997 416.092
994 0 179.617 12.9776 2331 114.855 56.2711 413.767
995 1 52.0225 11.322 589 103.878 54.9185 477.935
996 0 51.0539 8.28537 423 110.147 55.6028 478.837
997 0 58.238 13.0671 761 106.093 55.4823 473.717
998 0 60.1206 13.3232 801 106.451 55.0799 474.673
999 0 58.2591 11.8608 691 112.628 55.1809 473.508
1000 0 62.0888 11.4191 709 111.131 52.9817 474.496
1001 0 67.2101 9.20993 619 115.754 53.399 471.717
1002 0 67.1141 10.9664 736 113.068 52.2636 470.838
1003 0 67.2339 14.1595 952 106.902 52.0263 471.12
1004 0 69.2039 12.1091 838 111.178 51.7076 468.834
1005 0 71.1376 12.1033 861 110.226 50.8664 469.856
1006 0 73.1381 12.1688 890 110.416 50.391 470.536
1007 0 75.1683 10.7625 809 112.365 50.492 467.319
1008 0 76.1925 9.90911 755 115.989 49.5457 464.265
1009 0 77.1118 10.8414 836 114.207 49.5754 462.953
1010 0 79.1876 13.2344 1048 112.277 49.1155 458.542
1011 0 82.1708 13.4111 1102 111.13 50.1878 460.149
1012 0 81.1758 11.0378 896 116.158 50.4174 457.667
1013 0 88.1369 12.1175 1068 113.921 49.5075 457.059
1014 0 82.2328 5.93437 488 123.947 49.8996 455.854
1015 1 53.1972 14.5121 772 105.22 48.7513 469.24
1016 0 52.0942 9.1373 476 114.466 50.5567 469.96
1017 0 53.0744 10.1932 541 114.553 49.464 468.625
1018 0 55.1879 11.325 625 112.298 50.5312 466.856
1019 0 55.2515 10.5699 584 115.724 51.5394 465.308
1020 0 58.1274 13.4876 784 112.112 51.815 461.552
1021 0 58.1204 12.9043 750 113.304 52.72 459.557
1022 0 61.133 12.6282 772 115.193 53.1321 459.034
1023 0 61.3902 11.4025 700 117.384 52.9471 461.43
1024 0 65.2548 13.0872 854 112.727 53.0972 460.348
1025 0 66.159 15.0698 997 111.014 55.0542 455.54
1026 0 66.2286 12.6833 840 115.024 54.7417 455.757
1027 0 70.1829 10.2732 721 117.868 55.7295 459.971
1028 0 72.2507 15.377 1111 110.745 56.4068 456.578
1029 0 75.4156 13.7505 1037 112.655 56.6567 456.381
1030 0 75.1588 13.9172 1046 113.649 56.6692 457.12
1031 0 78.2041 13.9507 1091 113.619 56.5729 457.094
1032 0 78.1672 13.3944 1047 115.853 56.4642 455.595
1033 0 86.2951 15.9337 1375 110.757 56.7222 456.333
1034 0 89.2588 13.9482 1245 114.37 56.7888 455.752
1035 0 88.2111 10.9964 970 120.352 56.8505 456.462
1036 0 92.2693 11.8783 1096 119.042 54.9735 453.563
1037 1 173.509 11.8438 2055 117.813 56.4856 423.739
1038 0 176.539 10.4736 1849 120.738 56.3283 413.318
1039 1 55.1225 11.1026 612 114.534 55.2075 478.288
1040 0 56.0349 12.635 708 114.201 54.5777 475.873
1041 0 58.0579 11.5058 668 116.097 54.7126 476.472
1042 0 60.029 11.3945 684 117.323 53.0336 475.747
1043 0 62.1578 9.54023 593 124.987 53.7049 471.796
1044 0 64.0725 12.0176 770 119.835 51.5468 473.827
1045 0 66.1236 11.7961 780 121.19 52.7641 472.206
1046 0 67.1113 15.3476 1030 114.327 52.5369 469.977
1047 0 71.1758 12.6447 900 117.778 51.8289 467.464
1048 0 73.1356 12.8939 943 117.944 50.333 463.806
1049 0 74.1397 11.6941 867 120.276 50.2272 463.029
1050 0 78.2256 12.3745 968 117.825 49.5455 462.428
1051 0 78.1054 13.8275 1080 116.191 49.7769 460.642
1052 0 83.1232 14.5687 1211 114.528 49.2593 459.277
1053 0 84.1431 12.0747 1016 119.671 49.5236 457.527
1054 0 87.1544 12.1738 1061 118.439 49.4958 460.412
1055 0 91.1484 18.2011 1659 109.442 49.2321 450.576
1056 0 93.1292 12.3162 1147 119.432 49.2607 450.536
1057 0 97.1874 14.2097 1381 116.996 49.1658 451.134
1058 0 100.223 14.7371 1477 116.043 48.9059 449.203
1059 1 55.0359 8.08563 445 116.618 48.836 475.703
1060 0 55.1589 11.1677 616 113.794 49.6429 470.882
1061 0 58.1114 13.3709 777 111.317 49.269 467.268
1062 0 59.0356 14.5336 858 110.808 49.3263 464.418
1063 0 61.2818 11.6021 711 118.46 49.7792 464.1
1064 0 66.1686 13.3296 882 114.181 50.7222 464.478
1065 0 66.1054 13.8264 914 115.092 51.593 461.019
1066 0 65.0846 12.3685 805 120.384 51.5081 457.437
1067 0 65.0808 11.9083 775 121.227 52.0839 457.47
1068 0 72.07 15.2213 1097 112.421 53.9654 460.147
1069 0 70.0876 15.5234 1088 113.688 54.0662 456.827
1070 0 71.2055 11.5721 824 121.228 54.8714 455.767
1071 0 74.0828 14.0788 1043 116.905 55.1476 459.575
1072 0 78.1114 14.953 1168 114.203 55.232 458.594
1073 0 81.0964 13.2312 1073 116.792 56.4874 458.852
1074 0 86.1816 12.5317 1080 118.331 58.0426 455.477
1075 0 83.2711 12.9096 1075 119.107 56.7619 455.196
1076 1 161.778 13.8214 2236 115.851 57.0309 428.226
1077 1 140.374 9.59582 1347 121.039 57.4981 444.98
1078 1 94.2612 15.0115 1415 115.618 56.2332 451.146
1079 0 98.1942 11.6708 1146 118.854 56.8857 457.191
1080 0 102.307 12.0128 1229 118.433 55.7258 456.007
1081 1 53.2691 10.4188 555 114.247 55.773 479.742
1082 0 51.0421 10.4424 533 117.287 55.3283 476.484
1083 0 55.0714 13.5279 745 111.663 55.1114 476.835
1084 0 59.12 11.4851 679 115.417 54.2504 477.968
1085 0 58.1125 13.0953 761 114.092 54.0696 475.505
1086 0 60.1017 13.943 838 114.481 53.6265 476.03
1087 0 62.2365 11.6652 726 117.459 52.6501 476.295
1088 0 66.1092 13.2206 874 116.297 50.5801 470.836
1089 0 66.0712 14.106 932 116.167 50.0579 470.851
1090 0 69.1215 12.6155 872 117.831 49.9083 473.497
1091 0 72.1072 12.5508 905 117.785 49.4177 472.122
1092 0 73.2585 13.582 995 118.254 48.9327 467.495
1093 0 76.1499 12.239 932 119.727 48.4571 468.933
1094 0 78.2552 12.4465 974 119.527 47.5524 467.03
1095 0 80.1767 13.3206 1068 118.321 47.97 465.498
1096 0 80.141 12.0038 962 120.966 46.9241 461.291
1097 0 86.27 13.4114 1157 118.711 47.8176 461.731
1098 0 86.331 12.9386 1117 118.261 46.1764 462.578
1099 0 91.1669 12.1864 1111 120.115 47.4482 459.955
1100 0 94.178 13.4214 1264 118.294 47.2903 457.832
1101 0 97.1326 12.4366 1208 121.047 47.4512 453.232
1102 0 101.507 11.2012 1137 122.549 47.6086 451.375
1103 1 54.0872 10.8528 587 119.135 48.339 473.613
1104 0 58.1622 13.1185 763 114.895 49.464 471.079
1105 0 58.1144 13.4562 782 114.6 48.5345 469.954
1106 0 59.1911 12.5019 740 116.881 49.3365 467.131
1107 0 61.0531 13.5783 829 114.855 49.2328 468.199
1108 0 63.0532 15.8913 1002 112.593 50.8393 465.445
1109 0 65.1677 13.7952 899 115.424 51.5829 465.42
1110 0 65.2058 13.6338 889 115.481 52.3937 464.16
1111 0 64.1752 9.5364 612 124.165 52.8791 461.701
1112 0 72.0894 16.2576 1172 111.949 53.8601 461.326
1113 0 74.2938 17.35 1289 110.607 54.0233 461.473
1114 0 72.1888 10.2509 740 124.811 53.5811 462.347
1115 0 76.2404 12.6967 968 120.122 54.5826 460.284
1116 0 78.4919 11.8993 934 122.156 55.2302 458.986
1117 0 78.3265 11.7202 918 123.511 54.9434 454.821
1118 0 85.2055 13.6728 1165 117.603 55.788 461.335
1119 0 86.2204 11.1575 962 121.351 55.4408 463.725
1120 0 87.1641 12.0118 1047 124.315 55.3391 457.081
1121 0 94.3157 12.2991 1160 122.316 55.2853 457.253
1122 0 95.3484 11.4632 1093 125.81 55.1949 456.456
1123 1 55.1071 12.1581 670 123.833 54.9015 477.275
1124 0 56.094 11.1598 626 126.626 54.1118 478.704
1125 0 56.0529 10.615 595 122.417 53.2387 480.918
1126 0 56.044 10.2063 572 125.72 53.6976 477.04
1127 0 60.0815 11.9837 720 123.914 53.7097 476.721
1128 0 62.0802 11.8556 736 124.739 52.1698 476.928
1129 0 63.1329 11.4204 721 127.427 51.8488 472.405
1130 0 65.0984 12.2277 796 125.466 51.1043 477.03
1131 0 68.0871 12.9099 879 124.705 50.7008 477.767
1132 0 69.1596 12.6808 877 128.976 48.8187 471.483
1133 0 73.2143 11.9512 875 130.282 48.6423 468.377
1134 0 74.1036 15.3704 1139 123.377 47.1747 469.487
1135 0 74.2412 9.91363 736 136.342 48.6359 466.523
1136 0 78.2252 15.1614 1186 123.97 47.6358 469.713
1137 0 81.3103 13.5776 1104 125.599 47.1721 467.938
1138 0 83.1947 12.2965 1023 129.238 46.0137 460.917
1139 0 87.2235 14.503 1265 122.977 46.5708 465.288
1140 0 85.4591 10.2037 872 134.124 46.3968 457.048
1141 0 91.3116 12.419 1134 128.693 46.127 458.5
1142 0 93.2318 12.3992 1156 130.199 45.2612 453.456
1143 0 98.4242 14.3257 1410 125.223 44.8355 455.224
1144 1 51.1882 8.04873 412 126.112 44.8616 480.49
1145 0 54.1159 11.4015 617 122.801 45.8687 474.718
1146 0 57.2656 13.3414 764 120.077 46.3115 473.415
1147 0 56.0999 12.2995 690 122.449 46.4681 468.713
1148 0 57.2725 10.6683 611 129.334 48.0229 466.116
1149 0 59.1942 9.30834 551 131.764 48.3448 466.848
1150 0 64.1842 14.1779 910 122.708 48.2681 461.134
1151 0 63.1871 11.3473 717 127.025 49.0042 463.402
1152 0 67.1958 11.1763 751 126.924 50.3475 466.804
1153 0 68.3977 12.515 856 126.432 50.5584 465.762
1154 0 68.2043 12.8291 875 125.568 52.2343 464.247
1155 0 66.2833 9.76113 647 129.563 51.6847 465.502
1156 0 74.3824 11.3199 842 126.542 52.1829 464.93
1157 0 76.2774 12.9396 987 124.591 53.3526 459.92
1158 0 76.5027 11.8819 909 126.287 52.8955 458.121
1159 0 82.3989 13.1434 1083 121.51 55.0148 461.54
1160 0 83.2991 11.8249 985 123.946 54.5655 461.15
1161 0 85.2552 11.7999 1006 126.128 56.4821 460.129
1162 0 85.2159 12.3569 1053 125.525 55.1197 458.685
1163 0 88.543 12.5815 1114 126.311 56.6373 456.61
1164 0 93.3349 11.0462 1031 127.975 56.0679 459.172
1165 0 94.5452 11.9096 1126 127.263 56.4911 460.647
1166 0 98.3946 12.9682 1276 125.603 56.0165 459.901
1167 0 94.2372 12.4261 1171 128.661 55.0521 456.438
1168 0 95.2127 10.0932 961 128.699 54.4839 464.759
1169 0 99.3624 10.4265 1036 126.776 53.972 468.997
1170 0 96.371 5.81088 560 133.589 53.5857 469.759
1171 0 100.387 9.26417 930 133.972 54.3194 465.838
1172 1 65.045 12.5452 816 125.743 53.4828 476.464
1173 0 63.12 11.5811 731 128.159 53.015 475.111
1174 0 65.1332 11.7298 764 128.449 52.4071 474.418
1175 0 69.1812 15.0474 1041 122.431 50.6378 472.864
1176 0 72.1229 14.808 1068 122.616 50.9775 474.179
1177 0 72.2336 12.0304 869 128.301 50.2727 473.446
1178 0 75.125 12.619 948 128.555 49.7637 469.277
1179 0 77.1245 17.582 1356 116.993 49.2006 472.167
1180 0 79.1984 13.4094 1062 125.482 48.9313 469.828
1181 0 84.325 14.5153 1224 123.713 48.2737 465.404
1182 0 86.3232 17.2607 1490 119.852 47.5362 461.931
1183 0 87.3519 14.8823 1300 124.339 47.6038 462.074
1184 0 88.5549 12.3991 1098 130.475 47.5537 457.273
1185 0 92.3818 13.022 1203 128.277 47.4131 458.896
1186 1 52.0343 11.5693 602 126.113 47.0914 475.836
1187 0 55.0664 12.5848 693 122.952 47.7475 476.87
1188 0 56.0581 9.57935 537 129.795 48.1471 473.296
1189 0 60.0518 14.5375 873 123.337 47.646 472.081
1190 0 59.1039 12.0635 713 128.794 48.2693 469.446
1191 0 60.0891 11.666 701 131.297 49.7418 465.161
1192 0 63.2046 14.8565 939 124.833 49.6358 466.938
1193 0 63.1516 12.1929 770 132.071 49.9727 462.135
1194 0 67.1398 13.6432 916 126.568 50.5218 464.74
1195 0 68.1196 13.6671 931 126.603 50.7336 463.169
1196 0 71.1253 10.6854 760 131.072 52.0513 459.864
1197 0 72.1549 12.9444 934 128.087 52.4518 458.36
1198 0 74.1425 14.027 1040 126.842 52.5692 457.327
1199 0 73.2035 11.065 810 133.083 53.6346 455.463
1200 0 80.3415 13.9654 1122 128.119 53.279 455.908
1201 0 83.2818 14.8532 1237 125.376 53.4891 457.329
1202 1 215.805 13.9385 3008 137.054 54.0432 388.094
1203 1 160.449 13.4622 2160 133.328 54.8208 420.5
1204 0 160.62 12.8315 2061 133.695 55.4139 428.247
1205 0 166.616 11.9916 1998 135.843 55.529 425.599
1206 1 247.722 13.1196 3250 136.29 56.2606 392.543
1207 1 53.056 10.2156 542 129.524 55.5793 474.651
1208 0 55.0584 12.0418 663 127.884 54.9578 473.189
1209 0 59.0326 12.8573 759 126.103 54.7734 474.393
1210 0 59.1242 12.6682 749 126.521 55.1589 475.648
1211 0 58.094 12.1527 706 129.262 54.4844 475.756
1212 0 62.0782 12.6292 784 127.892 54.7334 478.175
1213 0 63.0543 13.4329 847 127.336 53.8146 475.917
1214 0 65.0645 12.0342 783 130.558 53.3436 473.723
1215 0 67.1357 11.4395 768 131.482 52.5664 473.389
1216 0 71.1372 12.4267 884 128.963 50.6572 473.862
1217 0 74.1821 11.1752 829 130.702 50.9324 472.434
1218 0 74.0922 9.44769 700 131.181 50.6629 473.907
1219 0 77.0812 11.7928 909 127.53 49.3443 468.795
1220 0 78.1654 12.1537 950 126.554 48.6937 469.533
1221 0 82.153 10.3952 854 126.547 47.6932 470.834
1222 0 84.0959 13.2349 1113 124.333 48.0252 465.584
1223 0 87.128 12.0627 1051 125.276 47.156 463.947
1224 0 86.1468 9.26326 798 131.338 46.8947 459.174
1225 0 92.0644 13.0126 1198 123.523 47.1302 461.042
1226 1 53.0894 9.3239 495 127.218 47.095 474.891
1227 0 55.0748 11.1666 615 122.361 46.7024 474.969
1228 0 57.1464 11.4793 656 124.605 47.9314 473.852
1229 1 146.327 11.4607 1677 132.239 46.87 431.872
1230 1 102.478 7.1625 734 130.98 47.1948 458.016
1231 0 110.243 11.5472 1273 125.643 48.4525 452.854
1232 0 107.324 6.69937 719 136.992 48.4047 442.975
1233 0 111.258 8.31405 925 133.109 50.0043 445.829
1234 0 118.279 12.1323 1435 126.932 49.4627 440.355
1235 0 121.111 11.1138 1346 128.642 49.9993 436.502
1236 0 124.387 14.1414 1759 123.566 49.7709 435.562
1237 0 128.379 12.097 1553 127.209 51.6375 430.91
1238 1 72.1384 11.1452 804 123.211 51.0373 457.6
1239 0 75.1637 10.5104 790 123.014 51.4165 460.872
1240 0 74.3272 10.104 751 126.491 52.1771 454.828
1241 0 78.1345 12.2481 957 123.41 52.8976 455.451
1242 0 82.0988 11.7054 961 124.443 53.3538 456.322
1243 0 83.15 9.77751 813 128.913 53.7848 453.412
1244 1 228.688 16.2098 3707 130.439 55.1033 378.212
1245 0 231.856 11.5632 2681 136.738 55.204 389.29
1246 1 51.1289 10.8549 555 127.157 56.0036 470.299
1247 0 54.2368 11.0626 600 124.332 56.3533 476.395
1248 0 55.1468 12.4395 686 123.226 56 472.392
1249 0 56.0459 9.6528 541 126.835 54.9076 474.479
1250 0 56.2469 10.6495 599 126.317 56.3539 470.292
1251 0 59.127 9.35276 553 125.492 55.9873 477.354
1252 0 61.0986 11.1623 682 125.61 55.6188 476.129
1253 0 63.1733 12.252 774 124.434 54.3101 474.141
1254 0 70.1006 10.7274 752 125.83 54.6942 475.646
1255 0 67.1256 10.309 692 128.601 53.591 475.377
1256 0 67.2081 12.9449 870 126.234 52.8874 472.439
1257 1 122.285 10.8517 1327 134.004 52.3406 448.534
1258 1 72.2587 13.9776 1010 125.047 52.8941 470.958
1259 0 72.2587 12.0401 870 126.984 51.7908 469.123
1260 0 78.3084 11.5569 905 129.388 50.9867 470.954
1261 0 79.1221 12.209 966 129.595 49.7474 467.736
1262 0 81.1405 12.694 1030 130.251 50.1049 466.666
1263 0 85.3112 15.1211 1290 127.122 49.6093 461.842
1264 0 87.2989 14.4561 1262 128.284 48.8059 463.873
1265 0 89.1305 11.1634 995 136.711 47.396 460.406
1266 0 91.2099 12.0053 1095 135.83 47.8164 459.775
1267 0 95.3935 12.9359 1234 133.889 48.1094 458.256
1268 0 94.4276 11.5115 1087 134.493 48.2125 462.319
1269 1 56.2163 9.32114 524 134.366 46.8817 478.754
1270 0 56.1803 10.8401 609 134.864 46.1182 471.778
1271 0 61.1357 12.3332 754 127.882 47.4841 474.586
1272 0 60.0749 15.3475 922 125.342 46.5499 467.525
1273 0 61.1295 12.7271 778 130.059 46.8522 467.351
1274 0 62.1395 13.4053 833 129.964 47.5882 466.556
1275 0 60.0898 10.9503 658 135.877 48.5562 465.676
1276 0 62.1084 12.4782 775 132.253 48.6245 465.862
1277 0 65.1462 11.3744 741 134.428 49.4534 462.51
1278 0 67.1362 13.5694 911 130.027 49.809 460.925
1279 0 71.0817 11.4235 812 133.197 50.0591 459.166
1280 0 70.1771 10.4592 734 135.189 50.9305 461.674
1281 0 74.2208 16.0063 1188 123.501 51.6372 463.503
1282 0 74.2246 12.3679 918 132.182 52.5065 458.595
1283 0 77.1197 13.9912 1079 130.115 53.6793 455.652
1284 0 78.0572 13.3876 1045 132.153 53.4316 454.885
1285 0 83.3527 15.4284 1286 127.715 54.2341 455.003
1286 0 79.4665 8.77099 697 141.029 54.6571 453.152
1287 0 85.187 11.8328 1008 133.952 55.4514 457.08
1288 0 89.1562 12.8651 1147 134.638 55.7646 450.255
1289 0 88.2136 11.6875 1031 136.497 56.5092 451.79
1290 1 181.3 8.89688 1613 141.971 57.4172 430.637
1291 0 180.609 10.4147 1881 144.966 57.2302 407.2
1292 1 99.374 12.7599 1268 133.931 56.0142 450.559
1293 0 99.3751 13.4943 1341 128.412 55.0015 449.723
1294 0 103.258 11.4955 1187 136.878 56.3665 451.265
1295 0 106.399 13.8159 1470 134.676 55.4925 451.443
1296 1 58.1121 11.822 687 131.916 54.428 470.342
1297 0 60.1088 10.4976 631 131.662 54.4628 475.707
1298 0 66.0709 13.5309 894 125.336 54.8042 475.341
1299 0 66.0497 12.854 849 128.965 54.0754 468.675
1300 0 68.1411 14.7635 1006 125.841 53.4662 471.892
1301 0 72.1835 12.2189 882 128.266 52.466 475.246
1302 0 74.0807 15.0511 1115 125.788 51.7426 466.93
1303 0 75.0561 11.8312 888 130.047 51.4538 468.166
1304 0 78.2219 12.6947 993 128.774 50.9053 463.758
1305 0 80.1329 10.4951 841 131.622 49.5529 466.48
1306 0 84.1465 11.9316 1004 129.999 49.6604 460.846
1307 0 86.2434 11.7806 1016 130.477 49.19 458.28
1308 1 53.1137 11.7672 625 126.006 47.6576 478.27
1309 0 54.1485 12.1333 657 128.181 47.7732 474.591
1310 0 55.0626 11.2781 621 130.06 47.2947 470.91
1311 0 60.1423 12.9526 779 126.059 46.7266 473.737
1312 0 58.0624 10.6609 619 132.872 46.9952 472.247
1313 0 61.1838 12.9609 793 127.364 46.4023 468.189
1314 0 61.0627 10.4974 641 130.906 45.9969 470.605
1315 0 66.1017 8.59282 568 136.46 46.8187 459.706
1316 0 67.1578 14.7414 990 125.492 47.0404 460.993
1317 0 67.1672 10.4366 701 133.307 47.9401 461.412
1318 0 70.1281 10.3953 729 132.413 48.4239 461.735
1319 0 73.2097 9.46595 693 132.776 48.7994 458.545
1320 0 75.1902 10.5998 797 131.325 49.2108 454.158
1321 0 79.4774 11.2233 892 128.99 50.5135 451.145
1322 0 81.137 11.7456 953 128.239 50.2246 450.53
1323 1 156.61 12.4896 1956 132.165 51.8978 417.833
1324 0 162.435 10.8967 1770 135.945 52.2085 414.23
1325 1 89.173 11.7861 1051 126.57 52.1741 449.747
1326 0 92.2025 11.1602 1029 128.521 52.621 446.22
1327 0 95.2048 10.2306 974 128.785 52.6766 444.994
1328 0 98.1608 12.0211 1180 126.616 53.4814 443.847
1329 0 100.24 9.97607 1000 129.928 54.552 434.659
1330 0 101.277 7.10922 720 134.369 54.0625 439.572
1331 0 108.305 8.98389 973 130.733 54.8366 443.646
1332 0 110.191 9.5652 1054 129.06 54.501 441.767
1333 1 67.1033 11.5941 778 121.36 56.1157 463.329
1334 0 71.0927 10.3949 739 123.269 55.6982 463.361
1335 0 70.1696 13.4531 944 122.702 54.571 464.782
1336 0 69.2997 8.12413 563 130.854 53.7105 463.647
1337 0 74.1306 8.82227 654 128.015 53.8945 467.719
1338 0 79.3591 13.8862 1102 122.081 53.5799 462.569
1339 0 82.1819 8.93141 734 129.845 53.3597 460.597
1340 0 84.2473 13.1399 1107 123.967 52.4905 456.641
1341 0 89.3579 11.3029 1010 126.052 52.397 455.654
1342 0 89.2216 12.9341 1154 123.697 51.5191 461.305
1343 0 92.3596 10.6973 988 127.31 50.9069 454.387
1344 0 96.2669 11.1669 1075 125.319 49.8977 461.138
1345 0 97.1914 8.63245 839 130.132 49.8498 457.757
1346 0 105.5 11.1943 1181 126.545 48.1118 455.767
1347 0 108.25 14.1986 1537 123.21 49.082 451.921
1348 0 112.723 13.99 1577 123.969 49.2834 451.978
1349 1 62.2964 6.42091 400 128.41 48.8525 477.245
1350 0 66.2194 9.71015 643 126.485 46.8849 469.278
1351 0 67.2351 12.7463 857 121.477 46.3594 469.146
1352 0 66.2497 10.6114 703 127.117 46.926 466.666
1353 0 67.2531 11.94 803 120.025 47.1582 473.831
1354 0 73.3762 11.5296 846 125.459 46.9823 464.664
1355 0 78.3221 13.7254 1075 120.962 46.2781 464.34
1356 1 137.546 10.9563 1507 130.397 46.6496 430.242
1357 0 148.473 9.12623 1355 132.33 47.2768 430.809
1358 0 145.314 10.701 1555 131.062 47.4367 425.168
1359 1 257.621 13.0618 3365 134.094 48.1718 380.983
1360 0 256.761 11.6996 3004 137.055 49.3662 380.95
1361 1 158.55 11.2204 1779 134.839 48.4626 413.365
1362 1 93.1972 11.6849 1089 130.411 48.6942 441.717
1363 0 96.2361 10.6301 1023 132.141 49.6999 448.117
1364 0 100.203 12.3949 1242 128.279 50.8043 448.871
1365 0 103.178 11.9696 1235 129.989 51.4251 443.916
1366 0 99.1333 9.4721 939 132.767 51.5122 447.069
1367 1 57.071 10.0051 571 123.897 53.2487 469.03
1368 0 60.1682 9.65626 581 127.522 53.6248 462.998
1369 0 66.0838 12.9533 856 121.754 54.09 466.644
1370 0 64.2398 11.3014 726 125.963 53.5689 464.19
1371 0 66.0813 14.119 933 124.09 54.6024 462.106
1372 0 69.0386 13.0651 902 125.651 53.9645 463.529
1373 0 71.2252 13.0151 927 126.052 55.0108 462.923
1374 0 71.115 11.4603 815 126.47 54.7656 463.553
1375 0 76.183 16.4341 1252 119.446 56.4665 462.418
1376 0 77.1869 13.1758 1017 125.349 55.5428 461.922
1377 0 80.1963 13.3423 1070 125.246 55.8187 461.878
1378 0 82.1528 10.4805 861 130.748 54.6144 452.369
1379 0 82.2136 11.1904 920 131.129 55.8685 460.182
1380 0 88.1867 16.9867 1498 120.013 54.8271 459.196
1381 0 89.3846 11.8701 1061 129.851 53.4581 457.639
1382 0 89.3792 11.882 1062 126.777 52.4708 457.412
1383 0 96.2683 14.927 1437 124.691 53.2401 458.997
1384 0 97.1322 15.8135 1536 124.721 52.6042 456.527
1385 0 101.347 15.6393 1585 125.086 52.1356 454.265
1386 0 102.398 14.1702 1451 128.265 51.3625 451.915
1387 0 106.591 13.1999 1407 130.028 50.666 451.657
1388 0 108.257 12.9969 1407 131.165 49.0689 445.42
1389 0 112.369 15.6537 1759 125.787 49.1165 451.502
1390 0 112.28 13.0655 1467 132.022 47.4322 445.785
1391 0 121.494 14.1077 1714 128.669 47.4335 445.16
1392 0 125.24 15.6979 1966 126.079 48.2121 441.365
1393 0 127.371 16.346 2082 125.13 47.5423 436.665
1394 0 131.286 13.8477 1818 128.395 46.8086 432.629
1395 0 133.618 16.7268 2235 122.878 46.8412 432.496
1396 1 66.317 9.9522 660 132.044 46.2152 458.229
1397 0 72.3122 10.8972 788 129.363 47.1028 458.986
1398 0 75.2874 12.3527 930 126.399 46.1441 453.208
1399 0 77.3273 12.1173 937 126.501 46.6734 448.19
1400 0 76.2051 10.3799 791 129.843 46.2137 452.091
1401 0 77.1706 11.0923 856 129.846 46.2523 442.277
1402 0 78.3144 14.3141 1121 124.5 47.5263 446.426
1403 0 79.2559 11.8098 936 130.02 47.1891 440.473
1404 0 85.522 12.3711 1058 129.078 48.0406 440.193
1405 0 86.2482 13.322 1149 126.658 48.0183 441.388
1406 0 91.2448 10.2472 935 131.068 49.4481 441.886
1407 0 88.2104 13.8532 1222 126.545 50.3388 436.971
1408 0 86.4694 10.4083 900 132.937 49.99 437.189
1409 0 85.3659 9.91028 846 133.697 50.6548 434.648
1410 0 83.228 11.4264 951 131.471 52.3281 435.326
1411 1 195.736 10.3353 2023 139.492 53.1953 379.26
1412 1 166.633 9.75198 1625 132.718 53.2603 409.545
1413 0 171.502 7.8658 1349 137.32 54.0771 403.031
1414 0 176.391 9.55266 1685 134.524 54.3044 402.96
1415 0 170.469 4.76332 812 134.397 54.3473 430.302
1416 0 179.418 7.46302 1339 129.517 54.8895 426.954
1417 1 145.405 13.2939 1933 123.558 55.4309 426.192
1418 0 147.363 14.6644 2161 119.882 55.8038 421.604
1419 0 152.27 12.353 1881 124.662 55.9266 412.712
1420 1 85.2097 12.9093 1100 118.015 54.9318 448.259
1421 0 88.4429 14.4613 1279 115.535 55.5387 455.369
1422 0 90.1639 13.3313 1202 118.643 55.0374 455.097
1423 0 94.1661 11.5647 1089 119.885 54.5721 456.625
1424 0 96.229 14.902 1434 118.476 54.4665 452.186
1425 0 97.154 11.7957 1146 122.789 53.7897 456.951
1426 0 99.1764 13.2491 1314 122.612 52.8189 447.205
1427 0 105.46 13.2847 1401 121.455 52.8608 455.492
1428 0 107.424 14.4382 1551 121.499 51.7124 445.791
1429 0 111.334 14.0657 1566 122.827 51.8716 446.946
1430 0 114.158 15.6274 1784 120.443 49.9316 446.728
1431 0 114.203 10.5689 1207 129.372 50.3206 439.644
1432 0 123.31 14.2244 1754 122.626 48.5325 436.601
1433 0 126.208 13.6521 1723 123.722 49.5044 431.754
1434 1 68.2091 9.76409 666 120.542 47.6592 464.725
1435 0 74.1427 19.1118 1417 105.375 47.3028 472.621
1436 0 76.2213 14.1562 1079 113.323 46.6895 468.163
1437 0 78.2791 11.1141 870 117.584 46.6851 463.821
1438 0 80.2312 11.8034 947 119.26 46.2313 460.467
1439 0 88.4142 19.0693 1686 106.822 45.6845 464.078
1440 0 84.1104 11.1163 935 121.94 45.7176 452.782
1441 0 89.158 12.876 1148 118.881 45.8476 453.35
1442 0 90.1635 14.2519 1285 117.968 45.0405 450.321
1443 0 94.2388 13.4233 1265 119.495 45.9494 449.787
1444 0 93.1265 11.6508 1085 122.388 45.6553 449.724
1445 0 97.5732 13.4258 1310 120.24 46.5779 445.268
1446 0 99.1456 11.004 1091 124.208 47.5784 442.551
1447 0 102.278 12.3096 1259 122.18 48.2335 443.936
1448 0 105.331 13.1395 1384 121.668 48.5484 437.053
1449 0 107.167 11.5521 1238 124.201 49.5735 435.522
1450 0 112.196 12.5405 1407 122.399 50.1983 434.994
1451 0 116.184 14.5545 1691 118.818 50.751 435.117
1452 0 123.204 16.2981 2008 114.578 51.6937 431.668
1453 0 123.29 14.3645 1771 117.89 51.2778 433.18
1454 0 126.249 13.9486 1761 118.924 52.3396 433.048
1455 0 132.302 12.5244 1657 122.587 53.6029 426.643
1456 0 133.314 13.7645 1835 120.972 53.5711 427.802
1457 1 145.319 11.3199 1645 123.727 54.5726 422.075
1458 0 144.279 11.748 1695 125.622 54.1994 413.852
1459 0 146.435 9.02788 1322 129.315 54.8737 412.123
1460 0 155.443 12.0237 1869 124.054 56.1659 421.48
1461 1 93.2665 8.96356 836 125.923 56.7093 443.526
1462 0 97.2864 10.5565 1027 125.061 55.2064 447.519
1463 0 102.476 13.2518 1358 120.187 54.944 452.364
1464 0 97.2069 9.15573 890 130.389 56.3843 443.785
1465 0 104.262 11.4711 1196 124.884 55.6982 448.061
1466 1 115.483 11.7766 1360 126.049 55.8507 438.332
1467 0 117.27 10.122 1187 128.86 55.1693 447.211
1468 0 118.307 11.2926 1336 128.674 53.8653 445.27
1469 0 119.215 11.6261 1386 128.88 54.2157 440.374
1470 0 125.221 12.9291 1619 124.859 53.7474 448.083
1471 1 70.2462 18.1362 1274 110.851 53.2276 469.88
1472 0 74.3295 9.28299 690 120.397 50.5058 469.862
1473 0 75.0942 11.2392 844 123.78 49.0865 467.242
1474 0 77.1532 14.8536 1146 116.345 48.7749 470.901
1475 0 79.1037 9.93632 786 125.899 48.7964 465.76
1476 0 84.1999 11.8646 999 122.398 47.8769 463.58
1477 0 84.2374 10.7078 902 125.064 46.2162 461.372
1478 0 86.1146 12.7853 1101 121.983 46 456.751
1479 0 89.0494 14.4639 1288 119.38 46.3385 451.473
1480 0 90.1538 11.2253 1012 122.382 45.6966 457.725
1481 0 94.3491 11.0017 1038 123.587 45.4104 449.085
1482 0 96.08 12.0733 1160 122.515 45.7069 449.717
1483 0 101.491 14.3756 1459 119.263 46.8472 446.679
1484 0 104.22 12.1186 1263 122.837 45.133 443.857
1485 0 107.254 14.9551 1604 118.913 45.5854 441.265
1486 1 53.2652 6.79618 362 126.439 47.0884 465.588
1487 0 61.2117 10.9293 669 117.874 47.3438 468.327
1488 0 59.3812 10.3737 616 121.662 47.6753 463.539
1489 0 62.1945 10.837 674 119.553 45.2834 459.203
1490 0 66.1813 13.6141 901 116.789 47.0333 459.28
1491 0 65.115 10.4584 681 122.833 47.7048 457.226
1492 0 71.1738 6.43495 458 129.321 49.2162 456.504
1493 0 70.2313 11.9178 837 120.385 49.405 453.016
1494 0 73.0831 10.7822 788 122.23 48.6789 453.154
1495 0 74.1385 11.2762 836 121.389 50.4055 453.645
1496 0 77.2057 13.4575 1039 118.691 51.1829 448.703
1497 0 78.2158 16.2243 1269 115.762 52.0331 448.918
1498 0 80.1721 12.0241 964 121.352 50.2645 448.256
1499 0 82.3197 13.2289 1089 119.565 52.6134 447.363
1500 0 86.1727 12.6606 1091 121.056 53.3181 444.498
1501 0 89.1328 14.5401 1296 117.126 53.5648 446.468
1502 0 91.1206 16.3959 1494 114.107 54.2336 450.884
1503 0 94.1695 15.0473 1417 116.043 54.7205 451.754
1504 0 100.283 12.6641 1270 120.12 54.6417 448.128
1505 0 94.4562 13.3395 1260 121.402 54.2825 438.397
1506 0 97.3121 11.2216 1092 125.514 55.4487 442.103
1507 0 102.447 12.3089 1261 123.462 53.9707 443.651
1508 0 104.343 10.7434 1121 126.695 55.3443 450.491
1509 0 109.319 12.4498 1361 125.889 53.7098 441.901
1510 0 113.431 14.079 1597 123.098 53.2104 442.455
1511 0 115.543 13.6487 1577 124.047 52.9366 445.276
1512 0 116.452 12.1681 1417 127.721 52.5568 440.963
1513 0 118.402 12.3393 1461 125.292 51.9829 445.916
1514 0 126.278 15.6005 1970 120.346 51.2132 441.923
1515 0 131.514 14.3635 1889 121.789 50.2012 438.071
1516 1 71.2358 9.25097 659 121.663 48.1624 466.753
1517 0 75.1563 9.69978 729 122.259 48.1084 465.881
1518 0 76.2729 10.7902 823 121.434 47.2029 464.157
1519 0 79.2566 13.6519 1082 116.801 46.9741 464.559
1520 0 83.14 11.8234 983 119.918 47.2899 461.177
1521 0 84.2025 14.4532 1217 117.331 46.5423 458.133
1522 0 87.2016 10.2406 893 124.197 45.916 453.123
1523 0 93.2728 8.79142 820 126.544 45.7378 450.989
1524 0 90.2962 10.6981 966 123.932 45.4451 452.769
1525 0 94.2784 12.9404 1220 121.552 45.0648 448.207
1526 0 99.6798 12.3696 1233 122.329 46.4201 450.968
1527 0 95.257 10.8024 1029 128.101 47.2643 442.185
1528 0 95.3709 9.27956 885 131.424 46.417 439.11
1529 0 103.72 12.3794 1284 126.367 46.4237 437.903
1530 0 107.469 14.9345 1605 122.454 47.4766 440.574
1531 0 109.644 12.951 1420 126.006 46.4789 435.723
1532 0 113.456 14.0583 1595 124.53 48.373 435.156
1533 0 115.356 11.8242 1364 127.402 48.6716 429.823
1534 0 121.591 13.7839 1676 124.232 48.5794 428.102
1535 0 125.435 13.0107 1632 126.911 49.3058 423.487
1536 0 126.427 13.6126 1721 126.39 50.3719 422.053
1537 0 132.827 16.1262 2142 122.787 50.9538 421.406
1538 0 138.874 12.2989 1708 128.102 50.7178 417.074
1539 0 145.866 14.8493 2166 123.784 51.5346 420.869
1540 0 147.525 13.0486 1925 127.066 52.4322 416.772
1541 1 158.449 13.4239 2127 126.089 52.2901 414.488
1542 0 159.336 14.46 2304 125.782 52.227 412.385
1543 0 164.661 11.0773 1824 132.946 53.9962 405.808
1544 0 166.378 11.9307 1985 129.703 54.1612 413.232
1545 0 175.529 14.8978 2615 125.87 54.6172 410.816
1546 0 176.665 11.3492 2005 131.25 54.4175 416.036
1547 0 183.374 12.6027 2311 131.735 54.0043 401.611
1548 0 184.389 10.8954 2009 133.801 54.6411 407
1549 0 194.468 14.0332 2729 128.935 54.3565 404.953
1550 0 199.617 12.3637 2468 133.12 54.4076 400.434
1551 1 111.421 11.3713 1267 130.158 52.4988 442.898
1552 0 116.411 13.8904 1617 125.667 53.6426 444.681
1553 0 121.347 11.875 1441 128.686 53.0097 443.054
1554 0 126.454 12.7952 1618 126.513 52.487 442.669
1555 0 127.533 10.7188 1367 130.828 52.1448 437.789
1556 0 133.57 11.6418 1555 129.644 51.1473 441.549
1557 0 140.64 12.6209 1775 129.864 50.8716 434.684
1558 1 74.263 12.6577 940 125.49 49.9596 464.747
1559 0 77.1197 12.2926 948 127.368 50.1519 464.227
1560 0 78.1825 11.7418 918 130.038 48.3965 462.505
1561 0 85.1769 12.7147 1083 126.877 49.0203 462.233
1562 0 82.1656 12.6574 1040 127.382 47.7731 454.007
1563 0 90.1065 14.7381 1328 121.906 48.3818 458.697
1564 0 92.2468 12.7159 1173 126.228 48.243 456.935
1565 0 93.2195 12.7441 1188 127.568 46.2273 452.668
1566 0 98.2108 12.8295 1260 127.183 46.6794 451.486
1567 0 100.128 13.4328 1345 126.651 46.3814 445.162
1568 0 103.094 16.9651 1749 120.506 46.048 447.987
1569 0 106.157 13.5837 1442 125.169 44.4535 446.803
1570 0 110.357 19.3282 2133 117.396 44.2991 443.042
1571 0 112.188 12.0869 1356 131.412 45.2271 436.588
1572 0 115.337 15.7711 1819 124.396 45.5036 439.452
1573 0 119.273 14.0853 1680 126.265 45.4179 436.298
1574 1 68.2556 11.1932 764 123.935 44.9215 461.082
1575 0 72.1668 13.6905 988 121.533 46.8441 453.311
1576 0 74.2194 12.6382 938 122.247 46.6588 457.178
1577 0 74.3096 17.2925 1285 115.631 48.0661 454.782
1578 0 78.2901 15.1488 1186 116.903 47.7209 455.772
1579 0 78.2481 10.8884 852 126.059 49.5258 449.41
1580 0 82.7916 14.772 1223 119.97 49.8218 448.812
1581 0 87.2987 17.5489 1532 116.43 50.483 445.823
1582 0 89.2239 14.7046 1312 120.488 51.1037 450.125
1583 0 91.1751 12.8325 1170 124.184 51.6239 444.177
1584 0 91.2033 14.6486 1336 122.952 52.1714 441.9
1585 0 92.2989 10.7694 994 130.087 52.9396 440.759
1586 0 96.3344 12.3632 1191 127.065 52.5936 441.893
1587 0 99.2458 17.4617 1733 118.033 54.2118 449.07
1588 0 100.372 9.13605 917 133.266 54.7056 443.482
1589 0 104.33 10.553 1101 132.508 53.8992 439.377
1590 0 105.268 13.0239 1371 129.983 54.7469 435.734
1591 0 110.541 12.1222 1340 129.563 54.9045 442.587
1592 1 210.51 11.3392 2387 139.794 55.1663 389.659
1593 0 218.71 11.4809 2511 139.495 54.0852 389.826
1594 0 224.631 12.7988 2875 139.734 53.8219 376.151
1595 1 132.374 19.1126 2530 120.198 54.0146 422.984
1596 0 137.419 14.4303 1983 126.527 52.8285 426.263
1597 1 80.6273 10.4059 839 126.335 52.994 462.521
1598 0 82.5091 12.4229 1025 128.055 53.2244 458.167
1599 0 80.5125 15.6125 1257 122.928 52.031 454.869
1600 0 86.5268 11.4762 993 125.51 52.0967 462.954
1601 0 90.5021 11.7124 1060 126.361 50.5491 458.541
1602 0 94.4443 12.3777 1169 125.228 50.1617 456.396
1603 0 94.2336 15.2493 1437 121.012 48.3793 457.342
1604 0 94.3829 13.3817 1263 125.433 48.6469 455.144
1605 0 99.3929 10.5138 1045 130.377 47.6268 449.9
1606 0 100.317 11.5633 1160 130.066 47.1112 444.641
1607 0 99.2694 12.9345 1284 126.915 47.0771 449.995
1608 0 110.273 14.5638 1606 122.329 46.6345 447.016
1609 0 111.369 14.0883 1569 121.36 46.2785 447.738
1610 0 119.489 6.75374 807 135.704 45.9827 442.414
1611 0 117.39 10.2564 1204 131.073 45.7118 439.116
1612 1 230.628 13.9315 3213 133.792 46.1292 377.918
1613 0 241.992 14.8807 3601 130.946 45.3563 376.182
1614 1 127.585 10.7615 1373 127.465 46.2775 432.564
1615 0 135.188 15.0975 2041 117.832 45.4091 433.983
1616 0 134.359 11.3427 1524 124.36 46.1837 433.074
1617 1 154.585 9.10181 1407 126.029 46.5195 428.967
1618 0 154.536 10.9813 1697 121.584 47.254 431.196
1619 0 153.425 10.2396 1571 128.536 47.3316 411.777
1620 0 161.712 10.4321 1687 126.804 48.9876 416.437
1621 0 165.672 16.43 2722 118.826 49.2182 403.375
1622 0 163.492 12.7468 2084 123.828 48.7025 407.42
1623 1 253.004 11.8773 3005 130.973 49.7221 366
1624 0 260.792 13.923 3631 129.847 50.5277 360.62
1625 0 268.831 11.1185 2989 134.626 51.1954 358.034
1626 1 197.596 15.9568 3153 120.49 51.888 397.108
1627 0 197.524 11.6746 2306 127.571 53.2611 393.834
1628 1 115.358 13.029 1503 121.793 53.5529 433.67
1629 0 120.551 9.17455 1106 127.172 53.9892 431.401
1630 0 120.401 10.0664 1212 126.183 53.8234 431.879
1631 0 125.69 12.2763 1543 124.029 54.0856 430.953
1632 0 130.428 13.977 1823 121.896 54.4268 427.483
1633 0 129.731 12.2561 1590 124.592 54.5862 423.228
1634 0 136.246 14.1215 1924 120.132 55.1856 432.784
1635 0 144.586 13.4453 1944 122.255 55.4902 425.588
1636 1 77.2601 10.1993 788 121.359 54.368 455.362
1637 0 84.5425 9.34441 790 121.915 53.5772 458.408
1638 0 84.3037 11.7907 994 119.871 53.4728 454.395
1639 0 88.4283 11.3764 1006 121.678 53.8161 452.225
1640 0 87.5711 12.1273 1062 119.479 52.5669 452.394
1641 0 96.4734 12.7807 1233 118.933 53.2855 453.959
1642 1 178.489 12.9587 2313 128.596 52.3947 407.266
1643 1 99.3341 13.067 1298 121.133 52.1117 445.642
1644 0 103.458 11.8599 1227 121.062 50.8297 449.634
1645 0 105.294 13.0967 1379 119.881 49.5613 448.073
1646 0 108.551 13.2841 1442 121.514 49.5208 444.207
1647 0 110.364 13.3921 1478 121.956 49.0426 439.063
1648 0 112.463 13.5156 1520 122.434 48.3224 441.128
1649 0 116.505 11.5016 1340 125.701 47.6358 434.373
1650 0 124.324 15.0172 1867 118.219 47.1087 440.594
1651 0 125.538 10.7139 1345 122.274 46.7524 446.05
1652 0 129.224 12.2578 1584 122.136 47.1004 434.617
1653 0 134.395 14.5616 1957 118.2 47.463 435.429
1654 1 74.263 15.5663 1156 112.009 46.4118 463.607
1655 0 76.1944 9.59388 731 119.659 45.699 463.759
1656 0 77.3596 12.2803 950 118.105 45.0505 458.448
1657 0 80.4499 11.821 951 119.328 45.9832 456.362
1658 0 82.4079 10.63 876 124.322 45.7066 450.024
1659 0 84.3194 8.39665 708 123.379 46.4223 459.432
1660 0 89.6188 16.2801 1459 114.809 46.9486 449.145
1661 0 93.5392 13.1389 1229 119.165 47.5151 444.139
1662 0 95.392 12.9675 1237 119.402 47.599 444.191
1663 0 98.5468 14.8153 1460 117.541 49.0808 439.634
1664 0 97.6458 9.44229 922 125.993 48.8709 438.653
1665 0 105.516 13.7326 1449 118.605 50.9048 439.391
1666 0 103.401 11.2958 1168 124.982 51.0342 432.229
1667 0 113.333 10.6765 1210 123.764 51.9322 434.626
1668 1 65.1308 8.36777 545 120.62 51.4624 459.861
1669 0 66.1672 12.4835 826 118.455 52.4649 456.303
1670 0 68.118 11.1278 758 121.483 52.9486 456.54
1671 0 74.1706 12.0668 895 117.772 52.9151 460.532
1672 0 76.1419 10.9007 830 121.44 54.1181 453.095
1673 0 77.1555 15.1123 1166 114.967 55.1098 456.246
1674 0 77.2852 10.623 821 122.821 55.0926 451.538
1675 0 82.3296 12.8265 1056 118.989 54.8807 451.848
1676 0 82.3439 13.31 1096 119.086 54.4133 451.565
1677 0 87.2051 12.5222 1092 120.469 54.6932 451.333
1678 0 89.3269 14.9339 1334 117.244 55.0337 452.026
1679 1 103.356 13.0326 1347 118.62 55.199 456.346
1680 1 49.123 7.67461 377 123.48 53.1724 474.276
1681 0 47.1177 8.57426 404 126.22 52.3787 470.131
1682 0 49.081 10.88 534 122.021 52.5861 472.888
1683 0 56.0894 11.5173 646 120.556 51.4334 471.96
1684 0 57.0494 11.8143 674 120.908 50.9674 475.718
1685 0 60.0733 14.2659 857 117.378 50.2765 473.839
1686 0 58.235 9.61621 560 126.084 49.2232 471.702
1687 0 62.0827 9.19741 571 125.44 48.1944 475.382
1688 0 63.1055 14.2301 898 119.725 47.9499 472.03
1689 0 66.093 14.3283 947 120.062 46.7793 468.826
1690 0 66.1203 12.6134 834 122.945 46.5456 469.432
1691 0 68.1315 13.0777 891 122.039 46.4961 468.616
1692 0 72.1019 14.1605 1021 121.104 46.3193 465.289
1693 0 72.2631 11.5827 837 125.351 46.4062 461.877
1694 0 74.1912 12.0769 896 125.881 45.3929 460.299
1695 0 78.2962 18.7876 1471 115.575 45.6621 461.196
1696 0 79.236 12.406 983 125.491 45.9471 460.174
1697 0 82.2459 15.709 1292 122.372 45.8498 457.149
1698 0 83.262 14.7006 1224 125.176 45.0523 455.346
1699 0 86.0988 18.0839 1557 120.125 45.8356 449.714
1700 0 89.3904 20.2594 1811 117.218 45.6913 452.002
1701 0 91.3123 14.0178 1280 127.987 46.1609 448.054
1702 0 96.2339 16.9067 1627 122.616 46.8138 446.125
1703 0 98.273 17.3802 1708 123.189 46.226 445.311
1704 0 100.083 13.9384 1395 129.514 46.5111 442.631
1705 0 105.318 16.9106 1781 124.323 48.0258 440.163
1706 0 106.26 14.7845 1571 128.282 48.6582 438.859
1707 0 117.314 12.0361 1412 131.182 50.1834 440.919
1708 0 114.285 12.2676 1402 132.626 50.8538 434.434
1709 0 119.328 19.5847 2337 121.392 51.6252 430.424
1710 0 122.327 17.3307 2120 124.36 52.0104 428.254
1711 1 69.2129 10.9517 758 129.323 52.0369 455.182
1712 0 72.1619 11.9592 863 126.508 52.533 454.447
1713 0 77.1991 15.5183 1198 119.631 53.116 457.452
1714 0 76.1423 12.6999 967 127.822 54.0982 451.722
1715 0 82.2389 12.7677 1050 127.414 54.2267 453.75
1716 0 86.3331 11.0502 954 128.782 55.4906 454.584
1717 0 85.139 12.2858 1046 126.405 55.1061 454.276
1718 0 90.2549 12.9079 1165 122.651 54.4592 454.034
1719 0 95.2442 18.1113 1725 114.634 55.2313 452.44
1720 0 96.3846 13.7574 1326 122.148 54.7836 451.917
1721 0 98.2634 17.5956 1729 120.323 53.8756 452.626
1722 0 101.168 14.8763 1505 123.73 53.9688 452.73
1723 0 103.076 9.41055 970 132.775 53.1247 452.626
1724 0 113.143 15.1489 1714 123.732 52.3238 444.613
1725 0 112.27 13.9396 1565 125.783 52.4243 446.081
1726 0 115.304 13.9805 1612 125.673 52.7525 448.191
1727 0 119.3 13.5289 1614 128.149 51.2379 443.522
1728 1 67.1185 9.84825 661 127.613 50.23 471.959
1729 0 67.133 10.5611 709 127.276 49.1396 466.418
1730 0 70.2014 12.6351 887 121.786 47.7678 462.071
1731 0 75.2358 16.0163 1205 117.074 47.9087 468.141
1732 0 76.1078 13.3758 1018 122.263 47.6228 465.275
1733 0 82.2446 14.08 1158 120.722 47.1632 461.753
1734 0 80.2104 13.3025 1067 122.179 46.1978 459.802
1735 0 85.2371 14.5007 1236 119.817 46.8309 460.026
1736 0 88.1678 17.444 1538 114.812 45.7529 459.362
1737 0 90.2526 16.5646 1495 116.647 45.1458 455.941
1738 0 90.2641 12.2862 1109 124.391 45.1362 454.937
1739 0 93.277 12.2431 1142 121.657 45.514 455.102
1740 0 97.2723 14.0019 1362 120.87 45.3399 447.49
1741 0 102.556 16.4301 1685 117.729 44.8653 446.659
1742 0 104.196 11.4304 1191 125.47 46.6306 443.442
1743 0 107.239 11.8427 1270 124.146 45.4559 442.117
1744 0 110.434 13.9449 1540 122.297 45.7104 436.31
1745 0 112.596 16.7591 1887 118.232 46.5469 434.202
1746 0 118.163 17.3573 2051 116.957 47.0936 434.067
1747 0 119.45 12.7669 1525 123.247 46.8105 437.083
1748 0 122.31 12.0105 1469 126.442 48.2485 428.935
1749 0 129.484 14.3029 1852 122.933 48.2559 427.245
1750 0 127.525 13.7699 1756 127.138 49.34 410.398
1751 1 199.383 15.1919 3029 127.185 50.4543 381.802
1752 0 206.632 12.5827 2600 130.943 50.0131 389.082
1753 1 79.2845 12.5497 995 121.732 50.1839 451.254
1754 0 83.435 12.9322 1079 123.428 51.608 449.072
1755 0 87.277 14.9982 1309 120.538 51.3911 448.416
1756 0 87.3507 12.5471 1096 124.828 51.2208 445.595
1757 0 92.1584 15.7663 1453 119.14 52.7577 449.343
1758 0 92.212 11.3326 1045 127.135 53.2679 447.442
1759 0 97.222 15.2229 1480 122.213 53.8547 444.447
1760 0 96.2246 13.5308 1302 121.687 54.4639 452.286
1761 0 104.195 15.0871 1572 120.331 54.7481 447.335
1762 0 105.255 15.9137 1675 120.792 54.5731 438.056
1763 0 108.357 16.4364 1781 122.009 54.0719 438.751
1764 1 164.524 12.369 2035 128.786 54.2835 423.17
1765 1 114.243 16.0447 1833 121.825 53.5183 445.321
1766 0 118.412 12.8788 1525 127.61 53.0275 434.426
1767 0 121.238 14.3767 1743 124.571 52.8669 436.299
1768 0 129.641 13.2288 1715 124.002 53.2006 437.328
1769 0 133.542 17.1855 2295 116.181 51.712 444.752
1770 0 140.575 14.1135 1984 123.183 51.2384 425.67
1771 0 145.71 16.773 2444 120.559 50.5867 423.908
1772 0 151.548 13.593 2060 123.188 49.1893 429.047
1773 0 154.463 10.1902 1574 128.208 49.6912 420.802
1774 0 164.409 17.1402 2818 119.96 48.4982 414.206
1775 0 169.39 13.0055 2203 125.257 47.5815 414.089
1776 0 173.537 12.7926 2220 123.769 46.7108 424.983
1777 0 179.375 13.77 2470 123.442 46.1429 419.162
1778 0 183.467 12.5854 2309 127.579 46.2096 400.787
1779 1 99.1522 13.8676 1375 121.932 45.5775 445.349
1780 0 104.341 13.408 1399 123.034 45.3438 446.528
1781 0 106.239 12.8766 1368 125.916 45.4561 439.017
1782 0 108.344 14.4632 1567 124.968 45.3523 435.195
1783 0 109.306 11.8567 1296 130.262 44.7546 433.025
1784 0 122.798 21.6045 2653 114.088 43.879 430.559
1785 0 121.293 14.3124 1736 124.97 45.8381 436.31
1786 0 123.422 14.2762 1762 127.919 45.8451 426.445
1787 0 129.399 14.9924 1940 127.856 46.0376 423.328
1788 0 138.286 11.3967 1576 133.055 46.4239 423.376
1789 0 136.265 12.1381 1654 133.628 47.0732 417.972
1790 0 142.233 14.4762 2059 130.042 46.5969 418.578
1791 1 77.1359 11.2529 868 131.306 47.8698 445.069
1792 0 84.197 10.5942 892 128.124 47.75 449.667
1793 0 88.5362 15.6094 1382 122.292 49.3111 445.197
1794 0 90.2979 15.7922 1426 124.191 49.2216 437.097
1795 0 95.1706 15.9503 1518 123.034 50.0369 439.97
1796 0 93.0912 11.3437 1056 132.078 50.3343 435.854
1797 0 98.3634 13.5518 1333 128.937 51.2933 437.634
1798 0 103.259 13.5098 1395 127.899 51.7427 439.189
1799 0 109.493 19.0971 2091 117.75 52.0096 443.515
1800 0 108.178 17.6839 1913 124.844 52.8939 432.465
1801 0 107.516 10.8356 1165 135.438 53.4652 431.02
1802 0 117.27 14.6414 1717 129.694 53.9709 429.549
1803 0 124.151 10.3423 1284 136.195 54.2095 433.329
1804 0 124.467 12.3648 1539 133.263 54.178 431.716
1805 0 128.43 15.4481 1984 128.983 54.2702 429.909
1806 0 135.246 16.4441 2224 127.534 54.9757 428.393
1807 0 140.258 13.5679 1903 130.8 53.6017 430.224
1808 0 148.496 16.593 2464 125.7 54.0795 429.67
1809 0 148.29 12.833 1903 131.216 53.1787 423.706
1810 0 153.285 15.755 2415 127.444 52.3023 417.374
1811 0 160.42 15.0106 2408 128.586 51.5502 418.769
1812 0 164.448 13.8767 2282 128.987 52.5587 422.586
1813 0 174.569 13.8742 2422 129.601 51.9566 415.121
1814 0 175.397 21.6994 3806 119.001 51.7493 415.271
1815 1 186.709 17.3907 3247 125.041 51.2732 412.181
1816 0 190.628 15.0345 2866 130.199 49.7244 399.146
1817 0 198.706 14.0458 2791 132.005 48.3407 395.019
1818 0 207.481 15.9195 3303 130.426 47.9885 399.719
1819 1 163.431 11.7481 1920 135.414 47.9052 420.006
1820 0 170.528 12.7897 2181 133.688 47.4663 417.327
1821 0 176.92 16.1372 2855 130.954 47.0609 413.584
1822 0 183.642 14.9693 2749 132.141 46.2565 412.071
1823 0 189.435 13.2816 2516 137.358 46.3001 407.527
1824 0 195.524 14.8268 2899 133.265 45.5906 411.583
1825 0 200.547 14.3856 2885 136.511 46.7997 406.965
1826 0 202.416 14.7024 2976 137.446 46.1314 398.635
1827 1 233.537 8.94932 2090 140.992 45.0871 413.98
1828 0 228.616 12.2826 2808 137.485 45.7995 399.914
1829 1 164.264 13.7462 2258 137.823 46.1125 412.986
1830 0 171.228 12.7958 2191 139.224 45.942 411.131
1831 0 173.353 12.7485 2210 141.923 45.4154 395.264
1832 0 185.226 14.7981 2741 137.242 46.278 400.337
1833 0 189.483 14.2599 2702 138.604 46.9023 394.626
1834 0 193.713 14.1963 2750 140.655 47.4622 390.952
1835 0 201.589 14.5147 2926 140.977 47.486 384.891
1836 0 209.653 14.7291 3088 138.183 48.1966 391.596
1837 0 216.486 16.8787 3654 136.297 48.9672 381.073
1838 0 222.763 12.1205 2700 145.671 49.7915 381.393
1839 0 232.654 16.8749 3926 137.957 50.8347 368.477
1840 0 240.49 13.302 3199 142.442 50.7937 377.963
1841 0 247.822 14.6638 3634 139.115 51.47 369.409
1842 1 200.595 18.2458 3660 119.467 51.5115 395.077
1843 0 204.61 14.4519 2957 125.181 52.1468 400.529
1844 0 213.798 15.6597 3348 124.635 52.1559 389.224
1845 0 222.422 14.7782 3287 125.871 53.1299 382.754
1846 0 230.643 16.3803 3778 123.776 53.0818 376.604
1847 1 173.418 10.1374 1758 132.775 54.0415 408.004
1848 0 183.322 14.7991 2713 125.108 53.8544 406.278
1849 0 185.586 12.9751 2408 130.924 53.9049 402.398
1850 0 194.394 15.9418 3099 124.076 53.6538 408.468
1851 0 203.474 15.545 3163 125.394 53.711 398.413
1852 0 209.347 17.01 3561 123.735 53.6984 397.818
1853 0 218.545 17.6714 3862 123.195 52.9728 395.511
1854 0 223.261 15.4841 3457 127.565 52.4929 397.395
1855 0 232.455 13.2197 3073 133.35 52.4767 386.516
1856 0 240.384 14.4144 3465 132.888 51.6465 381.993
1857 0 250.566 16.0436 4020 127.533 51.3483 383.32
1858 0 259.716 15.2397 3958 129.501 50.6352 384.221
1859 1 209.521 12.9199 2707 135.622 49.2298 400.092
1860 0 217.352 14.0877 3062 135.679 49.0098 394.212
1861 0 224.577 13.9106 3124 135.683 47.9782 390.851
1862 0 231.124 14.7237 3403 134.726 47.0367 392.235
1863 0 237.495 14.8761 3533 135.887 46.2205 382.909
1864 0 246.619 13.604 3355 139.648 45.9452 374.196
1865 0 253.577 14.9737 3797 137.494 46.2484 371.84
1866 0 260.828 14.9371 3896 138.83 46.6802 361.664
1867 0 270.121 13.3977 3619 141.822 46.0492 365.494
1868 0 282.071 19.0768 5381 129.503 46.0496 366.34
1869 0 290.833 15.5003 4508 138.872 44.7427 353.723
1870 1 216.853 12.3217 2672 146.439 44.7919 379.612
1871 0 220.968 12.4588 2753 146.59 45.4392 384.147
1872 0 221.235 11.6618 2580 148.842 45.2671 381.495
1873 1 14.063 3.91097 55 109.418 45.0545 486.691
1874 0 13.0067 2.15274 28 106.964 44.4643 489.321
1875 0 13.0025 3.92233 51 108.549 45.9804 486.804
1876 1 259.872 14.5379 3778 142.086 47.3335 359.911
1877 0 270.529 15.3255 4146 140.419 47.9742 354.892
1878 0 272.66 13.471 3673 149.932 47.7561 333.894
1879 0 373.317 18.1106 6761 137.864 48.3884 292.077
1880 0 308.834 21.1893 6544 130.457 49.1494 305.076
1881 0 318.815 22.4707 7164 129.031 50.617 308.638
1882 0 322.054 17.0592 5494 141.059 50.6127 322.661
1883 0 325.663 16.1762 5268 142.701 50.8535 309.362
1884 0 335.681 20.2007 6781 134.109 51.48 315.046
1885 0 343.572 18.6133 6395 138.064 52.4067 296.46
1886 0 347.707 15.6224 5432 144.253 52.4566 324.988
1887 1 292.852 15.1339 4432 146.922 52.0361 339.081
1888 0 301.782 15.6968 4737 145.166 53.5767 339.35
1889 0 375.545 26.2552 9860 125.667 53.3894 291.882
1890 0 378.039 19.8551 7506 136.523 54.1483 293.806
1891 0 330.385 15.4275 5097 147.402 53.5168 321.488
1892 0 342.268 24.0571 8234 129.465 54.1929 312.38
1893 0 353.223 21.0235 7426 135.408 54.0735 309.494
1894 0 363.378 20.791 7555 136.634 54.1202 299.047
1895 0 374.088 18.91 7074 140.984 53.3174 306.759
1896 0 383.316 19.3417 7414 140.959 52.7768 293.83
1897 0 74.4987 10.0002 745 130.419 52.4174 462.895
1898 0 78.4063 13.0857 1026 125.658 52.1589 465.698
1899 0 79.5203 12.6634 1007 127.476 51.861 461.765
1900 0 83.4598 11.179 933 130.152 50.8414 462.964
1901 0 94.3941 11.452 1081 129.807 50.3978 459.943
1902 0 96.1933 11.5497 1111 131.388 48.4554 456.915
1903 0 94.3904 13.1157 1238 130.826 48.0258 458.04
1904 0 93.4252 14.7284 1376 128.695 46.7631 460.041
1905 0 387.025 21.4094 8286 139.452 48.0892 292.385
1906 0 386.002 19.9584 7704 141.447 46.6769 292.355
1908 0 386.98 23.7713 9199 130.469 46.9437 290.798
1912 0 168.736 14.259 2406 126.263 44.15 422.699
1913 0 169.629 11.3365 1923 131.479 44.2168 424.31
1914 0 176.812 10.1803 1800 135.159 44.8983 420.991
1916 0 378.332 17.5322 6633 142.159 44.7517 286.599
1919 0 379.26 28.7164 10891 120.156 45.4951 287.49
1920 0 377.099 17.7911 6709 137.018 46.708 285.837
1921 0 375.805 16.591 6235 136.996 47.4719 286.119
1922 1 143.873 12.7474 1834 127.685 47.8871 424.937
1923 0 146.06 14.3777 2100 124.27 49.2867 426.309
1924 0 151.894 14.2863 2170 125.271 48.2429 419.837
1925 0 152.011 15.1107 2297 125.216 49.4349 414.987
1926 0 151.931 12.8545 1953 130.303 50.3615 416.205
1927 0 152.267 9.6935 1476 134.4 50.5244 427.133
1928 0 160.656 12.9407 2079 131.596 51.7191 407.328
1929 0 173.103 19.8668 3439 116.841 51.535 409.835
1930 0 175.925 17.0186 2994 121.329 53.0992 405.826
1931 1 244.332 13.8786 3391 125.284 53.4376 378.052
1932 0 251.418 13.2369 3328 126.498 53.0959 378.742
1933 0 257.706 14.1595 3649 125.77 53.8896 368.675
1934 1 47.1478 10.3504 488 119.777 53.8586 478.055
1935 0 51.3076 12.2789 630 115.216 54.1762 478.603
1936 0 51.2643 9.96796 511 121.17 54.5362 477.292
1937 0 49.1794 9.67885 476 121.414 53.8971 479.697
1938 0 50.1233 14.205 712 113.264 53.6938 478.247
1939 0 51.1929 12.8143 656 114.748 52.2012 480.274
1940 0 48.0905 10.5842 509 119.694 52.9293 482.998
1941 0 49.153 9.88749 486 121.652 52.6008 482.237
1942 0 49.0892 14.3209 703 114.29 51.1053 481.903
1943 0 50.0513 10.5692 529 119.501 50.3611 485.769
1944 0 51.0519 11.7332 599 121.424 47.7913 482.496
1945 0 50.0795 10.1039 506 124.215 48.4802 482.607
1946 0 49.0764 8.41545 413 125.806 47.5617 486.705
1947 0 50.0398 12.0104 601 121.133 46.7421 483.353
1948 0 48.028 10.7229 515 124.893 46.7029 481.771
1949 0 51.0391 11.403 582 121.447 46.8316 483.258
1950 0 50.0321 11.4127 571 123.632 45.4466 480.336
1951 0 50.0972 10.3399 518 125.643 44.388 478.334
1952 0 51.1104 10.6241 543 124.901 44.1842 476.427
1953 0 51.0365 10.953 559 123.345 44.5707 480.428
1954 0 51.1566 11.2595 576 123.127 44.7604 480.21
1955 0 49.1039 10.0807 495 124.853 44.2626 478.15
1956 0 49.3313 12.2032 602 120.897 44.3987 476.068
1957 0 47.0705 10.5374 496 124.534 44.4536 477.079
1958 0 47.0742 10.8552 511 122.581 43.8943 475.9
1959 0 52.1756 11.423 596 119.763 44.495 474.282
1960 0 52.1938 13.7181 716 115.246 44.7374 468.866
1961 0 50.1748 10.862 545 120.587 46.3064 474.787
1962 0 53.2367 8.17106 435 125.451 45.7195 473.588
1963 0 53.1581 10.2336 544 121.513 46.7151 471.994
1964 0 51.1618 11.0825 567 122.917 47.0423 470.406
1965 0 52.0809 11.2709 587 122.037 47.4906 470.671
1966 0 50.1179 10.7546 539 124.627 48.4712 466.584
1967 0 51.0431 14.0666 718 116.292 49.0501 468.479
1968 0 52.0746 11.8676 618 118.659 49.6311 468.845
1969 0 52.0566 11.1994 583 120.844 50.8714 466.657
1970 0 52.1301 13.543 706 116.769 51 466.905
1971 0 57.1552 12.0199 687 118.865 51.6536 466.898
1972 0 55.0843 14.4143 794 114.101 51.2972 467.792
1973 0 56.0915 12.5153 702 118.967 52.2094 468.024
1974 0 55.0942 12.524 690 121.086 52.4928 467.82
1975 0 54.1505 14.035 760 117.837 52.2763 467.692
1976 0 57.1077 13.5183 772 117.098 52.9845 469.486
1977 0 58.0817 14.8239 861 114.11 52.2485 472.596
1978 0 56.1062 12.6367 709 120.09 53.3681 472.274
1979 0 55.1108 13.7723 759 117.797 52.3531 470.493
1980 0 56.1504 11.5582 649 121.615 51.2712 472.163
1981 0 56.0999 13.0303 731 118.265 51.6498 475.204
1982 0 53.0892 11.6408 618 123.408 51.2443 475.803
1983 0 55.1459 13.7635 759 118.988 51.2055 474.908
1984 0 56.0148 13.425 752 119.009 50.2327 478.481
1985 0 55.1684 17.7094 977 111.451 50.0778 476.701
1986 0 54.1008 11.9776 648 121.593 47.8117 477.596
1987 0 58.2147 14.8416 864 114.604 47.9074 478.706
1988 0 57.1385 11.3759 650 121.654 45.6785 477.325
1989 0 59.0934 13.8594 819 115.932 46.6239 476.137
1990 0 54.1758 12.7732 692 119.282 46.0462 478.464
1991 0 56.1477 14.1413 794 116.836 45.5768 474.136
1992 0 57.1911 11.243 643 120.918 45.2395 476.896
1993 0 57.0583 13.7579 785 117.376 45.1834 474.985
1994 0 56.141 13.2345 743 117.785 44.2826 475.896
1995 0 55.1272 12.4984 689 120.065 42.717 473.694
1996 0 56.1149 11.7438 659 120.445 42.4659 475.753
1997 0 55.0822 12.9261 712 119.791 43.2865 471.4
1998 0 59.1959 17.5688 1040 109.789 42.7404 471.781
1999 0 57.1884 14.0588 804 115.983 42.949 472.77
2000 0 57.1254 10.9408 625 122.173 43.024 468.814
2001 0 56.0606 15.3049 858 114.438 43.1212 468.583
2002 0 56.0802 14.1048 791 116.417 43.5613 469.215
2003 0 57.0764 13.0352 744 120.036 44.3925 468.474
2004 0 56.1038 11.5678 649 123.129 44.5716 467.136
2005 0 54.0735 12.0761 653 123.391 44.559 465.355
2006 0 58.1144 12.8195 745 120.632 45.557 465.903
2007 0 56.1072 12.2088 685 123.083 47.0044 465.492
2008 0 57.0901 12.7518 728 121.904 48.1209 465.198
2009 0 55.1448 8.97636 495 129.931 47.8061 463.853
2010 0 57.0782 15.3824 878 116.093 49.672 463.138
2011 0 56.0875 12.1061 679 123.158 49.62 464.794
2012 0 56.0885 13.6213 764 119.456 49.7343 466.919
2013 0 55.2364 15.4427 853 117.404 51.6928 466.029
2014 0 54.2902 11.9174 647 123.597 51.017 464.416
2015 0 55.2648 15.1815 839 117.369 51.5721 464.137
2016 0 57.2022 12.2023 698 121.954 52.1261 466.107
2017 0 56.2041 13.2908 747 119.681 52.1526 467.414
2018 0 56.1964 12.741 716 120.219 52.0978 467.348
2019 0 56.2264 12.2896 691 120.43 52.0912 470.724
2020 0 57.1307 11.5875 662 122.894 51.9728 471.36
2021 0 55.1671 13.4319 741 119.472 50.9528 472.225
2022 0 58.1307 13.5901 790 118.105 51.8785 472.963
2023 0 56.151 12.4486 699 122.379 51.8712 472.432
2024 0 57.2824 12.4122 711 120.579 50.865 474.468
2025 0 56.1515 12.1457 682 122.371 50.129 474.148
2026 0 59.2178 14.4045 853 116.7 50.0926 476.565
2027 0 58.1197 13.0248 757 118.359 50.6922 477.528
2028 0 57.1484 14.5061 829 117.189 49.2967 478.636
2029 0 55.0977 11.289 622 124.328 48.4678 477.989
2030 0 59.1947 13.1768 780 118.413 47.941 479.059
2031 0 58.2164 14.5663 848 117.645 46.355 474.871
2032 0 56.2144 13.1105 737 120.422 46.882 475.232
2033 0 56.2617 12.1752 685 122.171 45.5328 475.483
2034 0 57.1041 14.1146 806 117.499 45.4454 476.598
2035 0 57.1542 12.7025 726 120.069 44.7479 475.38
2036 0 56.217 11.42 642 123.123 44.8396 474.808
2037 0 58.3491 14.8074 864 116.818 44.0671 472.65
2038 0 54.2038 11.3276 614 123.894 44.1091 472.536
2039 0 56.1263 12.3828 695 121.132 43.7755 472.069
2040 0 57.231 14.8172 848 117.192 43.9269 471.763
2041 0 56.3568 11.3917 642 122.67 43.4299 471.955
2042 0 55.1614 13.0526 720 121.569 44.0792 470.206
2043 0 62.4404 15.3907 961 114.593 43.6379 469.524
2044 0 58.0811 16.3564 950 114.809 43.1958 468.626
2045 0 59.1281 16.4558 973 113.999 43.5889 469.135
2046 0 58.1181 14.591 848 117.625 44.3278 470.038
2047 0 58.1012 16.7122 971 114.144 44.7662 469.38
2048 0 57.1533 15.3447 877 116.9 45.2372 467.344
2049 0 60.1431 20.6009 1239 108.087 45.004 465.579
2050 0 57.3938 14.3221 822 119.819 45.8796 464.461
2051 0 56.2264 14.8329 834 119.035 47.4173 463.327
2052 0 60.3859 16.8748 1019 112.625 47.7174 466.081
2053 0 55.1884 12.6476 698 122.951 48.0645 464.238
2054 0 57.1873 15.1257 865 112.972 49.378 469.684
2055 0 56.1742 15.6833 881 116.27 49.2406 462.598
2056 0 60.1774 23.7797 1431 100.758 49.5793 469.846
2057 0 61.2743 12.9908 796 115.79 50.103 471.322
2058 0 57.0581 12.0754 689 121.173 51.1306 466.122
2059 0 57.0735 16.0845 918 114.171 51.9248 469.629
2060 0 58.1026 17.865 1038 111.729 51.1946 468.555
2061 0 57.0718 12.7909 730 120.562 50.9151 469.514
2062 0 55.029 12.9568 713 119.994 51.6957 472.045
2063 0 57.1543 14.3821 822 116.551 51.9757 474.01
2064 0 59.0375 15.1937 897 114.289 51.0379 475.268
2065 0 59.17 15.2949 905 115.256 52.0785 472.909
2066 0 56.079 11.9296 669 122.172 49.9163 475.022
2067 0 58.0502 18.2428 1059 110.706 50.9991 477.505
2068 0 58.1672 19.9941 1163 107.23 50.8779 480.377
2069 0 56.2063 12.1339 682 121.994 50.5147 476.328
2070 0 58.0658 14.0875 818 118.478 48.8936 477.859
2071 0 58.0551 14.0212 814 118.205 48.3231 479.015
2072 0 57.1052 11.7678 672 124.143 47.7426 479.735
2073 0 55.1416 12.8759 710 121.844 45.9535 480.08
2074 0 59.1664 15.2451 902 116.098 45.6929 478.33
2075 0 57.1871 14.1116 807 116.768 43.938 482.792
2076 0 60.2049 12.9558 780 119.44 43.5551 479.683
2077 0 58.1121 14.4892 842 117.293 44.1746 479.303
2078 0 58.0857 12.0856 702 122.444 44.1852 475.558
2079 0 58.2038 13.6417 794 118.582 43.1423 475.054
2080 0 57.1107 16.3892 936 114.609 43.5449 471.923
2081 0 58.0698 16.6868 969 114.39 44.2714 473.293
2082 0 54.0613 11.5794 626 124.735 42.2636 472.776
2083 0 57.024 17.2208 982 113.359 43.0204 473.701
2084 0 57.2448 14.1672 811 118.656 42.9001 471.228
2085 0 58.0524 12.5921 731 119.947 42.9316 471.859
2086 0 55.1165 14.3151 789 119.185 43.1065 469.578
2087 0 58.0421 15.4026 894 115.043 43.7058 469.937
2088 0 58.0503 10.7321 623 124.735 43.8042 468.596
2089 0 58.0642 14.4495 839 118.3 45.1085 467.229
2090 0 59.1387 15.6581 926 115.619 45.1166 462.316
2091 0 60.0997 14.3595 863 117.262 45.2202 465.013
2092 0 56.2316 15.3295 862 117.184 46.3167 465.186
2093 0 57.1516 14.6802 839 118.627 46.2861 464.478
2094 0 57.0933 14.5376 830 118.435 47.7566 464.81
2095 0 56.0609 11.8086 662 123.591 48.0302 465.566
2096 0 56.1401 10.8122 607 125.972 49.8089 465.438
2097 0 56.0339 12.7601 715 120.904 50.4266 466.537
2098 0 58.137 11.3525 660 124.903 50.353 463.774
2099 0 58.1252 12.6795 737 121.758 49.8847 465.16
2100 0 58.1564 12.1053 704 120.629 49.9673 468.087
2101 0 56.0846 13.9254 781 118.399 50.8694 468.816
2102 0 54.032 11.2526 608 124.743 51.5707 468.423
2103 0 56.0565 10.3645 581 125.119 50.475 468.046
2104 0 56.0982 14.9381 838 117.124 51.7601 468.988
2105 0 55.1302 9.92197 547 125.285 52.2413 471.271
2106 0 56.0619 13.0213 730 120.471 52.026 471.185
2107 0 56.0943 12.8712 722 120.288 52.8102 473.72
2108 0 58.0797 12.5345 728 118.684 52.1484 476.828
2109 0 57.0443 13.5859 775 117.956 51.1006 474.907
2110 0 59.0439 15.6663 925 112.519 51.8573 474.583
2111 0 59.1759 11.9643 708 118.895 49.3475 479.578
2112 0 56.0798 13.2668 744 120.231 51.1505 475.589
2113 0 59.1022 10.9979 650 121.382 51.0969 479.714
2114 0 55.1463 10.8439 598 123.094 49.8813 477.878
2115 0 59.1272 12.0587 713 120.185 47.2118 476.589
2116 0 59.2661 15.5401 921 113.65 48.0261 480.07
2117 0 59.1488 12.4601 737 120.286 47.3365 476.783
2118 0 61.0681 6.66469 407 129.143 46.7985 477.086
2119 0 63.3119 10.7247 679 120.776 47.2916 476.641
2120 0 62.1481 17.2813 1074 109.925 44.3706 473.65
2121 0 58.274 11.2228 654 121.08 44.3593 473.916
2122 0 58.1551 10.5408 613 121.38 44.1811 472.545
2123 0 58.2437 12.07 703 118.37 44.394 472.872
2124 0 60.5771 13.3879 811 115.113 44.1714 474.404
2125 0 58.1274 11.2512 654 119.968 44.2722 472.602
2126 0 56.089 11.1965 628 119.85 43.5621 470.506
2127 0 59.1848 16.4063 971 111.412 45.3728 468.064
2128 0 59.1442 12.7654 755 117.246 43.9947 468.793
2129 0 59.1816 12.4532 737 117.499 44.076 468.725
2130 0 56.1493 12.6627 711 119.031 44.0239 466.104
2131 0 59.0276 13.841 817 115.856 45.093 467.258
2132 0 57.0814 10.6164 606 119.936 45.1518 470.409
2133 0 58.1259 13.5912 790 116.085 45.8228 467.08
2134 0 56.2511 14.0442 790 114.962 46.2608 467.084
2135 0 60.0975 12.0804 726 118.479 46.7218 464.439
2136 0 56.055 13.0764 733 117.793 47.5252 465.198
2137 0 59.1294 14.9841 886 113.368 47.614 463.77
2138 0 62.1889 14.6328 910 113.089 48.4022 462.164
2139 0 59.1671 17.3745 1028 109.602 48.2626 463.299
2140 0 57.1068 10.4366 596 121.488 49.6493 463.641
2141 0 56.2333 14.0131 788 116.943 50.3325 463.633
2142 0 59.216 17.0393 1009 108.231 49.8087 463.268
2143 0 59.1571 15.9575 944 108.59 51.1059 465.608
2144 0 58.0821 11.3804 661 115.849 52.4977 469.644
2145 0 59.2188 12.1921 722 115.175 51.4017 466.283
2146 0 59.1092 12.4515 736 114.265 52.7853 469.345
2147 0 59.1598 9.92228 587 118.663 51.5707 468.429
2148 0 62.1638 12.6279 785 113.939 52.535 467.392
2149 0 59.116 11.2829 667 114.982 51.6102 472.753
2150 0 57.159 11.6167 664 116.387 52.6566 472.818
2151 0 60.1327 13.7197 825 111.594 52.4036 475.897
2152 0 59.074 13.3223 787 112.437 51.892 475.82
2153 0 57.0912 11.4378 653 116.85 51.6248 477.914
2154 0 58.1348 14.088 819 110.941 51.2454 475.955
2155 0 58.1682 12.8421 747 112.807 49.8568 478.003
2156 0 58.0182 11.4447 664 113.794 48.9473 482.235
2157 0 58.1863 11.4975 669 115.475 47.9073 477.402
2158 0 59.1324 15.4061 911 108.437 48.1229 479.723
2159 0 60.0814 11.9172 716 113.091 47.1564 481.025
2160 0 59.2128 10.7747 638 117.34 46.2179 476.625
2161 0 58.2318 12.0381 701 115.32 46.5678 477.498
2162 0 59.2345 12.2733 727 113.917 44.784 476.839
2163 0 57.1192 11.5898 662 116.047 44.8822 473.434
2164 0 56.1112 13.2238 742 112.992 43.9784 478.182
2165 0 60.1346 11.574 696 115.628 42.3951 474.753
2166 0 60.0893 11.0669 665 115.812 44.4421 475.525
2167 0 58.0529 12.8848 748 113.11 44.2513 476.12
2168 0 60.044 13.6566 820 111.463 43.2878 473.972
2169 0 58.1378 13.4852 784 112.926 44.389 472.298
2170 0 60.1364 9.61148 578 118.533 45.0433 470.919
2171 0 57.1257 10.118 578 118.261 44.0554 469.279
2172 0 63.1569 10.561 667 115.66 45.2024 472.204
2173 0 59.1953 12.3489 731 113.454 44.4761 468.246
2174 0 59.0764 10.5287 622 115.804 46.0997 466.799
2175 0 59.3124 14.9041 884 107.18 44.7104 467.958
2176 0 58.1338 11.1983 651 111.889 45.5822 469.246
2177 0 59.2467 10.4816 621 113.668 46.1884 467.019
2178 0 60.1643 14.2942 860 107.264 46.3419 466.765
2179 0 59.0414 12.1102 715 112.459 47.5399 463.719
2180 0 61.2086 12.1388 743 110.984 48.4118 463.89
2181 0 59.0567 14.0035 827 108.904 49.4148 462.751
2182 0 61.1284 14.7558 902 106.13 50.7494 467.319
2183 0 59.0894 13.5388 800 109.29 49.9638 465.768
2184 0 59.0813 13.8284 817 107.965 50.2534 465.256
2185 0 62.0622 12.2941 763 111.376 50.9148 462.827
2186 0 60.0324 12.8431 771 109.406 51.2568 465.218
2187 0 56.0556 10.4361 585 113.721 52.8872 465.721
2188 0 61.442 15.1199 929 105.71 53.7427 465.761
2189 0 60.0581 11.6054 697 112.326 52.2769 464.64
2190 0 62.1419 10.4599 650 112.945 53.9862 471.266
2191 0 58.1895 11.7032 681 113.369 53.141 472.095
2192 0 58.1663 11.3468 660 114.267 52.9788 472.983
2193 0 59.0706 13.0522 771 107.815 53.0648 477.923
2194 0 58.0864 13.9792 812 109.17 53.0049 475.808
2195 0 59.1101 13.0435 771 110.198 52.6498 476.379
2196 0 58.0572 11.6609 677 112.973 51.938 474.248
2197 0 57.0976 11.6817 667 113.355 51.1124 473.06
2198 0 59.0917 11.1352 658 113.214 52.6444 478.394
2199 0 59.0917 14.4521 854 130.783 54.3478 478.652
2200 0 60.108 12.4609 749 111.382 50.0734 479.204
2201 0 62.1241 15.3403 953 105.299 47.5792 475.566
2202 0 58.0806 12.586 731 111.978 47.3105 475.03
2203 0 59.0903 13.1663 778 110.24 47.5848 475.82
2204 0 59.13 15.2376 901 107.075 48.2675 475.417
2205 0 57.0715 10.8986 622 114.966 46.5627 474.645
2206 0 58.0962 12.5482 729 110.72 45.8203 476.144
2207 0 55.0885 8.60433 474 117.762 45.1962 472.141
2208 0 59.1037 12.1143 716 112.932 45.683 472.589
2209 0 64.3143 11.9414 768 108.366 43.8021 476.565
2210 0 56.3327 12.2487 690 111.251 44.3942 469.777
2211 0 62.1477 13.8058 858 106.469 45.549 472.295
2212 1 125.228 10.3171 1292 114.768 45.1625 441.315
2213 0 129.579 14.169 1836 109.583 46.0637 433.081
2214 0 132.464 16.1554 2140 105.239 45.2827 437.023
2215 0 135.414 15.7074 2127 104.349 46.37 442.107
2216 0 136.57 18.1738 2482 100.51 45.4847 440.658
2217 1 97.5082 11.4554 1117 109.613 47.0609 451.141
2218 0 96.2441 11.0552 1064 109.7 46.3957 447.971
2219 1 60.19 11.0151 663 110.683 46.5415 465.466
2220 0 63.6414 13.2304 842 104.878 47.2791 467.398
2221 0 60.3975 14.1397 854 104.911 47.7963 465.758
2222 0 56.1314 12.0788 678 109.145 48.0339 466.648
2223 0 57.2392 13.627 780 107.659 48.8077 461.822
2224 0 58.1979 12.784 744 107.918 49.6599 464.97
2225 0 60.3109 22.6493 1366 94.2621 49.5293 465.029
2226 0 62.271 19.7524 1230 96.3032 49.539 467.383
2227 0 60.1014 12.3292 741 106.749 50.5236 464.873
2228 0 61.2947 14.1448 867 103.193 52.0888 468.74
2229 0 58.3467 14.7566 861 103.787 50.8966 467.675
2230 0 59.1694 12.8445 760 105.889 53.2092 465.837
2231 0 56.1526 12.7154 714 106.7 53.1653 467.204
2232 0 63.6425 12.2245 778 104.983 52.3021 471.153
2233 0 58.3249 12.9104 753 105.984 53.9296 468.607
2234 0 59.3758 13.2714 788 105.448 53.5063 470.945
2235 0 58.0552 12.2642 712 109.756 52.7683 470.628
2236 0 58.2382 13.6337 794 107.907 52.0264 471.811
2237 0 58.14 13.3127 774 107.739 51.6667 472.171
2238 0 59.384 11.8214 702 109.05 52.0171 474.678
2239 0 59.1345 13.613 805 106.399 51.7565 475.484
2240 0 59.2838 10.7787 639 111.734 50.2989 477.092
2241 0 59.1265 16.693 987 103.146 49.7224 477.116
2242 0 59.1301 13.242 783 108.175 49.9438 477.077
2243 0 59.1107 13.3648 790 106.948 47.5519 478.113
2244 0 60.308 13.0994 790 107.809 47.5785 477.538
2245 0 61.1152 10.6684 652 111.948 47.2224 476.055
2246 0 63.0832 12.2061 770 106.747 49.1273 474.988
2247 0 61.0496 10.5979 647 109.227 47.0247 474.08
2248 0 61.0927 11.949 730 107.833 46.6644 473.822
2249 0 59.0137 12.6072 744 107.755 46.8065 470.903
2250 0 62.1288 13.1662 818 106.322 47.7457 473.385
2251 0 62.206 15.6416 973 102.489 46.9363 472.283
2252 0 61.065 16.0812 982 102.86 47.3198 470.71
2253 0 61.0985 9.80383 599 110.524 45.8948 471.217
2254 0 62.0854 12.4989 776 108.379 46.6585 468.548
2255 0 60.0482 13.206 793 107.589 47.2056 466.132
2256 0 64.0638 12.9246 828 105.505 47.3237 471.159
2257 0 59.2503 13.4852 799 104.578 45.9061 472.776
2258 0 63.2207 17.0672 1079 100.454 43.5783 471.526
2259 0 60.2192 15.8587 955 105.509 43.8838 462.171
2260 0 61.1621 13.9956 856 107.818 45.1881 464.729
2261 0 62.0705 11.8091 733 111.218 44.925 466.681
2262 0 63.1536 14.4252 911 106.173 46.0494 464.012
2263 0 59.1038 14.3138 846 106.697 46.5638 467.738
2264 0 66.2517 12.9204 856 107.495 46.8528 464.473
2265 0 62.131 13.4715 837 107.978 48.7861 464.051
2266 0 63.2488 15.0675 953 105.616 49.148 462.527
2267 0 59.2407 12.0019 711 112.978 49.5415 463.257
2268 0 60.1766 12.2971 740 110.041 50.4635 464.726
2269 0 58.143 12.0737 702 111.94 49.3675 464.479
2270 0 60.2346 12.5177 754 111.023 49.7692 463.141
2271 0 58.198 10.4471 608 113.143 49.9556 467.864
2272 0 60.1915 13.0251 784 106.469 51.2589 465.978
2273 0 59.2098 12.3966 734 107.371 51.7888 468.136
2274 0 60.1953 13.6389 821 105.782 53.9537 467.426
2275 0 59.1423 12.8165 758 106.437 52.8865 470.698
2276 0 60.0661 12.6527 760 107.363 52.7342 469.791
2277 0 57.0924 11.6303 664 110.008 52.5407 469.742
2278 0 57.0558 11.182 638 111.085 51.221 472.467
2279 0 59.2449 12.5243 742 107.476 51.8787 474.619
2280 0 59.2452 10.6506 631 110.864 49.8494 474.52
2281 0 58.279 14.4649 843 105.35 50.7011 476.075
2282 0 57.2775 11.9244 683 109.603 50.183 477.968
2283 0 57.1864 12.1532 695 109.97 51.6086 474.512
2284 0 58.1216 12.4394 723 108.661 50.6459 478.941
2285 0 57.0906 11.8934 679 111.184 48.0029 477.287
2286 0 56.309 13.4614 758 108.124 47.3641 478.517
2287 0 56.2244 8.6973 489 115.679 48.4151 476.626
2288 0 58.1117 9.3957 546 112.031 46.5788 479.119
2289 0 57.1734 13.3629 764 108.319 44.9215 473.069
2290 0 59.2052 13.715 812 105.262 42.2894 475.925
2291 0 61.3428 11.7862 723 106.953 43.8382 479.187
2292 0 57.2306 10.6586 610 111.311 43.5902 475.338
2293 0 58.2973 12.745 743 107.775 43.0135 473.72
2294 0 56.1288 10.6184 596 111.411 44.2903 472.701
2295 0 56.142 11.1325 625 109.638 45.4256 473.366
2296 0 57.3659 11.8363 679 109.149 42.8365 472.592
2297 0 59.0337 11.8407 699 109.266 44.9871 468.428
2298 0 59.1823 10.7971 639 109.881 44.5602 470.277
2299 0 57.2093 12.1833 697 107.772 42.8321 468.501
2300 0 59.2034 12.1277 718 107.284 44.2772 466.614
2301 0 56.2223 12.8952 725 106.252 44.8634 469
2302 0 58.3026 11.9377 696 106.346 45.556 472.277
2303 0 58.1119 16.2445 944 101.601 44.358 464.442
2304 0 56.4166 11.8582 669 109.094 45.3886 464.856
2305 0 57.2141 13.231 757 107.787 47.469 465.551
2306 0 55.197 9.51138 525 113.85 46.76 467.168
2307 0 58.0585 14.3131 831 106.657 48.7894 465.11
2308 0 56.0553 8.58081 481 114.443 48.3534 468.576
2309 0 57.1158 11.2753 644 111.464 49.3727 464.065
2310 0 59.1028 12.4867 738 108.504 49.6396 466.667
2311 0 59.1913 15.4246 913 103.368 50.2793 467.554
2312 0 57.0917 14.3979 822 105.747 51.4039 461.83
2313 0 59.0675 13.3915 791 106.465 51.622 466.11
2314 0 57.2247 12.8791 737 106.867 51.7015 468.122
2315 0 57.1622 12.1759 696 109.46 50.9497 466.069
2316 0 59.1278 16.9125 1000 100.475 51.199 467.392
2317 0 56.2034 11.9922 674 109.113 53.3042 469.826
2318 0 56.1147 12.7952 718 107.238 53.2131 470
2319 0 51.0266 9.28926 474 111.859 51.1034 469.308
2320 0 58.0481 12.8342 745 106.228 51.6779 471.744
2321 0 56.3457 13.2574 747 107.012 52.0241 472.518
2322 0 55.2246 10.6836 590 112.173 51.2085 476.039
2323 0 55.1829 11.0179 608 108.929 50.4408 479.217
2324 0 56.2501 12.64 711 108.148 49.6385 476.401
2325 0 56.1802 13.4389 755 106.899 49.9642 474.789
2326 0 55.1075 9.74458 537 112.419 50.0074 477.966
2327 0 58.0693 11.4518 665 108.161 48.403 480.138
2328 0 55.1298 8.65231 477 114.384 47.8155 479.017
2329 0 56.1176 13.8816 779 105.995 46.9255 478.91
2330 0 56.2052 13.0771 735 107.174 46.3673 476.472
2331 0 59.2105 11.8053 699 107.074 45.4335 477.372
2332 0 59.2544 13.8386 820 103.317 44.5512 476.32
2333 0 57.2982 12.2517 702 107.788 43.6866 472.99
2334 0 57.2982 12.2866 704 130.538 42.6847 473.018
2335 0 59.226 13.9803 828 102.871 43.4287 474.769
2336 0 57.1676 11.4401 654 107.214 45.37 475.702
2337 0 58.1768 10.1759 592 109.806 44.4747 473.51
2338 0 57.0963 10.5086 600 109.632 43.6267 472.268
2339 0 56.1662 12.2494 688 106.087 42.577 473.234
2340 0 57.2465 13.503 773 105.449 43.2122 467.376
2341 0 59.4306 12.5693 747 104.967 43.3842 468.299
2342 0 58.1436 14.103 820 102.48 43.8366 466.671
2343 0 57.2506 13.1003 750 104.656 43.572 465.196
2344 0 57.1608 12.5086 715 105.494 45.7287 465.115
2345 0 57.1512 13.5605 775 104.259 46.7148 463.017
2346 0 56.232 12.0216 676 106.632 45.8447 464.247
2347 0 57.2964 10.5242 603 106.765 46.0912 467.26
2348 0 58.1505 12.3645 719 104.584 46.7886 463.673
2349 0 57.2951 14.9053 854 101.871 48.3888 462.268
2350 0 60.1346 13.0873 787 103.377 48.6328 464.172
2351 0 57.2012 11.5907 663 106.701 49.6878 460.706
2352 0 61.6609 15.7312 970 98.7907 48.9227 462.5
2353 0 60.2658 16.5434 997 98.5045 49.9619 463.83
2354 0 62.2572 20.5599 1280 93.1594 50.5141 461.491
2355 0 59.3242 14.6315 868 100.865 51.9182 461.108
2356 0 61.4348 13.787 847 100.387 52.4793 459.857
2357 0 58.3154 17.371 1013 96.5548 52.6515 468.116
2358 0 58.3035 13.8242 806 102.175 52.2444 462.886
2359 0 57.1762 11.2984 646 106.245 53.0341 467.684
2360 0 59.2728 13.2439 785 101.59 52.5223 469.806
2361 0 57.1925 15.509 887 98.7678 52.0846 472.11
2362 0 57.1645 11.0208 630 105.373 51.7952 472.621
2363 0 58.061 11.0918 644 105.595 51.413 473.264
2364 0 56.0382 10.475 587 106.738 50.322 476.876
2365 0 58.058 11.4024 662 104.279 50.1088 476.459
2366 0 58.1218 14.9858 871 98.5603 49.9943 480.567
2367 0 61.1655 11.0356 675 104.166 49.443 480.207
2368 0 58.0283 13.0971 760 101.987 48.1447 477.929
2369 0 58.0759 11.6399 676 104.488 46.5281 477.818
2370 0 59.1465 14.3035 846 98.4586 45.6324 482.09
2371 0 59.2611 12.1665 721 101.395 44.018 480.125
2372 0 59.1375 14.5931 863 98.8412 45.0649 478.686
2373 0 58.131 16.9445 985 96.7249 43.9766 477.848
2374 0 58.0702 11.8994 691 103.271 43.1606 479.702
2375 0 56.2064 10.7995 607 106.44 42.911 477.83
2376 0 61.2307 13.8656 849 99.5878 41.7008 477.617
2377 0 57.1307 12.7252 727 103.081 41.8239 474.319
2378 0 58.1244 10.9592 637 105.537 41.5856 475.603
2379 0 61.127 16.0813 983 95.6968 42.1709 474.602
