time division length width area intensity CMx CMy
0 0 36.1633 12.6924 459 129.462 362.366 459.063
1 0 35.0547 13.8355 485 130.118 361.687 460.196
2 0 39.2409 13.277 521 118.633 361.71 464.822
3 0 39.0871 15.2736 597 112.727 360.33 467.09
4 0 38.1038 13.2795 506 128.239 359.804 466.777
5 0 40.0453 14.9581 599 123.167 357.938 469.304
6 0 39.1131 14.6498 573 127.405 356.789 471.086
7 0 39.1131 14.701 575 159.638 355.791 471.083
8 0 46.017 11.5609 532 128.945 356.914 477.017
9 0 44.1939 16.7896 742 121.055 355.771 473.282
10 0 44.0697 18.0396 795 117.506 354.659 473.659
11 0 49.1209 16.0828 790 120.586 354.167 472.248
12 0 48.058 16.3552 786 120.57 354.681 472.207
13 0 51.1634 16.3594 837 117.244 353.645 470.103
14 0 52.2477 16.039 838 119.601 353.994 468.816
15 0 51.0864 13.6631 698 126.775 353.758 467.573
16 0 53.123 14.9088 792 122.201 354.158 463.79
17 0 53.1257 15.5857 828 118.88 353.374 462.372
18 0 57.122 19.4846 1113 117.301 353.358 459.216
19 0 59.2799 15.6883 930 121.295 352.442 454.475
20 0 62.1566 15.284 950 120.992 354.224 454.808
21 0 64.0461 17.019 1090 117.667 354.394 456.376
22 0 64.2306 15.2108 977 123.359 353.77 454.408
23 0 66.2499 18.5812 1231 120.588 354.938 453.075
24 0 68.0974 17.5484 1195 122.146 355.294 451.987
25 0 71.1752 21.2012 1509 112.905 355.634 453.217
26 0 73.1012 16.4293 1201 123.375 356.894 445.714
27 0 74.0903 18.5314 1373 120.886 356.72 443.275
28 0 80.237 21.2994 1709 113.571 357.808 445.438
29 0 79.2287 16.1431 1279 122.936 359.013 441.619
30 0 83.2959 17.5159 1459 119.025 358.742 447.221
31 0 86.0811 14.4283 1242 125.573 360.574 441.627
32 1 45.144 14.2212 642 124.805 361.207 460.843
33 0 47.0359 16.3279 768 117.523 361.964 459.19
34 0 47.0649 13.8107 650 124.758 362.615 459.395
35 0 51.0314 13.4427 686 124.133 362.685 462.324
36 0 50.1456 15.7342 789 119.454 364.489 460.814
37 0 54.084 13.3681 723 120.613 364.119 463.072
38 0 56.0779 16.0848 902 115.458 364.723 462.62
39 0 57.0939 14.9753 855 118.67 363.718 459.866
40 0 58.1416 13.0027 756 119.224 364.192 463.607
41 0 62.2454 14.4268 898 119.871 363.913 462.383
42 0 62.0708 14.419 895 116.115 363.887 466.025
43 0 65.2085 17.375 1133 114.237 364.368 464.115
44 0 65.1133 15.7111 1023 124.435 362.08 459.892
45 0 67.1064 13.1284 881 139.085 362.014 461.731
46 0 68.0382 14.0215 954 137.964 362.748 459.852
47 0 73.2561 15.3434 1124 135.064 361.172 461.632
48 0 76.0875 15.1668 1154 137.761 359.652 460.798
49 0 76.2693 16.8482 1285 131.346 360.236 458.849
50 0 79.2005 15.9595 1264 137.39 358.85 458.409
51 0 79.2005 15.8711 1257 164.16 356.854 458.467
52 0 85.4479 17.1801 1468 132.861 357.054 456.214
53 0 88.1435 17.7097 1561 133.177 357.09 452.731
54 0 89.1204 14.5758 1299 141.129 355.574 451.252
55 0 95.1938 18.0264 1716 131.807 356.212 452.592
56 0 98.3966 15.8644 1561 137.003 356.37 448.951
57 1 52.1037 12.2064 636 142.225 354.774 466.415
58 0 57.1202 13.5329 773 134.454 354.583 468.056
59 0 57.0998 14.0106 800 134.974 356.042 466.535
60 0 61.0536 13.3326 814 135.228 354.882 453.972
61 0 63.1836 15.3363 969 132.627 353.889 452.932
62 0 65.1383 18.5452 1208 124.775 354.055 457.459
63 0 67.0959 15.381 1032 132.421 354.954 457.248
64 0 71.2301 16.6643 1187 129.738 354.088 451.495
65 0 70.1481 13.6141 955 136.669 355.508 452.225
66 0 74.1368 13.6909 1015 135.899 355.304 451.339
67 0 78.1329 14.3218 1119 133.823 355.874 447.997
68 0 80.1195 15.2023 1218 131.401 356.571 450.484
69 0 83.2686 13.8948 1157 136.443 355.947 444.418
70 0 87.1172 17.5051 1525 129.619 356.679 441.243
71 0 90.1113 16.1356 1454 132.963 357.97 439.867
72 0 91.139 15.4709 1410 134.393 358.264 437.524
73 0 95.2426 15.4028 1467 134.163 358.706 436.906
74 0 98.3318 14.5629 1432 135.05 359.32 438.381
75 1 53.2233 13.3212 709 132.542 359.769 460.134
76 0 54.0497 15.8373 856 128.197 359.683 458.659
77 0 56.0599 14.3418 804 130.817 360.909 458.803
78 0 57.1109 15.1635 866 128.804 361.798 460.709
79 0 57.0994 12.5395 716 133.749 363.02 461.969
80 0 61.0763 19.1236 1168 118.494 363.227 463.285
81 0 63.1203 14.3219 904 129.132 364.281 460.397
82 0 67.065 13.0918 878 131.445 363.158 459.752
83 0 69.1164 15.0905 1043 126.617 363.536 461.513
84 0 71.3311 16.9491 1209 124.026 363.237 461.953
85 0 74.0607 15.6628 1160 128.179 363.246 458.232
86 0 75.1779 13.9669 1050 132.541 362.47 457.633
87 0 77.2047 13.5873 1049 132.913 362.352 459.378
88 0 81.1487 15.2683 1239 130.056 362.687 457.849
89 0 83.0613 12.7376 1058 135.166 361.916 456.943
90 1 42.0509 10.5586 444 127.944 360.545 480.23
91 0 44.0516 12.667 558 126.444 360.572 478.33
92 0 46.0267 13.8398 637 124.033 359.884 478.765
93 0 45.067 11.6049 523 129.843 358.95 478.543
94 0 49.0992 11.9758 588 126.92 357.595 479.134
95 0 49.124 10.7687 529 131.819 356.006 476.153
96 0 47.0739 8.58225 404 135.191 356.703 478.092
97 0 52.1349 12.4677 650 127.192 356.348 475.237
98 0 52.1172 11.6852 609 128.317 355.202 475.227
99 0 55.1087 11.3412 625 126.435 355.006 475.642
100 0 56.0471 10.5269 590 128.236 353.954 472.766
101 0 60.1314 15.3663 924 121.477 353.178 468.311
102 0 61.0238 13.0605 797 124.113 352.112 467.752
103 0 60.0343 13.3091 799 123.887 353.059 467.884
104 0 64.0674 11.4411 733 128.221 352.7 465.697
105 0 66.1906 10.9683 726 128.809 352.972 462.8
106 0 67.0333 12.1731 816 128.13 353.478 456.081
107 0 71.12 11.6142 826 128.603 353.16 458.58
108 0 73.0945 11.5467 844 129.273 353.692 458.572
109 0 76.1187 13.0454 993 129.04 353.614 451.218
110 0 79.1203 14.4716 1145 127.427 354.699 448.297
111 0 82.1264 13.3453 1096 128.953 355.627 449.318
112 0 85.2833 15.5013 1322 125.75 357.095 445.416
113 0 86.2922 12.8749 1111 132.498 357.341 441.994
114 1 48.1282 9.2877 447 130.559 357.132 465.823
115 0 50.0841 12.2993 616 124.511 357.868 465.12
116 0 51.1826 12.2112 625 126.749 358.008 462.459
117 0 51.0479 11.4794 586 124.765 358.481 463.357
118 0 52.0894 11.1155 579 124.173 358.865 464.641
119 0 53.0797 10.9835 583 126.269 358.906 460.93
120 0 57.044 13.2003 753 122.015 359.981 460.292
121 0 57.0417 11.6581 665 123.836 361.177 463.062
122 0 60.0796 12.6499 760 122.43 362.012 460.764
123 1 117.165 14.2192 1666 127.13 362.829 429.504
124 0 121.226 13.017 1578 128.054 362.91 434.632
125 0 129.516 13.4423 1741 127.603 362.743 429.683
126 0 131.363 14.2354 1870 126.636 362.811 427.695
127 0 133.22 11.9426 1591 131.855 362.026 427.83
128 1 76.2405 14.087 1074 119.371 362.539 460.656
129 0 76.1465 10.6243 809 126.3 361.527 461.04
130 0 79.2904 15.7901 1252 119.329 361.223 457.314
131 0 84.2345 13.3318 1123 123.175 360.935 459.726
132 0 86.5572 11.7263 1015 127.064 361.413 458.533
133 0 87.1805 13.8907 1211 123.921 359.954 456.194
134 0 91.2959 14.6337 1336 121.275 359.197 457.067
135 1 50.1164 14.0273 703 117.967 359.107 475.304
136 0 51.0583 10.9874 561 124.374 358.039 476.052
137 0 52.0843 11.827 616 122.481 358.513 475.51
138 0 54.0908 13.6622 739 119.279 356.931 474.691
139 0 54.0555 11.9322 645 122.028 356.391 473.33
140 0 58.0548 11.6442 676 120.466 355.112 472.694
141 0 59.0705 14.7789 873 115.204 353.907 470.345
142 0 59.2402 12.2721 727 117.854 354.033 470.758
143 0 62.0961 11.8848 738 118.604 353.459 467.923
144 0 63.138 11.2927 713 119.544 352.762 463.889
145 0 65.1495 15.5028 1010 112.16 351.183 464.261
146 0 68.2539 10.2705 701 119.569 351.358 461.011
147 0 69.353 11.8524 822 117.344 351.991 459.889
148 0 75.1404 14.932 1122 112.959 352.322 459.067
149 0 77.1247 16.5446 1276 110.594 351.61 459.525
150 0 79.2432 14.8025 1173 115.946 352.527 450.377
151 1 41.0964 11.8259 486 116.298 352.44 470.842
152 0 44.0193 12.3582 544 113.93 352.798 468.096
153 0 46.1358 9.9272 458 115.129 352.044 469.81
154 0 47.1157 12.2464 577 111.584 351.946 468.395
155 0 48.093 12.9541 623 111.666 352.793 464.035
156 0 50.1186 13.0091 652 113.012 354.386 463.965
157 0 51.0906 13.6033 695 112.468 354.083 461.577
158 0 52.1468 13.4045 699 112.485 355.78 463.046
159 0 54.1381 11.8955 644 115.565 356.02 459.244
160 0 54.044 12.0642 652 114.782 356.673 461.373
161 0 56.1263 11.6701 655 115.954 357.994 459.252
162 0 61.1533 14.0467 859 110.308 357.634 458.206
163 0 61.1264 13.5784 830 111.759 358.831 458.853
164 0 63.1684 17.7304 1120 105.988 359.622 456.554
165 0 65.1036 15.2372 992 108.17 360.002 460.254
166 0 69.2668 18.5226 1283 102.558 360.673 460.534
167 0 67.1028 15.6625 1051 109.366 360.703 456.46
168 0 71.2764 15.489 1104 109.719 360.707 461.599
169 0 73.1286 15.2198 1113 111.564 361.563 460.086
170 0 75.2587 12.2378 921 116.667 360.783 458.314
171 0 76.1071 12.5744 957 116.959 360.591 456.857
172 0 80.1142 13.5931 1089 115.323 360.958 459.268
173 0 79.1891 13.4867 1068 116.041 359.846 459.066
174 0 84.1224 12.8979 1085 118.218 360.257 457.263
175 1 44.08 11.6153 512 115.682 359.643 479.357
176 0 44.082 10.6393 469 118.631 358.377 478.761
177 0 47.0562 16.9372 797 108.161 358.673 476.129
178 0 48.0436 12.1556 584 117.673 357.178 478.356
179 0 51.0473 12.7921 653 115.943 356.799 478.528
180 0 51.1053 14.1473 723 115.172 355.725 474.26
181 0 55.0713 16.0701 885 112.347 355.191 474.749
182 0 55.0386 14.826 816 114.936 354.418 473.895
183 0 58.0771 13.2582 770 116.226 353.501 475.627
184 0 57.1821 13.2559 758 116.483 353.04 474.723
185 0 61.0795 16.7487 1023 109.774 352.148 467.809
186 0 59.0543 11.1423 658 120.287 351.707 467.748
187 0 66.0569 16.0468 1060 109.97 350.53 469.006
188 0 65.075 15.8125 1029 110.216 350.991 469.547
189 0 68.17 16.1361 1100 111.255 350.611 463.656
190 0 70.0415 13.5063 946 114.161 350.691 465.832
191 0 73.0697 13.6308 996 117.141 350.743 461.775
192 0 76.2427 13.116 1000 119.749 351.26 457.795
193 0 77.1469 11.5883 894 122.998 350.982 457.228
194 0 78.1887 12.521 979 122.638 351.39 450.442
195 0 82.116 14.7352 1210 118.938 351.11 450.435
196 0 86.416 12.3125 1064 122.322 351.245 449.271
197 0 89.2704 13.0614 1166 121.154 351.311 448.517
198 1 49.0363 11.0938 544 117.289 351.642 467.515
199 0 48.0524 12.195 586 116.498 352.916 466.761
200 0 48.0524 12.2783 590 128.671 353.917 466.668
201 0 53.063 11.5146 611 118.684 353.419 463.111
202 0 55.0184 13.6863 753 113.461 353.268 463.835
203 0 56.0916 12.0161 674 117.469 355.671 461.923
204 0 57.092 12.979 741 116.85 355.227 458.588
205 0 56.023 10.103 566 120.578 355.885 458.878
206 0 60.0669 12.819 770 117.349 357.006 456.916
207 0 63.0463 14.2276 897 111.967 357.61 464.269
208 0 65.1216 14.1121 919 114.365 359.089 456.186
209 0 68.3122 14.3166 978 112.714 359.881 458.774
210 0 69.2692 12.5597 870 116.185 359.054 455.951
211 0 71.5341 11.7147 838 117.195 360.864 456.806
212 0 73.5852 12.0405 886 115.86 360.87 459.524
213 0 77.4569 13.543 1049 115.45 360.384 455.418
214 0 78.4088 12.5369 983 116.327 361.483 455.098
215 0 83.4891 14.8642 1241 111.699 361.322 459.172
216 0 82.6304 11.7027 967 118.45 360.685 455.029
217 1 44.2245 11.4642 507 115.176 360.322 477.957
218 0 47.2836 11.928 564 114.298 359.589 478.073
219 0 49.1004 12.7901 628 117.479 359.013 478.317
220 0 49.1419 11.7415 577 119.012 357.296 478.388
221 0 50.1442 10.5296 528 121.428 357.239 477.824
222 0 54.2005 13.0073 705 117.291 356.762 478.986
223 0 53.2528 12.2998 655 119.308 354.82 477.898
224 0 58.1275 13.8145 803 116.071 354.162 474.722
225 0 58.2287 13.9107 810 113.195 352.401 478.863
226 0 60.1474 11.7544 707 119.499 352.239 474.661
227 0 61.2458 13.6009 833 115.378 350.804 474.441
228 0 62.3222 13.3981 835 114.947 350.255 471.572
229 0 64.2622 14.1296 908 114.761 349.904 470.387
230 0 66.2193 15.4336 1022 112.124 349.825 471.536
231 0 72.2972 16.8886 1221 107.151 348.998 468.052
232 0 71.178 12.9394 921 115.08 348.764 465.609
233 0 75.2188 13.7067 1031 114.154 349.178 461.108
234 0 81.2343 13.0241 1058 113.002 348.438 464.291
235 0 81.2091 13.0035 1056 115.013 349.758 460.896
236 1 45.0718 10.3169 465 115.101 348.443 478.241
237 0 45.0661 11.5386 520 116.038 348.921 472.738
238 0 49.0319 13.7462 674 112.162 348.328 470.303
239 0 51.0351 12.9519 661 113.274 348.868 469.985
240 0 51.0245 15.7963 806 108.517 350.403 470.506
241 0 53.0361 17.0073 902 107.494 349.552 466.62
242 0 52.053 13.1405 684 114.478 350.971 464.877
243 0 55.081 12.0187 662 114.828 350.767 465.958
244 0 55.0518 11.2803 621 115.747 351.032 467.556
245 0 57.0539 13.4084 765 113.078 352.94 463.902
246 0 58.1614 16.9872 988 107.448 352.939 462.907
247 0 61.1077 13.5989 831 112.892 353.505 458.715
248 0 62.1625 15.2504 948 110.748 353.652 457.239
249 0 65.0279 16.639 1082 107.503 354.037 461.372
250 0 67.1039 15.6176 1048 110.397 354.863 458.286
251 0 66.0865 11.4244 755 117.136 356.127 453.766
252 0 71.3189 10.8527 774 115.415 357.124 459.355
253 0 73.1133 15.8384 1158 108.96 358.371 457.595
254 0 75.3246 15.9709 1203 109.22 358 459.245
255 0 76.2439 13.8503 1056 116.238 358.512 454.096
256 0 80.2053 13.0291 1045 116.647 358.724 456.594
257 0 86.2232 16.7472 1444 109.986 359.573 456.53
258 0 87.1759 13.4556 1173 114.482 359.113 455.972
259 0 90.1156 19.3196 1741 105.738 358.981 457.203
260 0 92.238 13.9097 1283 114.081 357.492 454.758
261 0 96.1982 17.9837 1730 106.943 357.756 452.815
262 1 54.0686 12.1142 655 111.875 356.215 475.25
263 0 55.0929 12.6151 695 112.112 356.269 473.83
264 0 55.104 11.8322 652 114.457 357.167 473.068
265 0 57.0405 11.8863 678 114.674 356.68 473.255
266 0 59.0477 9.80563 579 117.72 354.941 473.23
267 0 59.0406 12.0426 711 115.25 353.878 472.527
268 0 65.0917 18.3894 1197 104.722 353.081 471.425
269 0 67.275 14.686 988 110.123 352.167 468.923
270 0 66.1076 12.0258 795 115.323 351.162 466.717
271 0 69.2012 13.8437 958 111.047 351.581 469.537
272 0 72.0502 18.8757 1360 106.03 350.61 464.726
273 0 75.3658 18.178 1370 107.452 350.219 464.581
274 0 78.2257 14.7266 1152 114.844 350.559 461.76
275 0 80.1437 13.1264 1052 118.369 349.66 458.459
276 0 82.1639 14.9336 1227 115.51 348.785 456.418
277 0 82.1323 14.6349 1202 116.043 348.349 453.089
278 0 88.1227 14.9337 1316 115.443 348.429 450.672
279 0 91.2149 15.151 1382 116.344 349.39 448.158
280 0 91.1364 11.3347 1033 123.356 349.378 446.243
281 0 98.2668 15.8446 1557 115.657 349.774 443.773
282 1 53.0542 12.1951 647 117.807 350.023 463.247
283 0 57.1693 11.1074 635 118.918 349.918 464.227
284 0 58.1097 13.8703 806 115.194 351.293 456.315
285 0 59.2412 14.3988 853 114.449 350.254 456.183
286 0 61.1241 11.7466 718 119.022 351.276 456.565
287 0 63.0943 13.361 843 113.645 352.541 458.146
288 0 65.1798 15.4956 1010 110.589 352.218 455.212
289 0 68.124 13.0644 890 113.739 354.427 452.763
290 0 70.3991 16.9889 1196 106.862 355.074 456.215
291 0 71.1452 14.8148 1054 112.292 355.445 450.283
292 0 76.4943 14.4324 1104 111.252 356.014 455.813
293 0 78.1383 13.4505 1051 115.084 357.25 451.471
294 0 80.1511 12.9381 1037 116.524 358.015 449.552
295 0 80.3108 13.3108 1069 118.572 359.414 445.59
296 0 88.2318 16.434 1450 113.053 358.697 446.043
297 0 88.1367 15.4533 1362 115.473 360.775 448.45
298 0 91.2056 12.9817 1184 119.584 360.494 445.823
299 0 94.3066 14.1242 1332 118.008 360.158 445.419
300 0 96.2666 12.7459 1227 119.379 360.231 448.08
301 0 101.226 15.7568 1595 115.979 359.927 445.408
302 0 104.345 16.5316 1725 113.256 359.394 447.493
303 0 105.234 17.5798 1850 110.865 359.06 448.551
304 1 56.1147 14.4704 812 111.666 358.905 470.602
305 0 56.1147 14.3634 806 122.973 358.924 470.663
306 0 62.0859 11.4197 709 117.915 358.241 470.612
307 0 69.2552 12.0857 837 114.854 357.534 469.124
308 0 68.2562 10.6657 728 118.709 357.343 467.964
309 0 69.1198 12.8039 885 117.357 356.276 464.677
310 0 72.2671 13.3532 965 118.217 355.932 462.844
311 0 75.2161 13.2153 994 118.488 353.85 459.394
312 0 80.2166 17.004 1364 110.345 354.092 456.216
313 0 82.1642 15.9559 1311 111.318 353.877 455.742
314 0 84.052 11.4929 966 115.148 352.951 463.665
315 0 90.1675 15.4268 1391 110.96 353.323 454.318
316 0 90.2901 12.0833 1091 117.578 352.268 449.078
317 0 94.2635 13.144 1239 116.735 351.992 440.994
318 0 96.3178 13.4139 1292 115.727 350.799 445.704
319 0 97.2368 13.3797 1301 116.786 350.533 441.044
320 0 107.408 14.282 1534 113.302 349.649 442.162
321 0 106.473 16.5113 1758 111.21 350.598 434.261
322 0 109.341 16.2702 1779 110.96 350.606 436.713
323 0 112.268 14.8841 1671 113.683 350.05 433.804
324 0 117.245 16.6915 1957 109.923 349.819 430.066
325 1 63.2831 8.75431 554 117.374 351.042 456.213
326 0 64.2755 11.6063 746 113.759 351.425 449.231
327 0 66.1803 11.786 780 111.944 350.96 451.185
328 0 70.3362 11.7009 823 111.798 350.886 448.286
329 0 69.1863 11.0571 765 113.842 350.749 447.929
330 0 77.1469 13.6623 1054 108.823 351.824 442.434
331 0 76.1812 10.7901 822 114 353.157 441.038
332 0 81.4392 14.3297 1167 107.474 354.668 440.371
333 1 133.366 6.18599 825 123.684 354.988 422.128
334 1 82.4177 15.3001 1261 108.153 355.859 435.412
335 0 88.1926 13.2097 1165 109.475 356.55 441.306
336 0 90.3004 13.6101 1229 110.485 357.035 433.562
337 0 91.201 13.2235 1206 111.954 357.035 435.264
338 0 95.1315 12.5405 1193 112.752 358.314 435.37
339 0 98.3553 15.139 1489 109.955 359.498 433.285
340 0 96.5272 14.3379 1384 111.51 360.124 436.401
341 0 107.369 18.3015 1965 106.359 360.071 427.337
342 0 113.199 14.8588 1682 109.754 360.908 432.62
343 0 112.285 13.8398 1554 113.496 361.401 424.406
344 0 116.413 13.4006 1560 112.15 361.019 434.262
345 1 61.0652 13.33 814 104.204 361.609 460.289
346 0 65.1129 13.5611 883 106.899 360.733 462.019
347 0 61.2089 10.4397 639 114.504 359.685 462.809
348 0 67.3936 12.3157 830 110.671 360.104 463.978
349 0 66.2292 10.4486 692 113.754 359.934 464.708
350 0 71.0863 13.9267 990 108.068 359.356 464.4
351 0 73.1816 13.8013 1010 106.859 359.422 465.045
352 0 77.336 12.2323 946 109.839 358.261 461.966
353 0 79.1234 12.5879 996 110.578 357.592 459.218
354 0 84.2619 14.4905 1221 105.939 357.441 462.428
355 0 84.087 12.832 1079 110.938 355.771 457.662
356 0 89.1443 11.5094 1026 111.314 356.32 454.896
357 0 92.2543 14.2541 1315 107.218 356.746 453.39
358 0 100.242 12.3601 1239 108.814 356.915 456.46
359 1 46.0441 10.5334 485 109.885 355.161 473.103
360 0 51.0507 13.1438 671 103.347 355.471 477.301
361 0 52.0527 14.6198 761 102.003 352.721 472.775
362 0 52.1017 13.6656 712 102.784 352.948 472.174
363 0 53.0558 13.9287 739 101.847 352.789 467.076
364 0 54.2731 13.5058 733 102.01 352.727 466.059
365 0 56.1382 11.4183 641 105.033 352.373 466.445
366 0 58.053 12.4025 720 104.093 352.544 463.244
367 0 57.0592 14.1257 806 113.206 352.624 464.361
368 0 63.2139 15.6295 988 97.8431 351.097 462.812
369 0 65.2408 12.5075 816 104.097 351.565 456.164
370 0 67.2629 13.2763 893 102.87 352.551 454.954
371 0 67.0507 14.0043 939 103.659 353.288 450.323
372 0 71.0412 16.0189 1138 100.733 353.609 448.013
373 0 75.1888 12.7014 955 102.032 354.286 454.662
374 0 74.1696 14.1028 1046 103.681 355.205 446.654
375 0 76.1231 12.112 922 105.433 355.585 449.731
376 0 81.1521 14.7008 1193 103.696 355.424 441.97
377 0 83.1681 12.096 1006 109.622 356.93 442.317
378 0 87.1077 19.7572 1721 99.3114 356.687 443.349
379 0 88.2409 13.8258 1220 105.845 357.767 446.057
380 0 93.3401 19.8736 1855 97.6172 358.197 442.86
381 0 95.2434 13.7332 1308 106.106 359.092 435.547
382 0 100.183 13.3056 1333 106.411 360.248 435.114
383 1 52.04 10.2806 535 105.785 361.335 460.97
384 0 53.0353 12.7462 676 101.806 360.241 462.855
385 0 54.1162 12.658 685 103.939 361.927 462.083
386 0 56.1763 11.7665 661 105.626 362.806 460.36
387 0 58.1775 11.7228 682 105.06 362.73 464.66
388 0 59.1854 13.0269 771 101.883 362.733 467.53
389 0 61.3411 13.9874 858 102.633 362.749 461.131
390 0 61.1618 12.3116 753 103.81 362.126 465.736
391 0 65.253 12.3059 803 104.496 361.872 463.357
392 0 66.3048 11.3265 751 105.718 361.344 464.22
393 0 70.1933 12.9785 911 101.834 360.982 465.412
394 0 71.2338 12.0027 855 104.366 361.165 462.275
395 0 73.2719 12.6652 928 103.322 359.55 461.208
396 0 75.3043 12.7217 958 104.051 359.993 461.373
397 0 79.517 12.4753 992 104.083 359.469 459.359
398 0 83.2321 17.6374 1468 95.7466 356.339 466.119
399 0 86.4835 17.0553 1475 98.8685 355.932 454.29
400 0 87.2717 19.8232 1730 95.3676 356.603 454.973
401 0 89.2637 16.0424 1432 99.9406 356.218 456.237
402 0 94.2267 13.7965 1300 103.552 355.367 451.271
403 0 95.1336 15.9986 1522 100.152 354.791 455.951
404 0 99.3103 14.4396 1434 103.566 353.65 448.284
405 0 101.26 13.974 1415 105.02 353.554 446.208
406 0 101.21 10.0978 1022 108.998 351.865 449.589
407 0 109.681 17.6602 1937 98.554 351.071 448.225
408 0 106.431 12.7313 1355 105.738 351.113 443.06
409 0 113.275 14.787 1675 103.65 351.837 438.848
410 1 57.1489 10.9363 625 104.571 351.685 460.723
411 0 62.2181 11.6847 727 103.894 351.516 455.568
412 0 64.1639 18.5307 1189 95.582 351.209 460.452
413 0 68.1595 21.4937 1465 92.5392 351.715 460.468
414 0 69.1805 13.9346 964 103.08 351.775 452.805
415 0 68.0564 9.5803 652 108.051 351.937 456.495
416 0 75.1366 12.8433 965 104.276 353.32 453.265
417 0 76.1128 15.2011 1157 103.774 353.744 449.177
418 0 75.1681 12.2658 922 108.321 353.817 449.117
419 0 78.1447 11.5043 899 109.527 355.845 451.347
420 0 82.1658 14.0083 1151 106.147 356.032 446.318
421 0 86.2651 15.5799 1344 103.932 357.426 445.734
422 0 88.29 14.7242 1300 105.657 358.198 442.099
423 0 89.2652 12.11 1081 110.68 359.036 439.967
424 0 94.6724 16.5835 1570 104.752 359.323 437.117
425 0 93.3006 13.1296 1225 109.278 360.647 439.755
426 0 102.281 12.7785 1307 109.022 361.562 439.474
427 0 103.37 17.326 1791 103.089 362.764 438.432
428 0 102.31 14.0944 1442 108.722 363.029 438.447
429 0 110.182 14.8119 1632 104.368 363.953 442.12
430 1 61.3021 11.1089 681 107.623 363.352 463.868
431 0 65.1026 13.3328 868 101.385 363.298 469.188
432 0 62.1634 13.6415 848 106.774 363.292 459.496
433 0 67.2191 9.35745 629 103.623 362.281 469.293
434 0 68.0725 12.046 820 102.911 361.999 464.02
435 0 72.4051 14.6813 1063 101.478 362.062 461.02
436 0 74.2137 14.337 1064 102.616 361.368 459.249
437 0 78.2626 15.3074 1198 100.955 361.097 459.932
438 0 79.1953 10.8592 860 107.028 360.887 460.233
439 0 80.3264 10.6441 855 107.654 359.604 459.771
440 0 84.1172 15.0386 1265 103.158 359.149 455.793
441 0 86.2111 16.4248 1416 99.6165 357.594 460.543
442 0 90.2214 14.9078 1345 102.053 357.775 455.314
443 0 92.216 20.2134 1864 97.0075 357.688 457.212
444 0 95.1516 18.3602 1747 99.3852 357.72 455.243
445 0 95.3521 10.6762 1018 108.987 356.694 456.472
446 0 101.154 12.5551 1270 106.752 355.555 450.18
447 0 103.524 12.9825 1344 105.49 355.673 446.864
448 0 105.131 15.9515 1677 102.617 355.072 446.609
449 0 108.281 12.643 1369 107.965 355.088 437.599
450 0 114.325 15.0974 1726 104.963 354.725 435.775
451 0 118.32 9.7363 1152 109.402 353.862 444.68
452 1 65.1492 9.86965 643 106.24 353.788 457.106
453 0 71.2686 14.9715 1067 100.685 353.031 465.153
454 0 71.2698 14.8871 1061 102.29 353.331 457.594
455 0 74.3107 11.7076 870 105.244 352.153 458.616
456 0 74.2761 11.7265 871 107.031 353.489 456.297
457 0 75.2628 11.6791 879 108.333 352.734 451.61
458 0 81.5124 13.2863 1083 105.159 352.606 454.151
459 0 81.1768 10.6188 862 109.093 353.466 450.727
460 0 86.3013 14.2292 1228 104.876 353.669 448.285
461 0 89.6108 16.5047 1479 101.644 354.502 447.45
462 0 91.4065 12.8219 1172 107.195 355.479 444.482
463 0 91.4497 13.625 1246 106.814 356.177 444.606
464 0 96.3537 14.7062 1417 104.994 357.313 442.191
465 1 51.1069 14.4403 738 101.374 357.062 466.028
466 0 49.0385 11.6643 572 105.516 356.145 469.344
467 0 54.142 14.6097 791 101.298 356.444 469.168
468 0 54.1238 12.767 691 106.278 358.304 467.129
469 0 55.2203 11.5718 639 109.812 359.459 468.723
470 0 58.094 12.5658 730 107.005 359.432 470.429
471 0 60.2367 13.3971 807 108.204 360.203 465.25
472 0 61.2522 15.1178 926 105.517 359.37 469.182
473 0 64.2029 13.7377 882 108.324 359.068 466.11
474 0 67.1552 13.5954 913 106.262 359.897 473.629
475 0 68.1782 16.3689 1116 104.948 359.112 471.482
476 0 71.4287 18.578 1327 102.989 359.267 470.368
477 0 69.3167 13.3157 923 112.557 358.873 467.282
478 0 73.3226 16.2433 1191 107.458 358.211 471.886
479 0 79.2118 13.647 1081 109.127 357.548 475.605
480 0 77.1361 13.5993 1049 112.724 356.589 470.083
481 0 85.2487 16.3991 1398 106.975 355.142 472.064
482 0 85.2487 16.4929 1406 130.536 353.135 472.164
483 0 87.2177 14.8364 1294 109.938 353.859 464.797
484 0 90.23 16.4579 1485 105.496 353.034 471.266
485 0 91.0723 12.1332 1105 111.958 350.848 467.231
486 0 96.1858 13.6403 1312 109.232 352.329 465.06
487 1 47.0297 12.3114 579 110.382 350.28 483.698
488 0 48.0296 10.7226 515 113.705 350.115 482.771
489 0 51.1048 13.7952 705 109.969 348.492 482.291
490 0 53.152 11.8904 632 114.198 350.559 478.845
491 0 54.0496 13.6171 736 112.178 349.822 479.067
492 0 57.1272 11.4831 656 114.323 348.747 476.668
493 0 57.0949 13.8892 793 110.686 348.279 477.496
494 0 59.1471 13.4411 795 111.913 348.527 474.962
495 0 62.1185 14.7782 918 110.138 348.859 471.509
496 0 66.2117 15.4958 1026 107.788 348.214 471.763
497 0 70.2448 17.2682 1213 103.808 347.264 471.225
498 0 67.1635 15.8122 1062 109.056 347.023 466.637
499 0 69.2107 14.1741 981 112.257 347.938 464.754
500 0 72.0597 17.0831 1231 107.116 346.552 465.284
501 0 73.1834 13.0084 952 115.896 347.629 458.528
502 0 76.2127 14.3152 1091 112.737 347.832 460.311
503 0 77.173 13.1911 1018 115.519 349.325 454.874
504 0 80.141 13.2766 1064 115.552 350.351 453.944
505 0 80.0992 13.7954 1105 116.114 351.476 454.481
506 0 84.2338 11.8242 996 119.051 351.455 450.37
507 0 87.1375 13.8976 1211 115.058 352.173 450.593
508 0 90.12 13.9814 1260 115.364 353.375 449.246
509 1 51.0711 13.5693 693 113.57 354.362 466.081
510 0 52.0626 12.1969 635 114.154 353.649 468.888
511 0 52.0957 12.8226 668 115.654 355.386 467.597
512 0 53.1779 13.6523 726 117.219 355.762 465.89
513 0 56.061 17.0172 954 110.485 357.077 469.112
514 0 59.1694 14.974 886 114.248 356.755 463.555
515 0 61.1099 17.2476 1054 109.351 356.834 470.011
516 0 60.0854 12.7485 766 117.913 357.048 466.877
517 0 64.1808 16.2977 1046 111.519 358.067 466.435
518 0 70.4847 18.8977 1332 104.322 356.47 471.78
519 0 67.1086 13.3068 893 117.768 356.104 468.134
520 0 71.0871 16.1211 1146 109.049 357.661 469.62
521 0 74.1479 13.7563 1020 111.39 355.952 469.214
522 0 77.1414 19.6133 1513 103.599 355.748 469.46
523 1 39.0729 12.6174 493 112.726 354.667 486.43
524 0 39.0313 9.06964 354 116.376 354.819 490.008
525 0 43.1035 11.9712 516 111.19 353.446 485.742
526 0 43.1128 12.015 518 111.826 353.517 486.689
527 0 46.051 14.636 674 107.77 352.464 486.362
528 0 45.0458 12.8092 577 111.047 351.355 487.38
529 0 48.0374 15.4046 740 108.007 350.732 485.346
530 0 50.0625 15.4407 773 108.607 349.768 483.313
531 0 50.0325 14.7704 739 110.566 348.912 480.755
532 0 50.1582 11.9422 599 113.801 348.219 481.861
533 0 52.1041 11.8225 616 112.83 348.532 482.287
534 0 54.0778 12.0382 651 113.679 348.283 479.226
535 0 56.1782 15.3618 863 108.49 347.182 476.379
536 0 55.0997 15.0636 830 108.448 346.284 477.833
537 0 58.0692 12.4334 722 112.55 346.129 472.525
538 0 62.1413 21.1936 1317 100.033 346.151 469.796
539 0 64.1088 14.5066 930 108.189 347.287 471.512
540 0 67.2288 20.869 1403 99.8254 346.089 466.177
541 0 66.0673 14.5004 958 108.496 347.333 466.344
542 0 69.2051 14.392 996 107.645 347.786 464.259
543 0 71.1873 17.6436 1256 103.283 348.24 463.919
544 0 74.0844 15.1044 1119 106.707 347.671 462.242
545 0 77.1092 15.1992 1172 107.208 348.561 460.382
546 0 78.1678 17.9997 1407 105.509 348.236 453.155
547 0 83.1215 13.8953 1155 111.145 350.568 455.165
548 0 85.3208 13.5957 1160 113.037 350.156 451.615
549 0 88.109 14.7204 1297 111.536 352.212 450.479
550 1 44.1524 10.3958 459 115.139 351.183 472.547
551 0 46.4194 12.0208 558 113.134 350.935 468.254
552 0 47.1341 11.7961 556 111.439 351.826 471.896
553 0 50.0614 14.0827 705 108.85 352.296 471.397
554 0 51.0509 12.8303 655 111.38 353.012 468.212
555 0 50.1378 12.8247 643 112.014 354.667 468.673
556 0 54.1157 12.8798 697 111.199 354.527 469.062
557 0 56.1661 12.6233 709 111.611 356.382 468.896
558 0 58.1545 15.9919 930 105.954 356.337 469.468
559 0 61.128 13.349 816 108.745 356.485 469.812
560 0 61.0826 24.9334 1523 96.2449 356.218 463.569
561 0 63.3139 13.2672 840 111.079 355.844 468.402
562 0 65.1302 12.6362 823 111.493 356.013 467.949
563 0 68.1208 14.0192 955 109.845 355.068 466.401
564 0 72.0584 11.3103 815 113.188 354.837 470.53
565 0 76.0639 12.4369 946 111.247 354.5 467.191
566 0 79.1041 12.9197 1022 110.012 354.014 468.75
567 0 80.0825 11.613 930 111.717 353.455 469.062
568 0 84.2454 14.529 1224 108.839 353.752 464.546
569 0 86.2554 11.1993 966 113.726 353.418 466.382
570 0 88.4323 12.3824 1095 112.505 352.349 460.285
571 0 91.4436 12.8713 1177 110.505 351.103 464.334
572 0 94.0851 11.2877 1062 113.524 351.396 458.003
573 1 50.064 9.40795 471 113.361 349.73 485.083
574 0 54.1684 10.2828 557 110.248 349.338 479.47
575 0 52.1848 12.4174 648 108.585 348.301 476.714
576 0 52.1848 12.3216 643 112.294 346.294 476.68
577 0 57.2698 12.3975 710 110.352 348.98 477.846
578 0 57.3097 14.2035 814 108.256 347.5 474.585
579 0 60.0907 12.9637 779 109.442 348.402 472.128
580 0 62.273 12.1562 757 110.225 347.178 469.194
581 0 62.3049 14.0278 874 106.383 347.831 467.331
582 0 66.2078 12.5967 834 108.657 347.968 468.125
583 0 69.1912 13.7879 954 105.303 348.056 464.927
584 0 72.2278 16.6002 1199 101.355 347.697 460.786
585 0 74.3508 17.9689 1336 100.17 347.565 463.637
586 0 72.182 9.55917 690 113.793 348.558 460.21
587 0 80.1311 14.4513 1158 106.478 349.741 458.419
588 0 81.091 11.0863 899 110.981 350.109 456.318
589 0 83.3154 11.0424 920 110.211 349.099 452.735
590 0 88.4108 12.2496 1083 107.536 349.678 452.772
591 1 44.1637 10.2799 454 107.727 350.39 471.033
592 0 47.0894 12.9328 609 105.65 351.23 473.353
593 0 48.174 13.3267 642 105.611 351.752 470.974
594 0 48.0729 11.1913 538 108.612 352.913 470.348
595 0 52.1268 11.3953 594 109.529 353.148 470.21
596 0 52.0944 12.4389 648 109.48 353.421 466.759
597 0 53.0391 10.0115 531 110.556 354.158 470.928
598 0 59.1488 21.4206 1267 94.18 354.459 472.325
599 0 59.1525 12.2226 723 108.598 355.972 467.92
600 0 61.055 14.2331 869 106.484 355.972 469.348
601 0 65.1511 13.8447 902 106.313 356.408 467.438
602 0 64.1127 12.1193 777 109.949 355.947 469.423
603 0 67.1118 15.5114 1041 105.927 356.924 464.857
604 0 68.114 12.6699 863 110.817 356.345 465.211
605 0 75.1669 13.8093 1038 107.657 357.023 468.974
606 0 74.2673 15.8078 1174 106.736 356.152 465.968
607 0 75.449 11.8358 893 112.169 356.625 465.881
608 0 81.1953 15.7152 1276 105.8 355.614 470.819
609 0 83.4182 13.3784 1116 110.468 355.572 468.026
610 0 86.2181 14.0922 1215 110.736 356.005 464.831
611 1 43.1129 14.7056 634 106.558 354.714 485.189
612 0 46.1543 9.6849 447 112.007 355.049 485.331
613 0 45.052 11.8974 536 113.222 353.353 482.558
614 0 51.1042 14.5781 745 109.69 352.322 484.133
615 0 51.0322 14.0108 715 111.253 350.836 484.308
616 0 52.0784 13.2492 690 113.352 349.265 484.209
617 0 54.1608 14.18 768 111.641 350.181 484.306
618 0 54.0707 12.909 698 114.308 349.566 481.686
619 0 57.053 18.7019 1067 106.381 348.908 478.043
620 0 60.0458 13.8894 834 112.627 348.502 477.151
621 0 61.0355 13.3529 815 113.35 347.513 476.815
622 0 64.2312 12.5328 805 113.27 348.765 478.929
623 0 66.05 13.4746 890 113.378 347.012 473.204
624 0 69.1243 15.4649 1069 110.456 346.933 470.333
625 0 69.0488 15.5977 1077 111.967 347.183 465.37
626 0 74.5119 17.0845 1273 108.31 347.671 464.565
627 0 75.1718 14.5001 1090 113.531 348.313 463.187
628 1 40.0393 11.7884 472 115.479 347.29 480.068
629 0 42.0331 12.4188 522 115.144 348.163 477.699
630 0 42.0237 14.7298 619 108.688 348.454 479.932
631 0 45.0498 13.7181 618 114.129 349.002 473.955
632 0 45.1627 14.171 640 115.688 350.331 473.55
633 0 46.1242 13.0951 604 119.185 352.172 471.278
634 0 51.1283 15.1775 776 112.818 351.847 473.356
635 0 50.1569 14.7138 738 115.821 353.018 472.358
636 0 53.1342 12.3461 656 120.203 352.816 471.61
637 0 53.212 14.3765 765 119.467 353.942 468.285
638 0 55.0581 14.6754 808 119.113 353.912 467.595
639 0 57.1608 17.2496 986 114.725 354.614 467.322
640 0 64.483 14.624 943 115.971 354.847 471.177
641 0 61.1759 15.8396 969 118.681 355.149 466.576
642 0 60.1405 12.0551 725 127.079 356.57 467.262
643 0 65.1535 17.0674 1112 117.326 356.309 464.51
644 0 68.1969 14.8394 1012 122.223 357.81 464.82
645 1 40.1904 12.1422 488 125.801 357.656 480.432
646 0 36.1744 12.108 438 127.121 356.475 481.39
647 0 41.0548 15.1748 623 119.608 357.437 480.812
648 0 41.0548 15.1992 624 158.734 357.438 480.734
649 0 42.0971 14.0152 590 122.727 356.037 484.759
650 0 43.1732 12.6699 547 126.675 355.501 483.309
651 0 46.0734 13.9343 642 120.095 356.182 486.84
652 0 47.1153 12.6923 598 128.416 356.46 483.129
653 0 48.3282 15.6224 755 123.282 355.469 483.363
654 0 49.1651 13.7496 676 127.036 355.383 483.892
655 0 49.1651 13.7292 675 163.646 355.373 483.93
656 0 50.0913 12.4373 623 133.021 354.586 482.437
657 0 54.1127 14.4698 783 128.194 352.825 479.521
658 0 58.3603 16.6209 970 121.309 353.434 481.055
659 0 58.148 15.4261 897 125.343 351.615 481.138
660 0 57.0841 14.1195 806 132.752 351.692 478.804
661 0 58.0785 13.2751 771 135.209 351.366 479.646
662 0 60.1579 14.2458 857 133.847 350.174 475.976
663 0 62.1264 15.8387 984 130.172 349.098 476.401
664 0 66.1301 16.0593 1062 128.6 349.347 475.211
665 0 68.4463 14.3616 983 129.758 348.548 473.98
666 1 34.0154 12.2297 416 135.25 348.62 486.599
667 0 35.0893 13.5654 476 130.87 348.458 487.208
668 0 37.084 12.7279 472 134.843 348.585 484.504
669 0 37.1951 13.6577 508 132.287 348.039 478.994
670 0 37.022 15.3963 570 128.242 348.591 480.535
671 0 40.0495 16.3797 656 126.335 348.68 477.006
672 0 39.0159 12.7384 497 133.577 351.004 476.03
673 0 43.0451 15.1005 650 127.828 349.669 474.108
674 0 42.0292 16.1078 677 127.771 350.872 472.58
675 0 43.0788 16.8064 724 125.993 350.435 472.753
676 0 46.0998 15.076 695 130.089 350.932 468.616
677 0 46.1099 14.1401 652 132.725 351.511 469.876
678 0 47.0918 14.4611 681 133.302 351.584 466.737
679 0 49.124 16.9978 835 126.459 353.183 466.86
680 0 48.0131 14.3294 688 133.108 354.427 466.965
681 0 52.1376 16.8209 877 124.723 354.725 468.511
682 0 53.0749 15.2803 811 129.069 354.27 467.518
683 0 51.0742 13.686 699 135.047 356.838 466.582
684 0 54.1156 14.4875 784 130.707 356.055 464.175
685 0 57.1427 14.455 826 129.64 357.402 468.246
686 0 59.0926 16.3134 964 126.13 356.988 466.48
687 0 59.0815 14.2007 839 130.799 357.623 466.216
688 0 63.1846 14.5447 919 128.624 358.042 469.178
689 0 65.1996 13.405 874 130.435 357.502 468.773
690 0 66.3341 14.8039 982 127.138 356.992 468.111
691 0 69.1827 15.7698 1091 124.535 357.979 468.31
692 0 70.1185 14.1047 989 128.099 357.532 465.963
693 0 76.1572 14.8246 1129 124.707 356.65 465.764
694 0 77.1405 12.2504 945 128.312 356.644 469.254
695 1 38.1213 13.1947 503 126.05 355.292 486.692
696 0 36.1199 12.8461 464 128.328 355.972 485.996
697 0 39.0509 15.5694 608 122.609 355.485 483.975
698 0 38.0891 12.1032 461 129.939 354.944 484.879
699 0 41.0785 14.3141 588 124.595 353.799 481.701
700 0 42.1008 13.5389 570 123.93 352.798 482.967
701 0 42.155 14.9211 629 122.141 352.124 478.512
702 0 46.173 16.0917 743 118.117 351.538 478.884
703 0 48.1893 17.784 857 114.618 349.935 476.68
704 0 48.0526 14.7755 710 119.668 349.734 477.572
705 0 51.0728 13.9213 711 118.838 349.591 476.809
706 0 52.0885 15.992 833 115.98 349.06 475.58
707 0 52.1478 14.5548 759 118.607 348.487 471.617
708 0 55.262 14.1508 782 116.46 348.824 475.105
709 0 57.1332 15.2276 870 116.821 348.554 471.397
710 0 59.1824 14.261 844 119.526 348.236 465.699
711 0 59.3321 10.5171 624 125.247 348.768 464.721
712 0 64.1084 12.666 812 121.466 347.43 462.197
713 0 66.2561 14.9873 993 116.244 349.237 463.122
714 0 68.5057 15.1666 1039 114.542 348.836 465.426
715 0 71.2358 12.6201 899 118.725 349.57 461.601
716 0 71.3993 17.2271 1230 111.395 349.559 460.796
717 0 72.1989 17.1194 1236 112.842 350.019 457.746
718 0 75.1173 15.5224 1166 115.87 349.7 450.623
719 0 79.4331 16.9451 1346 112.614 351.013 452.626
720 0 81.1522 19.1985 1558 110.278 351.062 447.802
721 0 87.1461 14.6765 1279 114.733 351.814 449.328
722 0 88.1483 15.2697 1346 140.366 351.892 448.614
723 0 93.4078 20.6514 1929 107.361 353.71 442.192
724 1 50.2765 12.4511 626 109.767 354.765 468.377
725 0 52.1156 11.935 622 113.416 354.801 465.817
726 0 53.2113 13.3055 708 111.366 355.733 467.586
727 0 55.2026 13.2421 731 111.083 355.932 467.14
728 0 56.0891 11.66 654 113.078 356.774 469.031
729 0 53.2916 8.78188 468 121.38 357.015 460.553
730 0 61.1596 12.312 753 114.159 357.502 465.465
731 0 60.1477 10.4908 631 116.618 357.94 465.827
732 0 66.2086 14.9225 988 110.268 358.298 463.634
733 0 69.2253 14.6478 1014 110.93 357.621 463.101
734 0 68.1222 13.4905 919 115.973 357.254 460.266
735 0 68.1856 14.4899 988 114.852 357.378 462.832
736 0 74.2007 13.7061 1017 115.872 356.442 460.91
737 0 75.1648 13.1045 985 117.416 357.507 459.056
738 0 78.1719 12.255 958 119.704 355.908 458.252
739 0 80.3181 11.4794 922 121.86 356.819 456.616
740 0 83.1551 11.2561 936 121.61 355.374 457.978
741 0 84.204 10.5339 887 123.837 355.77 454.665
742 1 54.1985 8.09985 439 116.777 354.1 474.44
743 0 55.097 11.8155 651 112.121 352.797 475.111
744 0 57.1481 10.709 612 113.856 353.09 472.154
745 0 61.127 13.6601 835 106.48 352.175 472.342
746 0 62.0509 11.2166 696 109.027 351.622 474.708
747 0 64.1842 12.3862 795 109.263 350.875 469.672
748 0 64.0978 11.42 732 113.149 350.167 465.015
749 0 68.1527 10.7553 733 114.855 351.394 466.823
750 0 70.1964 12.1659 854 117.293 351.157 466.467
751 0 73.3395 11.8354 868 117.05 351.336 463.3
752 0 77.2608 15.0917 1166 113.006 352.012 459.348
753 0 77.3811 11.3852 881 121.387 351.039 454.251
754 0 80.3296 10.2204 821 121.912 350.644 458.559
755 0 84.3872 12.81 1081 119.143 350.815 452.899
756 1 44.1964 8.91476 394 119.525 351.995 472.873
757 0 45.2414 8.64253 391 119.494 352.356 473.215
758 0 46.2049 11.1893 517 117.317 352.464 469.584
759 0 49.0825 12.2447 601 110.77 352.516 466.559
760 0 48.2604 10.6506 514 115.846 353.416 467.84
761 1 94.4377 6.90402 652 131.097 352.268 446.544
762 0 96.2594 11.3755 1095 123.182 354.023 444.221
763 0 100.628 14.0716 1416 117.966 353.583 444.685
764 0 107.401 13.0631 1403 120.619 355.074 440.12
765 0 105.579 9.8031 1035 127.192 355.783 437.596
766 1 144.876 8.57976 1243 125.974 356.106 435.686
767 0 144.832 4.34987 630 130.598 357.281 442.911
768 1 165.644 9.35739 1550 129.768 357.77 418.913
769 0 169.589 9.62327 1632 130.496 358.191 414.129
770 0 177.274 10.0861 1788 130.935 358.155 405.92
771 0 185.213 11.2573 2085 128.714 358.368 405.174
772 0 182.996 9.66686 1769 132.561 358.018 401.617
773 1 246.653 7.25715 1790 134.95 357.918 389.159
774 0 242.933 7.15012 1737 138.014 358.801 379.086
775 1 44.1842 10.2299 452 113.29 360.272 477.757
776 0 40.2486 8.79534 354 118.862 360.48 478.952
777 0 44.0417 9.105 401 118.484 359.626 477.96
778 0 44.1475 10.329 456 118.441 359.208 477.746
779 1 129.492 13.8001 1787 118.098 357.725 435.757
780 0 138.572 11.9288 1653 120.208 357.738 435.72
781 0 138.581 9.5179 1319 123.904 356.384 440.183
782 1 51.3554 9.59977 493 116.418 356.602 477.941
783 0 53.1096 10.4501 555 114.686 357.665 478.631
784 0 53.1409 9.20195 489 118.583 355.935 476.532
785 0 55.271 13.6419 754 110.674 355.613 476.999
786 0 56.15 9.47463 532 118.861 355.284 474.759
787 0 55.1032 10.6709 588 119.148 354.592 471.413
788 0 60.2769 9.70521 585 118.25 354.296 476.197
789 0 64.2114 13.1129 842 112.822 352.66 473.64
790 0 69.2024 10.202 706 118.125 353.824 473.594
791 0 65.3393 9.90215 647 120.801 352.286 468.246
792 0 62.3006 12.0866 753 118.291 353.445 467.869
793 0 64.2761 11.6995 752 117.363 351.629 469.818
794 0 68.2214 11.4187 779 120.411 351.155 463.452
795 0 69.1674 10.1059 699 125.016 352.053 459.332
796 0 75.153 13.1332 987 117.44 351.68 463.826
797 0 80.2002 12.0947 970 119.188 350.829 460.878
798 0 80.1925 12.8441 1030 119.712 349.875 455.96
799 0 83.5526 12.4712 1042 118.385 349.075 458.774
800 0 88.6788 16.3963 1454 114.043 351.181 447.694
801 1 44.1418 10.2171 451 119.348 350.951 472.353
802 0 49.1562 10.7413 528 115.991 352.159 469.398
803 0 49.1194 11.7876 579 115.257 353.926 469.256
804 0 50.0629 13.6428 683 112.448 354.138 470.025
805 0 52.3428 12.208 639 120.341 352.15 467.172
806 0 53.0456 13.1773 699 118.866 352.708 463.225
807 0 56.0489 15.9147 892 112.353 354.157 465.883
808 0 53.2234 11.4987 612 122.415 353.595 465.418
809 0 56.2017 13.2202 743 119.132 354.435 461.11
810 0 59.1392 14.0178 829 116.935 355.035 462.531
811 0 61.1041 11.7995 721 121.42 356.329 459.742
812 0 61.102 13.0274 796 119.927 356.403 459.53
813 0 66.2964 12.7609 846 118.81 356.444 460.98
814 0 69.0803 13.231 914 116.743 356.3 463.129
815 0 66.1071 10.8914 720 122.239 357.294 462.288
816 0 70.1744 12.1839 855 120.14 356.651 462.04
817 0 72.1519 12.7232 918 118.163 357.09 464
818 0 75.1434 12.0436 905 120.992 357.242 460.928
819 0 79.1894 16.1638 1280 113.151 357.828 459.853
820 0 79.3062 13.3911 1062 119.276 357.578 459.884
821 0 83.2131 13.4594 1120 117.93 356.977 460.951
822 1 135.493 8.97461 1216 121.799 356.947 453.378
823 1 88.3251 12.6238 1115 121.021 357.332 457.659
824 1 48.0908 11.8942 572 115.932 355.678 479.879
825 0 51.2741 10.5706 542 118.563 355.494 477.576
826 0 51.4158 13.1672 677 111.69 354.781 476.387
827 0 52.2368 14.2237 743 113.129 355.674 477.888
828 0 53.4084 12.8632 687 115.629 355.341 475.288
829 0 54.2765 12.1047 657 117.202 354.271 476.1
830 0 57.2275 13.7521 787 113.633 353.253 477.217
831 0 58.2607 11.6202 677 116.516 353.357 475.839
832 0 59.229 12.5952 746 115.751 352.182 470.916
833 0 60.2423 12.8647 775 113.243 351.263 472.886
834 0 61.1996 16.2256 993 109.697 351.803 469.809
835 0 61.2307 12.706 778 116.834 351.573 472.636
836 0 66.3636 13.848 919 114.761 351.967 469.248
837 0 67.2076 13.6443 917 115.583 352.182 464.809
838 0 69.248 13.7477 952 114.653 351.487 465.778
839 0 70.2948 11.8928 836 118.983 351.767 462.623
840 0 74.1954 16.8474 1250 109.88 351.731 463.449
841 0 78.3214 17.109 1340 109.266 351.652 460.73
842 0 79.2334 18.8809 1496 106.655 351.23 461.918
843 0 81.2092 14.8629 1207 113.414 352.602 455.856
844 0 87.3734 19.5025 1704 105.403 352.538 453.553
845 0 88.2486 16.4195 1449 110.029 352.451 453.544
846 0 89.1702 13.2555 1182 114.768 352.294 451.463
847 1 49.0909 13.5259 664 113.505 352.547 469.205
848 0 49.0703 10.006 491 118.077 352.515 468.21
849 0 53.0852 17.0481 905 107.614 353.944 465.351
850 0 52.0503 12.4303 647 115.903 353.677 464.377
851 0 55.2387 15.8947 878 110.327 355.817 456.142
852 0 58.1365 19.0242 1106 102.449 355.409 463.008
853 0 58.3011 13.173 768 116.129 356.625 460.473
854 0 61.1632 13.1779 806 116.031 356.287 460.103
855 0 60.2554 13.1441 792 115.958 357.241 461.068
856 0 62.0639 12.9383 803 116.446 357.857 462.895
857 0 66.2469 14.7781 979 113.426 358.794 459.011
858 0 72.5393 17.9213 1300 105.898 357.538 464.67
859 0 72.1423 13.9585 1007 112.957 358.611 461.957
860 0 76.0827 14.6945 1118 111.957 359.418 460.555
861 0 77.2327 17.9717 1388 107.251 359.486 461.382
862 0 80.2865 14.9091 1197 112.575 358.707 461.236
863 0 82.1747 13.8242 1136 113.79 359.739 461.516
864 0 85.2511 14.9675 1276 111.63 358.992 461.536
865 0 89.1479 17.858 1592 107.484 358.989 460.497
866 0 91.3103 15.8909 1451 111.207 357.997 455.95
867 1 48.1553 16.0107 771 107.078 357.366 477.966
868 0 53.5557 14.8257 794 108.56 355.375 479.106
869 0 52.0668 15.7874 822 109.287 356.639 478.814
870 0 53.1223 12.6689 673 114.397 355.869 476.502
871 0 54.1991 13.0445 707 113.761 355.649 475.405
872 0 54.1991 14.0408 761 145.137 355.553 476.226
873 0 58.1433 14.1203 821 111.413 353.404 469.985
874 0 61.2192 16.3021 998 105.501 352.501 477.782
875 0 59.2669 15.5905 924 110.171 352.626 468.861
876 0 59.2669 16.0461 951 132.942 351.597 469.138
877 0 66.2125 18.637 1234 105.049 351.746 469.694
878 0 68.249 13.3921 914 113.701 351.079 468.188
879 0 69.4014 14.2648 990 111.918 352.207 465.346
880 0 72.272 21.765 1573 99.3204 352.156 467.739
881 0 73.2336 11.5794 848 115.784 352.171 464.881
882 0 76.3449 15.3514 1172 109.02 351.507 463.893
883 0 78.2415 14.1996 1111 111.177 351.157 456.565
884 0 81.1546 10.3383 839 117.746 351.783 458.535
885 0 84.1482 11.3728 957 117.341 352.319 456.672
886 0 86.3333 13.5058 1166 113.036 351.603 451.418
887 0 90.3362 13.2726 1199 112.817 352.908 454.61
888 0 91.377 12.5852 1150 117.773 353.226 446.32
889 0 96.328 14.5648 1403 112.259 353.03 450.909
890 1 50.2301 10.7704 541 120.264 354.353 467.852
891 0 50.1331 16.3166 818 109.318 354.54 468.82
892 0 52.1779 14.4506 754 113.523 354.977 461.444
893 0 53.0399 15.1961 806 114.093 355.284 463.091
894 0 54.1514 13.1483 712 117.42 354.896 462.336
895 0 57.0512 13.5843 775 116.561 355.892 464.093
896 0 62.0565 12.408 770 118.558 357.143 464.216
897 0 62.1215 13.8116 858 116.494 357.92 461.768
898 0 64.1576 14.5891 936 114.614 357.173 462.842
899 0 67.1303 15.9392 1070 113.829 357.762 459.843
900 0 67.0585 12.422 833 121.678 358.738 457.341
901 0 72.1149 14.4908 1045 117.401 359.483 462.058
902 0 74.1222 13.8285 1025 118.416 359.256 458.197
903 0 75.135 16.6101 1248 115.272 359.135 459.622
904 0 79.129 12.903 1021 120.637 358.988 459.018
905 0 84.1887 15.7979 1330 113.37 360.359 461.489
906 0 86.1183 15.4439 1330 115.22 361.017 459.848
907 1 44.1011 10.2038 450 123.44 360.14 478.187
908 0 45.1268 13.3402 602 119.07 359.962 476.944
909 0 48.154 13.3322 642 118.997 359.385 477.187
910 0 50.133 13.8631 695 117.072 358.613 481.109
911 0 52.1955 15.691 819 114.875 357.78 476.886
912 0 53.0635 18.2611 969 110.276 357.283 476.692
913 0 55.0757 14.9612 824 116.456 356.523 474.246
914 0 56.1113 13.2415 743 120.505 356.071 473.139
915 0 59.3517 13.2599 787 118.461 355.025 475.463
916 0 61.2423 13.4874 826 118.28 354.643 474.069
917 0 65.0896 13.9039 905 115.735 354.099 473.502
918 0 64.064 12.5812 806 120.665 353.577 467.751
919 0 67.1571 16.0221 1076 114.292 352.604 467.986
920 0 70.1681 18.0709 1268 109.889 352.162 470.46
921 0 70.2401 13.6247 957 119.502 351.863 467.132
922 0 73.1081 13.8972 1016 119.741 351.869 464.823
923 0 72.1663 12.0139 867 124.172 351.423 461.777
924 0 77.3485 15.0488 1164 117.436 351.716 463.336
925 0 79.1994 16.2501 1287 116.388 352.044 457.927
926 0 82.2849 18.9828 1562 111.222 352.413 458.677
927 0 84.3319 13.2453 1117 121.896 351.926 451.9
928 0 89.2053 13.3176 1188 120.377 352.747 448.714
929 1 45.0221 11.5277 519 116.195 351.8 472.2
930 0 47.082 15.2712 719 114.344 351.338 473.249
931 0 50.1449 12.4439 624 119.005 352.606 466.17
932 0 51.2419 12.4898 640 122.355 354.339 469.105
933 0 55.3534 12.7905 708 120.782 353.565 465.927
934 0 56.0719 17.5846 986 112.052 354.057 465.613
935 0 56.1286 13.2909 746 119.917 354.678 463.899
936 0 60.2022 13.8367 833 117.821 354.764 461.9
937 0 63.2957 13.666 865 118.879 355.669 461.938
938 0 67.2273 14.9047 1002 115.788 355.571 461.605
939 0 67.1814 14.4534 971 117.254 356.611 458.825
940 0 71.1078 15.1319 1076 116.158 357.301 458.538
941 0 71.2788 12.5563 895 120.063 357.17 459.905
942 0 75.1633 15.473 1163 116.655 357.246 457.319
943 0 74.0632 13.0969 970 122.47 358.461 457.029
944 0 82.2816 14.8757 1224 117.159 359.136 456.646
945 1 43.0398 13.8012 594 114.362 357.891 478.716
946 0 44.0769 13.2496 584 118.161 358.068 475.74
947 0 48.0574 14.3162 688 111.679 358.57 480.406
948 0 48.092 14.5347 699 113.894 359.046 476.815
949 0 51.0371 17.7518 906 105.76 358.724 481.471
950 0 50.0307 13.2718 664 118.995 358.584 478.337
951 0 54.1376 14.1491 766 115.743 357.939 480.315
952 0 53.1209 14.2882 759 116.787 357.889 477.684
953 0 56.1386 13.6982 769 117.442 357.73 477.731
954 0 55.1545 12.9817 716 120.067 357.24 476.623
955 0 59.1036 11.9621 707 120.248 356.975 477.819
956 0 61.0555 15.0027 916 115.164 355.455 475.981
957 0 63.2283 15.8632 1003 114.227 356.046 472.823
958 0 64.2509 14.7547 948 117.169 354.793 473.119
959 0 67.09 15.3376 1029 115.729 354.107 472.317
960 0 69.072 12.7403 880 119.402 353.726 473.977
961 0 71.0955 15.6972 1116 114.094 352.912 473.995
962 0 73.1263 14.4134 1054 117.554 353.593 470.056
963 0 74.1655 12.8631 954 120.506 351.482 467.99
964 0 78.2743 16.0589 1257 114.953 352.368 462.88
965 0 81.1231 12.6721 1028 119.233 351.158 463.574
966 0 84.2335 16.3355 1376 113.377 351.185 459.368
967 0 88.4805 14.1952 1256 116.03 351.803 463.224
968 0 87.2546 13.0996 1143 119.336 350.757 454.724
969 0 90.2235 13.0121 1174 119.707 350.519 454.164
970 1 43.0213 11.6686 502 119.365 350.205 475.683
971 0 46.0691 11.6347 536 119.403 349.91 473.963
972 0 49.0758 14.1414 694 113.689 351.035 473.775
973 0 49.0772 13.0814 642 115.737 351.368 473.019
974 0 52.0458 12.2392 637 118.706 351.728 466.424
975 0 53.0948 14.9544 794 112.175 351.078 466.976
976 0 52.1094 12.493 651 118.061 352.339 466.866
977 0 56.1014 11.2118 629 118.442 353.711 466.269
978 0 56.0386 10.6534 597 119.375 354.05 462.997
979 0 63.1809 13.0736 826 113.735 354.686 462.668
980 0 62.109 12.8001 795 113.099 355.172 459.009
981 0 67.1202 13.9004 933 111.591 354.956 459.462
982 0 67.0997 14.7691 991 108.738 355.461 459.994
983 0 70.2941 11.9925 843 113.294 356.703 455.098
984 0 73.1493 13.657 999 110.475 356.874 454.621
985 0 75.3334 11.6947 881 113.721 359.138 455.345
986 1 41.1283 8.80174 362 112.304 359.221 473.732
987 0 43.0928 12.2758 529 105.505 358.637 476.091
988 0 43.1126 12.7805 551 106.751 359.789 472.804
989 0 45.0576 11.9403 538 114.277 359.428 474.258
990 0 45.0529 9.67752 436 118.275 359.005 472.601
991 0 47.0455 13.2425 623 113.119 358.676 476.066
992 0 47.1214 11.5446 544 115.535 358.95 473.279
993 0 49.0915 9.961 489 117.28 358.444 474.802
994 0 51.2627 13.0699 670 114.806 358.454 477.127
995 0 51.0668 13.1592 672 113.366 357.958 479.976
996 0 55.0861 11.8723 654 117.254 358.405 476.15
997 0 58.3507 20.6167 1203 102.617 357.687 476.291
998 0 60.1532 17.7879 1070 107.785 357.141 473.949
999 0 60.2824 14.1335 852 115.432 357.173 474.25
1000 0 62.2399 17.8985 1114 108.68 354.874 474.815
1001 0 64.3471 12.8211 825 118.236 355.498 472.687
1002 0 65.2234 12.4802 814 118.199 354.355 471.919
1003 0 68.4077 14.2236 973 113.922 354.2 469.552
1004 0 69.2785 11.9373 827 118.658 353.884 468.29
1005 0 72.3898 12.5846 911 117.512 353.317 467.672
1006 0 75.2814 13.3101 1002 117.873 352.977 463.013
1007 1 40.0998 9.72574 390 119.297 352.928 482.808
1008 0 44.1206 12.6018 556 115.363 351.977 481.887
1009 0 42.0406 10.0617 423 120.511 351.877 480.487
1010 0 45.2063 16.0376 725 111.252 351.401 475.997
1011 0 46.1143 13.5099 623 114.602 352.555 476.65
1012 0 48.3627 12.489 604 121.45 352.44 475.356
1013 0 52.0975 12.6686 660 120.57 351.538 472.889
1014 0 53.1067 12.8044 680 118.772 352.081 472.897
1015 0 55.146 13.9267 768 118.503 351.552 467.372
1016 0 58.2143 12.8491 748 118.543 353.477 469.239
1017 0 56.1751 12.6212 709 120.567 352.702 466.709
1018 0 61.1122 15.0706 921 113.997 353.3 464.904
1019 0 62.125 15.5332 965 113.621 353.96 464.538
1020 0 63.1281 14.8587 938 115.514 354.174 461.893
1021 0 67.1089 13.113 880 116.309 355.183 462.762
1022 0 68.2852 14.2637 974 116.197 355.627 458.847
1023 0 69.1184 17.5496 1213 112.118 355.934 457.439
1024 0 73.4473 11.9678 879 118.231 355.759 459.206
1025 0 71.0979 12.4336 884 114.945 357.447 458.897
1026 0 73.1629 13.7775 1008 114.732 357.872 454.495
1027 0 78.1078 13.3789 1045 114.392 359.092 459.621
1028 0 78.2176 12.9383 1012 116.6 359.62 451.069
1029 0 84.1409 12.0274 1012 116.577 359.908 453.79
1030 1 45.0466 14.2075 640 108.769 359.045 472.1
1031 0 46.1342 12.1385 560 111.418 358.945 473.559
1032 0 48.0506 14.4639 695 109.361 358.652 474.073
1033 0 48.1972 10.5815 510 117.637 359.49 474.406
1034 0 49.1519 15.5029 762 110.178 359.657 473.877
1035 0 57.4538 13.5065 776 108.04 360.187 469.293
1036 0 51.1662 11.277 577 117.83 358.009 471.113
1037 0 55.2245 13.8525 765 111.987 359.233 473.165
1038 0 57.3259 10.6933 613 117.582 358.927 476.287
1039 0 58.2113 12.9185 752 114.763 358.729 475.117
1040 0 62.2398 11.7288 730 116.819 357.852 474.907
1041 0 64.1485 12.7517 818 115.917 357.825 475.106
1042 0 66.2924 16.4876 1093 110.434 356.15 473.35
1043 0 68.2781 16.0081 1093 113.959 355.992 469.232
1044 0 68.6707 12.1886 837 122.231 353.816 469.326
1045 0 74.4112 17.1076 1273 112.954 355.172 465.559
1046 0 76.2316 13.8263 1054 116.586 354.689 468.124
1047 0 76.1188 12.6381 962 120.462 354.102 464.279
1048 0 81.412 17.393 1416 111.889 352.639 459.655
1049 0 84.4456 14.3643 1213 116.571 352.511 461.223
1050 0 85.7961 15.9098 1365 113.413 352.185 461.056
1051 0 90.3904 16.1853 1463 113.893 352.32 455.988
1052 0 91.3949 14.2459 1302 116.219 351.869 444.792
1053 0 94.4714 14.7452 1393 116.53 352.241 450.825
1054 0 97.3628 12.5613 1223 120.262 352.402 447.889
1055 1 49.2832 9.09031 448 122.958 351.933 471.279
1056 0 54.0808 11.9081 644 121.34 350.595 474.394
1057 0 57.2828 13.4421 770 118.805 351.557 473.581
1058 0 58.1439 13.587 790 120.005 351.344 469.862
1059 0 59.1141 15.1064 893 117.837 351.6 466.776
1060 0 60.1236 12.4244 747 121.73 352.497 464.821
1061 0 61.2332 12.2809 752 120.726 352.048 466.383
1062 0 65.1412 14.2613 929 118.188 352.508 462.658
1063 0 69.3338 15.6057 1082 114.952 353.297 461.747
1064 0 70.1993 12.2224 858 121.707 354.033 460.437
1065 0 70.157 13.0992 919 121.849 354.922 455.93
1066 0 73.1192 13.772 1007 120.865 355.107 455.612
1067 0 75.1038 10.9182 820 124.873 355.485 454.973
1068 0 77.2522 11.0547 854 124.266 357.191 452.119
1069 0 81.2785 12.0327 978 121.175 357.042 455.024
1070 0 82.2463 13.4353 1105 120.302 358.273 448.752
1071 0 85.1277 13.4386 1144 120.505 358.367 452.585
1072 0 89.1353 12.8232 1143 121.564 359.214 446.896
1073 0 95.2765 16.195 1543 115.14 360.535 447.187
1074 0 97.1798 12.2248 1188 121.501 361.827 452.265
1075 0 103.269 14.0604 1452 118.542 360.72 446.815
1076 1 55.092 10.31 568 121.819 361.04 467.805
1077 0 56.1343 11.6684 655 121.282 360.629 470.681
1078 0 59.3263 14.9512 887 116.227 358.882 467.335
1079 0 59.3328 12.2192 725 120.917 359.483 470.339
1080 0 63.1233 12.436 785 120.69 359.496 470.88
1081 0 65.0994 12.4732 812 116.057 358.967 471.357
1082 0 67.1266 10.2344 687 118.713 358.613 473.732
1083 0 69.09 13.4028 926 114.281 357.163 464.174
1084 0 72.2378 13.1372 949 113.913 356.122 470.632
1085 0 72.2353 13.0546 943 114.554 354.092 470.655
1086 0 75.0571 11.0982 833 118.586 356.205 471.57
1087 0 81.1882 12.9822 1054 115.184 355.213 464.242
1088 0 83.0892 12.637 1050 114.712 352.769 467.818
1089 0 84.1306 11.4465 963 118.946 352.023 462.116
1090 0 88.2659 11.8392 1045 115.053 352.318 469.387
1091 0 96.1375 9.93369 955 118.349 351.856 466.215
1092 0 95.2536 10.5928 1009 118.878 351.02 461.115
1093 0 98.2675 13.9822 1374 114.612 350.899 457.521
1094 0 102.188 12.7216 1300 117.437 349.759 454.404
1095 1 52.079 9.21676 480 120.825 349.327 477.008
1096 0 57.1747 9.86451 564 119.126 348.555 475.887
1097 0 58.0972 10.5685 614 118.402 351.194 474.591
1098 0 62.3085 13.0319 812 117.018 349.139 469.332
1099 0 64.2367 13.9795 898 115.381 350.261 470.523
1100 0 63.3858 11.8796 753 121.153 350.361 465.355
1101 0 66.3019 13.8759 920 117.183 350.279 464.551
1102 0 69.4729 13.9047 966 116.54 350.722 461.497
1103 0 68.3322 9.83431 672 121.518 350.659 467.406
1104 0 73.4634 11.9788 880 118.785 352.245 459.605
1105 0 75.4886 16.1481 1219 112.182 351.322 457.204
1106 0 79.4358 14.2253 1130 114.104 352.439 456.592
1107 0 80.391 14.0936 1133 115.402 352.229 454.732
1108 0 83.3063 14.1406 1178 115.326 353.753 451.778
1109 0 85.3376 15.6086 1332 113.859 354.55 447.812
1110 0 87.543 12.1769 1066 117.749 355.179 447.648
1111 0 91.4422 14.3697 1314 112.451 355.544 447.47
1112 0 93.2878 13.0456 1217 113.741 356.969 446.896
1113 1 54.1524 10.2119 553 112.336 355.163 472.4
1114 0 47.021 8.14529 383 116.843 356.52 464.794
1115 0 56.1014 12.21 685 108.521 357.188 466.603
1116 0 55.0824 11.6553 642 111.344 356.433 462.246
1117 0 56.1164 12.2602 688 110.033 356.058 465.265
1118 0 59.0977 10.085 596 114.513 356.923 463.381
1119 0 60.0438 13.1404 789 109.389 356.773 465.409
1120 0 60.0937 14.3443 862 107.929 356.894 465.864
1121 0 64.0442 12.7724 818 110.841 356.834 463.65
1122 0 64.0864 11.0944 711 115.309 356.868 466.56
1123 0 69.1791 13.3711 925 110.898 356.278 468.285
1124 0 71.2481 14.6109 1041 110.463 355.806 466.81
1125 0 74.1053 13.0895 970 112.878 355.76 466.027
1126 0 74.149 9.33256 692 119.503 356.056 465.973
1127 0 79.1123 12.3622 978 115.316 355.623 464.25
1128 0 81.1383 11.7331 952 116.878 354.289 463.398
1129 0 81.1383 11.6098 942 135.924 352.288 463.275
1130 0 91.1207 15.3313 1397 112.5 353.126 467.92
1131 0 89.2782 11.5706 1033 122.083 352.538 464.508
1132 1 47.0455 9.05506 426 121.993 350.563 485.545
1133 0 49.2499 12.8731 634 116.114 350.664 484.703
1134 0 48.0526 8.63638 415 123.405 349.557 484.19
1135 0 52.1012 15.1052 787 113.235 351.694 477.109
1136 0 55.0534 13.496 743 117.887 349.602 477.46
1137 0 56.0607 13.3248 747 116.467 349.636 481.135
1138 0 55.1505 14.4876 799 111.706 348.646 479.458
1139 0 56.1172 12.7768 717 116.801 349.028 476.427
1140 0 58.1297 10.8894 633 120 348.305 476.148
1141 0 59.1868 13.4152 794 117.407 348.316 475.361
1142 0 59.1593 12.7452 754 121.142 347.788 469.614
1143 0 59.1593 12.7114 752 127.351 347.791 469.589
1144 0 68.1005 20.3082 1383 106.992 348.103 469.048
1145 0 70.1734 13.7944 968 117.764 349.187 465.544
1146 0 71.2281 11.3298 807 123.429 349.318 466.501
1147 0 73.311 12.672 929 122.227 349.505 463.338
1148 0 77.0953 17.5108 1350 116.074 350.344 462.641
1149 0 78.2468 11.7449 919 125.808 351.082 458.881
1150 0 84.1684 14.5423 1224 121.707 350.875 453.235
1151 0 85.3632 17.0917 1459 116.722 351.587 453.332
1152 0 91.1895 15.7036 1432 118.906 353.014 453.417
1153 0 89.1761 12.8285 1144 126.619 353.215 453.557
1154 0 95.2783 16.9294 1613 118.582 354.89 447.795
1155 0 96.2892 12.2651 1181 127.357 354.485 449.931
1156 1 54.0859 13.5895 735 123.509 354.034 469.343
1157 0 55.1378 13.4753 743 124.359 355.568 467.206
1158 0 58.1317 13.8651 806 122.555 355.414 466.981
1159 0 59.3879 13.8749 824 123.246 357.692 469.515
1160 0 59.1509 10.955 648 129.556 357.145 467.735
1161 0 67.1283 12.2601 823 124.441 359.005 470.852
1162 0 65.2883 14.0148 915 121.199 357.529 470.502
1163 0 65.1848 11.337 739 128.149 358.797 467.326
1164 0 70.2683 16.5082 1160 119.025 358.689 463.522
1165 0 71.2208 15.122 1077 121.561 359.238 466.414
1166 0 76.4188 15.6113 1193 119.118 358.586 471.84
1167 0 75.2469 14.8046 1114 122.768 357.953 467.088
1168 0 81.3574 15.5733 1267 119.002 357.323 468.55
1169 0 82.1542 15.5805 1280 119.653 356.97 468.442
1170 0 86.3276 16.0204 1383 117.417 356.774 461.907
1171 0 87.1713 14.179 1236 122.002 356.809 465.399
1172 0 91.4187 13.739 1256 121.64 355.783 458.216
1173 0 92.3058 12.5669 1160 123.638 355.221 459.629
1174 0 94.1869 11.1799 1053 126.118 354.423 458.865
1175 0 101.24 14.0952 1427 122.128 352.919 452.685
1176 0 102.19 12.7703 1305 124.862 353.313 456.301
1177 1 55.1699 12.5793 694 120.65 352.568 479.409
1178 0 54.0934 10.4449 565 124.959 351.577 479.954
1179 0 55.0994 12.6862 699 124.053 350.459 477.489
1180 0 60.1381 15.6141 939 119.129 350.179 473.699
1181 0 58.2932 14.2384 830 121.718 349.636 474.541
1182 0 60.1708 11.2014 674 126.185 348.691 474.119
1183 0 65.1796 15.4803 1009 118.398 349.098 473.464
1184 0 67.23 14.1157 949 121.483 349.13 468.27
1185 0 68.0961 13.3635 910 123.121 349.33 466.702
1186 0 70.2228 14.8385 1042 121.555 348.573 462.643
1187 0 70.2228 14.8385 1042 127.975 348.573 462.643
1188 0 77.1638 13.7889 1064 122.761 349.867 460.739
1189 0 80.129 15.2629 1223 120.69 349.171 456.324
1190 0 81.2104 12.6462 1027 124.833 349.474 458.861
1191 0 84.1772 12.5925 1060 127.701 351.092 453.617
1192 0 91.0938 14.787 1347 119.523 350.985 460.547
1193 0 90.2016 13.3146 1201 126.062 351.443 451.02
1194 0 93.2402 14.2857 1332 126.112 352.112 447.753
1195 1 54.2201 12.7997 694 124.79 351.725 467.674
1196 0 56.1111 11.6554 654 123.813 353.682 467.928
1197 0 55.1274 11.4462 631 126.853 355.613 463.588
1198 0 58.2462 12.1553 708 127.113 355.572 463.696
1199 0 63.1582 13.6008 859 122.625 356.399 466.368
1200 0 63.2149 12.7027 803 126.285 355.856 460.421
1201 0 64.1905 13.8806 891 125.988 356.165 458.657
1202 0 67.1828 15.4206 1036 122.275 356.48 461.024
1203 0 66.1681 10.9872 727 130.726 357.49 459.799
1204 0 69.1729 13.1844 912 126.939 358.177 457.739
1205 0 73.1607 18.3568 1343 118.768 358.187 458.688
1206 0 76.0683 14.3161 1089 123.447 359.073 459.668
1207 0 78.175 19.6226 1534 111.881 357.859 468.335
1208 0 78.245 13.5728 1062 125.236 357.594 461.246
1209 0 84.1294 14.2519 1199 123.266 357.346 462.863
1210 0 88.1188 14.7755 1302 122.284 357.708 462.243
1211 0 86.1539 11.5259 993 129.397 356.967 461.922
1212 0 93.1604 13.0957 1220 127.239 357.105 459.795
1213 0 92.3704 15.4812 1430 125.994 356.464 457.409
1214 0 98.1652 13.7829 1353 128.899 356.118 452.86
1215 1 49.1891 11.6693 574 128.049 354.65 479.676
1216 0 53.0367 11.7654 624 128.662 352.824 476.989
1217 0 58.101 12.0136 698 126.739 353.129 477.159
1218 0 57.0945 13.5565 774 124.855 352.889 476.205
1219 0 57.1002 13.5376 773 120.07 351.878 476.175
1220 0 61.1203 16.9665 1037 119.934 350.862 472.24
1221 0 61.1985 12.8925 789 128.29 349.839 468.497
1222 0 62.1167 11.1725 694 131.775 350.115 469.882
1223 0 70.0539 14.1748 993 124.831 349.455 466.863
1224 0 69.1214 13.1652 910 128.23 349.356 465.632
1225 0 71.133 15.1125 1075 125 349.838 461.513
1226 0 72.128 11.1191 802 133.379 349.38 460.122
1227 0 76.2035 13.149 1002 129.832 348.973 457.543
1228 0 77.1905 12.3461 953 130.58 349.066 459.894
1229 0 81.1389 12.645 1026 131.154 348.777 456.062
1230 0 83.1591 16.8593 1402 123.555 349.261 454.446
1231 0 87.2826 14.791 1291 126.519 350.18 455.253
1232 0 90.1011 13.0964 1180 130.684 350.179 453.139
1233 0 93.1554 13.1071 1221 131.607 351.862 449.563
1234 0 96.1386 12.9501 1245 132.242 351.346 442.22
1235 0 99.4337 15.4777 1539 126.713 351.997 440.127
1236 0 99.4337 15.357 1527 131.903 353.003 440.09
1237 0 105.46 13.9674 1473 129.981 353.607 437.032
1238 0 108.215 14.1385 1530 129.693 353.795 431.924
1239 0 110.22 16.9841 1872 125.301 354.42 431.272
1240 0 116.28 13.3041 1547 131.635 355.548 436.878
1241 1 57.0515 12.5325 715 129.961 356.776 465.649
1242 0 59.2025 12.2292 724 131.996 356.714 464.983
1243 0 62.06 13.1808 818 131.665 356.521 462.224
1244 0 64.1616 14.3544 921 129.568 356.683 461.254
1245 0 67.0929 15.1432 1016 128.003 357.234 463.479
1246 0 67.0909 12.1328 814 134.694 358.55 462.617
1247 0 70.0465 14.2905 1001 130.81 358.96 463.516
1248 0 74.1376 14.0145 1039 129.327 358.786 465.196
1249 0 79.1515 13.9227 1102 129.158 357.814 462.332
1250 0 78.1242 13.4785 1053 131.794 358.933 461.717
1251 0 82.0651 13.7696 1130 131.462 358.364 462.149
1252 0 84.1064 13.7921 1160 132.572 358.157 462.292
1253 0 85.278 12.0547 1028 135.291 356.844 463.044
1254 0 92.0805 13.3796 1232 131.931 357.192 461.04
1255 1 49.1396 9.48318 466 133.06 355.547 480.813
1256 0 49.1289 9.6888 476 133.418 354.7 481.752
1257 0 52.1754 10.6564 556 134.176 355.286 483.628
1258 0 53.0466 12.1026 642 136.241 354.66 479.953
1259 0 53.0617 8.198 435 140.267 354.614 481.903
1260 0 58.1101 12.8205 745 134.094 352.921 479.658
1261 0 61.0655 13.0679 798 133.066 351.53 480.204
1262 0 61.0676 14.4266 881 131.815 351.955 477.278
1263 0 64.0905 15.0256 963 127.484 351.358 478.26
1264 0 65.0766 13.3228 867 130.29 350.597 477.659
1265 0 68.0748 16.8638 1148 125.621 349.205 471.077
1266 0 71.226 16.0335 1142 130.325 349.688 470.022
1267 0 73.1554 13.3961 980 135.629 349.946 468.205
1268 0 77.3129 14.4219 1115 132.672 350.341 466.939
1269 0 77.0813 17.1896 1325 126.794 349.528 468.674
1270 0 77.1432 9.96848 769 139.606 349.164 466.607
1271 0 83.4308 13.5442 1130 135.427 350.775 460.262
1272 0 86.4823 14.1532 1224 133.933 350.014 457.149
1273 1 48.1952 11.2874 544 136.467 349.614 470.721
1274 0 49.2212 12.068 594 135.535 350.096 470.303
1275 0 51.2832 13.1817 676 132.58 351.274 468.385
1276 0 51.325 12.9372 664 132.321 351.354 467.943
1277 0 54.1604 12.0568 653 136.907 352.144 467.727
1278 0 55.3197 12.7983 708 133.251 351.671 469.226
1279 0 56.1558 12.5009 702 134.231 352.513 466.805
1280 0 58.097 11.4464 665 136.379 353.547 467.868
1281 0 61.3637 14.96 918 131.996 354.769 464.212
1282 0 60.0668 13.5349 813 133.678 354.919 463.55
1283 0 64.0892 13.5904 871 132.662 355.814 459.899
1284 0 64.536 11.6214 750 141.612 356.667 452.901
1285 0 67.4131 17.2073 1160 130.578 357.534 454.839
1286 0 70.3883 14.6473 1031 135.594 357.972 453.852
1287 0 71.4293 18.2278 1302 129.21 358.654 456.5
1288 0 71.4293 18.3118 1308 120.421 359.677 456.569
1289 0 75.6698 14.9333 1130 133.73 359.597 454.425
1290 0 77.5702 12.4661 967 136.781 360.086 457.543
1291 0 80.5044 11.664 939 138.534 359.873 453.182
1292 0 84.3663 12.5643 1060 137.171 358.876 449.258
1293 0 85.3758 13.8915 1186 135.293 358.951 446.266
1294 1 46.3849 9.31337 432 136.479 359.567 469.868
1295 0 47.2047 11.7785 556 133.444 358.583 469.797
1296 0 47.4144 10.7984 512 135.338 357.809 473.197
1297 0 50.1677 12.518 628 133.018 358.088 476.998
1298 0 51.1553 13.9771 715 132.243 358.414 477.494
1299 0 51.2576 14.5149 744 132.728 357.816 478.609
1300 0 55.2349 12.6188 697 135.311 357.222 479.636
1301 0 54.1493 13.315 721 136.316 355.997 474.95
1302 0 56.0907 14.0308 787 133.93 355.154 476.052
1303 0 59.1261 11.8391 700 136.631 354.733 475.674
1304 0 61.1525 13.9651 854 133.246 354.296 469.612
1305 0 62.3066 13.6583 851 134.541 352.884 469.469
1306 0 64.1681 13.0906 840 135.317 353.017 467.938
1307 0 66.2098 12.7776 846 134.563 352.544 469.67
1308 0 73.1252 11.1043 812 137.185 349.913 466.536
1309 0 78.1262 14.579 1139 131.834 350.184 463.112
1310 0 78.3015 13.0138 1019 136.511 349.69 456.11
1311 0 78.3096 12.9231 1012 136.455 349.43 458.912
1312 0 82.4996 14.8243 1223 133.764 350.194 455.743
1313 0 84.1944 13.4569 1133 135.414 349.591 449.453
1314 0 90.4658 18.3384 1659 126.193 349.313 445.967
1315 0 90.1917 13.8926 1253 133.97 350.286 443.911
1316 0 93.5179 13.345 1248 134.509 350.577 439.88
1317 0 92.3178 13.9843 1291 135.309 351.15 440.239
1318 1 46.125 8.02168 370 141.208 351.151 465.603
1319 0 51.1214 10.837 554 135.894 351.496 464.101
1320 0 49.0937 11.4882 564 136.562 352.112 459.913
1321 0 52.2803 11.0175 576 136.309 353.479 458.554
1322 0 53.1344 10.9534 582 137.627 353.46 457.003
1323 0 55.179 12.9759 716 133.219 354.803 457.728
1324 0 57.0655 12.8449 733 134.179 354.985 458.775
1325 0 59.2698 11.4224 677 136.734 355.406 457.53
1326 0 63.1978 12.0574 762 135.677 355.919 454.22
1327 0 68.3439 12.8029 875 134.281 355.519 454.882
1328 0 70.3334 15.3839 1082 130.255 356.218 458.482
1329 0 73.2981 14.2978 1048 133.086 357.401 455.733
1330 0 73.2999 13.5471 993 134.759 356.52 457.482
1331 0 72.2844 13.184 953 123.193 356.507 456.785
1332 0 77.1959 10.428 805 141.103 357.05 454.862
1333 0 84.3743 16.2016 1367 130.104 358.146 452.046
1334 0 85.2354 14.4072 1228 134.594 357.397 448.822
1335 1 180.552 11.6033 2095 140.214 358.052 420.015
1336 1 195.382 9.43279 1843 143.383 357.339 420.48
1337 1 93.1737 12.5679 1171 139.385 357.175 451.233
1338 0 97.3282 15.5248 1511 133.591 356.976 453.019
1339 0 99.4709 13.2702 1320 137.717 356.945 452.864
1340 1 57.0955 13.1534 751 129.475 355.832 477.13
1341 0 52.1486 10.6235 554 138.446 356.036 471.545
1342 0 56.2472 11.7873 663 136.787 354.576 470.508
1343 0 61.1911 13.1065 802 134.993 353.706 473.277
1344 0 63.2675 12.6131 798 135.217 352.33 476.019
1345 0 64.155 12.5477 805 136.728 352.699 473.939
1346 0 63.1293 11.421 721 139.588 350.662 473.309
1347 0 71.3116 13.6303 972 134.881 351.737 471.015
1348 0 74.3985 14.7852 1100 132.252 351.773 468.869
1349 0 77.1371 13.2491 1022 135.736 350.382 467.032
1350 0 78.2791 12.481 977 139.34 349.303 463.02
1351 0 80.2945 10.86 872 141.041 348.376 462.815
1352 0 84.2014 12.7789 1076 136.863 349.38 461.63
1353 0 84.1714 12.9973 1094 137.061 349.401 453.325
1354 0 88.1648 12.7375 1123 135.833 349.451 456.933
1355 1 50.0283 10.7539 538 137.459 348.305 471.721
1356 0 52.1603 12.3082 642 133.248 349.833 464.28
1357 0 54.1572 13.1469 712 131.962 350.492 466.916
1358 0 53.2006 13.2329 704 134.601 350.413 468.224
1359 0 54.1054 13.0301 705 135.687 350.86 468.559
1360 0 55.3128 12.4564 689 134.878 352.492 467.737
1361 0 59.1402 13.3581 790 133.665 351.672 464.371
1362 0 57.024 11.6442 664 139.37 352.154 461.274
1363 0 61.1474 11.1207 680 138.703 353.022 463.041
1364 0 62.6219 13.318 834 135.588 353.964 457.373
1365 0 64.0638 12.7529 817 135.924 354.73 459.74
1366 0 68.2774 13.3573 912 133.709 354.112 452.576
1367 0 69.3328 12.0434 835 136.667 356.35 453.086
1368 0 72.1537 11.5032 830 142.689 357.263 453.48
1369 0 75.0748 12.1745 914 140.247 356.978 455.539
1370 0 79.2169 11.7399 930 139.266 355.89 448.771
1371 0 82.2981 13.1959 1086 137.522 357.153 447.901
1372 0 84.0831 12.5114 1052 139.143 356.484 448.823
1373 0 86.1852 13.6566 1177 137.594 357.529 449.959
1374 1 46.1335 10.5346 486 137.537 356.387 469.255
1375 0 46.0616 8.33666 384 141.875 358.013 473.56
1376 0 49.0825 12.2651 602 133.774 357.809 470.389
1377 0 52.1917 13.6995 715 134.885 357.641 472.448
1378 0 55.1 12.4864 688 136.257 356.58 471.413
1379 0 55.1657 12.8522 709 137.827 357.636 473.952
1380 0 52.0403 9.97304 519 138.447 356.963 472.775
1381 0 57.1411 10.6928 611 136.944 355.588 476.286
1382 0 57.0845 9.31952 532 137.861 355.876 477.083
1383 0 59.0921 9.56135 565 138.469 355.558 475.977
1384 0 63.0982 11.807 745 134.624 355.297 475.627
1385 0 63.102 12.9631 818 134.042 354.378 470.432
1386 0 67.175 12.981 872 133.578 353.612 469.987
1387 0 69.1886 12.6899 878 137.047 352.72 467.722
1388 0 70.1187 11.723 822 139.18 351.085 466.668
1389 0 74.239 13.3892 994 135.282 351.138 460.339
1390 0 77.0936 10.818 834 139.187 349.535 466.271
1391 0 82.1548 15.9577 1311 129.733 350.084 458.848
1392 0 84.331 12.9134 1089 135.626 350.448 459.784
1393 0 83.1158 11.875 987 138.13 349.765 459.138
1394 0 89.3016 8.54408 763 142.971 349.219 453.966
1395 0 91.4932 10.4161 953 137.611 348.808 456.385
1396 0 88.2696 11.5102 1016 135.967 348.383 455.396
1397 1 53.1027 11.3742 604 130.561 348.594 472.399
1398 0 53.1305 9.59901 510 134.043 347.42 468.845
1399 0 55.152 11.3505 626 129.759 348.39 468.113
1400 0 55.0716 10.7496 592 127.699 347.819 463.934
1401 0 58.1938 10.7228 624 130.216 349.734 462.684
1402 0 59.0949 11.7607 695 129.635 350.856 460.865
1403 0 62.1031 10.6758 663 131.045 350.599 460.732
1404 0 63.1212 11.2324 709 130.745 351.687 458.355
1405 0 63.207 10.1255 640 132.691 351.744 455.225
1406 0 68.0472 13.5347 921 126.29 352.72 457.516
1407 0 64.0757 10.6124 680 131.175 353.763 456.938
1408 0 70.1051 12.4099 870 128.01 353.347 455.921
1409 0 71.1752 10.1721 724 131.957 354.319 452.96
1410 0 70.0682 9.67629 678 133.882 356.14 449.76
1411 0 76.1471 12.9224 984 127.693 356.669 451.654
1412 0 82.1311 13.8924 1141 125.202 357.046 450.888
1413 0 82.181 13.3608 1098 127.55 358.044 447.697
1414 0 86.214 11.2975 974 130.291 358.317 448.132
1415 0 88.1155 11.1899 986 130.787 358.446 445.814
1416 0 88.1541 14.0096 1235 127.092 358.795 446.757
1417 0 91.0999 15.3129 1395 124.523 358.986 446.34
1418 1 188.938 10.3526 1956 137.898 359.332 406.899
1419 1 292.82 15.2107 4454 141.715 359.427 340.519
1420 1 52.1383 8.45828 441 129.327 359.258 461.832
1421 0 47.1601 5.40711 255 135.075 359.043 457.608
1422 0 59.187 16.1691 957 116.832 358.048 461.56
1423 0 62.094 12.7387 791 123.003 358.523 468.752
1424 0 68.1019 12.0261 819 123.431 358.398 470.56
1425 0 64.1382 11.9897 769 124.059 357.962 469.416
1426 0 69.1753 8.31221 575 130.263 356.296 464.143
1427 0 71.2124 8.0604 574 131.612 356.747 464.544
1428 0 74.1495 10.1147 750 128.765 355.425 465.259
1429 0 81.3764 11.2072 912 126.737 355.378 463.87
1430 0 80.213 9.82384 788 129.018 353.676 466.435
1431 0 81.5851 11.9017 971 126.969 353.674 462.571
1432 0 85.2502 14.1935 1210 123.301 352.149 456.785
1433 0 89.4854 15.9356 1426 121.405 352.884 456.492
1434 0 89.5153 12.1543 1088 128.014 351.796 454.268
1435 0 94.7047 16.8946 1600 120.429 351.284 451.693
1436 0 97.6101 15.5004 1513 122.742 350.461 451.592
1437 0 99.571 12.5237 1247 128.282 350.644 444.527
1438 0 102.482 13.1145 1344 128 350.421 446.815
1439 0 101.511 13.4271 1363 127.346 350.378 446.698
1440 0 110.45 14.7849 1633 127.84 350.182 435.904
1441 0 110.277 10.3558 1142 135.258 350.433 444.143
1442 1 206.601 10.6389 2198 142.215 349.199 386.546
1443 1 120.514 12.5711 1515 132.473 350.304 433.607
1444 0 121.274 14.0179 1700 129.573 349.376 435.211
1445 0 130.634 10.648 1391 132.546 349.403 430.058
1446 1 69.2009 10.2311 708 126.703 349.247 455.249
1447 0 72.2106 13.9315 1006 122.161 350.281 456.272
1448 0 72.142 12.4615 899 123.565 350.259 454.66
1449 0 77.0812 12.7917 986 122.706 351.402 452.041
1450 0 78.2653 11.7421 919 123.624 352.123 454.522
1451 0 80.1794 12.5219 1004 122.929 352.641 453.037
1452 0 83.174 13.3094 1107 122.937 353.619 444.446
1453 0 92.3768 16.2595 1502 117.614 353.346 444.53
1454 0 88.4074 12.5555 1110 124.487 354.386 440.05
1455 0 92.33 14.0799 1300 122.486 355.742 443.34
1456 0 95.3929 11.9401 1139 126.603 355.877 437.486
1457 0 95.2069 13.5704 1292 124.415 356.906 436.624
1458 0 100.254 15.9794 1602 120.629 356.899 438.841
1459 0 104.199 14.6258 1524 121.031 357.578 431.081
1460 0 105.273 9.98361 1051 128.036 358.602 441.278
1461 0 110.383 10.9527 1209 125.629 359.165 446.883
1462 1 60.1588 13.7137 825 120.257 359.097 465.019
1463 0 63.1603 10.9404 691 122.592 357.602 463.961
1464 0 64.1712 15.0535 966 122.775 358.89 464.974
1465 0 67.2786 13.0948 881 125.577 358.064 463.56
1466 0 66.4623 9.22327 613 132.02 358.574 465.932
1467 0 71.4243 10.5986 757 130.474 357.848 461.737
1468 0 74.2825 11.914 885 128.54 356.303 460.344
1469 0 78.3685 15.0188 1177 123.379 356.54 457.007
1470 0 77.4061 9.84419 762 132.854 355.638 459.396
1471 0 81.3561 15.426 1255 123.254 354.699 460.724
1472 0 86.2656 11.2328 969 130.379 353.42 456.499
1473 0 85.6961 12.5793 1078 130.738 352.953 453.6
1474 0 89.2702 10.6643 952 128.725 351.486 455.582
1475 0 90.2892 13.4346 1213 125.007 351.486 458.65
1476 0 95.2844 12.6673 1207 127.625 351.306 455.419
1477 0 95.2827 10.2747 979 133.067 350.208 452.932
1478 0 99.5066 9.51696 947 133.914 350.152 453.484
1479 1 175.647 10.3788 1823 136.315 350.721 420.898
1480 1 56.2485 10.827 609 127.338 350.594 467.32
1481 0 58.2004 11.9071 693 125.867 350.277 465.413
1482 0 60.1975 10.4656 630 128.608 350.306 468.751
1483 0 59.2295 10.3833 615 125.231 349.127 469.689
1484 0 62.244 13.1579 819 122.042 348.239 468.269
1485 0 65.2589 10.0523 656 128.111 347.553 462.925
1486 0 68.1178 10.2763 700 126.947 347.776 461.556
1487 0 69.2391 12.5796 871 125.241 348.268 458.84
1488 0 73.1813 13.0225 953 123.709 348.769 458.782
1489 0 73.2132 12.6207 924 126.236 347.917 457.679
1490 0 69.1154 13.2677 917 125.149 348.94 458.625
1491 0 77.3827 13.3234 1031 126.086 349.872 451.631
1492 0 82.1996 11.3991 937 129.587 351.541 453.322
1493 0 82.1996 11.4721 943 137.579 352.562 453.286
1494 0 83.087 14.0215 1165 129.143 351.052 440.687
1495 0 89.1106 13.0288 1161 128.668 353.371 446.557
1496 0 91.0969 12.3605 1126 131.464 353.394 440.345
1497 0 96.2189 13.6668 1315 127.56 354.713 440.955
1498 1 50.0769 11.5223 577 126.503 352.104 466.705
1499 0 51.059 12.2212 624 128.256 354.444 463.013
1500 0 55.0609 11.7688 648 127.491 355.793 465.929
1501 0 57.1419 11.6727 667 128.238 355.175 461.312
1502 0 56.1152 12.3674 694 128.451 355.853 461.383
1503 0 58.0834 11.8967 691 128.077 356.394 464.123
1504 0 60.0855 11.1175 668 128.771 356.436 468.096
1505 0 61.0611 12.1026 739 127.307 355.871 467.041
1506 0 64.0514 14.5196 930 124.344 357.006 465.525
1507 0 68.1244 13.2698 904 124.512 355.468 467.248
1508 0 69.0761 10.9589 757 129.534 357.063 468.466
1509 0 69.1342 11.4994 795 128.423 355.294 469.279
1510 0 73.0373 9.87166 721 131.972 354.91 460.921
1511 0 76.2147 12.924 985 127.511 354.6 462.213
1512 0 76.1513 11.7661 896 129.172 354.029 464.6
1513 0 80.0855 12.1745 975 128.326 353.74 462.582
1514 0 79.1394 12.3832 980 128.341 352.801 463.141
1515 1 48.161 7.51645 362 127.845 351.956 477.605
1516 0 50.1398 7.7982 391 124.977 350.522 482.88
1517 0 48.32 11.0927 536 122.817 351.407 476.914
1518 0 51.1905 11.7991 604 120.772 351.442 475.298
1519 0 50.0877 11.2203 562 123.391 349.351 476.635
1520 0 52.0945 11.7479 612 124.655 349.096 473.675
1521 0 54.1653 11.5203 624 126.083 348.554 471.896
1522 0 55.1099 13.5729 748 122.4 348.106 471.037
1523 0 57.1496 11.4961 657 125.924 347.887 468.793
1524 0 58.178 12.1524 707 125.256 347.586 468.652
1525 0 60.1491 14.1814 853 121.94 346.693 468.698
1526 0 64.1295 14.2992 917 120.652 347.853 468.702
1527 0 63.1421 12.0047 758 126.241 348.462 467.995
1528 0 65.0845 12.4915 813 126.791 347.31 463.38
1529 0 67.1344 12.2739 824 126.575 347.394 462.962
1530 0 70.1224 11.6083 814 128.335 348.536 458.474
1531 0 76.0831 10.0548 765 130.094 347.903 453.519
1532 0 75.2088 11.4215 859 128.205 349.588 454.508
1533 0 76.1933 12.6783 966 126.647 349.771 449.834
1534 0 78.1436 14.3454 1121 124.967 349.961 448.939
1535 0 83.1569 12.1698 1012 127.935 350.652 449.164
1536 0 86.1975 13.3531 1151 125.164 351.794 453.079
1537 0 89.1514 11.0374 984 131.268 352.303 445.964
1538 0 85.1897 9.70774 827 135.415 352.792 444.146
1539 0 92.1097 12.9954 1197 129.338 353.5 441.907
1540 0 93.2503 13.0402 1216 129.637 354.056 442.28
1541 0 97.1531 7.61685 740 135.601 354.274 452.935
1542 1 53.1597 9.14226 486 130.728 355.282 461.498
1543 0 59.3116 11.4986 682 129.145 356.15 462.974
1544 0 59.4076 13.3821 795 127.405 356.855 462.625
1545 0 61.212 13.7391 841 127.157 357.344 463.553
1546 0 62.2671 14.0042 872 128.086 357.243 462.014
1547 0 63.1581 9.40497 594 135.423 356.939 463.355
1548 0 68.2056 13.4593 918 128.149 357.309 463.672
1549 0 69.2619 13.1385 910 128.447 356.822 464.18
1550 0 72.3286 14.4203 1043 127.099 357.02 461.659
1551 0 74.302 16.5406 1229 124.146 355.417 459.665
1552 0 75.209 9.93232 747 134.909 356.7 464.521
1553 0 77.226 14.9302 1153 126.823 355.483 463.694
1554 0 82.415 12.7647 1052 129.457 355.29 464.165
1555 0 90.274 12.5728 1135 127.159 354.93 463.367
1556 1 47.0741 9.28324 437 131.579 353.259 480.549
1557 0 49.1093 10.9144 536 128.826 352.692 480.966
1558 0 51.0528 11.8505 605 127.255 351.582 479.577
1559 0 55.2221 12.821 708 124.672 352.058 476.701
1560 0 55.2072 11.3572 627 127.472 350.581 480.555
1561 0 55.184 10.2747 567 129.594 350.958 479.215
1562 0 58.2102 13.2794 773 125.687 349.722 474.323
1563 0 59.2733 9.41402 558 131.176 350.127 477.056
1564 0 59.1778 12.7751 756 128.28 349.8 472.073
1565 0 61.2011 13.2841 813 127.338 348.319 468.011
1566 0 64.0805 13.0617 837 127.65 348.259 469.428
1567 0 66.1577 12.6214 835 127.71 348.178 469.792
1568 0 68.1468 11.0644 754 130.568 348.127 464.046
1569 0 69.1577 12.0738 835 127.753 347.236 467.39
1570 0 71.11 11.3767 809 128.998 347.355 465.723
1571 0 77.104 13.0732 1008 127.724 348.377 459.862
1572 0 75.1131 12.9538 973 127.32 348.592 463.108
1573 0 79.2216 15.7028 1244 123.161 348.62 461.391
1574 0 83.1278 13.3289 1108 127.601 348.887 455.778
1575 0 82.1774 12.473 1025 130.016 350.143 453.254
1576 0 87.2358 12.8617 1122 128.712 349.853 451.108
1577 0 87.1863 11.3665 991 131.422 350.916 451.791
1578 0 93.2816 15.3299 1430 124.894 351.369 446.114
1579 1 187.352 17.0268 3190 133.393 353.318 388.981
1580 1 231.731 11.44 2651 145.56 353.544 364.164
1581 1 97.4654 10.496 1023 135.292 354.157 422.576
1582 0 102.229 9.25372 946 135.878 354.992 428.272
1583 0 107.186 11.4754 1230 131.845 355.272 427.671
1584 1 121.447 10.3255 1254 131.787 355.429 439.969
1585 0 114.222 12.4669 1424 130.978 355.83 438.511
1586 1 64.0852 13.5445 868 126.603 355.134 456.555
1587 0 69.1015 13.3282 921 127.664 356.673 459.237
1588 0 68.3762 15.9997 1094 124.689 356.984 456.994
1589 0 71.5961 10.7827 772 132.631 356.051 456.04
1590 0 76.1696 12.9054 983 129.01 356.91 457.722
1591 0 76.437 11.3558 868 132.984 357.275 455.751
1592 0 77.2768 12.0735 933 131.541 357.481 457.927
1593 0 80.1387 10.7813 864 134.86 356.531 452.947
1594 0 84.201 14.3941 1212 128.819 356.613 456.389
1595 0 88.1873 16.6917 1472 126.16 356.444 456.923
1596 0 93.1793 13.5867 1266 127.418 355.195 465.385
1597 0 95.1536 15.3541 1461 128.181 355.778 455.196
1598 0 95.2224 10.9323 1041 137.075 355.775 456.007
1599 0 97.2097 13.0954 1273 131.818 354.451 456.76
1600 0 99.1198 14.1142 1399 128.009 354.239 456.234
1601 0 102.122 14.1301 1443 129.701 352.762 451.503
1602 0 104.266 11.298 1178 135.049 352.42 444.044
1603 1 191.51 8.90291 1705 140.212 350.714 432.657
1604 1 208.425 14.7007 3064 140.061 351.105 396.97
1605 0 209.426 12.3528 2587 141.247 349.111 402.534
1606 1 173.511 10.0455 1743 144.242 349.116 403.263
1607 0 183.382 10.2409 1878 141.769 349.387 415.065
1608 1 135.56 14.6651 1988 133.747 349.179 425.896
1609 0 136.359 11.9097 1624 136.405 348.506 422.453
1610 0 141.339 10.1317 1432 141.814 347.499 425.667
1611 0 149.345 13.0838 1954 138.415 347.241 421.892
1612 0 151.426 14.172 2146 137.999 348.114 412.969
1613 0 151.429 14.066 2130 137.47 349.116 412.86
1614 0 151.456 9.0257 1367 135.76 347.639 434.734
1615 0 150.444 7.85008 1181 135.449 346.869 436.074
1616 0 148.265 7.05496 1046 138.244 347.912 431.731
1617 1 184.443 13.641 2516 134.108 348.59 407.574
1618 0 186.711 13.3522 2493 137.053 349.481 396.352
1619 0 193.541 12.3385 2388 142.43 349.515 391.779
1620 1 105.201 14.4865 1524 127.694 350.852 434.134
1621 0 105.201 14.382 1513 119.926 351.837 433.972
1622 0 109.188 11.5122 1257 131.442 350.747 439.242
1623 0 110.258 8.27149 912 137.87 351.834 432.806
1624 0 117.324 12.8618 1509 133.396 352.789 430.28
1625 0 118.401 8.29382 982 143.297 353.525 422.003
1626 0 122.394 12.8601 1574 120.844 354.459 433.298
1627 0 128.507 10.2251 1314 138.674 355.154 423.301
1628 0 128.507 10.3574 1331 133.131 356.184 423.261
1629 1 139.281 10.6978 1490 138.287 356.003 417.919
1630 0 143.531 11.663 1674 137.979 355.87 420.326
1631 0 150.396 10.9644 1649 139.547 356.067 420.3
1632 0 154.191 13.1071 2021 134.041 356.285 425.435
1633 0 157.361 10.371 1632 140.642 356.604 419.322
1634 0 158.366 9.64224 1527 141.01 357.133 418.473
1635 0 159.632 7.07879 1130 136.298 357.19 441.561
1636 1 171.449 10.178 1745 141.362 357.602 409.128
1637 0 176.361 9.13469 1611 143.741 356.624 407.571
1638 0 184.493 9.83234 1814 142.85 355.799 408.5
1639 0 189.405 10.8076 2047 142.175 355.854 409.001
1640 0 199.439 11.5073 2295 141.532 354.781 404.276
1641 0 201.398 10.8144 2178 144.088 355.407 392.129
1642 1 56.1803 8.70412 489 128.9 354.014 474.607
1643 0 60.3709 9.32569 563 127.174 353.32 471.16
1644 0 58.2334 9.99426 582 126.613 352.237 469.619
1645 0 61.252 16.2933 998 115.628 350.841 473.529
1646 0 63.2219 13.5238 855 121.87 350.906 465.13
1647 0 64.2784 12.757 820 123.21 350.534 463.961
1648 0 64.2859 14.2022 913 121.056 349.766 466.181
1649 0 64.2859 14.2488 916 101.245 348.778 466.09
1650 0 73.5451 14.1138 1038 120.531 348.671 462.213
1651 0 73.22 11.5406 845 125.297 348.904 462.019
1652 0 75.2725 11.1196 837 127.504 348.898 458.943
1653 0 76.2495 10.8066 824 128.279 349.453 454.817
1654 0 79.1758 11.0008 871 128.373 348.737 450.631
1655 0 84.3091 10.6869 901 129.587 348.236 447.022
1656 0 83.1696 12.9374 1076 125.648 347.025 454.786
1657 0 87.1878 12.9261 1127 126.689 348.262 452.267
1658 0 87.1708 13.0089 1134 111.037 349.297 452.143
1659 0 92.2713 10.1874 940 132.464 348.683 445.182
1660 0 89.3624 7.77732 695 135.67 348.787 447.419
1661 0 95.1745 10.8012 1028 133.386 349.987 436.584
1662 0 95.1467 13.0325 1240 130.551 349.837 435.455
1663 0 96.3339 13.256 1277 131.28 351.682 428.092
1664 0 104.197 10.4609 1090 134.445 351.425 432.891
1665 0 107.376 11.1105 1193 133.882 353.08 431.571
1666 0 110.354 12.2696 1354 133.027 353.705 424.511
1667 1 62.179 7.15676 445 128.456 353.748 462.178
1668 0 63.3638 8.85364 561 127.512 354.052 455.831
1669 0 69.377 8.72047 605 128.094 355.124 451.274
1670 0 69.2944 10.275 712 125.81 355.812 450.108
1671 0 73.3578 13.182 967 123.143 355.983 440.895
1672 0 71.1416 9.85359 701 128.05 357.143 439.524
1673 0 75.4747 9.8046 740 126.83 358.195 446.553
1674 0 82.3847 10.4267 859 126.306 358.304 445.616
1675 0 83.233 11.8943 990 123.63 358.3 446.987
1676 0 82.5228 10.5304 869 126.804 357.353 444.16
1677 0 86.5136 11.7554 1017 125.528 357.494 441.292
1678 0 88.4162 11.0048 973 127.001 357.704 448.099
1679 0 94.5752 10.9225 1033 124.88 358.24 455.482
1680 0 99.4158 12.2113 1214 125.61 356.517 447.125
1681 0 97.5563 13.9099 1357 125.127 356.042 439.167
1682 0 105.695 15.8854 1679 121.73 356.726 449.599
1683 0 103.617 15.4608 1602 118.5 356.667 448.824
1684 0 109.267 13.8377 1512 123.909 354.796 448.202
1685 0 110.177 12.4799 1375 127.34 353.685 441.253
1686 0 116.298 12.597 1465 126.665 352.513 440.625
1687 0 117.346 12.6805 1488 128.087 351.823 436.326
1688 0 117.346 12.706 1491 121.571 350.844 436.19
1689 1 62.0583 9.79724 608 129.85 349.893 460.742
1690 0 70.2629 8.9521 629 130.362 350.11 460.024
1691 0 73.2709 12.2149 895 127.959 350.385 457.515
1692 0 77.1673 15.758 1216 120.604 349.516 464.641
1693 0 79.3201 11.6616 925 127.437 350.023 458.677
1694 0 83.2895 11.9343 994 127.394 349.078 454.699
1695 0 83.3672 14.3102 1193 125.088 349.083 451.376
1696 0 88.2281 14.1338 1247 123.836 349.106 448.456
1697 0 91.1032 18.715 1705 116.923 349.004 453.294
1698 0 89.1415 11.9024 1061 128.453 347.839 441.634
1699 0 98.4182 15.3427 1510 122.406 348.442 444.367
1700 0 104.265 12.9382 1349 125.494 348.368 446.9
1701 0 104.205 10.0763 1050 131.714 348.907 444.596
1702 0 100.235 9.40784 943 132.858 349.715 434.129
1703 0 110.224 12.774 1408 127.491 349.342 431.605
1704 0 117.756 11.8635 1397 130.282 349.536 418.894
1705 0 114.324 13.1206 1500 129.937 351.017 423.515
1706 1 224.743 11.3997 2562 146.137 351.454 374.827
1707 0 231.467 10.8569 2513 144.397 352.67 381.206
1708 0 231.306 7.97211 1844 145.967 352.852 391.946
1709 1 76.1101 10.5768 805 125.927 352.784 456.686
1710 0 77.0334 9.21678 710 128.258 353.504 453.787
1711 0 77.0334 9.26871 714 116.651 354.503 453.581
1712 0 83.1357 10.7896 897 129.459 354.495 448.245
1713 0 80.1608 7.68456 616 136.088 354.688 440.469
1714 0 88.3608 12.7885 1130 127.25 355.45 444.328
1715 0 92.4142 14.3917 1330 125.437 355.797 442.692
1716 0 96.5021 15.6266 1508 124.138 357.18 440.313
1717 0 99.2675 14.4357 1433 125.971 356.404 442.586
1718 1 189.598 16.6985 3166 131.102 357.381 398.972
1719 0 197.831 15.3666 3040 134.536 358.165 391.348
1720 0 197.831 15.5335 3073 132.182 360.192 391.576
1721 1 111.22 11.0322 1227 133.023 356.1 438.436
1722 0 113.344 9.74026 1104 131.525 356.259 447.691
1723 0 116.278 9.58048 1114 133.96 355.657 436.127
1724 0 121.618 9.54625 1161 131.678 355.435 437.904
1725 1 65.1953 11.0437 720 121.781 354.747 464.099
1726 0 63.292 9.36928 593 124.508 354.72 466.863
1727 0 67.1955 11.3252 761 122.168 353.091 467.64
1728 0 70.1735 10.5595 741 123.696 352.73 464.339
1729 0 71.201 14.5363 1035 116.782 351.361 471.327
1730 0 70.1411 10.4361 732 125.954 349.54 460.306
1731 0 74.2024 12.7893 949 122.742 350.256 463.189
1732 0 79.5076 13.1308 1044 121.374 349.976 463.626
1733 0 76.2638 8.30013 633 128.408 349.16 464.991
1734 0 83.5679 14.9818 1252 121.254 348.902 455.444
1735 0 80.3253 10.1213 813 124.734 348.879 465.679
1736 0 85.3825 12.6607 1081 124.735 348.213 450.23
1737 0 90.4747 17.1871 1555 119.064 347.891 447.327
1738 0 89.4027 10.8945 974 127.859 347.186 447.205
1739 0 96.47 23.427 2260 111.804 347.907 446.668
1740 0 97.1361 14.3304 1392 123.893 347.551 442.495
1741 0 102.388 15.4607 1583 122.958 347.009 442.255
1742 0 106.38 14.4858 1541 124.085 349.473 447.615
1743 1 59.096 14.4172 852 120.275 348.661 467.313
1744 0 61.2508 15.3467 940 122.905 348.582 461.138
1745 0 64.3011 12.5503 807 126.447 348.445 459.13
1746 0 64.2368 10.8972 700 129.811 349.62 461.543
1747 0 66.1658 10.4435 691 129.508 349.188 461.902
1748 0 67.1548 13.5806 912 126.711 350.336 456.838
1749 0 72.1701 12.9139 932 127.025 350.939 455.762
1750 0 72.3041 10.1516 734 130.841 351.692 456.27
1751 0 80.1918 15.7872 1266 120.804 353.047 455.265
1752 0 75.1 11.0386 829 130.476 352.878 449.72
1753 0 80.2338 15.916 1277 123.032 353.274 449.294
1754 0 82.135 15.8885 1305 123.398 354.609 447.12
1755 0 82.3111 14.433 1188 126.449 354.467 444.11
1756 0 86.1319 12.3531 1064 127.127 354.062 447.549
1757 0 89.2183 14.9072 1330 123.802 355.723 447.243
1758 0 95.3139 14.6044 1392 123.379 356.488 443.206
1759 0 95.3901 9.25673 883 130.985 355.845 445.528
1760 0 107.609 17.1547 1846 117.689 357.067 434.143
1761 1 57.3102 9.61435 551 123.779 358.078 465.918
1762 0 58.1352 10.682 621 124.184 357.699 459.551
1763 0 61.1655 13.6024 832 119.596 357.53 455.294
1764 0 63.0785 13.0631 824 119.052 357.762 466.72
1765 0 59.277 11.4041 676 123.237 356.728 466.769
1766 0 60.263 10.6035 639 123.239 356 471.845
1767 0 65.1472 16.7007 1088 115.585 355.846 467.596
1768 0 61.4509 11.1634 686 124.14 356.16 464.641
1769 1 72.2684 10.6824 772 125.68 355.076 464.566
1770 0 71.3438 8.62023 615 128.667 354.857 462.54
1771 0 70.3493 7.6902 541 122.057 353.752 463.497
1772 0 78.2119 12.4661 975 123.052 353.008 453.925
1773 0 81.4042 8.46393 689 128.305 352.803 462.695
1774 0 85.4777 11.6288 994 124.184 351.326 461.206
1775 1 111.482 4.9156 548 135.785 350.63 452.374
1776 1 100.497 10.9058 1096 127.569 349.011 439.3
1777 0 91.2882 13.1233 1198 126.769 348.578 433.846
1778 0 92.3909 14.482 1338 124.958 348.52 429.78
1779 0 96.2861 11.8813 1144 127.119 348.362 429.126
1780 0 101.455 11.7195 1189 125.742 347.778 434.948
1781 0 103.499 9.58463 992 130.692 347.949 430.418
1782 0 104.291 12.8007 1335 126.991 347.981 430.649
1783 0 108.384 9.68781 1050 128.192 347.79 425.086
1784 0 108.403 11.5126 1248 126.344 346.849 425.12
1785 1 67.3233 9.26871 624 122.154 348.551 454.769
1786 0 67.1634 7.44452 500 124.336 348.604 453.996
1787 0 66.2818 8.5242 565 124.034 348.448 455.88
1788 0 66.3692 9.44715 627 123.603 348.887 453.456
1789 0 71.3449 12.2363 873 117.276 349.522 457.669
1790 0 72.2454 10.672 771 121.744 349.293 453.06
1791 0 75.6466 13.4441 1017 118.353 350.659 447.647
1792 0 79.7008 10.9158 870 120.133 350.279 448.691
1793 0 77.1946 10.4152 804 122.565 351.611 439.71
1794 0 79.5506 7.5298 599 125.99 351.487 447.698
1795 1 13.3473 10.2643 137 106.482 349.453 480.066
1796 0 14.4134 10.6845 154 83.448 351.37 480.279
1797 1 89.4389 7.78185 696 128.184 353.555 438.714
1798 0 86.6744 3.96888 344 129.57 354.029 445.776
1799 0 93.5719 6.94653 650 130.065 354.646 435.672
1800 0 100.615 10.5452 1061 126.681 355.269 430.536
1801 0 101.48 9.88368 1003 128.546 356.009 422.841
1802 0 106.648 13.7649 1468 123.457 356.298 433.232
1803 0 107.079 12.7289 1363 126.903 356.746 427.269
1804 0 115.876 9.87266 1144 129.856 356.736 428.224
1805 0 114.598 8.35967 958 133.462 356.803 417.952
1806 1 64.3034 4.10554 264 131.924 357.572 457.36
1807 0 67.234 12.7614 858 122.052 356.21 452.362
1808 0 72.3121 10.51 760 126.788 356.203 454.851
1809 0 76.3786 12.7784 976 123.174 355.488 457.769
1810 0 75.4847 10.3597 782 127.188 354.854 451.081
1811 0 81.4635 10.1027 823 124.621 353.812 458.25
1812 0 86.3668 10.6754 922 123.714 354.626 451.345
1813 0 90.6094 13.939 1263 118.49 353.841 455.575
1814 0 91.6375 8.46815 776 127.544 353.465 452.143
1815 0 96.4097 8.65058 834 126.964 353.289 449.447
1816 0 104.664 10.8633 1137 122.257 351.512 454.96
1817 0 104.536 12.4264 1299 122.224 350.351 447.426
1818 0 106.331 10.2698 1092 127.026 350.114 437.846
1819 0 111.827 9.4968 1062 127.242 350.031 442.8
1820 0 123.829 13.7448 1702 119.492 349.435 448.06
1821 0 116.493 10.2581 1195 127.642 349.026 442.165
1822 0 122.445 10.7722 1319 128.512 348.388 431.723
1823 0 123.735 10.3205 1277 129.078 348.137 442.11
1824 0 128.45 13.3126 1710 127.139 347.68 434.509
1825 0 130.315 12.5159 1631 130.302 348.501 427.78
1826 0 137.413 12.6116 1733 130.83 347.439 431.567
1827 1 77.2075 9.41619 727 130.171 346.403 455.926
1828 0 80.2523 12.0744 969 123.181 347.061 458.511
1829 0 84.1902 15.1443 1275 120.677 347.664 452.44
1830 0 86.1918 13.2147 1139 124.356 347.464 445.202
1831 0 87.2112 10.6982 933 128.601 347.041 444.764
1832 0 88.281 12.313 1087 126.368 347.831 446.964
1833 0 95.22 14.3877 1370 122.369 349.465 444.605
1834 0 95.1421 9.95353 947 130.867 349.88 443.139
1835 0 99.134 12.2864 1218 127.685 350.17 438.156
1836 0 100.151 11.8022 1182 128.195 350.757 441.253
1837 0 106.193 10.3585 1100 130.625 351.845 438.064
1838 0 106.247 9.32728 991 134.429 352.839 431.483
1839 0 113.295 12.8691 1458 127.844 353.488 432.365
1840 0 116.357 11.6967 1361 130.282 353.655 429.965
1841 0 116.385 7.31197 851 133.569 353.707 434.239
1842 1 69.2744 15.2437 1056 109.169 354.098 447.179
1843 0 69.2415 10.9039 755 116.758 354.47 445.748
1844 0 73.2023 12.322 902 113.31 354.513 453.023
1845 0 73.2577 10.4835 768 117.393 355.539 449.595
1846 0 75.2257 12.3362 928 114.217 355.372 449.321
1847 0 81.0928 13.4661 1092 111.067 356.549 449.483
1848 0 83.1433 15.804 1314 108.661 356.665 445.543
1849 0 85.3466 13.4393 1147 113.108 356.149 450.188
1850 0 85.3388 13.6983 1169 113.882 355.835 449.943
1851 0 90.2063 11.4404 1032 117.936 355.792 448.433
1852 0 91.1703 12.6028 1149 116.492 355.654 451.492
1853 0 95.196 15.0216 1430 112.29 354.959 452.862
1854 0 95.6248 13.6157 1302 118.892 354.627 446.27
1855 0 98.263 14.2169 1397 119.07 354.71 444.273
1856 0 102.153 11.4534 1170 122.854 353.853 451.856
1857 0 106.486 12.4336 1324 121.71 353.764 447.369
1858 0 105.332 12.845 1353 122.835 352.897 444.741
1859 0 107.296 13.4021 1438 123.435 351.402 440.734
1860 0 112.253 11.8927 1335 126.855 351.237 438.06
1861 0 120.428 12.7961 1541 123.703 350.173 438.554
1862 0 125.353 14.7663 1851 120.496 349.337 439.204
1863 1 68.1 8.37005 570 124.818 347.979 461.918
1864 0 74.0948 12.511 927 117.421 347.982 462.399
1865 0 74.2557 12.7667 948 121.041 347.998 458.072
1866 0 79.2666 12.0984 959 118.019 348.716 460.809
1867 0 79.3322 11.6598 925 120.667 347.92 463.846
1868 0 78.2548 11.3731 890 123.01 347.846 460.69
1869 0 84.3152 10.6861 901 125.497 346.958 452.502
1870 0 86.2913 11.832 1021 121.903 347.214 456.876
1871 0 89.2618 12.9619 1157 120.705 347.698 450.266
1872 0 88.1569 9.83474 867 126.923 347.551 450.343
1873 0 97.3539 8.03255 782 122.231 347.402 458.267
1874 0 98.2844 10.7342 1055 122.883 347.682 451.66
1875 0 99.2029 11.2194 1113 123.27 348.557 443.745
1876 0 103.249 11.603 1198 121.998 349.565 438.586
1877 0 108.546 14.0862 1529 115.203 350.088 443.496
1878 0 111.259 11.8912 1323 122.887 350 431.726
1879 0 111.259 11.8822 1322 133.738 350.017 431.63
1880 1 71.2041 10.9544 780 119.069 350.856 456.177
1881 0 72.0872 11.5832 835 117.225 354.181 455.89
1882 0 74.2266 13.095 972 114.223 353.713 454.41
1883 0 74.2266 13.0546 969 118.03 353.68 454.171
1884 0 78.1831 11.8696 928 116.917 355.17 449.756
1885 0 79.3487 13.0059 1032 115.264 356.017 452.916
1886 0 81.1635 14.403 1169 114.457 356.518 449.264
1887 0 84.2292 13.4633 1134 115.624 356.156 446.004
1888 0 88.1288 12.7314 1122 114.882 357.35 452.027
1889 0 90.3453 13.2381 1196 115.401 356.993 446.812
1890 0 91.3601 11.3616 1038 118.866 357.517 448.025
1891 0 95.373 14.8575 1417 112.774 357.099 445.658
1892 0 94.4157 12.6356 1193 115.065 357.397 445.009
1893 0 99.4986 11.5781 1152 117.657 357.16 440.887
1894 0 101.414 9.86054 1000 121.951 357.328 434.607
1895 0 110.385 15.2829 1687 113.465 356.456 436.016
1896 0 110.385 15.1289 1670 120.294 355.472 435.525
1897 0 116.264 14.7423 1714 115.327 355.405 440.37
1898 0 121.455 13.6429 1657 119.019 355.236 439.665
1899 1 70.3589 15.7478 1108 111.962 355.11 466.574
1900 0 72.4277 13.3236 965 115.759 354.019 464.602
1901 0 74.153 12.6226 936 118.501 354.3 467.935
1902 0 76.251 12.813 977 119.081 352.164 465.902
1903 0 77.2131 12.8864 995 119.561 351.618 467.319
1904 0 76.2293 10.9276 833 121.495 350.657 468.429
1905 0 83.3819 11.7412 979 122.255 351.249 462.041
1906 0 87.1934 14.2213 1240 118.39 349.894 458.144
1907 0 90.6911 16.3522 1483 115.074 350.032 458.164
1908 0 92.4256 14.6496 1354 118.134 347.719 457.014
1909 0 95.3284 16.333 1557 116.559 348.557 452.553
1910 0 95.7912 12.5899 1206 123.818 347.185 447.038
1911 0 99.6394 13.9302 1388 121.584 347.292 447.568
1912 0 103.69 13.2511 1374 122.187 347.101 445.672
1913 1 55.2961 11.6464 644 120.391 347.075 467.696
1914 0 54.3928 12.1523 661 120.399 347.484 466.787
1915 0 58.4248 14.9081 871 115.927 347.149 464.941
1916 0 58.4248 14.8054 865 128.065 347.16 464.903
1917 0 59.4032 12.1711 723 121.907 346.824 465.607
1918 0 62.3446 12.7998 798 120.531 347.781 462.823
1919 0 65.3427 14.753 964 118.536 348.601 464.044
1920 0 63.2949 12.2443 775 123.635 348.948 461.28
1921 0 64.1849 14.8477 953 120.522 349.984 458.489
1922 0 67.3647 13.2414 892 122.842 350.811 456.573
1923 0 71.1167 16.5925 1180 115.814 352.216 460.775
1924 0 71.1771 12.8693 916 124.852 351.099 455.421
1925 0 74.2078 13.543 1005 122.894 352.208 455.156
1926 0 76.1782 13.1927 1005 123.395 353.016 456.985
1927 0 80.2047 15.0864 1210 121.506 353.246 454.645
1928 0 80.2117 15.5962 1251 122.14 354.545 448.78
1929 0 84.2101 13.4307 1131 124.256 353.885 453.706
1930 0 87.2466 15.1983 1326 121.575 355.532 450.884
1931 0 87.2466 15.2327 1329 153.916 356.527 450.989
1932 0 94.2652 14.0243 1322 123.756 355.073 450.628
1933 0 95.2803 16.0054 1525 122.243 356.218 448.496
1934 0 96.3312 13.8896 1338 126.952 355.406 447.954
1935 0 103.496 15.8364 1639 122.682 356.026 446.833
1936 0 104.421 15.5141 1620 125.966 356.655 442.812
1937 0 106.312 14.8619 1580 127.985 356.668 442.605
1938 0 106.347 13.0329 1386 132.262 356.574 442.693
1939 0 113.42 14.195 1610 129.47 355.013 443.52
1940 0 118.477 15.9609 1891 121.912 355.495 444.482
1941 0 121.674 14.0622 1711 125.731 354.921 445.969
1942 0 127.611 12.256 1564 129.934 353.804 442.878
1943 0 128.738 15.4811 1993 124.608 352.494 442.206
1944 1 75.4227 12.4366 938 125.61 349.926 467.123
1945 0 78.5238 13.2699 1042 126.481 351.425 463.843
1946 0 82.4721 14.4412 1191 126.008 350.524 459.682
1947 0 83.4539 15.0143 1253 124.8 349.629 458.73
1948 0 86.4067 14.1077 1219 125.312 349.337 457.845
1949 0 89.324 12.5498 1121 128.07 349.491 451.742
1950 0 92.3922 14.4709 1337 126.618 348.131 449.289
1951 0 94.5053 13.978 1321 125.654 347.008 454.228
1952 0 97.2465 16.0828 1564 123.661 347.161 448.256
1953 0 98.2595 10.513 1033 133.359 347.336 446.82
1954 0 105.167 13.0554 1373 128.736 346.977 441.631
1955 0 109.337 14.7708 1615 124.8 346.957 443.135
1956 0 111.33 10.8686 1210 131.546 347.016 434.164
1957 1 63.1641 14.4544 913 118.202 346.927 461.494
1958 0 66.3905 13.0742 868 118.699 346.461 465.613
1959 0 64.3137 9.99787 643 125.983 346.353 460.958
1960 0 63.0898 11.9671 755 124.011 346.208 455.858
1961 0 66.0662 11.4128 754 124.768 347.881 456.889
1962 0 64.066 9.58387 614 129.464 347.332 450.151
1963 0 74.1779 10.8523 805 125.145 348.343 449.937
1964 0 75.1667 11.867 892 122.664 348.321 452.746
1965 0 80.1479 13.0509 1046 122.043 348.917 447.627
1966 0 85.2831 11.8429 1010 123.3 349.919 445.617
1967 0 82.143 12.3443 1014 123.066 350.905 442.564
1968 0 88.2444 9.67767 854 125.63 351.6 442.927
1969 0 91.7834 15.3405 1408 117.613 353.289 437.388
1970 0 91.7678 13.1963 1211 123.766 354.256 433.768
1971 0 93.4732 10.7838 1008 124.26 354.573 436.588
1972 0 102.274 13.9038 1422 118.785 354.295 435.707
1973 0 94.2921 12.228 1153 124.215 355.085 431.079
1974 0 100.15 13.989 1401 120.368 356.498 437.173
1975 0 104.162 11.7029 1219 123.601 355.666 426.132
1976 0 103.307 10.9867 1135 123.93 356.082 424.946
1977 0 110.234 12.4553 1373 122.916 355.35 423.848
1978 0 114.33 13.9946 1600 120.021 356.523 428.328
1979 1 63.2218 13.4447 850 115.911 356.146 457.92
1980 0 65.1531 7.84306 511 123.918 354.642 454.998
1981 0 77.3826 12.0053 929 116.964 355.425 459.999
1982 0 79.1664 12.4421 985 116.611 354.762 462.325
1983 0 81.3663 14.2811 1162 114.999 354.844 458.065
1984 0 84.2467 15.1341 1275 113.771 353.479 459.029
1985 0 90.4047 17.3442 1568 110.669 353.297 456.467
1986 0 89.1848 14.4644 1290 117.309 351.45 452.048
1987 1 99.2879 11.3307 1125 119.582 351.411 459.547
1988 0 92.2138 13.4036 1236 121.057 349.382 443.222
1989 0 98.2287 14.4459 1419 119.94 349.824 447.364
1990 0 101.266 11.8698 1202 123.413 349.197 451.204
1991 0 104.19 12.0549 1256 125.334 348.771 445.967
1992 0 105.28 12.0915 1273 125.761 348.636 442.564
1993 0 107.221 10.6788 1145 129.247 348.348 442.891
1994 0 113.228 12.8413 1454 125.208 347.572 442.752
1995 0 115.264 12.0073 1384 127.925 346.327 437.434
1996 0 120.279 14.1504 1702 124.116 346.118 440.402
1997 0 121.189 9.86065 1195 133.136 346.915 435.265
1998 0 125.212 11.0772 1387 131.873 346.167 428.121
1999 0 127.232 11.0192 1402 132.524 346.695 430.618
2000 0 133.335 11.2949 1506 131.97 347.527 419.349
2001 1 77.2289 10.0222 774 129.522 346.512 453.977
2002 0 82.2526 14.4068 1185 121.605 347.008 454.179
2003 0 84.1821 13.1501 1107 126.089 348.023 447.227
2004 0 90.2759 15.2422 1376 121.176 347.725 453.218
2005 0 86.214 10.4391 900 133.163 348.1 443.633
2006 0 90.2085 12.1718 1098 128.905 349.066 447.329
2007 0 96.1613 11.7303 1128 130.293 349.826 442.765
2008 0 97.2754 12.3156 1198 130.594 350.556 434.078
2009 0 101.232 14.4717 1465 127.57 350.885 436.046
2010 0 103.296 13.5629 1401 129.548 352.148 432.959
2011 0 105.212 13.0308 1371 131.686 353.321 432.664
2012 0 108.184 10.7686 1165 133.242 352.324 437.66
2013 0 110.375 15.0215 1658 127.697 354.317 431.822
2014 0 111.135 10.1498 1128 138.296 353.106 422.668
2015 0 119.192 11.7793 1404 134.359 354.587 427.65
2016 1 180.448 7.79174 1406 142.117 354.688 414.815
2017 0 176.301 5.4112 954 147.884 355.277 412.911
2018 0 175.277 6.53253 1145 145.405 355.564 412.519
2019 1 186.92 14.0862 2633 134.316 355.942 400.815
2020 0 186.897 12.6594 2366 139.865 355.908 388.261
2021 1 140.314 11.8235 1659 136.474 354.863 417.207
2022 0 144.45 10.6957 1545 136.294 355.664 423.682
2023 0 150.323 13.0652 1964 133.608 355.128 421.398
2024 0 158.511 10.5166 1667 139.923 354.145 407.841
2025 1 96.2159 12.9812 1249 127.362 354.042 452.968
2026 0 97.2752 10.6913 1040 127.483 353.657 448.988
2027 0 103.319 11.0434 1141 129.907 353.94 448.582
2028 0 104.448 10.7709 1125 130.524 352.543 448.632
2029 0 111.392 13.071 1456 126.474 352.137 445.718
2030 0 111.327 12.1624 1354 127.233 351.422 449.378
2031 0 115.207 11.0931 1278 131.132 349.959 443.074
2032 0 119.343 13.1134 1565 126.001 350.191 442.204
2033 0 123.268 11.5683 1426 130.255 348.716 438.186
2034 0 125.328 13.2612 1662 128.136 348.714 436.348
2035 0 129.311 15.1959 1965 126.788 348.328 424.251
2036 0 132.505 13.2297 1753 131.115 348.153 412.885
2037 0 133.479 13.6426 1821 130.902 346.949 412.613
2038 1 248.944 11.2917 2811 142.804 347.757 361.079
2039 0 244.572 11.1337 2723 141.839 347.226 367.303
2040 0 250.736 7.58566 1902 138.068 347.014 398.88
2041 0 253.917 7.8057 1982 146.347 346.844 372.516
2042 0 257.592 8.97931 2313 141.588 347.272 385.153
2043 0 257.551 11.8462 3051 142.512 346.901 362.07
2044 0 257.673 10.8587 2798 137.106 346.377 387.975
2045 1 92.2897 10.7704 994 130.997 348.287 438.534
2046 0 94.2317 11.8007 1112 131.352 349.557 436.184
2047 0 101.262 13.1935 1336 126.475 350.135 438.437
2048 0 102.269 15.6352 1599 125.489 350.292 432.829
2049 0 106.164 10.4084 1105 132.422 350.293 436.272
2050 0 110.219 14.0176 1545 131.894 350.915 425.684
2051 1 200.461 14.297 2866 136.471 351.824 386.215
2052 1 112.239 12.4645 1399 134.449 352.921 422.578
2053 0 117.401 11.499 1350 136.129 353.457 424.583
2054 0 120.232 12.6755 1524 135.177 354.442 414
2055 0 121.208 11.6329 1410 136.53 353.981 415.751
2056 0 128.189 13.8467 1775 131.006 355.589 413.117
2057 0 131.251 12.9828 1704 133.888 355.528 409.947
2058 1 88.3587 9.07664 802 134.436 356.182 426.847
2059 0 82.262 9.87091 812 130.585 357.218 429.244
2060 0 81.2838 10.3219 839 131.392 355.95 425.285
2061 0 88.4001 12.7036 1123 126 355.774 430.55
2062 0 89.2942 11.7925 1053 125.212 356.905 434.336
2063 0 88.4684 11.247 995 126.218 356.986 439.608
2064 0 94.2908 14.3598 1354 123.925 356.058 437.47
2065 0 99.3987 15.9358 1584 120.323 357.268 441.35
2066 0 96.3618 7.83505 755 133.531 354.819 438.49
2067 0 106.388 11.6743 1242 127.611 355.485 440.36
2068 0 108.674 14.8886 1618 123.247 355.294 439.337
2069 0 112.337 13.5663 1524 125.389 355.383 432.569
2070 0 114.395 13.6457 1561 125.79 353.68 437.006
2071 0 115.327 10.7 1234 131.823 352.519 428.251
2072 0 124.612 12.8398 1600 126.896 352.512 439.251
2073 0 121.423 11.1099 1349 131.514 350.448 436.36
2074 1 74.1149 10.1869 755 128.38 349.865 462.368
2075 0 77.2223 8.40431 649 130.003 346.801 465.777
2076 0 78.145 10.2502 801 130.034 347.086 452.881
2077 0 81.3166 13.9824 1137 123.871 347.568 455.832
2078 0 83.2547 9.40487 783 130.635 347.266 455.243
2079 0 86.0883 12.7079 1094 125.592 346.441 452.631
2080 0 89.1557 10.8462 967 128.177 346.659 448.663
2081 0 88.275 9.5497 843 131.177 347.639 450.372
2082 0 93.305 12.8182 1196 125.477 345.956 449.023
2083 0 88.2363 8.5339 753 132.449 346.204 450.216
2084 0 99.196 13.801 1369 123.955 346.708 444.89
2085 0 99.1723 15.1655 1504 122.376 347.09 442.773
2086 0 101.484 10.6519 1081 129.857 346.87 440.789
2087 1 153.314 7.61834 1168 133.966 347.119 431.435
2088 1 109.332 13.8935 1519 126.687 348.001 434.271
2089 0 114.293 10.5431 1205 129.615 349.035 437.118
2090 0 115.324 12.0356 1388 127.349 349.081 429.833
2091 0 117.303 12.668 1486 126.721 349.432 422.608
2092 0 123.291 11.0633 1364 125.956 350.265 433.304
2093 0 126.394 13.5054 1707 123.66 350.096 431.99
2094 1 68.1154 11.4071 777 122.699 350.887 454.918
2095 0 76.5268 14.6223 1119 117.153 352.073 451.535
2096 0 75.1126 11.4628 861 123.912 352.938 451.11
2097 0 80.1487 17.5174 1404 114.749 353.68 449.12
2098 0 80.2366 12.9866 1042 122.417 353.532 446.509
2099 0 82.1922 12.8236 1054 122.255 353.287 443.418
2100 0 86.2623 9.66819 834 128.044 353.406 433.87
2101 0 87.2628 11.9409 1042 123.228 354.224 443.632
2102 0 90.2101 12.0386 1086 123.604 355.246 447.603
2103 0 92.2819 12.0284 1110 123.329 354.237 446.288
2104 0 91.3584 9.53388 871 128.931 355.242 444.204
2105 0 99.5524 13.0986 1304 122.262 356.132 440.932
2106 0 102.39 14.8843 1524 120.629 355.842 444.976
2107 0 103.426 12.5017 1293 125.513 356.489 441.435
2108 0 104.27 6.52152 680 133.535 355.594 451.338
2109 0 111.507 13.452 1500 124.039 354.473 440.623
2110 0 113.285 13.9736 1583 123.431 355.759 442.338
2111 0 118.358 10.7639 1274 127.188 352.854 447.705
2112 0 120.276 11.9641 1439 128.662 353.602 440.764
2113 0 125.409 13.0214 1633 126.216 353.108 440.094
2114 0 130.224 11.6415 1516 129.102 351.887 437.525
2115 1 250.768 11.8556 2973 143.002 351.368 369.474
2116 0 250.729 7.16311 1796 149.307 350.383 377.233
2117 1 208.673 11.137 2324 137.759 349.495 390.332
2118 0 217.539 13.2574 2884 133.596 349.192 396.489
2119 1 158.421 15.1243 2396 125.581 350.332 423.816
2120 1 93.369 13.2485 1237 125.235 347.937 451.753
2121 0 94.418 12.7094 1200 125.699 348.353 451.528
2122 0 99.4226 12.4117 1234 125.543 348.25 451.491
2123 0 100.346 12.4569 1250 126.211 348.46 449.373
2124 0 100.46 11.4673 1152 129.038 347.58 441.377
2125 0 104.5 11.6268 1215 125.526 347.886 440.468
2126 0 107.234 10.2953 1104 127.262 347.325 437.315
2127 0 107.466 11.7153 1259 122.126 349.209 449.784
2128 0 115.159 11.2974 1301 126.136 347.494 432.848
2129 0 114.155 11.3004 1290 130.018 345.51 432.7
2130 0 119.308 13.3855 1597 125.701 348.024 426.294
2131 0 121.266 10.176 1234 129.724 348.876 433.336
2132 0 126.348 12.426 1570 127.046 348.966 428.266
2133 1 60.0974 9.63436 579 117.694 349.278 460.746
2134 0 60.0614 8.39142 504 120.26 349.268 458.06
2135 0 63.1262 9.31468 588 119.452 350.328 452.568
2136 0 64.1473 11.3801 730 118.022 351.219 456.781
2137 0 67.1946 8.81023 592 121.348 351.829 456.593
2138 0 69.1535 11.0913 767 116.486 351.678 457.047
2139 0 72.1955 14.9871 1082 110.852 351.641 457.986
2140 0 76.3025 16.0152 1222 111.409 352.664 454.099
2141 0 75.397 10.2524 773 121.771 353.532 450.541
2142 0 76.3324 10.9652 837 120.384 353.676 453.097
2143 0 87.391 21.2264 1855 104.197 354.485 443.007
2144 0 89.5196 26.2289 2348 100.565 355.188 448.324
2145 0 88.3092 15.7288 1389 115.853 354.858 447.217
2146 0 89.2218 16.8569 1504 115.499 356.217 450.506
2147 0 89.3179 13.9054 1242 120.432 354.862 451.188
2148 0 93.1756 12.3423 1150 122.252 357.107 453.114
2149 0 97.1577 9.2427 898 125.864 356.295 453.362
2150 0 97.3486 11.2071 1091 125.455 356.822 446.84
2151 0 104.518 12.9165 1350 121.39 355.325 448.494
2152 0 107.169 11.3839 1220 123.232 354.348 452.03
2153 0 104.327 13.1317 1370 121.425 354.38 451.814
2154 0 103.192 5.93069 612 125.647 353.07 463.619
2155 1 65.2463 9.64039 629 121.754 351.954 461.58
2156 0 69.1384 14.2468 985 114.718 351.21 469.504
2157 0 70.1813 13.9353 978 116.637 350.637 471.391
2158 0 73.2179 14.6549 1073 115.632 351.477 464.415
2159 0 73.2179 14.5729 1067 115.619 351.456 464.4
2160 0 78.1814 16.9478 1325 116.044 349.563 465.029
2161 0 80.1906 11.6472 934 125.627 349.784 459.57
2162 0 84.3178 13.2712 1119 122.128 348.065 461.062
2163 0 85.158 11.8251 1007 124.835 348.272 459.816
2164 0 91.2378 13.01 1187 122.541 347.34 460.824
2165 0 88.0967 10.9993 969 126.587 346.883 455.606
2166 0 100.181 9.39298 941 125.593 347.966 457.243
2167 0 97.1971 14.0745 1368 121.122 347.476 449.569
2168 0 99.36 15.4589 1536 118.275 346.827 446.873
2169 0 101.298 14.5512 1474 119.116 347.904 449.86
2170 0 105.267 13.765 1449 120.606 348.378 443.67
2171 0 107.481 9.17372 986 127.956 347.545 437.187
2172 0 114.174 15.091 1723 118.402 348.54 436.508
2173 1 60.158 10.8049 650 115.758 347.406 465.394
2174 0 63.2564 10.4179 659 114.669 349.445 463.464
2175 0 61.2438 12.2951 753 114.722 348.996 454.951
2176 0 63.4903 10.1275 643 121.135 349.425 446.09
2177 0 65.304 11.7757 769 117.255 350.248 451.153
2178 0 67.4021 9.13918 616 123.05 350.125 447.049
2179 0 69.3033 12.3804 858 117.196 351.548 447.231
2180 0 70.469 13.2257 932 115.878 353.288 447.935
2181 0 73.3373 13.0493 957 114.662 353.332 455.301
2182 0 73.208 13.086 958 115.66 354.142 454.563
2183 0 74.3029 11.1436 828 119.929 354.239 448.37
2184 0 81.602 15.3795 1255 112.026 355.253 450.572
2185 0 81.3085 16.3575 1330 111.801 355.885 450.007
2186 0 82.3965 16.9182 1394 111.735 356.573 449.226
2187 0 87.444 11.9963 1049 116.923 356.785 452.689
2188 0 90.4741 16.2477 1470 112.806 357.586 447.088
2189 0 92.7522 12.3016 1141 120.194 357.017 444.333
2190 0 94.5405 13.2642 1254 120.038 357.53 443.813
2191 0 97.5795 14.1731 1383 119.439 356.925 443.138
2192 0 98.3815 12.9394 1273 122.382 356.843 446.916
2193 0 104.448 14.9644 1563 118.207 356.79 446.951
2194 0 107.349 14.6997 1578 119.371 356.603 445.334
2195 0 110.276 15.8057 1743 118.927 356.314 440.276
2196 0 116.226 14.5837 1695 120.381 355.448 438.262
2197 1 68.168 10.4301 711 122.515 354.346 466.129
2198 0 71.1919 12.7964 911 117.327 354.801 464.681
2199 0 72.3134 11.2704 815 119.594 352.237 456.531
2200 0 77.2422 14.2927 1104 115.12 352.604 455.862
2201 0 80.2712 18.1385 1456 108.584 351.585 462.534
2202 0 81.1937 13.9297 1131 117.855 351.102 456.583
2203 0 80.2161 8.00338 642 126.735 350.414 453.422
2204 0 88.5999 14.2099 1259 115.141 350.838 457.165
2205 0 90.6335 11.7065 1061 120.07 349.14 454.433
2206 0 91.6457 13.6395 1250 118.41 348.436 452.066
2207 0 96.4999 15.6062 1506 115.224 348.087 451.216
2208 0 97.3914 14.5085 1413 117.786 348.313 450.823
2209 0 100.445 13.7787 1384 119.22 346.542 447.99
2210 0 102.53 14.6396 1501 117.309 347.565 446.565
2211 0 107.568 15.0881 1623 117.198 348.567 442.988
2212 0 110.548 16.3186 1804 115.79 347.624 438.122
2213 0 113.361 16.9017 1916 114.921 348.396 434.41
2214 0 115.524 14.0577 1624 119.691 347.886 429.081
2215 0 121.652 14.9525 1819 117.443 348.997 431.853
2216 0 124.543 14.4448 1799 118.076 348.206 429.924
2217 0 124.543 14.4368 1798 143.245 348.22 429.771
2218 1 75.6402 12.3876 937 115.089 349.374 452.604
2219 0 75.3063 15.5631 1172 111.294 349.903 451.241
2220 0 78.3496 14.18 1111 114.552 351.294 442.139
2221 0 78.4377 12.8 1004 117.993 351.266 448.766
2222 0 81.7981 16.6752 1364 113.248 352.106 442.123
2223 0 86.4062 15.647 1352 114.536 351.942 444.754
2224 0 89.4181 13.901 1243 116.693 352.836 445.644
2225 0 91.4689 15.7649 1442 114.218 353.187 436.865
2226 0 92.4215 15.7864 1459 113.722 353.362 430.84
2227 0 95.1575 15.5111 1476 114.129 353.818 429.894
2228 0 99.3727 12.1563 1208 119.615 355.466 427.226
2229 0 103.412 11.7394 1214 118.902 354.549 432.917
2230 0 105.689 16.5108 1745 112.975 356.741 427.181
2231 0 109.619 15.1159 1657 114.033 356.468 434.039
2232 0 111.553 16.9605 1892 111.403 355.975 437.735
2233 0 116.42 13.709 1596 115.073 357.076 438.013
2234 0 116.418 13.2282 1540 119.132 356.99 431.275
2235 0 120.364 13.7001 1649 119.233 356.473 432.637
2236 0 127.261 13.3113 1694 120.451 355.944 426.244
2237 0 134.509 15.419 2074 116.291 354.844 432.771
2238 0 137.415 13.9286 1914 118.376 355.737 436.118
2239 0 141.467 13.7205 1941 120.464 354.984 427.156
2240 0 150.405 14.1684 2131 120.1 354.014 427.555
2241 0 153.311 14.2977 2192 119.075 353.503 423.516
2242 1 87.2778 14.6773 1281 114.198 353.607 457.824
2243 0 87.3295 13.5578 1184 116.003 351.235 459.647
2244 0 88.272 11.5552 1020 121.294 351.029 453.285
2245 0 92.5672 13.7954 1277 117.464 349.983 450.094
2246 0 95.4746 12.4536 1189 119.261 350.143 452.003
2247 0 99.3411 12.8144 1273 118.66 348.153 451.259
2248 0 102.496 13.7957 1414 118.163 347.919 448.429
2249 0 106.551 14.8098 1578 117.385 347.944 446.003
2250 0 107.586 17.558 1889 114.046 348.99 443.367
2251 0 110.679 13.2274 1464 120.579 348.028 441.723
2252 0 113.644 12.2047 1387 123.165 348.405 439.516
2253 0 117.444 13.1467 1544 121.528 346.945 435.6
2254 0 120.653 13.2943 1604 123.319 347.64 431.512
2255 0 122.646 12.2629 1504 124.784 348.329 426.715
2256 0 128.794 11.6854 1505 125.601 348.343 426.59
2257 1 68.5751 12.2639 841 117.763 348.238 455.094
2258 0 68.45 12.2279 837 120.538 347.682 448.724
2259 0 66.4372 8.29354 551 135.45 346.75 451.9
2260 0 72.509 11.8882 862 119.361 349.346 448.334
2261 0 74.3664 10.2331 761 121.171 348.933 450.129
2262 0 76.5157 10.194 780 122.978 350.263 444.938
2263 0 81.4766 14.6545 1194 115.631 350.265 446.441
2264 0 85.5641 14.831 1269 115.321 351.068 445.779
2265 0 87.4435 15.1412 1324 115.999 353.037 441.251
2266 0 87.4597 12.2914 1075 120.806 352.842 442.486
2267 0 92.3828 16.7455 1547 114.197 353.43 443.871
2268 0 94.5987 12.8014 1211 120.462 354.261 442.709
2269 0 97.6599 15.5847 1522 116.762 353.652 438.672
2270 0 100.546 16.5099 1660 116.696 354.163 435.978
2271 0 102.637 15.2478 1565 118.916 354.307 438.87
2272 0 106.339 13.0056 1383 116.36 355.261 441.36
2273 0 108.511 14.3765 1560 116.77 356.265 432.969
2274 0 114.572 15.1346 1734 114.963 356.683 434.231
2275 0 117.321 12.632 1482 119.057 357.264 433.906
2276 0 123.697 15.7643 1950 114.341 357.011 433.736
2277 0 128.377 15.1662 1947 113.356 356.388 439.773
2278 0 131.588 14.9709 1970 116.451 355.474 432.494
2279 0 134.524 13.6407 1835 120.145 356.28 425.953
2280 0 140.468 14.1242 1984 119.841 354.135 421.049
2281 0 143.512 16.6257 2386 134.948 352.013 426.883
2282 0 152.363 14.4982 2209 120.93 354.409 419.943
2283 0 158.562 16.9587 2689 117.153 354.156 422.53
2284 0 164.679 16.8692 2778 118.316 352.77 416.343
2285 1 93.2728 13.7125 1279 117.236 351.473 459.266
2286 0 95.35 13.1201 1251 121.773 350.389 451.11
2287 0 96.3064 13.4571 1296 122.87 350.232 447.647
2288 0 104.301 12.1188 1264 123.349 348.466 449.664
2289 0 106.313 12.7642 1357 122.973 347.993 448.013
2290 0 111.208 10.4489 1162 127.138 346.485 444.212
2291 0 111.216 15.1507 1685 144.004 344.379 445.214
2292 0 111.196 15.1174 1681 143.638 342.388 445.174
2293 1 125.311 15.1783 1902 119.307 347.087 437.685
2294 0 126.365 12.1156 1531 126.726 346.799 431.868
2295 0 133.43 14.397 1921 122.489 347.52 431.002
2296 0 133.307 13.7352 1831 125.546 346.824 426.162
2297 0 138.152 14.6867 2029 124.426 347.17 423.826
2298 0 142.516 13.7599 1961 125.047 346.846 426.969
2299 0 145.409 12.8259 1865 127.251 347.368 420.024
2300 0 152.742 14.148 2161 124.808 347.724 416.373
2301 0 155.446 15.9219 2475 122.093 348.349 413.418
2302 0 160.423 15.0602 2416 125.024 349.109 410.169
2303 0 168.717 14.6696 2475 125.591 349.05 408.775
2304 1 101.25 9.96548 1009 118.761 349.518 449.306
2305 0 100.151 7.71836 773 124.171 350.823 431.241
2306 0 105.269 11.6748 1229 116.509 350.221 438.949
2307 0 106.197 8.47479 900 125.957 351.721 429.224
2308 0 109.119 13.6364 1488 118.778 351.573 428.066
2309 0 112.091 13.1144 1470 119.498 352.654 430.887
2310 0 113.106 8.46994 958 127.954 352.621 425.708
2311 0 120.283 14.125 1699 117.396 352.975 426.749
2312 0 125.294 12.4587 1561 119.533 353.978 425.192
2313 0 128.312 11.2538 1444 121.706 354.456 422.076
2314 0 130.402 11.0735 1444 123.668 354.477 421.403
2315 0 134.41 8.56337 1151 126.668 354.446 422.546
2316 0 142.384 10.0222 1427 125.142 354.589 419.211
2317 0 142.361 10.1081 1439 140.531 354.599 419.37
2318 1 94.2527 12.4559 1174 111.152 355.284 446
2319 0 98.3912 11.3425 1116 113.011 355.032 444.737
2320 0 100.462 9.47622 952 118.517 355.193 446.357
2321 0 103.453 7.66535 793 121.617 354.7 446.023
2322 0 109.395 8.03511 879 121.75 353.81 444.164
2323 0 112.357 8.3929 943 122.251 353.451 438.298
2324 0 114.283 9.79147 1119 120.139 353.127 441.158
2325 0 121.538 8.738 1062 120.704 353.35 440.514
2326 0 125.469 8.84682 1110 118.87 352.811 444.616
2327 0 126.299 4.37057 552 129.524 351.779 427.332
2328 1 221.386 13.2755 2939 125.336 351.079 383.746
2329 0 228.712 10.8302 2477 129.127 350.235 386.958
2330 1 190.542 5.86748 1118 131.218 349.255 391.943
2331 1 83.2511 12.4443 1036 106.097 348.312 456.701
2332 0 88.1104 11.3607 1001 106.756 347.764 458.049
2333 0 89.2396 13.2004 1178 105.468 347.107 455.736
2334 0 88.1764 11.976 1056 107.159 347.754 454.536
2335 0 95.3253 12.1059 1154 108.299 346.673 452.285
2336 1 232.707 11.5897 2697 123.164 348.326 373.201
2337 0 241.867 9.19515 2224 127.8 347.405 366.153
2338 0 247.07 10.3088 2547 125.112 346.605 374.179
2339 0 256.725 10.7041 2748 123.638 346.864 374.238
2340 0 264.165 9.38807 2480 125.919 347.221 366.198
2341 1 114.202 11.1294 1271 112.208 346.819 436.167
2342 1 13.0029 13.6893 178 91.0337 349.472 485.472
2343 0 9.01075 5.10501 46 100.152 350.913 483.587
2344 0 14.0123 3.85376 54 103.148 351.167 477.407
2345 0 17.1351 8.05363 138 96.0145 352.891 480.116
2346 0 13.0216 7.14198 93 99.7634 352.151 477.763
2347 0 9.00046 1.9999 18 105.278 352.5 477.611
2348 0 11.0121 2.90591 32 102.625 353.531 480.031
2349 1 77.3555 11.389 881 105.291 351.532 449.789
2350 0 80.3565 11.7476 944 110.464 352.318 445.202
2351 0 81.203 11.6006 942 109.656 352.447 442.562
2352 0 84.4614 15.9244 1345 107.21 352.652 446.195
2353 0 82.2143 12.4674 1025 110.248 353.622 452.041
2354 0 90.4496 11.6197 1051 113.232 354.118 442.148
2355 0 96.387 12.0763 1164 108.74 355.028 449.327
2356 1 173.342 15.7896 2737 110.255 356.45 405.41
2357 1 247.947 10.5869 2625 123.342 357.141 369.767
2358 1 182.423 10.6566 1944 117.74 355.899 408.274
2359 1 106.321 10.7504 1143 113.442 356.505 439.451
2360 0 109.295 13.276 1451 110.22 355.084 443.176
2361 1 139.265 7.4534 1038 115.899 354.936 445.861
2362 0 143.341 10.625 1523 115.731 355.348 432.094
2363 1 119.676 13.1856 1578 112.017 355.459 414.281
2364 0 119.676 13.219 1582 130.727 355.468 414.338
2365 0 130.537 16.6313 2171 109.779 354.438 423.657
2366 0 134.453 12.4654 1676 116.246 354.053 416.385
2367 0 144.383 12.5984 1819 113.731 353.429 426.458
2368 0 146.539 10.3317 1514 117.376 351.993 426.87
2369 1 160.319 13.6914 2195 111.236 350.402 433.466
2370 0 158.512 11.8919 1885 116.167 349.382 425.921
2371 1 92.1667 12.4665 1149 115.095 349.769 456.795
2372 0 97.3557 15.1095 1471 110.371 350.746 459.983
2373 0 100.495 13.5728 1364 112.379 349.655 459.635
2374 0 105.254 15.3628 1617 111.256 348.913 455.419
2375 0 106.302 13.885 1476 113.906 348.66 456.174
2376 0 110.283 14.3358 1581 114.383 347.35 448.672
2377 0 111.385 13.1437 1464 114.61 347.097 453.464
2378 0 111.385 13.1437 1464 149.822 347.083 453.599
2379 0 113.493 12.2474 1390 115.819 347.453 451.496
2380 0 121.401 14.4068 1749 113.612 347.898 448.039
2381 0 125.326 13.8918 1741 116.082 347.298 439.614
2382 0 130.598 16.3478 2135 112.456 348.06 436.282
2383 0 131.404 17.4805 2297 111.757 348.245 434.851
2384 0 134.484 13.0722 1758 118.852 348.39 434.02
2385 0 138.492 15.9865 2214 114.023 348.341 430.575
2386 0 143.558 15.2134 2184 116.137 349.185 418.496
2387 1 77.703 12.2904 955 116.908 348.253 450.131
2388 0 80.3089 13.473 1082 109.532 349.436 451.591
2389 0 83.5138 12.0459 1006 113.428 349.655 446.188
2390 0 86.4351 14.508 1254 111.5 349.986 453.82
2391 0 88.3082 14.3815 1270 111.908 352.14 452.353
2392 0 92.6011 15.5614 1441 111.279 351.895 447.552
2393 0 95.5663 12.63 1207 115.975 351.305 442.316
2394 0 97.4705 14.2607 1390 114.11 353.332 443.18
2395 0 101.43 15.0548 1527 112.048 353.066 445.993
2396 0 104.309 14.7351 1537 113.323 354.607 443.553
2397 0 108.584 16.7889 1823 111.504 352.947 442.021
2398 0 111.575 13.9637 1558 115.418 355.273 439.951
2399 0 113.651 16.1459 1835 112.393 355.373 442.977
2400 0 117.486 14.6485 1721 113.537 355.271 440.614
2401 0 119.637 12.3206 1474 118.178 355.476 439.888
2402 0 124.224 13.5239 1680 116.559 356.039 438.156
2403 1 74.1096 10.6464 789 114.913 356.447 466.271
2404 0 72.1036 8.41845 607 118.442 353.67 461.957
2405 0 77.3745 11.7093 906 114.693 354.252 457.693
2406 0 84.5048 14.0584 1188 110.001 352.925 458.638
2407 0 85.5109 13.776 1178 111.92 352.713 454.971
2408 0 89.5558 15.1972 1361 108.677 353.697 457.104
2409 0 92.3989 16.1257 1490 108.46 350.686 452.979
2410 0 94.755 15.8303 1500 108.452 350.742 454.803
2411 0 93.7152 13.6157 1276 139.973 349.76 451.016
2412 0 102.436 13.589 1392 108.172 349.999 449.032
2413 0 103.436 12.6745 1311 109.759 348.764 449.93
2414 0 110.692 18.8903 2091 99.1937 347.843 454.417
2415 0 112.652 15.4281 1738 105.912 347.546 446.526
2416 0 118.165 13.515 1597 106.274 347.466 452.638
2417 1 69.2625 13.6437 945 105.456 347.117 472.028
2418 0 71.1078 13.3741 951 106.679 347.47 469.046
2419 0 72.2489 14.104 1019 106.329 346.773 466.72
2420 0 73.3074 12.3044 902 108.65 346.073 463.697
2421 0 72.2853 11.7866 852 110.601 346.303 464.13
2422 0 75.1554 13.8912 1044 107.735 346.134 460.33
2423 0 78.3014 12.669 992 110.282 346.494 455.452
2424 0 78.2036 10.8051 845 112.991 346.499 452.791
2425 0 84.2809 12.3872 1044 109.109 346.726 455.861
2426 0 85.1766 16.7417 1426 103.417 347.502 451.289
2427 0 86.2983 10.3826 896 112.011 347.289 454.855
2428 0 92.2547 13.7662 1270 107.09 347.115 448.01
2429 0 92.1462 14.9328 1376 105.922 348.57 446.69
2430 0 93.2192 10.1588 947 113.444 348.716 448.715
2431 0 100.334 16.0764 1613 105.139 349.639 439.967
2432 0 99.2139 13.0929 1299 110.656 350.633 436.108
2433 0 103.272 13.4499 1389 109.728 350.847 436.269
2434 0 105.15 12.6676 1332 111.842 351.487 432.764
2435 0 112.391 13.5776 1526 109.338 352.06 433.942
2436 0 115.335 14.4535 1667 108.283 351.454 436.134
2437 0 118.372 14.3531 1699 109.108 352.751 435.048
2438 0 115.272 13.5072 1557 112.057 353.372 431.26
2439 0 121.432 15.9513 1937 107.973 354.46 434.775
2440 0 126.337 14.2397 1799 111.106 353.449 429.875
2441 0 129.492 14.3021 1852 110.901 355.109 432.576
2442 0 136.424 13.8245 1886 111.235 353.992 433.397
2443 1 75.2414 7.56232 569 118.687 354.302 456.524
2444 0 79.2108 11.0086 872 113.642 353.362 454.595
2445 0 84.2481 13.5196 1139 107.112 353.35 464.105
2446 0 90.1626 14.374 1296 105.566 352.004 459.976
2447 0 90.1264 13.2703 1196 108.445 352.366 457.741
2448 0 94.3059 17.5705 1657 102.825 351.888 461.392
2449 0 94.244 14.1441 1333 109.658 351.302 456.596
2450 0 100.243 15.0235 1506 107.996 350.41 455.064
2451 0 101.296 12.3006 1246 112.574 349.533 449.322
2452 0 105.51 12.3685 1305 111.804 349.457 453.222
2453 0 109.382 10.7605 1177 115.057 347.89 451.482
2454 0 111.37 13.0107 1449 112.36 348.571 449.968
2455 0 112.311 11.5483 1297 115.768 347.918 445.204
2456 0 118.405 13.7832 1632 112.259 346.517 443.739
2457 0 120.266 14.5511 1750 112.899 346.35 439.587
2458 0 123.357 10.9276 1348 118.149 345.861 439.154
2459 0 122.322 15.0504 1841 113.251 345.601 433.182
2460 0 122.324 15.1074 1848 117.889 344.617 433.041
2461 1 85.3212 5.84849 499 119.124 345.224 457.254
2462 0 83.2443 9.17781 764 112.31 345.368 457.347
2463 0 84.1495 10.7784 907 111.497 345.211 455.297
2464 0 83.2544 13.5969 1132 108.264 344.915 453.484
2465 0 84.2352 12.8094 1079 109.869 344.903 450.913
2466 0 88.2814 13.6495 1205 108.427 345.919 444.81
2467 0 86.1782 10.8496 935 114.281 345.904 446.351
2468 0 92.2741 13.5466 1250 109.266 346.743 446.502
2469 0 91.3141 10.9512 1000 114.029 347.23 443.338
2470 0 97.2019 14.1252 1373 108.706 347.664 438.871
2471 0 100.164 15.6843 1571 105.753 347.994 444.701
2472 0 101.331 15.2964 1550 108.17 348.312 438.839
2473 0 106.421 14.5554 1549 109.094 348.762 429.688
2474 0 105.161 11.8104 1242 113.79 349.415 437.582
2475 0 109.245 13.4102 1465 109.429 349.496 441.242
2476 0 114.191 14.4319 1648 108.865 350.664 435.819
2477 1 197.455 11.0354 2179 117.386 351.457 404.344
2478 1 118.3 11.5469 1366 114.569 351.599 430.499
2479 0 121.229 12.0104 1456 114.108 350.802 421.056
2480 0 127.129 10.4539 1329 116.348 353.253 422.995
2481 1 76.1704 11.5399 879 107.598 353.202 453.432
2482 0 78.0895 12.6521 988 104.856 352.346 455.236
2483 0 85.0691 12.3547 1051 103.686 351.819 457.474
2484 0 87.267 13.0977 1143 103.322 353.472 454.576
2485 0 90.1145 10.4201 939 105.217 352.22 456.357
2486 0 91.3547 15.2045 1389 100.359 352.388 456.9
2487 0 93.1161 13.2738 1236 103.642 352.184 455.368
2488 0 101.244 11.3982 1154 106.299 352.029 449.666
2489 0 105.301 12.469 1313 104.818 351.869 450.814
2490 0 107.246 16.4668 1766 101.86 350.958 454.094
2491 0 112.251 16.2404 1823 103.292 350.794 447.099
2492 0 116.331 12.4558 1449 108.028 350.264 449.702
2493 0 120.385 16.3974 1974 107.506 350.76 447.025
2494 0 123.278 13.3195 1642 112.372 350.826 445.842
2495 0 128.593 11.3381 1458 116.01 348.49 438.025
2496 0 130.444 8.49407 1108 118.027 348.626 442.059
2497 0 134.509 13.9322 1874 110.696 347.564 440.82
2498 1 81.2484 11.8156 960 111.281 348.303 460.715
2499 0 83.2711 17.449 1453 103.764 347.707 460.645
2500 0 82.2101 10.6678 877 114.16 347.652 456.799
2501 0 89.1917 15.0799 1345 107.31 346.407 455.532
2502 0 92.5528 13.549 1254 110.274 346.84 451.878
2503 0 94.2801 12.3992 1169 112.669 346.534 446.814
2504 0 95.3038 13.9029 1325 110.301 345.948 447.472
2505 0 102.431 14.1168 1446 107.49 346.363 451.961
2506 0 108.561 15.208 1651 106.188 346.113 448.204
2507 0 109.512 13.6697 1497 108.523 347.128 447.093
2508 0 113.464 15.6878 1780 106.749 346.183 443.263
2509 0 114.362 13.9819 1599 109.267 347.685 444.694
2510 0 117.214 12.3194 1444 111.781 347.855 439.244
2511 0 120.268 12.8713 1548 112.604 348.953 430.944
2512 0 125.616 15.2289 1913 109.096 349.008 433.321
2513 0 125.549 10.5058 1319 115.685 349.039 433.149
2514 0 128.594 18.4534 2373 104.643 348.189 434.275
2515 0 136.607 12.4957 1707 112.531 349.89 426.552
2516 0 136.493 14.052 1918 110.867 349.98 424.92
2517 0 134.244 9.68389 1300 116.535 350.99 430.676
2518 1 83.3755 12.7256 1061 110.742 351.935 447.73
2519 0 86.1977 15.9285 1373 106.023 352.266 445.648
2520 0 91.6145 14.5174 1330 105.705 352.652 450.594
2521 0 92.1419 13.4358 1238 108.234 352.498 447.496
2522 0 98.1815 14.6667 1440 106.783 354.311 445.33
2523 0 101.465 17.9569 1822 102.451 353.881 446.422
2524 0 101.359 13.5953 1378 108.903 354.704 447.377
2525 0 109.24 13.2003 1442 109.161 353.458 440.225
2526 0 112.196 13.8775 1557 108.385 353.084 441.283
2527 0 112.25 12.2227 1372 112.255 353.189 439.324
2528 0 119.253 15.0185 1791 107.414 352.865 442.018
2529 0 121.137 10.4675 1268 113.713 352.233 441.975
2530 1 136.198 10.1617 1384 112.609 351.978 444.215
2531 0 136.473 14.0394 1916 108.502 351.072 438.666
2532 0 138.208 15.1293 2091 107.902 350.7 434.06
2533 0 145.392 15.7918 2296 106.323 349.176 438.379
2534 0 148.497 10.8285 1608 115.919 349.033 419.769
2535 0 145.367 10.5251 1530 117.586 348.996 411.792
2536 1 92.2219 11.4832 1059 109.39 348.085 458.149
2537 0 93.267 9.96065 929 112.998 346.92 455.258
2538 0 103.098 15.1991 1567 103.726 347.2 456.983
2539 0 100.237 14.1266 1416 107.564 346.555 451.167
2540 0 100.433 10.9924 1104 111.038 345.579 455.723
2541 0 104.306 11.6868 1219 110.857 345.49 449.31
2542 0 110.418 14.9251 1648 106.753 345.466 444.055
2543 0 112.337 11.5813 1301 112.056 345.361 442.023
2544 0 114.465 13.2617 1518 108.188 346.098 447.682
2545 0 121.229 12.8023 1552 110.726 346.511 440.057
2546 0 121.429 15.0623 1829 108.423 346.901 431.15
2547 0 126.711 13.9688 1770 110.05 346.772 433.682
2548 0 128.504 10.4744 1346 115.14 346.168 432.215
2549 0 133.231 10.6432 1418 114.087 346.379 433.587
2550 0 140.427 13.4162 1884 109.99 347.27 430.058
2551 1 81.1398 13.1994 1071 108.716 346.22 453.972
2552 0 85.2115 12.6509 1078 107.866 347.647 457.056
2553 0 85.2785 11.9139 1016 111.12 346.612 446.938
2554 0 90.0918 14.1744 1277 108.76 348.22 449.576
2555 0 91.1068 15.3446 1398 107.904 348.272 447.667
2556 0 92.1728 14.1256 1302 109.364 348.881 447.309
2557 0 96.3552 15.6504 1508 107.505 349.218 445.792
2558 0 96.216 10.4348 1004 116.153 350.379 443.021
2559 0 102.451 12.7281 1304 113.377 350.35 437.899
2560 0 102.133 10.457 1068 116.055 350.42 444.478
2561 0 108.362 12.4952 1354 114.408 351.53 439.038
2562 0 110.293 12.0588 1330 113.628 351.147 442.985
2563 0 110.273 9.53995 1052 118.164 354.826 444.069
2564 1 173.374 12.3259 2137 114.326 353.732 421.664
2565 0 182.287 14.2083 2590 114.473 354.203 400.332
2566 0 186.555 12.1305 2263 118.431 354.025 399.631
2567 0 189.437 12.421 2353 117.477 353.536 403.282
2568 0 199.372 12.3588 2464 118.284 353.296 394.418
2569 0 203.471 9.96703 2028 122.08 351.865 393.632
2570 1 89.1918 13.9026 1240 106.715 353.477 463.353
2571 0 91.2948 14.7325 1345 108.736 354.517 455.993
2572 0 93.1123 10.9975 1024 114.788 353.048 453.512
2573 0 94.1841 11.2545 1060 114.922 353.038 454.39
2574 0 98.3903 12.6232 1242 111.484 351.521 458.344
2575 0 101.161 13.3945 1355 109.133 351.54 456.825
2576 0 108.061 16.5647 1790 104.737 350.16 449.611
2577 0 110.15 13.6632 1505 109.52 349.605 452.619
2578 0 114.187 15.895 1815 106.685 348.301 448.262
2579 0 118.153 14.3796 1699 109.073 348.683 445.434
2580 0 120.218 12.0947 1454 112.564 348.316 441.537
2581 0 126.135 15.5786 1965 105.667 347.066 447.405
2582 0 125.308 8.13997 1020 116.936 347.476 448.224
2583 0 131.296 15.5298 2039 106.716 347.176 439.284
2584 1 74.0889 7.9634 590 116.449 346.953 461.137
2585 0 78.2227 15.4175 1206 105.096 345.536 461.851
2586 0 80.2796 12.8426 1031 108.131 346.216 457.15
2587 0 86.379 15.9414 1377 102.545 346.302 454.799
2588 0 88.186 20.0372 1767 97.352 346.426 456.014
2589 0 91.1621 17.4415 1590 100.599 346.679 449.981
2590 0 94.2028 14.7979 1394 103.977 346.499 449.037
2591 0 95.1222 13.94 1326 105.941 348.008 446.603
2592 0 97.3401 17.3413 1688 101.517 348.081 446.341
2593 0 100.15 14.0789 1410 106.905 348.699 442.762
2594 0 103.258 14.672 1515 106.991 349.115 439.085
2595 0 104.331 16.7256 1745 105.541 348.819 436.551
2596 0 109.534 14.0505 1539 109.53 349.6 431.525
2597 0 110.216 17.1027 1885 105.794 349.23 434.392
2598 0 115.357 15.5431 1793 106.79 349.898 433.616
2599 0 119.296 20.8221 2484 98.901 351.28 442.547
2600 0 121.451 15.7512 1913 107.058 352.055 434.722
2601 0 126.293 16.3747 2068 106.876 351.898 427.943
2602 0 127.225 13.6294 1734 111.521 352.484 424.219
2603 0 131.449 14.4087 1894 108.295 353.42 431.411
2604 0 137.236 15.4552 2121 107.76 353.195 422.815
2605 0 140.658 18.4205 2591 101.767 353.393 429.346
2606 0 146.43 14.3823 2106 106.802 352.816 416.038
2607 0 151.724 13.0697 1983 111.844 353.325 418.364
2608 0 158.534 16.1795 2565 107.71 352.899 406.261
2609 0 165.522 15.7501 2607 108.057 352.637 406.369
2610 0 170.679 21.3442 3643 100.393 352.596 417.891
2611 0 179.414 16.2529 2916 106.944 351.931 411.717
2612 1 100.381 12.2633 1231 103.703 351.296 452.903
2613 0 103.649 11.1819 1159 107.296 351.041 451.424
2614 0 110.414 16.4201 1813 103.236 351.092 444.172
2615 0 114.703 14.725 1689 105.059 349.587 447.059
2616 0 119.879 14.9818 1796 105.73 349.197 437.611
2617 0 119.343 12.5856 1502 109.491 349.006 437.997
2618 0 122.762 12.5772 1544 109.177 347.698 438.29
2619 0 126.675 14.699 1862 106.119 346.926 434.977
2620 0 131.569 13.8483 1822 109.435 347.309 425.508
2621 0 134.557 13.4664 1812 110.496 346.682 425.254
2622 0 141.565 13.7251 1943 110.126 346.324 421.504
2623 0 142.063 12.4944 1775 110.675 345.19 427.983
2624 1 152.892 14.9322 2283 109.206 345.413 413.74
2625 0 152.526 13.1715 2009 111.341 345.286 411.683
2626 0 160.926 18.176 2925 102.973 345.119 417.793
2627 0 164.619 12.204 2009 113.441 345.356 400.854
2628 0 172.741 13.8705 2396 110.826 345.746 404.419
2629 0 177.543 13.5516 2406 110.724 346.532 405.641
2630 0 184.584 14.6004 2695 110.175 346.297 393.922
2631 0 187.74 15.0687 2829 109.222 346.553 394.511
2632 0 194.906 16.2745 3172 108.129 346.614 386.897
2633 0 200.932 13.2234 2657 112.341 347.734 382.709
2634 1 213.679 10.5532 2255 115.995 348.842 391.342
2635 0 213.491 23.5607 5030 99.8159 348.367 390.804
2636 0 221.636 16.0489 3557 109.944 349.351 381.175
2637 1 55.4649 9.57362 531 100.145 349.535 465.768
2638 0 55.307 9.0766 502 103.448 348.177 464.727
2639 0 49.1046 5.00972 246 109.463 349.435 459.886
2640 0 59.1345 13.9513 825 95.063 350.022 465.029
2641 0 62.134 9.49561 590 100.781 349.834 463.681
2642 1 262.796 13.0862 3439 104.042 354.244 371.141
2643 1 77.4073 11.2522 871 92.791 354.633 457.618
2644 0 77.225 8.41696 650 95.0785 354.315 467.868
2645 0 81.4646 12.7049 1035 90.5111 352.814 466.099
2646 0 83.446 9.0238 753 96.6202 353.116 457.053
2647 0 85.5054 10.8765 930 93.7226 352.712 460.159
2648 0 86.6422 13.3076 1153 93.3408 352.411 456.964
2649 0 88.6804 9.23541 819 98.083 351.291 447.267
2650 0 91.642 17.8084 1632 89.7083 350.113 457.328
2651 0 96.0323 11.3399 1089 94.4215 351.075 459.501
2652 0 96.7316 8.19794 793 96.7654 348.776 456.419
2653 0 99.598 10.9641 1092 96.8214 348.793 450.78
2654 0 105.82 13.5041 1429 91.8334 347.883 458.188
2655 0 104.353 13.6364 1423 93.5762 346.5 452.351
2656 0 109.685 14.0129 1537 93.4528 346.27 445.869
2657 0 112.76 14.7038 1658 91.3981 346.007 452.843
2658 0 112.59 12.8786 1450 94.1 344.768 448.35
2659 0 117.518 13.3001 1563 94.4472 345.193 444.534
2660 0 121.3 10.5029 1274 98.2637 344.385 430.666
2661 0 124.855 12.054 1505 96.0538 344.279 433.496
2662 0 129.409 11.2666 1458 97.2963 344.332 428.719
2663 0 132.467 14.7131 1949 94.3597 344.309 427.189
2664 0 136.711 11.0452 1510 97.2894 343.994 427.672
2665 0 137.464 10.6283 1461 90.4921 343.316 451.366
2666 0 145.398 13.1089 1906 96.8158 343.279 417.101
2667 0 147.389 11.7987 1739 100.292 343.611 421.634
2668 0 149.816 9.44494 1415 102.5 344.545 419.792
2669 1 98.5516 15.5959 1537 92.6649 344.781 448.966
2670 0 100.588 15.7275 1582 91.055 344.397 451.326
2671 0 96.4096 12.4158 1197 94.4653 345.155 451.702
2672 0 102.242 10.5828 1082 98.2033 345.579 442.339
2673 0 104.323 16.075 1677 93.9529 347.348 443.156
2674 0 262.513 19.6791 5166 95.2815 347.132 389.102
2675 0 279.782 28.9833 8109 88.9028 347.215 348.1
2676 1 101.526 11.5339 1171 100.911 347.745 447.316
2677 0 105 14.5905 1532 98.3427 348.108 444.913
2678 0 107.076 11.898 1274 100.279 349.83 446.11
2679 0 110.757 20.4953 2270 92.2366 350.174 439.665
2680 0 112.899 17.8744 2018 92.2517 349.723 449.727
2681 0 118.472 16.5271 1958 94.5889 350.168 441.017
2682 0 122.366 13.6966 1676 93.2762 350.699 451.293
2683 0 123.002 15.073 1854 96.3301 352.041 441.018
2684 0 126.102 12.8467 1620 100.872 350.813 432.138
2685 0 130.415 16.7235 2181 97.0454 351.646 425.756
2686 0 132.719 21.3684 2836 93.1061 351.376 429.82
2687 0 136.248 18.0847 2464 94.8807 351.608 439.63
2688 0 139.769 19.4535 2719 93.8544 351.059 440.752
2689 0 138.397 11.2069 1551 100.705 349.722 444.524
2690 0 144.697 19.8415 2871 94.7304 350.683 428.645
2691 0 150.362 14.5183 2183 98.1603 350.07 440.011
2692 1 15.3514 14.8521 228 88.7851 348.224 497.544
2693 0 21.0759 5.64626 119 87.4706 343.941 497.487
2694 0 24.1314 10.65 257 77.8171 342.124 496.669
2695 0 17.0904 8.60133 147 84.1497 342.707 500.415
2696 0 15.0428 8.9744 135 85.8 342.711 498.333
2697 0 14.086 11.1458 157 86.0828 342.108 498.904
2698 0 19.0523 14.4339 275 81.2655 342.331 497.767
2699 0 14.1204 9.13571 129 87.814 342.55 498.38
2700 0 13.0304 6.21624 81 91.3333 340.247 499.247
2701 0 19.1653 9.6007 184 84.9565 340.413 495.603
2702 0 13.0081 10.3782 135 79.7333 338.089 498.652
2703 0 20.022 7.64161 153 81.0392 340.02 495.987
2704 0 15.0842 11.9993 181 78.2707 339.829 496.459
2705 1 144.022 10.3734 1494 90.4679 343.305 433.313
2706 0 148.486 20.8032 3089 82.6834 343.737 425.806
2707 1 199.53 10.0636 2008 90.8098 344.731 413.465
2708 1 21.3928 15.1453 324 74.7191 340.923 490.17
2709 0 22.6492 7.54993 171 80.6082 341.298 489.205
2710 0 16.0275 10.6068 170 79.9 341.153 492.218
2711 0 17.1822 12.9786 223 77.565 342.578 490.704
2712 0 14.14 11.0325 156 78.109 342.032 492.205
2713 0 13.064 6.73606 88 83.7045 341.75 491.091
2714 0 22.8032 17.8045 406 71.7906 341.002 489.675
2715 0 17.5442 10.6018 186 77.4086 341.457 491.57
2716 0 13.1589 7.5994 100 86.82 344.37 488.56
2717 0 14.1485 17.8111 252 78.2341 344.683 488.952
2718 0 20.1242 16.0503 323 79.9195 344.728 483.957
2719 0 14.2143 7.52763 107 89.514 345.234 487.075
2720 0 18.0216 12.0411 217 82.3272 346.558 487.166
2721 0 18.4441 12.5785 232 78.6638 345.06 489.543
2722 0 19.5342 11.2623 220 80.7909 345.709 490.109
2723 0 19.1484 15.9804 306 79.0915 347.516 488.507
2724 0 19.0465 9.24055 176 83.4943 347.21 490.659
2725 0 19.1255 13.3853 256 79.25 347.523 491.34
2726 0 20.0802 7.61944 153 84.3987 347.458 491.68
2727 0 18.2441 10.1403 185 83.1459 347.989 492.416
2728 0 18.0974 9.06209 164 86.0305 348.037 491.555
2729 0 21.1789 3.91899 83 90.5904 346.265 495.229
2730 0 25.2883 12.8518 325 74.6462 345.243 498.255
2731 0 23.1351 5.79207 134 83.0298 347.724 499.015
2732 0 17.4092 9.47777 165 85.1273 348.842 496.527
2733 0 17.2603 11.6452 201 82.7214 348.567 498.418
2734 0 26.5501 12.9566 344 80.6163 348.387 496.265
2735 0 17.3502 13.4869 234 80.6752 348.556 499.462
2736 0 18.1016 6.24256 113 89.0531 347.796 499.726
2737 0 16.0812 13.9293 224 82.567 347.161 499.987
2738 0 16.0186 9.48897 152 84.579 346 500.414
2739 0 13.0721 10.4038 136 85.9632 345.037 498.743
2740 0 15.0107 10.326 155 86.0452 345.045 499.587
2741 0 15.1336 9.44916 143 87.0769 344.993 501.427
2742 0 17.0585 5.68632 97 89.5876 343.557 501.443
2743 0 20.3757 11.0425 225 80.3467 343.396 500.409
2744 1 136.629 11.8423 1618 93.5593 345.497 438.174
2745 1 158.659 7.18522 1140 96.3868 345.018 443.243
2746 0 156.905 4.63336 727 99.7607 344.062 443.111
2747 0 159.231 10.3875 1654 91.9172 343.615 442.323
2748 0 156.876 19.9904 3136 87.5392 343.283 427.713
2749 0 160.64 13.9816 2246 93.2507 343.117 416.427
2750 0 169.456 18.3174 3104 88.768 343.377 418.333
2751 0 175.353 19.5833 3434 88.8002 344.696 416.645
2752 0 181.149 12.4318 2252 94.071 344.86 413.757
2753 0 187.206 14.5722 2728 92.0282 345.284 414.267
2754 1 108.704 7.39622 804 106.988 344.398 439.784
2755 0 116.299 19.897 2314 91.0977 344.678 448.481
2756 0 117.71 18.0869 2129 95.3706 345.048 433.007
2757 0 122.557 14.3281 1756 99.2409 345.912 433.383
2758 0 125.85 14.5808 1835 100.278 347.324 425.23
2759 0 133.835 9.20537 1232 102.744 347.128 442.581
2760 0 130.593 17.3823 2270 96.7665 347.942 430.805
2761 1 19.2058 12.4442 239 90.7699 346.498 485.678
2762 0 18.1032 13.202 239 89.8954 347.117 485.067
2763 1 142.697 12.8875 1839 102.059 349.477 431.034
2764 1 21.245 8.70794 185 93.2216 347.962 485.519
2765 0 19.2573 8.77589 169 95.6213 347.941 485.325
2766 0 17.1082 8.12477 139 97.0576 349.87 486.252
2767 0 16.0704 4.7292 76 103.5 348.474 488.553
2768 0 19.2331 7.79905 150 95.8733 350.82 486.88
2769 0 15.0348 9.91035 149 92.349 350.779 490.617
2770 0 17.4814 9.3242 163 91.8405 351.258 490.325
2771 0 15.0925 8.67983 131 91.8397 349.649 492.076
2772 0 14.034 13.111 184 88.9185 349.859 492.701
2773 0 20.0614 9.67032 194 89.5 349.928 492.469
2774 1 213.239 13.3278 2842 104.698 352.587 397.963
2775 0 210.496 13.0359 2744 105.483 351.899 398.338
2776 0 217.92 17.6762 3852 100.103 352.505 402.541
2777 1 22.5559 6.87181 155 81.3419 345.49 493.994
2778 0 25.5974 8.39928 215 78.0605 345.707 494.846
2779 0 12.001 6.9161 83 89.2892 345.819 498.265
2780 0 20.1401 6.80235 137 84.4672 345.701 496.635
2781 0 13.0203 13.3637 174 83.5058 346.287 499.937
2782 1 261.847 22.3489 5852 94.5591 349.505 387.315
2783 1 209.014 7.50189 1568 104.962 348.925 421.829
2784 0 209.869 9.16764 1924 105.993 348.914 410.505
2785 1 17.0126 8.81698 150 83.2933 343.653 498.713
2786 0 15.1466 19.6084 297 75.3232 344.236 496.145
2787 0 20.2234 14.2409 288 74.2674 342.944 494.649
2788 0 15.0283 12.3767 186 79.8333 343.22 495.113
2789 0 18.4411 12.7433 235 77.5702 342.774 495.17
2790 0 17.0998 8.88897 152 81.0987 340.355 493.743
2791 0 16.3718 14.5372 238 74.8571 339.861 491.097
2792 0 14.0153 7.34913 103 85.2136 340.039 493.01
2793 0 15.7136 10.1823 160 78.7938 338.825 487.562
2794 0 22.3665 18.6886 418 79.5478 342.639 490.096
2795 0 14.0554 11.597 163 88.6626 342.982 490.491
2796 0 13.1978 11.8202 156 88.4872 343.167 490.096
2797 0 15.0064 11.4618 172 86.7442 343.529 489.674
2798 0 16.0095 10.6187 170 89.6588 344.276 487.082
2799 1 298.911 17.0486 5096 100.369 347.906 361.718
2800 0 306.165 14.8939 4560 104.373 348.108 341.843
2801 0 314.463 16.393 5155 103.692 348.498 330.415
2802 0 322.273 12.5608 4048 107.827 348.711 320.121
2803 1 15.1271 7.66835 116 93.6983 345.181 483.172
2804 0 16.0469 12.0272 193 85.5492 346.798 481.762
2805 0 24.1211 12.5616 303 85.2277 348.033 478.789
2806 0 25.1591 5.64407 142 93.3239 346.993 478.634
2807 1 214.064 12.1039 2591 98.7819 350.401 407.72
2808 0 210.158 9.19309 1932 102.77 351.245 386.829
2809 0 215.012 18.9804 4081 96.3938 351.792 390.725
2810 0 219.42 14.4973 3181 101.996 352.312 382.966
2811 1 15.032 10.7105 161 88.7267 350.087 486.516
2812 0 14.016 5.56509 78 98.3333 350.115 488.949
2813 0 15.0477 7.77527 117 93.3162 350.957 489.282
2814 0 16.0157 11.6136 186 88.2419 352.285 487.946
2815 0 14.012 6.06621 85 96.9176 351.624 489.659
2816 0 14.0816 8.37974 118 93.0932 351.22 491.856
2817 0 15.0525 6.90913 104 92.5673 350.269 490.577
2818 0 14.0882 17.2484 243 81.0823 352.16 494.42
2819 0 14.2566 13.1869 188 84.266 350.447 495.883
2820 0 12.0727 15.6551 189 82.8254 351.402 496.317
2821 0 10.0012 7.09916 71 93.6197 348.324 496.099
2822 0 14.101 7.94269 112 90.0089 351.054 495.393
2823 1 321.29 14.9273 4796 104.404 352.789 336.056
2824 0 329.665 17.9 5901 99.6655 351.836 354.4
2825 0 365.048 34.0011 12412 86.8538 349.529 310.922
2826 1 274.853 11.2824 3101 107.467 351.13 338.195
2827 0 284.868 14.498 4130 101.648 349.495 370.882
2828 0 292.424 12.9196 3778 106.639 348.788 342.72
2829 0 299.763 20.0959 6024 97.6197 348.01 360.743
2830 0 306.768 19.1447 5873 99.8372 347.832 331.324
2831 0 316.566 15.2385 4824 101.927 347.953 352.194
2832 0 329.803 19.6086 6467 97.3846 348.067 347.642
2833 0 337.721 18.1926 6144 98.9486 348.019 341.115
2834 1 15.0722 7.23185 109 86.1743 341.661 493.358
2835 0 12.0413 5.14893 62 92.6452 340.403 491.742
2836 0 12.0413 5.14893 62 123.629 340.403 491.742
2837 0 12.0006 10.0828 121 82.9587 340.083 491.636
2838 0 15.102 15.0311 227 76.8899 341.674 491.04
2839 0 11.0244 9.88719 109 83.8991 340.45 488.569
2840 0 13.0212 14.3612 187 79.0588 342.556 489.182
2841 0 10.0108 5.69383 57 96.9649 341.719 488.509
2842 0 16.5048 17.0859 282 78.6773 342.862 487.986
2843 0 13.031 7.67401 100 93.84 343.65 486.94
2844 0 18.249 6.02772 110 92.9636 343.964 484.591
2845 0 17.0533 12.7248 217 83.5576 345.811 483.885
2846 0 14.1408 10.749 152 87.2566 345.309 485.046
2847 0 19.0492 11.4965 219 85.8219 347.055 480.849
2848 0 19.3299 11.3296 219 74.8219 346.731 480.196
2849 0 20.5814 27.6464 569 66.0193 349.054 480.708
2850 0 15.1137 7.27817 110 79.5636 346.464 486.764
