time division length width area intensity CMx CMy
0 0 34.0263 12.9312 440 130.968 816.159 473.927
1 0 38.0335 15.1445 576 122.288 815.592 475.252
2 0 41.054 15.5649 639 113.455 816.196 478.556
3 0 39.0554 12.1366 474 121.019 814.546 474.863
4 0 39.0746 15.5344 607 123.115 813.992 473.725
5 0 39.1506 15.0445 589 124.112 812.384 474.961
6 0 41.0699 12.9535 532 127.592 810.994 476.148
7 0 41.0699 12.9535 532 157.883 810.994 476.148
8 0 45.2253 17.6892 800 114.976 811.382 478.058
9 0 43.074 14.5331 626 125.812 810.075 472.196
10 0 44.0537 14.732 649 123.835 808.847 470.17
11 0 47.073 15.1892 715 121.61 808.411 472.915
12 0 45.1097 13.2788 599 127.566 808.771 470.791
13 0 49.0407 14.6001 716 121.934 807.839 468.648
14 0 53.1121 17.0959 908 116.22 808.326 469.372
15 0 54.1636 17.1333 928 117.453 808.155 467.199
16 0 56.2153 15.3695 864 117.898 808.508 466.322
17 0 54.0726 14.1476 765 119.298 807.68 463.995
18 0 55.0468 14.4422 795 128.156 807.545 458.828
19 0 59.1973 15.2372 902 122.417 806.376 457.245
20 0 63.1027 15.7046 991 118.638 808.136 458.777
21 0 63.0692 16.5215 1042 117.399 808.454 458.909
22 0 66.1329 15.2118 1006 120.234 808.13 456.666
23 0 69.2516 18.2379 1263 118.331 809.262 454.241
24 0 69.0936 18.6993 1292 117.146 809.228 454.476
25 0 72.0902 17.2423 1243 118.615 810.148 448.866
26 0 72.1206 16.2367 1171 120.043 810.748 448.488
27 0 80.2163 19.6967 1580 112.751 811.098 448.439
28 0 80.188 19.6164 1573 111.968 811.779 449.081
29 0 83.1905 16.1076 1340 117.547 812.827 442.84
30 0 85.1225 17.2692 1470 117.401 812.995 440.605
31 0 88.0996 12.361 1089 123.21 814.512 445.38
32 0 90.0689 13.7783 1241 122.319 815.322 442.874
33 1 45.0402 13.277 598 117.174 815.943 462.886
34 0 45.0557 14.8705 670 114.663 816.47 463.587
35 0 47.0606 13.8545 652 119.032 816.558 460.09
36 0 52.2279 14.7814 772 113.407 818.448 462.083
37 0 52.0672 15.1919 791 112.338 818.168 460.205
38 0 53.1603 15.8765 844 110.592 818.485 461.412
39 0 53.2716 12.915 688 115.756 817.751 460.07
40 0 52.1603 12.7492 665 116.108 818.134 459.34
41 0 61.0906 13.5045 825 114.676 817.818 464.667
42 0 62.0771 13.9665 867 112.378 817.927 463.401
43 0 67.1386 15.5201 1042 108.774 818.055 464.074
44 0 70.1236 16.0003 1122 114.565 816.085 459.116
45 0 70.1017 19.0152 1333 117.966 816.071 460.541
46 0 71.1295 12.7936 910 127.493 816.57 462.392
47 0 75.2303 15.2598 1148 126.435 815.044 456.753
48 0 77.2805 18.1288 1401 123.016 813.409 454.859
49 0 82.0647 15.6462 1284 122.644 814.139 457.135
50 0 86.3801 17.2725 1492 122.464 812.631 455.33
51 0 84.3939 15.8424 1337 143.366 810.502 453.402
52 1 47.1642 12.3399 582 125.716 810.971 470.701
53 0 49.0672 14.0216 688 123.318 810.783 469.142
54 0 49.0933 14.6863 721 122.825 809.418 470.989
55 0 53.0446 15.8734 842 119.153 810.078 468.855
56 0 55.1505 13.6535 753 122.566 810.228 467.005
57 0 54.1365 12.9487 701 124.993 808.749 465.297
58 0 56.2397 10.5086 591 126.846 808.68 467.616
59 0 60.0466 11.4245 686 127.437 810.076 463.535
60 0 61.1329 13.3316 815 124.518 808.788 462.625
61 0 65.2748 13.8032 901 124.751 807.952 458.274
62 0 68.0788 13.9544 950 121.585 808.292 454.007
63 0 70.2508 11.6298 817 124.586 809.017 454.744
64 0 71.2217 13.2825 946 122.697 808.044 449.548
65 0 78.2098 15.2922 1196 117.96 809.523 450.462
66 0 78.1036 13.6229 1064 121.542 809.142 444.892
67 0 82.1058 15.1634 1245 116.678 809.752 446.352
68 0 85.1257 15.8589 1350 116.929 810.303 442.949
69 0 89.1347 15.8188 1410 115.526 810.052 441.825
70 0 92.1189 16.0662 1480 114.478 810.512 438.497
71 0 91.1128 14.1802 1292 118.474 811.913 437.762
72 0 98.3331 14.3288 1409 115.271 812.211 443.834
73 0 95.2444 10.5098 1001 120.726 812.644 445.534
74 0 311.514 12.054 3755 127.196 813.239 357.382
75 0 317.604 14.3606 4561 124.938 814.047 353.812
76 0 321.145 14.0186 4502 125.341 813.662 357.532
77 1 115.403 12.6946 1465 121.251 814.574 427.566
78 0 119.189 16.6877 1989 116.478 815.566 426.233
79 0 124.146 13.025 1617 120.342 817.08 434.053
80 0 124.146 13.0169 1616 132.032 818.069 434.143
81 0 130.273 16.4807 2147 118.601 817.979 422.805
82 1 73.1997 6.59838 483 122.484 817 461.137
83 0 74.3684 13.1642 979 114.687 817.218 458.961
84 0 77.1591 16.5891 1280 110.187 816.879 459.452
85 0 81.3858 15.2484 1241 112.84 816.973 459.034
86 0 83.2084 14.1212 1175 116.581 815.931 455.062
87 0 88.1649 11.694 1031 118.648 815.86 456.412
88 0 88.1649 11.6033 1023 146.586 816.851 456.366
89 1 48.0922 11.8314 569 112.185 815.984 477.246
90 0 50.2852 15.5911 784 107.245 815.438 475.992
91 0 50.1001 15.1896 761 106.733 814.631 479.552
92 0 54.1053 16.1906 876 105.398 813.968 478.985
93 0 52.0499 9.74065 507 115.391 813.663 480.562
94 0 54.0745 11.4657 620 115.292 811.766 477.273
95 0 52.0586 8.10624 422 119.36 810.235 480.185
96 0 58.1693 11.3118 658 118.149 810.52 475.006
97 0 68.1154 8.83794 602 119.518 810.369 476.53
98 0 64.0788 14.0608 901 119.329 809.112 466.236
99 0 70.2308 13.8828 975 115.802 808.813 470.521
100 0 69.094 14.1257 976 120.345 807.75 462.829
101 0 72.2542 14.1722 1024 122.363 807.083 462.348
102 0 76.0801 17.7313 1349 114.264 806.124 462.288
103 0 77.2125 16.5129 1275 118.951 806.874 456.812
104 0 81.1319 15.9124 1291 119.873 806.543 456.122
105 0 83.1525 13.4452 1118 123.216 806.86 455.984
106 0 85.1926 14.1327 1204 122.213 807.374 452.154
107 0 84.1376 14.1673 1192 124.483 807.36 449.218
108 0 88.1277 11.8011 1040 128.05 808.08 448.544
109 0 89.2031 13.6879 1221 125.521 807.653 445.892
110 0 99.2603 14.8901 1478 123.087 808.643 441.135
111 0 99.2013 18.4272 1828 116.154 809.268 442.571
112 0 103.17 19.3564 1997 113.352 810.565 437.976
113 0 120.171 19.4888 2342 109.629 810.582 433.172
114 0 119.638 19.0073 2274 110.338 811.421 431.07
115 0 122.511 25.7935 3160 101.642 811.429 422.407
116 1 62.1394 14.4353 897 115.12 811.981 456.793
117 0 64.2241 15.8196 1016 115.024 813.159 453.875
118 0 66.0867 15.0862 997 114.777 813.397 456.72
119 0 69.0634 13.2632 916 117.393 813.413 455.755
120 0 72.2867 13.5433 979 116.625 814.59 455.535
121 0 73.0834 15.7491 1151 113.967 815.651 453.145
122 0 75.4106 15.462 1166 114.72 816.457 451.102
123 0 77.2129 15.7228 1214 113.703 816.77 454.423
124 0 79.3459 13.2332 1050 118.156 816.717 452.623
125 0 83.3504 20.5038 1709 107.875 816.901 450.468
126 0 85.0779 13.4465 1144 115.826 816.797 454.161
127 0 90.2434 17.076 1541 112.093 815.953 449.226
128 0 93.1607 15.6504 1458 114.453 816.732 450.826
129 0 93.6407 21.3903 2003 106.668 815.727 450.449
130 0 94.2319 11.7688 1109 116.41 814.803 457.876
131 0 98.1589 12.5511 1232 118.164 814.562 451.781
132 0 99.1927 12.9445 1284 115.944 814.868 452.731
133 1 110.133 9.47942 1044 115.532 813.668 460.602
134 0 111.228 14.6006 1624 112.83 812.506 443.98
135 0 114.414 13.7221 1570 113.446 812.799 445.738
136 0 113.066 11.7896 1333 117.494 811.353 442.767
137 0 117.406 10.4424 1226 120.172 812.264 442.508
138 1 205.578 9.54869 1963 128.121 810.895 402.827
139 0 214.831 9.00706 1935 129.202 810.568 399.98
140 1 65.2156 9.07758 592 116.422 808.949 460.37
141 1 38.06 12.8744 490 106.347 807.586 478.647
142 0 39.117 9.79113 383 108.248 807.41 481.446
143 0 40.0641 10.009 401 108.132 807.012 479.646
144 0 38.0256 9.46732 360 107.725 806.286 478.964
145 0 39.0297 11.2478 439 100.328 807.237 476.964
146 0 39.0227 14.3506 560 94.3375 808.361 475.207
147 0 41.0332 8.16411 335 111.684 805.251 466.809
148 0 38.1159 5.85058 223 116.26 805.61 469.049
149 0 42.0862 8.24499 347 114.628 805.127 472.124
150 0 35.0459 10.6147 372 114.185 805.298 466.927
151 0 34.0146 0.999572 34 127.912 806.206 468.294
152 0 35.0897 4.44575 156 118.865 806.442 467.532
153 0 32.0185 4.27877 137 119.46 806.365 470.606
154 0 30.0892 10.8345 326 112.991 806.417 468.914
155 0 34.0529 8.1344 277 118.141 807.246 460.209
156 1 119.384 8.74486 1044 128.477 808.649 412.469
157 0 123.331 8.8218 1088 129.863 808.349 402.325
158 0 126.326 8.77099 1108 128.773 810.193 420.28
159 0 126.207 7.04399 889 133.109 810.614 414.301
160 1 83.112 6.78602 564 116.285 811.362 461.067
161 0 85.1558 7.89142 672 116.759 812.82 458.744
162 0 84.6554 8.31607 704 120.172 812.643 453.638
163 1 43.0646 12.4232 535 109.372 813.482 466.613
164 0 44.2464 11.8654 525 109.493 812.562 464
165 0 46.0791 12.956 597 104.71 813.134 466.963
166 0 46.1165 12.2733 566 103.825 813.816 469.369
167 0 47.0671 10.7718 507 107.913 814.18 469.337
168 0 48.0335 11.8667 570 106.333 814.418 471.267
169 0 49.0537 12.7004 623 106.183 815.456 473.162
170 0 49.0674 11.8612 582 108.452 814.677 471.139
171 0 49.144 8.91258 438 112.767 814.014 472.975
172 0 54.0283 11.8271 639 109.099 814.563 471.045
173 0 56.0408 13.4366 753 107.695 813.744 470.356
174 0 57.0543 13.9341 795 108.206 813.882 471.823
175 0 58.1652 13.049 759 109.739 813.685 470.503
176 0 60.1119 11.1126 668 112.283 812.289 472.346
177 0 63.0999 12.6308 797 109.961 812.698 472.049
178 0 64.1263 10.2142 655 114.037 810.899 472.163
179 0 67.1961 13.6317 916 110.402 810.524 466.471
180 0 68.1068 11.8931 810 113.375 809.615 467.058
181 0 71.0899 10.8314 770 113.673 809.108 469.677
182 0 75.0657 13.8279 1038 110.035 808.264 464.32
183 1 38.0775 12.9736 494 109.219 807.522 482.073
184 0 38.0412 9.96289 379 113.781 807.828 479.203
185 0 43.0247 15.5724 670 105.639 807.098 476.813
186 0 44.0364 10.3551 456 114.072 806.925 477.395
187 0 45.1398 13.8459 625 105.226 805.202 476.174
188 0 45.0725 13.6225 614 106.005 805.269 474.738
189 0 45.1104 11.7933 532 109.273 804.944 473.885
190 0 54.0795 11.9454 646 104.262 805.291 477.272
191 0 47.121 13.0091 613 108.894 804.86 471.935
192 0 49.0557 12.5572 616 110.565 805.495 469.313
193 0 52.1164 12.9902 677 110.295 804.982 468.117
194 0 53.1486 13.0013 691 109.674 805.017 463.211
195 0 55.1042 13.3202 734 109.88 804.993 464.793
196 0 56.05 11.2757 632 112.597 805.177 464.286
197 0 56.05 11.2221 629 127.31 804.192 464.318
198 0 59.2042 13.3436 790 109.378 805.739 461.316
199 0 56.0921 10.7502 603 115.002 806.92 459.31
200 0 56.0921 10.8928 611 129.412 807.964 459.246
201 0 60.1951 11.6621 702 110.519 807.536 464.469
202 0 65.2048 12.4377 811 110.726 807.545 457.007
203 0 70.2416 12.9553 910 109.937 810.157 455.125
204 0 71.0529 12.8355 912 111.062 809.69 455.059
205 0 74.1895 13.5464 1005 111.57 810.107 451.643
206 0 72.1216 11.1478 804 115.139 811.202 453.847
207 0 76.1098 12.0615 918 113.863 811.939 451.312
208 0 84.5486 14.4651 1223 109.379 812.706 452.686
209 0 84.2107 14.4162 1214 110.442 813.453 450.698
210 0 86.2096 11.4256 985 114.827 812.605 449.224
211 0 90.1764 14.1168 1273 111.039 814.496 446.35
212 0 91.3072 10.3387 944 116.891 814.378 449.006
213 0 94.3238 10.9092 1029 116.884 813.88 450.976
214 0 95.1884 8.28882 789 119.904 815.105 452.52
215 0 99.1393 10.7122 1062 119.524 814.777 448.562
216 0 107.329 7.60278 816 122.121 814.107 452.924
217 0 105.137 8.29391 872 124.343 813.588 441.159
218 0 112.255 11.5808 1300 118.3 813.153 445.752
219 0 112.402 12.4197 1396 118.975 812.413 444.612
220 0 119.187 13.1223 1564 117.997 810.749 443.402
221 1 137.37 10.934 1502 121.927 810.611 441.531
222 0 139.192 4.51895 629 125.108 809.949 458.281
223 0 139.343 6.04981 843 123.427 808.127 457.652
224 0 136.862 10.032 1373 121.661 807.742 437.911
225 1 221.773 12.3595 2741 125.538 806.272 401.389
226 0 221.121 9.91311 2192 133.076 805.976 398.052
227 1 74.1603 8.13104 603 116.048 804.945 464.194
228 0 78.2272 9.51076 744 115.306 804.839 457.325
229 0 79.235 8.20344 650 117.058 804.465 458.28
230 0 87.3715 9.09908 795 115.371 804.238 457.6
231 0 90.3209 10.9941 993 110.453 803.318 460.036
232 1 48.1533 9.42822 454 111.101 803.432 476.518
233 0 48.0473 11.9257 573 109.312 803.497 474.808
234 0 47.1385 8.44321 398 112.912 802.362 475.94
235 1 145.649 13.766 2005 117.478 803.565 429.427
236 0 143.379 11.5568 1657 124.529 802.887 416.71
237 0 144.258 12.2974 1774 120.918 803.103 431.223
238 1 52.2464 9.49348 496 113.986 802.246 468.911
239 0 54.0485 9.50997 514 115.753 802.969 465.615
240 0 58.2108 12.1799 709 112.162 804.686 463.693
241 0 60.0321 12.6766 761 112.534 804.206 459.298
242 0 61.0478 15.7254 960 108.575 805.39 460.862
243 0 62.0451 12.7488 791 118.137 806.33 458.362
244 0 61.0909 9.78869 598 118.104 805.259 452.557
245 0 59.0866 9.76533 577 118.478 806.877 454.393
246 0 58.0845 7.21362 419 117.618 807.885 457.048
247 0 70.2036 9.82856 690 118.246 807.223 448.564
248 0 74.113 8.09575 600 118.092 806.973 457.593
249 0 79.1262 12.6633 1002 115.101 807.416 448.721
250 0 80.1152 13.1061 1050 115.176 808.237 450.245
251 1 44.0219 13.675 602 107.522 809.141 469.086
252 0 44.0546 11.4176 503 110.342 810.3 469.579
253 0 47.0823 12.8923 607 106.606 811.76 473.389
254 0 46.0388 10.1653 468 110.049 811.564 472.288
255 1 184.748 14.9772 2767 120.405 811.615 405.317
256 1 89.2426 13.8163 1233 114.846 811.759 452.387
257 0 99.311 12.3551 1227 114.015 812.569 452.232
258 0 100.194 14.452 1448 112.9 812.028 446.425
259 1 54.0526 12.1548 657 108.747 812.26 470.653
260 0 57.1061 12.8358 733 106.494 810.877 473.76
261 0 56.1008 9.21555 517 113.573 810.855 471.072
262 0 60.1245 11.077 666 110.65 809.991 471.991
263 0 59.0281 10.1308 598 113.192 809.942 468.252
264 0 63.1407 8.64735 546 111.623 810.528 479.82
265 0 71.1344 7.18359 511 116.29 810.039 474.333
266 0 73.0714 15.437 1128 103.709 808.732 473.123
267 1 135.302 11.0641 1497 120.809 807.633 442.023
268 0 135.394 8.70056 1178 127.601 806.826 432.288
269 1 73.2481 7.98655 585 114.458 806.171 474.138
270 0 78.2406 11.2985 884 116.014 805.848 464.93
271 0 72.2482 14.2011 1026 115.436 806.076 469.151
272 1 42.0473 11.4633 482 110.147 805.444 482.444
273 0 43.0977 14.0843 607 108.428 804.47 478.33
274 0 43.2977 10.7165 464 113.614 804.569 477.31
275 0 44.2365 8.90668 394 116.805 803.932 477.525
276 0 44.1189 13.7356 606 110.485 802.974 475.038
277 0 45.0303 11.2591 507 115.144 802.75 473.694
278 1 108.245 10.3284 1118 124.317 802.752 446.13
279 0 110.407 9.06647 1001 122.2 803.816 456.346
280 0 107.354 12.8733 1382 118.527 803.491 441.078
281 1 57.1739 11.7186 670 113.969 803.548 466.218
282 0 58.1873 13.4565 783 113.335 803.759 461.838
283 0 57.1751 11.3161 647 117.521 803.743 465.076
284 0 59.1838 12.8244 759 116.76 804.767 462.901
285 1 181.539 14.7407 2676 124.987 804.021 399.222
286 0 187.851 13.8674 2605 127.017 805.03 399.865
287 0 187.725 15.2084 2855 124.591 806.449 407.724
288 1 71.2757 13.525 964 116.781 805.907 455.361
289 0 72.1809 13.4939 974 116.694 808.033 456.308
290 0 75.1232 13.1917 991 118.121 808.814 453.342
291 0 77.091 14.6969 1133 115.427 809.078 451.279
292 0 80.3173 15.1275 1215 116.302 809.766 450.491
293 0 84.1431 14.5704 1226 117.192 811.1 448.09
294 1 44.1028 12.1308 535 119.555 811.901 466.527
295 0 47.0364 16.7742 789 111.17 813.037 465.105
296 0 50.2598 12.8134 644 118.918 812.475 460.787
297 0 52.1008 14.5487 758 114.933 814.546 464.889
298 0 49.0342 12.2975 603 120.229 814.458 465.945
299 0 53.0606 13.0982 695 117.948 813.384 466.367
300 0 54.1935 13.8762 752 118.89 813.485 465.677
301 0 56.0415 13.6149 763 120.28 813.465 466.05
302 0 57.058 11.9878 684 120.607 812.759 470.352
303 0 58.1747 12.5484 730 122.245 812.64 467.027
304 0 63.0999 14.2472 899 119.499 812.901 466.994
305 0 63.09 14.2019 896 144.157 812.908 467.074
306 0 66.0422 17.7917 1175 113.604 812.562 468.81
307 0 69.2451 16.1022 1115 116.674 811.639 464.432
308 0 70.072 15.2272 1067 119.284 811.386 465.012
309 0 73.1056 14.1986 1038 120.471 810.163 465.87
310 0 76.0704 15.6434 1190 120.513 809.73 461.892
311 0 77.1623 14.2945 1103 123.711 807.643 456.07
312 0 82.1902 15.9386 1310 119.142 807.767 454.747
313 0 82.123 12.9805 1066 123.909 807.416 453.708
314 0 82.123 13.1145 1077 145.19 807.41 453.669
315 1 48.0713 12.3358 593 120.939 806.69 469.666
316 0 51.0725 15.1941 776 115.424 806.014 471.144
317 0 49.0759 11.8592 582 121.04 805.093 471.589
318 0 49.0759 11.9611 587 140.748 805.102 471.56
319 0 54.1056 13.3443 722 118.99 803.972 468.777
320 0 54.132 13.855 750 117.94 803.297 468.511
321 0 57.0386 12.2023 696 120.494 803.603 465.898
322 0 61.2082 15.5861 954 113.418 803.988 465.038
323 0 60.1671 14.2104 855 119.522 803.246 459.642
324 0 61.0746 12.0017 733 121.265 803.023 462.315
325 0 64.0536 14.7689 946 119.067 803.729 458.503
326 0 64.1286 12.7088 815 123.293 803.72 456.995
327 0 65.1149 15.7107 1023 117.459 804.505 459.058
328 0 65.24 12.8602 839 124.033 804.415 455.734
329 0 72.0815 13.998 1009 120.653 804.469 450.235
330 0 74.1002 13.6302 1010 121.778 805.475 448.684
331 0 76.2688 13.636 1040 122.201 806.589 445.688
332 0 79.184 13.2981 1053 122.435 807.819 443.039
333 0 79.184 13.3234 1055 151.277 808.819 443.005
334 0 85.1294 14.3781 1224 120.529 809.322 441.445
335 0 88.3061 16.0804 1420 117.864 810.037 439.416
336 1 48.0114 13.4551 646 117.686 810.344 458.986
337 0 50.0643 14.3815 720 116.938 811.281 460.075
338 0 51.0709 13.2757 678 121.552 812.167 458.111
339 0 53.0512 13.7414 729 119.111 813.331 461.663
340 0 54.1492 12.6318 684 123.889 813.649 458.278
341 0 59.0684 14.881 879 116.575 813.576 456.825
342 0 60.2582 14.2553 859 117.512 814.678 458.463
343 0 62.395 10.3053 643 123.863 814.718 460.156
344 0 66.1075 13.5537 896 118.42 814.905 461.557
345 1 131.332 13.8732 1822 123.231 816.088 434.312
346 0 128.618 11.4525 1473 129.229 815.514 430.872
347 1 71.1427 12.7068 904 122.816 814.237 460.872
348 0 74.162 12.9311 959 120.439 814.512 464.507
349 0 77.1358 12.5104 965 121.754 814.614 457.251
350 0 82.1751 13.6416 1121 121.247 813.925 457.51
351 0 85.104 13.0311 1109 122.718 813.964 456.993
352 0 88.1056 14.4599 1274 121.815 812.856 451.638
353 0 90.2054 12.6822 1144 124.662 812.163 454.543
354 0 94.2883 16.4283 1549 118.305 811.608 454.066
355 1 52.0356 10.9925 572 121.6 809.465 476.542
356 0 52.0444 10.2797 535 123.927 810.144 475.25
357 0 56.0792 12.9817 728 117.989 809.471 473.703
358 0 58.1265 14.3652 835 117.618 809.43 471.09
359 0 59.156 12.4079 734 122.515 807.723 471.23
360 0 60.2778 12.9899 783 121.073 807.991 470.679
361 0 62.0396 12.5726 780 123.35 806.313 468.232
362 0 68.2737 20.5936 1406 103.26 806.503 474.987
363 0 66.1546 13.0603 864 120.951 805.931 462.003
364 0 72.4277 15.6156 1131 118.949 806.393 462.845
365 0 69.0998 10.9407 756 130.337 806.034 461.403
366 0 73.2805 14.0146 1027 123.465 806.243 461.305
367 0 73.2805 14.0419 1029 139.172 807.255 461.294
368 0 77.1781 10.56 815 128.158 805.633 454.447
369 0 80.0912 10.1884 816 128.162 806.266 452.912
370 0 85.222 12.1448 1035 124.638 807.378 448.351
371 0 88.2286 14.6211 1290 121.708 808.038 443.466
372 1 45.1422 12.516 565 118.858 808.179 464.004
373 0 48.1222 10.8682 523 119.91 808.463 465.872
374 0 50.2096 10.5956 532 120.372 809.367 463.346
375 0 50.072 11.5034 576 120.786 809.689 461.901
376 0 52.086 12.8825 671 118.712 809.456 460.869
377 0 54.1747 12.5704 681 117.769 811.238 462.574
378 0 55.0679 11.9307 657 120.869 810.842 458.412
379 0 55.1684 11.2202 619 122.137 812.05 456.305
380 0 59.1311 11.7028 692 118.436 812.387 457.997
381 0 58.073 12.1399 705 118.247 813.386 458.308
382 0 62.0736 12.4691 774 118.286 814.39 457.297
383 0 63.0885 12.8867 813 116.043 815.938 459.797
384 0 61.1694 11.7706 720 119.608 815.022 459.874
385 1 129.734 11.4311 1483 127.854 815.607 436.589
386 1 138.645 11.2662 1562 130.285 816.131 423.038
387 1 73.1342 11.4037 834 122.999 815.706 455
388 0 77.164 14.2165 1097 117.775 815.933 456.384
389 0 78.1106 13.1224 1025 120.938 815.264 455.442
390 0 79.1462 10.9165 864 125.404 815.539 457.722
391 0 84.1862 13.292 1119 121.126 815.312 454.549
392 0 85.5448 11.3625 972 124.301 815.137 451.518
393 0 91.2134 12.235 1116 121.67 814.461 451.574
394 0 94.1808 11.6691 1099 121.6 814.904 455.979
395 1 51.1581 13.5071 691 115.091 813.622 477.059
396 0 52.1134 11.9163 621 116.665 814.171 475.573
397 0 53.0372 12.2744 651 120.613 811.836 475.779
398 0 53.1156 13.2541 704 117.068 810.195 474.447
399 0 54.1155 12.0668 653 120.115 809.643 474.132
400 0 57.1356 13.5117 772 117.105 809.8 470.578
401 0 57.1197 13.533 773 119.244 809.496 471.815
402 0 60.1328 12.9547 779 118.544 808.539 472.746
403 0 63.257 13.3582 845 115.641 808.372 468.837
404 1 125.313 11.8663 1487 123.375 807.176 441.412
405 1 66.099 12.799 846 119.42 807.168 464.104
406 0 71.2095 14.3941 1025 115.76 805.979 462.106
407 0 71.1426 14.998 1067 130.853 804.979 462.671
408 0 77.2445 13.645 1054 116.274 805.499 458.257
409 0 76.291 12.4916 953 118.729 806.067 457.002
410 0 80.4237 13.8765 1116 116.44 805.955 454.148
411 0 83.1854 13.2595 1103 117.461 804.812 450.29
412 0 85.1756 11.7874 1004 117.907 805.297 451.006
413 0 90.2429 12.3666 1116 118.201 805.876 445.039
414 1 45.0808 11.7345 529 111.743 806.094 468.265
415 0 49.0347 14.0309 688 106.158 806.53 470.283
416 0 50.1536 15.7117 788 105.472 807.472 466.793
417 0 50.1536 15.6719 786 113.589 809.503 466.777
418 0 49.0929 15.0531 739 109.617 808.632 462.037
419 0 53.0249 10.844 575 114.193 810.452 465.576
420 0 53.0249 10.844 575 129.99 812.456 465.52
421 0 58.3684 15.4193 900 109.767 811.184 456.674
422 0 58.1242 13.4196 780 113.388 811.569 457.444
423 0 60.1078 15.4389 928 113.884 812.863 457.003
424 0 61.1565 10.792 660 121.748 813.053 458.02
425 0 64.2497 11.5331 741 121.327 814.478 458.41
426 0 67.3801 12.8525 866 119.182 815.04 458.318
427 0 67.0956 9.0617 608 124.066 816.36 461.41
428 0 69.2705 15.158 1050 114.677 816.74 456.089
429 0 69.1849 12.1847 843 120.97 817.492 453.157
430 0 73.3038 14.8287 1087 115.408 816.598 458.006
431 0 78.357 13.5661 1063 114.656 816.31 462.522
432 0 79.1162 13.2211 1046 118.52 816.183 457.713
433 0 81.2618 15.8746 1290 114.585 816.572 457.484
434 0 85.5724 17.3654 1486 111.396 816.296 461.374
435 0 83.2384 12.8066 1066 122.92 815.738 458.328
436 0 84.315 13.8172 1165 121.129 814.935 458.971
437 0 91.298 14.5896 1332 119.472 814.974 456.958
438 0 92.0753 12.164 1120 123.14 814.641 459.401
439 0 93.2223 12.5399 1169 124.139 813.583 457.061
440 0 95.3334 13.542 1291 123.574 813.457 453.504
441 0 99.2217 13.5152 1341 123.028 812.042 453.921
442 0 103.444 14.3943 1489 121.173 812.037 449.052
443 1 49.1868 12.0154 591 121.183 812.186 478.464
444 0 49.1806 8.60096 423 128.078 811.728 477.57
445 0 55.1077 14.2085 783 118.525 810.539 476.418
446 0 54.1045 13.0303 705 125.698 809.403 472.845
447 0 58.0677 12.9848 754 124.85 809.509 474.369
448 0 58.1694 15.1626 882 123.344 809.19 471.332
449 0 59.0698 16.5397 977 119.956 809.053 473.959
450 0 62.2665 13.3137 829 128.854 808.799 467.403
451 1 118.194 5.74477 679 129.607 807.735 466.794
452 1 138.364 12.4454 1722 128.771 807.908 432.237
453 0 144.327 13.2339 1910 127.161 807.306 429.348
454 0 148.393 13.8821 2060 125.734 807.386 427.249
455 0 154.434 15.6507 2417 122.607 806.2 420.397
456 0 157.389 11.7797 1854 128.724 807.288 421.292
457 1 79.2115 14.4802 1147 123.625 806.443 455.306
458 0 82.2807 16.942 1394 117.966 806.552 453.544
459 1 94.1868 13.1866 1242 123.345 807.55 447.97
460 0 96.0963 11.9464 1148 124.571 807.179 450.679
461 0 92.2602 13.6354 1258 122.098 807.942 448.511
462 0 96.3536 15.0902 1454 118.494 808.748 448.063
463 0 100.114 13.4846 1350 121.387 809.476 443.338
464 1 50.0844 12.5588 629 116.48 810.674 466.288
465 0 53.031 15.1987 806 112.515 810.736 465.045
466 0 56.0866 12.035 675 117.074 810.853 466.707
467 0 56.2155 11.954 672 116.899 810.057 466.802
468 0 62.1208 14.2464 885 112.208 811.482 464.49
469 0 63.1101 12.0583 761 115.506 812.457 464.243
470 0 62.0437 8.6713 538 121.461 812.55 464.007
471 0 68.3326 11.0489 755 119.992 813.668 462.241
472 0 72.3964 14.6278 1059 112.429 813.69 465.925
473 0 71.1377 20.4392 1454 105.506 813.24 463.333
474 0 75.0854 14.7832 1110 112.359 814.33 466.715
475 0 77.0746 15.1542 1168 113.052 813.381 466.806
476 0 80.2699 16.5442 1328 110.193 813.384 467.673
477 0 81.3548 11.0872 902 120.482 812.826 465.093
478 1 44.1045 10.9739 484 113.314 812.636 486.909
479 0 45.1689 13.3499 603 112.343 812.343 485.672
480 0 47.0603 11.4109 537 115.516 810.801 485.903
481 0 46.0582 10.7473 495 120.808 808.412 485.509
482 0 46.0582 10.8341 499 148.737 806.399 485.483
483 0 51.1681 12.625 646 116.723 807.961 484.964
484 0 53.2166 12.6464 673 116.418 806.813 480.682
485 0 54.11 11.643 630 117.56 804.578 482.976
486 0 54.2775 13.3941 727 115.53 805.927 480.147
487 0 59.3089 13.9102 825 114.708 804.645 479.232
488 0 60.0504 13.1889 792 117.298 804.13 477.876
489 0 61.219 11.8427 725 120.803 802.879 478.861
490 0 62.1903 10.7573 669 123.157 803.326 477.785
491 0 63.0649 12.2096 770 123.847 803.08 473.042
492 0 66.2708 12.3584 819 120.827 801.597 473.074
493 0 70.2901 11.5521 812 121.244 801.435 473.68
494 0 70.248 11.6302 817 140.738 801.408 473.733
495 0 75.1705 11.9861 901 121.642 801.828 470.35
496 1 40.0766 12.526 502 113.51 801.398 485.653
497 0 42.1205 12.2743 517 115.304 800.654 481.679
498 0 42.1029 10.5693 445 120.175 800.375 480.11
499 0 45.0629 14.3799 648 115.085 801.116 476.827
500 0 45.0812 12.7991 577 119.009 800.752 475.243
501 0 46.0644 11.5273 531 121.213 802.011 473.927
502 0 49.032 13.5218 663 120.128 802.36 472.278
503 1 96.1903 12.652 1217 127.662 803.529 447.022
504 1 52.1632 13.9754 729 118.505 804.96 471.553
505 0 50.102 12.4745 625 123.966 805.923 468.658
506 0 52.0264 13.6277 709 120.391 805.898 467.172
507 0 57.0998 10.8407 619 122.595 806.627 469.115
508 0 58.1348 15.7221 914 113.877 807.968 466.351
509 0 58.1913 15.3116 891 116.483 809.244 464.806
510 0 59.0987 13.7736 814 119.684 808.43 461.012
511 0 59.1661 13.6565 808 120.663 810.3 464.391
512 0 62.2626 11.9976 747 122.988 810.562 465.059
513 0 64.1555 11.9397 766 121.52 811.799 465.256
514 0 66.1507 13.1367 869 120.55 811.55 463.464
515 0 69.3638 15.3538 1065 115.97 811.639 463.813
516 0 77.1211 11.7089 903 119.111 811.8 466.372
517 0 76.2915 11.2726 860 121.101 812.886 462.981
518 0 78.1233 10.9442 855 121.331 811.551 465.922
519 0 82.2239 12.1619 1000 118.987 810.993 465.077
520 0 85.2051 12.0885 1030 117.926 812.053 466.524
521 0 88.319 11.6509 1029 120.028 810.706 459.661
522 0 93.2944 11.4369 1067 120.443 810.368 459.303
523 0 94.1679 10.2264 963 124.01 809.455 460.766
524 0 99.1688 13.2098 1310 119.287 809.528 460.897
525 0 101.098 14.3129 1447 119.52 808.191 459.902
526 0 106.14 12.9357 1373 121.704 808.457 459.648
527 1 56.0768 10.1111 567 120.296 806.734 485.709
528 0 58.2077 14.2078 827 114.201 806.069 483.018
529 0 57.1402 13.0381 745 120.33 805.26 479.844
530 0 58.0528 13.3844 777 120.089 804.649 479.405
531 0 61.1771 12.6681 775 122.884 803.719 474.945
532 0 62.1033 15.2005 944 117.942 802.837 475.631
533 0 66.1792 13.9168 921 119.389 803.406 475.384
534 0 67.199 15.0895 1014 119.04 802.995 473.173
535 0 68.3419 12.9496 885 123.688 801.766 473.392
536 0 68.3092 13.2925 908 124.684 800.918 470.363
537 0 77.2357 15.5368 1200 117.066 801.112 472.304
538 0 77.0941 16.201 1249 119.449 800.924 465.11
539 0 78.0873 12.2555 957 126.998 801.76 467.214
540 0 83.2073 15.6597 1303 122.155 800.978 461.916
541 1 41.0394 14.352 589 121.182 802.107 482.165
542 0 44.0943 13.0629 576 125.306 802.078 478.003
543 0 46.1271 13.3327 615 123.533 802.816 477.262
544 0 47.0371 12.1181 570 127.405 802.267 475.279
545 0 48.0698 14.3957 692 124.428 802.328 471.322
546 0 50.0291 14.2317 712 124.146 802.352 472.242
547 0 52.1139 15.0248 783 122.724 804.471 470.828
548 0 54.0784 15.459 836 123.008 803.92 468.335
549 0 56.191 18.4905 1039 116.311 805.124 468.561
550 0 56.0818 14.3005 802 124.403 805.396 469.514
551 0 58.0923 14.7524 857 123.956 805.023 465.988
552 0 60.0888 14.7781 888 124.003 806.42 463.783
553 0 65.1013 14.5773 949 121.944 807.043 467.291
554 0 66.132 16.1495 1068 120.47 807.781 463.06
555 0 68.0767 14.469 985 122.696 808.939 462.181
556 0 70.1513 16.7638 1176 118.532 809.076 462.957
557 0 71.1752 13.1085 933 125.404 810.577 462.507
558 1 39.1067 10.791 422 126.773 810.742 478.768
559 0 38.06 11.6658 444 126.615 810.649 479.477
560 0 41.1302 11.5973 477 125.908 810.421 477.906
561 0 43.0886 15.2941 659 119.369 809.939 480.31
562 0 44.0277 12.3786 545 125.495 809.62 481.536
563 0 46.1237 12.77 589 123.294 809.177 481.053
564 0 47.0924 12.5498 591 123.025 809.318 483.582
565 0 46.0286 10.8628 500 126.358 808.878 484.072
566 0 52.1021 16.6404 867 115.714 808.391 479.955
567 0 53.1513 13.4145 713 122.558 807.53 480.885
568 0 54.0434 12.7675 690 124.825 807.017 480.913
569 0 56.0635 15.5895 874 118.93 806.958 477.419
570 0 58.0852 13.4974 784 122.272 805.795 480.31
571 0 60.0384 13.9078 835 120.495 804.666 479.853
572 0 62.1546 14.9144 927 118.691 805.036 479.68
573 0 63.16 13.2046 834 123.428 804.453 476.809
574 0 65.2885 16.1897 1057 116.208 803.596 479.061
575 0 68.1512 15.9645 1088 118.718 801.917 471.585
576 0 68.1512 16.0966 1097 137.107 800.922 471.595
577 0 73.1787 15.0864 1104 120.016 802.363 469.585
578 1 34.0998 13.0206 444 122.784 800.941 485.606
579 0 36.2148 10.4101 377 124.159 801.809 487.358
580 0 35.0972 12.0523 423 123.608 800.541 484.79
581 0 38.2607 15.1592 580 116.007 800.733 483.503
582 0 41.2406 13.4091 553 120.318 801.069 481.919
583 0 42.1586 13.9236 587 119.102 801.32 478.86
584 0 44.1079 14.6913 648 119.718 800.971 477.941
585 0 46.2118 14.9096 689 121.656 801.221 476.926
586 0 45.0473 14.0741 634 125.945 801.992 476.484
587 0 48.3797 12.8566 622 126.048 803.228 477.775
588 0 50.2346 15.9452 801 120.885 803.799 476.037
589 0 52.1418 17.2031 897 117.641 802.715 475.126
590 0 54.0359 17.0812 923 116.418 803.313 470.377
591 0 55.1516 13.1275 724 122.758 804.519 468.333
592 0 57.0392 16.4799 940 117.086 805.406 470.943
593 0 58.2281 15.2675 889 120.429 805.684 468.254
594 0 59.1086 13.8389 818 123.857 807.114 467.232
595 0 61.2597 15.4098 944 120.874 807.469 465.135
596 0 62.2216 13.3233 829 124.914 807.279 465.68
597 0 69.685 14.2642 994 120.478 808.31 467.005
598 0 67.305 14.4863 975 122.583 808.997 466.211
599 0 73.1292 17.4486 1276 116.299 810.241 464.549
600 0 74.1417 22.3761 1659 109.781 810.062 464.388
601 0 76.0802 16.7061 1271 118.426 810.463 464.684
602 0 79.211 12.8518 1018 124.42 810.032 465.732
603 0 80.2377 16.7752 1346 120.114 810.92 461.21
604 0 87.154 15.857 1382 121.577 810.39 460.103
605 0 88.3493 13.8881 1227 126.462 810.304 461.143
606 1 45.096 12.8615 580 127.286 809.324 481.309
607 0 48.0647 14.1476 680 125.069 809.818 480.068
608 0 50.2042 13.0069 653 127.354 809.161 481.729
609 0 52.0889 13.5346 705 127.013 808.911 482.057
610 0 56.1353 15.623 877 121.052 809.405 481.704
611 0 55.0657 13.7291 756 125.767 808.794 481.601
612 0 58.0389 16.5579 961 119.908 807.901 480.356
613 0 60.2181 14.8626 895 123.534 807.371 479.44
614 0 60.1068 13.2597 797 128.366 806.666 477.739
615 0 62.1092 12.9288 803 128.786 805.213 477.498
616 0 67.0894 14.5627 977 126.611 803.681 475.608
617 0 68.0701 16.0864 1095 124.2 804.489 474.261
618 0 72.0502 14.4899 1044 127.399 803.828 470.17
619 0 75.2226 15.0354 1131 127.225 803.222 469.857
620 0 76.1603 12.3818 943 132.85 802.935 466.162
621 0 82.133 15.2558 1253 126.13 801.733 466.018
622 1 42.146 9.6569 407 129.961 803.437 486.029
623 0 44.1523 16.896 746 118.141 801.745 481.412
624 0 44.1523 16.7602 740 129.491 799.811 481.3
625 0 47.0316 12.7361 599 125.472 801.352 479.937
626 0 49.1049 13.3184 654 126.541 801.326 475.323
627 0 50.108 14.2692 715 123.52 801.945 475.585
628 0 50.2229 12.3052 618 128.15 801.659 473.827
629 0 51.055 13.3777 683 128.656 802.261 469.871
630 0 54.1207 14.9111 807 125.55 802.517 468.711
631 0 56.1243 12.5258 703 129.437 803.445 467.676
632 0 58.0733 13.0008 755 129.305 803.616 468.644
633 0 61.0521 14.2337 869 126.276 805.551 466.436
634 0 60.0514 14.1046 847 123.783 805.354 469.156
635 0 63.0997 12.9636 818 130.535 806.347 464.367
636 0 64.0718 12.2987 788 132.305 806.232 465.022
637 0 64.0718 12.2987 788 143.655 806.231 465.018
638 0 72.1903 12.6887 916 131.857 807 457.369
639 0 76.1321 13.7524 1047 129.117 807.985 455.865
640 1 40.028 9.89307 396 128.318 808.3 477.753
641 0 41.1371 11.5467 475 125.154 808.516 475.385
642 0 43.102 11.438 493 124.797 809.686 477.083
643 0 44.0282 12.492 550 123.336 809.453 476.298
644 0 46.0565 12.2675 565 129.657 811.009 473.202
645 0 46.0499 11.0098 507 133.647 811.515 477.919
646 0 50.0596 12.0456 603 129.595 810.458 474.612
647 0 50.0785 11.7815 590 130.351 811.454 474.702
648 0 50.0785 13.4589 674 126.319 812.368 476.022
649 0 53.0917 13.4108 712 126.018 809.719 475.215
650 0 55.1428 13.2565 731 126.35 809.297 474.777
651 0 59.0287 13.0276 769 125.502 809.835 476.704
652 0 60.0381 11.7925 708 128.782 810.391 477.959
653 0 60.0175 11.53 692 131.454 809.416 478.286
654 0 67.4416 12.2625 827 131.646 809.293 473.71
655 0 66.3479 7.9882 530 145.843 808.34 480.909
656 0 67.1591 12.999 873 129.446 808.592 473.21
657 0 66.336 12.3161 817 132.87 806.705 471.278
658 0 72.1592 12.8743 929 130.182 807.213 473.092
659 0 75.1876 12.6085 948 131.083 805.976 471.764
660 0 75.1876 12.6617 952 142.417 803.999 471.936
661 0 78.4669 13.1775 1034 133.933 805.176 468.083
662 0 81.338 13.0443 1061 133.402 805.099 467.014
663 0 85.2966 11.7121 999 136.836 803.699 464.279
664 0 88.1495 14.2145 1253 132.136 804.023 462.397
665 0 91.3136 12.1121 1106 135.275 803.05 459.144
666 0 94.2726 13.4291 1266 143.882 803.051 461.728
667 0 98.3073 10.813 1063 135.754 802.862 461.839
668 0 97.4248 11.0752 1079 137.797 803.019 459.68
669 0 103.37 13.1179 1356 135.636 802.594 453.545
670 1 59.2506 8.8438 524 132.193 803.309 476.134
671 0 58.1633 12.4477 724 125.936 803.058 471.145
672 0 58.0482 9.49211 551 132.577 804.577 468.967
673 0 61.0435 11.0413 674 130.614 803.021 466.862
674 0 63.0484 13.7831 869 125.946 804.3 464.051
675 0 67.0385 11.7694 789 127.701 803.806 464.883
676 0 64.1568 10.7393 689 131.816 804.466 462.106
677 0 69.0832 11.7105 809 129.771 804.972 459.863
678 0 72.1034 10.9426 789 131.759 805.203 458.605
679 0 77.1957 12.9282 998 124.911 806.892 461.239
680 0 77.1876 12.8259 990 126.716 808.003 458.833
681 0 75.1017 10.5324 791 132.406 808.156 456.157
682 0 83.1533 12.2785 1021 128.907 807.792 452.293
683 0 87.0985 11.5272 1004 128.14 810.283 455.24
684 1 44.0734 8.62198 380 124.789 809.358 475.108
685 0 48.1054 11.5372 555 119.396 810.917 475.067
686 0 46.0877 9.85078 454 123.848 810.372 473.705
687 0 52.0829 12.5953 656 117.152 811.05 475.651
688 0 48.054 6.47189 311 129.219 811.322 481.752
689 0 49.1125 8.0224 394 128.228 810.695 478.746
690 0 52.0744 13.4423 700 118.886 810.289 476.056
691 0 55.0497 11.8802 654 120.625 811.35 478.188
692 0 54.1197 7.39102 400 128.552 811.23 479.742
693 0 61.0608 11.0382 674 122.003 810.482 477.096
694 0 61.0608 11.0545 675 132.664 810.514 477.212
695 0 61.1176 10.2589 627 124.174 808.753 476.073
696 0 65.1181 12.3161 802 119.268 809.362 477.258
697 0 67.1171 10.1017 678 123.944 808.985 474.96
698 0 69.0885 13.736 949 116.6 808.64 477.944
699 0 71.416 12.7562 911 121.074 806.885 471.334
700 0 76.168 13.654 1040 117.79 805.869 469.533
701 0 75.1988 11.9816 901 123.185 805.252 464.81
702 0 80.2276 12.6141 1012 119.427 804.628 467.71
703 0 85.1656 13.8084 1176 119.747 803.86 462.724
704 0 85.2942 13.7641 1174 119.457 803.618 461.784
705 0 89.4774 13.2547 1186 118.423 803.138 462.548
706 1 49.3316 12.9126 637 108.62 802.717 484.133
707 0 48.0797 14.1016 678 108.853 801.981 478.991
708 0 48.1778 16.958 817 103.304 801.949 483.378
709 0 46.0408 10.3821 478 117.264 802.128 480.153
710 0 51.2416 10.9872 563 116.378 801.087 478.812
711 0 52.0816 11.7124 610 115.495 801.856 475.948
712 0 50.0726 10.1253 507 117.807 800.574 476.503
713 0 55.0215 12.8132 705 112.454 802.41 475.275
714 0 54.0873 12.9235 699 113.76 801.903 472.784
715 0 56.0412 12.2588 687 114.38 802.929 471.345
716 0 57.0632 14.3175 817 111.82 802.83 471.198
717 0 60.0535 10.5739 635 118.806 803.424 468.641
718 0 60.0536 10.3241 620 119.002 803.01 467.356
719 0 64.0759 11.6737 748 116.979 804.206 465.444
720 0 65.1278 11.9918 781 115.041 804.417 466.653
721 0 66.1403 13.9401 922 115.204 805.073 460.152
722 0 66.1403 13.7889 912 133.569 806.05 460.139
723 0 66.1403 13.7435 909 133.215 807.028 460.147
724 0 66.1345 13.7447 909 132.879 808.028 460.147
725 0 75.1789 12.2242 919 119.466 808.209 456.273
726 0 75.2965 12.8027 964 118.677 809.348 457.531
727 0 80.1939 14.016 1124 115.835 809.496 455.53
728 0 80.0903 13.335 1068 118.13 810.203 455.528
729 0 81.2632 11.8996 967 120.906 810.406 453.049
730 0 87.3351 14.4272 1260 116.895 810.952 456.192
731 0 87.3259 12.9858 1134 119.771 811.217 452.938
732 0 87.4741 10.8718 951 123.742 811.675 454.465
733 0 93.3883 13.7597 1285 118.667 811.065 451.638
734 0 97.1421 11.3751 1105 121.921 810.203 452.5
735 1 50.0452 11.05 553 115.794 810.552 478.931
736 0 54.0792 12.4262 672 113.763 809.476 476.792
737 0 57.0731 11.7218 669 114.741 810.309 477.22
738 0 56.2207 10.5833 595 118.649 808.713 473.813
739 0 55.0957 12.7415 702 115.783 809.702 476.516
740 0 60.1377 14.8825 895 111.27 808.402 475.312
741 0 61.0871 11.4263 698 117.893 808.673 473.299
742 0 63.2557 10.5761 669 118.191 807.262 471.876
743 0 67.2167 11.5894 779 116.932 806.295 467.918
744 0 67.0428 10.4262 699 120.482 806.479 464.805
745 0 72.2102 11.8543 856 114.743 805.634 469.657
746 0 75.0973 13.9419 1047 113.733 805.548 463.48
747 0 74.0884 14.1183 1046 118.076 805.546 463.443
748 0 80.1043 12.8582 1030 117.748 803.895 462.609
749 0 80.1043 12.7958 1025 126.746 802.878 462.587
750 0 83.1116 13.0668 1086 120.638 804.419 457.846
751 0 88.0943 16.1418 1422 114.323 804.153 455.892
752 0 89.1208 13.4761 1201 119.111 804.706 452.555
753 1 47.0766 10.3024 485 119.538 803.192 472.95
754 0 48.0367 12.0325 578 117.171 802.803 472.64
755 0 49.1022 11.2622 553 120.17 803.854 469.486
756 0 49.1022 11.2622 553 123.231 803.854 469.486
757 0 50.0332 9.99336 500 121.07 804.6 469.454
758 0 54.0898 10.1313 548 119.117 804.766 470.557
759 0 55.137 12.5324 691 117.133 805.113 465.543
760 0 57.0867 11.7015 668 118.969 806.126 461.912
761 0 63.1449 16.5809 1047 108.864 805.852 464.971
762 0 62.0502 10.9911 682 118.622 807.183 461.491
763 0 65.0618 14.54 946 112.153 806.88 464.334
764 0 65.1555 11.1733 728 116.842 808.207 466.06
765 0 65.1555 11.2807 735 141.678 809.2 466.01
766 0 74.2805 7.17551 533 124.332 808.882 464.893
767 0 74.0622 11.9629 886 118.2 809.719 459.797
768 0 78.1032 16.363 1278 112.349 810.581 451.645
769 0 81.0921 14.909 1209 115.094 811.008 452.806
770 0 84.2465 14.1015 1188 115.519 810.939 455.35
771 0 84.0811 12.2501 1030 119.715 811.162 453.012
772 0 89.2212 14.5593 1299 116.169 810.982 451.801
773 1 47.0339 10.2054 480 119.181 811.265 474.367
774 0 49.0402 9.33927 458 121.775 812.714 473.328
775 0 51.0633 13.7672 703 114.791 813.152 475.172
776 0 52.071 13.4048 698 113.799 813.321 478.16
777 0 50.0614 11.5858 580 118.302 811.764 478.721
778 0 50.0614 11.5259 577 132.241 810.764 478.636
779 0 56.1388 9.67246 543 121.541 810.766 475.263
780 0 56.0737 10.6824 599 119.454 810.9 477.199
781 0 59.1659 11.1044 657 118.854 809.259 475.721
782 0 60.1877 8.35718 503 123.907 809.457 476.195
783 1 121.461 11.8474 1439 127.721 810.53 447.862
784 0 127.428 14.3846 1833 123.933 808.909 447.195
785 0 124.259 11.2829 1402 126.047 808.444 458.103
786 1 189.422 14.993 2840 128.218 808.355 413.832
787 1 212.503 16.3339 3471 123.027 807.795 399.059
788 0 215.36 18.5085 3986 120.12 807.74 400.396
789 0 219.831 13.6378 2998 129.134 806.328 399.92
790 0 221.377 14.848 3287 127.774 807.362 402.059
791 0 225.475 15.5938 3516 126.288 805.914 405.981
792 1 86.1221 16.3721 1410 115.65 807.34 461.455
793 1 45.1215 10.372 468 122.16 805.53 482.235
794 0 47.0312 11.1841 526 121.844 805.447 479.422
795 0 48.0516 11.8206 568 119.512 804.544 475.886
796 0 49.0965 12.0579 592 119.076 804.596 477.726
797 0 49.1131 10.6693 524 122.819 804.336 476.702
798 0 51.0309 11.7968 602 121.184 803.248 473.412
799 0 52.0541 12.8712 670 119.11 802.557 471.776
800 0 53.1589 11.9829 637 119.518 804.157 473.118
801 0 52.1717 10.8296 565 125.246 803.763 469.014
802 0 56.1174 10.977 616 126.425 804.692 465.206
803 0 55.0701 9.98727 550 129.511 806.102 463.085
804 0 61.2498 12.6531 775 123.795 805.984 463.556
805 0 62.0904 11.2256 697 126.719 806.412 463.613
806 0 64.1092 12.5879 807 125.007 807.054 460.701
807 0 63.1821 10.8733 687 128.841 808.397 460.718
808 0 66.0588 13.3517 882 122.276 808.159 464.019
809 0 69.1294 12.9467 895 125.68 808.782 460.526
810 0 72.1481 13.0981 945 126.25 809.758 458.141
811 0 74.087 13.9431 1033 125.617 810.926 457.216
812 0 76.2074 11.9936 914 129.824 811.065 456.701
813 0 80.1601 15.1572 1215 124.115 810.962 453.794
814 0 83.2328 14.8739 1238 124.704 810.747 452.689
815 0 87.2596 14.9325 1303 124.475 811.694 451.41
816 1 49.0292 9.91246 486 126.416 811.029 474.907
817 0 50.0721 12.7816 640 120.286 811.744 475.655
818 0 48.1152 8.72905 420 130.643 811.557 474.112
819 0 50.085 13.0378 653 121.609 812.135 472.821
820 0 51.0173 9.52618 486 130.171 811.899 474.27
821 0 52.0287 11.8204 615 123.15 811.19 478.301
822 0 54.0597 12.9301 699 125.356 810.931 475.255
823 0 56.1351 13.129 737 123.273 811.278 476.487
824 0 60.0786 11.7013 703 125.982 810.165 474.068
825 0 60.0584 12.005 721 126.423 809.594 474.139
826 0 60.1425 11.7222 705 129.321 808.624 473.062
827 1 122.293 14.2526 1743 129.393 809.67 445.034
828 1 66.1412 12.9722 858 125.614 808.946 471.57
829 0 67.059 14.5693 977 123.362 808.089 470.437
830 0 70.1553 13.9975 982 124.476 807.067 469.824
831 0 72.1307 14.0301 1012 124.829 806.924 466.005
832 0 72.2058 11.6334 840 129.425 805.657 465.925
833 0 77.1566 13.8809 1071 122.344 804.824 464.25
834 0 80.2929 14.7336 1183 121.27 805.568 457.992
835 0 81.106 12.3172 999 127.635 805.255 459.879
836 0 86.2617 12.4853 1077 125.116 805.445 459.585
837 1 46.0501 13.2899 612 119.601 805.683 474.954
838 0 48.2875 11.473 554 122.599 805.206 473.63
839 0 49.2388 13.3228 656 118.87 805.645 468.841
840 0 49.1002 11.894 584 118.558 805.224 471.444
841 0 51.0572 13.0442 666 114.932 805.131 472.008
842 0 51.0568 11.1249 568 119.347 804.706 470.266
843 0 55.0799 14.3973 793 110.971 805.856 470.038
844 0 54.0799 12.0008 649 117.475 805.823 463.82
845 0 58.1472 11.8492 689 116.174 805.74 466.104
846 0 60.0316 17.9072 1075 105.698 805.83 464.616
847 0 59.1287 11.6864 691 117.059 806.839 462.781
848 0 59.1507 9.53497 564 118.771 806.699 463.564
849 0 64.0772 11.8451 759 116.202 808.34 460.523
850 1 131.39 10.2748 1350 126.29 808.851 435.278
851 0 130.288 10.9526 1427 127.465 809.374 430.854
852 1 73.1696 11.4528 838 116.033 809.082 456.578
853 0 76.1538 13.5384 1031 113.591 810.174 450.256
854 0 77.0972 10.0263 773 118.732 809.849 452.53
855 0 82.1792 11.6696 959 115.034 810.99 449.217
856 0 83.1458 12.3157 1024 114.329 811.552 452.081
857 0 87.1451 12.9783 1131 114.053 812.624 450.355
858 0 88.1017 9.89765 872 119.173 811.447 451.086
859 0 91.2062 12.0606 1100 116.187 812.408 449.827
860 1 49.0487 10.0308 492 113.388 813.187 473.089
861 0 50.0313 4.57714 229 120.782 813.437 476.135
862 0 53.0265 10.259 544 113.246 812.926 472.222
863 0 56.0221 12.8699 721 108.122 813.558 474.39
864 0 54.0618 9.65561 522 113.676 812.571 475.885
865 0 57.0715 8.93616 510 115.216 812.543 474.006
866 0 60.1225 11.7427 706 110.069 812.166 474.089
867 0 59.0581 8.39851 496 116.71 811.958 473.29
868 0 63.1742 8.97519 567 115.379 810.016 472.571
869 0 64.0621 10.2088 654 114.879 810.917 470.229
870 0 65.1214 8.9218 581 116.014 810.003 469.325
871 0 71.1442 9.52994 678 114.199 809.696 465.649
872 0 70.155 9.6073 674 121.57 809.702 465.656
873 0 75.1031 12.3164 925 110.661 806.939 460.528
874 0 78.1584 13.1272 1026 109.19 806.742 465.331
875 0 79.1432 11.3718 900 111.97 806.048 462.844
876 0 79.1432 11.3592 899 128.8 806.039 462.969
877 0 87.2295 12.4614 1087 111.731 805.06 458.835
878 1 132.266 11.3181 1497 115.316 804.649 441.878
879 0 136.263 10.6632 1453 118.324 805.866 432.433
880 1 96.1936 13.2337 1273 111.263 806.053 455.01
881 1 49.0397 8.34017 409 115.533 805.785 475.985
882 0 54.4409 9.60675 523 113.254 805.476 472.489
883 0 53.1846 10.3037 548 114.093 805.569 469.069
884 0 55.1006 11.5244 635 111.641 805.951 473.025
885 0 56.0905 11.2675 632 112.366 806.071 469.948
886 0 60.116 15.8194 951 104.099 805.661 468.638
887 0 60.0868 12.4154 746 111.546 806.705 467.975
888 0 62.1055 13.6703 849 109.915 807.019 465.198
889 0 62.3948 10.69 667 116.444 806.639 463.678
890 0 65.2034 13.3275 869 112.234 807.597 463.092
891 0 65.0241 13.9794 909 111.575 808.178 460.497
892 0 66.083 12.8626 850 113.842 807.625 455.974
893 0 69.0861 11.8114 816 116.472 809.047 460.226
894 0 70.1259 11.7646 825 116.198 808.948 458.205
895 0 72.0503 13.324 960 114.569 809.643 456.09
896 0 75.1257 14.1496 1063 112.196 810.699 456.849
897 0 76.151 13.8278 1053 110.926 811.309 460.318
898 0 76.1397 15.9312 1213 108.528 811.12 459.255
899 0 82.1243 12.3837 1017 116.056 811.673 453.886
900 0 85.0481 11.8404 1007 117.311 812.731 452.674
901 0 86.1082 11.3114 974 119.661 813.393 454.652
902 0 91.1617 13.4267 1224 115.198 813.228 451.73
903 0 94.1301 14.0231 1320 115.433 813.323 448.798
904 1 44.0173 10.9048 480 118.598 812.21 471.738
905 0 49.0635 12.0049 589 115.095 812.677 475.874
906 0 51.084 12.5088 639 114.427 814.252 476.69
907 0 53.076 11.4364 607 116.745 813.077 476.133
908 0 54.1342 10.6218 575 113.417 812.473 481.301
909 0 57.132 13.1275 750 110.576 812.132 478.592
910 0 57.1659 13.2946 760 111.792 811.051 475.066
911 0 58.0488 12.0416 699 114.236 810.795 474.764
912 0 60.1868 11.4477 689 114.628 810.372 476.821
913 0 63.102 15.1659 957 109.276 809.929 471.474
914 0 63.1099 11.1551 704 115.391 809.521 470.801
915 0 67.129 10.6511 715 115.331 808.12 471.435
916 0 69.1219 11.4725 793 113.251 807.581 469.886
917 0 73.0612 13.7419 1004 108.581 806.719 469.506
918 0 74.211 14.3106 1062 109.649 806.51 464.723
919 0 77.1248 11.7861 909 113.389 805.106 465.232
920 0 77.142 11.1094 857 115.462 805.015 461.348
921 0 81.1319 12.1284 984 112.644 804.819 463.56
922 0 85.0879 15.0433 1280 108.852 804.773 459.171
923 0 87.1024 15.4071 1342 108.961 804.524 457.268
924 0 87.1024 15.3842 1340 123.229 805.497 457.363
925 0 87.0975 15.4769 1348 122.459 806.52 457.422
926 1 48.0445 10.0532 483 116.234 804.89 471.271
927 0 50.0529 10.1892 510 116.388 804.22 473.337
928 0 53.0449 15.2701 810 106.609 805.518 472.899
929 0 51.0269 11.8173 603 114.997 805.433 469.789
930 0 53.081 12.057 640 114.919 805.38 467.953
931 0 58.2311 13.103 763 112.646 805.929 466.49
932 0 57.1226 11.0114 629 115.405 807.528 466.908
933 0 60.0728 12.8344 771 114.093 807.314 462.459
934 0 62.0936 12.0624 749 115.186 808.351 463.064
935 0 61.0499 12.5307 765 116.677 809.018 460.295
936 0 66.1135 12.0399 796 116.204 808.869 459.308
937 0 70.0781 12.8143 898 114.806 809.586 459.257
938 0 71.0413 10.7684 765 118.78 809.311 458.614
939 0 72.1398 10.7985 779 117.562 810.264 459.845
940 0 75.1514 11.1641 839 119.659 810.884 456.76
941 0 79.2042 12.0069 951 116.335 810.824 456.742
942 1 42.0394 10.4188 438 117.749 810.715 473.043
943 0 42.0343 10.6818 449 116.793 811.508 473.374
944 0 43.0851 13.0672 563 112.508 812.3 473.393
945 0 43.0421 10.1296 436 117.711 812.142 476.931
946 0 46.0753 10.4828 483 117.23 812.05 475.973
947 0 48.1275 12.8409 618 112.982 812.625 476.317
948 0 51.0548 12.1634 621 113.678 812.945 478.332
949 0 49.0485 9.99011 490 118.984 812.802 479.071
950 0 53.0678 11.2121 595 115.437 812.279 477.415
951 0 53.1082 11.7119 622 116.117 811.695 476.968
952 0 54.0739 13.648 738 113.495 811.923 474.267
953 0 59.0767 17.6381 1042 105.181 811.96 477.835
954 0 60.136 13.4196 807 112.051 811.078 477.09
955 0 61.0508 10.7124 654 118.329 811.419 476.086
956 0 62.117 11.8164 734 116.693 809.544 473.405
957 0 65.1493 11.8804 774 116.593 810.054 472.174
958 0 69.238 12.0165 832 114.633 808.535 474.358
959 0 69.0759 14.1728 979 114.885 808.294 469.963
960 0 72.1348 12.3935 894 116.352 807.847 472.902
961 0 73.1059 12.8991 943 117.1 807.112 469.169
962 0 77.0507 12.4983 963 117.314 807.814 469.334
963 0 79.1462 12.9381 1024 116.529 805.707 466.81
964 0 79.1462 12.9128 1022 135.549 803.703 466.871
965 1 42.0095 9.61688 404 117.748 805.037 483.748
966 0 44.0884 8.16541 360 121.631 804.944 480.717
967 0 47.1593 11.7898 556 114.894 805.649 478.908
968 0 46.0447 11.554 532 115.767 804.534 478.57
969 0 48.0676 11.359 546 117.892 804.212 475.022
970 0 49.0592 13.2697 651 114.041 803.943 475.594
971 0 51.1006 14.5008 741 110.842 804.049 473.247
972 0 50.1339 9.5943 481 117.484 804.561 473.948
973 0 53.054 10.9888 583 114.372 804.864 474.118
974 0 54.0366 10.937 591 118.108 805.19 471.095
975 0 55.0381 10.4836 577 117.064 804.565 468.215
976 0 59.0586 11.3277 669 116.052 805.997 469.272
977 0 57.0665 9.32246 532 122.951 807.19 465.276
978 0 61.0565 8.69686 531 120.744 807.942 466.672
979 0 62.0905 12.7072 789 117.968 808.399 460.835
980 0 65.0922 12.7358 829 113.414 809.294 464.315
981 0 63.332 12.8687 815 115.919 808.863 462.822
982 0 69.3694 12.974 900 114.354 809.683 462.069
983 0 69.1503 11.4388 791 118.838 811.043 459.65
984 0 74.261 12.7793 949 116.765 810.346 456.345
985 0 77.166 12.8684 993 116.257 811.908 457.747
986 0 81.2801 12.0694 981 117.612 812.572 452.894
987 0 84.2565 13.7675 1160 115.351 812.262 452.843
988 1 42.0508 14.1971 597 109.807 814.03 476.963
989 0 46.0791 14.2147 655 115.533 813.327 474.212
990 0 49.1521 13.8549 681 114.153 813.12 473.33
991 0 48.0604 12.2554 589 119.199 812.129 475.404
992 0 50.1203 11.3327 568 117.472 812.657 477.495
993 0 51.0569 11.5361 589 117.988 812.275 476.404
994 0 53.0374 10.9923 583 117.509 812.039 480.66
995 0 57.0986 13.5905 776 113.317 810.985 477.019
996 0 57.0595 14.8967 850 111.635 811.698 477.001
997 0 60.1824 13.0603 786 113.546 810.571 476.332
998 0 62.1931 18.5069 1151 106.447 810.528 474.998
999 0 61.064 12.1021 739 120.342 810.537 472.398
1000 0 63.0967 12.4095 783 119.733 808.438 471.605
1001 0 65.0471 11.8991 774 120.73 809.093 473.841
1002 0 67.1631 11.7773 791 122.357 808.334 471.947
1003 0 68.0984 8.28213 564 124.862 808.544 476.738
1004 0 77.1198 14.1468 1091 116.732 807.293 466.588
1005 1 39.0612 10.8548 424 121.606 806.96 482.712
1006 0 40.0216 10.6692 427 121.822 806.115 483.068
1007 0 41.0166 11.6538 478 120.393 806.1 482.092
1008 0 43.0856 12.9974 560 119.066 804.714 481.979
1009 0 44.015 12.6321 556 118.302 804.604 480.547
1010 0 45.1698 12.5526 567 120.379 804.607 475.797
1011 0 44.1006 11.8366 522 122.741 805.544 475.306
1012 0 46.0564 12.6584 583 120.497 805.714 477.463
1013 0 48.2401 13.5157 652 120.362 805.393 472.853
1014 0 53.0466 9.99122 530 125.502 805.306 470.534
1015 0 52.0801 13.3448 695 118.663 804.748 469.073
1016 0 53.0723 9.40227 499 125.471 806.707 470.96
1017 0 54.1292 12.3224 667 121.984 805.904 466.585
1018 0 55.0983 11.9967 661 120.602 806.457 466.985
1019 0 58.0929 12.9276 751 119.482 807.197 461.87
1020 0 59.128 14.2741 844 117.925 807.518 461.071
1021 0 60.0939 11.0993 667 122.202 808.459 463.088
1022 0 64.0279 11.9479 765 121.953 808.952 457.069
1023 0 65.1316 11.638 758 122.752 809.173 458.935
1024 0 71.1425 12.4398 885 118.609 809.055 458.27
1025 0 68.0501 10.3159 702 123.62 810.889 457.265
1026 0 72.1484 11.3239 817 122.179 810.824 453.354
1027 0 77.236 11.808 912 119.504 812.182 459.129
1028 0 80.1168 12.4693 999 119.997 812.579 455.583
1029 0 83.0531 13.4131 1114 119.93 812.833 452.43
1030 0 84.1174 12.8154 1078 122.658 812.997 450.173
1031 0 88.3819 14.3921 1272 119.162 812.651 451.783
1032 0 90.1224 14.8132 1335 119.039 812.375 451.784
1033 0 91.1723 12.6903 1157 123.997 812.54 452.713
1034 0 95.168 12.3466 1175 123.741 813.117 454.506
1035 0 99.2138 13.0929 1299 125.44 813.616 450.172
1036 0 103.105 13.0838 1349 125.234 811.848 449.513
1037 0 107.322 15.5606 1670 120.995 813.031 448.355
1038 1 55.1576 10.9867 606 121.706 813.03 478.175
1039 0 59.1448 14.2701 844 117.415 812.692 474.758
1040 0 59.095 13.8421 818 119.271 811.532 476.436
1041 0 62.1335 12.3605 768 121.896 811.565 476.715
1042 0 63.1502 12.589 795 122.547 809.665 473.976
1043 0 65.1835 12.3651 806 122.999 809.437 474.913
1044 0 65.1683 12.7056 828 129.344 806.923 469.025
1045 0 71.2662 12.8673 917 126.84 808.109 472.638
1046 0 74.1972 13.1946 979 124.961 807.822 470.378
1047 0 75.2698 13.4848 1015 125.377 807.324 465.676
1048 0 75.0739 11.6552 875 129.288 805.75 463.478
1049 0 79.1762 12.8827 1020 125.457 805.529 464.405
1050 0 83.1765 15.8338 1317 118.395 805.51 464.356
1051 0 85.276 14.3768 1226 122.469 805.644 462.078
1052 0 85.1542 16.1354 1374 119.544 805.434 461.67
1053 0 86.1541 10.3419 891 131.248 805.567 458.09
1054 0 91.1467 14.7235 1342 123.632 805.446 452.896
1055 1 50.0712 13.0814 655 117.748 804.762 474.284
1056 0 52.1285 13.6777 713 115.76 804.741 476.863
1057 0 53.1313 13.4949 717 119.321 805.201 473.331
1058 0 54.1565 12.0577 653 122.654 804.752 468.245
1059 0 56.127 13.808 775 119.621 805.039 466.472
1060 0 57.2644 13.1495 753 118.377 805.833 468.386
1061 0 59.3023 14.3333 850 117.04 805.534 465.241
1062 0 61.1689 12.6862 776 120.04 805.536 463.555
1063 0 61.1075 13.6153 832 120.673 806.332 461.238
1064 0 62.1229 12.6362 785 124.808 807.135 460.104
1065 0 63.2123 12.7349 805 125.969 807.92 461.07
1066 0 64.0896 10.7818 691 129.849 807.852 461.54
1067 0 69.2541 15.0027 1039 118.73 808.497 459.808
1068 0 72.2461 13.3848 967 121.004 810.172 459.996
1069 0 76.1722 13.929 1061 120.67 810.322 459.618
1070 0 79.0765 15.681 1240 116.938 811.379 454.091
1071 0 79.1636 11.3436 898 126.185 811.512 452.433
1072 0 84.114 12.9705 1091 121.431 811.522 452.823
1073 1 45.0515 11.7865 531 120.147 812.484 471.718
1074 0 46.0423 9.99081 460 123.528 813.9 475.737
1075 0 46.0423 10.0125 461 139.408 814.902 475.783
1076 0 47.0355 10.8216 509 123.711 813.542 471.47
1077 0 53.2264 10.7841 574 121.089 814.653 475.78
1078 0 53.0381 12.7267 675 115.744 812.95 474.93
1079 0 52.0528 10.5086 547 119.7 813.208 475.378
1080 0 53.074 8.61062 457 121.048 811.735 479.958
1081 0 57.1139 12.5889 719 115.752 811.719 476.15
1082 0 57.0555 12.6719 723 115.499 811.355 478.87
1083 0 59.0612 9.9727 589 121.852 811.146 475.158
1084 0 63.1437 10.4048 657 120.231 810.476 477.624
1085 0 63.224 9.20537 582 123.318 810.258 473.562
1086 0 74.1724 8.31846 617 122.807 809.752 477.295
1087 0 74.1724 8.33194 618 126.087 809.748 476.994
1088 0 72.1303 12.4081 895 118.742 807.242 469.087
1089 0 74.1342 12.0322 892 119.651 806.565 467.206
1090 0 77.2145 14.4662 1117 116.424 806.448 462.967
1091 0 81.4103 12.2589 998 119.294 805.832 463.13
1092 1 45.0716 10.9825 495 115.798 805.055 484.323
1093 0 44.0822 10.5938 467 117.931 804.679 483.779
1094 0 44.0854 11.387 502 116.335 803.878 481.414
1095 0 48.1221 10.1409 488 118.166 804.232 480.705
1096 0 48.0498 11.5089 553 117.184 803.45 478.143
1097 0 48.0339 10.0138 481 119.486 803.844 478.322
1098 0 48.0339 9.99294 480 114.838 804.848 478.288
1099 0 52.0372 12.5679 654 115.569 803.813 473.508
1100 0 53.0745 10.0048 531 119.64 803.761 473.661
1101 0 55.0172 10.8148 595 119.326 804.027 470.435
1102 0 52.0672 6.62606 345 126.029 803.98 470.09
1103 0 56.0688 11.6999 656 115.976 804.434 473.66
1104 0 58.1422 9.66595 562 120.285 805.649 464.746
1105 0 63.1648 12.2695 775 115.292 804.646 463.375
1106 0 64.1059 11.1222 713 116.18 805.85 464.618
1107 0 66.0989 9.92452 656 119.537 805.707 457.782
1108 0 70.114 10.7682 755 115.528 807.143 464.801
1109 0 71.0553 11.9907 852 115.806 807.874 461.316
1110 0 69.1067 8.82693 610 120.774 808.705 459.675
1111 0 72.1263 11.0778 799 108.191 808.71 455.075
1112 0 83.1545 13.8056 1148 111.983 809.902 454.537
1113 0 83.1043 12.3098 1023 116.372 810.063 453.586
1114 0 85.1615 9.4174 802 121.858 809.571 452.307
1115 0 91.1032 12.3706 1127 119.603 810.205 449.734
1116 0 97.1632 12.0725 1173 119.166 810.605 448.783
1117 0 99.1875 13.8122 1370 115.539 810.607 447.112
1118 0 101.119 11.4419 1157 120.958 811.451 446.203
1119 0 106.308 9.97104 1060 122.325 810.985 450.496
1120 0 112.491 11.761 1323 120.628 811.266 445.519
1121 0 110.325 10.1065 1115 127.947 811.412 441.379
1122 0 113.301 9.37326 1062 129.136 811.499 446.076
1123 1 57.0626 8.35924 477 124.996 810.505 472.187
1124 0 57.0626 8.28914 473 123.903 809.499 472.061
1125 0 65.0948 10.4309 679 121.844 809.667 473.032
1126 0 64.3383 9.76091 628 123.839 810.282 472.29
1127 0 67.182 12.8457 863 118.892 810.144 472.246
1128 0 71.0754 11.4808 816 121.487 808.762 469.817
1129 0 71.0754 11.4948 817 119.791 806.77 469.791
1130 0 77.1638 16.1604 1247 113.973 807.63 465.962
1131 0 81.1186 15.0274 1219 115.927 807.01 465.496
1132 1 40.0822 7.06049 283 128.64 805.099 485.046
1133 0 43.0911 8.49364 366 127.839 804.986 481.352
1134 0 45.2054 9.33518 422 124.128 803.967 485.474
1135 0 47.0425 12.5418 590 122.514 804.063 479.571
1136 0 47.0277 10.7596 506 124.126 803.534 480.889
1137 0 48.2042 11.7002 564 120.41 803.238 482.076
1138 0 47.0275 12.2694 577 119.775 802.042 481.503
1139 0 47.0275 12.2482 576 140.429 801.054 481.481
1140 0 52.1096 11.8021 615 121.273 802.267 473.384
1141 0 54.0649 14.2052 768 117.419 802.176 477.509
1142 0 52.0503 10.8165 563 125.036 801.268 477.036
1143 0 53.0544 12.3458 655 131.4 800.298 475.105
1144 0 64.0859 11.1101 712 120.072 801.756 474.129
1145 0 59.0684 9.71755 574 125.578 802.531 470.213
1146 0 63.0387 11.9609 754 121.391 803.431 470.808
1147 0 64.065 11.2854 723 123.409 803.653 467.907
1148 0 65.0566 11.0212 717 125.743 804.371 463.378
1149 0 71.076 13.3378 948 120.237 804.658 462.668
1150 0 72.0882 11.9853 864 122.924 804.512 463.035
1151 0 77.0961 13.2692 1023 121.614 805.416 457.391
1152 0 77.1159 13.2398 1021 147.701 806.42 457.291
1153 0 77.1448 11.7312 905 129.848 807.006 456.835
1154 0 84.1394 14.1551 1191 122.953 808.746 458.498
1155 0 85.1128 10.9149 929 130.843 807.804 453.028
1156 0 88.0785 15.0775 1328 122.271 807.974 453.822
1157 0 90.1848 13.805 1245 126.598 809.092 447.23
1158 0 94.2004 14.2781 1345 127.624 808.858 449.845
1159 0 94.1333 12.9603 1220 128.591 810.928 446.669
1160 0 99.2586 12.8956 1280 128.728 810.545 447.524
1161 0 102.155 14.3998 1471 124.801 812.465 453.555
1162 1 56.1644 13.4427 755 120.224 811.575 473.052
1163 0 55.1137 14.6969 810 119.474 813.178 473.069
1164 0 56.078 10.5746 593 126.929 812.427 472.629
1165 0 58.062 12.7106 738 124.249 812.251 474.179
1166 0 61.0911 13.1607 804 122.95 811.454 473.944
1167 0 63.047 13.1013 826 123.092 810.995 472.776
1168 0 66.1604 10.1571 672 127.432 810.406 473.219
1169 0 66.0865 12.2869 812 125.147 809.956 472.711
1170 0 70.1017 11.897 834 126.376 809.131 466.74
1171 0 72.083 13.5816 979 123.807 809.158 470.318
1172 0 76.1688 13.1025 998 122.94 808.549 468.899
1173 0 79.0854 13.6814 1082 121.815 807.721 465.461
1174 0 80.1758 11.6494 934 125.911 806.83 464.382
1175 0 85.1916 15.1423 1290 120.522 805.282 460.007
1176 0 83.1743 12.9968 1081 124.673 805.997 460.001
1177 0 88.2003 14.1609 1249 120.72 805.636 463.784
1178 0 88.0824 11.5801 1020 126.894 805.147 458.019
1179 0 94.3923 12.162 1148 123.362 804.459 460.175
1180 0 95.212 10.6604 1015 125.894 804.889 456.475
1181 0 100.075 12.1709 1218 121.177 804.065 457.624
1182 0 102.363 11.0001 1126 125.843 803.084 447.309
1183 0 106.16 11.6145 1233 123.415 803.492 445.858
1184 1 58.0654 9.59263 557 121.391 802.957 471.086
1185 0 58.0884 9.64048 560 119.421 802.818 472.261
1186 0 62.0777 10.2613 637 117.684 802.251 469.976
1187 0 62.0777 10.1808 632 124.998 801.248 469.976
1188 0 63.0861 11.9202 752 117.835 803.719 466.604
1189 0 66.0845 12.257 810 117.281 802.6 463.264
1190 0 69.2639 12.2719 850 116.266 803.26 461.853
1191 0 69.2067 13.0768 905 115.232 804.46 461.57
1192 0 72.0648 12.6136 909 115.959 804.408 457.639
1193 0 74.1208 11.09 822 118.701 804.562 456.395
1194 0 79.2158 10.4777 830 120.769 805.418 448.866
1195 0 82.2284 12.2585 1008 117.584 805.886 449.106
1196 0 84.0581 12.6222 1061 116.567 807.184 447.531
1197 0 87.1887 12.1461 1059 117.881 807.781 447.853
1198 0 90.1817 12.5746 1134 117.371 807.946 446.651
1199 0 93.1248 11.6081 1081 119.843 809.348 442.314
1200 0 93.1245 11.6403 1084 131.966 811.337 442.4
1201 0 96.122 12.0888 1162 118.522 809.296 446.064
1202 0 106.671 11.9058 1270 118.72 810.112 447.114
1203 0 110.865 14.4681 1604 113.074 810.666 447.467
1204 0 106.217 15.5342 1650 115.748 811.884 438.215
1205 0 107.37 11.0738 1189 121.717 812.162 447.386
1206 0 113.193 11.2021 1268 122.087 812.718 438.376
1207 0 117.391 14.3282 1682 117.125 812.463 440.976
1208 0 121.214 11.2776 1367 122.367 812.103 442.535
1209 0 126.38 12.5969 1592 120.971 811.785 440.378
1210 1 64.2351 11.022 708 116.369 811.253 469.973
1211 0 69.2041 14.0888 975 111.113 810.576 470.112
1212 0 70.0597 11.79 826 115.918 810.597 469.584
1213 0 71.086 10.7897 767 118.046 809.939 465.868
1214 0 75.0611 12.4432 934 115.747 809.349 466.868
1215 0 79.1614 10.1186 801 115.948 808.327 472.796
1216 0 83.1978 15.397 1281 110.838 806.48 466.546
1217 0 86.1038 16.0272 1380 110.212 806.676 464.428
1218 1 45.0155 10.6186 478 113.437 805.895 482.605
1219 0 45.0155 10.5519 475 133.175 804.893 482.402
1220 0 49.1235 15.8376 778 104.904 803.92 483.298
1221 0 47.0659 14.9153 702 108.11 802.984 478.903
1222 0 53.1566 13.3191 708 107.96 803.364 482.986
1223 0 51.0857 12.9782 663 110.795 802.493 477.198
1224 0 53.1355 11.3295 602 112.316 802.625 474.394
1225 0 51.0342 12.1683 621 112.266 803.295 477.639
1226 0 54.117 10.9577 593 113.187 802.946 476.509
1227 0 55.0624 9.86155 543 115.094 802.418 474.188
1228 0 58.2756 16.3362 952 107.036 802.041 468.199
1229 0 58.0728 13.1215 762 110.858 802.106 471.277
1230 0 62.3154 12.9824 809 108.681 802.832 471.399
1231 0 64.1305 14.9383 958 103.955 803.983 477.033
1232 0 66.2093 14.6958 973 107.867 803.774 469.637
1233 0 62.1118 9.4668 588 117.816 805.284 464.699
1234 0 72.1791 9.07465 655 117.531 804.805 460.511
1235 0 71.1221 11.1217 791 115.31 804.986 457.339
1236 0 70.1192 11.3236 794 132.145 804.995 457.659
1237 0 80.1178 14.2665 1143 110.321 806.799 451.977
1238 0 79.1877 10.1531 804 116.08 806.828 448.657
1239 0 79.2883 10.9222 866 116.669 807.415 447.532
1240 0 83.1684 10.088 839 117.353 808.456 450.417
1241 0 86.1078 10.1965 878 118.13 809.379 446.224
1242 0 89.1604 12.4719 1112 116.487 809.897 443.078
1243 0 93.2546 16.8035 1567 109.967 810.05 444.167
1244 0 93.2546 16.8785 1574 121.012 810.023 444.349
1245 1 55.1087 12.4118 684 113.3 812.01 465.018
1246 0 52.1078 12.9731 676 110.348 812.441 472.587
1247 0 59.1181 9.25266 547 116.867 812.815 467.651
1248 0 60.1257 12.2244 735 113.067 812.928 469.626
1249 0 61.0723 11.7729 719 113.067 811.818 469.159
1250 0 60.0669 8.24081 495 116.956 812.18 473.622
1251 0 63.1554 12.398 783 112.734 811.912 470.713
1252 1 122.331 10.7577 1316 119.336 812.049 449.951
1253 0 124.604 10.9949 1370 121.194 811.045 442.193
1254 0 131.277 12.6374 1659 119.007 811.332 440.823
1255 0 135.295 14.0286 1898 117.273 809.997 439.992
1256 1 149.21 6.35348 948 128.641 809.362 441.646
1257 0 152.173 7.32718 1115 125.17 808.754 449.887
1258 0 153.238 10.7023 1640 124.633 809.096 432.556
1259 0 151.335 10.1364 1534 127.655 808.757 423.005
1260 1 207.594 6.46936 1343 141.996 807.555 389.197
1261 0 212.46 8.11446 1724 140.027 805.746 383.37
1262 1 49.1108 9.50912 467 121.259 805.403 477.867
1263 0 48.0194 8.89224 427 123.585 805 477.874
1264 0 48.0194 9.10049 437 119.542 805.007 478.021
1265 1 189.514 11.5822 2195 130.309 803.187 408.769
1266 0 196.583 12.5443 2466 129.612 803.672 410.212
1267 1 56.0728 10.3437 580 120.955 803.588 475.614
1268 0 56.0841 12.8022 718 117.694 803.337 473.982
1269 0 56.0988 13.2267 742 117.567 802.442 473.367
1270 0 58.0837 10.9841 638 121.461 802.022 469.671
1271 0 58.1217 8.63705 502 126.161 803.245 468.153
1272 0 52.0726 7.70079 401 130.327 802.421 464.399
1273 0 64.0851 14.5276 931 118.416 802.405 463.133
1274 0 66.1466 13.6817 905 120.296 802.835 461.899
1275 1 132.196 10.4163 1377 129.644 804.139 427.232
1276 0 139.353 12.3212 1717 125.126 804.565 429.789
1277 1 212.483 14.2505 3028 129.21 805.534 384.997
1278 1 72.1428 8.59407 620 129.25 806.271 457.445
1279 0 78.2626 14.5536 1139 119.241 805.692 455.298
1280 0 80.0792 12.6125 1010 124.549 806.792 453.303
1281 0 81.144 14.123 1146 123.565 808.198 452.022
1282 0 78.1838 9.92534 776 130.513 809.295 455.914
1283 1 134.64 12.1732 1639 128.906 809.832 430.386
1284 0 139.407 15.487 2159 122.321 809.773 433.684
1285 0 141.33 12.3187 1741 131.735 810.648 423.066
1286 0 147.229 12.9866 1912 131.802 811.488 419.58
1287 0 154.268 12.5172 1931 131.893 812.103 423.704
1288 0 154.268 12.407 1914 142.989 812.087 423.613
1289 0 162.59 12.1902 1982 133.904 813.258 411.873
1290 0 168.502 12.6586 2133 133.32 813.256 409.11
1291 0 173.492 10.0466 1743 135.913 813.141 413.036
1292 1 121.454 13.4537 1634 129.334 812.134 436.826
1293 0 123.276 12.0299 1483 132.465 812.322 435.119
1294 0 126.43 15.2654 1930 123.982 812.31 444.117
1295 0 127.363 8.96653 1142 129.678 811.328 455.958
1296 1 75.2231 13.214 994 122.954 810.781 464.07
1297 0 77.2361 12.4812 964 123.638 810.727 466.49
1298 0 81.1479 15.8476 1286 119.623 810.956 460.259
1299 0 84.2251 13.9982 1179 121.986 810.365 466.815
1300 0 84.2607 11.0846 934 128.725 809.534 461.886
1301 0 87.1174 12.7759 1113 127.129 808.313 463.49
1302 0 91.1989 14.748 1345 124.752 807.578 460.737
1303 0 94.2016 13.1102 1235 126.884 807.258 461.343
1304 0 97.3674 14.6558 1427 126.038 806.687 456.205
1305 0 103.165 13.6287 1406 127.242 805.525 456.74
1306 0 104.131 11.9561 1245 131.895 805.794 452.936
1307 0 106.289 13.2846 1412 130.398 804.992 454.358
1308 0 104.304 11.0446 1152 142.48 804.05 449.942
1309 0 103.293 7.10597 734 139.226 802.907 458.751
1310 1 61.159 10.6771 653 129.101 802.542 469.92
1311 0 61.1302 8.76817 536 132.978 802.541 467.97
1312 0 66.1408 9.8124 649 130.866 802.989 471.911
1313 0 68.0397 11.4198 777 126.662 802.512 470.369
1314 0 68.0397 11.3904 775 130.714 801.501 470.432
1315 0 72.1997 10.5679 763 130.558 803.195 461.949
1316 0 76.2586 11.5135 878 129.366 803.551 460.262
1317 0 76.2697 11.7085 893 130.426 804.23 461.194
1318 0 80.1182 12.3692 991 129.97 804.502 456.618
1319 0 82.2109 8.7458 719 136.27 804.892 453.306
1320 0 85.192 13.4167 1143 127.628 805.593 448.127
1321 0 86.2622 11.3955 983 134.287 806.767 443.068
1322 1 51.1286 9.79882 501 129.85 806.363 467.401
1323 0 51.0311 10.4642 534 130.772 806.916 466.127
1324 0 50.0399 8.773 439 133.815 807.519 466.301
1325 0 52.0286 9.11037 474 130.447 808.81 467.954
1326 0 59.1038 11.3191 669 127.859 808.483 463.46
1327 0 57.032 10.0119 571 127.897 808.662 467.853
1328 0 58.0509 10.353 601 129.602 808.807 465.135
1329 0 63.1048 12.1544 767 125.091 810.145 467.026
1330 0 62.0623 11.4562 711 127.481 809.571 463.487
1331 0 63.0777 10.7962 681 117.934 809.492 463.975
1332 0 66.1335 10.1764 673 126.912 811.074 469.401
1333 1 128.214 11.824 1516 137.941 812.509 428.928
1334 0 132.232 13.015 1721 136.544 811.382 430.772
1335 1 74.0548 13.463 997 124.313 811.528 466.166
1336 0 79.1588 15.8542 1255 118.473 810.341 469.647
1337 0 80.2043 11.6203 932 127.848 809.972 462.839
1338 0 81.176 14.3146 1162 123.319 809.855 464.854
1339 0 84.0804 8.20644 690 130.596 809.745 468.575
1340 0 88.2387 12.1602 1073 127.612 808.878 461.294
1341 0 89.209 11.7589 1049 128.561 808.876 456.156
1342 0 89.2976 8.86922 792 132.467 807.573 462.263
1343 0 96.1333 12.6387 1215 126.281 807.452 457.568
1344 1 51.0444 7.40532 378 127.754 805.87 478.053
1345 0 55.1809 8.78927 485 125.619 806.254 476.019
1346 0 56.1524 18.432 1035 113.29 804.593 476.672
1347 0 54.0869 9.31834 504 127.238 804.94 475.99
1348 0 56.1101 9.48136 532 125.602 805.203 481.412
1349 0 58.0299 11.1494 647 126.742 804.36 473.085
1350 0 62.0696 11.3421 704 126.236 802.982 470.335
1351 0 63.0333 13.9926 882 121.6 802.442 471.363
1352 0 63.3321 12.1581 770 124.36 803.313 467.219
1353 0 65.1226 10.058 655 126.154 803.028 471.496
1354 0 67.1148 10.2362 687 128.221 803.154 469.467
1355 0 68.1134 10.3063 702 126.708 802.548 472.943
1356 1 82.2369 5.05856 416 133.216 802.791 469.964
1357 0 82.0853 7.49221 615 128.785 803.4 470.715
1358 0 79.1354 9.11097 721 129.526 803.78 450.982
1359 0 82.2586 12.327 1014 125.982 804.428 453.281
1360 0 83.1255 10.9232 908 128.374 805.33 457.554
1361 0 84.162 10.8362 912 111.709 805.34 457.461
1362 1 44.1484 9.85313 435 125.343 804.195 468.434
1363 0 44.0253 9.65355 425 128.287 805.329 467.631
1364 0 49.1858 15.3296 754 118.83 806.918 466.907
1365 0 49.0559 14.4733 710 119.638 807.592 470.1
1366 0 48.1284 10.0149 482 128.17 807.579 467.245
1367 0 51.0875 9.78713 500 129.052 809.09 466.622
1368 0 52.099 11.3246 590 128.154 809.697 462.7
1369 1 109.218 12.0127 1312 134.293 810.162 438.197
1370 1 56.0741 12.9828 728 124.658 810.018 460.603
1371 0 57.1088 11.0141 629 129.76 811.262 466.231
1372 0 60.1807 13.044 785 126.935 810.662 462.66
1373 0 63.106 11.7897 744 129.032 811.409 462.753
1374 0 65.1346 13.9557 909 123.895 811.255 466.341
1375 0 65.1417 9.73262 634 131.21 812.913 468.868
1376 0 67.167 10.6302 714 132.14 811.986 464.92
1377 0 71.2669 13.5126 963 129.217 812.248 465.67
1378 0 72.1728 12.4978 902 130.151 811.007 461.232
1379 0 73.2657 11.042 809 133.397 812.111 467.281
1380 0 77.1508 13.9467 1076 128.398 810.999 462.868
1381 0 80.0802 10.8266 867 133.355 809.854 464.726
1382 0 83.1647 13.6115 1132 129.807 809.728 460.08
1383 0 85.5089 9.56626 818 136.117 809.632 460.278
1384 0 89.2833 11.0659 988 134.816 809.26 461.045
1385 1 46.1044 10.8666 501 132.068 807.836 479.162
1386 0 49.1351 12.1909 599 129.501 807.366 479.818
1387 0 50.1415 10.9291 548 131.507 806.464 479.947
1388 0 52.1846 12.3408 644 130.166 805.669 477.846
1389 0 53.091 10.5856 562 134.105 805.811 477.746
1390 0 54.2421 11.7436 637 132.235 804.133 474.721
1391 0 54.0615 10.71 579 135.029 804.292 473.981
1392 0 57.0797 12.8592 734 130.922 805.049 474.77
1393 0 57.2773 10.2309 586 136.131 804.392 473.922
1394 0 61.1667 18.2452 1116 125.173 803.778 466.815
1395 0 59.1767 11.2544 666 138.608 803.422 467.571
1396 0 64.0472 12.5532 804 133.193 802.373 466.311
1397 0 67.0838 12.4322 834 135.572 803.392 464.799
1398 0 68.0769 14.9537 1018 130.598 802.379 463.328
1399 0 71.147 13.0575 929 134.338 802.807 456.468
1400 0 69.1769 10.3503 716 140.863 802.905 454.911
1401 0 74.1601 12.5404 930 137.678 802.681 447.611
1402 0 77.2557 9.39736 726 141.222 803.817 453.848
1403 0 82.2204 14.1206 1161 135.391 803.578 447.83
1404 0 81.2696 10.1022 821 145.367 804.574 444.385
1405 1 46.0581 10.4433 481 134.674 804.146 463.838
1406 0 49.0852 12.57 617 132.658 805.295 464.566
1407 0 50.0784 11.1425 558 134.93 806.237 466.665
1408 0 50.043 10.0513 503 137.328 806.038 468.233
1409 0 56.1603 13.7642 773 131.624 806.486 463.237
1410 0 55.2705 11.7784 651 134.785 808.347 467.889
1411 0 55.0592 11.2425 619 138.643 809.037 462.648
1412 0 59.1367 11.3973 674 137.049 809.221 466.605
1413 0 58.1288 13.4185 780 136.004 810.192 463.74
1414 0 62.1223 13.6827 850 135.187 810.62 462.448
1415 0 65.2075 13.0046 848 135.449 811.031 462.82
1416 0 67.2322 11.2297 755 140.131 811.32 462.438
1417 0 64.2908 8.8193 567 144.007 811.817 461.48
1418 0 71.3275 13.8095 985 134.926 811.577 463.91
1419 0 74.1953 14.7988 1098 136.696 812.399 461.312
1420 0 77.0662 18.283 1409 130.797 811.883 461.812
1421 0 79.1296 11.0452 874 144.1 812.486 462.296
1422 0 83.2901 15.2359 1269 136.822 811.847 464.024
1423 0 85.1508 13.9047 1184 139.541 811.208 460.481
1424 0 94.1966 12.5588 1183 140.979 811.135 459.394
1425 0 93.1209 13.4019 1248 139.833 811.039 458.284
1426 0 97.3879 14.1907 1382 140.428 809.901 453.901
1427 1 169.615 12.5932 2136 154.249 809.836 420.434
1428 0 178.705 12.6186 2255 155.497 808.548 415.388
1429 1 55.0656 11.7496 647 139.244 809.371 482.065
1430 0 57.1346 12.6893 725 139.608 807.204 478.097
1431 0 59.1877 12.7391 754 136.435 806.332 476.806
1432 0 60.067 11.637 699 137.747 804.338 474.535
1433 0 62.0794 11.0826 688 139.958 805.365 470.046
1434 0 65.0722 12.2479 797 138.08 804.107 468.54
1435 0 68.1108 10.5857 721 139.359 803.933 471.208
1436 0 69.0746 12.6819 876 136.846 803.357 468.065
1437 0 73.1186 12.3224 901 137.513 803.418 462.983
1438 0 77.2606 12.2572 947 138.181 803.093 462.401
1439 0 77.2624 12.244 946 115.996 804.079 462.329
1440 0 82.1273 13.6982 1125 135.836 802.598 460.416
1441 0 86.2657 15.6725 1352 133.382 802.734 454.188
1442 0 89.1092 15.1948 1354 133.638 802.144 452.174
1443 0 92.1846 13.3428 1230 139.485 802.798 451.08
1444 1 49.1542 12.532 616 133.794 802.432 472.256
1445 0 51.1701 11.5888 593 135.256 803.096 470.919
1446 0 51.1537 11.5339 590 115.802 804.09 470.932
1447 0 52.0711 13.4048 698 132.443 804.732 467.542
1448 0 54.0538 10.1381 548 138.456 804.611 463.122
1449 0 56.1724 13.2805 746 132.355 805.752 463.174
1450 0 58.1024 10.8085 628 136.787 806.18 462.92
1451 0 60.097 11.3816 684 134.942 807.064 462.056
1452 0 61.0886 10.6567 651 136.522 807.762 460.008
1453 0 64.1075 11.7147 751 134.475 807.573 460.398
1454 0 66.0673 10.4439 690 136.59 808.349 460.662
1455 0 68.0861 11.2505 766 134.567 809.222 459.976
1456 0 68.0861 11.177 761 117.657 810.226 460.078
1457 0 76.1601 12.2505 933 133.088 810.383 457.853
1458 0 76.0655 12.7522 970 134.252 810.464 456.812
1459 0 79.2215 12.3956 982 135.048 810.828 453.505
1460 0 77.186 10.7532 830 129.041 810.945 450.501
1461 0 85.1728 13.3493 1137 134.017 812.473 457.69
1462 0 88.163 13.2142 1165 131.582 812.209 459.57
1463 0 89.0567 14.2943 1273 133.786 811.769 452.876
1464 0 91.2081 12.9265 1179 135.642 811.98 456.695
1465 0 98.1842 14.0858 1383 133.608 811.228 454.938
1466 0 95.1733 9.5615 910 143.356 811.815 446.556
1467 0 97.2077 10.3284 1004 126.364 811.754 448.996
1468 1 109.393 13.7395 1503 136.244 809.672 446.806
1469 0 111.36 12.7694 1422 136.965 810.281 448.531
1470 0 113.24 12.2042 1382 139.038 809.199 448.446
1471 1 64.1606 11.892 763 129.737 808.368 472.852
1472 0 67.1363 10.9181 733 136.532 807.176 468.764
1473 0 69.1652 9.03634 625 140.891 806.768 469.45
1474 0 71.1796 12.8548 915 132.876 805.647 470.91
1475 0 75.1511 21.4767 1614 121.245 805.81 466.278
1476 0 75.1422 13.2416 995 135.296 805.459 461.041
1477 0 80.4333 13.1289 1056 133.834 803.912 464.986
1478 0 81.0688 13.1 1062 133.701 803.499 464.298
1479 0 84.1168 12.4232 1045 136.383 803.804 456.076
1480 0 83.1079 11.9243 991 138.39 803.38 453.067
1481 0 89.0772 13.5388 1206 135.508 802.824 452.252
1482 0 91.1741 13.5236 1233 135.379 802.82 453.055
1483 0 95.1272 12.7619 1214 137.717 803.692 451.096
1484 0 104.259 11.8455 1235 137.604 802.363 450.521
1485 0 98.3775 10.3784 1021 143.943 802.084 438.386
1486 0 104.198 10.3457 1078 143.39 802.207 439.263
1487 0 106.223 9.30115 988 145.288 802.574 436.894
1488 1 57.3381 11.406 654 133.127 803.272 460.956
1489 0 62.1648 12.2417 761 131.089 802.423 462.647
1490 0 62.2027 12.0091 747 132.091 803.143 457.912
1491 0 62.1199 10.2544 637 135.543 804.345 455.487
1492 0 67.1 11.535 774 137.32 806.694 457.991
1493 0 67.0965 11.6399 781 116.759 807.706 458.018
1494 0 68.164 8.03943 548 141.553 806.203 456.732
1495 0 75.1138 14.0054 1052 132.857 808.524 446.836
1496 0 75.1118 14.1389 1062 110.714 810.546 446.772
1497 0 75.1118 14.1922 1066 110.062 812.547 446.698
1498 0 83.2237 12.2201 1017 136.837 807.72 445.843
1499 0 87.0817 13.5964 1184 134 810.085 443.375
1500 0 88.175 14.5393 1282 133.733 810.415 441.088
1501 0 93.2089 10.4389 973 139.667 810.046 445.404
1502 0 97.3053 13.6067 1324 134.002 810.758 448.332
1503 0 100.203 11.6564 1168 138.224 811.247 445.549
1504 0 107.161 11.9913 1285 138.01 811.584 444.11
1505 0 105.116 13.1569 1383 139.375 810.895 440.357
1506 0 111.239 14.86 1653 136.103 811.936 441.737
1507 0 113.164 15.5792 1763 135.698 811.126 442.365
1508 0 116.324 9.80024 1140 146.548 812.318 444.806
1509 1 60.1061 14.6907 883 129.934 810.098 468.507
1510 0 63.1084 12.5815 794 132.241 809.432 469.484
1511 0 65.0522 12.3593 804 133.537 809.08 468.786
1512 0 69.1893 13.2246 915 129.556 808.61 472.25
1513 0 67.1152 8.58226 576 139.135 808.406 471.753
1514 0 71.0802 8.9195 634 140.115 807.503 466.79
1515 0 77.1168 12.2541 945 136.377 806.327 466.048
1516 0 81.3295 11.3489 923 136.748 804.493 467.86
1517 0 81.3295 9.3447 760 144.741 804.291 464.668
1518 0 80.0802 12.8121 1026 139.701 804.064 460.606
1519 0 86.1183 12.3203 1061 138.114 803.68 462.897
1520 0 88.1198 13.1072 1155 137.913 803.795 459.111
1521 0 90.1439 14.1219 1273 138.349 803.272 452.873
1522 0 91.1734 9.90421 903 144.869 802.384 456.489
1523 0 91.1734 9.8384 897 141.919 800.368 456.371
1524 1 52.0924 10.8845 567 140.367 802.356 471.575
1525 0 53.0719 12.2098 648 136.946 802.048 471.585
1526 0 58.054 13.3841 777 130.165 801.667 470.66
1527 0 58.0728 12.7598 741 131.869 802.391 474.051
1528 0 59.0836 13.7263 811 131.851 801.116 468.353
1529 0 61.02 10.9636 669 139.003 802.051 466.03
1530 0 63.0684 13.2872 838 135.356 803.34 464.346
1531 0 61.081 12.0332 735 137.776 802.427 464.605
1532 0 70.135 10.6224 745 136.907 804.297 467.046
1533 0 69.0782 13.3617 923 133.725 804.57 459.23
1534 0 71.1455 10.0358 714 139.707 804.331 459.833
1535 0 76.166 14.3502 1093 133.094 805.086 456.083
1536 0 78.1038 13.6997 1070 135.384 806.493 453.273
1537 0 78.495 13.3639 1049 136.231 807.036 453.934
1538 0 80.1352 11.9548 958 142.188 806.735 446.636
1539 0 84.2512 14.3618 1210 136.3 806.8 449.077
1540 0 84.2512 14.3499 1209 125.313 807.801 448.883
1541 0 90.3083 11.2061 1012 145.409 807.966 445.958
1542 0 90.1142 9.92074 894 150.049 808.355 441.86
1543 1 44.1077 6.14405 271 147.554 810.45 466.166
1544 0 47.075 10.9825 517 133.244 809.632 470.975
1545 0 53.094 10.6603 566 132.429 810.362 471.673
1546 0 50.1226 11.1128 557 134.67 810.88 470.11
1547 1 109.243 11.1311 1216 146.701 810.176 438.381
1548 0 111.292 8.77873 977 150.541 810.744 441.263
1549 0 113.401 12.8217 1454 143.403 810.472 439.776
1550 0 112.259 12.9166 1450 144.33 810.557 439.957
1551 0 114.348 9.34866 1069 146.583 808.389 444.768
1552 1 61.0853 12.7199 777 130.775 809.918 469.337
1553 0 62.2803 10.8702 677 134.665 809.665 469.092
1554 0 67.2242 10.3237 694 134.117 808.376 469.869
1555 0 67.1496 9.56074 642 135.978 807.919 469.508
1556 0 72.2029 11.9663 864 132.597 806.96 466.918
1557 0 72.277 7.58194 548 141.392 806.454 467.168
1558 0 76.0893 12.0779 919 133.876 805.667 466.409
1559 0 75.1444 11.0321 829 135.715 805.188 463.935
1560 0 79.275 11.7692 933 139.31 803.982 460.983
1561 0 83.0799 13.6014 1130 135.783 804.54 459.47
1562 0 84.1043 9.61901 809 141.216 803.247 456.92
1563 0 87.2294 10.1571 886 140.64 803.366 454.916
1564 0 91.2033 11.6005 1058 136.002 803.335 456.699
1565 0 95.1964 11.8597 1129 133.488 801.925 457.264
1566 1 51.1942 11.2513 576 129.439 801.83 473.285
1567 0 51.3327 12.117 622 129.421 801.9 474.203
1568 0 52.0641 5.89658 307 133.557 801.674 476.932
1569 0 53.095 8.62604 458 130.725 800.836 471.552
1570 0 53.0665 9.5729 508 128.01 800.661 473.096
1571 1 112.303 9.52779 1070 138.015 801.778 434.485
1572 0 110.381 8.13548 898 140.216 801.988 435.543
1573 0 118.122 9.43094 1114 136.787 802.078 438.789
1574 0 119.191 12.8365 1530 132.089 802.045 436.483
1575 1 63.0675 10.2589 647 129.039 803.459 457.105
1576 0 66.0472 10.9619 724 127.593 803.354 459.798
1577 0 67.078 10.0331 673 129.339 804.361 458.627
1578 0 70.045 10.3219 723 127.781 804.532 458.277
1579 0 74.1996 12.1294 900 126.364 806.149 453.744
1580 0 74.086 10.7038 793 129.916 806.132 447.908
1581 0 80.1874 8.34295 669 134.17 806.628 450.723
1582 0 81.2779 14.7642 1200 126.241 807.533 450.662
1583 0 82.2954 13.0749 1076 129.372 808.07 447.413
1584 0 84.0747 11.1448 937 133.747 808.479 447.576
1585 0 87.1146 12.8451 1119 131.052 809.441 452.473
1586 0 87.1146 12.7648 1112 123.281 810.446 452.659
1587 0 92.1246 13.5252 1246 133.11 810.347 448.217
1588 0 94.2583 10.2166 963 140.038 810.805 451.029
1589 0 94.2583 10.2697 968 127.812 811.809 450.79
1590 0 102.18 12.7226 1300 137.659 810.653 444.392
1591 0 103.223 11.354 1172 140.344 811.141 444.3
1592 0 106.188 9.29481 987 144.078 811.322 444.112
1593 0 111.164 10.8039 1201 141.925 810.306 441.038
1594 1 180.433 12.4755 2251 141.823 810.048 422.502
1595 0 179.486 14.1125 2533 139.527 810.137 425.392
1596 0 181.281 13.2391 2400 144.417 808.91 416.215
1597 1 125.182 9.93752 1244 142.191 808.973 445.728
1598 0 127.135 10.7996 1373 144.109 809.29 441.107
1599 0 132.47 10.5684 1400 141.864 808.216 444.725
1600 0 132.498 10.6945 1417 133.189 806.212 444.828
1601 1 81.1093 13.0195 1056 135.22 805.669 459.572
1602 0 84.1279 12.7663 1074 134.682 805.202 461.638
1603 0 87.1107 13.8215 1204 132.099 804.14 462.511
1604 0 88.2211 11.8906 1049 136.996 804.565 459.969
1605 0 92.2775 13.7953 1273 134.373 803.226 453.873
1606 1 52.0316 11.1855 582 131.78 802.747 478.014
1607 0 51.1399 9.67933 495 137.418 803.859 474.168
1608 0 57.1542 12.65 723 130.252 803.163 475.362
1609 0 60.1668 13.6786 823 128.16 802.911 473.292
1610 0 59.1273 14.0544 831 131.36 801.925 470.489
1611 0 59.1959 13.4469 796 129.325 801.05 471.544
1612 0 62.1588 10.8432 674 134.818 801.743 467.187
1613 0 62.1588 10.8754 676 126.692 801.717 467.049
1614 0 63.3102 15.89 1006 127.202 801.425 464.17
1615 0 68.2976 11.7281 801 131.889 801.047 461.624
1616 0 70.0758 9.14723 641 135.331 802.073 459.933
1617 0 71.1147 12.6275 898 131.266 802.45 455.882
1618 0 73.2008 10.642 779 134.063 802.788 456.008
1619 0 77.1648 11.0154 850 134.308 802.827 454.002
1620 0 79.1384 11.0313 873 135.809 804.481 447.121
1621 0 79.1151 11.2242 888 135.122 806.521 447.273
1622 0 87.1546 12.0705 1052 131.089 804.202 452.577
1623 0 85.0586 11.3216 963 137.37 805.018 442.525
1624 0 92.1309 12.3628 1139 135.337 805.802 445.126
1625 0 97.1085 14.8391 1441 130.855 806.576 443.53
1626 0 97.1085 14.9009 1447 121.105 806.588 443.598
1627 1 51.0597 11.3005 577 131.605 808.811 464.277
1628 0 50.0538 9.72954 487 119.265 810.895 466.125
1629 0 55.0874 12.3803 682 130.814 809.458 461.872
1630 0 57.0502 9.50041 542 134.542 809.164 465.277
1631 0 60.1801 11.449 689 131.53 809.538 466.824
1632 0 60.0485 13.8055 829 128.129 810.007 464.366
1633 0 60.0485 13.9887 840 118.268 810.976 464.311
1634 0 64.0933 14.4009 923 126.67 811.697 468.244
1635 0 63.1853 6.4572 408 137.681 812.15 473.757
1636 0 65.1154 11.9173 776 133.195 811.245 466.017
1637 0 69.0499 10.7893 745 134.854 810.545 467.979
1638 0 77.1953 9.05495 699 137.78 809.712 468.133
1639 0 80.4707 12.9985 1046 133.641 809.816 465.73
1640 0 78.2341 16.0544 1256 129.306 808.068 464.819
1641 0 78.2064 12.1473 950 137.988 808.833 461.909
1642 0 81.4499 13.7999 1124 135.871 807.372 459.652
1643 0 81.4499 13.7876 1123 124.589 807.389 459.656
1644 0 86.2606 17.1225 1477 130.028 806.429 460.409
1645 0 88.2004 12.1541 1072 137.985 805.093 459.252
1646 0 91.2432 13.3489 1218 139.062 804.901 456.846
1647 0 97.1467 13.5259 1314 138.46 804.379 453.902
1648 0 104.077 9.83885 1024 145.665 803.612 447.419
1649 0 105.331 9.5129 1002 144.686 803.009 452.607
1650 0 102.171 11.5199 1177 142.461 802.479 446.124
1651 0 107.201 11.7164 1256 141.078 802.908 447.648
1652 0 105.248 10.1095 1064 145.348 802.961 443.788
1653 1 60.1001 10.0665 605 138.911 803.291 466.288
1654 0 62.155 9.68546 602 136.889 802.417 467.095
1655 0 68.0991 7.57719 516 139.178 801.5 468.506
1656 0 70.1482 12.3168 864 132.659 801.01 460.115
1657 0 67.1875 9.79349 658 137.085 802.261 464.056
1658 0 70.1718 12.1559 853 123.279 803.184 456.536
1659 0 79.2758 15.137 1200 129.928 802.483 453.927
1660 0 82.158 12.8655 1057 134.819 802.616 450.724
1661 0 84.159 14.7934 1245 131.792 803.276 451.794
1662 0 86.109 15.2133 1310 131.646 803.305 447.257
1663 0 89.2591 12.3685 1104 135.212 805.087 445.986
1664 0 90.6198 12.8118 1161 136.598 805.133 440.265
1665 0 93.3587 10.6364 993 141.134 806.711 438.231
1666 0 99.5193 14.2887 1422 135.271 806.921 436.602
1667 1 193.515 12.2109 2363 144.104 807.638 401.717
1668 0 199.574 11.9805 2391 147.488 807.793 389.162
1669 1 109.357 13.8354 1513 135.466 809.056 437.114
1670 0 109.357 13.936 1524 113.428 810.037 437.083
1671 0 110.285 8.84981 976 145.332 809.707 434.4
1672 1 63.0793 11.3349 715 132.499 810.597 460.046
1673 0 65.0663 12.2337 796 131.161 811.653 459.945
1674 0 68.3488 12.1875 833 130.976 811.776 460.166
1675 0 70.1526 10.7765 756 134.3 811.381 457.778
1676 0 73.0884 9.97422 729 135.166 810.855 460.881
1677 0 75.1653 14.5147 1091 129.069 810.828 457.001
1678 0 76.1859 13.5196 1030 130.482 811.137 461.06
1679 0 79.197 11.2631 892 137.296 811.335 456.471
1680 0 82.4044 10.0601 829 139.777 809.583 459.116
1681 0 84.1375 11.3267 953 139.151 809.206 457.936
1682 0 90.3746 13.0125 1176 136.523 809.772 456.595
1683 0 90.3746 13.09 1183 124.518 810.785 456.612
1684 0 89.1683 9.16245 817 140.126 808.203 463.666
1685 0 97.2422 13.2967 1293 137.022 807.601 455.044
1686 0 102.348 10.5718 1082 142.732 806.457 450.068
1687 0 107.413 10.4456 1122 143.18 805.707 447.893
1688 0 107.413 10.3246 1109 128.309 804.713 447.855
1689 0 112.388 10.2769 1155 145.352 803.5 438.323
1690 0 114.289 11.6197 1328 141.501 803.532 440.426
1691 0 122.152 15.6608 1913 136.309 803.662 437.41
1692 0 125.409 14.4647 1814 138.731 803.155 438.122
1693 1 68.278 10.9992 751 135.744 803.071 466.293
1694 0 69.0787 10.2057 705 137.81 802.326 464.838
1695 0 73.1164 11.7757 861 134.872 802.503 464.59
1696 0 74.0566 9.37121 694 139.483 802.693 462.607
1697 0 78.0816 12.0771 943 137.499 802.57 457.614
1698 0 85.0843 7.43968 633 141.839 801.714 464.163
1699 0 83.1264 11.9697 995 137.662 802.321 456.736
1700 0 87.4177 14.4593 1264 135.196 802.183 452.494
1701 0 89.5207 11.8743 1063 141.496 802.629 449.282
1702 0 94.2032 11.2947 1064 141.292 803.476 451.114
1703 0 94.2949 10.3187 973 146.067 803.15 443.858
1704 0 97.2664 10.6409 1035 145.686 803.105 444.019
1705 0 105.135 13.1831 1386 141.19 804.298 440.654
1706 1 52.2299 11.1813 584 138.985 804.247 459.432
1707 0 56.0692 12.3062 690 135.145 805.375 462.317
1708 0 58.2261 10.1673 592 137.924 806.493 463.247
1709 0 58.1982 12.9729 755 132.78 806.678 461.319
1710 0 62.1297 14.5341 903 129.941 807.327 457.353
1711 0 62.1309 14.5338 903 111.628 807.327 457.353
1712 0 65.2163 13.0029 848 137.772 808.375 457.093
1713 0 69.2507 8.75082 606 146.612 809.191 455.904
1714 0 72.2367 10.0088 723 143.288 810.129 456.3
1715 0 71.1689 11.7748 838 138.451 810.198 460.714
1716 0 74.1912 12.2791 911 140.15 811.232 455.532
1717 0 74.4612 10.717 798 144.046 810.623 450.281
1718 0 79.2406 17.7813 1409 130.877 810.679 453.337
1719 0 80.2117 11.5943 930 142.272 811.509 453.82
1720 0 80.2117 11.507 923 136.356 812.478 453.895
1721 0 86.4938 11.55 999 143.246 810.47 451.189
1722 0 94.5394 12.1642 1150 140.308 810.617 455.569
1723 0 91.5521 11.3597 1040 143.953 809.969 453.945
1724 0 94.3248 13.9624 1317 138.962 809.118 447.157
1725 0 98.3519 12.5671 1236 141.71 809.307 447.865
1726 0 100.374 13.7585 1381 138.87 809.577 451.393
1727 1 49.1556 7.95434 391 145.02 807.547 473.619
1728 0 56.0912 11.7131 657 136.718 807.524 475.65
1729 0 60.1334 13.9856 841 135.678 805.814 472.848
1730 0 63.1242 13.4497 849 135.499 803.336 473.243
1731 0 61.1244 11.0267 674 142.341 804.013 469.181
1732 0 64.1205 10.6986 686 140.313 803.94 472.799
1733 0 67.06 12.7945 858 138.45 803.438 465.191
1734 0 69.1723 11.5364 798 140.624 802.526 465.545
1735 0 72.1632 11.6264 839 138.422 803.502 471.796
1736 0 73.2229 11.9088 872 138.595 802.542 466.097
1737 0 77.1366 13.2492 1022 136.857 802.086 465.912
1738 0 78.1402 13.9749 1092 136.866 801.312 462.065
1739 0 78.2346 12.7821 1000 141.217 801.919 458.252
1740 0 84.1341 15.8913 1337 136.258 801.684 457.939
1741 0 85.1258 15.201 1294 136.765 801.218 459.508
1742 0 88.3023 13.2273 1168 143.718 802.8 451.595
1743 0 91.2654 11.4501 1045 145.67 801.515 453.308
1744 0 94.2906 15.3144 1444 141.692 801.742 446.096
1745 0 97.4313 13.1067 1277 145.481 802.545 441.995
1746 1 108.492 9.51225 1032 149.916 803.11 442.949
1747 0 110.213 10.4798 1155 148.019 802.917 443.188
1748 0 110.296 10.4809 1156 149.488 803.977 439.384
1749 0 109.257 9.78429 1069 151.997 804.167 434.968
1750 0 110.178 13.1605 1450 145.702 805.238 440.777
1751 0 117.277 14.0522 1648 143.89 806.28 433.47
1752 0 117.219 12.8905 1511 146.752 806.292 433.817
1753 1 63.2151 11.2157 709 141.543 806.109 462.22
1754 0 64.0704 10.4416 669 143.798 807.622 462.438
1755 0 63.0722 12.7949 807 141.957 807.322 461.538
1756 0 62.1348 11.0083 684 141.237 806.842 465.56
1757 0 72.1768 11.7905 851 145.076 808.732 456.713
1758 0 73.0932 13.5033 987 141.838 809.012 457.7
1759 0 75.1596 12.3604 929 144.43 809.606 457.48
1760 0 75.1813 11.9578 899 146.053 810.368 456.751
1761 0 81.1047 14.0929 1143 140.889 810.601 455.599
1762 0 83.2523 13.393 1115 143.155 810.254 454.402
1763 0 86.1678 14.054 1211 141.29 809.656 456.32
1764 0 89.1708 14.2872 1274 140.574 810.21 455.982
1765 0 89.0611 11.3405 1010 147.998 809.572 452.077
1766 0 94.1417 15.0624 1418 141.086 809.188 449.582
1767 0 96.1943 10.853 1044 146.768 808.872 451.639
1768 0 102.243 12.9495 1324 142.872 809.31 452.656
1769 0 105.165 15.1381 1592 139.965 808.062 448.936
1770 0 108.317 12.7773 1384 142.55 807.44 451.665
1771 0 108.317 12.2972 1332 144.615 806.432 450.835
1772 0 117.23 14.7659 1731 135.849 805.622 454.48
1773 0 119.378 13.495 1611 140.513 805.916 445.849
1774 0 123.283 12.0698 1488 143.842 804.567 442.528
1775 1 68.1469 11.666 795 134.003 803.708 472.631
1776 0 69.1933 9.24945 640 138.689 802.555 466.292
1777 0 72.0907 10.5978 764 137.363 801.664 468.969
1778 0 76.1033 14.7563 1123 130.818 801.658 463.651
1779 0 78.1756 10.6427 832 137.072 801.375 459.852
1780 0 83.1652 12.9501 1077 133.218 801.303 459.16
1781 0 84.2931 11.0329 930 136.486 801.391 457.554
1782 0 87.1542 10.7855 940 138.133 801.514 453.308
1783 0 89.332 10.377 927 139.442 800.871 452.69
1784 0 93.4284 14.4282 1348 133.583 799.608 447.896
1785 0 95.2578 11.4531 1091 138.209 801.654 447.517
1786 0 97.2401 12.392 1205 138.213 801.66 444.205
1787 0 100.061 10.5835 1059 141.785 801.788 440.615
1788 0 107.244 12.6721 1359 138.253 802.113 438.171
1789 0 109.216 11.6375 1271 139.504 802.718 438.608
1790 0 111.313 8.07632 899 144.6 802.251 437.683
1791 0 116.191 13.6241 1583 137.33 803.648 431.798
1792 0 125.406 7.62325 956 146.2 803.569 426.694
1793 0 125.476 7.58708 952 129.287 803.565 427.087
1794 1 75.5573 11.038 834 131.763 805.062 455.778
1795 0 78.1693 9.14681 715 136.106 805.464 453.969
1796 0 78.1693 9.1724 717 116.392 806.483 454.297
1797 0 81.1948 9.742 791 137.039 807.296 449.234
1798 1 154.339 11.7857 1819 140.985 807.675 410.594
1799 1 167.453 9.88931 1656 141.273 808.141 419.35
1800 1 94.2417 10.3457 975 136.382 808.976 443.252
1801 0 98.3373 10.7487 1057 136.014 809.711 441.724
1802 0 97.1924 6.42025 624 143.114 809.947 442.643
1803 0 97.2097 9.74182 947 139.219 810.352 440.744
1804 0 100.231 6.79432 681 132.987 810.144 461.399
1805 0 99.3779 6.09793 606 141.038 810.158 452.53
1806 1 62.1242 12.1048 752 128.883 810.816 466.684
1807 0 63.3255 12.8226 812 128.707 809.332 469.195
1808 0 64.0822 10.549 676 133.317 809.635 469.146
1809 0 65.2331 16.0041 1044 125.14 809.192 466.398
1810 0 66.1211 13.3392 882 128.705 808.489 468.737
1811 0 66.0695 11.2003 740 131.219 807.657 472.216
1812 0 68.1724 10.2534 699 132.358 808.684 471.495
1813 0 75.2122 12.0193 904 127.92 808.07 471.751
1814 0 77.1387 9.98202 770 132.831 807.764 465.366
1815 0 78.1506 10.2622 802 130.949 807.357 468.306
1816 0 82.1939 9.90342 814 132.29 805.884 462.439
1817 0 85.2305 11.2753 961 130.626 804.709 459.314
1818 0 87.1828 10.6672 930 131.401 804.297 458.296
1819 0 90.3351 11.6455 1052 129.211 804.394 461.456
1820 0 91.3885 12.5399 1146 129.401 803.977 455.057
1821 0 95.2343 10.8889 1037 131.523 803.41 454.201
1822 0 98.2631 12.9754 1275 127.644 802.719 455.062
1823 0 97.1666 10.446 1015 134.713 802.612 448.858
1824 0 105.202 11.3686 1196 131.308 801.977 450.546
1825 0 106.206 8.76597 931 136.998 803.254 436.037
1826 0 112.198 13.3247 1495 128.522 802.506 446.061
1827 1 58.2053 11.4594 667 126.135 801.253 469.998
1828 0 58.2095 10.5825 616 132.247 801.786 465.323
1829 0 60.1348 13.3034 800 128.588 802.002 466.54
1830 0 64.1339 12.6454 811 129.158 801.898 463.618
1831 0 63.1442 10.9907 694 131.984 801.61 461.876
1832 0 63.0774 10.0829 636 129.558 802.605 466.604
1833 1 74.1201 13.4511 997 127.436 803.504 456.567
1834 0 75.1284 13.7631 1034 128.544 803.929 455.019
1835 0 76.274 11.0654 844 132.985 804.017 453.387
1836 0 80.3017 12.5278 1006 130.256 804.544 453.34
1837 0 80.2543 10.2051 819 136.215 805.311 446.841
1838 0 83.1956 12.693 1056 132.529 806.296 447.347
1839 0 83.2543 10.8102 900 135.846 807.32 447.589
1840 0 89.2317 12.4619 1112 134.001 807.236 445.551
1841 0 92.1388 15.379 1417 130.591 807.873 438.577
1842 0 99.0873 16.652 1650 111.778 807.884 448.706
1843 0 103.498 14.4833 1499 116.418 808.569 444.911
1844 0 103.213 13.4382 1387 120.668 808.707 437.404
1845 0 109.175 21.0947 2303 108.247 809.586 439.789
1846 0 111.156 18.1367 2016 112.386 809.612 444.169
1847 0 111.156 18.3076 2035 134.131 809.613 444.06
1848 0 117.209 14.4358 1692 118.641 810.264 437.651
1849 0 123.209 13.6111 1677 116.896 810.383 448.159
1850 1 66.0534 10.9911 726 119.274 810.485 467.328
1851 0 70.3475 11.9692 842 116.076 810.317 470.495
1852 0 73.1812 14.7989 1083 113.605 810.19 467.845
1853 0 76.3101 14.5066 1107 115.393 809.557 465.618
1854 0 77.3051 13.4661 1041 119.018 809.122 463.127
1855 0 80.1875 14.8901 1194 115.793 809.245 467.187
1856 0 83.3016 12.7729 1064 121.829 808.243 462.782
1857 0 88.3634 15.5042 1370 115.127 808.069 464.892
1858 0 90.4523 13.0234 1178 120.235 807.098 463.731
1859 0 95.4258 14.9331 1425 117.331 805.659 461.431
1860 0 95.3073 13.3883 1276 121.908 805.495 459.842
1861 0 100.247 15.2324 1527 118.866 804.201 458.197
1862 0 101.376 13.6719 1386 124.606 803.439 451.533
1863 0 103.393 12.9022 1334 125.181 802.651 454.547
1864 0 111.456 17.6841 1971 116.245 802.247 454.307
1865 0 110.312 14.0057 1545 126.249 802.507 445.137
1866 0 113.23 13.2386 1499 128.437 802.916 444.104
1867 0 121.356 18.1615 2204 118.57 802.368 442.662
1868 0 123.196 13.8235 1703 126.275 802.356 431.46
1869 1 69.3258 12.3475 856 124.285 801.224 464.299
1870 0 71.1485 12.6074 897 124.008 801.369 463.098
1871 0 73.1986 11.5576 846 126.949 801.749 460
1872 0 76.1607 14.7583 1124 121.286 802.051 460.763
1873 0 78.4055 12.4609 977 125.303 801.776 457.245
1874 0 84.4118 13.3512 1127 124 802.021 456.969
1875 0 82.5261 11.5115 950 128.687 802.938 453.626
1876 0 88.3859 15.1721 1341 121.752 803.864 449.34
1877 0 88.3826 12.9211 1142 127.706 804.509 445.378
1878 0 94.5813 14.7175 1392 124.577 804.364 446.241
1879 0 94.5411 14.7343 1393 145.125 804.39 446.308
1880 0 98.377 16.0912 1583 123.596 805.635 443.949
1881 0 104.36 15.092 1575 127.208 806.98 435.608
1882 1 57.1975 10.1578 581 129.836 807.162 459.621
1883 0 57.1975 10.2277 585 146.696 806.156 459.68
1884 0 62.0972 15.1214 939 121.342 807.405 458.881
1885 0 64.3245 14.6756 944 122.512 808.105 460.956
1886 0 65.2688 14.5399 949 122.902 808.33 461.662
1887 0 69.0919 13.9669 965 125.45 808.186 457.291
1888 0 71.158 14.5732 1037 123.187 809.5 458.972
1889 0 70.1551 13.1708 924 144.608 810.632 456.931
1890 0 74.0838 14.1192 1046 125.5 810.682 456.926
1891 1 145.187 15.5937 2264 127.744 810.619 425.267
1892 0 150.511 12.5306 1886 133.854 810.904 419.331
1893 0 153.577 12.6191 1938 132.897 810.76 425.251
1894 1 87.1547 13.2867 1158 129.037 810.827 452.623
1895 0 92.2329 15.656 1444 124.217 810.222 455.425
1896 0 92.2329 15.4825 1428 140.175 810.192 455.363
1897 0 96.3344 13.941 1343 129.051 809.054 455.176
1898 0 97.2073 11.1103 1080 136.488 808.761 452.089
1899 0 103.403 15.6766 1621 127.935 808.563 448.966
1900 1 59.2188 7.34564 435 126.582 808.322 479.188
1901 0 59.0855 9.46086 559 128.077 807.624 477.798
1902 0 62.1788 10.0999 628 132.311 805.268 473.051
1903 0 62.2441 11.0211 686 126.144 804.405 471.538
1904 0 62.0803 11.8234 734 128.396 803.01 468.789
1905 0 63.2328 11.2442 711 128.124 803.786 472.165
1906 0 67.3791 12.2442 825 125.444 802.367 467.308
1907 0 69.0997 10.7092 740 127.764 802.626 469.045
1908 0 70.1429 9.86558 692 130.842 801.184 462.409
1909 0 72.1604 10.0609 726 129.901 802.12 464.286
1910 0 75.3735 11.914 898 125.712 801.089 465.464
1911 0 78.2547 11.5137 901 127.198 801.221 462.729
1912 0 83.352 12.0693 1006 125.091 801.193 461.3
1913 0 81.2347 12.0023 975 125.772 801.327 460.917
1914 0 84.3579 13.7272 1158 124.61 802.069 455.786
1915 0 87.1899 12.8341 1119 126.021 801.464 454.576
1916 0 87.1899 12.9373 1128 125.994 800.469 454.557
1917 0 90.4407 12.0742 1092 128.009 801.28 449.107
1918 0 92.2969 11.4197 1054 131.062 802.121 444.573
1919 0 95.2198 11.8673 1130 131.381 802.6 443.805
1920 1 107.251 10.6106 1138 133.701 802.989 439.65
1921 0 105.433 8.89665 938 135.366 803.81 442.037
1922 0 105.464 12.1558 1282 128.613 804.541 444.547
1923 0 107.42 9.03925 971 137.849 805.854 434.771
1924 1 60.1354 14.168 852 121.962 804.649 458.757
1925 0 66.2188 10.9788 727 126.347 805.695 457.757
1926 0 66.2238 10.9628 726 127.271 806.466 456.592
1927 0 69.1285 13.0771 904 124.811 806.782 455.516
1928 0 68.2159 12.6217 861 126.944 808.39 452.728
1929 0 70.1469 9.6084 674 132.473 807.726 454.414
1930 0 77.2509 13.7863 1065 123.805 809.915 452.705
1931 0 78.0937 13.3429 1042 126.118 810.202 452.394
1932 0 78.2611 12.1644 952 127.799 810 453.949
1933 0 80.2012 10.0996 810 130.646 810.96 455.274
1934 0 87.2768 12.764 1114 126.45 810.292 455.743
1935 0 89.4851 9.09649 814 135.986 810.539 452.517
1936 0 94.4922 10.53 995 136.18 811.081 447.025
1937 0 94.7092 12.2903 1164 134.056 810.392 449.182
1938 1 12.0049 9.9126 119 108.807 807.748 492.109
1939 0 12.0017 2.66629 32 117.125 805.562 492.406
1940 1 52.1157 7.77117 405 128.069 809.588 470.435
1941 0 58.1153 7.84648 456 124.237 808.283 479.033
1942 0 60.2898 9.63679 581 120.399 806.604 479.878
1943 0 62.1317 7.38753 459 127.1 805.919 474.93
1944 0 66.2482 11.3663 753 121.493 804.267 473.928
1945 0 64.164 9.24194 593 124.823 804.939 472.988
1946 0 62.0813 5.00956 311 128.215 804.003 478.955
1947 0 64.1906 5.88871 378 130.78 803.225 473.27
1948 0 70.2407 9.86608 693 127.302 803.033 464.111
1949 0 76.1477 11.609 884 122.178 802.734 469.132
1950 0 77.286 8.34562 645 129.13 801.308 465.13
1951 0 80.1817 12.5091 1003 124.068 801.098 462.995
1952 1 155.429 13.2472 2059 140.786 801.274 418.745
1953 0 163.288 14.1957 2318 138.68 801.472 419.929
1954 1 85.1285 8.21112 699 132.11 801.032 461.299
1955 0 87.1735 9.2574 807 130.766 800.527 452.877
1956 1 51.0872 10.7855 551 122.583 800.79 472.192
1957 0 55.0879 12.6162 695 117.609 801.435 469.853
1958 0 52.1616 9.25969 483 121.634 801.745 467.727
1959 0 58.0676 10.8666 631 117.648 801.17 467.943
1960 1 100.392 10.19 1023 124.04 801.353 449.429
1961 0 101.195 10.8602 1099 124.073 802.874 449.484
1962 1 165.572 11.566 1915 140.255 802.412 413.39
1963 0 168.639 11.8004 1990 138.37 803.502 413.298
1964 0 174.286 11.4123 1989 142.387 803.798 404.775
1965 0 176.508 11.7558 2075 143.284 804.123 404.041
1966 0 179.447 12.962 2326 143.183 805.036 399.809
1967 0 179.65 11.7785 2116 146.363 805.884 396.338
1968 0 185.78 14.824 2754 140.749 806.629 398.348
1969 0 183.941 6.22484 1145 142.113 807.909 419.727
1970 0 183.743 4.84371 890 132.344 809.953 433.4
1971 0 183.678 8.85246 1626 146.105 808.97 401.49
1972 0 183.832 7.62107 1401 149.141 808.504 395.957
1973 1 149.474 7.55985 1130 137.205 809.395 425.178
1974 0 151.5 7.44553 1128 139.704 810.806 419.42
1975 1 85.4974 13.3688 1143 122.287 809.287 447.868
1976 0 84.0613 8.96964 754 130.09 809.174 455.481
1977 0 88.1849 10.5007 926 129.838 808.499 450.892
1978 0 88.1351 9.33794 823 132.488 809.454 450.774
1979 0 89.3875 10.5831 946 132.555 809.506 450.199
1980 1 182.384 10.3354 1885 138.871 809.098 417.832
1981 0 184.464 7.0854 1307 142.529 809.778 419.915
1982 0 183.37 8.73099 1601 142.871 809.207 414.737
1983 0 184.323 6.55915 1209 141.994 809.51 431.997
1984 0 184.416 7.61863 1405 144.961 808.886 419.904
1985 0 184.217 5.21124 960 142.522 809.183 442.097
1986 0 186.503 5.29214 987 141.895 806.317 436.626
1987 0 180.833 12.7964 2314 136.405 806.278 408.869
1988 0 183.685 11.0896 2037 139.459 804.182 409.822
1989 1 128.456 8.85904 1138 136.147 804.676 439.898
1990 0 127.39 10.3697 1321 134.555 803.975 434.358
1991 1 190.983 9.0322 1725 145.364 803.612 399.024
1992 1 319.085 9.84377 3141 155.712 803.377 341.406
1993 0 312.309 4.70368 1469 165.398 803.4 340.887
1994 0 319.473 8.07581 2580 148.479 802.54 377.945
1995 0 318.393 10.1887 3244 145.672 801.114 372.331
1996 1 87.111 10.2398 892 127.201 800.776 452.104
1997 0 84.2101 6.91128 582 132.598 801.928 456.517
1998 0 84.2185 6.87498 579 133.036 801.112 454.537
1999 1 96.2536 8.81006 848 131.052 801.33 444.618
2000 0 103.098 9.92256 1023 129.889 801.043 443.246
2001 1 54.0779 9.19044 497 125.841 800.372 469.268
2002 0 56.1551 11.0409 620 121.887 801.094 468.998
2003 0 59.1289 12.1091 716 122.223 802.154 464.825
2004 0 60.1349 11.1915 673 124.582 802.3 461.903
2005 0 63.1196 11.0584 698 124.769 802.126 463.675
2006 0 62.0996 12.335 766 124.157 803.435 460.564
2007 0 62.1574 13.6911 851 122.555 804.208 459.242
2008 0 67.1871 10.7015 719 127.707 804.581 458.392
2009 0 68.14 10.1702 693 129.131 804.766 458.369
2010 0 69.195 12.8478 889 126.003 806.177 456.245
2011 0 72.0465 12.7001 915 130.979 808.201 455.252
2012 0 71.1809 9.55312 680 135.465 806.522 445.21
2013 0 76.1378 12.0308 916 130.016 808.2 448.019
2014 0 82.3093 13.6072 1120 127.85 807.063 446.73
2015 0 83.3168 12.9866 1082 128.494 808.539 449.206
2016 0 87.261 12.7548 1113 127.329 808.863 453.589
2017 0 90.4015 10.9733 992 131.6 809.884 447.419
2018 0 91.3598 12.7299 1163 127.518 810.159 450.928
2019 1 49.2663 8.95136 441 126.986 810.107 470.34
2020 0 54.105 11.5701 626 123.661 809.364 469.823
2021 0 54.1167 11.7154 634 123.751 807.356 470.284
2022 0 55.1478 11.7684 649 125.214 808.55 470.359
2023 0 57.0402 12.4824 712 124.993 808.291 472.645
2024 0 57.0341 10.1693 580 129.916 807.219 469.86
2025 0 60.2708 11.0335 665 129.053 806.958 470.996
2026 0 63.0562 11.3549 716 128.792 806.704 470.508
2027 0 65.2154 10.5036 685 130.782 807.029 471.359
2028 0 68.0836 16.2154 1104 121.568 805.715 469.067
2029 0 69.1694 13.0694 904 128.678 805.02 468.16
2030 0 71.0852 13.308 946 129.615 804.668 466.339
2031 0 69.0792 10.9584 757 134.423 802.861 467.232
2032 0 78.1396 11.761 919 131.321 803.36 467.044
2033 0 78.2227 12.7457 997 131.849 802.342 464.28
2034 0 79.3863 14.7381 1170 127.556 802.265 464.278
2035 0 84.1257 12.5645 1057 132.379 801.29 461.202
2036 0 86.1554 11.9668 1031 134.566 801.306 458.756
2037 0 87.1764 12.8246 1118 132.623 800.302 460.948
2038 0 92.133 14.3597 1323 130.995 800.71 455.934
2039 0 97.1335 9.53327 926 137.753 800.11 459.199
2040 0 96.1788 12.2376 1177 135.588 800.431 454.938
2041 0 99.1499 13.1216 1301 136.491 800.001 446.519
2042 0 99.2712 12.6321 1254 139.32 800.57 444.05
2043 0 103.217 13.893 1434 136.787 800.123 441.071
2044 0 105.175 12.3128 1295 135.799 799.944 450.421
2045 1 60.1147 13.4742 810 130.24 800.433 465.101
2046 0 59.0741 12.6959 750 131.595 801.325 462.311
2047 0 61.0478 14.9719 914 127.764 801.638 462.305
2048 0 63.2398 11.9703 757 133.663 802.141 460.845
2049 0 68.0615 13.0176 886 130.802 801.933 458.587
2050 0 67.0615 13.167 883 133.084 803.096 458.687
2051 0 69.0986 15.1378 1046 130.283 804.33 455.19
2052 0 73.1076 12.9535 947 133.741 804.794 453.042
2053 0 75.0735 16.1042 1209 128.573 805.514 453.47
2054 0 78.143 14.2047 1110 130.935 806.483 452.52
2055 0 79.1368 11.954 946 136.194 805.817 451.449
2056 0 81.0788 13.271 1076 136.087 807.632 449.427
2057 0 83.1547 14.6715 1220 135.483 807.684 446.114
2058 0 83.1578 13.6728 1137 137.109 808.568 450.869
2059 0 88.0919 12.9978 1145 140.772 809.036 447.221
2060 0 92.1675 12.716 1172 142.183 808.68 445.925
2061 0 91.1367 9.35957 853 150.709 808.647 447.021
2062 0 96.1569 15.1211 1454 141.384 809.263 444.862
2063 0 100.21 13.312 1334 146.395 809.532 445.227
2064 0 99.3138 14.9325 1483 144.007 808.676 446.121
2065 0 105.312 16.5128 1739 139.56 810.192 444.616
2066 0 108.332 12.4617 1350 148.857 808.338 442.778
2067 0 112.148 13.5535 1520 147.068 808.797 442.691
2068 1 62.2633 12.8968 803 140.494 808.293 468.946
2069 0 65.2215 13.0018 848 139.422 807.699 467.404
2070 0 64.1036 13.5874 871 138.82 806.41 471.586
2071 0 68.1042 13.6409 929 140.425 805.58 465.256
2072 0 71.127 14.4811 1030 138.803 805.063 467.613
2073 0 74.0862 13.3493 989 142.983 803.061 464.065
2074 0 74.0862 13.2818 984 130.024 802.061 464.012
2075 0 77.1996 11.399 880 146.295 801.232 463.144
2076 0 82.0881 13.2906 1091 142.755 800.928 459.295
2077 0 83.1077 13.5367 1125 141.793 801.653 459.908
2078 0 87.1502 12.576 1096 143.257 801.963 455.44
2079 0 89.1532 12.0242 1072 143.339 800.966 454.369
2080 0 93.2757 13.3261 1243 141.512 801.366 452.178
2081 0 93.332 11.6466 1087 146.962 802.396 449.922
2082 0 99.2559 13.3594 1326 143.318 800.918 448.851
2083 0 104.135 12.8103 1334 143.285 800.993 449.115
2084 0 100.267 10.9508 1098 150.874 800.67 443.504
2085 0 102.559 8.98994 922 151.275 800.848 446.383
2086 1 60.0616 11.3384 681 140.78 801.238 464.188
2087 0 61.1875 11.097 679 140.614 801.436 462.698
2088 0 65.0447 13.3754 870 138.048 801.186 459.528
2089 0 67.0735 11.465 769 141.488 802.419 459.329
2090 0 67.0706 10.3324 693 144.981 802.127 453.089
2091 0 73.0886 11.5887 847 144.462 802.366 451.475
2092 0 72.1304 11.3822 821 145.669 803.59 449.466
2093 0 76.0924 12.6688 964 142.91 803.652 450.611
2094 0 81.166 11.0884 900 145.978 805.082 448.178
2095 0 84.096 13.7224 1154 139.536 805.734 448.492
2096 0 86.2651 10.5257 908 146.688 807.596 446.082
2097 0 88.095 12.9973 1145 142.75 808.314 445.109
2098 0 87.1252 10.6628 929 149.984 808.395 440.128
2099 0 90.1778 11.3221 1021 148.253 807.878 439.563
2100 0 95.0529 11.7829 1120 145.51 808.137 440.314
2101 0 99.1691 15.4887 1536 138.518 808.657 435.821
2102 0 102.358 11.8995 1218 146.43 809.746 437.902
2103 1 55.0735 8.8972 490 141.467 808.708 462.247
2104 0 60.2061 10.2813 619 138.937 809.953 462.633
2105 0 62.1035 12.8656 799 133.67 810.952 462.942
2106 0 60.1137 6.65406 400 142.69 809.91 467.54
2107 0 65.042 12.3612 804 134.648 810.527 465.149
2108 0 66.0948 10.0008 661 138.504 810.059 459.352
2109 0 68.2303 10.0835 688 137.235 808.837 470.33
2110 1 129.291 10.9211 1412 149.855 809.788 437.621
2111 0 131.449 8.79431 1156 143.744 807.377 452.087
2112 1 76.2941 12.2683 936 136.386 807.902 463.261
2113 0 82.1843 12.2651 1008 137.322 807.203 459.931
2114 0 79.1203 12.9423 1024 137.587 805.285 456.567
2115 0 79.1203 11.5141 911 127.546 804.413 458.071
2116 0 86.1298 12.04 1037 138.866 803.169 451.021
2117 0 90.1049 9.35576 843 142.451 802.534 452.46
2118 0 92.2168 9.1415 843 144.52 802.025 447.892
2119 1 54.1354 9.10679 493 138.365 803.183 468.566
2120 0 54.3266 8.39367 456 139.741 801.397 464.836
2121 0 54.149 8.99371 487 135.52 801.727 461.07
2122 0 52.1572 11.9638 624 131.202 801.353 458.197
2123 0 62.0493 11.1685 693 129.369 801.089 466.736
2124 0 60.1372 6.13597 369 138.379 800.1 457.062
2125 0 64.0251 12.6981 813 128.493 800.451 461.308
2126 0 66.1325 13.7149 907 126.135 800.431 462.553
2127 0 64.1684 8.19718 526 137.148 802.027 456.586
2128 0 69.2508 11.3067 783 131.35 800.387 456.845
2129 0 80.201 8.72807 700 132.639 800.639 459.359
2130 0 78.144 9.54648 746 133.95 800.631 450.839
2131 0 78.0847 14.5867 1139 126.272 801.446 455.558
2132 0 79.1992 12.8537 1018 128.725 801.203 455.022
2133 0 81.2412 11.6443 946 131.521 802.585 452.516
2134 0 82.1039 9.13477 750 136.747 802.18 444.231
2135 0 90.0539 5.90757 532 141.303 802.652 448.705
2136 0 90.3341 11.9224 1077 134.183 803.266 441.658
2137 0 90.1214 12.5054 1127 133.306 803.849 443.004
2138 0 95.2183 11.2583 1072 136.713 804.416 436.417
2139 0 96.0894 11.4373 1099 135.34 804.511 439.991
2140 0 101.102 9.58442 969 137.626 806.233 442.832
2141 0 105.16 14.7109 1547 130.304 806.759 437.544
2142 0 105.192 10.2385 1077 139.011 807.106 430.669
2143 0 109.164 9.97585 1089 137.127 807.407 434.97
2144 0 114.246 10.5124 1201 136.672 809.54 431.904
2145 0 115.351 11.0619 1276 136.022 808.749 435.229
2146 0 125.171 12.455 1559 132.475 809.743 431.894
2147 1 70.1079 9.02894 633 133.981 808 449.126
2148 0 73.1208 12.0622 882 127.771 809.955 455.561
2149 0 71.1385 12.2578 872 129.209 810.165 455.11
2150 0 80.1703 8.08279 648 130.168 810.469 463.177
2151 0 84.2618 11.761 991 125.987 809.956 461.577
2152 0 89.1388 11.1175 991 129.218 809.408 454.143
2153 0 84.1543 12.4533 1048 128.7 809.634 452.418
2154 0 94.1724 13.0824 1232 125.35 808.592 457.343
2155 0 97.2122 13.4037 1303 126.519 807.301 451.081
2156 0 98.1109 11.3035 1109 130.564 806.3 446.711
2157 0 103.252 13.5882 1403 126.716 805.116 445.398
2158 0 107.267 11.9142 1278 129.041 805.056 451.969
2159 0 106.266 11.4148 1213 126.638 805.064 450.724
2160 0 115.404 12.0533 1391 131.086 803.005 443.845
2161 0 118.388 12.5351 1484 131.345 803.076 437.106
2162 0 119.194 10.7304 1279 134.612 801.475 431.722
2163 0 125.643 12.5833 1581 131.798 801.671 429.284
2164 1 69.1856 10.2912 712 130.26 800.65 461.49
2165 0 72.1129 13.257 956 125.293 800.274 463.824
2166 0 74.2957 11.6965 869 127.613 800.664 460.137
2167 0 79.1827 10.8231 857 129.075 800.38 458.536
2168 0 79.2645 10.6479 844 130.489 799.354 458.504
2169 0 84.1412 14.0359 1181 123.75 800.733 458.972
2170 0 87.1456 14.2635 1243 124.56 801.177 452.512
2171 0 93.0655 10.5302 980 128.85 800.47 452.698
2172 0 91.3014 11.9932 1095 129.369 801.651 444.267
2173 0 93.2809 11.2349 1048 129.677 801.508 447.946
2174 0 97.2662 12.1317 1180 127.997 803.082 444.19
2175 0 100.241 14.1259 1416 125.738 802.892 439.671
2176 0 103.191 13.4605 1389 125.859 803.239 436.82
2177 0 101.311 14.194 1438 126.832 804.323 428.647
2178 0 109.273 11.5856 1266 129.66 804.254 431.507
2179 0 103.216 11.1126 1147 132.692 805.305 424.31
2180 0 108.304 12.4465 1348 129.849 806.358 425.804
2181 0 110.18 9.33926 1029 133.76 807.091 428.552
2182 0 116.326 11.9406 1389 129.743 807.795 427.789
2183 0 122.816 10.6012 1302 130.872 807.687 430.243
2184 0 128.537 13.1168 1686 128.179 808.386 423.947
2185 0 130.625 16.0765 2100 124.319 808.846 424.46
2186 1 69.1831 8.86054 613 132.985 810.256 441.147
2187 0 74.225 9.32301 692 126.013 810.118 451.949
2188 0 76.2212 11.8077 900 127.246 811.368 442.682
2189 0 83.2805 15.1896 1265 121.866 810.264 445.088
2190 1 152.46 12.3311 1880 130.155 810.655 415.738
2191 1 85.2074 14.6232 1246 125.791 809.863 446.575
2192 0 87.3559 10.6003 926 131.789 809.741 447.095
2193 0 91.1753 11.1653 1018 129.334 809.31 451.74
2194 0 97.274 14.7007 1430 123.976 809.252 451.389
2195 0 102.14 16.9375 1730 121.674 808.916 448.26
2196 0 107.264 14.702 1577 125.858 808.378 441.289
2197 0 108.234 12.1588 1316 129.677 807.201 448.217
2198 0 110.338 17.2017 1898 123.051 808.484 451.102
2199 0 111.149 9.25787 1029 138.76 806.23 446.066
2200 0 117.425 14.6647 1722 130.059 806.447 444.162
2201 0 122.2 14.6727 1793 130.09 805.224 445.493
2202 1 180.403 12.6218 2277 140.181 805.089 411.167
2203 1 131.371 14.1127 1854 130.981 804.324 438.694
2204 0 130.299 11.0592 1441 138.337 804.874 423.783
2205 1 76.274 9.34788 713 132.84 803.278 455.436
2206 0 77.1026 10.1553 783 132.373 801.909 460.349
2207 0 82.4507 12.0678 995 128.85 801.666 453.505
2208 0 87.6016 12.0203 1053 127.724 802.079 455.709
2209 0 90.7812 15.1683 1377 125.068 800.503 453.524
2210 0 87.5253 11.5624 1012 133.638 801.22 445.817
2211 0 87.4747 11.0889 970 135.094 802.246 444.974
2212 0 96.5087 14.4028 1390 125.736 801.477 448.227
2213 0 99.6792 17.5664 1751 121.789 802.08 443.613
2214 0 100.475 16.4518 1653 122.852 801.516 443.716
2215 0 101.614 15.2932 1554 125.579 802.708 441.634
2216 0 103.608 15.3656 1592 126.155 801.92 436.542
2217 0 103.608 15.269 1582 130.987 799.901 436.677
2218 0 107.205 14.0665 1508 130.632 802.541 428.078
2219 0 113.169 12.7066 1438 131.121 803.003 432.887
2220 0 118.54 11.2789 1337 131.998 803.771 431.197
2221 0 117.385 13.6133 1598 130.829 803.987 424.346
2222 0 120.183 12.3895 1489 132.564 804.516 427.883
2223 1 182.313 11.1951 2041 137.19 805.265 401.763
2224 0 185.382 15.2227 2822 131.472 806.51 400.841
2225 1 140.313 11.7879 1654 131.835 806.949 418.309
2226 0 138.346 11.8326 1637 131.257 807.078 414.281
2227 1 77.0951 13.3601 1030 126.284 806.737 441.563
2228 0 80.2424 16.1884 1299 121.031 808.759 444.2
2229 0 84.0984 12.2238 1028 124.47 807.738 445.88
2230 0 85.2632 16.2907 1389 119.364 809.853 439.703
2231 0 85.2304 11.4513 976 127.314 809.844 444.078
2232 0 90.2835 11.2867 1019 128.601 809.673 440.171
2233 0 94.3892 10.997 1038 129.909 811.181 439.523
2234 0 97.2577 12.1019 1177 129.152 810.893 437.738
2235 0 101.219 12.6953 1285 128.408 810.443 440.254
2236 0 104.448 14.1698 1480 125.135 809.587 442.977
2237 0 107.536 14.7299 1584 125.172 808.648 441.534
2238 0 110.487 10.87 1201 132.192 809.648 438.311
2239 0 112.223 13.8563 1555 128.714 808.932 432.177
2240 0 116.352 10.5027 1222 132.895 807.971 438.163
2241 0 112.209 13.1273 1473 129.195 807.106 440.2
2242 0 119.339 10.7593 1284 131.939 807.533 441.58
2243 0 113.496 8.51131 966 136.844 805.254 436.415
2244 0 114.437 8.53747 977 146.966 803.271 436.215
2245 0 117.359 11.9548 1403 130.927 804.011 438.562
2246 0 112.24 10.3082 1157 133.665 804.097 439.613
2247 1 83.3649 11.0358 920 130.392 801.922 451.746
2248 0 84.3554 13.5261 1141 128.348 801.616 444.552
2249 0 89.3002 14.5576 1300 125.192 801.542 447.982
2250 0 92.5947 13.2297 1225 126.671 802.589 448.174
2251 0 95.5686 9.83587 940 133.126 801.711 447.561
2252 0 95.2097 8.59156 818 137.984 802.136 442.015
2253 0 101.538 14.2213 1444 125.643 800.605 445.561
2254 0 99.2547 9.46051 939 138.743 801.379 435.692
2255 0 106.302 16.8953 1796 124.776 802.055 435.614
2256 0 102.316 11.0638 1132 134.142 801.994 438.269
2257 0 105.507 13.0228 1374 132.444 801.854 429.381
2258 0 114.315 13.1566 1504 130.15 801.574 433.854
2259 0 114.313 12.5271 1432 133.902 801.568 435.173
2260 0 115.448 11.503 1328 135.99 803.16 419.456
2261 0 120.387 10.1589 1223 137.342 802.752 423.166
2262 0 129.553 13.562 1757 131.838 803.857 423.242
2263 0 126.356 9.94807 1257 138.087 804.503 425.737
2264 0 137.336 13.9658 1918 131.97 804.95 417.079
2265 1 76.1887 12.2722 935 130.696 806.753 442.373
2266 0 78.382 12.5794 986 130.882 806.58 440.724
2267 0 78.2491 11.31 885 133.953 806.93 437.002
2268 0 84.3081 12.905 1088 128.745 807.5 441.044
2269 0 85.257 11.7292 1000 131.43 807.033 440.281
2270 0 89.2251 9.17903 819 135.728 807.342 440.77
2271 0 89.0922 12.9192 1151 132.225 807.818 435.911
2272 0 95.0913 12.2724 1167 123.78 809.042 433.862
2273 0 97.3385 10.9309 1064 125.95 809.698 440.441
2274 0 101.252 12.1084 1226 124.918 810.161 436.15
2275 0 103.252 11.5446 1192 125.571 810.969 435.205
2276 0 109.284 11.2825 1233 126.307 810.601 430.805
2277 0 109.481 13.1986 1445 122.822 810.302 434.254
2278 1 65.2876 12.085 789 121.534 808.745 457.942
2279 0 64.2281 10.1357 651 124.175 809.356 460.209
2280 0 68.1916 13.6087 928 120.933 807.268 457.366
2281 0 68.1916 13.638 930 125.878 805.243 457.527
2282 0 75.3329 13.9647 1052 120.406 807.678 455.397
2283 0 73.3177 12.3163 903 124.834 807.477 455.732
2284 0 78.2637 15.8439 1240 118.925 806.365 452.148
2285 0 78.2637 16.0228 1254 124.647 805.367 452.159
2286 0 87.2074 15.0102 1309 120.373 804.378 447.5
2287 0 90.1635 15.2834 1378 119.716 804.094 451.544
2288 0 88.3395 13.5726 1199 123.88 802.374 446.243
2289 0 95.6851 12.5516 1201 124.261 801.949 443.281
2290 0 101.589 15.2575 1550 118.393 800.328 442.47
2291 0 102.241 14.3974 1472 120.47 801.865 441.734
2292 0 102.241 14.3387 1466 136.129 803.851 441.791
2293 0 107.289 13.8318 1484 121.762 800.86 434.941
2294 0 111.71 16.695 1865 116.528 800.575 436.433
2295 0 110.481 13.2692 1466 124.433 801.241 426.052
2296 0 117.38 15.2241 1787 119.756 800.466 425.524
2297 0 123.592 15.1708 1875 118.75 800.871 427.503
2298 0 117.451 8.47158 995 131.715 800.281 418.198
2299 0 127.424 11.4971 1465 123.711 800.669 416.995
2300 0 130.529 11.4917 1500 121.353 801.153 422.739
2301 1 79.5062 11.7978 938 112.22 801.599 446.006
2302 0 79.2961 8.33585 661 114.198 802.726 452.118
2303 0 83.2908 12.6545 1054 109.795 802.412 449.395
2304 0 86.2644 11.9748 1033 111.676 802.978 449.547
2305 0 83.1401 8.31128 691 121.42 804.213 436.376
2306 0 88.1917 11.8265 1043 113.831 803.71 446.774
2307 0 90.3115 10.1759 919 119.569 805.458 439.288
2308 0 93.2074 11.5549 1077 117.809 805.272 441.63
2309 0 95.2622 10.3504 986 120.121 806.332 441.653
2310 0 97.3472 13.7549 1339 115.76 806.419 441.466
2311 0 101.181 13.1151 1327 117.384 806.75 439.12
2312 0 102.135 9.69304 990 124.771 807.874 427.982
2313 0 107.163 10.2554 1099 122.672 808.169 434.433
2314 0 110.233 15.8664 1749 112.949 808.141 439.9
2315 0 115.175 14.2739 1644 117.242 808.267 431.574
2316 0 121.291 13.076 1586 118.339 808.211 428.371
2317 0 123.303 14.0954 1738 117.262 809.246 431.289
2318 1 69.3382 9.99449 693 112.01 808.387 462.56
2319 0 68.3073 10.4381 713 110.867 808.032 463.618
2320 0 71.2006 8.69375 619 115.507 808.194 461.577
2321 0 73.103 10.2458 749 114.041 807.554 459.7
2322 0 73.2378 13.0807 958 111.145 806.704 458.422
2323 0 81.1254 13.0785 1061 110.612 806.098 457.072
2324 0 81.2112 11.9688 972 114.052 805.644 458.072
2325 0 86.1735 12.881 1110 110.835 806.064 461.601
2326 0 90.229 13.2884 1199 112.105 805.566 453.687
2327 1 105.279 11.6832 1230 112.532 803.884 457.518
2328 0 105.327 7.49094 789 121.653 803.373 449.283
2329 0 104.2 8.03261 837 119.384 802.593 454.787
2330 0 104.28 11.0568 1153 118.33 802.235 445.443
2331 0 98.1932 8.10647 796 121.367 801.239 451.827
2332 0 108.274 11.6556 1262 117.847 801.244 443.261
2333 0 109.393 11.4724 1255 119.397 800.476 443.085
2334 1 121.356 12.7805 1551 115.926 801.202 441.82
2335 0 123.202 12.9543 1596 116.233 800.383 438.518
2336 0 126.285 14.4911 1830 115.234 801.37 434.128
2337 0 128.284 12.5893 1615 119.326 800.346 433.946
2338 0 133.375 14.508 1935 115.291 799.6 436.671
2339 0 134.459 13.7514 1849 117.453 799.858 433.287
2340 0 145.508 11.5389 1679 121.619 800.127 422.998
2341 0 145.502 14.1167 2054 117.1 800.305 425.042
2342 0 152.493 16.2631 2480 114.076 800.387 421.919
2343 1 88.3244 13.6882 1209 114.656 800.612 448.899
2344 0 87.0626 17.4357 1518 110.574 802.052 446.434
2345 0 89.1612 11.496 1025 118.034 803.329 448.126
2346 0 91.2596 12.1521 1109 118.4 803.045 441.154
2347 0 94.1386 10.0809 949 123.041 803.614 437.08
2348 0 98.3949 18.3851 1809 109.388 803.358 443.84
2349 1 184.441 12.199 2250 122.754 804.853 405.711
2350 0 195.768 15.7431 3082 117.962 806.358 399.127
2351 0 198.603 11.6313 2310 123.235 807.138 404.512
2352 0 206.818 15.4097 3187 118.319 806.627 400.529
2353 0 207.489 13.1043 2719 126.218 807.797 380.412
2354 0 216.744 13.2737 2877 125.374 808.42 382.141
2355 1 118.411 13.8162 1636 121.714 809.779 425.204
2356 0 123.443 13.1478 1623 121.916 810.437 430.808
2357 0 125.319 9.99848 1253 127.43 810.843 428.703
2358 0 133.647 12.7425 1703 120.762 809.085 432.45
2359 0 133.494 13.0642 1744 121.503 810.285 431.084
2360 0 140.444 16.2342 2280 118.66 809.544 421.698
2361 0 145.511 14.2189 2069 121.459 809.515 423.389
2362 1 88.3114 11.4708 1013 116.448 809.367 450.585
2363 0 86.1391 9.1596 789 120.949 810.312 446.219
2364 0 86.1391 9.11316 785 147.158 809.325 446.006
2365 0 96.4323 12.3299 1189 117.754 807.867 456.246
2366 0 96.4439 10.8561 1047 121.075 807.771 454.292
2367 0 101.424 11.8709 1204 119.065 807.088 455.086
2368 0 104.313 12.7213 1327 116.95 805.695 454.197
2369 0 106.507 12.309 1311 118.705 804.008 450.488
2370 0 108.644 11.8552 1288 119.356 802.966 449.332
2371 0 117.343 12.783 1500 116.977 801.521 439.414
2372 0 117.437 11.2571 1322 120.038 802.527 443.558
2373 0 120.243 13.5725 1632 116.83 801.371 443.492
2374 0 122.408 15.4075 1886 115.345 800.742 441.119
2375 0 125.753 12.6597 1592 118.797 800.455 443.994
2376 0 121.617 8.5021 1034 122.004 799.12 449.435
2377 0 122.62 8.54676 1048 133.209 798.138 449.262
2378 0 122.622 11.7026 1435 131.203 797.167 440.799
2379 1 82.1125 13.5424 1112 107.252 799.813 462.401
2380 0 80.1964 9.60142 770 114.552 800.392 457.979
2381 0 84.3096 9.28719 783 116.175 799.82 451.626
2382 0 87.358 11.4586 1001 113.04 800.236 454.292
2383 1 12.0014 5.99931 72 104.25 800.708 490.514
2384 0 15.0344 5.65371 85 103.8 801.035 490.035
2385 0 16.0029 4.24922 68 107.132 801.294 485.294
2386 0 15.0097 7.46185 112 102.58 802.205 488.196
2387 0 15.0049 5.93139 89 106.753 801.292 485.236
2388 1 100.246 11.8209 1185 116.532 802.97 439.152
2389 0 107.115 10.4 1114 118.245 802.941 436.664
2390 0 107.173 12.7644 1368 115.132 802.677 437.623
2391 0 112.325 14.0397 1577 113.805 804.71 436.568
2392 0 114.355 10.2663 1174 119.635 804.581 432.58
2393 0 117.243 11.8045 1384 118.293 804.345 430.108
2394 0 124.377 11.4651 1426 117.911 806.261 432.034
2395 0 125.318 15.2811 1915 116.099 805.579 422.027
2396 1 67.2219 9.75873 656 114.748 806.998 452.863
2397 0 76.1342 10.8493 826 112.725 805.305 452.494
2398 0 76.2064 6.04936 461 122.022 807.623 449.139
2399 0 82.1411 8.22974 676 118.429 808.141 443.703
2400 1 146.263 9.83157 1438 120.263 808.197 410.745
2401 0 148.521 11.4799 1705 115.979 807.843 430.03
2402 0 146.375 6.0666 888 126.16 808.956 420.551
2403 0 150.285 6.0951 916 121.404 808.483 444.95
2404 1 95.2434 8.55702 815 119.915 807.644 452.506
2405 0 95.2434 8.54652 814 132.394 807.65 452.392
2406 0 106.15 11.1351 1182 116.554 806.078 453.707
2407 0 109.213 15.749 1720 110.296 805.901 454.206
2408 0 113.419 14.2481 1616 111.494 806.965 456.15
2409 0 113.51 16.4567 1868 111.572 804.684 445.364
2410 0 116.218 11.0138 1280 120.455 804.373 439.098
2411 0 117.3 6.71784 788 127.07 803.042 441.797
2412 0 128.279 12.582 1614 118.549 803.342 434.688
2413 0 131.237 13.6928 1797 117.213 802.062 436.63
2414 1 74.1364 9.52298 706 116.221 800.98 466.861
2415 0 76.2563 12.1039 923 113.524 800.047 465.622
2416 0 79.2829 11.8184 937 111.99 799.958 469.084
2417 0 83.2022 11.5502 961 115.053 799.359 457.787
2418 0 83.2106 14.5895 1214 111.302 799.634 458.224
2419 0 88.1339 13.2753 1170 113.093 799.904 456.965
2420 0 89.1314 11.0735 987 117.386 799.586 451.858
2421 0 89.1314 11.1072 990 143.717 799.576 451.659
2422 0 96.169 13.653 1313 114.468 799.877 451.743
2423 0 99.2853 13.2749 1318 115.954 800.072 449.783
2424 0 102.421 12.6147 1292 116.039 799.981 450.197
2425 0 103.398 13.2401 1369 116.711 800.451 444.641
2426 0 105.347 14.6089 1539 114.83 801.029 444.099
2427 0 112.349 17.2143 1934 111.43 801.642 439.305
2428 0 111.516 13.433 1498 118.529 801.071 435.728
2429 0 114.276 12.3998 1417 119.214 802.096 438.655
2430 0 120.211 13.6842 1645 118.63 802.852 430.173
2431 0 122.499 11.845 1451 121.212 803.256 430.983
2432 0 124.64 12.0828 1506 121.902 804.173 425.324
2433 0 130.265 12.751 1661 118.381 804.493 432.033
2434 0 136.408 16.9418 2311 113.999 805.206 420.346
2435 1 78.1191 11.5721 904 115.02 806.075 447.893
2436 0 83.1515 12.3149 1024 112.611 804.884 451.237
2437 0 86.3704 11.798 1019 114.372 806.336 448.971
2438 0 90.1376 14.1228 1273 110.015 805.547 453.892
2439 0 92.1974 12.6142 1163 114.792 806.438 447.313
2440 0 94.156 13.4883 1270 114.448 805.776 446.094
2441 0 98.1292 15.6732 1538 110.436 807.457 442.203
2442 0 100.215 11.9842 1201 116.707 806.545 445.549
2443 0 105.294 14.8062 1559 116.42 807.796 448.906
2444 0 106.215 14.6683 1558 116.909 806.72 446.789
2445 0 111.247 11.0655 1231 122.623 806.883 447.238
2446 0 116.392 12.9734 1510 122.04 806.12 441.332
2447 1 65.1576 8.97823 585 119.749 805.723 468.588
2448 0 67.1285 14.9415 1003 114.439 804.953 471.578
2449 0 70.0741 13.0576 915 118.635 804.374 468.858
2450 0 73.0841 13.3545 976 115.092 803.494 473.533
2451 0 73.1659 12.6425 925 117.176 802.404 468.918
2452 0 77.1162 11.541 890 120.349 801.96 467.23
2453 0 80.238 13.6344 1094 116.096 800.588 468.094
2454 0 80.1156 11.4834 920 121.829 801.197 465.179
2455 0 81.156 11.3485 921 123.398 800.882 462.142
2456 0 89.0763 15.9077 1417 116.027 799.418 456.765
2457 0 89.193 14.0594 1254 118.541 799.132 457.306
2458 0 92.1783 14.5804 1344 115.642 798.883 459.837
2459 0 94.1565 13.6475 1285 119.871 798.774 453.041
2460 0 94.1589 13.6684 1287 128.38 797.793 453.312
2461 0 100.407 14.6404 1470 118.642 799.381 446.659
2462 0 105.171 16.1642 1700 115.599 798.868 448.091
2463 0 108.755 20.3945 2218 109.689 799.101 441.538
2464 0 111.332 15.8535 1765 116.28 798.487 442.633
2465 0 111.3 15.7772 1756 116.49 798.96 439.985
2466 0 113.27 13.896 1574 119.614 799.868 436.39
2467 1 171.552 11.2502 1930 127.797 800.13 409.36
2468 1 183.74 13.1871 2423 122.302 800.69 415.134
2469 1 121.251 12.4535 1510 122.836 801.446 428.802
2470 0 127.376 10.2374 1304 124.143 801.6 433.643
2471 0 132.331 12.8768 1704 120.931 802.097 427.472
2472 0 133.544 12.7674 1705 122.567 802.256 417.518
2473 0 141.406 15.5863 2204 116.431 802.417 426.346
2474 0 144.498 14.8099 2140 119.656 803.575 417.771
2475 1 88.2276 10.8243 955 120.072 803.175 451.634
2476 0 84.5252 13.5108 1142 118.321 804.102 447.634
2477 0 91.2438 14.3023 1305 116.203 804.7 449.009
2478 0 90.3263 11.7131 1058 122.431 805.273 443.286
2479 0 95.3926 14.0891 1344 117.859 804.321 447.036
2480 0 93.3962 11.9919 1120 123.92 806.321 436.997
2481 0 99.2869 11.9351 1185 123.744 806.63 438.889
2482 0 105.141 17.6906 1860 113.53 806.559 440.784
2483 0 106.189 11.4701 1218 123.104 805.452 436.529
2484 0 110.229 11.4761 1265 122.567 807.099 438.556
2485 0 115.167 15.178 1748 116.555 805.885 439.162
2486 0 117.474 14.3691 1688 117.632 806.286 442.573
2487 0 126.243 15.391 1943 115.135 806.234 441.447
2488 0 130.335 14.6776 1913 116.194 805.936 440.006
2489 0 137.386 12.3739 1700 120.534 805.872 436.305
2490 1 75.2022 10.9172 821 118.125 805.225 466.06
2491 0 78.1224 15.6805 1225 113.092 804.682 460.078
2492 0 80.2749 11.5603 928 118.177 803.953 465.484
2493 0 85.1378 12.3682 1053 119.419 803.463 461.112
2494 0 86.1911 14.5143 1251 118.252 803.926 454.851
2495 0 91.2336 10.0292 915 124.505 801.475 454.963
2496 0 94.1851 14.6095 1376 117.469 801.716 456.318
2497 0 96.1095 14.2025 1365 118.352 800.418 453.564
2498 0 97.2222 12.3017 1196 123.606 800.714 448.737
2499 0 102.261 13.0744 1337 122.544 800.075 448.248
2500 0 105.213 14.1333 1487 120.278 800.422 449.56
2501 0 109.261 14.3053 1563 119.4 799.292 446.747
2502 0 111.235 14.3839 1600 119.869 799.691 442.447
2503 0 114.192 14.5107 1657 120.315 799.677 440.504
2504 0 116.158 18.647 2166 114.711 799.351 434.733
2505 0 120.283 15.9042 1913 118.473 799.79 439.105
2506 0 124.174 13.6824 1699 122.879 799.677 435.636
2507 0 129.217 14.9903 1937 121.738 801.151 428.557
2508 0 131.249 17.1506 2251 118.436 800.002 428.098
2509 0 131.249 17.1583 2252 129.634 799.011 428
2510 0 140.293 14.6194 2051 122.419 801.673 418.14
2511 0 144.28 13.0856 1888 125.225 802.69 417.463
2512 0 150.309 13.2194 1987 125.964 802.827 419.157
2513 1 83.1357 10.8136 899 124.531 803.221 446.012
2514 0 86.1461 10.5518 909 124.015 802.449 448.625
2515 0 92.2034 11.518 1062 121.397 804.016 447.763
2516 0 88.0831 8.60551 758 128.409 804.005 445.368
2517 0 93.201 11.6737 1088 123.131 804.599 443.771
2518 0 94.1613 14.1778 1335 121.076 805.901 439.814
2519 0 98.2171 12.4927 1227 123.779 805.922 440.95
2520 0 102.267 10.1988 1043 127.779 806.454 441.495
2521 0 105.235 9.97766 1050 127.044 805.821 445.654
2522 0 115.335 13.0142 1501 121.528 807.775 441.797
2523 0 114.35 13.415 1534 123.261 807.542 436.849
2524 0 116.183 14.5547 1691 122.093 808.873 438.387
2525 0 119.202 13.4309 1601 124.796 807.579 433.546
2526 0 125.267 14.9282 1870 122.085 807.493 431.866
2527 0 127.246 12.5976 1603 121.506 807.723 440.091
2528 0 132.168 10.1688 1344 127.868 807.12 432.391
2529 0 138.268 10.4218 1441 125.21 806.262 440.401
2530 1 84.2434 13.2117 1113 117.133 806.083 459.425
2531 0 88.1664 12.5331 1105 118.42 804.621 458.669
2532 0 91.1294 12.4987 1139 117.946 803.523 460.311
2533 0 95.3545 11.9134 1136 118.004 802.161 461.172
2534 0 99.3697 12.6598 1258 118.553 801.025 455.841
2535 0 102.172 10.6194 1085 122.188 802.237 446.534
2536 0 105.168 11.3437 1193 120.951 802.349 454.288
2537 0 107.249 10.8626 1165 122.836 801.442 448.31
2538 0 111.305 10.1972 1135 124.302 801.679 452.52
2539 0 114.374 17.4515 1996 114.804 800.492 443.328
2540 0 120.149 12.8923 1549 125.149 798.833 440.721
2541 0 123.171 11.6261 1432 126.32 798.699 442.315
2542 0 127.153 13.0787 1663 125.544 798.751 434.659
2543 0 132.236 19.7903 2617 112.271 798.326 442.561
2544 0 137.378 14.1071 1938 121.008 799.566 430.851
2545 0 140.406 13.5749 1906 124.131 800.12 426.932
2546 0 141.171 12.6301 1783 125.73 800.222 425.629
2547 0 148.322 15.0686 2235 121.778 800.197 425.12
2548 0 153.551 14.1321 2170 124.256 799.803 420.136
2549 1 89.476 12.2044 1092 120.022 800.063 453.857
2550 0 90.3548 11.5987 1048 123.236 801.147 448.4
2551 0 94.2792 13.3115 1255 120.796 799.99 447.797
2552 0 98.234 14.8828 1462 118.609 801.852 447.462
2553 0 99.1454 13.5155 1340 120.96 800.667 447.134
2554 0 102.259 12.8595 1315 123.803 802.649 443.326
2555 0 102.259 12.9476 1324 140.936 803.655 443.322
2556 0 107.155 12.8039 1372 124.05 803.684 442.202
2557 0 114.243 15.7558 1800 119.191 804.127 437.937
2558 0 118.27 14.0018 1656 122.381 804.619 435.8
2559 0 120.163 13.2902 1597 122.668 804.757 438.299
2560 0 123.262 14.4327 1779 121.82 805.102 429.998
2561 0 127.145 16.6031 2111 119.579 806.148 427.43
2562 0 130.204 16.9197 2203 120.243 805.709 427.433
2563 0 136.25 15.677 2136 121.956 807.901 431.886
2564 1 252.543 15.5063 3916 129.589 807.206 371.138
2565 1 144.245 13.6574 1970 127.422 807.817 424.605
2566 1 81.248 8.9233 725 126.57 807.247 457.57
2567 0 85.1529 10.8276 922 123.277 806.738 458.484
2568 0 90.175 13.4405 1212 118.738 806.991 456.872
2569 0 90.278 12.816 1157 122.519 806.241 450.402
2570 0 96.5021 9.4713 914 124.902 805.091 456.338
2571 0 96.1975 11.0086 1059 122.465 806.91 461.064
2572 0 104.297 12.5412 1308 121.485 805.728 453.2
2573 0 108.285 13.0397 1412 121.168 805.544 449.366
2574 0 111.378 12.067 1344 122.769 804.228 451.717
2575 0 113.379 10.6104 1203 123.62 804.071 451.64
2576 0 121.35 12.3445 1498 121.617 802.557 440.88
2577 0 121.439 7.36172 894 128.087 802.299 445.831
2578 0 130.322 9.9216 1293 125.74 801.158 436.994
2579 1 78.1135 8.09079 632 120.296 801.65 466.597
2580 0 79.1815 13.2733 1051 114.057 801.809 462.02
2581 0 76.3089 9.93331 758 120.529 800.472 455.817
2582 0 79.1446 10.6893 846 120.443 800.859 452.465
2583 0 84.2519 12.7594 1075 116.305 800.278 453.548
2584 0 88.1833 13.6534 1204 113.442 799.78 456.302
2585 0 91.1559 16.214 1478 109.039 798.729 454.292
2586 0 93.23 10.3615 966 116.709 798.99 454.132
2587 0 95.1784 11.6728 1111 115.971 799.375 445.748
2588 1 172.384 8.54488 1473 125.297 799.062 411.871
2589 0 185.311 12.4817 2313 117.526 798.858 410.349
2590 0 187.33 16.196 3034 113.272 798.875 404.419
2591 0 194.456 12.8564 2500 116.999 800.482 408.004
2592 0 200.581 12.9174 2591 119.633 800.707 396.09
2593 0 206.367 15.0121 3098 117.932 801.442 385.179
2594 0 215.642 14.7976 3191 117.603 801.825 390.147
2595 0 215.329 13.1009 2821 119.656 801.794 395.194
2596 0 226.486 17.6744 4003 114.379 802.798 377.739
2597 0 230.575 14.9539 3448 118.245 802.18 384.187
2598 1 132.293 12.1473 1607 116.946 803.468 427.398
2599 0 136.153 11.5752 1576 117.397 804.888 428.724
2600 0 142.233 12.9787 1846 116.007 805.039 418.99
2601 0 150.256 16.1658 2429 110.46 805.039 421.48
2602 1 85.2483 12.8566 1096 111.906 805.429 450.278
2603 0 89.2029 10.5378 940 117.296 806.27 445.718
2604 0 93.2218 12.9476 1207 113.07 805.77 446.308
2605 0 96.2457 12.7175 1224 111.57 806.087 445.948
2606 0 100.162 13.6579 1368 108.834 805.233 444.968
2607 0 105.267 11.58 1219 114.489 805.93 447.176
2608 0 106.132 16.0366 1702 108.563 805.833 446.786
2609 0 111.174 13.6273 1515 111.827 805.645 446.139
2610 0 112.283 11.4621 1287 114.482 805.815 447.876
2611 0 116.389 14.821 1725 111.794 805.295 440.115
2612 0 120.436 12.9031 1554 113.371 805.253 435.535
2613 0 127.337 14.4577 1841 111.35 804.867 440.275
2614 0 133.422 14.5628 1943 111.611 804.307 437.86
2615 0 141.574 10.0442 1422 117.648 802.93 435.901
2616 0 145.402 17.3106 2517 107.429 802.559 425.648
2617 0 150.397 14.6213 2199 111.389 802.18 422.541
2618 0 150.489 11.8281 1780 115.557 800.862 425.973
2619 1 92.3372 11.9453 1103 108.686 800.118 450.686
2620 0 95.3196 17.6249 1680 101.727 800.825 452.242
2621 0 99.3819 13.8053 1372 106.979 799.871 452.563
2622 0 104.241 16.7208 1743 104.14 799.719 451.475
2623 0 110.265 15.9796 1762 104.848 797.736 446.832
2624 0 109.224 14.5939 1594 107.998 798.073 445.536
2625 0 111.324 13.9862 1557 108.722 798.202 437.435
2626 0 117.179 17.1618 2011 103.938 797.737 444.716
2627 0 118.252 14.7312 1742 106.961 798.22 443.691
2628 0 122.457 13.0005 1592 110.254 798.49 437.297
2629 0 122.147 10.7739 1316 114.709 799.418 432.335
2630 0 129.374 12.9006 1669 110.394 799.738 434.261
2631 0 132.358 15.2918 2024 107.461 800.248 429.534
2632 0 134.263 14.8291 1991 108.808 800.063 424.509
2633 0 138.175 12.6723 1751 111.222 801.479 414.798
2634 0 145.339 10.2106 1484 115.836 802.352 417.325
2635 0 148.408 14.1367 2098 109.827 801.928 416.568
2636 0 154.286 20.3843 3145 100.626 802.47 425.413
2637 1 87.2702 9.41902 822 109.066 803.41 453.036
2638 0 88.1437 11.2543 992 109.133 802.944 443.913
2639 0 93.2168 13.9889 1304 105.435 804.784 442.112
2640 0 94.114 11.5711 1089 109.175 805.023 445.992
2641 0 96.2019 7.72334 743 118.685 804.62 440.353
2642 1 217.685 22.505 4899 100.09 806.959 391.466
2643 0 224.441 18.4057 4131 103.214 808.069 385.628
2644 0 227.638 14.9272 3398 109.466 808.281 370.71
2645 1 133.52 18.2669 2439 98.4506 807.112 435.463
2646 0 134.319 13.7508 1847 104.009 806.893 432.366
2647 0 132.242 11.2975 1494 106.321 806.572 432.738
2648 0 142.308 14.1524 2014 104.32 806.543 429.176
2649 0 147.673 13.6653 2018 104.766 805.346 427.079
2650 0 143.415 5.94778 853 112.039 804.142 433.339
2651 0 155.335 14.4076 2238 104.293 804.551 427.856
2652 1 88.1283 12.2889 1083 99.7858 802.753 451.917
2653 0 88.1283 12.2889 1083 124.235 801.756 452.044
2654 0 97.1504 9.67572 940 105.888 802.002 449.237
2655 0 98.2881 8.88205 873 108.119 800.525 447.507
2656 0 103.32 11.4789 1186 105.104 800.224 451.513
2657 0 106.281 12.4952 1328 103.314 798.244 445.654
2658 0 108.294 7.85824 851 107.492 797.316 447.88
2659 0 112.155 19.8476 2226 94.8495 797.933 449.879
2660 0 114.332 12.6037 1441 103.366 797.55 445.22
2661 0 117.4 15.3067 1797 99.8375 797.426 445.486
2662 0 120.532 12.2623 1478 102.469 797.43 445.486
2663 0 123.461 12.1253 1497 104.469 797.258 433.294
2664 0 128.392 12.9681 1665 103.584 796.622 431.184
2665 0 130.62 14.569 1903 101.981 796.676 430.261
2666 0 135.38 12.9044 1747 104.303 796.869 428.367
2667 0 139.484 24.5979 3431 93.7263 796.57 426.55
2668 0 142.658 14.1877 2024 102.773 797.796 425.312
2669 0 146.507 9.69919 1421 108.018 798.371 418.323
2670 0 151.856 14.0133 2128 104.844 798.137 409.438
2671 0 157.36 12.9639 2040 106.588 798.747 407.667
2672 0 162.647 11.3743 1850 107.176 799.442 412.629
2673 1 98.7168 13.0778 1291 103.612 800.809 436.388
2674 0 100.655 11.2562 1133 106.156 801.012 435.073
2675 0 105.003 13.2948 1396 104.173 801.777 433.076
2676 0 107.613 14.3385 1543 102.536 801.468 438.065
2677 0 112.772 12.778 1441 101.935 801.697 439.108
2678 0 113.817 11.3076 1287 103.935 803.178 434.061
2679 0 116.368 14.4456 1681 100.469 803.631 433.857
2680 0 119.438 15.3218 1830 100.351 803.742 428.638
2681 0 118.285 11.2694 1333 100.561 803.62 444.77
2682 0 125.41 12.2957 1542 103.755 804.431 429.239
2683 0 133.574 12.1805 1627 104.841 805.869 427.511
2684 0 134.348 14.7081 1976 103.005 804.628 428.928
2685 0 140.396 13.2839 1865 103.391 805.661 432.78
2686 0 142.249 15.6345 2224 102.695 805.496 422.038
2687 0 144.58 12.4153 1795 105.631 805.816 424.74
2688 1 158.648 18.7522 2975 97.5166 805.182 426.669
2689 0 159.631 17.4339 2783 98.2095 803.643 429.604
2690 0 161.368 18.7212 3021 98.6197 804.48 419.125
2691 0 169.335 14.5451 2463 103.326 804.051 410.102
2692 0 170.455 11.1466 1900 105.805 803.69 416.104
2693 1 107.362 11.5497 1240 100.527 803.422 448.989
2694 0 107.557 10.8687 1169 101.865 802.697 446.402
2695 0 112.34 13.112 1473 99.5906 801.5 443.767
2696 0 112.402 13.167 1480 100.276 801.789 438.525
2697 0 119.194 14.3296 1708 97.993 800.961 448.092
2698 0 119.344 14.697 1754 99.203 800.781 440.006
2699 0 121.362 11.5358 1400 99.7821 800.759 441.705
2700 0 127.633 16.3359 2085 94.2628 799.322 430.595
2701 0 128.52 12.465 1602 99.1991 798.511 441.471
2702 1 9.0038 3.66512 33 81.0606 797.939 494.636
2703 0 17.0468 12.4363 212 77.4576 799.84 491.731
2704 1 138.833 16.1849 2247 86.1322 798.034 438.987
2705 0 140.63 14.2715 2007 91.3931 796.786 419.551
2706 0 138.541 14.465 2004 91.0269 797.97 421.814
2707 0 134.224 6.51151 874 99.0927 798.009 416.402
2708 0 146.723 19.881 2917 86.1426 797.468 423.501
2709 0 149.932 10.7983 1619 94.5763 797.615 406.747
2710 0 153.338 14.7908 2268 91.4775 798.439 405.201
2711 0 155.395 11.223 1744 94.7058 798.924 413.027
2712 0 158.957 16.7152 2657 90.0316 799.189 398.827
2713 0 161.698 18.6644 3018 88.941 799.586 406.88
2714 0 159.548 15.6692 2500 91.2508 800.542 414.172
2715 0 159.856 10.816 1729 96.8589 800.334 401.802
2716 0 164.551 13.157 2165 93.6453 801.52 409.712
2717 0 167.619 18.3929 3083 89.1677 801.298 410.518
2718 0 161.455 8.43577 1362 98.9934 801.08 407.698
2719 0 168.446 21.6093 3640 86.5354 802.156 405.155
2720 0 167.44 11.0666 1853 94.5321 802.842 415.35
2721 0 167.469 14.343 2402 92.4588 802.822 407.985
2722 0 173.618 19.1224 3320 88.3482 802.874 409.441
2723 0 174.464 20.6461 3602 85.6369 802.89 422.914
2724 0 174.551 13.7667 2403 92.8768 804.714 408.715
2725 0 173.471 14.5788 2529 92.0941 805.053 409.209
2726 0 170.461 12.0145 2048 95.3213 805.098 402.014
2727 1 236.771 13.9333 3299 92.3562 805.717 401.786
2728 0 239.898 16.8739 4048 91.8671 805.806 384.701
2729 0 242.675 20.5872 4996 89.8539 805.294 364.304
2730 1 174.398 21.061 3673 87.0133 804.556 412.052
2731 0 178.584 17.5492 3134 88.6548 805.774 421.304
2732 0 173.506 11.5616 2006 94.8923 805.522 412.181
2733 0 172.524 13.2156 2280 94.389 805.164 408.528
2734 0 177.736 16.8002 2986 87.0432 804.982 436.832
2735 0 174.548 9.43007 1646 97.887 804.237 412.099
2736 0 178.694 15.4566 2762 90.6206 804.646 423.618
2737 0 174.599 13.1902 2303 94.0187 803.602 403.881
2738 0 178.967 13.075 2340 93.6 803.454 406.825
2739 0 177.559 14.536 2581 92.0821 802.107 414.641
2740 0 177.559 14.4684 2569 127.429 800.114 414.269
2741 0 184.803 15.779 2916 90.9763 801.858 410.367
2742 0 179.529 20.9381 3759 87.436 801.013 408.545
2743 0 178.55 11.9518 2134 94.7371 800.66 407.086
2744 0 180.858 16.9415 3064 88.7503 800.257 424.449
2745 0 181.621 14.0623 2554 92.3312 799.973 414.172
2746 0 180.474 13.4202 2422 93.2585 798.962 394.285
2747 0 183.492 15.6737 2876 89.9336 798.41 413.166
2748 0 179.342 9.56828 1716 96.2617 797.737 412.297
2749 0 182.684 13.3345 2436 93.1786 797.137 394.766
2750 0 185.505 16.6034 3080 89.7692 797.78 403.642
2751 0 183.696 9.7988 1800 95.1011 799.374 417.376
2752 0 182.452 19.8134 3615 88.0703 799.344 398.706
2753 0 182.686 18.5236 3384 87.7373 799.543 412.252
2754 0 178.593 10.09 1802 105.007 799.219 386.439
2755 0 182.509 10.3063 1881 102.087 799.652 412.654
2756 0 185.436 15.0348 2788 99.1234 799.412 398.227
2757 0 183.528 13.3059 2442 101.948 800.212 382.507
2758 0 190.367 11.2362 2139 103.128 801.115 395.193
2759 0 190.854 13.4186 2561 100.593 802.109 394.072
2760 0 187.558 12.1989 2288 101.413 802.547 393.368
2761 0 186.718 16.3455 3052 98.3562 803.764 380.289
2762 0 188.885 20.2928 3833 92.4427 803.966 406.313
2763 0 189.373 15.1236 2864 98.8303 804.325 393.022
2764 0 192.822 15.4702 2983 98.3993 805.687 383.846
2765 1 244.587 13.7006 3351 104.022 805.023 357.087
2766 0 246.936 14.526 3587 102.161 807.068 361.173
2767 0 242.788 14.9143 3621 102.834 806.653 356.734
2768 0 241.952 10.5517 2553 104.3 807.686 376.635
2769 1 172.589 14.2014 2451 95.0114 808.142 411.432
2770 0 166.649 14.1375 2356 101.06 807.074 398.056
2771 0 174.765 12.903 2255 96.2004 806.717 399.346
2772 0 170.476 12.0134 2048 95.4936 806.61 392.926
2773 0 174.431 9.61987 1678 95.1013 806.682 400.732
2774 0 174.47 13.0223 2272 97.0599 806.43 396.446
2775 0 171.786 19.9842 3433 90.3105 805.816 408.237
2776 0 171.902 13.7869 2370 97.1198 806.342 399.119
2777 0 166.729 15.1624 2528 95.2286 805.892 407.913
2778 0 162.62 8.76277 1425 102.276 806.126 402.733
2779 0 162.772 10.997 1790 101.163 805.259 404.261
2780 0 162.683 13.1851 2145 99.0867 805.687 402.033
2781 0 162.443 9.76345 1586 102.533 804.801 403.161
2782 0 157.655 7.03436 1109 106.782 803.493 397.325
2783 0 162.649 11.8414 1926 100.536 802.872 405.606
2784 0 164.68 20.3121 3345 92.2197 802.817 406.152
2785 0 164.446 17.7383 2917 94.1231 803.059 408.425
2786 0 164.753 15.2774 2517 96.3051 801.795 397.345
2787 0 164.495 12.8515 2114 98.4437 801.998 400.046
2788 0 163.78 14.3607 2352 94.827 800.988 411.6
2789 0 160.535 10.0913 1620 100.934 800.633 395.653
2790 0 161.628 12.6896 2051 98.2769 800.186 388.955
2791 0 166.003 13.9456 2315 94.724 800.048 407.221
