time division length width area intensity CMx CMy
0 0 54.1157 14.9679 810 131.693 589.33 465.367
1 0 57.0713 14.4906 827 130.131 588.664 467.822
2 0 60.2523 18.7877 1132 114.733 589.359 469.333
3 0 59.2057 14.8972 882 119.892 587.576 465.446
4 0 66.0861 16.6752 1102 121.581 587.166 466.372
5 1 33.0085 11.9969 396 128.199 585.467 478.977
6 0 36.1164 12.0998 437 127.89 584.542 479.812
7 0 36.1164 12.1274 438 161.027 582.53 479.909
8 0 37.1401 14.028 521 123.104 584.286 480.413
9 0 43.1734 17.4876 755 117.225 583.234 474.983
10 0 41.1013 15.5226 638 121.506 582.045 476.56
11 0 43.1453 15.5057 669 121.338 581.866 475.713
12 0 45.0618 15.5342 700 120.897 581.921 475.057
13 0 43.0251 13.7594 592 125.356 580.89 472.292
14 0 47.0402 18.7287 881 116.624 581.565 470.978
15 0 48.1619 15.9877 770 121.425 581.066 471.026
16 0 49.1715 14.7036 723 123.851 581.473 467.154
17 0 50.0654 17.4372 873 116.995 580.78 464.221
18 0 50.056 14.3639 719 131.705 580.736 463.843
19 0 53.0498 15.4949 822 125.78 579.636 459.864
20 0 55.0773 14.9608 824 124.725 581.386 460.968
21 0 56.0982 13.6725 767 127.301 581.701 461.126
22 0 55.0878 14.6675 808 129.45 581.186 455.428
23 0 60.0696 16.664 1001 126.661 582.274 453.408
24 0 61.0923 15.0919 922 130.595 582.612 453.835
25 0 63.1702 14.5163 917 128.738 583.354 454.579
26 0 67.1207 15.5094 1041 125.09 584.112 451.827
27 0 70.0954 25.9218 1817 109.274 583.536 452.32
28 0 72.1938 16.7327 1208 122.589 585.161 450.445
29 0 72.2642 14.9175 1078 126.699 586.036 446.273
30 0 76.0805 17.3763 1322 123.12 586.101 445.927
31 0 79.1678 17.3177 1371 122.781 587.848 442.407
32 0 79.2268 13.0638 1035 129.752 588.712 447.954
33 0 84.1512 13.9867 1177 125.34 589.338 444.224
34 0 89.1212 15.8548 1413 122.442 590.004 442.344
35 0 90.2044 17.0391 1537 122.976 590.094 438.464
36 0 93.3498 17.7612 1658 118.852 591.785 441.314
37 1 48.0684 12.191 586 124.502 591.44 463.452
38 0 52.1046 14.9123 777 117.248 591.667 463.698
39 0 51.1462 14.4097 737 119.579 590.821 462.233
40 0 57.2109 15.6613 896 111.375 591.171 467.401
41 0 56.1598 15.9545 896 117.965 590.837 462.812
42 0 59.0692 18.4529 1090 110.96 590.954 463.45
43 0 59.0929 15.2133 899 116.67 591.014 465.456
44 0 64.05 15.4567 990 121.8 589.084 461.26
45 0 67.2326 14.9481 1005 130.683 589.254 462.52
46 0 71.39 19.9187 1422 118.546 589.852 463.288
47 0 71.0958 14.2484 1013 131.827 588.279 461.989
48 0 74.2329 15.384 1142 131.644 586.76 460.224
49 0 76.193 17.5869 1340 123.827 587.313 458.079
50 0 80.1403 15.2483 1222 131.903 585.912 458.092
51 0 80.1142 15.2532 1222 144.863 584.921 458.023
52 0 86.0799 20.481 1763 120.791 584.328 456.011
53 0 87.0631 16.8154 1464 128.741 584.043 452.495
54 0 90.2024 17.9042 1615 126.033 582.721 451.259
55 0 94.1237 14.3959 1355 131.684 583.303 451.649
56 0 96.1609 13.6438 1312 133.075 583.385 446.376
57 0 101.104 15.6472 1582 128.16 581.988 446.554
58 1 53.0523 13.2699 704 124.22 581.742 469.199
59 0 56.1509 13.1254 737 126 583.336 465.035
60 0 60.2189 14.3975 867 120.467 581.859 464.652
61 0 60.1928 13.6395 821 122.911 580.883 461.553
62 0 62.1535 11.6003 721 124.969 581.323 461.892
63 0 62.2024 12.604 784 124.378 581.981 458.548
64 0 69.2116 14.0439 972 118.795 581.06 458.966
65 0 70.0789 14.5836 1022 119.746 582.406 453.298
66 0 73.1672 15.5944 1141 117.358 582.232 452.33
67 0 75.2799 13.4033 1009 121.639 582.879 448.166
68 0 79.128 17.6423 1396 114.676 583.524 450.294
69 0 80.1783 14.2931 1146 122.47 583.163 442.944
70 0 84.1694 13.4372 1131 123.42 583.503 442.722
71 0 87.2704 14.5639 1271 122.021 585.071 435.422
72 0 91.2891 13.2546 1210 123.669 585.662 439.186
73 0 96.4632 16.8562 1626 117.019 585.992 440.231
74 0 97.2507 13.1413 1278 125.252 586.834 436.434
75 1 50.08 11.9609 599 120.778 587.835 462.356
76 0 49.1706 11.8567 583 122.081 587.377 459.051
77 0 53.0221 11.8064 626 124.695 588.043 460.634
78 0 59.446 14.5342 864 116.271 589.297 463.096
79 0 57.1834 10.0729 576 128.062 590.271 461.031
80 0 60.1774 12.7955 770 123.351 590.742 459.606
81 0 60.1034 11.8795 714 125.7 591.3 459.165
82 0 63.287 12.8304 812 124.464 590.284 459.144
83 1 132.233 13.0376 1724 126.521 590.461 429.703
84 1 67.2681 12.413 835 125.109 590.072 460.491
85 0 71.3074 12.8458 916 124.407 589.999 460.881
86 0 73.2657 13.3487 978 125.263 589.367 457.185
87 0 74.1184 12.6824 940 126.64 589.143 459.039
88 0 77.3772 13.0917 1013 126.397 589.539 456.752
89 0 80.2785 14.3874 1155 123.398 589.283 459.501
90 0 81.1576 12.2355 993 127.307 588.518 459.268
91 1 44.0794 9.57363 422 123.749 588.111 478.533
92 0 41.1035 6.86072 282 128.34 587.808 480.262
93 0 46.1356 12.2248 564 121.369 587.477 476.814
94 0 47.0216 11.633 547 121.322 585.819 478.481
95 0 47.0349 12.0549 567 121.649 583.053 479.78
96 0 50.2243 11.2894 567 124.55 583.644 476.002
97 0 51.0486 13.4969 689 121.017 582.904 474.763
98 0 50.0703 11.4639 574 125.864 581.848 475.854
99 0 55.057 14.6575 807 117.75 581.457 472.18
100 0 57.1366 12.7414 728 121.067 580.648 470.728
101 0 57.1094 12.1346 693 125.475 579.781 467.934
102 0 61.2224 14.0798 862 119.034 578.888 467.944
103 0 60.1373 13.1699 792 123.042 579.774 465.207
104 0 63.0615 12.9556 817 123.494 579.47 466.739
105 0 65.3036 11.8064 771 127.017 579.624 461.323
106 0 69.1569 15.2841 1057 119.973 579.911 458.702
107 0 69.2322 11.6564 807 127.668 580.176 459.126
108 0 72.2444 12.9976 939 124.744 580.761 460.832
109 0 73.2271 14.3116 1048 125.794 580.353 450.923
110 0 80.0943 14.3081 1146 124.521 581.674 452.956
111 0 79.3372 12.5288 994 129.939 581.742 449.355
112 0 81.2412 12.2967 999 130.538 583.663 449.066
113 0 86.1502 15.5078 1336 123.585 583.841 444.933
114 0 86.266 14.861 1282 125.09 584.36 442.561
115 0 89.1181 10.559 941 132.235 585.075 446.378
116 0 100.21 13.1724 1320 125.165 585.006 444.385
117 1 46.1272 12.2704 566 123.023 586.348 464.198
118 0 50.2715 13.0094 654 120.92 586.196 461.849
119 0 50.054 11.5875 580 127.11 585.195 462.767
120 0 51.1558 15.5798 797 117.9 587.193 461.006
121 0 52.027 13.9543 726 120.302 588.364 462.588
122 0 53.1987 13.5718 722 117.547 589.176 467.726
123 0 56.094 15.3849 863 116.256 589.55 465.028
124 0 57.14 13.6332 779 120.709 589.635 461.82
125 0 58.0824 10.1235 588 124.211 589.634 465.772
126 0 60.0285 11.1614 670 123.328 589.522 462.445
127 0 62.1756 10.213 635 124.189 588.907 465.272
128 0 63.111 13.6585 862 121.261 589.671 460.222
129 0 65.11 12.5019 814 123.403 588.609 464.131
130 0 67.1155 15.0487 1010 116.858 588.422 467.241
131 0 69.1508 10.976 759 125.742 587.81 462.437
132 0 72.0891 12.9562 934 122.133 588.41 461.942
133 0 76.1162 13.4137 1021 120.185 587.093 462.724
134 0 75.1387 13.3353 1002 121.022 586.293 461.887
135 0 82.2171 19.1688 1576 110.752 586.591 457.4
136 0 82.0851 13.1449 1079 119.723 585.05 459.828
137 0 86.3787 11.1949 967 122.193 586.168 460.689
138 1 45.1044 12.6817 572 119.269 584.746 477.316
139 0 45.0246 11.3494 511 120.687 584.738 477.511
140 0 47.1832 13.3946 632 117.5 583.082 474.566
141 0 48.1076 14.3636 691 113.168 581.32 475.695
142 0 50.1114 12.8913 646 115.085 581.305 474.206
143 0 56.1862 10.6432 598 116.334 581.062 474.836
144 0 53.0877 14.0146 744 112.973 579.851 471.542
145 0 53.0999 14.0678 747 122.7 578.865 471.317
146 0 57.129 12.7256 727 117.645 578.407 467.018
147 0 56.2208 12.5398 705 115.982 579.004 466.122
148 0 59.1101 12.4344 735 115.467 579.142 466.41
149 0 62.1621 13.9957 870 113.914 578.675 464.212
150 0 63.2701 13.2922 841 116.483 579.071 461.484
151 0 65.1327 10.8701 708 118.723 579.027 461.753
152 0 68.1527 14.4528 985 111.972 579.746 459.8
153 0 68.0771 11.7661 801 118.615 579.556 456.876
154 0 72.4403 13.9839 1013 115.954 579.555 451.025
155 0 76.2519 13.2456 1010 116.785 580.17 449.901
156 0 76.1422 13.8031 1051 117.203 581.652 450.188
157 0 82.0841 15.1674 1245 114.882 581.584 445.986
158 0 85.3015 15.1697 1294 114.781 583.27 445.247
159 0 87.2581 12.5375 1094 117.739 583.228 444.568
160 0 91.4538 12.0935 1106 118.054 583.696 441.268
161 1 47.2269 13.0858 618 111.362 584.987 463.411
162 0 47.0485 13.9218 655 113.05 585.086 462.464
163 0 47.0697 12.2372 576 116.375 586.16 460.262
164 0 52.0602 15.4821 806 108.797 586.701 464.247
165 0 53.1108 12.4457 661 114.011 586.917 462.856
166 0 54.1455 13.0574 707 113.478 587.4 463.088
167 0 57.3824 11.2752 647 116.162 587.576 463.946
168 0 57.1215 13.6726 781 114.525 587.657 462.539
169 0 60.2413 13.0309 785 115.743 587.845 464.732
170 0 62.2177 12.4884 777 118.021 587.459 460.986
171 0 64.1586 14.4174 925 115.55 587.219 461.721
172 0 65.3128 14.0401 917 117.306 587.471 462.184
173 0 68.5072 14.3635 984 118.019 586.564 459.559
174 0 69.4881 13.0814 909 121.146 586.98 463.191
175 0 74.6745 18.3998 1374 112.545 586.635 463.478
176 0 74.4055 17.539 1305 115.509 585.776 463.272
177 0 77.433 15.7168 1217 119.656 586.088 459.789
178 0 80.5206 14.4808 1166 122.674 584.445 461.178
179 0 82.6064 17.4442 1441 118.43 584.025 459.974
180 0 86.3191 14.9214 1288 123.668 582.959 457.424
181 0 89.6434 14.9258 1338 124.903 582.449 454.399
182 0 93.2912 14.0313 1309 126.866 581.733 452.201
183 1 46.2562 10.0311 464 127.153 580.366 474.978
184 0 48.249 12.6427 610 123.797 579.441 473.566
185 0 50.1575 12.2813 616 123.705 578.732 473.508
186 0 52.1392 12.7351 664 125.517 578.996 471.965
187 0 55.2184 12.1155 669 123.028 577.173 472.039
188 0 57.231 15.3937 881 119.739 577.632 466.764
189 0 59.5013 15.0417 895 120.037 577.328 465.159
190 0 60.2815 14.1005 850 121.392 577.366 465.453
191 0 62.325 14.8095 923 122.314 577.092 461.6
192 0 63.2668 14.4784 916 122.942 577.552 462.394
193 0 65.2445 12.3229 804 127.794 577.28 460.202
194 0 68.1289 13.3717 911 125.449 577.733 456.665
195 0 71.2211 13.7459 979 123.39 577.396 458.558
196 0 73.2175 15.2559 1117 123.032 577.58 452.096
197 0 73.2175 15.2969 1120 148.279 577.587 452.162
198 0 79.2656 14.7984 1173 121.671 578.568 451.404
199 0 82.1252 16.3774 1345 120.152 579.769 447.91
200 0 82.1252 16.3896 1346 140.904 581.758 448.032
201 0 86.3714 12.3073 1063 126.116 580.134 445.091
202 0 91.4243 15.2257 1392 120.922 580.126 442.853
203 0 91.5398 13.5788 1243 124.203 582.537 442.366
204 0 95.1841 15.4543 1471 121.549 582.341 439.167
205 1 50.2442 10.9067 548 124.285 583.812 461.765
206 0 53.098 13.0702 694 121.177 584.785 461.496
207 0 55.2596 11.8351 654 116.566 585.306 465.728
208 0 56.0603 11.452 642 116.59 586.29 466.868
209 0 60.2165 14.8796 896 110.04 586.607 466.31
210 0 60.3438 15.6603 945 109.363 585.596 467.903
211 0 60.1632 11.1696 672 118.205 587.515 464.902
212 0 65.2517 12.4748 814 116.115 587.623 463.365
213 0 66.1118 14.899 985 113.671 587.079 464.607
214 0 67.3189 10.324 695 119.866 588.232 465.597
215 0 71.1816 12.2925 875 117.411 587.942 465.417
216 0 75.1394 9.27609 697 120.822 587.435 464.97
217 0 76.1008 12.5229 953 119.259 586.981 462.1
218 1 43.0157 11.6004 499 114.447 587.08 482.866
219 0 41.0979 11.7038 481 116.617 586.345 479.326
220 0 43.0395 11.8263 509 115.483 584.206 479.617
221 0 46.0604 13.9382 642 112.187 584.162 479.202
222 0 43.1132 10.1361 437 119.728 583.437 481.561
223 0 45.3538 10.4953 476 119.095 581.861 480.263
224 0 47.1254 11.6498 549 117.495 581.071 477.882
225 0 49.0638 11.1895 549 117.794 579.548 478.211
226 0 51.1748 13.2487 678 113.96 579.361 478.205
227 0 51.1748 11.5096 589 127.643 578.341 477.019
228 0 52.1047 14.0678 733 111.472 577.962 478.753
229 0 55.1047 11.3602 626 116.054 577.214 477.281
230 0 57.1239 12.9543 740 113.647 576.93 475.253
231 0 59.1164 13.9724 826 111.291 575.861 470.008
232 0 59.086 13.4211 793 113.701 575.931 470.236
233 0 63.3863 9.68664 614 119.225 576.114 467.378
234 0 66.178 15.2468 1009 111.168 575.445 466.888
235 0 70.1606 13.9109 976 113.623 576.319 463.976
236 0 71.1276 12.6814 902 117.626 575.651 460.912
237 0 72.2469 12.1251 876 122.174 576.261 457.475
238 0 78.2945 13.6663 1070 119.054 575.414 454.791
239 0 81.126 13.9289 1130 119.154 575.824 455.303
240 1 40.1145 11.7663 472 116.746 577.032 474
241 0 41.0733 9.42219 387 124.018 576.411 468.734
242 0 43.069 12.004 517 119.327 577.805 468.896
243 0 43.069 12.004 517 136.704 579.805 468.896
244 0 47.0754 10.6638 502 121.924 578.098 469.737
245 0 48.062 15.2303 732 116.298 579.62 466.184
246 0 50.0554 11.767 589 122.258 579.426 465.862
247 0 50.2768 12.3516 621 122.61 579.977 461.374
248 0 53.0626 13.06 693 119.267 580.254 466.903
249 0 52.0438 12.4318 647 124.411 580.526 461.604
250 0 53.0936 14.7852 785 120.799 581.252 460.87
251 0 57.0831 14.9607 854 118.395 582.557 461.904
252 0 59.0798 15.8768 938 115.804 583.714 464.498
253 0 61.0872 13.3252 814 121.307 584.704 462.714
254 0 63.1025 14.2467 899 119.493 584.839 462.626
255 0 63.1303 13.4009 846 122.3 584.423 461.908
256 0 67.1244 12.9759 871 122.411 584.917 464.683
257 0 69.0993 14.7035 1016 118.195 585.625 465.391
258 0 72.101 15.7002 1132 117.735 585.345 462.354
259 0 72.1816 13.9371 1006 122.438 585.28 461.259
260 0 76.048 15.648 1190 118.966 584.179 462.675
261 0 78.2201 14.4336 1129 121.674 584.159 461.748
262 0 81.1497 14.1097 1145 122.963 583.58 461.819
263 0 82.1172 17.4994 1437 118.223 583.548 458.344
264 0 86.2839 15.704 1355 120.138 584.556 461.424
265 0 86.1887 14.1086 1216 122.117 584.144 460.673
266 0 90.1919 16.5979 1497 115.511 582.354 460.257
267 1 49.1165 12.2973 604 119.472 581.146 477.119
268 0 49.0609 12.78 627 118.585 580.123 476.466
269 0 50.0371 11.5114 576 114.858 580.028 482.068
270 0 51.0693 12.1012 618 121.155 577.756 474.583
271 0 54.1863 13.915 754 117.91 578.383 471.889
272 0 55.1507 13.6354 752 118.315 577.495 471.714
273 0 57.1036 12.346 705 121.255 576.604 471.338
274 0 59.0861 13.2349 782 117.849 576.737 470.13
275 0 62.1476 13.8219 859 117.191 576.051 467.808
276 0 65.1925 13.5292 882 118.05 575.159 464.505
277 0 66.1566 13.3018 880 120.068 574.944 462.286
278 0 68.2244 11.9459 815 123.401 575.094 459.753
279 0 70.3554 13.7871 970 120.941 576.054 457.76
280 0 78.5206 15.41 1210 115.828 575.957 457.345
281 0 79.7729 13.6387 1088 120.376 576.058 454.86
282 0 81.4941 16.3938 1336 116.579 576.507 451.461
283 0 83.3255 13.2732 1106 120.828 576.465 448.18
284 0 86.2443 14.6097 1260 117.778 577.5 449.074
285 1 43.0432 12.4526 536 114.427 577.313 466.711
286 0 46.1591 11.3304 523 115.113 578.214 466.589
287 0 46.1924 11.4954 531 114.962 579.659 465.62
288 0 48.0686 16.0812 773 107.467 579.11 464.282
289 0 52.269 18.9596 991 101.405 581.292 466.589
290 0 49.1162 13.3357 655 113.931 581.976 460.722
291 0 53.1801 16.5476 880 109.836 581.509 459.572
292 0 52.2409 12.2892 642 118.104 582.089 461.263
293 0 55.3034 15.8037 874 112.027 583.585 461.14
294 0 57.1973 12.8328 734 116.497 584.394 461.104
295 0 60.4697 14.1724 857 114.571 585.852 459.65
296 0 59.2988 12.0239 713 120.05 585.585 458.519
297 0 61.1856 13.7124 839 118.324 587.534 456.743
298 0 64.2901 15.3989 990 114.681 587.181 459.986
299 0 65.2187 17.817 1162 111.271 586.438 462.049
300 0 68.1849 15.1353 1032 114.289 586.675 465.11
301 0 70.1178 17.4421 1223 114.191 586.718 462.226
302 0 70.1611 15.0368 1055 118.763 585.845 465.175
303 1 153.515 14.5393 2232 126.587 586.173 423.835
304 1 75.1846 14.2715 1073 122.573 586.329 460.378
305 0 76.1814 15.0824 1149 140.985 586.326 461.212
306 0 79.1079 14.3854 1138 123.781 585.697 461.334
307 1 42.1541 10.6514 449 123.601 584.566 482.042
308 0 44.041 11.6255 512 125.525 584.162 477.844
309 0 48.1574 12.1477 585 119.92 582.889 480.778
310 0 47.0725 11.6204 547 122.069 582.751 477.367
311 0 48.07 14.5621 700 115.939 581.264 476.4
312 0 49.0693 11.0252 541 118.726 581.338 477.396
313 0 52.0679 15.1725 790 111.576 580.703 473.592
314 0 52.0679 15.2301 793 130.725 579.672 473.603
315 0 54.0578 13.8555 749 112.988 579.383 473.866
316 0 55.1621 11.5297 636 116.487 578.45 471.855
317 0 56.0518 12.2922 689 116.833 577.971 468.025
318 0 56.0518 12.31 690 134.764 576.967 467.916
319 0 60.0992 11.6141 698 118.91 576.246 462.822
320 0 61.1432 10.8598 664 117.61 575.556 464.521
321 0 65.2089 13.3724 872 115.736 577.498 460.161
322 0 67.268 13.2158 889 115.8 577.922 458.859
323 0 71.1378 11.8924 846 117.674 577.183 457.978
324 0 72.0742 12.0293 867 119 577.08 452.304
325 0 75.1456 13.4672 1012 116.482 577.706 453.112
326 1 40.0347 12.3643 495 114.051 577.584 469.024
327 0 42.0677 11.4102 480 114.869 578.477 468.692
328 0 42.0083 13.2831 558 114.194 578.919 464.912
329 0 44.1658 12.9738 573 110.887 578.548 468.183
330 0 43.1324 15.3249 661 107.505 579.588 467.297
331 0 43.1058 10.7642 464 117.149 580.767 464.131
332 0 44.0481 11.7145 516 115.196 582.054 461.293
333 0 44.0481 11.7372 517 129 583.05 461.36
334 0 47.1324 10.5235 496 115.72 583.302 462.147
335 0 52.0384 10.3577 539 113.675 583.883 464.727
336 0 51.1466 11.555 591 114.487 584.142 458.998
337 0 51.1654 10.2608 525 116.543 584.128 460.25
338 0 53.2278 10.9529 583 115.866 585.175 458.319
339 0 57.0842 11.7546 671 114.347 586.422 459.65
340 0 57.0533 11.7259 669 114.822 587.024 460.007
341 0 60.1146 11.9938 721 115.725 587.522 457.092
342 0 65.0902 12.306 801 113.757 588.05 458.454
343 0 67.0947 13.712 920 111.546 588.11 459.368
344 0 68.0305 10.3042 701 117.237 587.715 457.944
345 0 69.0983 12.7499 881 114.885 588.969 457.85
346 0 72.2458 12.6789 916 113.793 588.569 458.398
347 0 79.3617 14.1378 1122 112.844 587.51 457.817
348 0 80.4335 11.9726 963 116.767 587.718 459.352
349 0 83.3112 13.4436 1120 115.691 587.744 454.96
350 0 84.4966 13.0301 1101 116.797 586.926 458.188
351 1 45.1558 11.6928 528 119.487 587.625 475.979
352 0 46.0907 14.0375 647 112.104 586.226 478.32
353 0 48.0596 13.192 634 113.669 585.259 478.793
354 0 47.1602 14.3341 676 115.081 584.92 473.732
355 0 47.0504 10.5631 497 122.73 583.509 476.177
356 0 53.0636 15.5474 825 113.936 582.875 471.364
357 0 54.0668 15.7583 852 113.344 582.358 474.96
358 0 56.289 13.8393 779 115.295 582.791 475.91
359 0 58.1506 14.2561 829 116.918 581.241 471.934
360 0 58.1639 10.8658 632 121.402 581.932 474.222
361 0 57.2342 10.5357 603 124.65 580.083 470.9
362 0 63.2211 14.3939 910 115.162 580.163 469.527
363 0 64.3147 14.0092 901 116.741 579.335 465.937
364 0 67.2538 14.6758 987 118.45 579.151 460.986
365 0 69.1684 14.0526 972 119.938 579.076 459.801
366 0 71.3659 13.704 978 119.372 579.506 457.507
367 0 71.3659 13.662 975 141.588 579.498 457.478
368 1 41.0395 11.5499 474 117.068 579.515 471.686
369 0 43.1064 12.9911 560 114.945 580.648 469.504
370 0 44.1085 13.7162 605 115.65 579.964 465.94
371 0 46.0211 14.602 672 115.927 579.711 463.945
372 0 44.0678 10.7788 475 124.503 580.03 463.966
373 0 48.0482 14.1733 681 117.022 580.323 463.04
374 0 50.0863 13.2971 666 118.926 581.287 460.102
375 0 51.0566 14.67 749 117.591 581.776 460.166
376 0 52.0738 16.3038 849 116.367 581.87 457.168
377 0 55.0653 13.2388 729 120.982 583.518 458.038
378 0 59.0781 14.0492 830 118.742 583.131 457.394
379 0 58.1938 14.3314 834 118.981 584.488 457.655
380 0 60.1705 13.844 833 119.038 584.628 456.497
381 0 61.1123 15.5288 949 116.636 585.886 453.661
382 0 61.0812 13.3265 814 121.514 586.684 455.797
383 0 65.0569 12.9272 841 120.247 588.358 456.844
384 0 68.0313 13.876 944 119.481 587.178 453.588
385 0 69.0926 14.097 974 119.962 587.526 451.555
386 0 71.066 13.2412 941 122.173 588.461 452.745
387 0 74.14 12.355 916 124.382 588.455 453.071
388 0 79.1146 14.3968 1139 119.188 588.699 454.548
389 1 42.1516 8.96764 378 122.13 589.294 473.317
390 0 41.0245 11.3835 467 117.323 588.34 473.156
391 0 43.2165 10.7366 464 121.782 588 472.754
392 0 46.0441 16.5928 764 110.843 587.586 473.779
393 0 46.1105 11.6459 537 118.657 587.244 474.799
394 0 45.0754 12.1796 549 119.659 586.916 472.488
395 0 52.0576 13.9269 725 114.039 585.604 474.814
396 0 51.0681 12.5714 642 117.031 585.822 475.312
397 0 52.068 12.2148 636 118.538 585.571 475.808
398 0 55.0581 11.0429 608 119.258 583.383 474.118
399 0 54.1072 11.6435 630 120.294 582.865 473.541
400 0 57.1791 12.3297 705 119.626 583.434 470.387
401 0 58.105 12.9765 754 118.773 582.724 472.477
402 0 58.1978 13.3682 778 119.564 581.922 468.746
403 0 63.2028 14.4614 914 116.729 581.144 467
404 0 62.2796 14.6918 915 117.745 579.906 463.708
405 0 65.2727 13.5585 885 120.171 579.941 462.897
406 0 68.21 13.5611 925 119.176 578.563 462.272
407 0 69.1013 12.6915 877 121.897 578.983 458.119
408 0 76.1922 14.1484 1078 116.93 579.471 456.24
409 0 75.2377 13.5305 1018 119.361 580.204 454.785
410 1 42.0857 9.67075 407 119.902 580.339 471.364
411 0 43.0292 10.8763 468 118.942 579.192 470.556
412 0 45.1526 11.8044 533 115.542 579.976 469.298
413 0 48.2563 14.1743 684 110.797 580.63 469.221
414 0 47.1109 14.6038 688 115.727 579.625 464.933
415 0 49.0486 20.9996 1030 105.886 579.269 465.379
416 0 48.0452 13.1543 632 120.886 579.911 460.948
417 0 49.0324 11.2375 551 125.374 579.971 461.454
418 0 55.1266 15.0018 827 117.306 580.45 460.808
419 0 58.3741 14.7154 859 116.782 582.22 461.636
420 0 55.0491 13.388 737 122.351 582.271 456.544
421 0 58.1394 13.674 795 121.638 583.297 456.748
422 0 60.0426 14.9894 900 118.697 583.834 456.258
423 0 62.1915 15.0824 938 117.855 584.725 457.783
424 0 62.1022 12.9947 807 123.551 584.938 454.991
425 0 66.1657 16.7005 1105 115.292 586.536 456.281
426 0 68.0426 14.4174 981 121.243 587.222 455.365
427 0 69.2094 14.0588 973 122.244 588.515 453.538
428 0 73.1113 14.6215 1069 121.17 588.998 456.404
429 0 71.16 13.3924 953 126.105 590.421 452.273
430 0 77.2122 15.179 1172 120.767 589.465 457.474
431 0 78.4339 12.0739 947 127.498 589.355 455.112
432 0 81.3698 19.0488 1550 115.252 589.247 456.015
433 0 84.3298 13.4235 1132 123.436 589.546 458.874
434 0 86.2982 12.3641 1067 127.008 588.893 457.32
435 0 90.3449 15.4962 1400 122.351 588.769 453.599
436 1 47.1072 12.3548 582 124.424 587.823 472.995
437 0 51.3999 13.9689 718 114.894 589.203 472.503
438 0 49.4763 12.3089 609 120.186 588.997 469.046
439 0 53.2141 12.4779 664 123.967 585.932 473.64
440 0 52.1213 14.9075 777 119.867 585.413 475.645
441 0 55.17 13.4494 742 122.62 584.179 474.046
442 0 55.1958 14.1134 779 117.377 586.027 472.869
443 0 58.1177 13.8684 806 117.754 585.53 474.924
444 0 62.7126 14.415 904 114.137 585.545 477.393
445 0 62.135 14.0983 876 118.197 584.194 471.386
446 0 63.2071 15.2198 962 116.33 583.187 469.048
447 0 63.2958 11.0908 702 123.687 583.138 471.365
448 0 65.2906 13.2944 868 122.008 582.665 466.961
449 0 69.3058 13.5487 939 121.801 582.641 465.523
450 0 71.3833 15.1436 1081 118.337 581.951 463.572
451 0 72.3191 13.6064 984 122.501 581.246 458.697
452 0 78.2548 15.6029 1221 117.517 581.138 459.286
453 0 81.2138 16.672 1354 115.679 580.736 458.838
454 0 83.2394 13.0467 1086 125.504 580.52 453.904
455 0 86.2013 15.0926 1301 121.067 579.294 452.471
456 0 91.1936 13.4768 1229 123.666 580.523 450.149
457 1 48.2181 9.7059 468 124.122 578.562 471.088
458 0 50.0446 13.5879 680 115.722 578.825 469.809
459 0 52.1992 13.4868 704 122.733 579.271 465.477
460 0 54.114 13.6564 739 122.421 579.342 465.598
461 0 56.0548 13.1122 735 123.142 580.131 463.356
462 0 57.0631 12.8454 733 123.236 581.172 464.128
463 0 63.0742 13.5872 857 120.495 581.848 462.307
464 0 62.0379 16.4416 1020 117.228 582.972 460.389
465 0 64.1483 14.3418 920 122.05 582.671 458.734
466 0 67.0489 15.0189 1007 120.172 583.066 461.173
467 0 69.2442 14.0373 972 122.031 582.16 458.972
468 0 70.1039 14.8494 1041 119.87 583.796 462.453
469 0 73.0682 12.4678 911 124.083 584.761 460.338
470 0 75.0388 14.5125 1089 121.797 584.988 458.05
471 0 80.3254 15.985 1284 117.718 586.002 459.093
472 0 81.0617 15.6547 1269 119.486 585.852 459.478
473 0 83.1047 14.0185 1165 122.377 585.415 457.539
474 0 89.2767 13.7886 1231 121.172 586.641 461.279
475 0 91.1632 13.8872 1266 122.25 585.697 459.554
476 1 46.0459 10.7067 493 124.475 585.292 482.252
477 0 48.0283 13.5753 652 120.554 585.074 479.658
478 0 51.0782 13.5283 691 119.476 584.47 482.842
479 0 51.0647 13.7277 701 119.548 584.047 483.892
480 0 51.1672 13.0357 667 121.726 582.936 482.723
481 0 55.1556 12.7095 701 123.605 581.897 481.892
482 0 55.1556 12.7276 702 144.808 580.896 481.694
483 0 56.082 14.568 817 118.278 580.261 482.277
484 0 58.0458 14.6953 853 118.58 579.528 479.021
485 0 60.1094 14.4403 868 119.87 577.145 476.794
486 0 63.3179 16.1092 1020 113.926 578.629 480.798
487 0 64.1001 14.7114 943 120.846 577.345 475.298
488 0 66.0741 13.6211 900 126.092 576.824 471.592
489 0 67.1333 13.7041 920 126.298 575.327 473.401
490 0 70.1032 11.64 816 127.419 576.364 472.999
491 0 75.0893 13.717 1030 124.777 575.422 470.833
492 0 77.2165 13.7276 1060 123.617 574.48 467.857
493 0 79.2006 14.7347 1167 121.186 574.105 467.399
494 0 82.168 14.8841 1223 123.249 574.258 464.103
495 0 86.1382 19.9679 1720 111.953 574.376 468.389
496 0 88.1937 13.0735 1153 126.495 573.94 458.02
497 0 92.1443 17.516 1614 116.8 573.135 457.916
498 0 94.2096 14.4677 1363 123.324 573.678 455.999
499 0 95.3304 13.6578 1302 125.858 574.717 451.714
500 0 95.1956 11.303 1076 126.767 574.463 451.314
501 0 95.1946 11.4292 1088 126.006 575.457 452.941
502 1 56.1887 12.7962 719 122.334 575.947 466.499
503 0 56.1028 12.7801 717 118.629 577.131 462.504
504 0 57.1027 16.0063 914 118.516 577.54 464.632
505 0 58.0582 12.1085 703 122.003 578.909 464.683
506 0 59.0503 9.72052 574 124.667 578.756 465.69
507 0 62.1336 13.1169 815 120.682 579.371 461.439
508 0 67.189 12.3979 833 122.474 580.294 461.713
509 0 68.1612 12.6318 861 122.58 581.62 459.454
510 0 72.1428 20.7366 1496 108.34 581.092 459.379
511 0 72.1886 14.1712 1023 121.022 582.848 454.824
512 0 74.1212 13.7882 1022 121.553 583.034 458.635
513 0 77.2152 15.8906 1227 119.093 584.455 453.976
514 0 80.1149 14.0049 1122 122.281 583.91 455.475
515 0 84.1266 13.7531 1157 122.076 584.122 455.457
516 0 83.1665 11.6273 967 124.534 584.127 456.274
517 0 90.3698 14.8833 1345 119.557 585.416 452.404
518 0 88.1885 13.3011 1173 124.221 584.968 452.709
519 0 98.1659 13.4364 1319 121.538 584.239 456.781
520 0 98.1745 13.201 1296 122.387 585.1 454.856
521 0 98.1667 13.202 1296 145.845 586.1 455.06
522 0 104.403 14.0705 1469 120.683 583.613 452.661
523 0 111.181 14.5169 1614 119.012 582.777 453.55
524 0 116.272 15.653 1820 117.442 583.162 451.482
525 1 58.1427 11.9018 692 113.38 581.695 479.803
526 0 59.2569 17.8544 1058 107.746 582.007 477.23
527 0 58.075 12.2772 713 115.47 580.074 478.09
528 0 62.0758 12.7103 789 114.836 578.189 477.774
529 0 66.2524 16.2862 1079 109.082 577.912 473.994
530 0 67.1151 12.7244 854 114.785 577.37 474.748
531 0 68.1899 11.1453 760 117.743 576.56 471.457
532 0 74.3062 15.5976 1159 111.305 575.348 469.318
533 0 74.2331 12.7302 945 117.365 575.886 468.087
534 0 77.2497 11.8188 913 119.59 575.461 465.758
535 0 79.2446 14.1334 1120 116.318 574.435 463.418
536 0 83.2758 15.947 1328 112.239 573.646 462.111
537 0 87.0927 18.5205 1613 108.989 573.37 456.138
538 0 90.1846 19.3492 1745 107.38 573.664 459.03
539 0 90.2284 14.829 1338 115.615 574.889 453.764
540 0 96.2028 15.4569 1487 111.629 573.753 452.634
541 0 95.1504 13.032 1240 115.152 574.844 451.046
542 0 100.204 11.2272 1125 116.334 575.032 446.83
543 0 103.302 11.6261 1201 115.226 575.846 445.444
544 0 110.191 14.5566 1604 109.627 575.345 445.085
545 0 112.374 14.3271 1610 111.733 575.965 433.578
546 1 62.3165 12.1958 760 109.77 575.751 461.399
547 0 63.0403 13.0234 821 111.465 577.206 461.304
548 0 65.1706 12.1834 794 112.375 576.872 458.563
549 0 67.3843 11.5902 781 112.813 578.332 460.9
550 0 71.1346 14.4234 1026 111.651 578.052 457.653
551 0 74.2917 13.272 986 112.673 577.637 455.979
552 0 75.11 14.0993 1059 110.396 578.713 459.078
553 0 77.1721 13.5541 1046 112.455 579.64 455.313
554 0 78.1415 11.556 903 116.604 580.284 452.073
555 0 84.3199 16.1765 1364 108.477 581.603 457.583
556 0 85.148 16.0074 1363 110.423 581.61 450.587
557 0 90.124 16.8546 1519 107.498 583.335 456
558 0 91.4292 11.7359 1073 115.033 583.538 453.794
559 0 93.1124 14.4986 1350 110.741 584.001 454.827
560 0 96.2306 14.8705 1431 111.6 583.973 450.294
561 0 101.351 15.6289 1584 111.244 583.314 446.38
562 0 103.254 13.1424 1357 116.738 583.317 447.031
563 0 109.179 20.8557 2277 104.498 582.169 451.292
564 0 111.247 12.9711 1443 114.994 582.29 453.904
565 1 66.1898 12.4037 821 109.129 581.106 478.52
566 0 63.0347 15.2138 959 105.736 580.811 476.943
567 0 67.2912 12.7654 859 110.845 579.924 475.122
568 0 66.328 13.3729 887 111.815 580.342 470.666
569 0 70.2776 11.4403 804 113.544 579.998 472.612
570 0 71.2993 11.4167 814 114.177 579.004 470.425
571 0 73.2144 12.4976 915 112.526 577.99 471.008
572 0 76.2664 11.9581 912 114.973 578.015 466.467
573 0 82.3973 16.7845 1383 107.017 577.192 465.307
574 0 83.3577 15.0556 1255 111.012 576.861 460.924
575 0 87.2884 12.5446 1095 114.195 575.324 462.196
576 0 87.2884 12.5446 1095 141.488 574.31 462.266
577 0 93.268 13.22 1233 113.316 576.148 461.124
578 0 93.268 13.2736 1238 139.002 578.139 461.186
579 1 53.3675 11.6363 621 111.568 574.847 476.393
580 0 54.4232 14.4975 789 107.847 573.943 473.451
581 0 60.2544 9.8748 595 107.062 573.84 478.84
582 0 58.1344 12.5227 728 107.699 573.952 473.522
583 0 58.1148 18.1193 1053 99.2412 573.916 472.952
584 0 57.0383 12.3426 704 107.696 573.84 472.768
585 0 61.1886 13.6627 836 108.118 574.086 469.684
586 0 65.1779 14.1919 925 109.387 575.066 462.656
587 0 68.1774 16.5451 1128 105.57 576.066 465.446
588 0 70.2162 17.9161 1258 103.718 576.441 464.872
589 0 71.0607 14.185 1008 110.294 575.159 459.599
590 0 74.1943 15.1224 1122 108.432 575.881 459.07
591 0 77.1087 14.5768 1124 108.619 577.33 455.577
592 0 76.2115 12.977 989 114.03 578.179 457.266
593 0 77.2612 11.8041 912 116.451 578.457 458.056
594 0 79.0878 11.8729 939 117.825 579.91 453.51
595 0 85.2098 12.0995 1031 116.297 580.014 453.675
596 0 88.4506 15.0932 1335 110.247 580.342 456.043
597 1 176.37 13.8346 2440 120.032 581.482 410.779
598 1 95.1886 12.9742 1235 114.919 582.224 451.541
599 1 48.4268 11.1509 540 119.007 583.343 469.15
600 0 50.0518 12.547 628 113.678 582.457 467.449
601 0 56.1269 12.2579 688 115.041 583.615 474.387
602 0 53.0794 11.3415 602 119.781 583.367 471.442
603 0 55.1226 12.2454 675 118.428 584.265 470.431
604 0 58.1 13.1498 764 116.458 583.3 468.764
605 0 57.4601 11.1208 639 119.992 583.98 472.757
606 0 62.1916 14.0855 876 114.591 582.847 469.315
607 0 64.1801 13.4154 861 114.584 583.494 473.958
608 0 67.2407 17.9802 1209 105.797 583.007 477.256
609 0 67.2453 12.4618 838 117.865 582.458 470.856
610 0 72.3035 14.4806 1047 112.224 582.844 474.196
611 0 74.1924 14.5972 1083 113.843 582.509 468.235
612 0 79.1858 15.8867 1258 110.389 581.231 469.052
613 0 77.2144 11.358 877 117.653 580.382 470.271
614 0 81.4377 12.8073 1043 116.896 579.398 465.011
615 0 82.2747 10.1246 833 120.789 577.927 465.813
616 0 86.3251 13.0205 1124 117.227 576.182 461.866
617 1 45.1183 13.1432 593 114.659 576.956 483.376
618 0 49.1945 11.1191 547 116.687 576.569 481.907
619 0 48.0604 13.2125 635 113.931 575.813 481.674
620 0 49.1139 12.3794 608 115.291 575.104 480.038
621 0 51.0986 13.6207 696 111.871 574.299 479.516
622 0 51.0953 11.8015 603 113.091 575.194 480.617
623 0 50.1814 10.482 526 115.816 574.705 476.818
624 0 50.1814 10.6015 532 130.972 573.684 476.641
625 0 57.0969 13.7486 785 109.48 574.231 474.994
626 0 59.1063 11.9107 704 112.601 574.331 471.048
627 0 59.08 14.1672 837 110.297 575.024 469.381
628 0 61.0983 14.7958 904 109.789 574.694 468.181
629 0 65.2225 14.4122 940 110.976 575.986 466.564
630 0 64.115 13.7721 883 112.521 575.792 467.183
631 0 67.175 11.1351 748 116.579 576.777 464.34
632 0 72.1274 16.1797 1167 109.278 577.079 460.174
633 0 74.1584 14.9815 1111 112.068 578.698 459.185
634 0 75.1775 11.5194 866 116.212 578.538 461.354
635 0 80.3055 11.6804 938 117.878 579.846 457.941
636 0 82.2502 13.4589 1107 115.834 579.783 449.267
637 0 85.2463 12.4932 1065 115.729 580.013 454.126
638 0 85.1864 14.0868 1200 112.876 579.346 453.653
639 0 91.18 11.9763 1092 115.81 580.372 450.594
640 1 48.0665 10.319 496 119.024 580.115 469.907
641 0 51.0966 13.1711 673 113.529 580.89 472.744
642 0 53.1361 14.9804 796 110.754 581.716 470.255
643 0 54.1566 13.0547 707 114.171 581.559 470.935
644 0 57.2798 15.2061 871 108.751 582.959 472.728
645 0 62.1542 13.8848 863 111.438 583.729 472.35
646 0 61.051 13.8081 843 113.464 582.489 470.152
647 0 62.0744 14.3699 892 111.566 583.426 471.185
648 0 62.0744 14.4504 897 146.167 584.394 471.208
649 0 65.1111 14.6058 951 112.361 581.613 471.307
650 0 67.081 13.9086 933 113.57 581.285 469.193
651 0 73.2122 15.0385 1101 110.037 581.833 471.268
652 0 72.0417 14.2834 1029 113.052 582.281 471.055
653 0 77.0536 13.0039 1002 113.901 581.303 471.385
654 0 77.107 14.7846 1140 113.196 580.997 466.832
655 0 77.107 14.7068 1134 144.1 579.975 466.809
656 0 85.286 14.8442 1266 112.665 580.167 468.493
657 0 86.1039 15.551 1339 113.871 578.418 462.829
658 1 45.0352 11.5687 521 114.155 578.474 486.835
659 0 45.2214 17.2927 782 105.46 577.364 486.803
660 0 45.0537 11.4752 517 117.716 577.033 484.52
661 0 46.0826 12.0002 553 121.443 576.711 482.275
662 0 49.2245 11.925 587 120.76 576.451 482.302
663 0 51.1577 12.4321 636 119.071 575.159 483.017
664 0 53.0322 14.5195 770 117.623 575.482 480.253
665 0 56.2576 15.9978 900 112.904 574.834 478.767
666 0 57.0527 15.7398 898 115.459 574.811 475.431
667 0 57.0821 14.0149 800 119.566 574.571 476.74
668 0 60.0856 17.4418 1048 113.73 574.695 474.299
669 0 60.0133 14.9967 900 120.063 574.34 471.704
670 0 62.131 14.6948 913 120.154 574.694 469.805
671 0 65.0557 14.3569 934 121.743 575.036 466.392
672 0 67.1557 13.7888 926 121.744 577.186 466.202
673 0 71.1832 16.8298 1198 117.845 575.941 461.459
674 0 73.1986 18.0195 1319 116.07 577.174 460.743
675 0 77.2244 17.4815 1350 116.499 576.734 460.703
676 0 78.2323 17.7932 1392 118.387 577.388 455.08
677 0 78.2959 11.8142 925 130.705 578.021 453.72
678 1 40.0818 12.0254 482 126.06 578.384 470.5
679 0 40.0488 12.1851 488 127.57 579.922 471.994
680 0 44.1305 14.4118 636 121.819 581.206 473.524
681 0 43.3789 14.2235 617 121.87 581.635 472.125
682 0 45.0529 11.4754 517 126.667 581.282 473.959
683 0 46.0824 11.4577 528 126.837 583.295 473.119
684 0 50.1488 13.779 691 124.531 582.567 468.533
685 0 52.1431 15.0164 783 122.672 584.091 471.47
686 0 50.1947 11.2761 566 132.426 583.774 471.005
687 0 53.1332 13.6073 723 122.441 584.292 474.23
688 0 54.1386 12.6712 686 124.86 584.72 473.287
689 0 59.148 12.8829 762 122.142 584.209 475.623
690 0 59.0544 12.8018 756 123.347 583.872 473.436
691 0 62.1686 12.3213 766 122.881 584.802 475.251
692 0 65.0686 12.4638 811 123.492 584.62 471.751
693 0 67.117 13.7819 925 120.888 583.871 473.411
694 0 66.1173 13.0828 865 137.099 583.941 472.659
695 0 72.1493 13.8186 997 121.188 582.34 471.608
696 0 74.0712 12.272 909 124.888 582.806 468.197
697 0 76.1594 15.0868 1149 119.872 582.389 469.217
698 0 79.1098 11.2249 888 126.599 581.949 470.122
699 0 83.2487 14.5588 1212 121.106 580.693 466.532
700 1 47.0951 13.3135 627 120.032 579.767 482.743
701 0 47.2789 15.3768 727 118.389 578.582 480.534
702 0 51.1476 15.1522 775 118.462 578.16 481.503
703 0 50.3507 14.8955 750 118.989 577.013 483.859
704 0 53.0839 16.7471 889 114.749 576.63 483.85
705 0 54.0773 14.7382 797 118.832 576.834 479.652
706 0 54.0843 14.6993 795 116.571 576.317 481.091
707 0 58.0829 14.2383 827 119.173 575.959 478.103
708 0 59.1594 17.6303 1043 115.401 576.574 474.632
709 0 61.3326 14.2502 874 123.176 576.505 470.709
710 0 62.2501 14.2169 885 124.129 575.396 470.837
711 0 64.2104 13.7517 883 125.574 576.054 466.633
712 0 67.4727 15.0283 1014 121.913 574.88 466.572
713 0 67.3096 14.619 984 124.502 576.161 464.61
714 0 71.2107 14.9837 1067 120.279 576.425 467.604
715 0 74.3105 13.2821 987 125.296 577.192 460.935
716 0 76.3573 16.2002 1237 119.991 576.8 461.454
717 0 79.3123 13.9953 1110 126.109 577.331 456.962
718 0 82.3136 13.8009 1136 125.926 577.003 452.938
719 0 85.1976 13.0872 1115 124.804 578.065 452.351
720 0 88.361 15.4933 1369 120.576 577.983 451.591
721 0 91.3049 13.329 1217 124.412 578.898 448.058
722 0 91.3049 13.2304 1208 152.508 579.868 448.04
723 0 91.3095 14.4673 1321 147.181 580.796 449.374
724 0 91.3436 14.44 1319 146.887 581.788 449.436
725 1 55.3448 15.8461 877 118.482 582.361 464.406
726 0 57.212 14.892 852 116.758 582.845 473.769
727 0 59.69 13.1178 783 122.448 583.032 466.284
728 0 59.074 12.916 763 120.443 583.834 469.682
729 0 60.232 10.9576 660 124.883 583.644 467.582
730 0 63.1641 15.9901 1010 118.565 584.371 466.033
731 0 63.1312 13.1947 833 124.014 584.507 463.185
732 0 71.2747 13.946 994 120.607 584.993 465.72
733 0 69.2407 12.0016 831 124.356 584.128 466.28
734 0 72.2361 13.6912 989 121.617 583.783 465.363
735 0 73.1968 12.8831 943 123.088 583.751 465.777
736 0 78.4327 12.9028 1012 121.536 582.8 462.734
737 0 82.227 10.5805 870 123.694 583.616 465.748
738 0 84.1559 14.3781 1210 119.315 582.341 463.096
739 0 87.318 13.7772 1203 120.529 583.341 460.517
740 0 91.2089 14.253 1300 119.245 581.835 460.501
741 0 94.5163 15.7539 1489 116.899 582.285 458.997
742 0 97.4252 11.1162 1083 125.167 580.728 455.841
743 0 101.395 15.8686 1609 116.237 579.6 452.659
744 1 50.3294 10.5704 532 118.919 579.778 479.054
745 0 52.154 10.7183 559 115.363 579.093 477.259
746 0 55.2418 10.4088 575 116.096 579.024 476.41
747 0 56.1223 11.7778 661 114.563 578.189 474.298
748 0 58.088 11.517 669 116.275 577.203 474.471
749 0 62.2603 13.026 811 112.82 578.16 472.036
750 0 63.1886 12.6922 802 112.939 577.704 473.82
751 0 65.173 12.4898 814 114.063 577.362 468.711
752 0 70.1598 12.3432 866 115.137 577.962 465.402
753 0 70.2846 12.5632 883 116.236 576.762 462.009
754 0 72.221 11.2987 816 118.081 576.138 462.366
755 0 75.1844 12.7021 955 116.911 576.682 461.115
756 0 75.1844 12.6888 954 131.41 576.705 461.248
757 0 82.2285 12.7936 1052 120.334 577.84 456.147
758 0 83.4024 14.9037 1243 119.043 579.246 445.014
759 0 83.3824 13.0963 1092 125.309 578.77 446.315
760 0 91.3468 16.5851 1515 117.853 579.848 446.94
761 0 97.6321 13.8479 1352 121.005 579.875 445.768
762 1 49.6137 12.7787 634 119.336 580.856 464.836
763 0 53.5035 15.2887 818 112.727 580.337 467.191
764 0 54.5421 14.5942 796 116.942 581.902 461.153
765 0 56.4685 12.414 701 120.234 582.274 463.518
766 0 55.3792 12.4054 687 123.08 582.704 464.051
767 0 57.2885 12.0618 691 123.033 583.818 464.876
768 0 59.2928 13.5092 801 122.161 584.481 458.821
769 0 61.4688 13.5353 832 120.317 585.206 463.07
770 0 64.6124 15.4614 999 118.618 585.135 457.295
771 0 66.4254 14.9039 990 119.282 585.335 456.68
772 0 69.2455 13.0694 905 118.253 585.175 464.023
773 0 71.3586 11.4492 817 122.743 585.066 457.346
774 0 74.4625 15.2291 1134 115.722 586.032 460.691
775 0 75.522 11.308 854 121.475 586.448 463.532
776 0 80.3406 16.567 1331 114.659 586.582 460.678
777 0 81.6897 14.2123 1161 118.189 585.791 460.099
778 0 81.6897 14.1389 1155 136.546 585.797 460.104
779 0 88.3514 15.4949 1369 117.708 584.928 455.606
780 0 91.8693 15.5003 1424 117.405 584.994 458.626
781 0 92.3292 14.1992 1311 120.766 583.525 457.269
782 1 51.3436 11.3354 582 121.266 584.003 476.227
783 0 52.1574 10.6409 555 121.865 584.804 483.189
784 0 55.1223 13.5336 746 118.142 582.538 480.908
785 0 55.2217 13.4911 745 122.8 581.954 477.608
786 0 57.1951 13.3053 761 122.442 581.518 479.922
787 0 57.1288 13.0757 747 122.861 580.308 478.838
788 0 60.1132 16.9014 1016 117.604 580.417 477.696
789 0 62.0559 12.3276 765 125.337 578.874 472.627
790 0 68.0749 13.2795 904 121.951 579.956 474.951
791 0 68.1047 14.7861 1007 121.773 578.56 467.873
792 0 70.0608 15.929 1116 118.857 579.642 467.195
793 0 71.1317 11.7388 835 129.269 577.832 463.376
794 0 75.1147 14.9105 1120 122.369 577.421 462.932
795 0 76.0799 13.8933 1057 124.22 577.739 458.368
796 0 80.0739 13.3627 1070 123.526 577.814 457.827
797 0 84.2447 18.375 1548 114.522 577.513 457.495
798 0 85.3619 12.6052 1076 126.125 576.445 450.812
799 0 90.3743 13.4109 1212 123.829 575.696 447.287
800 0 94.2163 15.3477 1446 120.469 577.367 448.337
801 1 49.0861 11.9178 585 117.05 576.761 468.913
802 0 50.0764 10.5639 529 122.561 577.418 464.435
803 0 55.2015 12.717 702 117.699 580.164 469.201
804 0 59.102 15.0418 889 115.87 580.632 464.175
805 0 60.2248 14.5289 875 117.752 580.329 462.944
806 0 60.0858 13.0979 787 119.376 579.421 463.036
807 0 60.1076 14.5406 874 119.474 580.708 460.181
808 0 63.0942 15.6116 985 115.918 580.547 461.229
809 0 65.1425 15.5966 1016 116.633 581.326 459.866
810 0 66.0378 10.9937 726 124.49 581.978 458.543
811 0 69.0186 15.7059 1084 115.87 583.297 458.496
812 0 71.0592 13.3128 946 120.809 583.424 454.516
813 0 76.3379 16.0733 1227 113.293 583.567 459.46
814 0 75.1096 12.9943 976 119.441 583.618 458.963
815 0 80.199 16.9204 1357 112.672 584.307 456.852
816 0 79.2273 11.7636 932 123.143 583.505 453.903
817 0 83.1445 13.5788 1129 118.651 584.267 456.182
818 0 91.1264 10.7872 983 120.167 584.415 455.758
819 0 93.1846 13.6289 1270 116.446 584.81 453.529
820 1 46.1145 10.539 486 116.84 584.51 478.333
821 0 48.0192 15.7437 756 107.948 584.251 474.939
822 0 48.2134 10.5572 509 114.214 586.169 477.868
823 0 52.2987 11.6638 610 113.125 585.993 473.041
824 0 52.1365 12.4481 649 113.655 584.838 472.729
825 0 56.179 13.4392 755 110.805 584.328 475.29
826 0 52.1417 11.4688 598 115.833 583.652 475.639
827 0 54.1208 9.05382 490 118.878 583.818 476.58
828 0 58.1846 9.83077 572 116.175 583.21 476.72
829 0 60.1525 10.756 647 116.238 582.235 471.462
830 0 62.1176 15.1487 941 109.45 580.821 472.008
831 0 65.1206 9.90471 645 117.752 580.685 471.149
832 0 68.1677 13.4375 916 111.095 579.706 471.352
833 0 71.146 12.8328 913 111.627 578.446 466.801
834 0 72.2794 14.1672 1024 110.354 578.904 466.397
835 0 76.0874 14.8908 1133 109.934 579.178 465.717
836 0 76.119 10.72 816 117.109 579.672 465.359
837 0 79.1549 12.6461 1001 115.295 579.855 460.367
838 0 82.1696 17.5491 1442 107.567 579.205 458.532
839 0 84.2808 11.5685 975 115.191 579.519 460.694
840 0 89.2509 14.2296 1270 111.31 579.031 457.745
841 0 91.3093 12.9231 1180 113.327 578.917 453.432
842 0 93.1822 12.1804 1135 116.274 578.684 452.359
843 0 93.2052 12.6817 1182 116.596 579.372 445.873
844 0 99.2527 12.1609 1207 115.523 579.003 446.749
845 1 51.0583 15.0416 768 107.352 578.928 467.096
846 0 57.0541 13.5485 773 108.348 579.082 465.532
847 0 57.1707 15.0252 859 107.616 579.636 463.416
848 0 57.1873 12.223 699 113.021 580.844 455.077
849 0 60.2963 12.422 749 111.916 581.315 463.968
850 0 62.0951 12.6258 784 115.223 582.592 462.135
851 0 61.2729 14.362 880 114.398 583.207 458.61
852 0 65.1003 13.2718 864 114.535 583.038 460.916
853 0 69.1183 12.3846 856 116.381 584.186 457.571
854 0 70.0833 11.9144 835 116.983 583.907 458.478
855 0 71.1471 13.7743 980 113.74 585.176 455.046
856 0 74.4049 11.7197 872 116.714 585.759 458.151
857 0 79.175 12.946 1025 114.683 586.754 455.192
858 0 84.2024 15.154 1276 108.439 585.306 460.397
859 0 83.1755 12.167 1012 116.148 586.445 456.787
860 0 90.2013 10.5874 955 117.105 586.063 457.629
861 0 90.4093 14.0804 1273 112.76 586.477 454.148
862 0 89.3859 13.4361 1201 116.409 585.68 449.081
863 1 47.0779 10.4932 494 113.753 586.654 478.468
864 0 53.4407 14.1091 754 107.988 585.66 474.865
865 0 52.1223 13.5834 708 109.346 586.181 469.045
866 0 54.2786 16.1574 877 110.143 584.933 471.213
867 0 52.0992 14.0117 730 112.563 584.394 475.227
868 0 53.0561 12.5527 666 114.871 582.144 474.652
869 0 54.0561 11.7656 636 116.101 583.497 478.214
870 0 62.1764 15.9707 993 108.362 583.687 473.497
871 0 62.1065 13.2514 823 112.863 583.632 471.751
872 0 62.1065 13.2997 826 133.197 583.615 471.707
873 0 64.1146 14.0062 898 113.294 580.739 470.641
874 0 67.1328 12.6615 850 115.159 580.661 471.351
875 0 69.1643 13.8366 957 114.952 579.997 464.448
876 0 69.1643 13.7643 952 132.847 578.991 464.459
877 0 76.167 15.4791 1179 113.411 578.945 462.153
878 0 80.2563 14.0674 1129 117.95 577.408 459.424
879 0 81.1064 14.7337 1195 116.975 578.583 459.521
880 0 84.2933 14.8885 1255 116.026 578.485 453.871
881 0 83.2005 12.6922 1056 121.521 578.312 450.265
882 0 88.3461 15.0997 1334 117.118 578.114 449.872
883 0 93.3226 13.5873 1268 119.897 578.32 446.611
884 1 48.0898 11.7696 566 119.574 579.235 469.726
885 0 49.2146 9.20458 453 126.362 579.448 465.316
886 0 51.1337 13.5918 695 118.114 578.919 467.269
887 0 53.0298 12.9361 686 119.673 579.117 467.335
888 0 55.1357 11.517 635 121.764 579.937 466.447
889 0 56.289 11.743 661 123.26 579.782 462.88
890 0 58.1782 12.8571 748 121.997 581.128 461.836
891 0 61.0541 15.4453 943 114.248 581.275 462.425
892 0 59.0766 11.1381 658 122.277 582.213 460.919
893 0 65.1169 13.5449 882 118.766 583.061 459.239
894 0 65.1485 13.8299 901 118.43 582.653 459.725
895 0 67.1221 13.2892 892 119.391 583.587 460.346
896 0 70.2367 14.2803 1003 118.47 584.931 458.344
897 0 72.2033 12.1878 880 124.172 585.861 450.748
898 0 78.2605 18.6173 1457 111.638 584.835 451.415
899 0 81.3753 15.5821 1268 115.832 585.488 452.327
900 0 83.0858 13.3115 1106 120.892 585.953 451.995
901 0 84.3003 13.0842 1103 120.643 586.729 457.669
902 0 90.1451 15.3087 1380 116.686 586.87 452.397
903 0 91.2248 13.7024 1250 120.979 586.583 450.265
904 0 91.2354 11.9471 1090 125.819 586.246 447.844
905 0 95.2573 15.9778 1522 117.295 587.376 448.414
906 1 53.3008 13.6208 726 112.497 588.202 473.405
907 0 51.3858 12.1045 622 119.695 587.079 467.867
908 0 56.2499 13.4222 755 119.817 586.37 474.905
909 0 58.355 12.5953 735 119.484 585.886 477.033
910 0 56.2055 9.91007 557 127.39 584.612 473.176
911 0 61.2496 14.8572 910 116.115 584.258 475.197
912 0 64.636 13.9551 902 116.989 583.9 471.374
913 0 68.3036 14.948 1021 117.17 583.42 467.452
914 0 67.3326 13.0249 877 120.507 582.938 469.414
915 0 72.3051 14.0654 1017 118.171 582.417 466.292
916 0 75.4522 15.5595 1174 114.798 581.826 467.386
917 0 74.1708 13.806 1024 119.654 580.782 463.541
918 0 78.2429 14.2761 1117 118.335 580.572 463.03
919 0 81.4603 13.97 1138 119.091 579.421 458.163
920 0 81.3489 13.0057 1058 121.751 579.169 455.849
921 0 85.4907 13.8378 1183 118.858 578.921 456.095
922 0 88.3965 13.3942 1184 120.429 578.787 451.176
923 0 90.3041 11.8931 1074 122.359 578.449 449.019
924 1 45.0337 12.4795 562 110.98 579.246 478.036
925 0 48.149 12.8352 618 109.545 579.832 474.835
926 0 49.1404 10.7244 527 114.326 580.057 473.313
927 0 52.0224 11.0337 574 115.962 577.254 472.014
928 0 53.1052 11.0535 587 115.136 577.888 469.509
929 0 53.0755 13.4148 712 114.052 577.947 466.959
930 0 56.1617 16.4525 924 108.263 577.994 464.371
931 0 55.0908 13.9951 771 113.824 578.542 460.235
932 0 56.2499 13.4578 757 115.518 580.272 458.756
933 0 60.089 14.0625 845 112.548 579.982 460.902
934 0 60.0856 12.3823 744 117.19 580.765 457.667
935 0 64.0799 13.9826 896 114.523 581.547 457.262
936 0 67.1914 16.0884 1081 109.861 581.638 456.444
937 0 66.0611 13.321 880 116.049 582.31 457.352
938 0 67.1012 14.888 999 115.521 582.438 453.649
939 0 71.0861 12.6185 897 118.337 583.543 449.682
940 0 73.1573 12.3023 900 118.952 583.838 453.532
941 0 75.3011 12.9613 976 118.297 584.281 448.989
942 0 80.3332 14.0042 1125 116.289 584.375 450.541
943 0 79.3305 13.6644 1084 118.428 585.408 449.445
944 1 43.1855 11.9948 518 114.494 586.596 470.693
945 0 42.1537 10.011 422 119.801 585.208 469.13
946 0 45.1343 9.72652 439 117.31 586.232 474.513
947 0 46.1485 10.6829 493 113.422 585.57 473.939
948 0 49.1534 11.9219 586 115.28 585.616 476.118
949 0 48.043 12.0101 577 113.161 585.674 475.553
950 0 52.0862 16.9911 885 104.054 585.765 477.741
951 0 52.0449 12.5276 652 112.463 584.577 476.152
952 0 54.0942 11.2766 610 114.825 584.746 474.07
953 0 50.0889 8.52485 427 120.991 584.682 476.424
954 0 57.1125 16.4412 939 106.689 584.425 477.988
955 0 59.0857 11.4918 679 115.51 584.099 477.395
956 0 61.1176 16.3783 1001 107.976 582.567 471.076
957 0 64.1445 13.2046 847 116.418 582.856 470.459
958 0 66.1454 15.5718 1030 113.005 581.516 469.243
959 0 65.1409 11.1297 725 122.214 580.714 471.574
960 0 68.0704 13.3244 907 118.243 580.512 471.624
961 0 71.0708 14.7318 1047 115.855 579.614 470.804
962 0 75.1188 11.8878 893 121.586 580.204 467.554
963 0 73.0905 12.6692 926 122.676 577.962 464.167
964 0 72.0485 11.7421 846 125.74 578.874 464.168
965 0 79.3484 14.178 1125 119.595 577.482 461.684
966 0 78.0627 13.2201 1032 123.319 577.342 457.28
967 0 83.2925 13.2185 1101 122.576 577.727 459.59
968 0 84.0757 14.035 1180 121.494 577.22 458.558
969 0 86.1636 13.8574 1194 121.904 577.059 457.946
970 0 91.1058 14.5545 1326 119.321 577.008 454.589
971 1 47.0598 12.0273 566 117.286 577.417 472.793
972 0 48.1391 11.1967 539 116.896 578.315 471.065
973 0 51.0702 12.8646 657 113.113 578.738 470.534
974 0 51.1161 11.9336 610 122.066 578.551 469.277
975 0 52.051 8.14586 424 126.325 578.028 470.191
976 0 55.078 13.0179 717 118.936 579.386 468.046
977 0 57.0436 13.3231 760 119.901 580.629 464.078
978 0 56.0577 13.4504 754 119.397 580.92 461.354
979 0 59.0475 14.4121 851 117.859 581.316 461.954
980 0 60.1088 13.9081 836 115.212 582.255 464.191
981 0 61.0605 13.9697 853 114.846 582.155 460.164
982 0 66.0609 14.6077 965 111.016 582.61 464.029
983 0 66.2069 12.0078 795 121.682 583.147 461.345
984 0 69.0814 14.4467 998 118.073 583.133 456.034
985 0 77.1985 14.9744 1156 114.796 584.878 457.787
986 0 74.1972 11.8333 878 122.188 585.089 455.337
987 0 77.0559 14.4441 1113 118.584 584.562 455.439
988 1 39.1747 12.3804 485 117.365 585.474 473.907
989 0 41.0831 11.7567 483 123.215 585.752 472.414
990 0 42.2125 11.2052 473 124.323 585.689 471.721
991 0 44.1 14.966 660 117.986 584.806 474.658
992 0 45.1946 10.8863 492 124.339 585.254 475.799
993 0 44.0861 11.5002 507 123.146 585.008 479.178
994 0 47.0815 11.4695 540 125.128 586.048 478.874
995 0 50.1754 12.7951 642 121.324 585.833 477.986
996 0 50.1138 13.7487 689 121.716 586.119 477.38
997 0 50.0961 12.2564 614 123.334 584.86 477.974
998 0 51.093 12.213 624 121.216 584.125 478.345
999 0 52.1056 12.9161 673 122.41 584.101 476.608
1000 0 57.1381 13.8787 793 122.957 582.343 473.474
1001 0 60.2993 16.2191 978 118.388 582.943 472.551
1002 0 61.2193 14.7339 902 120.724 581.849 472.925
1003 0 61.0972 12.4392 760 124.737 581.305 472.075
1004 0 65.2813 14.9047 973 118.248 580.814 474.445
1005 0 65.1851 14.3284 934 123.755 580.608 466.532
1006 0 66.1606 18.7876 1243 115.738 580.207 468.705
1007 0 67.2264 14.1462 951 126.534 580.034 466.257
1008 0 70.1433 15.2117 1067 123.869 579.158 466.94
1009 0 71.11 15.019 1068 125.515 579.048 462.624
1010 0 72.214 13.7923 996 128.009 578.882 462.554
1011 0 75.2872 17.4665 1315 121.716 579.904 457.308
1012 0 78.1557 15.2516 1192 126.883 580.101 459.419
1013 0 79.2299 15.1963 1204 126.963 579.079 458.565
1014 0 83.1736 16.4475 1368 126.029 579.727 451.411
1015 1 45.1845 13.5666 613 120.013 580.467 473.52
1016 0 45.2376 13.1086 593 126.897 581.875 470.545
1017 0 43.1811 10.7918 466 133.687 580.788 470.689
1018 0 47.1748 12.7186 600 127.392 581.228 469.132
1019 0 48.2344 15.7771 761 121.974 581.915 466.915
1020 0 51.1715 14.2267 728 127.757 581.945 463.018
1021 0 50.1616 13.6559 685 127.845 583.044 466.362
1022 0 50.2659 11.1805 562 136.048 583.641 463.927
1023 0 53.0319 14.463 767 129.924 582.502 462.991
1024 0 56.0946 12.782 717 130.124 582.502 463.285
1025 0 60.1842 15.0206 904 124.345 584.484 464.028
1026 0 60.1227 12.7406 766 130.351 584.458 461.862
1027 0 62.1773 13.1881 820 128.015 585.629 465.56
1028 0 65.1715 13.5182 881 128.516 586.073 461.199
1029 0 68.2929 13.7935 942 128.49 586.766 456.299
1030 0 69.369 15.6266 1084 124.908 587.116 459.229
1031 0 69.1462 12.4953 864 135.41 586.814 454.877
1032 0 75.5103 18.2227 1376 121.15 586.837 460.501
1033 0 76.2626 14.6599 1118 131.279 586.844 452.572
1034 0 77.2334 12.5982 973 133.205 586.642 456.213
1035 0 77.4608 12.4966 968 135.772 587.22 454.924
1036 1 43.2482 10.1738 440 131.925 585.575 473.352
1037 0 48.3737 12.1554 588 125.247 586.878 476.888
1038 0 45.1946 10.7093 484 130.686 586.595 478.227
1039 0 49.4045 12.428 614 126.244 586.088 475.914
1040 0 51.1258 14.3372 733 127.536 584.819 477.513
1041 0 52.1375 12.1026 631 131.122 584.119 478.241
1042 0 54.0848 11.9812 648 131.165 582.856 480.432
1043 0 55.0736 14.6531 807 126.862 582.354 477.834
1044 0 57.1131 12.7641 729 129.357 580.018 478.624
1045 0 58.0566 12.0572 700 132.844 580.837 476.96
1046 0 62.056 13.1494 816 127.293 580.869 475.315
1047 0 62.0803 15.5605 966 123.864 579.93 470.794
1048 0 65.1599 13.8736 904 126.542 578.191 469.185
1049 0 66.1432 11.2483 744 133.905 578.68 468.828
1050 0 69.2106 15.1566 1049 125.539 578.152 467.745
1051 0 71.4142 16.1873 1156 124.111 579.247 466.554
1052 0 72.3124 14.6448 1059 128.926 578.698 460.819
1053 0 77.0788 13.8819 1070 124.94 578.439 466.678
1054 0 76.2467 11.371 867 131.271 579.126 461.03
1055 0 78.0653 12.4639 973 130.892 578.78 456.799
1056 0 81.2452 14.9547 1215 125.439 578.388 457.987
1057 0 83.1359 13.2073 1098 130.883 579.051 454.793
1058 0 87.2655 13.6136 1188 130.079 578.931 452.997
1059 1 45.0914 9.38095 423 134.714 579.345 473.745
1060 0 49.0964 13.5244 664 123.474 580.184 471.831
1061 0 48.0452 10.5942 509 130.697 579.448 472.837
1062 0 49.0507 10.3362 507 133.87 578.568 469.525
1063 0 51.1024 13.5414 692 126.357 579.803 468.723
1064 0 52.0892 11.8259 616 129.987 581.12 469.448
1065 0 52.143 10.6438 555 133.454 581.89 465.213
1066 0 56.0917 11.1781 627 130.998 581.825 467.461
1067 0 58.1626 14.4939 843 123.17 582.304 467.397
1068 0 59.0893 11.068 654 130.742 583.664 465.24
1069 0 63.0849 14.2189 897 124.074 583.85 464.191
1070 0 66.0624 13.9868 924 123.053 584.597 465.122
1071 0 66.1346 11.4161 755 130.107 584.746 462.783
1072 0 70.0884 13.0407 914 126.171 584.812 463.468
1073 0 71.2479 12.1969 869 128.713 586.665 461.49
1074 0 74.1412 12.3278 914 127.382 587.861 466.664
1075 0 76.152 12.5407 955 136.98 589.887 465.854
1076 0 80.1705 14.095 1130 123.582 586.427 460.22
1077 0 80.2165 13.4636 1080 125.31 586.67 461.47
1078 0 84.2813 12.9566 1092 127.081 585.321 458.945
1079 0 88.3233 11.9561 1056 127.558 585.937 458.878
1080 0 89.1206 12.2531 1092 128.424 584.994 457.433
1081 1 50.0933 12.337 618 124.257 585.286 479.725
1082 0 49.0997 9.32796 458 133.921 584.666 474.48
1083 0 55.0953 14.7925 815 120.061 584.626 476.479
1084 0 55.135 11.9525 659 123.498 583.873 478.76
1085 0 53.1327 11.3866 605 128.23 583.924 476.94
1086 0 54.1808 10.9264 592 129.922 583.699 477.265
1087 0 54.1464 11.1365 603 120.506 583.698 477.204
1088 0 62.0744 12.34 766 125.584 580.494 474.159
1089 0 68.1231 12.8591 876 124.263 580.023 471.814
1090 0 66.0578 11.3991 753 126.825 580.092 474.074
1091 0 72.2157 12.8642 929 124.646 579.286 467.698
1092 0 72.1701 13.676 987 123.434 578.923 466.607
1093 0 74.1164 12.278 910 125.962 578.623 463.192
1094 0 77.178 11.9853 925 126.245 577.83 465.225
1095 0 80.1287 15.575 1248 119.502 578.251 464.078
1096 0 82.1477 13.9383 1145 122.272 577.478 462.396
1097 0 84.2522 13.5189 1139 122.452 578.084 463.457
1098 0 84.2522 13.5308 1140 138.104 579.088 463.424
1099 0 90.2548 14.9576 1350 119.727 578.182 453.69
1100 0 94.1476 12.884 1213 123.749 578.078 453.745
1101 0 95.2592 12.4502 1186 125.321 578.236 450.928
1102 0 98.1477 13.9484 1369 121.804 578.563 447.603
1103 0 99.1856 8.38831 832 130.291 579.214 453.56
1104 1 53.2221 9.82674 523 129.618 580.115 467.14
1105 0 56.1252 11.4743 644 125.949 578.284 467.45
1106 0 60.1036 12.6448 760 122.578 580.95 465.145
1107 0 62.0938 11.8852 738 124.039 580.89 465.738
1108 0 64.1424 13.5168 867 121.339 582.258 462.875
1109 0 66.0422 12.916 853 122.61 582.261 459.523
1110 0 67.0717 14.2534 956 119.661 583.613 454.847
1111 0 72.1033 14.7289 1062 115.202 584.38 463.409
1112 0 74.162 16.2347 1204 113.493 585.011 458.779
1113 0 77.1061 15.6667 1208 115.401 584.945 457.535
1114 0 78.055 14.9894 1170 117.758 584.519 457.088
1115 0 83.1104 15.8464 1317 115.06 585.311 456.588
1116 0 83.15 12.4354 1034 122.423 585.869 452.807
1117 0 86.0716 12.234 1053 122.577 585.488 453.167
1118 0 87.3521 12.1462 1061 123.701 586.236 450.927
1119 0 94.2624 13.8019 1301 120.075 585.739 448.876
1120 1 181.539 12.664 2299 122.414 585.402 410.539
1121 1 99.3155 13.7642 1367 121.631 585.655 449.5
1122 0 101.171 13.8873 1405 122.682 585.526 450.111
1123 0 107.356 13.5437 1454 122.675 584.962 449.184
1124 1 57.0427 10.7989 616 120.657 584.851 476.141
1125 0 59.0626 11.1238 657 118.98 584.321 475.852
1126 0 59.0603 11.666 689 117.435 582.123 471.686
1127 0 62.045 13.055 810 120.931 581.891 473.28
1128 0 64.1526 11.8312 759 123.142 580.499 470.535
1129 0 65.1831 14.8505 968 118 580.363 469.288
1130 0 68.0995 13.1572 896 120.384 579.418 472.16
1131 0 71.053 13.3984 952 120.529 579.097 471.941
1132 0 71.2065 13.4398 957 121.414 577.246 469.022
1133 0 74.1572 13.5118 1002 120.006 577.098 472.534
1134 0 74.049 12.1811 902 125.224 575.732 466.109
1135 0 77.1012 13.5925 1048 124.003 577.397 465.435
1136 0 81.1008 14.6608 1189 121.886 576.392 465.334
1137 0 82.2172 12.4548 1024 125.801 576.108 459.345
1138 0 87.4431 14.0892 1232 120.956 574.815 462.658
1139 0 86.1932 12.2748 1058 126.811 575.588 458.473
1140 0 90.2687 13.77 1243 124.488 575.163 455.053
1141 0 93.4016 17.2053 1607 119.744 575.011 452.788
1142 0 97.2746 15.7081 1528 122.28 574.158 449.581
1143 0 95.273 13.666 1302 148.068 573.051 452.068
1144 1 51.2008 10.8397 555 124.73 574.191 473.897
1145 0 53.2448 14.2361 758 117.902 576.026 472.066
1146 0 54.3969 13.4383 731 121.475 576.451 466.84
1147 0 59.813 12.4722 746 121.937 576.705 464.53
1148 0 56.2436 12.3214 693 125.615 577.472 463.297
1149 0 57.3808 16.2424 932 119.439 578.108 462.43
1150 0 59.5978 13.9099 829 123.581 577.825 463.056
1151 0 61.2559 14.4313 884 124.009 578.904 460.197
1152 0 65.3459 13.9412 911 122.92 580.353 465.081
1153 0 66.4319 14.0294 932 125.086 581.237 463.966
1154 0 67.1193 13.2153 887 126.958 583.026 462.691
1155 0 70.2178 14.3411 1007 125.082 582.554 459.595
1156 0 71.4447 13.199 943 125.907 582.859 463.466
1157 0 74.1133 13.4659 998 126.093 583.879 459.855
1158 0 77.2773 14.4803 1119 124.388 583.332 455.134
1159 0 79.308 13.6808 1085 126.033 585.064 454.579
1160 0 83.262 14.2682 1188 124.801 584.414 453.08
1161 0 83.209 12.4265 1034 128.616 586.455 458.393
1162 0 83.209 12.4386 1035 150.982 588.436 458.422
1163 0 87.132 12.5098 1090 129.089 586.965 453.656
1164 0 92.1416 13.8048 1272 126.119 586.366 453.934
1165 0 95.1292 16.1675 1538 121.167 586.895 454.703
1166 1 52.0482 11.1627 581 124.398 586.341 480.267
1167 0 52.0623 12.5427 653 123.196 585.737 476.795
1168 0 53.1997 11.4474 609 126.445 583.962 477.565
1169 0 55.2222 11.1006 613 127.235 583.71 481.364
1170 0 58.198 12.1138 705 123.933 583.393 477.76
1171 0 60.1911 11.2475 677 126.171 583.038 480.12
1172 0 63.138 15.4424 975 117.978 582.184 477.053
1173 0 64.2495 12.2024 784 124.537 581.779 474.107
1174 0 67.3873 16.5165 1113 116.834 580.968 472.072
1175 0 68.3297 11.8104 807 125.745 579.233 471.312
1176 0 69.3643 13.494 936 122.073 579.7 474.748
1177 0 72.199 13.2135 954 122.2 579.039 473.429
1178 0 74.464 13.6173 1014 122.869 578.339 467.123
1179 0 77.2733 12.0352 930 125.113 577.705 468.569
1180 0 78.3491 13.7972 1081 123.012 577.556 466.266
1181 0 81.3402 14.9864 1219 120.155 577.014 466.303
1182 0 83.5112 13.6628 1141 122.984 576.209 464.449
1183 0 86.3152 15.3623 1326 120.017 576.704 461.824
1184 0 88.2188 14.26 1258 124.11 577.087 455.004
1185 0 90.2724 13.4371 1213 124.73 576.983 457.194
1186 0 92.195 12.6037 1162 127.417 576.552 444.383
1187 0 92.1961 12.2565 1130 140.378 576.531 443.713
1188 0 98.4425 13.3174 1311 125.991 577.486 449.41
1189 0 100.277 12.3359 1237 127.104 576.765 444.791
1190 0 105.247 13.682 1440 123.794 577.228 445.888
1191 0 110.226 15.6406 1724 121.861 578.809 439.621
1192 1 57.0772 12.3867 707 123.375 578.308 463.877
1193 0 60.1079 10.9636 659 123.473 578.782 466.181
1194 0 62.1482 13.2425 823 122.05 579.424 464.122
1195 0 63.2403 12.0335 761 124.184 579.892 462.434
1196 0 68.201 13.4456 917 117.962 581.568 465.537
1197 0 69.3535 13.5826 942 124.347 582.045 452.979
1198 0 71.3183 14.1619 1010 122.117 581.455 459.092
1199 0 69.0921 11.4195 789 128.403 582.612 456.347
1200 0 75.1774 13.661 1027 124.223 582.412 454.633
1201 0 77.2264 12.3015 950 126.422 582.76 453.878
1202 0 77.2264 12.3144 951 140.075 583.766 453.918
1203 0 86.2376 15.3877 1327 119.858 583.795 454.131
1204 0 87.2229 12.3018 1073 125.199 584.419 451.231
1205 1 46.088 8.91772 411 124.017 584.606 471.956
1206 0 49.1978 13.2323 651 113.562 585.496 469.622
1207 0 47.0949 11.445 539 119.377 584.814 466.236
1208 0 51.0751 11.9628 611 118.26 584.326 470.452
1209 0 51.0426 12.6169 644 117.248 584.338 474.098
1210 0 54.2749 13.5422 735 121.669 585.903 474.675
1211 0 56.3301 14.5393 819 120.21 585.098 477.553
1212 0 58.1035 11.2041 651 125.777 585.301 478.301
1213 0 59.1708 15.6834 928 119.217 584.548 475.166
1214 0 60.2114 13.9509 840 123.495 584.111 473.63
1215 0 64.1564 14.3867 923 121.222 583.384 475.27
1216 0 67.192 14.347 964 121.254 581.476 475.009
1217 0 67.229 13.1193 882 124.152 581.977 474.252
1218 0 72.2866 15.2587 1103 120.343 581.344 473.633
1219 0 72.2866 15.2725 1104 127.481 580.325 473.716
1220 0 76.2095 14.014 1068 124.459 579.261 467.386
1221 0 79.3482 12.7413 1011 125.866 578.382 467.408
1222 0 79.352 13.5094 1072 126.549 578.462 464.011
1223 1 43.2465 13.7583 595 120.435 575.765 481.548
1224 0 44.1679 10.2563 453 127.921 575.592 480.227
1225 0 45.1851 12.0615 545 124.277 577.615 479.932
1226 0 47.1271 15.3415 723 118.747 577.314 478.541
1227 0 48.2134 12.2787 592 124.319 577.052 475.35
1228 0 48.2134 12.258 591 124.259 576.066 475.36
1229 0 51.1828 13.0122 666 123.676 576.88 473.324
1230 0 56.1914 13.6142 765 124.703 577.23 472.06
1231 0 53.1725 12.6193 671 128.826 578.174 472.054
1232 0 59.2338 14.8902 882 123.746 578.255 471.556
1233 0 60.1876 11.5472 695 131.119 579.504 467.728
1234 0 61.1581 12.4105 759 129.771 578.624 461.726
1235 0 62.266 12.286 765 129.837 579.361 462.548
1236 0 62.266 12.3021 766 130.766 580.35 462.53
1237 0 67.2185 13.1958 887 127.286 580.957 460.158
1238 0 69.1173 13.4699 931 126.491 581.091 458.398
1239 0 71.3152 14.0783 1004 125.794 581.596 456.98
1240 0 75.1916 12.3551 929 128.429 582.721 455.82
1241 0 75.3258 12.6119 950 126.88 583.354 458.86
1242 0 78.1648 13.8937 1086 126.199 583.728 453.621
1243 1 153.831 12.7997 1969 132.477 584.081 423.463
1244 0 153.831 12.8387 1975 134.131 583.066 423.617
1245 1 163.556 13.9707 2285 131.968 584.965 410.124
1246 1 48.1458 11.9221 574 121.488 586.679 475.84
1247 0 48.0394 10.6579 512 125.453 587.02 474.939
1248 0 52.1725 13.3979 699 119.276 586.172 477.528
1249 0 52.2043 11.2251 586 124.377 585.422 475.16
1250 0 53.2512 12.6194 672 121.119 586.67 477.628
1251 0 54.1386 11.0457 598 125.189 586.202 474.231
1252 0 57.1182 10.1369 579 125.729 585.815 478.537
1253 0 60.1778 12.5295 754 122.962 584.93 473.468
1254 0 64.2581 10.3022 662 124.489 585.104 478.263
1255 0 61.1338 10.6161 649 127.376 584.029 471.365
1256 0 67.1148 13.3056 893 122.728 583.114 470.889
1257 0 68.1165 10.5701 720 127.493 582.906 472.072
1258 0 70.1524 14.5683 1022 120.614 582.899 475.593
1259 0 70.0797 12.8711 902 124.202 582.702 472.425
1260 0 76.3408 13.1123 1001 124.887 581.679 468.596
1261 0 76.2494 8.55089 652 133.296 580.167 463.511
1262 0 81.3443 12.7237 1035 131.395 579.865 464.767
1263 0 83.4396 11.5413 963 133.961 579.305 460.945
1264 0 88.38 11.5863 1024 133.307 578.485 463.116
1265 0 91.1393 11.2465 1025 133.632 577.206 461.197
1266 1 46.0639 11.0065 507 129.842 576.947 478.836
1267 0 47.2142 13.0469 616 126.205 577.596 477.143
1268 0 48.1661 10.8375 522 129.149 578.23 474.239
1269 0 50.2122 9.93782 499 129.491 577.106 472.966
1270 0 52.2281 14.3026 747 122.36 576.572 469.649
1271 0 54.2813 11.9194 647 130.406 577.607 470.788
1272 0 56.1702 10.1299 569 133.779 576.522 468.25
1273 0 55.149 12.711 701 131.74 576.718 467.2
1274 0 58.2769 12.1146 706 132.924 577.071 465.615
1275 0 61.2822 14.1966 870 128.713 578.282 464.84
1276 0 64.1195 11.1199 713 134.623 578.104 462.304
1277 0 64.213 12.6766 814 132.109 579.044 458.441
1278 0 67.2181 10.1015 679 136.246 579.202 456.685
1279 0 70.1856 13.8917 975 128.829 580.039 459.392
1280 0 72.1947 13.616 983 131.866 580.673 455.108
1281 0 75.2915 11.7942 888 136.13 581.554 454.187
1282 0 76.1792 12.208 930 135.38 582.792 453.585
1283 0 78.2765 13.9761 1094 132.555 583.553 450.591
1284 0 82.2667 12.6297 1039 135.328 583.715 452.973
1285 0 86.1588 17.8043 1534 125.496 584.434 450.874
1286 0 90.212 15.386 1388 131.875 585.027 440.055
1287 0 92.4949 18.0875 1673 127.43 585.876 441.007
1288 0 92.4298 18.0353 1667 122.778 586.937 440.788
1289 0 94.3217 14.4293 1361 134.697 587.227 448.016
1290 0 97.1877 14.6624 1425 135.261 587.738 445.749
1291 0 100.405 12.9674 1302 137.268 587.473 445.943
1292 0 105.423 13.2704 1399 136.769 586.501 446.253
1293 1 155.27 11.071 1719 142.43 585.549 413.928
1294 0 160.431 9.42464 1512 141.532 585.614 432.106
1295 0 161.347 8.2927 1338 143.336 584.765 433.669
1296 1 63.1928 13.4667 851 131.819 584.682 470.915
1297 0 66.1379 14.3942 952 130.869 585.146 472.671
1298 0 69.1902 14.7564 1021 131.336 585.049 469.5
1299 0 70.1685 11.1446 782 138.156 584.615 469.752
1300 0 70.1494 11.2332 788 139.656 583.666 469.343
1301 0 76.3187 14.4526 1103 132.542 582.611 471.199
1302 0 79.1476 12.104 958 138.472 581.416 463.508
1303 0 83.36 14.1675 1181 133.158 581.073 465.476
1304 0 86.188 14.6424 1262 133.446 580.35 459.586
1305 0 87.1559 12.5981 1098 137.293 579.206 459.775
1306 0 89.3308 11.8436 1058 139.696 579.296 455.026
1307 0 94.2868 13.7559 1297 135.014 578.665 454.935
1308 0 94.2868 13.7241 1294 127.872 578.659 454.896
1309 0 102.27 14.276 1460 138.301 576.853 442.884
1310 0 106.221 13.4248 1426 140.194 576.434 442.528
1311 0 113.536 14.2598 1619 137.42 576.472 442.406
1312 0 114.27 12.9256 1477 140.247 577.085 443.754
1313 1 63.2034 10.4267 659 131.698 576.61 467.495
1314 0 63.2034 10.3317 653 119.404 576.599 467.533
1315 0 67.3478 10.5423 710 134.88 577.044 455.866
1316 0 71.1731 13.2775 945 129.278 577.454 462.331
1317 0 74.1882 12.1178 899 132.835 578.096 459.672
1318 0 78.1693 15.1594 1185 128.386 578.225 457.538
1319 0 78.1908 14.017 1096 135.034 578.595 452.084
1320 0 79.2013 11.3129 896 139.432 578.743 451.814
1321 0 83.2184 17.436 1451 126.809 580.086 455.379
1322 0 85.1629 11.0846 944 141.704 579.899 441.288
1323 0 90.2613 14.0924 1272 135.462 581.451 439.804
1324 0 91.2528 13.5777 1239 136.994 581.174 439.984
1325 0 93.2698 10.5179 981 143.216 582.135 438.033
1326 0 98.4453 13.2662 1306 138.425 582.742 437.585
1327 0 103.414 12.7643 1320 138.333 582.776 436.436
1328 1 57.5719 10.5781 609 133.537 583.704 463.258
1329 0 57.0531 11.2877 644 132.248 585.126 464.742
1330 0 58.2182 10.3919 605 135.886 584.215 462.95
1331 0 60.2268 12.4529 750 116.045 584.32 466.101
1332 0 63.2016 11.2497 711 133.624 584.293 460.217
1333 0 65.1159 13.3454 869 129.269 585.391 462.869
1334 0 65.1028 11.1362 725 132.106 584.698 462.234
1335 0 70.0985 11.7121 821 130.153 585.291 468.046
1336 0 70.3544 11.0867 780 132.715 584.658 462.985
1337 0 72.6206 10.0798 732 134.314 584.294 463.735
1338 0 76.2031 12.3092 938 128.887 584.341 463.186
1339 0 78.222 12.5924 985 128.985 584.284 463.182
1340 0 80.2686 12.7945 1027 130.435 583.025 456.757
1341 0 84.1492 15.1992 1279 126.997 582.794 457.14
1342 0 85.2295 13.2583 1130 129.975 582.038 456.096
1343 0 90.2224 12.2586 1106 132.066 581.344 449.626
1344 0 91.2275 9.0214 823 135.348 580.015 457.391
1345 1 43.0612 6.87394 296 131.355 580.882 477.186
1346 0 46.0309 8.8636 408 127.811 578.9 479.091
1347 0 49.1554 8.38157 412 128.09 579.837 480.517
1348 0 51.17 8.07114 413 128.232 580.174 475.659
1349 0 56.5053 13.9279 787 122.206 579.283 470.624
1350 1 26.3823 6.36791 168 131.381 577.917 482.429
1351 0 26.0805 4.98456 130 135.154 576.977 479.723
1352 1 55.1584 8.10394 447 135.494 578.038 466.128
1353 0 60.0465 10.8583 652 129.399 577.899 468
1354 0 61.0818 10.9198 667 130.391 577.904 462.808
1355 0 64.1552 8.80677 565 133.758 577.156 464.421
1356 0 65.112 9.76778 636 131.998 577.402 459.803
1357 0 69.3438 9.46011 656 136.843 577.21 457.934
1358 0 72.2814 11.4137 825 131.983 578.095 456.365
1359 0 70.106 7.53146 528 140.424 578.396 454.038
1360 0 75.3181 14.2064 1070 130.581 579.437 452.294
1361 0 75.3181 14.1135 1063 107.991 580.44 452.285
1362 0 84.2623 14.1938 1196 130.6 578.058 452.666
1363 0 83.3457 9.77854 815 140.016 578.825 449.486
1364 1 51.29 12.673 650 130.554 580.529 464.509
1365 0 50.4648 8.42171 425 133.433 581.555 465.132
1366 0 50.3742 11.7322 591 134.756 581.19 459.709
1367 0 52.2922 13.7688 720 132.524 583.29 461.008
1368 0 55.2888 12.9683 717 133.826 583.541 458.622
1369 0 55.4927 11.1186 617 136.888 583.976 463.924
1370 0 57.2077 10.9251 625 137.136 583.707 459.819
1371 0 60.1095 14.407 866 131.903 584.824 458.644
1372 0 64.2442 11.1761 718 136.905 583.749 452.887
1373 0 62.159 10.8914 677 137.773 584.764 463.431
1374 0 63.0842 9.03554 570 140.804 584.9 459.909
1375 0 66.2176 13.8483 917 133.317 586.6 463.133
1376 0 70.4748 11.4935 810 137.142 585.679 463.519
1377 0 72.2315 11.92 861 138.153 586.091 459.921
1378 0 74.1398 14.0141 1039 134.791 584.687 459.579
1379 0 77.2638 13.1239 1014 137.588 585.86 463.116
1380 0 78.332 15.562 1219 132.885 584.606 460.984
1381 0 85.4904 11.2995 966 139.4 583.396 463.094
1382 0 86.2156 12.6079 1087 138.764 583.294 459.075
1383 0 91.4828 16.2982 1491 132.487 583.23 457.417
1384 0 92.3318 11.1121 1026 141.234 582.556 459.837
1385 0 100.45 14.0169 1408 136.268 582.396 452.667
1386 0 101.451 16.0176 1625 133.861 581.602 450.768
1387 0 105.28 15.2261 1603 135.021 581.037 449.492
1388 0 105.338 10.4426 1100 144.597 579.291 451.632
1389 1 57.2498 10.3407 592 137.606 579.319 472.436
1390 0 58.3332 11.1086 648 136.082 577.559 474.992
1391 0 58.2579 10.8655 633 139.501 577.228 468.859
1392 0 63.235 13.1414 831 136.321 577.923 469.665
1393 0 61.2696 13.1223 804 137.617 577.372 469.47
1394 0 68.3487 14.1334 966 136.586 576.903 467.496
1395 0 68.1379 14.955 1019 134.566 576.275 467.37
1396 0 73.3551 12.2418 898 138.16 575.749 461.654
1397 0 74.2883 12.9361 961 138.044 576.704 463.846
1398 0 77.1674 12.9718 1001 136.883 575.586 461.47
1399 0 77.2822 12.9655 1002 139.571 576.203 454.521
1400 0 82.5294 14.6251 1207 139.101 576.112 449.123
1401 0 85.3847 14.6513 1251 140.955 575.905 432.522
1402 0 89.3155 12.6518 1130 145.28 577.268 429.716
1403 0 87.4006 12.0823 1056 149.063 576.776 423.658
1404 0 93.5426 13.1063 1226 145.667 577.825 426.302
1405 0 99.3852 9.21666 916 151.631 577.639 418.867
1406 0 100.393 12.2817 1233 146.152 579.276 418.62
1407 0 106.396 16.1472 1718 140.07 579.862 410.061
1408 0 105.226 12.9245 1360 148.666 579.901 412.486
1409 0 108.332 13.5787 1471 144.471 580.203 426.134
1410 0 113.169 15.7552 1783 137.004 582.032 438.568
1411 0 116.479 13.1697 1534 141.402 583.022 430.084
1412 0 118.393 11.7912 1396 141.426 583.345 437.466
1413 1 66.2105 12.6415 837 131.456 584.633 461.757
1414 0 66.1995 9.54691 632 138.315 583.761 456.604
1415 0 65.0972 11.598 755 138.889 584.774 457.277
1416 0 72.4094 13.2856 962 138.787 585.18 451.008
1417 0 75.3593 16.2422 1224 133.166 584.86 453.944
1418 0 75.3091 7.58208 571 145.753 585.771 464.042
1419 0 80.0939 7.36635 590 145.751 586.493 460.246
1420 0 78.3351 8.36152 655 141.656 585.114 460.847
1421 0 79.2979 8.8653 703 142.061 585.714 457.35
1422 0 83.3531 11.8652 989 134.521 585.005 465.735
1423 0 91.2233 8.42987 769 143.723 585.758 453.944
1424 0 89.4116 9.46186 846 142.842 584.492 453.053
1425 0 95.3563 11.0428 1053 140.535 584.203 449.998
1426 0 98.3172 11.0357 1085 139.466 583.546 452.176
1427 0 100.149 10.2447 1026 140.277 584.032 453.672
1428 1 179.299 8.89576 1595 147.557 582.439 428.478
1429 0 175.608 10.7341 1885 151.106 582.547 411.39
1430 0 165.411 11.0936 1835 150.517 580.629 418.036
1431 1 61.2716 13.481 826 128.223 580.989 473.921
1432 0 59.1939 10.4065 616 135.245 579.08 469.006
1433 0 65.2078 11.2563 734 132.975 580.056 467.218
1434 0 63.1837 11.6644 737 135.383 578.438 463.212
1435 0 68.4227 12.3643 846 134.996 577.284 465.22
1436 0 71.2565 13.1637 938 132.446 576.024 467.481
1437 0 74.1693 14.386 1067 131.435 576.39 460.639
1438 0 76.4348 15.1763 1160 127.359 575.984 466.76
1439 0 75.2554 15.5736 1172 109.112 576.073 466.811
1440 0 81.2202 16.6954 1356 131.024 575.855 453.802
1441 1 153.474 11.155 1712 150.317 576.33 410.887
1442 0 151.296 6.05435 916 158.751 575.243 419.443
1443 1 89.3427 9.7266 869 145.15 576.158 449.471
1444 0 91.3194 10.3264 943 143.609 576.026 448.994
1445 1 49.1733 8.29719 408 142.25 576.895 462.113
1446 0 51.493 11.4967 592 134.926 578.057 464.025
1447 0 54.2949 10.3325 561 139.48 578.225 462.381
1448 0 57.3028 13.1756 755 133.669 578.448 460.013
1449 0 55.1023 12.3407 680 137.353 578.247 458.419
1450 0 59.136 11.1269 658 137.558 578.834 460.815
1451 0 57.1373 10.2035 583 141.856 579.479 456.638
1452 0 60.0681 10.6213 638 140.583 580.337 459.163
1453 0 64.1307 12.1627 780 137.568 580.014 454.333
1454 0 66.167 11.7884 780 138.24 580.873 454.481
1455 0 67.1653 10.7049 719 139.844 582.203 457.491
1456 0 71.1207 12.4296 884 137.298 582.138 454.355
1457 0 72.1735 12.179 879 137.952 583.133 454.625
1458 0 73.091 13.3806 978 136.557 583.785 455.74
1459 0 76.2603 12.0771 921 139.679 584.374 449.788
1460 0 76.2542 11.9993 915 118.446 585.377 449.6
1461 0 82.2296 12.7691 1050 138.615 585.588 450.198
1462 0 83.5509 12.5313 1047 138.753 585.278 452.302
1463 0 86.3302 11.3286 978 141.467 584.829 450.797
1464 0 90.3122 10.0651 909 144.686 585.162 445.975
1465 0 90.1567 11.0585 997 143.306 584.279 448.509
1466 0 94.2587 9.98317 941 146.704 584.724 446.15
1467 0 99.1842 12.2802 1218 138.415 584.059 446.262
1468 1 52.0358 9.33972 486 136.679 581.537 469.872
1469 0 50.0603 10.8669 544 135.125 583.035 471.842
1470 0 55.1095 10.6334 586 133.253 582.93 473.35
1471 0 57.1468 9.62434 550 138.018 580.609 467.362
1472 0 61.1315 10.4856 641 137.346 579.147 470.112
1473 0 59.0768 8.83595 522 141.069 578.812 469.109
1474 0 64.1012 11.9187 764 134.932 577.73 467.983
1475 0 69.0953 11.1295 769 134.082 578.329 470.554
1476 0 68.1647 15.5359 1059 128.566 577.637 463.629
1477 0 68.092 10.1774 693 138.752 576.147 460.31
1478 0 73.1232 11.2686 824 135.494 576.008 463.779
1479 0 73.0604 10.1423 741 138.625 576.08 461.526
1480 0 78.1759 11.5765 905 135.645 575.676 458.545
1481 0 81.2254 11.3388 921 135.104 575.222 460.07
1482 0 83.2921 12.9784 1081 137.212 575.46 451.959
1483 0 87.2683 14.633 1277 133.869 576.345 451.094
1484 0 89.2969 12.744 1138 135.263 574.712 455.638
1485 0 89.0843 10.0354 894 138.273 575.027 450.218
1486 0 94.1483 9.77182 920 139.741 575.026 446.161
1487 0 98.2618 11.2149 1102 136.343 575.527 444.955
1488 0 101.264 11.1293 1127 136.567 575.964 443.234
1489 1 57.1042 5.919 338 136.571 574.994 463.077
1490 0 58.0733 11.6405 676 129.182 575.966 463.902
1491 0 59.0722 10.0386 593 133.309 576.255 460.823
1492 0 60.2412 9.16317 552 136.051 577.975 460.964
1493 0 60.2412 9.26276 558 135.599 579.986 460.98
1494 0 65.2284 12.0653 787 135.017 577.583 452.342
1495 0 64.0947 11.5454 740 137.534 580.186 451.835
1496 0 64.0947 11.4206 732 125.917 581.212 451.753
1497 0 69.1978 13.2519 917 132.671 582.287 451.728
1498 0 72.3874 12.4745 903 131.404 581.498 455.815
1499 0 76.1884 12.8235 977 131.882 583.408 454.836
1500 0 72.1929 9.65468 697 133.644 583.641 454.97
1501 1 277.576 11.2186 3114 156.751 583.717 362.269
1502 0 296.112 15.4131 4564 154.211 584.457 331.355
1503 1 229.551 12.568 2885 150.249 585.206 368.607
1504 0 238.54 10.9038 2601 150.212 585.318 380.935
1505 1 88.3284 16.4047 1449 124.618 584.168 449.539
1506 0 90.1264 10.8958 982 133.573 585.268 449.648
1507 0 94.1105 12.1028 1139 131.148 584.026 435.896
1508 0 94.2068 9.31992 878 134.598 585.382 446.235
1509 0 100.494 11.6922 1175 133.828 583.353 446.615
1510 1 51.178 12.8571 658 129.764 582.821 473.328
1511 0 52.2827 9.19998 481 135.432 582.054 475.168
1512 0 54.0748 15.3861 832 125.758 581.151 475.85
1513 1 118.264 6.82373 807 138.781 581.071 461.631
1514 0 113.177 9.56027 1082 143.449 580.175 444.193
1515 0 113.219 8.54094 967 145.145 579.809 445.848
1516 0 125.396 10.415 1306 142.603 578.055 441.89
1517 1 61.0483 12.1543 742 135.319 576.899 468.431
1518 0 63.1766 11.6499 736 137.749 576.64 468.935
1519 0 65.2053 11.6862 762 137.706 576.339 468.963
1520 0 65.1392 11.2989 736 138.957 576.242 467.117
1521 0 66.0792 10.0485 664 142.069 575.62 460.568
1522 0 69.0329 9.76347 674 141.049 574.935 466.242
1523 0 70.1474 10.093 708 142.547 574.839 461.564
1524 0 73.0911 12.245 895 140.111 574.718 456.784
1525 0 77.0823 10.1061 779 142.169 574.249 452.886
1526 0 78.1187 10.8297 846 140.441 575.182 458.79
1527 0 77.1802 11.1816 863 139.933 575.832 460.12
1528 0 86.1282 12.2724 1057 138.626 574.653 451.49
1529 0 89.2961 13.0017 1161 136.775 575.059 452.344
1530 0 88.1193 10.1907 898 143.244 576.215 448.546
1531 0 96.1296 10.0489 966 143.808 575.119 441.535
1532 1 54.0541 10.4155 563 138.437 576.641 463.098
1533 0 53.1039 12.8051 680 132.919 577.481 457.529
1534 0 57.0445 12.7094 725 132.817 577.953 455.839
1535 0 60.1042 11.8128 710 135.206 579.094 454.108
1536 0 59.099 15.7871 933 130.368 580.208 451.69
1537 0 61.106 10.9973 672 139.274 580.835 450.204
1538 0 64.0791 12.5314 803 135.945 580.654 451.315
1539 0 68.1329 11.4189 778 137.706 581.369 448.88
1540 0 71.1126 15.1872 1080 131.475 582.418 453.74
1541 0 70.2078 12.6197 886 137.69 581.642 451.375
1542 0 72.167 11.418 824 137.93 581.142 455.098
1543 0 78.1845 16.9215 1323 128.887 582.36 452.573
1544 0 85.263 14.4377 1231 131.62 582.909 449.708
1545 0 82.0911 15.4341 1267 133.717 583.488 443.142
1546 0 90.1989 13.8804 1252 133.426 583.557 450.709
1547 0 91.1978 13.7832 1257 132.524 583.161 450.968
1548 0 89.2561 12.3465 1102 134.397 583.478 449.466
1549 0 95.2495 12.8715 1226 133.577 582.967 446.97
1550 0 93.1 6.46617 602 142.58 583.025 456.87
1551 1 51.131 10.0526 514 133.94 581.788 471.521
1552 0 53.1442 11.0642 588 132.849 583.192 467.371
1553 0 58.1515 10.5414 613 134.039 583.573 470.114
1554 0 61.1245 10.5849 647 130.476 582.94 473.082
1555 0 63.1359 13.9382 880 125.158 582.52 474.562
1556 0 62.1485 9.84738 612 134.067 581.59 470.761
1557 0 65.0485 12.3754 805 133.907 581.409 462.458
1558 0 70.1057 12.581 882 131.742 580.628 470.923
1559 0 69.198 11.7344 812 134.751 580.147 465.005
1560 0 73.1835 12.6121 923 134.554 578.913 460.275
1561 0 77.0844 14.5814 1124 130.852 578.994 460.609
1562 0 76.1059 12.706 967 134.245 577.793 458.568
1563 0 79.1172 13.9919 1107 133.388 578.273 459.736
1564 0 82.2265 12.7331 1047 136.439 578.198 457.633
1565 0 82.066 11.3933 935 138.393 576.786 458.741
1566 0 85.1029 11.8562 1009 139.718 576.377 448.409
1567 0 90.2198 12.0594 1088 138.372 576.353 451.044
1568 0 91.169 11.4074 1040 141.136 576.257 447.427
1569 0 94.1522 13.9349 1312 138.35 575.635 436.424
1570 0 96.1192 13.0463 1254 140.985 575.51 436.15
1571 0 101.138 11.8254 1196 143.222 576.357 435.298
1572 1 57.3029 9.37125 537 140.926 575.71 456.577
1573 0 59.1009 8.25707 488 141.732 575.08 453.047
1574 0 68.1051 10.7481 732 135.286 574.936 461.458
1575 0 64.127 10.6663 684 134.137 576.067 461.456
1576 0 69.0685 11.2063 774 136.018 575.912 453.91
1577 0 67.047 11.5143 772 137.778 577.091 452.299
1578 0 68.1224 14.0923 960 132.157 577.145 451.225
1579 0 72.0982 12.0253 867 135.134 578.885 447.603
1580 0 74.1011 12.4425 922 135.472 579.223 445.323
1581 0 78.0988 12.4074 969 135.111 579.56 448.803
1582 0 80.087 10.4511 837 140.409 580.572 444.955
1583 0 84.3415 14.1093 1190 134.78 581.582 441.76
1584 0 85.2675 13.2524 1130 137.312 581.988 441.586
1585 0 86.3874 10.2098 882 142.643 582.89 442.511
1586 0 90.3481 14.3666 1298 132.224 582.568 442.491
1587 1 48.0445 12.9047 620 133.632 583.914 463.308
1588 0 48.0678 12.3783 595 133.921 583.916 465.637
1589 0 56.3083 12.9643 730 132.704 584.106 466.103
1590 0 55.1719 13.9201 768 131.94 584.694 465.276
1591 0 55.298 10.5067 581 138.325 585.098 463.914
1592 0 55.206 12.6254 697 135.352 585.313 461.783
1593 0 58.1279 14.4337 839 132.715 584.215 459.788
1594 0 59.1197 13.8025 816 134.114 584.004 465.683
1595 0 64.2014 13.5978 873 134.627 583.826 469.344
1596 0 63.17 11.382 719 136.932 582.644 471.943
1597 0 63.1431 10.2624 648 141.103 581.991 468.159
1598 0 69.149 12.3791 856 137.894 582.042 467.975
1599 0 69.1235 11.9786 828 138.777 580.902 465.914
1600 0 72.2077 13.7382 992 134.737 580.644 466.552
1601 0 73.0658 11.4007 833 140.418 579.052 465.642
1602 0 74.104 10.9846 814 141.624 578.695 461.188
1603 0 76.1016 14.047 1069 136.424 577.316 458.861
1604 0 83.1817 21.2907 1771 125.022 576.832 457.723
1605 0 81.1379 10.1309 822 145.147 576.493 450.77
1606 0 87.162 13.951 1216 138.727 575.562 451.891
1607 0 92.2769 16.1145 1487 135 575.667 449.847
1608 0 89.3218 15.349 1371 138.593 575.383 444.931
1609 0 89.2293 13.4373 1199 140.659 574.848 451.655
1610 0 90.29 15.2066 1373 140.488 574.417 446.231
1611 1 57.1104 12.7122 726 138.831 574.123 464.836
1612 0 56.2263 8.07451 454 145.987 574.645 464.921
1613 0 56.2263 10.191 573 134.728 575.55 461.995
1614 0 55.0927 12.6514 697 140.076 574.684 460.138
1615 0 57.2295 10.9559 627 138.593 574.104 460.056
1616 0 60.2033 10.2818 619 142.06 574.919 454.525
1617 0 63.1429 15.7262 993 131.789 575.057 451.923
1618 0 68.2122 14.6601 1000 132.491 576.117 453.492
1619 0 69.2051 14.1319 978 135.925 576.637 452.375
1620 0 70.1068 15.4764 1085 133.614 577.859 443.286
1621 0 70.1068 15.4764 1085 125.704 578.859 443.286
1622 0 75.2902 16.6024 1250 132.029 577.308 440.2
1623 0 78.1729 15.3762 1202 132.23 578.341 446.673
1624 0 82.2499 15.1246 1244 133.468 579.394 444.723
1625 0 82.2238 11.0917 912 142.454 580.022 440.654
1626 0 82.2238 11.116 914 144.861 581.028 440.853
1627 0 86.1015 10.8012 930 142.408 582.009 440.794
1628 0 86.1351 10.7273 924 136.804 583.996 440.838
1629 0 95.2182 15.8898 1513 134.258 582.928 433.085
1630 0 96.2041 15.1969 1462 135.647 583.2 436.272
1631 0 94.4196 11.3642 1073 144.52 583.721 433.749
1632 1 54.0357 11.659 630 136.903 584.548 460.749
1633 0 56.0465 10.2772 576 138.755 584.995 461.76
1634 0 57.2049 11.52 659 137.624 585.176 460.454
1635 0 58.1585 10.9872 639 136.67 584.25 466.405
1636 0 64.1097 10.8096 693 136.177 583.886 465.784
1637 0 67.2282 14.0566 945 131.149 583.244 462.51
1638 0 65.2678 12.1499 793 135.054 582.251 462.861
1639 0 72.219 11.7144 846 134.875 582.412 464.968
1640 0 68.1735 9.62251 656 137.326 581.093 464.61
1641 0 69.1984 7.44237 515 142.138 581.478 463.148
1642 0 73.1648 8.43301 617 142.185 580.608 457.82
1643 0 77.297 13.9333 1077 132.489 580.449 460.025
1644 0 79.1877 10.5698 837 137.712 579.539 454.403
1645 1 92.466 7.93806 734 137.811 578.059 462.928
1646 0 89.5129 10.1996 913 138.912 578.391 453.101
1647 0 84.3274 9.7833 825 142.143 577.887 446.93
1648 0 92.5082 10.3883 961 138.986 577.208 447.215
1649 0 93.1528 8.24452 768 142.431 576.496 444.667
1650 0 95.3898 9.13095 871 140.835 575.945 442.096
1651 1 52.1911 8.04735 420 136.271 575.583 463.193
1652 0 59.2943 8.51684 505 135.798 576.024 467.855
1653 0 61.337 8.80383 540 132.961 576.68 466.683
1654 0 59.2395 9.80764 581 132.334 575.626 465.518
1655 0 64.3338 7.64761 492 135.4 575.23 461.193
1656 0 68.2726 10.9268 746 130.863 574.91 459.832
1657 0 64.39 11.8497 763 129.434 576.013 462.204
1658 0 64.3988 11.7238 755 100.212 577.001 462.196
1659 0 64.2664 7.32887 471 134.807 576.344 463.344
1660 0 75.4146 10.5019 792 133.258 576.783 454.857
1661 0 77.5561 9.46412 734 134.782 577.112 453.458
1662 0 81.3901 11.7828 959 132.098 577.251 446.271
1663 0 84.3802 11.9459 1008 131.938 578.785 445.076
1664 0 81.3388 9.08545 739 136.394 578.858 449.227
1665 0 89.545 9.77162 875 136.734 580.151 444.967
1666 1 168.881 7.14706 1207 145.405 580.335 421.343
1667 1 183.788 11.671 2145 142.08 581.194 402.667
1668 0 183.561 10.171 1867 145.508 581.482 396.764
1669 1 53.2303 14.5782 776 127.057 582.035 459.138
1670 0 58.2436 9.47744 552 133.969 582.672 461.848
1671 0 57.294 10.385 595 135.427 581.486 454.509
1672 0 59.1018 11.2856 667 133.858 582.664 453.241
1673 0 59.0831 10.6122 627 134.775 583.646 458.947
1674 0 65.221 11.7753 768 131.643 583.85 459.978
1675 0 63.0964 10.7613 679 134.76 583.577 460.414
1676 0 69.1343 11.8176 817 132.367 583.083 460.017
1677 0 67.4129 11.8375 798 132.298 583.846 463.306
1678 0 68.0372 13.7278 934 130.717 583.907 460.199
1679 0 76.2169 10.5488 804 135.154 583.81 457.817
1680 0 77.1801 9.87301 762 136.967 582.108 460.482
1681 0 80.0809 10.3645 830 136.298 581.858 460.884
1682 0 80.1775 12.4224 996 134.736 582.708 462.494
1683 0 80.1775 12.3725 992 116.053 582.674 462.238
1684 0 82.5685 7.64214 631 135.727 581.021 472.046
1685 0 82.1314 3.64051 299 147.244 580.515 464.826
1686 1 58.2516 7.22726 421 139.732 579.672 467.34
1687 0 57.1866 8.18373 468 134.056 578.566 476.139
1688 0 58.21 7.66192 446 120.502 577.915 471.094
1689 0 57.2075 13.6346 780 130.896 576.628 469.809
1690 0 55.051 6.03078 332 143.53 576.922 466.376
1691 0 61.3334 10.2717 630 136.619 576.803 466.316
1692 0 64.3058 12.9537 833 132.496 576.462 470.369
1693 0 72.1778 12.3168 889 135.327 575.784 467.265
1694 0 68.4625 10.3999 712 141.729 575.056 463.711
1695 0 69.5061 10.143 705 141.628 575.27 464.969
1696 0 70.3728 14.7358 1037 134.326 575.583 463.935
1697 0 72.4701 12.9985 942 138.753 575.589 459.935
1698 0 76.5996 12.598 965 139.269 574.607 457.716
1699 0 79.5562 12.3686 984 135.658 575.411 457.49
1700 0 78.2746 11.1914 876 139.951 575.357 450.734
1701 0 85.3764 14.5239 1240 133.222 576.027 451.515
1702 0 87.1934 14.2213 1240 135.245 576.865 442.985
1703 0 90.2934 12.4594 1125 138.613 576.507 444.403
1704 0 92.4615 13.7463 1271 137.486 576.495 440.901
1705 0 98.1628 11.2772 1107 139.972 577.479 435.394
1706 0 102.167 13.6737 1397 135.198 577.109 440.271
1707 0 110.171 11.4095 1257 139.091 578.592 436.879
1708 0 110.407 18.5224 2045 128.327 579.064 434.954
1709 1 61.1143 12.2066 746 131.642 579.476 458.773
1710 0 64.1815 14.1162 906 130.411 579.815 457.927
1711 0 64.155 14.1221 906 122.967 578.811 457.864
1712 0 65.0462 11.3304 737 137.682 580.438 457.955
1713 0 68.145 10.8592 740 136.988 581.015 456.719
1714 0 69.1649 12.7232 880 134.711 581.949 456.144
1715 0 73.1386 10.6373 778 137.712 582.221 456.54
1716 0 77.1598 14.0099 1081 132.436 583.612 454.314
1717 0 78.1255 11.9807 936 134.385 583.126 455.241
1718 0 82.1854 12.7152 1045 133.321 583.145 452.689
1719 0 86.1189 13.1562 1133 132.678 584.085 453.447
1720 0 86.1189 13.1214 1130 126.504 584.073 453.55
1721 0 90.5755 11.0184 998 138.586 584.098 455.765
1722 0 93.7196 12.0786 1132 136.33 584.288 460.638
1723 0 94.2747 12.6969 1197 137.444 583.492 451.866
1724 0 99.3667 14.8339 1474 132.718 582.75 453.231
1725 1 193.161 15.4069 2976 140.492 583.001 393.833
1726 0 198.594 12.4727 2477 144.471 583.293 407.047
1727 0 203.694 12.0229 2449 148.137 581.494 395.016
1728 0 203.632 9.99844 2036 150.943 580.599 408.697
1729 0 199.677 9.06466 1810 156.393 579.998 397.371
1730 0 203.661 8.27846 1686 151.117 577.318 416.63
1731 1 63.143 11.1176 702 133.191 577.225 472.137
1732 0 66.2932 12.5805 834 132.249 577.004 468.453
1733 0 69.1115 11.1269 769 134.758 576.364 465.577
1734 0 70.0749 11.2166 786 134.738 575.281 467.131
1735 0 73.0948 9.75446 713 136.285 575.919 468.703
1736 0 76.2388 14.5333 1108 126.945 574.762 469.031
1737 0 72.1691 11.0158 795 137.161 574.16 464.382
1738 0 78.1041 13.4564 1051 132.098 573.582 465.358
1739 0 79.0726 8.78939 695 140.875 574.288 455.481
1740 0 85.1041 13.8419 1178 133.183 574.123 457.239
1741 0 86.0826 14.8346 1277 133.655 573.388 448.804
1742 0 89.1715 13.4236 1197 136.739 575.109 449.203
1743 0 89.1623 14.9054 1329 137.596 573.98 446.053
1744 0 95.337 12.482 1190 140.929 574.408 447.328
1745 0 96.1313 13.8873 1335 139.972 575.034 442.403
1746 0 105.471 11.3775 1200 141.642 575.898 445.155
1747 1 51.0838 11.8041 603 139.597 575.187 462.149
1748 0 54.0948 10.2413 554 138.838 576.554 466.2
1749 0 57.2196 12.7229 728 136.304 577.54 459.712
1750 0 58.1795 12.5646 731 140.717 577.948 451.837
1751 0 60.1751 15.2056 915 135.172 579.169 452.66
1752 0 62.1842 12.463 775 140.236 578.955 453.054
1753 0 65.157 13.4444 876 137.822 579.456 449.599
1754 0 67.44 13.4342 906 136.965 580.576 453.126
1755 0 67.3894 13.4442 906 138.256 580.711 449.352
1756 0 72.2682 9.03579 653 141.959 579.854 454.83
1757 0 74.1122 15.6115 1157 133.497 581.83 448.347
1758 0 75.1375 15.7312 1182 134.902 582.112 447.168
1759 0 77.1644 11.8319 913 139.825 582.743 450.283
1760 0 78.4059 13.6469 1070 137.004 583.667 447.196
1761 0 83.3616 17.0702 1423 130.278 583.707 449.367
1762 0 84.1535 11.5266 970 140.923 583.697 448.659
1763 0 88.2718 12.0763 1066 142.183 583.218 445.965
1764 0 89.1614 15.3878 1372 136.332 583.378 450.165
1765 0 93.4212 15.7245 1469 136.236 582.988 449.427
1766 0 95.2417 13.891 1323 139.102 582.745 445.829
1767 0 96.1924 13.1299 1263 141.119 582.53 447.405
1768 0 102.332 10.0946 1033 144.53 582.76 448.931
1769 0 109.11 13.2343 1444 137.262 581.082 444.76
1770 1 59.3295 12.1356 720 135.257 580.115 473.806
1771 0 59.3295 12.1525 721 121.291 579.11 473.788
1772 0 62.1136 12.0425 748 133.155 579.348 465.162
1773 0 62.0852 11.4681 712 133.254 578.743 467.558
1774 0 67.2447 14.5885 981 130.244 577.083 471.137
1775 0 69.1069 14.2099 982 131.613 576.584 468.149
1776 0 72.1278 12.4501 898 134.598 575.592 461.487
1777 0 74.1095 12.1712 902 134.156 575.081 463.222
1778 0 77.058 14.5085 1118 130.523 574.932 461.056
1779 0 78.3607 22.3837 1754 120.694 573.859 452.616
1780 0 81.2253 15.0076 1219 130.705 574.328 457.237
1781 0 81.0492 9.61144 779 138.954 574.198 456.669
1782 0 80.1842 11.2865 905 135.57 574.208 457.597
1783 0 79.0799 11.6212 919 130.871 573.491 462.524
1784 1 175.717 10.2722 1805 145.806 572.806 404.799
1785 0 177.254 9.64154 1709 146.676 575.11 405.715
1786 0 181.52 12.1749 2210 143.921 575.326 404.451
1787 0 189.372 8.89785 1685 145.868 575.36 414.817
1788 1 103.417 11.3425 1173 139.649 575.835 436.977
1789 1 52.0593 11.8903 619 131.312 575.732 462.318
1790 0 56.1182 14.1843 796 127.907 575.475 457.036
1791 0 58.0577 10.7135 622 133.55 576.24 455.659
1792 0 58.0612 12.1251 704 132.371 576.484 452.702
1793 0 58.0722 12.1056 703 105.845 576.498 452.596
1794 0 64.0463 13.2873 851 130.865 577.64 450.73
1795 0 67.0912 11.9539 802 133.183 579.142 450.857
1796 0 67.0912 11.9539 802 111.436 581.175 450.764
1797 0 68.0815 11.2512 766 134.688 580.497 447.661
1798 0 75.1484 8.02412 603 138.297 580.856 447.947
1799 0 80.1561 12.7626 1023 131.757 580.861 442.403
1800 0 84.3141 13.3192 1123 131.114 581.753 440.78
1801 0 82.1445 12.3806 1017 133.338 582.445 444.747
1802 0 85.4039 13.3483 1140 132.455 582.652 443.746
1803 0 90.1641 12.9431 1167 132.978 583.116 443.961
1804 0 90.2594 12.2203 1103 135.249 583.07 436.566
1805 0 91.2676 11.6361 1062 135.885 583.232 443.335
1806 0 99.3048 13.816 1372 132.881 583.816 437.237
1807 0 106.24 10.834 1151 138.417 582.871 439.996
1808 0 108.223 11.9753 1296 137.421 583.218 437.112
1809 0 111.201 7.6618 852 141.532 582.149 445.735
1810 1 58.204 11.4082 664 135.538 581.557 460.595
1811 0 63.384 10.0341 636 135.535 580.857 466.725
1812 0 64.415 10.51 677 134.408 581.718 461.502
1813 0 63.2486 11.6682 738 133.424 581.098 458.327
1814 0 69.143 14.7376 1019 128.599 580.703 457.129
1815 0 72.0893 11.5551 833 132.156 580.113 460.672
1816 0 75.1492 16.2211 1219 125.533 578.448 450.64
1817 0 77.3029 14.2944 1105 128.447 577.073 450.685
1818 0 83.1924 13.4387 1118 129.477 576.99 454.069
1819 0 82.0952 15.2993 1256 127.9 576.974 453.914
1820 0 83.1615 11.2552 936 135.796 576.36 445.77
1821 0 93.4448 19.6908 1840 122.711 575.406 443.872
1822 0 92.1539 14.7471 1359 130.795 575.324 442.686
1823 0 91.3754 13.0123 1189 136.153 575.432 442.703
1824 0 99.3987 12.4348 1236 136.238 574.745 443.977
1825 0 97.2904 11.3166 1101 139.754 576.188 436.947
1826 0 104.233 15.993 1667 131.726 575.374 436.747
1827 1 58.2414 15.2984 891 128.214 574.394 462.686
1828 0 62.4752 16.9507 1059 126.877 575.16 457.547
1829 0 59.1897 15.0702 892 131.593 575.129 450.767
1830 0 61.2085 11.9428 731 136.97 574.785 449.144
1831 0 66.4454 11.4681 762 135.894 574.736 453.196
1832 0 69.1984 15.4339 1068 129.809 575.486 455.293
1833 0 76.2969 7.8247 597 139.559 575.889 457.09
1834 0 74.2679 13.2493 984 135.941 575.776 446.951
1835 0 76.3438 14.0155 1070 134.06 575.727 449.332
1836 0 76.0726 10.4506 795 142.053 576.473 441.772
1837 0 76.1212 11.2715 858 140.963 577.562 438.492
1838 0 83.1756 12.4195 1033 137.23 578.264 443.932
1839 0 85.1536 12.9765 1105 138.331 579.275 437.464
1840 0 90.2396 11.9127 1075 138.696 579.171 441.801
1841 0 97.209 10.9866 1068 141.494 579.839 435.849
1842 0 99.3839 12.5976 1252 124.058 579.976 435.613
1843 0 106.368 10.8115 1150 124.808 580.483 440.317
1844 0 105.396 14.9815 1579 121.202 580.84 432.14
1845 0 110.377 13.1368 1450 123.545 581.832 430.384
1846 1 62.2367 12.2436 762 116.545 581.92 459.222
1847 0 61.0963 17.3824 1062 109.832 583.133 458.059
1848 0 66.2202 11.4618 759 121.725 582.863 455.748
1849 0 69.5113 14.2711 992 116.242 582.847 459.361
1850 0 72.3063 13.8715 1003 116.718 582.725 460.655
1851 0 74.3674 14.2536 1060 117.254 582.714 457.559
1852 0 77.4858 14.7253 1141 116.128 583.132 457.785
1853 0 81.3668 13.6296 1109 117.833 582.449 457.344
1854 0 82.3879 12.5261 1032 121.767 582.034 454.631
1855 0 85.4846 13.3006 1137 121.456 582.148 453.809
1856 0 88.8799 14.7502 1311 118.894 581.176 457.351
1857 0 92.7056 16.5794 1537 116.425 581.098 449.915
1858 0 95.4485 17.6745 1687 114.756 580.448 452.66
1859 0 97.6001 11.916 1163 124.848 579.072 446.882
1860 0 99.3817 14.2783 1419 120.875 578.726 451.141
1861 1 55.5092 10.4307 579 120.513 577.478 468.04
1862 0 56.3284 11.1844 630 121.875 576.732 465.317
1863 0 56.3284 11.1134 626 129.502 575.711 465.529
1864 0 58.1236 10.8734 632 119.108 575.419 464.829
1865 0 61.4271 13.512 830 119.287 575.706 465.342
1866 0 60.2085 10.0318 604 126.571 576.416 461.851
1867 0 64.2878 14.6528 942 118.632 575.78 461.196
1868 0 66.4832 13.8832 923 118.989 575.636 459.894
1869 0 65.3057 10.3973 679 126.608 574.654 460.872
1870 0 69.2013 13.6703 946 119.759 574.544 461.741
1871 0 72.265 12.4818 902 122.388 575.071 460.803
1872 0 73.3514 14.4782 1062 120.23 574.893 453.407
1873 0 75.7092 12.865 974 122.809 574.944 449.937
1874 0 76.3884 13.1172 1002 124.393 574.893 450.114
1875 0 76.1464 12.6992 967 125.845 575.761 445.913
1876 0 83.1897 16.1679 1345 118.75 576.457 448.097
1877 0 84.4554 14.2087 1200 122.09 577.302 447.252
1878 0 87.4187 15.3514 1342 123.903 577.078 441.348
1879 0 87.4187 15.3514 1342 131.044 577.102 441.42
1880 0 91.2589 15.4177 1407 126.264 578.826 432.454
1881 0 93.2883 13.0563 1218 130.268 580.176 436.152
1882 0 97.34 12.9032 1256 131.186 579.887 438.943
1883 0 95.3263 12.2841 1171 150.411 579.924 437.152
1884 0 100.483 14.3904 1446 129.626 580.847 432.584
1885 0 105.587 16.2235 1713 126.535 581.731 432.191
1886 0 107.268 13.7506 1475 128.481 581.298 433.944
1887 0 110.435 13.8 1524 129.117 581.19 432.253
1888 0 112.515 14.0248 1578 128.243 582.584 434.105
1889 0 112.531 14.0317 1579 139.923 583.564 433.876
1890 1 68.363 9.93228 679 128.368 582.87 453.951
1891 0 70.4133 12.1284 854 122.954 582.343 456.084
1892 0 70.1482 11.2619 790 124.523 582.772 456.96
1893 0 72.196 11.9813 865 124.452 582.577 458.156
1894 0 74.2691 13.6665 1015 124.447 582.59 455.655
1895 0 79.2749 15.8562 1257 120.666 581.699 456.515
1896 0 79.2597 15.9097 1261 125.444 580.712 456.43
1897 0 84.1258 12.3862 1042 126.747 581.03 458.46
1898 0 86.3084 11.2735 973 129.717 580.991 453.426
1899 0 91.3725 14.7856 1351 122.491 581.086 452.269
1900 0 91.3093 11.7184 1070 128.796 580.25 454.693
1901 0 93.3236 12.312 1149 132.459 579.977 455.185
1902 0 97.2714 14.5264 1413 128.892 577.952 449.431
1903 0 100.205 17.6439 1768 123.203 577.67 450.692
1904 0 102.178 14.2594 1457 129.714 576.291 448.247
1905 0 106.34 13.2218 1406 129.92 577.153 451.858
1906 1 60.2375 11.8697 715 125.228 575.752 466.699
1907 0 60.2959 8.54122 515 127.219 574.951 473.623
1908 0 65.1244 9.07494 591 131.548 573.261 464.663
1909 0 68.1599 9.7418 664 129.349 575.8 460.37
1910 0 71.1735 13.165 937 124.448 574.822 461.495
1911 0 73.5564 13.1056 964 127.258 573.66 459.461
1912 0 78.3199 13.8534 1085 126.629 573.712 459.417
1913 0 76.418 11.2801 862 130.799 573.761 460.495
1914 0 79.2051 14.5319 1151 124.484 574.765 455.466
1915 0 81.3235 13.5139 1099 124.78 573.979 454.8
1916 0 81.3207 13.4283 1092 119.93 573.96 454.756
1917 0 85.3386 11.261 961 130.452 574.068 446.229
1918 0 89.5179 12.087 1082 129.787 575.167 443.178
1919 0 94.2782 12.5798 1186 129.105 575.911 444.648
1920 0 94.4031 10.4022 982 133.54 576.196 441.075
1921 0 97.4249 11.3113 1102 130.729 577.035 440.53
1922 0 101.395 9.94136 1008 133.151 577.773 430.976
1923 1 60.4543 10.9173 660 124.667 579.453 457.058
1924 0 60.1522 12.9671 780 123.35 578.481 454.724
1925 0 55.2104 8.27742 457 134.309 578.755 452.508
1926 0 61.0638 10.7592 657 128.265 579.005 457.276
1927 0 62.2325 12.4533 775 129.825 579.875 454.479
1928 0 63.2095 10.2991 651 133.948 581.002 454.352
1929 0 67.194 11.9505 803 129.137 580.488 457.63
1930 0 68.2265 13.8363 944 127.014 582.285 453.951
1931 0 69.2489 9.9785 691 132.845 582.711 452.117
1932 0 76.357 10.6474 813 127.61 582.137 456.348
1933 0 77.3047 12.7935 989 124.712 583.057 453.28
1934 0 79.1694 10.6354 842 129.094 582.79 453.007
1935 0 77.1898 7.2678 561 136.79 583.339 448.697
1936 0 82.1832 11.8637 975 129.322 584.651 449.142
1937 0 87.4323 13.9193 1217 124.554 583.877 449.961
1938 0 86.1785 9.60796 828 132.347 583.418 451.382
1939 0 92.3222 11.2649 1040 129.688 581.804 450.931
1940 0 97.2135 11.0993 1079 130.03 582.443 451.108
1941 0 99.3583 12.8927 1281 127.749 582.419 452.408
1942 0 106.376 12.8788 1370 128.99 581.084 445.669
1943 0 106.325 13.2706 1411 129.466 580.12 448.798
1944 0 110.239 11.8197 1303 133.814 578.219 444.565
1945 0 111.322 11.3545 1264 135.57 578.479 439.651
1946 0 115.639 11.0171 1274 135.963 577.873 445.137
1947 1 67.139 12.8986 866 124.238 577.036 470.055
1948 0 67.2074 11.5017 773 130.627 576.55 459.299
1949 0 72.0862 8.29562 598 132.706 575.717 464.706
1950 0 70.0597 8.35002 585 135.034 574.055 462.244
1951 0 77.0967 9.42972 727 132.62 573.019 461.133
1952 0 79.1358 12.8008 1013 128.344 573.018 459.129
1953 0 83.1071 12.3575 1027 129.128 573.242 460.901
1954 0 86.0573 13.1424 1131 129.256 573.275 457.25
1955 0 90.2649 12.7624 1152 128.74 572.923 454.049
1956 0 86.1988 7.81914 674 140.047 573.169 447.682
1957 0 94.4105 13.2295 1249 130.669 573.855 446.259
1958 0 97.357 10.6618 1038 133.552 573.647 437.068
1959 1 52.0979 11.1521 581 125.093 572.972 458.12
1960 0 51.0982 10.8614 555 119.286 574.014 458.768
1961 0 59.1452 11.328 670 123.949 574.363 457.643
1962 0 60.2532 9.69243 584 126.084 574.226 458.89
1963 0 58.211 11.527 671 124.413 575.329 457.618
1964 0 62.2123 14.7077 915 120.002 575.599 457.478
1965 0 61.3229 10.2246 627 127.716 575.848 458.126
1966 0 66.0907 10.0771 666 128.884 576.865 451.908
1967 0 68.26 11.5734 790 125.949 577.615 453.514
1968 0 70.0963 13.2104 926 123.056 578.303 452.415
1969 0 73.0809 11.3162 827 126.449 579.519 451.562
1970 0 73.0809 11.3299 828 122.123 580.527 451.611
1971 0 79.1716 11.3172 896 126.24 580.824 451.6
1972 0 79.0936 12.8582 1017 125.4 580.625 447.41
1973 0 82.2404 12.6094 1037 130.134 581.407 446.21
1974 0 86.1816 12.9726 1118 128.854 582.878 447.069
1975 0 89.1434 13.3493 1190 129.278 581.853 446.689
1976 0 89.3714 10.5962 947 134.71 582.91 442.918
1977 0 93.1889 12.4371 1159 130.966 582.065 447.959
1978 0 98.2489 10.8093 1062 132.12 583.06 449.455
1979 0 104.479 13.1701 1376 131.076 583.199 439.528
1980 0 103.217 12.1589 1255 135.026 582.093 434.331
1981 1 57.0438 8.20422 468 130.818 581.534 464.5
1982 0 59.3039 9.62836 571 129.312 582.051 466.958
1983 0 63.4069 11.2606 714 127.675 582.328 469.006
1984 0 61.1179 9.32624 570 129.535 580.174 469.44
1985 0 63.1558 10.2128 645 126.681 579.84 473.547
1986 0 67.0604 10.4234 699 127.923 577.717 469.515
1987 0 70.1704 8.66462 608 130.806 578.207 467.646
1988 0 73.0538 12.6208 922 123.632 576.061 467.348
1989 0 73.1098 10.3543 757 128.185 576.68 462.406
1990 0 78.1104 11.5094 899 125.719 576.101 465.206
1991 0 79.1855 14.8638 1177 121.76 575.935 457.162
1992 1 89.2374 10.4665 934 127.335 575.558 459.572
1993 0 86.3673 9.26277 800 130.836 575.511 458.562
1994 0 86.0957 11.6963 1007 130.211 574.678 450.532
1995 0 89.1549 13.6167 1214 126.173 573.119 450.825
1996 0 91.1733 10.9462 998 131.204 572.812 450.933
1997 0 92.1775 12.758 1176 128.449 573.581 449.286
1998 0 96.2583 10.69 1029 130.428 572.638 451.527
1999 0 100.298 15.2546 1530 124.524 573.514 448.174
2000 0 102.487 14.0408 1439 125.613 573.42 447.893
2001 0 105.3 12.2887 1294 130.648 573.743 439.719
2002 1 60.2315 9.36387 564 124.621 573.443 467.746
2003 0 61.2171 10.2096 625 127.48 574.432 461.864
2004 0 62.1435 10.862 675 127.302 574.434 461.001
2005 0 67.2535 13.3673 899 122.562 574.578 459.711
2006 0 66.1434 13.1835 872 125.103 575.893 455.28
2007 0 67.1376 11.4094 766 128.367 576.783 453.437
2008 0 70.248 14.1072 991 127.924 577.254 453.178
2009 0 71.3934 11.8358 845 132.328 577.576 451.38
2010 0 74.3239 13.7372 1021 129.427 578.886 448.956
2011 0 78.2394 11.7588 920 131.605 580.106 449.685
2012 0 78.2365 12.1299 949 130.895 579.354 450.55
2013 0 82.1231 15.1845 1247 126.112 581.239 448.086
2014 0 82.2778 12.3606 1017 131.206 579.873 443.911
2015 0 88.1903 11.6339 1026 131.032 581.373 446.654
2016 0 89.2355 13.3243 1189 128.54 581.648 447.769
2017 0 94.2564 12.7206 1199 129.42 582.509 442.112
2018 0 96.249 14.3482 1381 126.736 582.826 440.492
2019 0 100.244 14.1255 1416 127.31 582.939 446.186
2020 0 104.126 14.2135 1480 126.682 583.057 449.303
2021 0 108.46 12.4101 1346 129.412 581.962 445.111
2022 1 58.2159 11.6463 678 126.897 583.109 468.024
2023 0 58.111 12.7515 741 126.692 581.873 470.926
2024 0 63.3714 10.7462 681 129.43 581.515 465.436
2025 0 63.2445 11.0682 700 130.829 580.821 467.403
2026 0 63.2938 13.461 852 126.648 580.635 468.102
2027 0 68.184 13.1116 894 126.847 580.95 467.504
2028 0 71.1944 13.9899 996 125.528 579.872 462.342
2029 0 75.158 16.1526 1214 121.298 578.898 465.479
2030 0 75.1773 13.3551 1004 127.573 578.673 461.128
2031 0 79.1179 14.6743 1161 124.828 575.966 462.928
2032 0 78.1879 9.59228 750 133.313 576.553 458.105
2033 0 83.2071 12.3187 1025 129.58 575.359 456.085
2034 0 85.2182 15.6305 1332 124.043 575.39 455.965
2035 0 88.3397 11.4218 1009 130.355 574.751 457.28
2036 0 88.1748 13.0083 1147 129.734 574.881 449.854
2037 0 95.1691 13.6284 1297 128.158 573.935 453.026
2038 0 99.3092 14.8727 1477 125.368 574.417 451.137
2039 0 102.19 12.1636 1243 129.235 574.007 453.049
2040 0 102.44 15.5114 1589 126.93 573.903 445.323
2041 0 102.487 12.7723 1309 132.493 573.602 436.321
2042 0 108.31 14.4308 1563 127.523 574.184 447.09
2043 0 110.511 11.8811 1313 133.802 573.759 437.909
2044 0 112.297 16.2783 1828 128.006 573.372 435.353
2045 0 118.355 14.5917 1727 130.419 573.779 436.32
2046 0 119.331 13.7265 1638 132.231 574.892 436.189
2047 0 126.281 11.2131 1416 136.451 575.294 432.328
2048 0 124.34 15.2083 1891 129.833 575.654 430.332
2049 1 72.0652 10.8652 783 131.126 575.538 453.987
2050 0 74.2039 14.3658 1066 130.433 576.185 451.59
2051 0 76.2224 11.8863 906 132.468 577.906 455.421
2052 0 79.1513 12.1034 958 134.256 578.739 449.357
2053 0 83.3462 14.3618 1197 130.532 578.993 449.698
2054 0 89.266 12.3899 1106 133.618 580.195 443.141
2055 0 89.1475 13.4048 1195 131.786 579.758 446.848
2056 0 92.1966 13.699 1263 131.602 581.39 446.489
2057 0 88.2512 13.7335 1212 134.828 581.315 440.611
2058 0 96.1233 12.4632 1198 135.906 582.335 441.997
2059 0 97.3999 13.2649 1292 134.228 582.541 447.395
2060 0 101.276 14.1198 1430 134.451 581.896 443.208
2061 0 106.236 12.7452 1354 137.363 581.978 436.038
2062 0 109.236 13.5486 1480 137.491 582.719 431.691
2063 0 113.246 14.1992 1608 135.501 582.788 435.185
2064 0 113.385 12.5943 1428 140.29 581.877 435.583
2065 0 119.309 11.5163 1374 142.106 582.828 433.094
2066 0 126.506 13.2405 1675 138.438 581.005 434.752
2067 1 66.2532 10.8221 717 136.626 581.399 467.575
2068 0 69.2748 10.48 726 141.501 580.926 457.021
2069 0 75.2011 15.3588 1155 131.129 581.504 462.057
2070 0 77.2489 13.929 1076 137.175 579.59 459.587
2071 0 77.2588 12.3352 953 139.987 579.138 460.815
2072 0 71.2542 8.29425 591 144.829 579.386 461.002
2073 1 53.0732 7.83824 416 146.481 577.839 451.832
2074 0 57.1724 5.87696 336 146.795 577.637 456.298
2075 0 58.0889 12.1366 705 136.713 575.896 455.172
2076 0 54.0536 5.71654 309 147.812 575.566 454.786
2077 0 55.0573 6.95639 383 150.697 576.102 449.953
2078 0 55.0333 7.84979 432 143.532 576.343 454.118
2079 0 61.2808 11.6839 716 140.144 574.866 456.197
2080 0 68.1686 8.43497 575 148.066 574.924 459.214
2081 0 68.3756 8.21931 562 143.923 575.334 464.424
2082 0 68.2475 11.3118 772 142.826 573.683 459.144
2083 1 111.217 16.769 1865 137.834 574.022 434.781
2084 0 115.423 17.5095 2021 136.596 574.018 433.191
2085 0 116.338 12.2832 1429 148.292 574.324 426.267
2086 0 122.314 13.8741 1697 143.702 574.198 428.92
2087 0 128.158 13.9827 1792 143.396 574.765 428.367
2088 0 129.219 14.4329 1865 144.2 575.15 426.388
2089 1 72.2572 10.7533 777 145.815 576.305 453.443
2090 0 75.1669 14.2084 1068 138.458 576.256 451.765
2091 0 75.1392 12.7097 955 141.599 576.336 442.107
2092 0 80.1667 14.4823 1161 135.961 577.284 448.282
2093 0 80.1416 11.592 929 144.954 577.378 441.792
2094 0 87.2096 15.0213 1310 137.263 578.602 442.032
2095 0 88.2499 11.898 1050 142.344 579.026 441.695
2096 0 94.2676 15.2863 1441 141.958 580.806 439.325
2097 0 94.3519 15.3786 1451 143.04 581.394 436.901
2098 0 97.2305 13.8948 1351 147.469 581.406 437.692
2099 0 102.284 15.76 1612 141.413 580.869 435.215
2100 0 101.344 13.2617 1344 147.302 580.992 432.961
2101 0 108.258 13.1815 1427 145.089 581.765 434.468
2102 0 110.213 14.9892 1652 139.717 582.602 439.512
2103 0 107.151 10.9285 1171 144.234 581.672 443.46
2104 0 110.336 9.35326 1032 148.641 582.516 440.374
2105 0 112.148 10.3791 1164 143.595 582.969 445.704
2106 0 112.241 8.62428 968 144.983 582.635 447.687
2107 1 73.1513 13.4516 984 137.589 583.038 458.262
2108 0 75.1058 11.0111 827 142.378 583.261 450.872
2109 0 77.2911 11.7607 909 138.179 581.542 460.948
2110 0 80.3299 12.4736 1002 136.487 582.43 454.034
2111 0 85.2484 12.0589 1028 137.12 579.881 451.565
2112 0 90.3081 16.942 1530 129.218 580.25 454.391
2113 0 88.2111 11.0644 976 140.824 579.694 454.744
2114 0 92.4336 12.8092 1184 138.53 578.561 452.405
2115 0 92.5022 12.6808 1173 130.333 576.54 452.523
2116 0 100.154 13.1897 1321 138.128 576.847 451.793
2117 0 97.326 11.0454 1075 142.556 575.975 449.599
2118 0 104.186 12.6409 1317 140.588 575.481 443.879
2119 0 108.326 13.8102 1496 138.646 576.288 442.617
2120 0 109.33 11.6619 1275 143.329 574.267 435.224
2121 0 117.337 12.7581 1497 140.325 574.454 438.774
2122 0 121.454 15.3392 1863 136.403 574.515 435.603
2123 1 71.2291 12.7336 907 136.624 574.336 461.555
2124 0 70.139 10.6931 750 141.7 573.279 458.552
2125 0 73.1596 12.2609 897 139.144 573.78 456.458
2126 0 76.0719 13.6976 1042 136.241 573.595 452.071
2127 0 79.2124 13.7857 1092 135.91 575.612 452.562
2128 0 80.4216 13.9639 1123 135.404 574.203 451.494
2129 0 85.2699 11.9503 1019 139.12 574.477 447.343
2130 0 86.5005 11.3641 983 139.953 574.432 450.637
2131 0 88.2333 13.8837 1225 137.504 575.394 443.597
2132 0 91.2262 14.1845 1294 137.196 575.499 443.451
2133 0 95.2019 13.1405 1251 138.598 576.235 442.289
2134 0 95.2058 15.6503 1490 134.984 576.346 439.097
2135 0 97.1576 13.0818 1271 141.355 576.964 433.998
2136 0 99.3289 13.7624 1367 139.403 577.696 433.903
2137 0 104.271 14.7021 1533 136.872 578.262 434.112
2138 0 104.233 12.0019 1251 143.026 578.835 430.123
2139 0 106.231 14.8827 1581 138.076 578.644 426.767
2140 0 113.302 14.3952 1631 138.604 580.297 429.288
2141 0 120.218 7.86069 945 146.096 580.958 440.219
2142 0 122.199 8.56798 1047 148.455 581.324 427.955
2143 0 126.359 11.8076 1492 139.919 581.487 430.951
2144 0 128.212 10.8882 1396 143.468 582.889 426.281
2145 1 188.27 9.52354 1793 152.001 581.921 393.504
2146 1 140.583 12.7896 1798 137.895 583.266 422.462
2147 1 77.0993 12.7238 981 135.04 582.204 449.376
2148 0 80.1313 13.8273 1108 132.623 584.345 448.347
2149 0 83.4982 14.5273 1213 130.587 583.261 449.29
2150 0 83.1863 13.6561 1136 132.349 583.595 444.442
2151 0 87.4528 12.4753 1091 134.2 583.174 454.335
2152 0 90.1879 14.2924 1289 131.901 582.348 454.76
2153 0 95.4532 13.4726 1286 134.212 582.355 452.356
2154 0 98.3074 13.2543 1303 134.714 581.572 449.879
2155 0 104.393 13.679 1428 133.335 580.154 446.722
2156 0 105.3 12.5261 1319 136.053 579.334 451.057
2157 0 104.462 14.5125 1516 134.796 578.325 446.032
2158 0 114.481 14.2731 1634 133.981 578.619 439.864
2159 0 114.481 14.0897 1613 131.379 578.626 439.878
2160 1 64.3043 8.1643 525 137.627 576.621 472.705
2161 0 68.409 12.5568 859 135.619 576.73 467.18
2162 0 72.377 14.5074 1050 133.009 574.969 462.941
2163 0 75.2133 14.8511 1117 132.521 575.107 461.13
2164 0 75.2095 12.0729 908 139.687 573.924 455.263
2165 0 76.4255 12.5612 960 139.402 573.353 454.765
2166 0 82.4247 15.4929 1277 132.724 574.549 453.265
2167 0 83.4733 12.7945 1068 138.45 574.05 453.57
2168 0 87.7416 15.0442 1320 133.721 573.434 454.141
2169 0 87.5696 12.7441 1116 139.59 574.417 447.32
2170 0 90.2238 13.0786 1180 137.297 575.123 453.926
2171 0 89.3639 12.4995 1117 140.098 573.849 444.624
2172 0 94.4331 13.5122 1276 137.004 575.116 447.698
2173 0 96.4265 12.3721 1193 140.547 574.806 440.155
2174 0 98.2067 14.724 1446 135.842 576.314 438.931
2175 0 102.254 14.3662 1469 135.856 576.127 442.712
2176 0 103.462 14.0437 1453 136.499 576.975 439.949
2177 0 106.307 13.5457 1440 138.133 577.476 434.746
2178 0 112.448 14.789 1663 135.552 577.717 429.076
2179 0 116.269 15.1029 1756 134.939 578.871 428.259
2180 1 65.2946 11.6855 763 128.549 579.625 459.35
2181 0 68.183 11.2638 768 130.477 579.766 456.931
2182 0 70.0941 12.1979 855 132.317 580.101 456.468
2183 0 71.198 12.4863 889 132.666 580.655 453.196
2184 0 72.1059 10.6926 771 135.389 581.196 449.611
2185 0 78.2209 14.9704 1171 127.299 581.693 450.817
2186 0 83.1532 14.9243 1241 125.33 582.558 455.511
2187 0 84.1688 12.5225 1054 129.148 582.936 454.356
2188 0 83.141 12.9298 1075 130.273 583.574 452.206
2189 0 85.2174 11.2184 956 133.874 583.111 450.824
2190 0 88.1166 11.9501 1053 132.832 583.784 451.644
2191 0 89.1167 10.5143 937 135.818 583.203 449.989
2192 0 94.142 11.7801 1109 132.983 583.457 452.107
2193 0 96.1881 12.933 1244 130.642 583.217 452.817
2194 0 99.3379 12.241 1216 133.935 583.154 445.823
2195 0 103.185 12.5891 1299 132.545 582.7 448.925
2196 0 106.26 11.453 1217 135.736 581.994 445.62
2197 1 59.0973 10.5927 626 129.149 580.914 475.489
2198 0 63.0268 13.407 845 125.31 582.111 473.864
2199 0 66.258 12.1344 804 126.779 579.954 472.041
2200 0 68.1283 14.2966 974 124.728 580.414 469.967
2201 0 72.1168 12.2579 884 127.521 579.107 469.068
2202 0 72.2755 12.2586 886 128.578 578.905 465.254
2203 0 79.1096 13.4623 1065 125.503 578.013 465.343
2204 0 77.2794 12.3966 958 128.035 578.327 466.332
2205 0 83.1641 13.9002 1156 125.473 577.009 461.996
2206 0 82.2277 10.8358 891 132.275 576.232 456.117
2207 0 82.1278 10.0819 828 134.837 575.886 453.142
2208 0 90.126 18.7626 1691 119.791 576.011 456.218
2209 0 91.1243 11.5776 1055 131.829 574.189 453.264
2210 0 94.2649 12.4224 1171 129.453 575.104 448.578
2211 0 97.1219 14.0854 1368 126.533 575.694 451.033
2212 0 94.1581 8.07153 760 136.022 574.779 451.021
2213 0 101.242 9.00816 912 134.698 574.806 448.888
2214 0 102.415 12.1662 1246 129.97 574.23 442.652
2215 1 59.459 12.4792 742 124.394 575.718 466.276
2216 0 56.2012 10.4446 587 130.264 574.971 459.189
2217 0 56.2451 9.9742 561 113.102 573.952 459.246
2218 0 62.0817 10.1801 632 132.307 575.997 457.666
2219 0 62.1442 12.0848 751 129.446 576.824 457.461
2220 0 67.1342 11.3951 765 129.705 577.35 452.841
2221 0 72.1996 13.5319 977 125.184 577.779 454.725
2222 0 69.2782 9.22368 639 133.341 578.155 452.476
2223 0 76.4447 11.8648 907 127.836 578.653 446.77
2224 0 78.2322 10.8267 847 129.588 579.721 448.405
2225 0 80.3401 13.6918 1100 124.875 579.895 448.056
2226 0 85.1883 12.8304 1093 126.407 580.219 441.514
2227 0 85.164 12.1765 1037 127.124 580.738 447.676
2228 1 98.183 12.2934 1207 122.739 582.692 451.81
2229 0 96.3036 10.1346 976 129.864 581.668 441.818
2230 0 99.1264 11.6114 1151 127.067 583.745 439.729
2231 0 99.3414 10.2978 1023 131.217 584.38 435.688
2232 0 107.409 12.1963 1310 127.007 584.026 439.44
2233 0 108.3 12.7608 1382 127.565 585.292 435.862
2234 1 58.1865 8.48994 494 124.603 585.148 466.603
2235 0 62.2804 9.12005 568 128.398 583.942 460.743
2236 0 62.2212 10.0609 626 128.166 583.018 461.072
2237 0 73.1931 9.29049 680 128.468 582.241 470.004
2238 0 70.1919 12.1809 855 129.587 582.374 460.763
2239 0 71.2016 13.8761 988 128.006 581.477 460.82
2240 0 78.356 11.435 896 128.439 580.666 467.586
2241 0 79.2882 12.4861 990 128.335 579.827 459.415
2242 0 83.3638 13.8549 1155 124.825 580.16 461.165
2243 0 83.3542 11.829 986 129.387 577.817 457.382
2244 0 85.2193 14.1987 1210 124.434 577.287 461.325
2245 0 90.3289 12.7866 1155 127.953 576.518 454.391
2246 0 92.1942 14.3935 1327 125.875 576.594 447.69
2247 0 94.3677 11.9426 1127 129.304 574.532 447.677
2248 0 98.2498 13.8626 1362 127.703 574.365 445.336
2249 0 100.123 11.8354 1185 131.343 574.451 442.656
2250 0 105.261 13.3098 1401 128.766 575.448 442.023
2251 1 59.0937 9.64569 570 125.316 575.91 468.744
2252 0 61.1289 11.8929 727 120.127 576.308 471.803
2253 0 62.0794 10.0839 626 124.548 573.331 468.837
2254 0 65.0437 12.0688 785 125.194 573.903 464.232
2255 0 66.2642 13.2802 880 126.085 575.517 461.605
2256 0 66.1275 12.1432 803 128.809 574.42 459.238
2257 0 66.0395 12.326 814 128.306 574.356 458.373
2258 0 72.0573 13.5864 979 125.442 573.511 456.759
2259 0 69.0565 13.4672 930 121.974 572.512 455.791
2260 0 74.1008 11.2954 837 129.783 575.577 454.909
2261 0 77.135 13.3402 1029 126.638 574.869 450.239
2262 0 79.1673 11.0399 874 129.494 576.256 453.002
2263 0 82.1798 12.8742 1058 126.787 576.407 445.043
2264 0 83.214 13.3872 1114 126.216 577.382 449.731
2265 0 89.192 14.5753 1300 122.385 579.535 447.894
2266 0 88.1925 14.2416 1256 123.459 579.381 444.527
2267 0 90.0992 12.7859 1152 126.825 579.922 442.901
2268 0 92.1708 11.7174 1080 127.697 580.826 443.249
2269 0 97.2507 13.676 1330 124.957 580.222 440.441
2270 0 100.309 14.3855 1443 123.714 580.834 443.859
2271 0 102.24 9.89826 1012 131.312 581.075 442.356
2272 0 106.244 13.6384 1449 119.227 582.395 440.36
2273 0 110.267 13.1862 1454 119.978 582.82 437.799
2274 0 111.491 13.6603 1523 120.222 583.294 433.857
2275 0 116.325 13.3248 1550 119.308 583.89 439.789
2276 0 119.334 12.6955 1515 121.726 583.603 431.696
2277 0 122.437 14.4809 1773 118.02 583.45 432.915
2278 0 126.302 17.0305 2151 114.381 582.288 432.339
2279 0 134.322 12.3435 1658 121.105 582.929 425.426
2280 0 139.551 13.3643 1865 119.185 581.18 429.788
2281 0 140.556 13.5747 1908 137.321 579.193 430.719
2282 1 152.334 11.7505 1790 121.795 581.597 435.714
2283 0 156.349 12.1012 1892 123.857 581.144 426.516
2284 1 90.193 14.8792 1342 115.659 579.771 461.21
2285 0 90.193 14.9679 1350 127.033 577.749 461.227
2286 0 91.2599 10.6728 974 123.71 578.203 455.554
2287 0 96.1639 14.7353 1417 117.847 577.538 447.273
2288 0 93.1714 10.2285 953 126.012 576.027 448.812
2289 0 94.2349 9.52938 898 124.232 575.855 457.178
2290 0 104.25 12.2782 1280 121.453 573.98 449.422
2291 0 112.323 13.8619 1557 117.372 575.418 450.719
2292 0 112.326 13.8793 1559 128.58 575.43 450.606
2293 0 117.203 12.0304 1410 120.923 575.16 441.365
2294 0 122.236 14.4065 1761 117.412 574.596 438.241
2295 0 128.299 14.2246 1825 116.639 575.213 436.253
2296 1 246.6 14.2173 3506 121.201 574.224 383.681
2297 0 251.572 13.7734 3465 123.822 574.532 372.182
2298 1 74.1278 10.9945 815 117.379 574.414 459.983
2299 0 74.3953 15.2563 1135 113.013 574.767 454.961
2300 0 75.1144 14.2583 1071 112.956 574.705 457.253
2301 0 81.3486 13.8171 1124 114.933 574.091 453.157
2302 0 82.2517 12.4982 1028 117.619 574.836 453.525
2303 0 89.2017 14.7979 1320 113.119 574.747 452.836
2304 0 86.2783 11.9381 1030 120.05 575.285 448.819
2305 0 88.2618 13.2334 1168 118.573 576.511 449.718
2306 0 92.3261 18.6513 1722 111.74 576.165 444.034
2307 0 91.3221 13.2717 1212 122.177 577.804 447.002
2308 0 94.1965 15.4358 1454 120.514 577.699 438.906
2309 0 97.3304 13.5312 1317 124.248 578.864 442.752
2310 0 101.119 15.1406 1531 121.035 578.914 442.668
2311 0 103.247 15.3322 1583 121.673 579.27 440.196
2312 0 108.212 16.6986 1807 119.302 580.457 438.38
2313 0 111.226 13.8547 1541 124.813 580.919 437.9
2314 0 112.326 12.9266 1452 124.171 580.826 439.243
2315 0 113.311 15.2325 1726 121.953 580.899 434.846
2316 0 117.198 12.5344 1469 126.871 581.104 432.288
2317 0 121.399 14.0281 1703 123.934 582.325 436.257
2318 0 128.158 13.9827 1792 123.319 582.137 435.514
2319 0 138.721 16.2484 2254 117.725 581.844 436.094
2320 0 137.185 15.162 2080 121.883 582.003 432.374
2321 0 142.248 14.306 2035 123.372 581.47 427.378
2322 0 148.305 13.061 1937 127.413 580.73 425.642
2323 1 88.134 12.7873 1127 123.326 579.941 460.232
2324 0 90.1423 10.1617 916 124.245 579.958 455.843
2325 0 96.2402 16.0328 1543 116.404 580.134 453.708
2326 0 96.127 13.5862 1306 120.778 579.53 455.217
2327 0 99.2187 13.0419 1294 123.888 577.966 448.934
2328 0 103.162 15.432 1592 119.857 577.227 448.277
2329 0 108.243 13.599 1472 123.255 576.572 448.751
2330 0 109.375 13.8606 1516 126.525 575.896 443.562
2331 0 112.267 13.3522 1499 127.093 575.487 442.694
2332 0 116.368 15.1588 1764 122.638 575.327 440.416
2333 0 118.17 12.1181 1432 126.404 574.8 443.242
2334 0 122.223 15.529 1898 120.848 575.689 430.97
2335 0 126.249 14.0595 1775 122.402 574.589 429.372
2336 0 130.415 11.8391 1544 126.076 575.58 428.271
2337 0 134.354 14.7893 1987 121.378 574.627 427.176
2338 0 139.446 13.1091 1828 124.962 573.894 420.996
2339 0 141.358 15.1601 2143 122.358 574.07 416.167
2340 0 147.516 14.9407 2204 122.826 574.454 415.681
2341 1 83.3098 12.2915 1024 122.19 574.863 448.585
2342 0 87.1419 16.9953 1481 113.904 575.033 450.613
2343 0 88.249 14.765 1303 118.083 575.11 447.676
2344 0 90.3756 12.5144 1131 125.993 575.56 444.728
2345 0 92.365 13.4033 1238 125.335 577.269 438.417
2346 0 94.3037 12.7036 1198 124.316 576.831 440.432
2347 0 102.283 15.5158 1587 119.34 576.812 437.489
2348 0 100.621 13.7646 1385 122.867 576.976 436.568
2349 0 106.294 14.0271 1491 122.714 578.452 434.939
2350 0 107.486 15.1741 1631 120.993 579.838 434.401
2351 0 110.492 14.5803 1611 121.718 580.522 432.112
2352 1 211.587 14.0179 2966 126.746 580.241 388.526
2353 0 211.466 11.9736 2532 128.412 581.367 388.42
2354 1 123.412 15.9952 1974 118.134 581.991 425.159
2355 0 127.26 13.7592 1751 121.477 583.051 421.509
2356 0 135.458 13.1037 1775 121.303 583.526 421.256
2357 1 74.1561 10.9903 815 119.297 583.712 454.967
2358 0 80.1198 12.5312 1004 119.916 582.263 451.037
2359 0 84.2598 15.025 1266 115.313 583.227 451.145
2360 0 85.2807 12.4178 1059 117.665 583.254 450.551
2361 0 90.1384 13.0355 1175 115.412 582.623 453.397
2362 0 94.1649 15.5472 1464 110.13 582.625 456.398
2363 0 93.2626 13.8105 1288 114.28 582.412 454.856
2364 0 93.2626 13.8426 1291 136.223 582.409 454.826
2365 0 101.215 12.3302 1248 117.617 581.061 448.556
2366 0 109.237 12.0564 1317 117.73 580.853 450.642
2367 0 110.252 15.4827 1707 112.366 580.492 450.701
2368 0 115.2 15.4514 1780 112.268 579.296 438.733
2369 0 120.548 12.5344 1511 114.353 577.634 446.918
2370 1 65.2164 12.5735 820 113.389 577.043 465.79
2371 0 66.059 10.6571 704 118.048 575.77 464.286
2372 0 65.1798 11.6601 760 117.234 576.707 463.321
2373 0 69.1316 13.4671 931 115.005 575.476 460.015
2374 0 73.1431 14.5332 1063 112.842 574.81 459.081
2375 0 75.1069 14.7656 1109 112.951 574.668 458.793
2376 0 80.111 16.0652 1287 110.186 573.171 457.256
2377 0 80.111 15.9653 1279 129.697 572.173 457.141
2378 0 79.1034 13.9059 1100 136.635 571.165 454.455
2379 0 87.1474 13.7813 1201 113.374 573.398 452.811
2380 0 90.2194 13.1014 1182 115.338 573.76 450.189
2381 0 91.1894 16.6905 1522 109.99 573.084 449.355
2382 0 95.158 15.3324 1459 111.727 573.844 447.4
2383 0 99.2667 15.9268 1581 111.576 574.004 445.116
2384 0 99.193 13.8014 1369 117.654 573.604 443.656
2385 0 103.154 13.601 1403 118.17 573.566 441.834
2386 0 103.072 12.2342 1261 121.51 574.58 438.617
2387 0 111.189 14.6058 1624 117.565 573.953 433.779
2388 0 110.117 12.9408 1425 121.625 575.727 433.272
2389 0 113.295 15.314 1735 115.633 575.851 432.395
2390 0 112.113 11.1762 1253 123.3 575.968 424.18
2391 0 120.255 10.6108 1276 121.292 578.125 429.281
2392 0 126.124 13.9149 1755 118.018 577.949 421.98
2393 1 68.0742 11.5756 788 113.896 577.673 453.607
2394 0 73.1629 13.0257 953 114.922 578.156 452.768
2395 0 74.088 16.7368 1240 110.547 577.838 451.418
2396 0 81.3076 15.2138 1237 111.326 579.177 449.217
2397 0 81.125 13.4854 1094 114.858 577.663 447.354
2398 0 85.1601 12.7407 1085 114.606 580.006 447.174
2399 0 90.1528 18.036 1626 107.775 580.199 439.639
2400 0 92.1948 13.4281 1238 112.485 580.749 448.18
2401 0 91.1614 11.0573 1008 117.818 580.643 446.381
2402 0 99.2031 13.1347 1303 113.835 581.325 447.705
2403 0 99.2132 12.5588 1246 115.256 581.038 451.923
2404 0 103.154 13.2133 1363 115.909 580.335 444.737
2405 0 106.355 13.6524 1452 113.661 579.666 451.977
2406 0 112.225 12.3323 1384 115.868 578.858 448.728
2407 0 117.169 12.6655 1484 115.597 578.24 443.5
2408 0 122.386 11.0143 1348 118.698 579.946 439.933
2409 0 124.553 11.8745 1479 116.139 577.372 444.152
2410 0 132.387 15.4774 2049 112.692 577.517 440.674
2411 0 139.452 11.2368 1567 118.209 576.389 433.317
2412 0 146.484 13.8104 2023 113.838 576.415 426.752
2413 0 147.364 11.7125 1726 117.458 575.249 426.036
2414 1 86.1315 12.0513 1038 112.497 574.482 457.865
2415 0 90.3002 12.0487 1088 114.048 573.499 458.421
2416 0 95.6629 14.6765 1404 110.946 573.917 455.623
2417 0 97.3422 13.7248 1336 114.226 573.097 453.225
2418 0 99.379 13.5039 1342 112.542 572.981 458.154
2419 0 101.357 11.0698 1122 117.329 572.83 446.565
2420 0 108.686 13.9669 1518 112.752 572.424 445.047
2421 0 108.686 13.9485 1516 129.503 571.444 444.982
2422 0 113.43 15.7101 1782 111.857 572.533 439.773
2423 0 117.75 12.8747 1516 115.762 572.872 442.891
2424 0 119.296 14.0909 1681 115.205 572.648 433.271
2425 0 121.392 12.9498 1572 116.457 573.274 435.069
2426 0 129.396 12.4811 1615 116.322 573.801 435.309
2427 0 133.403 12.8483 1714 116.304 574.566 426.335
2428 0 137.417 17.2104 2365 109.489 574.024 428.891
2429 0 140.387 16.2266 2278 112.255 575.135 420.316
2430 0 144.477 13.6977 1979 115.924 575.513 426.918
2431 0 147.26 11.585 1706 120.428 576.128 420.559
2432 0 153.344 17.7966 2729 110.901 577.152 420.041
2433 0 161.06 16.0686 2588 112.981 577.477 419.85
2434 0 164.296 18.0407 2964 111.366 578.08 419.171
2435 0 166.436 10.2202 1701 125.584 578.941 400.29
2436 0 174.346 14.0066 2442 118.448 577.752 407.867
2437 0 173.505 11.4521 1987 121.393 579.219 411.838
2438 1 106.168 13.1773 1399 115.057 579.041 444.525
2439 0 106.281 12.561 1335 119.107 580.124 443.304
2440 0 112.166 14.113 1583 116.018 579.009 438.075
2441 0 112.265 12.1855 1368 120.448 581.099 433.216
2442 0 118.567 11.4365 1356 120.934 580.044 438.753
2443 0 124.396 14.6628 1824 115.425 581.095 439.08
2444 0 126.269 11.6259 1468 121.06 579.891 439.414
2445 0 133.565 10.946 1462 121.575 580.92 432.676
2446 1 78.117 6.98952 546 126.399 578.537 456.85
2447 0 80.1543 11.0412 885 121.521 579.269 456.945
2448 0 88.2002 12.1088 1068 121.062 577.828 459.835
2449 0 89.1462 11.5541 1030 122.85 577.364 460.107
2450 0 93.1709 12.8903 1201 119.914 576.708 462.269
2451 0 96.0901 11.9367 1147 122.661 575.659 455.692
2452 0 100.17 16.5519 1658 113.776 575.525 460.171
2453 0 101.291 13.2983 1347 121.186 574.24 452.916
2454 0 105.142 15.208 1599 117.295 575.148 455.442
2455 0 109.414 14.1572 1549 121.257 574.663 447.881
2456 0 113.363 18.6304 2112 112.424 573.245 452.441
2457 0 116.184 15.0021 1743 119.94 573.336 446.273
2458 0 120.41 16.3442 1968 117.347 573.155 436.71
2459 0 121.529 13.9473 1695 124.126 572.648 428.553
2460 0 121.529 13.8403 1682 147.432 571.67 428.471
2461 0 126.358 15.1474 1914 120.749 572.329 433.411
2462 0 127.231 11.9467 1520 124.371 572.337 436.653
2463 0 134.226 15.4664 2076 122.896 572.568 425.822
2464 0 136.397 14.0326 1914 125.684 572.439 422.012
2465 0 139.428 12.4079 1730 127.08 572.256 422.949
2466 0 141.181 12.2537 1730 126.369 573.053 411.814
2467 0 144.15 10.1561 1464 127.523 573.165 422.391
2468 1 90.2121 13.0138 1174 118.765 573.904 444.923
2469 0 89.1853 14.8231 1322 117.03 573.932 442.216
2470 0 92.1029 14.2341 1311 118.215 574.128 440.252
2471 0 95.1628 15.9621 1519 114.882 574.936 437.737
2472 0 96.1632 14.5066 1395 120.366 575.001 425.047
2473 0 101.249 11.9211 1207 124.122 575.392 428.359
2474 0 103.146 14.2322 1468 120.234 576.269 430.253
2475 0 107.289 14.8664 1595 118.066 576.528 432.451
2476 0 108.218 11.0148 1192 125.596 577.657 423.66
2477 0 113.279 13.4446 1523 122.489 578.172 426.704
2478 0 118.246 14.8419 1755 119.462 578.468 425.171
2479 0 121.183 14.2347 1725 121.66 577.827 419.295
2480 0 124.251 13.5049 1678 123.344 579.671 421.747
2481 0 128.224 12.5172 1605 126.516 580.022 414.699
2482 0 134.381 15.5751 2093 118.066 580.467 430.312
2483 1 82.3473 10.6743 879 119.308 580.191 455.085
2484 0 85.27 12.5953 1074 114.108 581.175 453.448
2485 0 86.5159 11.8591 1026 117.214 580.194 448.699
2486 0 92.4304 15.1573 1401 114.403 580.605 454.619
2487 0 92.5475 14.5547 1347 117.208 580.266 451.484
2488 0 94.4423 12.0179 1135 122.671 580.039 447.578
2489 0 100.407 15.726 1579 115.658 579.673 448.576
2490 0 101.283 14.0596 1424 118.199 579.18 447.504
2491 0 107.408 13.3137 1430 120.517 578.911 440.294
2492 0 111.519 13.8004 1539 119.235 578.216 443.872
2493 0 113.379 14.5706 1652 119.472 577.659 443.989
2494 0 116.301 11.8228 1375 124.964 577.832 436.428
2495 0 121.454 15.4956 1882 117.801 575.492 442.169
2496 0 123.351 14.0332 1731 120.109 575.768 440.059
2497 0 128.337 12.4048 1592 122.841 574.67 430.033
2498 0 134.395 14.2565 1916 119.76 574.937 430.456
2499 1 76.235 13.6814 1043 111.719 573.392 465.751
2500 0 73.3443 9.42132 691 121.376 574.794 459.823
2501 0 78.2643 15.141 1185 112.309 573.729 459.21
2502 0 84.2144 12.7413 1073 113.271 574.112 461.775
2503 0 82.2846 10.9619 902 118.755 573.899 454.659
2504 0 86.2131 11.8891 1025 117.745 573.529 451.058
2505 0 87.166 14.4552 1260 114.438 573.502 448.449
2506 0 91.4348 16.3176 1492 112.09 573.239 442.156
2507 0 91.2506 11.5616 1055 120.472 574.561 444.01
2508 0 94.2112 15.5714 1467 115.024 573.549 442.714
2509 0 94.2112 15.4865 1459 122.103 572.552 442.57
2510 0 101.352 13.4284 1361 117.841 575.101 438.868
2511 0 102.498 13.1612 1349 117.87 576.246 439.882
2512 0 104.312 14.9743 1562 116.052 576.346 434.179
2513 0 108.397 15.923 1726 113.879 576.38 435.99
2514 0 112.327 14.5557 1635 115.846 575.681 432.135
2515 0 114.256 13.5748 1551 116.801 577.209 426.535
2516 0 118.346 14.7787 1749 114.455 577.061 425.496
2517 0 123.277 14.9338 1841 113.078 577.983 424.807
2518 0 121.272 14.5458 1764 113.722 579.122 429.116
2519 0 126.194 12.7106 1604 117.258 579.535 420.83
2520 1 73.1238 12.6224 923 113.358 580.769 448.593
2521 0 70.3421 10.8896 766 115.745 580.124 450.696
2522 0 77.1623 15.1369 1168 109.862 581.218 450.273
2523 0 78.0961 10.6023 828 113.752 579.633 457.525
2524 0 80.104 10.0494 805 116.678 580.462 452.932
2525 1 158.614 10.0432 1593 119.124 580.197 418.906
2526 0 157.576 9.54459 1504 134.39 579.249 417.058
2527 1 241.402 4.03891 975 124.28 579.794 422.58
2528 1 88.2758 14.2395 1257 110.029 579.512 445.542
2529 0 96.0488 12.4208 1193 111.7 578.91 444.052
2530 0 98.3176 13.6496 1342 110.822 579.336 444.484
2531 0 95.184 11.2834 1074 114.411 577.954 442.299
2532 0 105.417 9.71379 1024 114.949 577.622 445.37
2533 1 161.601 14.7957 2391 109.279 576.413 416.622
2534 1 115.238 12.7302 1467 110.691 575.165 436.769
2535 0 121.36 19.916 2417 100.999 575.387 443.301
2536 0 120.392 16.2054 1951 106.82 575.243 433.473
2537 0 127.457 10.2388 1305 114.187 574.296 435.756
2538 0 137.464 12.9998 1787 111.46 574.538 425.189
2539 1 81.2749 12.5008 1016 109.126 573.096 453.051
2540 0 83.2723 11.9127 992 110.207 572.448 452.716
2541 0 88.433 16.7924 1485 103.193 572.585 454.003
2542 0 87.1909 9.57669 835 114.186 572.126 447.395
2543 0 92.2671 10.7947 996 111.992 571.363 455.49
2544 0 97.2263 14.4611 1406 106.461 572.44 454.854
2545 0 101.225 15.9447 1614 105.927 572.858 453.455
2546 0 99.2146 16.812 1668 106.212 573.262 447.463
2547 0 105.178 12.7118 1337 112.217 573.249 446.77
2548 0 107.315 13.4836 1447 112.262 572.951 441.42
2549 0 110.136 16.752 1845 108.222 573.325 438.568
2550 0 115.249 16.3993 1890 108.114 574.214 437.387
2551 0 119.184 15.3292 1827 110.01 573.639 429.77
2552 0 121.354 14.0498 1705 112.916 575.395 427.379
2553 0 124.32 15.0097 1866 111.308 574.268 426.312
2554 0 129.458 13.8037 1787 113.35 575.956 426.852
2555 0 129.458 13.881 1797 143.625 577.951 426.961
2556 1 74.079 13.6746 1013 110.468 576.334 450.871
2557 0 77.0942 9.66351 745 114.599 576.765 455.293
2558 0 79.1931 15.759 1248 107.49 578.943 449.235
2559 0 83.2334 12.7233 1059 110.382 578.742 455.301
2560 0 86.2001 11.0441 952 115.978 578.942 445.766
2561 0 86.1589 15.1 1301 110.335 580.328 449.275
2562 0 91.3159 17.6421 1611 108.259 579.335 445.163
2563 0 94.2735 16.6112 1566 110.473 581.468 445.108
2564 0 97.3161 15.0438 1464 112.169 581.031 447.724
2565 0 100.127 14.3818 1440 113.942 581.51 445.362
2566 0 102.252 14.5132 1484 114.509 580.687 441.185
2567 0 107.315 17.4346 1871 108.967 580.147 447.539
2568 0 108.303 18.0328 1953 109.891 580.395 441.489
2569 0 113.253 15.3903 1743 114.079 579.419 444.684
2570 0 121.506 12.3204 1497 113.944 579.17 450.072
2571 0 119.337 14.5051 1731 113.359 579.991 444.239
2572 0 124.166 12.0242 1493 117.939 578.931 439.174
2573 0 132.496 16.3023 2160 112.739 578.745 437.335
2574 0 132.392 11.7228 1552 121.962 577.42 426.916
2575 0 140.406 12.9696 1821 117.936 577.211 437.758
2576 1 86.2815 10.6512 919 113.843 575.718 461.423
2577 0 87.6271 11.8913 1042 114.066 575.346 458.229
2578 0 90.2294 12.4571 1124 114.531 574.137 453.123
2579 0 90.1797 13.085 1180 115.209 574.568 444.522
2580 0 96.215 12.8254 1234 113.865 574.206 450.369
2581 0 99.1655 15.0254 1490 108.949 572.356 454.646
2582 0 99.1582 12.3943 1229 114.106 572.732 446.232
2583 0 104.227 12.3001 1282 112.554 572.517 452.879
2584 0 102.153 10.9248 1116 114.692 571.952 452.699
2585 0 107.381 12.153 1305 114.083 570.942 441.52
2586 0 110.304 12.6469 1395 113.148 571.761 441.865
2587 1 126.273 9.36861 1183 116.417 571.609 439.571
2588 0 123.244 9.63126 1187 114.437 572.965 448.826
2589 0 124.319 11.0602 1375 114.447 572.975 439.837
2590 0 131.64 14.0611 1851 110.791 572.715 432.601
2591 0 133.413 9.06957 1210 117.423 574.449 435.255
2592 0 130.366 13.3163 1736 114.798 574.687 422.419
2593 1 142.548 11.105 1583 116.765 575.188 421.474
2594 1 79.0783 14.8966 1178 109.585 576.045 448.844
2595 0 86.2001 16.5429 1426 105.546 574.78 447.914
2596 0 85.136 13.1202 1117 111.591 575.343 447.785
2597 0 92.1782 17.1841 1584 104.682 575.179 440.883
2598 0 93.0678 13.1087 1220 109.714 576.743 445.425
2599 0 99.1166 13.3277 1321 110.308 578.398 440.406
2600 0 96.3164 13.4453 1295 110.497 578.611 442.039
2601 0 101.202 14.8811 1506 108.249 578.655 439.817
2602 0 104.206 15.3925 1604 108.547 579.287 435.505
2603 0 106.302 11.2415 1195 115.482 579.898 429.575
2604 0 111.24 14.2035 1580 109.981 579.661 436.872
2605 0 112.141 13.0372 1462 110.851 579.943 433.902
2606 0 117.127 12.7126 1489 110.357 579.101 429.79
2607 0 128.18 10.2512 1314 115.419 579.524 434.374
2608 0 126.296 10.9822 1387 115.831 579.18 428.416
2609 0 132.409 9.47818 1255 117.056 579.243 432.869
2610 0 143.395 12.483 1790 112.915 579.003 428.26
2611 1 79.4874 12.0271 956 115.771 578.934 455.086
2612 0 85.1717 12.1989 1039 112.108 578.543 455.044
2613 0 86.0833 18.7725 1616 104.056 578.236 455.587
2614 0 91.2714 13.4763 1230 112.584 577.507 453.185
2615 0 90.2542 10.7696 972 118.629 576.196 451.198
2616 0 97.2535 9.2953 904 117.288 575.675 456.298
2617 0 101.365 15.9128 1613 108.148 575.449 453.759
2618 0 108.418 19.1574 2077 103.943 574.29 450.91
2619 0 110.67 15.6591 1733 108.953 573.527 439.232
2620 0 111.553 14.065 1569 111.866 573.975 442.226
2621 0 119.137 17.0057 2026 107.227 573.23 441.939
2622 0 123.36 13.489 1664 112.067 572.807 441.832
2623 0 130.577 16.1514 2109 108.851 571.954 434.524
2624 0 131.162 14.3181 1878 113.137 572.053 431.811
2625 0 136.288 18.6883 2547 106.114 572.216 432.061
2626 0 142.373 15.9792 2275 110.06 571.632 426.677
2627 0 148.591 15.0278 2233 110.419 571.737 422.149
2628 1 82.1518 13.0977 1076 109.044 571.767 453.423
2629 0 89.3842 13.7273 1227 107.244 572.591 448.463
2630 0 91.3138 14.7294 1345 106.331 572.486 445.094
2631 0 91.1516 13.7792 1256 108.678 572.766 434.607
2632 0 94.4218 18.428 1740 100.837 572.508 447.589
2633 0 96.2696 11.9664 1152 111.003 573.766 434.624
2634 0 102.254 12.156 1243 112.043 574.848 436.307
2635 0 106.574 15.3603 1637 106.213 574.756 437.21
2636 0 109.523 16.9097 1852 104.768 575.489 435.949
2637 0 112.523 13.855 1559 109.242 576.486 433.014
2638 0 116.227 18.6876 2172 102.254 575.789 437.21
2639 0 118.259 13.9102 1645 110.638 577.495 427.359
2640 0 120.253 12.5236 1506 113.333 577.753 427.216
2641 1 227.625 13.4651 3065 119.986 578.025 368.049
2642 1 154.67 13.2863 2055 107.687 580.985 416.9
2643 0 159.412 12.1446 1936 108.049 581.678 415.374
2644 0 166.927 19.4516 3247 101.702 581.735 409.975
2645 0 167.933 18.0846 3037 101.906 580.403 421.106
2646 0 177.957 20.3139 3615 102.124 580.056 400.403
2647 0 171.638 14.6996 2523 109.891 579.614 401.321
2648 0 179.194 16.0161 2870 110.241 579.391 396.769
2649 1 188.893 14.7544 2787 111.831 578.323 401.749
2650 0 196.494 15.7816 3101 109.451 577.086 407.754
2651 0 200.974 12.1707 2446 116.375 577.405 398.318
2652 0 317.574 26.8787 8536 100.584 575.644 339.771
2653 1 267.078 9.76869 2609 119.465 575.554 387.76
2654 0 272.083 10.0888 2745 118.733 574.713 383.389
2655 0 283.338 12.2257 3464 116.017 573.101 368.105
2656 1 236.406 13.3499 3156 114.876 572.927 377.58
2657 0 249.322 14.1103 3518 114.213 572.387 370.284
2658 1 190.801 11.3731 2170 117.183 571.158 387.615
2659 0 202.688 13.0151 2638 113.136 571.396 390.788
2660 0 211.547 13.7983 2919 109.568 570.583 383.228
2661 0 214.912 15.8437 3405 106.122 570.44 389.61
2662 0 223.902 13.8721 3106 109.154 570.452 378.725
2663 0 228.503 14.6169 3340 107.986 570.636 378.017
2664 0 241.136 20.76 5006 101.51 569.94 384.681
2665 0 246.642 19.2222 4741 105.31 569.89 361.057
2666 0 252.968 18.022 4559 106.789 570.004 355.707
2667 0 261.83 15.0174 3932 109.202 570.158 362.035
2668 0 265.176 14.0963 3738 110.827 571.089 359.945
2669 0 260.56 8.10947 2113 117.06 571.523 369.304
2670 0 259.87 13.9377 3622 109.903 571.477 368.959
2671 0 257.854 11.0101 2839 109.725 572.044 387.319
2672 1 227.144 20.7137 4705 100.858 572.495 386.948
2673 0 230.652 20.7325 4782 103 574.043 367.221
2674 0 236.986 11.9965 2843 114.135 574.379 362.592
2675 0 247.934 13.911 3449 111.381 575.159 365.482
2676 0 251.847 18.2968 4608 107.438 575.005 348.034
2677 0 265.727 17.8567 4745 105.188 575.132 357.632
2678 0 272.967 21.8378 5961 101.267 576.244 355.155
2679 0 280.134 14.5752 4083 109.589 577.007 341.725
2681 0 361.485 28.1367 10171 95.6437 576.055 298.102
2683 0 327.212 22.707 7430 100.351 578.436 315.587
2684 0 333.409 23.5056 7837 100.233 577.263 302.27
2685 0 283.717 22.17 6290 99.3434 577.846 328.907
2686 0 284.868 19.8302 5649 102.991 578.166 345.62
2687 0 282.236 14.4312 4073 111.642 578.66 332.317
2688 0 367.476 20.2707 7449 105.065 577.886 295.463
2689 0 214.879 7.70202 1655 114.473 576.222 381.394
2690 0 226.828 12.1237 2750 109.223 577.388 374.389
2691 0 236.856 10.7829 2554 109.849 576.865 379.558
2692 0 247.131 16.2545 4017 103.012 576.653 375.568
2693 0 249.681 12.568 3138 108.532 576.642 371.687
2694 0 258.201 13.1138 3386 108.117 575.788 358.974
2695 1 25.0252 8.11181 203 87.6404 576.67 483.897
2696 0 24.04 7.65393 184 86.1685 577.261 483.946
2697 0 20.1076 10.9412 220 84.0682 575.859 486.509
2698 0 26.1879 9.77552 256 80.7188 576.562 491.613
2699 0 23.1128 7.22543 167 84.4192 576.305 488.359
2700 0 26.0212 8.03192 209 83.6316 574.627 485.321
2701 0 23.0583 3.77304 87 88.046 574.253 488.506
2702 0 339.823 34.5062 11726 79.2775 570.887 325.405
2703 0 357.619 25.8152 9232 83.5981 570.227 305.53
2704 0 368.499 23.0828 8506 85.4072 570.37 292.051
2705 0 366.5 14.4557 5298 92.7865 569.887 327.941
2706 0 371.804 9.67176 3596 92.3826 570.999 364.167
2707 0 364.082 7.7153 2809 92.8184 571.551 376.305
2708 0 367.316 11.4343 4200 93.4181 570.581 328.543
2710 0 219.319 13.1407 2882 88.3442 571.644 376.451
2711 0 224.834 14.0059 3149 88.4706 571.943 368.627
2715 0 279.476 23.7408 6635 81.9605 572.761 364.35
2716 0 277.152 19.8772 5509 85.1467 573.861 359.483
2717 0 284.473 21.5873 6141 84.5945 573.999 352.032
2718 0 284.109 17.0674 4849 87.2916 574.229 356.935
2719 0 292.773 25.8665 7573 81.944 574.367 344.092
2720 1 240.711 6.83393 1645 92.4632 576.117 404.829
2721 0 237.078 4.64826 1102 95.7005 576.122 400.392
2722 0 240.965 14.0394 3383 88.2314 575.939 382.617
2723 0 245.686 13.3585 3282 89.4159 576.663 371.57
2724 0 254.956 18.4934 4715 85.1194 577.633 380.017
2725 0 264.208 20.904 5523 84.0878 578.09 369.433
2726 0 366.348 31.077 11385 79.6448 576.79 321.658
2729 0 376.851 27.8572 10498 79.7447 577.428 312.434
2730 0 305.784 21.3844 6539 84.0029 577.437 334.023
2731 0 311.1 18.4603 5743 87.0204 578.454 340.964
2732 0 324.284 23.5812 7647 83.3422 578.114 327.099
2733 0 338.111 31.4275 10626 79.4948 577.379 329.629
2734 0 344.821 30.7058 10588 79.8001 576.516 323.023
2735 1 314.811 10.8478 3415 93.9318 577.173 355.103
2736 0 312.89 15.4591 4837 90.2812 577.324 356.319
2737 0 307.251 8.19201 2517 96.9309 576.367 363.189
2738 0 311.102 16.0944 5007 88.6629 575.847 375.804
2739 0 313.164 14.312 4482 93.3579 574.774 337.339
2741 0 338.555 29.0765 9844 82.8868 573.709 328.233
2742 0 345.052 25.515 8804 85.3403 572.913 307.715
2743 0 355.104 19.2817 6847 89.5918 573.315 315.976
2744 0 366.215 24.7095 9049 85.0491 572.509 339.419
2747 0 229.223 10.8628 2490 93.8293 571.101 386.237
2748 0 234.714 11.7888 2767 95.3321 570.877 370.606
2749 0 243.817 18.6533 4548 88.5642 570.049 380.09
2750 0 250.145 15.4591 3867 91.001 570.881 373.538
2751 0 255.912 10.7693 2756 97.6938 572.483 349.962
2752 0 266.582 17.1467 4571 87.6957 571.472 386.304
2753 0 275.266 18.7309 5156 88.7785 572.126 338.387
2754 0 285.837 25.406 7262 89.7395 571.854 356.473
2755 0 295.278 26.9272 7951 89.2732 571.352 338.597
2756 0 299.332 22.1259 6623 93.848 572.084 324.056
2757 0 309.124 24.0939 7448 93.4671 572.585 309.411
2758 0 316.673 20.087 6361 97.5051 574.21 316.751
2759 0 323.695 17.1211 5542 99.8768 575.119 324.943
2760 0 333.829 15.7596 5261 101.4 575.332 308.588
2761 0 340.749 12.8012 4362 105.668 576.871 281.673
2762 1 258.76 13.6381 3529 96.4239 577.556 382.651
2763 0 264.66 11.7622 3113 100.912 577.634 359.426
2764 0 271.71 11.7846 3202 101.589 579.159 346.652
2765 1 305.568 24.0307 7343 87.5758 577.787 308.454
2766 0 307.101 32.5886 10008 83.3593 577.842 339.788
2767 0 306.985 18.0302 5535 94.103 579.12 310.04
2768 0 316.085 24.8478 7854 88.8582 579.893 321.827
2769 0 317.158 12.2746 3893 100.334 581.226 309.461
2770 0 329.082 28.0052 9216 86.1134 580.397 328.411
2771 0 342.506 23.0916 7909 90.0644 579.971 300.049
2772 0 350.064 25.2611 8843 88.6239 579.486 310.773
2773 0 358.906 23.8753 8569 90.0153 579.362 297.218
2778 0 161.408 14.324 2312 92.0082 578.198 419.613
2779 0 165.691 12.4207 2058 91.1929 577.978 426.877
2780 0 170.431 12.9085 2200 94.815 577.635 409.603
2781 0 176.254 11.0579 1949 97.43 576.159 400.06
2782 0 184.325 8.70201 1604 101.324 575.444 394.434
2783 0 188.456 14.1996 2676 91.099 575.253 401.295
2784 1 130.349 9.85815 1285 88.8623 574.438 445.356
2785 0 132.545 17.9336 2377 83.7459 574.706 439.599
2786 0 136.301 10.8217 1475 89.2983 574.395 434.554
2787 0 142.333 9.267 1319 91.9977 575.578 416.467
2788 0 144.313 11.288 1629 89.4917 574.786 426.924
2789 0 147.445 12.4317 1833 89.252 574.028 414.68
2790 0 258.973 25.5471 6616 80.8256 572.579 381.455
2791 0 261.585 33.7328 8824 77.1221 571.318 384.226
2792 0 267.121 32.5545 8696 78.56 572.044 378.934
2793 0 259.766 31.2859 8127 80.2225 571.401 365.952
2794 1 173.292 21.8476 3786 84.5248 572.686 394.086
2795 0 176.539 25.1673 4443 82.9831 572.674 404.665
2796 0 178.8 18.2942 3271 86.2232 573.487 413.272
2797 0 187.356 20.485 3838 84.363 573.348 416.675
2798 0 180.281 11.1049 2002 92.7472 575.1 406.719
2799 0 291.008 24.3877 7097 87.7066 574.402 337.236
2800 0 308.013 24.6613 7596 87.3449 574.652 330.346
2801 0 301.525 22.7676 6865 89.4109 575.074 334.316
2802 1 206.503 15.1475 3128 92.8063 575.644 374.444
2803 0 214.611 17.986 3860 88.9741 575.936 394.518
2804 0 218.762 19.1852 4197 89.493 576.452 385.539
2805 0 333.333 34.263 11421 83.5912 575.451 318.473
2806 0 340.468 20.4865 6975 91.9892 576.984 292.377
2807 0 345.124 23.748 8196 90.3274 577.14 316.035
2808 0 352.462 29.433 10374 86.3889 577.466 328.35
2809 1 245.681 18.2839 4492 93.2896 579.25 376.619
2810 0 246.985 17.8513 4409 94.4566 579.368 376.054
2811 0 41.1384 17.0887 703 81.0356 580.691 471.299
2812 0 47.0792 15.8244 745 79.4752 581.74 475.183
2813 0 40.0759 8.18447 328 87.8323 582.329 468.89
2814 0 41.1516 8.31074 342 88.1404 583.354 469.266
2815 0 42.2913 3.83057 162 93.5123 583.173 468.488
2816 0 37.6013 25.2119 948 78.1603 581.481 470.435
2817 0 285.933 28.5172 8154 91.9774 580.889 350.527
2818 0 289.918 22.765 6600 96.8976 581.02 349.46
2819 0 293.703 17.8888 5254 99.5992 580.64 371.826
2820 0 292.702 11.1513 3264 110.744 580.832 349.654
2821 0 297.25 14.6207 4346 106.022 579.383 359.613
2822 1 269.979 11.5824 3127 109.865 580.587 367.484
2823 0 271.275 12.8025 3473 109.647 579.456 352.12
2824 0 273.389 14.4629 3954 104.348 578.568 384.227
2825 0 274.108 18.2994 5016 103.011 578.333 351.563
2826 0 279.371 17.7613 4962 104.09 577.269 354.994
2827 0 286.205 11.8936 3404 111.822 575.809 334.908
2828 0 294.066 25.2698 7431 96.7532 575.11 355.81
2829 0 303.55 21.8218 6624 99.7418 574.662 348.195
2830 1 43.5887 8.37372 365 95.5233 574.964 478.896
2831 0 45.9556 16.6465 765 86.8274 575.013 475.465
2832 1 117.966 14.5126 1712 91.6069 574.545 446.876
