time division length width area intensity CMx CMy
0 0 66.1513 15.268 1010 124.612 665.456 461.948
1 1 37.0534 12.0097 445 128.604 664.811 477.265
2 0 35.2579 11.4301 403 122.524 664.844 477.697
3 0 40.0453 13.7344 550 115.929 663.309 476.315
4 0 40.0671 12.2045 489 126.335 662.74 476.822
5 0 40.0735 12.6268 506 124.409 661.172 476.211
6 0 43.075 18.8276 811 113.269 659.882 477.448
7 0 42.0819 14.5668 613 144.512 657.762 474.587
8 0 46.228 14.6015 675 119.507 659.87 475.532
9 0 46.0251 12.6887 584 128.921 658.724 472.556
10 0 46.1458 17.0763 788 118.133 657.928 472.617
11 0 48.132 15.8315 762 122.53 657.306 468.112
12 0 50.0165 17.9941 900 116.69 657.88 470.45
13 0 51.1834 18.7561 960 114.123 656.968 467.099
14 0 54.1592 14.1804 768 124.581 657.25 464.835
15 0 53.0507 15.6643 831 123.436 657.07 464.01
16 0 51.1869 13.0502 668 126.805 657.492 463.013
17 0 56.2361 14.5103 816 121.43 656.627 460.976
18 0 58.0494 16.0553 932 125.723 656.65 455.917
19 0 61.0567 16.1325 985 122.107 655.519 454.356
20 0 64.1761 15.0679 967 122.866 657.327 455.106
21 0 66.1249 16.121 1066 120.56 657.585 454.147
22 0 64.267 13.6151 875 128.513 657.082 450.592
23 0 69.0737 14.4194 996 128.786 658.073 450.598
24 0 71.1013 17.7071 1259 122.709 658.462 448.447
25 0 73.1567 16.0614 1175 124.815 659.139 446.497
26 0 75.0841 14.517 1090 127.28 659.87 444.354
27 0 77.1723 16.353 1262 125.316 659.856 442.09
28 0 79.2434 16.544 1311 123.912 660.834 440.694
29 0 84.3342 17.3477 1463 120.011 661.858 443.152
30 0 85.3886 17.8244 1522 121.082 661.813 442.234
31 0 89.1896 19.5987 1748 118.106 663.526 438.79
32 0 92.3055 15.4054 1422 125.385 664.379 438.847
33 0 93.4788 17.7366 1658 118.396 665.168 437.163
34 0 97.3021 16.2381 1580 121.801 665.833 437.853
35 0 96.195 14.3666 1382 127.076 665.7 436.968
36 0 103.396 16.9446 1752 119.414 667.458 433.827
37 0 108.193 15.7405 1703 119.127 667.157 437.729
38 0 112.434 17.1389 1927 116.7 667.666 433.484
39 0 114.234 13.5949 1553 121.602 666.77 433.184
40 0 121.396 23.5428 2858 105.564 666.975 433.209
41 0 124.313 15.839 1969 119.496 666.943 435.769
42 1 65.0963 16.176 1053 112.458 666.99 461.939
43 0 66.1263 23.2585 1538 101.332 666.362 468.241
44 0 66.1369 14.9841 991 121.285 665.025 461.306
45 0 71.1392 17.9085 1274 124.183 664.906 461.948
46 0 71.2241 14.1244 1006 132.113 665.613 460.157
47 0 75.0799 16.2227 1218 128.121 664.057 462.003
48 0 77.1496 16.4745 1271 130.89 662.39 459.074
49 0 81.0674 17.9357 1454 122.473 662.984 461.902
50 0 83.2632 16.3097 1358 130.616 661.468 457.835
51 0 83.2632 15.5651 1296 152.141 660.409 456.921
52 0 88.0762 16.656 1467 130.087 659.686 452.082
53 0 90.1967 16.0095 1444 130.384 659.641 454.684
54 0 94.1867 14.8747 1401 134.711 658.166 449.156
55 0 97.2469 13.8719 1349 137.312 658.74 447.916
56 0 101.265 17.548 1777 129.86 659.097 445.29
57 0 106.149 17.824 1892 130.487 657.643 439.428
58 0 110.107 14.9219 1643 136.718 657.464 435.282
59 0 113.422 13.9038 1577 138.323 658.902 437.912
60 1 62.0799 11.4047 708 134.969 657.646 462.466
61 0 64.2353 13.8086 887 132.985 656.865 457.905
62 0 67.1768 15.5857 1047 128.83 657.091 457.228
63 0 70.0809 14.3834 1008 130.334 657.798 457.571
64 0 72.3275 14.1163 1021 133.717 656.883 451.882
65 0 75.2802 14.1604 1066 132.911 658.428 451.095
66 0 77.2295 13.8807 1072 132.648 658.037 449.035
67 0 80.1405 15.4728 1240 128.535 658.695 444.773
68 0 83.1244 15.7715 1311 127.859 659.297 444.632
69 0 84.177 11.8441 997 134.896 658.82 443.49
70 0 90.1233 16.0225 1444 125.885 659.273 440.456
71 0 92.1482 15.2797 1408 127.859 660.568 437.545
72 0 96.156 16.3588 1573 125.42 660.916 435.952
73 0 98.3938 14.9908 1475 128.205 661.58 432.725
74 0 102.254 14.4933 1482 128.065 662.344 429.833
75 0 109.126 15.6607 1709 125.651 662.974 432.655
76 1 53.1092 10.2054 542 122.651 662.585 459.976
77 0 57.1266 11.9734 684 121.111 663.532 457.845
78 0 60.2195 13.318 802 120.771 664.485 455.016
79 0 61.0713 11.8714 725 119.157 666.006 457.177
80 0 65.0791 10.7561 700 120.193 666.187 454.77
81 0 66.0695 9.1419 604 121.674 666.806 458.238
82 0 69.0509 12.3966 856 117.911 665.526 454.451
83 0 73.1719 12.7781 935 116.398 665.84 455.922
84 0 75.1262 10.9549 823 123.035 665.661 453.738
85 0 81.1954 15.0747 1224 115.433 665.822 451.387
86 0 83.2278 10.261 854 122.316 664.993 451.682
87 0 86.4168 11.7454 1015 117.634 664.857 457.178
88 0 86.4171 11.6528 1007 135.651 664.823 457.221
89 0 92.2169 11.6573 1075 120.39 665.103 448.274
90 0 94.2647 10.863 1024 122.809 664.116 449.563
91 0 97.3653 11.0409 1075 122.953 663.649 453.463
92 1 49.0758 12.1241 595 113.415 662.565 476.108
93 0 49.0663 11.2908 554 115.652 661.881 473.973
94 0 53.1374 12.7782 679 111.468 660.546 475.845
95 0 52.17 9.04735 472 119.411 658.845 473.091
96 0 57.0492 14.654 836 109.722 659.407 473.294
97 0 60.139 12.7372 766 112.008 659.1 472.158
98 0 59.0734 10.2076 603 116.643 657.942 471.114
99 0 63.1877 11.1256 703 115.477 657.374 467.863
100 0 65.0766 12.2932 800 114.566 656.341 462.684
101 0 69.1235 12.673 876 115.088 655.675 463.005
102 0 68.229 11.4321 780 115.262 654.523 463.677
103 0 72.3772 12.9046 934 114.51 655.515 457.9
104 0 77.164 12.8946 995 114.381 655.204 457.148
105 0 77.1177 12.4355 959 115.853 655.526 455.944
106 0 81.2216 11.4255 928 119.169 655.89 448.191
107 0 86.3066 11.4592 989 117.852 656.046 451.042
108 0 84.1089 10.5696 889 120.048 656.492 452.026
109 1 44.0492 12.5996 555 113.836 656.036 467.703
110 0 47.0372 13.9251 655 112.884 657.205 465.82
111 0 48.0437 12.2597 589 115.491 658.528 465.032
112 0 46.1147 9.93175 458 122.061 660.063 462.616
113 0 49.0371 11.6442 571 119.247 660.314 461.096
114 0 52.0653 10.3908 541 120.824 660.819 460.993
115 0 54.087 12.5169 677 116.657 661.52 461.676
116 0 56.0915 12.8362 720 117.122 661.365 459.519
117 0 54.0374 10.9369 591 122.024 662.553 457.08
118 0 60.1828 11.7641 708 118.295 662.819 458.131
119 0 60.1076 12.3445 742 117.825 662.898 457.376
120 0 61.061 14.2972 873 115.683 663.827 456.017
121 0 63.1336 15.7919 997 112.214 665.018 457.269
122 0 66.2886 15.1912 1007 111.302 665.687 459.402
123 0 66.1304 12.7475 843 117.349 665.945 456.254
124 0 67.1977 14.1672 952 116.039 665.98 453.613
125 0 71.1865 13.4998 961 116.416 665.926 454.669
126 0 71.1168 12.5709 894 115.443 665.275 455.987
127 0 73.1754 13.8161 1011 113.752 664.685 456.71
128 0 78.2308 11.9135 932 115.968 665.799 460.115
129 0 77.1213 13.7835 1063 113.933 664.488 461.103
130 0 80.1968 12.2324 981 116.81 664.126 460.032
131 0 80.0566 10.1678 814 120.357 663.889 462.757
132 0 86.1559 15.3675 1324 114.221 664.199 455.645
133 1 47.0448 11.3721 535 117.701 662.293 476.226
134 0 51.1393 11.8304 605 118.012 661.894 474.022
135 0 48.285 9.85813 476 113.603 662.055 471.113
136 0 50.0737 13.2804 665 113.039 660.648 474.496
137 0 54.0791 13.4433 727 111.558 661.525 475.455
138 0 54.0953 12.2377 662 113.692 660.216 476.636
139 0 56.0472 12.4895 700 114.204 659.687 470.784
140 0 58.0599 14.5539 845 111.303 658.296 470.25
141 0 56.1644 9.22292 518 118.247 657.295 474.566
142 0 60.1301 13.687 823 112.23 657.035 471.389
143 0 64.0916 14.5885 935 112.314 656.477 467.234
144 0 62.197 13.7306 854 114.23 655.639 467.478
145 0 68.1063 14.1543 964 115.01 653.975 459.778
146 0 69.0353 11.5158 795 119.804 654.112 462.01
147 0 72.0648 12.8773 928 118.609 654.414 458.857
148 0 73.1803 12.3941 907 121.278 654.952 456.628
149 0 77.2355 12.8827 995 121.615 654.287 454.784
150 0 80.2535 14.8031 1188 119.509 654.726 451.768
151 0 81.1051 15.597 1265 116.075 655.127 456.38
152 0 86.2106 15.3925 1327 117.733 655.428 447.609
153 0 87.2442 14.8205 1293 119.084 655.222 447.576
154 0 91.1616 15.2038 1386 119.652 655.434 443.408
155 0 95.2619 15.6201 1488 117.502 656.367 445.588
156 0 100.305 16.6592 1671 116.443 657.402 441.922
157 0 103.23 14.7148 1519 122.086 656.895 436.859
158 0 103.198 11.6475 1202 125.943 658.894 435.181
159 0 108.302 15.8907 1721 119.032 659.206 432.049
160 0 112.306 13.8194 1552 122.649 659.689 432.245
161 0 116.297 16.4235 1910 118.395 660.916 428.891
162 0 120.292 13.6335 1640 122.884 660.698 428.341
163 1 58.1194 10.8914 633 119.42 661.766 458.907
164 0 62.0396 11.0091 683 117.076 662.231 459.23
165 0 63.0958 12.7108 802 115.537 662.747 456.079
166 0 66.1429 19.6695 1301 102.948 662.701 461.818
167 0 68.1767 12.3649 843 113.909 663.541 460.79
168 0 72.2742 16.0638 1161 109.114 663.432 458.534
169 0 74.1698 12.4849 926 114.206 664.044 461.413
170 0 77.1992 16.2696 1256 109.107 663.808 458.966
171 0 76.1796 11.2366 856 117.45 663.45 459.813
172 0 80.1689 11.6878 937 116.513 663.655 457.247
173 0 84.3409 12.1175 1022 115.675 662.858 459.327
174 0 85.3497 12.4195 1060 116.67 663.368 459.751
175 0 92.0774 12.4243 1144 116.713 663.215 458.955
176 0 93.2221 13.1192 1223 119.067 661.922 455.166
177 0 98.149 18.0134 1768 110.442 662.401 453.048
178 0 101.103 14.2133 1437 118.475 660.36 450.39
179 0 105.361 15.0151 1582 116.036 659.881 450.642
180 0 107.315 12.412 1332 121.576 659.206 445.53
181 0 113.476 14.0559 1595 118.803 658.589 444.707
182 0 115.302 13.1568 1517 121.375 657.606 443.517
183 0 122.729 14.7479 1810 116.286 656.855 445.287
184 1 76.2769 14.5785 1112 113.876 655.723 459.562
185 0 79.189 10.7843 854 118.096 654.988 461.164
186 0 85.2883 14.6679 1251 117.261 655.217 458.876
187 0 86.3108 15.3863 1328 115.923 653.779 455.956
188 0 90.3197 14.4376 1304 116.419 653.991 453.528
189 0 93.3383 14.9456 1395 114.142 653.67 451.983
190 0 95.1127 14.2357 1354 115.857 653.608 449.75
191 0 98.125 11.3019 1109 121.749 653.518 447.695
192 0 103.134 15.3684 1585 115.276 654.185 445.186
193 0 103.195 13.082 1350 121.315 653.593 439.64
194 0 110.184 17.0624 1880 111.085 653.706 439.972
195 0 111.334 11.0927 1235 120.894 653.337 436.187
196 1 59.0538 11.4641 677 113.34 653.312 463.1
197 0 59.0538 11.4641 677 131.455 653.321 463.18
198 0 63.0613 12.7812 806 113.305 654.047 455.966
199 0 67.0944 13.7418 922 109.805 656.438 454.824
200 0 67.0944 13.7567 923 138.657 657.43 454.911
201 0 70.2099 13.7445 965 117.366 657.245 452.218
202 0 74.1732 13.6168 1010 116.774 657.101 451.908
203 0 82.1521 12.3186 1012 116.531 659.757 455.089
204 0 79.1756 13.9437 1104 116.9 658.986 449.717
205 0 81.3123 16.8486 1370 112.558 659.422 444.378
206 0 83.2983 13.1935 1099 119.287 660.542 447.285
207 0 88.3166 13.2138 1167 116.326 661.195 452.381
208 0 90.1403 18.1273 1634 110.8 662.028 447.449
209 0 92.172 12.7045 1171 119.275 662.725 445.675
210 0 94.2413 15.386 1450 116.739 661.65 444.136
211 1 50.0411 10.1317 507 115.872 663.949 470.974
212 0 54.1338 11.9888 649 114.035 664.23 467.233
213 0 53.1915 10.2084 543 120.37 662.759 469.495
214 0 54.0571 11.8208 639 113.139 664.937 465.621
215 0 57.3165 13.3818 767 108.458 664.411 472.814
216 0 51.0847 8.55442 437 118.513 664.027 473.478
217 0 58.1412 12.4352 723 113.313 663.172 471.236
218 0 59.1006 10.8798 643 113.871 662.89 476.373
219 0 63.15 12.0348 760 114.026 662.113 473.338
220 0 64.1574 13.9968 898 112.097 660.511 468.844
221 0 67.2274 12.0635 811 115.388 660.515 469.115
222 0 68.1717 10.1215 690 124.171 659.606 468.775
223 0 71.2232 11.2323 800 122.421 657.76 465.825
224 0 75.1778 15.0177 1129 115.589 655.872 461.582
225 0 77.1404 14.5838 1125 115.772 655.717 464.528
226 0 76.0956 11.065 842 118.779 655.625 464.682
227 0 80.1766 14.6551 1175 113.5 654.24 460.006
228 0 85.2006 13.2628 1130 114.217 653.998 459.331
229 0 86.111 12.2168 1052 116.559 653.546 454.783
230 1 46.0724 10.7874 497 112.519 653.865 480.954
231 0 47.0826 12.1701 573 110.394 653.044 476.278
232 0 48.0829 11.8753 571 109.597 653.04 476.58
233 0 48.065 9.05025 435 113.425 653.142 477.241
234 0 46.0558 10.205 470 112.313 652.457 476.177
235 0 46.071 7.18456 331 115.876 653.535 478.955
236 0 50.0848 8.7851 440 114.15 652.909 474.595
237 0 51.203 8.49559 435 114.536 652.998 470.823
238 0 55.1158 12.4465 686 108.87 652.254 467.955
239 0 56.0748 10.9853 616 111.907 652.825 466.024
240 0 55.1482 11.4963 634 111.323 654.336 463.219
241 0 57.101 11.6285 664 109.014 654.099 467.544
242 0 58.1926 10.8261 630 112.786 654.957 460.8
243 0 61.181 11.8174 723 124.55 656.025 462.362
244 0 63.0784 13.6655 862 108.193 654.848 458.682
245 0 67.1337 12.0804 811 110.438 656.649 457.503
246 0 69.0942 11.9692 827 110.823 656.674 456.12
247 0 71.1281 12.0206 855 111.287 657.014 450.506
248 0 71.1562 11.538 821 113.582 657.186 452.487
249 0 76.2631 15.5514 1186 108.513 657.306 452.065
250 0 81.1901 12.7109 1032 112.581 657.851 450.011
251 0 80.3092 10.6588 856 116.513 659.182 449.457
252 0 85.2581 16.6436 1419 107.13 660.128 447.903
253 0 86.2007 13.167 1135 112.171 660.985 448.922
254 0 88.412 12.6793 1121 113.707 661.019 447.878
255 1 45.1651 9.76418 441 113.313 661.617 468.19
256 0 49.0929 10.7959 530 110.766 661.976 471.032
257 0 50.0947 13.4146 672 106.568 662.652 472.494
258 0 47.1909 12.5024 590 104.483 662.332 475.325
259 0 50.0821 11.2416 563 108.691 662.295 473.167
260 0 52.0334 13.6835 712 104.841 661.125 473.417
261 0 54.0866 10.0394 543 109.943 661.311 475.475
262 0 55.1849 13.6088 751 105.995 660.341 476.101
263 0 58.1593 10.9527 637 109.972 660.193 474.394
264 0 60.144 16.7099 1005 102.064 660.806 476.359
265 0 64.1498 10.1481 651 110.939 660.207 474.424
266 0 64.1543 15.7277 1009 103.569 658.573 473.24
267 0 65.1726 14.1777 924 106.347 657.175 471.939
268 0 66.1309 13.8211 914 107.678 656.565 469.256
269 0 69.1257 12.0071 830 110.831 655.754 467.494
270 0 72.1366 12.4347 897 110.724 654.817 467.103
271 0 73.13 12.1975 892 112.157 655.389 462.377
272 0 76.3127 12.0426 919 112.143 654.202 463.446
273 0 79.1078 14.3728 1137 109.69 652.193 462.514
274 0 79.4371 12.0347 956 112.269 652.297 460.417
275 0 83.2261 14.1903 1181 109.163 651.346 458.316
276 0 85.2339 12.5889 1073 111.789 650.656 457.426
277 0 88.303 11.7663 1039 112.984 650.923 450.272
278 0 88.2824 12.4827 1102 112.672 650.907 451.638
279 0 94.2358 12.1716 1147 112.961 651.976 449.97
280 0 97.1479 11.1582 1084 118.482 652.268 443.796
281 0 100.624 9.5902 965 120.445 652.318 449.498
282 0 104.225 14.3439 1495 111.098 652.907 443.415
283 0 106.317 13.9677 1485 113.374 652.082 438.732
284 0 109.321 15.1938 1661 110.713 653.081 437.078
285 0 109.317 11.9652 1308 116.232 652.434 435.882
286 1 57.1377 10.6585 609 112.54 653.133 460.856
287 0 60.2618 14.6859 885 105.548 654.377 461.719
288 0 61.0353 12.1897 744 110.935 654.046 457.106
289 0 61.0763 9.95476 608 114.204 656.041 458.576
290 0 66.1139 11.5256 762 111.761 656.942 456.315
291 0 67.0926 11.8046 792 111.341 657.345 455.687
292 0 72.2958 13.4586 973 109.522 658.011 454.346
293 0 75.0603 14.7615 1108 107.139 659.712 455.119
294 1 39.0981 11.9955 469 108.028 660.173 470.878
295 0 42.078 11.3836 479 110.063 662 468.935
296 0 41.1485 8.21414 338 115.095 661.598 468.328
297 0 48.2756 13.7129 662 100.798 664.544 473.878
298 0 44.0658 10.3482 456 110.825 664.121 470.399
299 0 42.0195 9.4956 399 112.08 662.288 474.361
300 0 48.0516 10.2806 494 110.279 662.026 475.561
301 0 45.0826 11.1573 503 113.368 661.642 473
302 0 48.1565 10.9227 526 112.496 661.118 473.74
303 0 48.1044 11.3087 544 112.368 661.741 474.548
304 0 51.0678 10.77 550 112.96 661.591 475.265
305 0 51.0678 10.1238 517 137.911 661.607 475.315
306 0 52.0558 10.873 566 113.926 662.099 475.025
307 0 55.0535 12.5514 691 111.014 661.454 474.638
308 0 57.2654 12.2413 701 111.335 661.047 472.207
309 0 59.0398 10.5014 620 114.326 659.966 473.606
310 0 61.2751 11.2444 689 114.81 658.565 471.62
311 0 64.1893 12.7591 819 113.137 656.695 466.985
312 0 67.086 14.0119 940 109.267 656.551 468.75
313 0 70.1777 13.1808 925 110.744 656.274 465.901
314 0 70.1777 13.0526 916 133.597 655.305 465.896
315 0 74.1955 16.5374 1227 108.221 655.796 462.359
316 0 77.3064 12.4828 965 113.323 654.786 462.165
317 0 78.133 10.6229 830 118.842 654.049 452.633
318 0 78.133 10.6229 830 147.943 653.049 452.633
319 0 82.3342 12.7286 1048 115.52 652.197 453.308
320 1 46.2615 12.7103 588 112.046 653.204 469.799
321 0 47.0666 12.0255 566 113.864 652.913 469.541
322 0 49.1697 11.2671 554 116.556 653.251 466.727
323 0 48.1148 10.1009 486 113.667 652.961 468.663
324 0 48.0319 13.3245 640 110.783 652.303 463.839
325 1 101.287 12.9435 1311 116.589 653.187 443.128
326 0 104.344 14.7684 1541 115.125 653.304 434.542
327 0 113.293 14.5022 1643 114.116 654.083 435.479
328 1 55.1349 11.8074 651 112.943 654.226 459.123
329 0 57.1705 12.2616 701 112.682 654.298 458.69
330 0 57.081 15.2765 872 108.836 655.147 457.797
331 0 60.1053 18.9168 1137 103.168 656.294 457.114
332 0 63.0955 13.8837 876 108.404 657.598 459.85
333 0 63.0955 13.7886 870 128.202 658.637 459.707
334 0 66.1804 15.4426 1022 109.058 659.045 454.842
335 0 68.1239 13.4901 919 113.073 659.573 454.276
336 0 69.1927 13.5852 940 114.188 659.889 448.864
337 0 72.1238 12.9222 932 116.392 660.13 450.771
338 0 75.1333 15.7853 1186 112.522 661.385 449.056
339 0 78.2742 15.4713 1211 115.277 662.461 449.385
340 0 80.2109 14.225 1141 118.924 662.967 444.064
341 0 83.0667 15.2889 1270 117.285 663.028 446.797
342 0 85.321 13.1503 1122 120.124 663.862 445.452
343 0 89.1286 13.8452 1234 118.628 664.273 446.232
344 0 90.3574 13.1035 1184 120.54 664.184 446.841
345 0 95.194 15.4421 1470 116.947 665.383 445.999
346 0 101.267 16.4615 1667 114.769 664.741 443.809
347 0 105.141 14.4282 1517 118.394 663.389 441.954
348 0 108.327 14.327 1552 118.952 663.65 444.271
349 1 58.0314 10.1324 588 120.791 664.267 470.255
350 0 62.203 14.4527 899 114.25 662.973 468.567
351 0 62.2982 16.2926 1015 111.839 662.848 465.602
352 0 65.1253 14.9558 974 112.203 661.919 469.819
353 0 65.1053 13.5166 880 117.801 661.175 463.461
354 0 68.0909 14.3778 979 115.844 660.915 464.972
355 0 72.088 14.5933 1052 114.147 659.236 466.546
356 0 73.2419 13.6124 997 117.355 659.158 460.834
357 0 75.2619 14.1639 1066 117.242 658.731 460.402
358 0 79.1414 16.7548 1326 112.222 658.644 460.713
359 0 81.2949 13.8385 1125 117.958 657.034 457.388
360 0 81.1507 11.2507 913 121.934 657.601 456.772
361 0 85.3273 12.5985 1075 119.767 655.941 455.737
362 0 88.262 12.9388 1142 118.317 655.966 450.46
363 0 93.1839 13.6612 1273 115.863 655.425 448.871
364 0 94.1207 14.4814 1363 116.258 655.263 443.073
365 0 98.1658 15.9526 1566 113.119 654.999 441.754
366 1 52.0924 11.0765 577 111.707 655.666 469.88
367 0 52.0924 11.0189 574 125.575 656.645 469.958
368 0 57.0834 11.965 683 109.996 654.55 462.075
369 0 55.2153 10.7398 593 112.707 655.128 462.025
370 0 60.1975 12.1434 731 109.516 656.109 461.698
371 0 63.2032 12.8791 814 109.133 656.629 458.364
372 0 64.1867 12.8843 827 110.104 656.683 454.832
373 0 66.1054 13.7659 910 108.44 656.988 455.078
374 0 68.0936 13.8339 942 110.702 657.878 449.739
375 0 69.0776 14.4186 996 110.966 658.342 448.745
376 0 74.0643 15.5001 1148 108.751 658.296 449.26
377 0 76.2884 14.4452 1102 111.203 659.927 449.232
378 0 80.1107 14.2927 1145 111.633 659.783 447.773
379 0 80.125 12.4555 998 117.062 661.314 444.606
380 0 81.2159 11.5741 940 119.334 661.547 439.142
381 0 87.4181 15.1227 1322 111.663 662.56 445.654
382 0 92.2859 13.1873 1217 115.846 663.969 442.928
383 0 93.2523 11.7745 1098 117.965 665.543 443.669
384 0 97.1745 15.0554 1463 114.507 664.69 438.904
385 1 53.316 15.4925 826 110.996 664.968 457.551
386 0 55.0375 13.0093 716 116.067 664.57 461.906
387 0 55.1925 11.3965 629 120.688 664.634 461.417
388 0 57.125 12.5864 719 113.448 664.944 463.234
389 0 58.1519 10.3522 602 115.581 664.163 468.236
390 0 61.1543 9.22257 564 114.945 663.686 470.33
391 0 60.1294 10.6271 639 117.834 663.689 464.077
392 0 62.1382 10.2996 640 117.683 663.411 467.077
393 0 69.0761 12.7975 884 114.534 663.165 463.11
394 0 70.1401 16.2532 1140 107.766 662.919 465.937
395 0 73.0799 11.4395 836 116.868 661.346 462.439
396 0 77.1134 11.7749 908 115.455 661.611 463.461
397 0 78.072 13.2186 1032 118.921 662.658 463.938
398 0 79.2382 13.289 1053 119.232 660.492 462.663
399 0 81.1614 12.74 1034 122.346 659.837 458.637
400 0 85.2659 15.2464 1300 117.403 660.034 457.928
401 0 86.1428 14.1741 1221 121.957 659.296 454.393
402 0 89.2107 16.1416 1440 116.52 658.215 453.906
403 1 46.0339 8.3634 385 121.86 658.031 476.455
404 0 49.0291 11.0343 541 119.53 657.2 472.431
405 0 49.0962 12.6283 620 119.356 656.858 471.268
406 0 50.0341 10.6128 531 122.151 654.791 470.689
407 0 53.0672 11.9094 632 112.475 654.34 468.864
408 0 50.0832 10.7421 538 115.409 654.502 468.959
409 0 53.1682 10.0812 536 114.84 655.562 470.771
410 0 51.0723 8.38028 428 116.797 655.456 470.979
411 0 58.1488 13.8266 804 109.918 654.231 462.801
412 0 61.1303 10.813 661 112.879 655.089 463.142
413 0 65.1223 12.0235 783 111.248 655.928 462.165
414 0 63.034 10.2326 645 115.859 655.653 457.605
415 0 66.0434 9.11521 602 117.169 655.696 456.422
416 0 69.2 12.5578 869 112.594 657.099 450.848
417 0 70.1122 14.8619 1042 110.588 657.32 450.724
418 0 73.3339 12.5454 920 113.788 657.508 452.913
419 0 75.104 11.5174 865 116.594 659.341 448.362
420 0 77.2374 12.1185 936 115.48 659.639 444.083
421 0 82.1217 13.9549 1146 111.891 660.546 444.06
422 0 85.1759 13.0436 1111 117.126 660.418 443.158
423 0 87.2131 13.0829 1141 117.762 660.949 439.671
424 0 90.1389 14.0672 1268 115.584 661.637 441.226
425 0 93.2104 15.7708 1470 112.212 662.834 442.448
426 0 95.1436 12.5179 1191 116.375 663.439 440.578
427 0 98.3007 13.5503 1332 113.24 664.924 443.756
428 0 101.212 12.5381 1269 114.786 665.388 439.758
429 1 52.1567 9.62484 502 112.918 666.805 464.247
430 0 56.0899 10.0375 563 112.675 666.005 465.712
431 0 57.0942 12.8384 733 108.008 665.662 463.251
432 0 62.1299 12.5061 777 104.472 664.723 466.533
433 0 62.1357 10.0104 622 109.093 665.862 466.691
434 0 66.2605 12.5414 831 107.191 665.483 462.035
435 0 67.1218 13.6319 915 104.719 665.212 468.645
436 0 69.1716 13.9363 964 105.896 664.523 462.822
437 1 136.315 13.4908 1839 114.611 664.202 434.438
438 0 143.394 15.5794 2234 112.8 664.006 428.011
439 1 75.1233 11.8605 891 110.636 663.121 461.745
440 0 79.1193 13.4986 1068 108.631 662.564 459.542
441 0 79.0848 12.1389 960 110.775 661.209 460.475
442 0 84.4303 14.1063 1191 107.503 661.208 456.83
443 0 85.1601 13.0225 1109 110.037 661.012 457.252
444 0 90.1096 14.1161 1272 108.92 660.722 455.105
445 0 92.1902 14.2314 1312 109.191 659.653 454.6
446 0 96.1654 12.4785 1200 112.409 657.881 452.842
447 1 49.0821 12.2856 603 110.381 657.28 475.347
448 0 49.0844 9.39198 461 119.108 656.963 473.796
449 0 52.1189 11.3011 589 111.681 657.362 467.905
450 0 54.0564 11.3585 614 117.552 656.283 466.456
451 0 51.0923 13.0744 668 107.686 656.229 471.349
452 0 52.0891 8.1207 423 114.324 655.697 471.894
453 0 56.1097 9.83787 552 111.676 655.226 469.493
454 0 59.038 12.3141 727 109.166 656.263 465.055
455 0 62.081 12.0166 746 109.16 654.575 463.306
456 0 65.1402 10.3469 674 111.402 655.8 462.602
457 0 66.1099 15.7465 1041 103.948 655.175 463.778
458 0 70.1018 14.9354 1047 105.694 654.665 459.2
459 0 70.1935 15.9416 1119 105.249 655.802 456.743
460 0 70.1203 10.1255 710 114.483 655.411 457.687
461 0 77.2716 14.2614 1102 107.73 656.598 454.663
462 0 77.0818 12.4802 962 111.87 657.563 451.343
463 0 81.3707 11.761 957 113.168 658.06 452.063
464 1 43.0662 17.6008 758 99.0792 658.544 473.83
465 0 44.037 13.2389 583 109.726 658.599 470.741
466 0 46.1016 13.1015 604 109.824 660.566 469.52
467 0 47.0849 11.8722 559 110.506 659.093 470.36
468 0 48.0738 13.0425 627 107.183 660.032 470.887
469 0 48.031 12.1796 585 109.677 660.586 470.289
470 0 51.0636 11.1821 571 110.095 660.406 469.573
471 0 55.1629 10.6593 588 111.196 661.357 469.355
472 0 56.2966 14.1394 796 106.033 661.937 469.24
473 0 56.0755 12.4118 696 109.106 662.408 470.136
474 0 59.1972 11.487 680 110.419 663.857 472.657
475 0 56.0645 10.4522 586 114.48 661.95 474.527
476 0 60.1061 12.062 725 112.069 661.75 474.848
477 0 61.2447 11.0704 678 114.518 661.403 476.091
478 0 63.0535 13.4489 848 111.71 660.887 473.979
479 0 65.1537 12.6777 826 114.048 660.31 474.852
480 0 67.0612 12.9136 866 114.752 659.686 475.968
481 0 68.0886 13.6146 927 112.974 657.804 477.031
482 0 68.0886 13.4824 918 130.157 656.752 477.02
483 0 75.109 13.1409 987 114.725 655.955 474.833
484 0 75.1108 12.5282 941 115.604 655.329 469.265
485 0 79.1042 13.6023 1076 112.086 653.17 474.027
486 0 79.2511 13.779 1092 115.262 654.592 469.072
487 0 83.3393 14.9869 1249 114.441 653.595 468.033
488 0 86.3188 14.7708 1275 116.364 652.915 465.156
489 0 88.4084 13.1435 1162 120.156 651.637 464.428
490 1 49.101 10.3867 510 122.939 652.445 480.739
491 0 49.0988 11.7925 579 122.941 651.055 480.573
492 0 52.0676 12.9447 674 119.697 650.071 479.257
493 0 55.4223 11.3131 627 120.874 650.791 477.182
494 0 56.0928 12.6398 709 120.284 649.78 477.553
495 0 59.0393 10.7555 635 122.431 649.958 480.808
496 0 56.1668 12.178 684 125.178 649.444 471.561
497 0 60.0758 13.2166 794 121.723 648.859 471.665
498 0 61.0768 13.9333 851 120.61 648.726 472.516
499 0 65.1892 17.3802 1133 114.455 649.906 470.641
500 0 63.122 12.6105 796 126.016 649.712 465.43
501 0 67.1885 13.663 918 123.359 650.874 464.308
502 0 69.1809 14.9319 1033 116.874 651.745 461.422
503 0 70.155 13.4559 944 119.72 652.992 460.335
504 0 75.0932 14.3555 1078 117.827 653.367 457.664
505 0 77.2013 12.4609 962 122.816 654.425 458.589
506 0 79.2358 15.5107 1229 119.09 654.749 454.571
507 0 84.2974 16.9993 1433 115.461 656.339 453.121
508 0 83.199 15.8295 1317 118.205 656.528 453.664
509 0 88.5528 13.7545 1218 123.117 657.617 448.635
510 0 87.2954 12.83 1120 125.863 656.882 446.551
511 1 47.1356 11.032 520 123.979 658.935 470.244
512 0 46.0688 10.3758 478 125.303 658.464 468.22
513 0 47.0869 10.7461 506 124.787 659.486 468.204
514 0 51.1707 11.4323 585 125.829 659.651 470.518
515 0 55.2506 13.4659 744 119.378 660.616 468.974
516 0 53.028 10.8999 578 126.775 661.112 472.294
517 0 56.1365 13.9838 785 119.868 661.902 474.199
518 0 56.1397 13.7158 770 123.799 660.379 470.926
519 0 60.3108 13.5299 816 123.229 659.808 473.233
520 0 61.1829 13.3207 815 123.303 661.025 473.84
521 0 63.2213 13.5239 855 123.388 659.542 473.454
522 0 64.2057 13.5502 870 123.618 659.315 473.456
523 0 66.2247 14.3904 953 123.375 658.446 471.238
524 0 71.3997 13.5855 970 123.986 658.381 470.375
525 0 72.2627 13.3541 965 123.591 657.259 471.666
526 0 75.2743 14.7859 1113 121.608 657.492 470.44
527 0 78.1095 13.7371 1073 124.418 656.034 469.747
528 0 79.1737 13.8682 1098 124.698 655.094 466.827
529 0 82.3618 16.8646 1389 120.251 653.883 464.791
530 0 87.2155 14.8139 1292 120.327 653.438 464.779
531 1 44.0419 10.49 462 123.898 651.81 483.974
532 0 45.1122 12.081 545 119.727 650.646 483.972
533 0 48.1327 15.4157 742 113.848 652.996 482.846
534 0 50.1176 13.3087 667 119.222 651.693 480.891
535 0 50.1907 13.8273 694 118.95 650.022 478.349
536 0 51.1493 14.2133 727 121.898 648.985 475.53
537 0 48.1491 9.24213 445 133.564 648.425 475.53
538 0 57.0365 13.7105 782 122.208 648.832 475.509
539 0 58.1148 12.2688 713 126.484 649.753 471.982
540 0 58.0782 10.7614 625 129.117 648.746 470.774
541 0 63.1178 12.7381 804 124.3 649.92 467.925
542 0 64.0956 13.1522 843 121.935 649.891 466.415
543 0 65.1106 12.594 820 123.248 650.526 462.77
544 0 68.2005 15.1612 1034 117.819 650.277 463.504
545 0 70.1064 13.6792 959 121.218 651.112 460.346
546 0 74.0809 13.1748 976 122.466 650.678 457.343
547 0 75.0888 12.9047 969 124.138 652.781 456.41
548 0 76.2282 12.0559 919 126.061 652.436 453.512
549 0 81.2461 13.9822 1136 120.633 654.045 450.904
550 0 84.3012 13.1315 1107 121.786 653.865 455.65
551 0 87.3562 13.4507 1175 122.783 653.676 449.671
552 1 45.0937 11.2432 507 120.677 654.519 470.787
553 0 45.1682 9.365 423 113.513 655.66 467.948
554 0 47.2261 11.9849 566 119.541 656.041 470.599
555 0 48.1952 11.8477 571 119.429 657.496 470.816
556 0 52.1934 14.1972 741 114.814 657.69 470.31
557 0 50.1302 12.3678 620 119.077 659.205 471.373
558 0 53.2208 14.3177 762 115.316 659.282 469.197
559 0 55.2335 15.5884 861 110.425 658.962 474.134
560 0 55.1547 10.8241 597 121.3 659.057 471.884
561 0 59.0861 13.8273 817 116.089 658.048 471.916
562 0 62.1783 16.7904 1044 110.765 658.108 474.006
563 0 61.0567 15.5429 949 114.906 657.485 469.628
564 0 63.1362 12.7344 804 119.524 657.336 471.658
565 0 66.2531 12.8145 849 119.102 656.856 471.051
566 0 68.2417 14.9908 1023 113.24 656.583 474.186
567 0 69.1379 13.1476 909 118.574 655.816 468.551
568 0 73.1246 12.7591 933 118.471 655.533 471.083
569 0 77.1025 11.1151 857 121.464 655.376 468.971
570 1 42.1599 11.8833 501 115.665 655.06 487.611
571 0 41.0141 8.43612 346 121.269 654.428 487.916
572 0 44.0868 11.863 523 116.352 654.182 486.206
573 0 46.1842 13.7493 635 114.433 653.526 481.959
574 0 48.1011 13.4508 647 113.835 652.581 482.961
575 0 49.0542 13.0264 639 111.268 651.602 480.239
576 0 49.0542 13.0468 640 127.439 649.638 480.27
577 0 53.0417 13.725 728 108.821 652.041 478.611
578 0 53.1029 10.715 569 114.735 650.62 477.076
579 0 55.0992 14.5011 799 107.419 651.638 479.061
580 0 54.0717 11.7067 633 113.12 650.013 476.847
581 0 59.1203 13.7685 814 108.387 650.434 472.511
582 0 55.1708 11.1109 613 115.223 650.962 471.997
583 0 60.067 9.60595 577 114.338 650.988 472.731
584 0 62.0896 16.4601 1022 105.122 650.673 468.823
585 0 67.0977 20.731 1391 101.06 650.679 465.458
586 0 68.1007 14.5373 990 111.312 651.431 464.721
587 0 69.1726 11.6954 809 115.909 652.817 462.89
588 0 73.1623 14.2697 1044 111.433 653.26 461.007
589 0 77.2422 15.3802 1188 109.177 652.054 457.192
590 0 79.1657 15.3728 1217 109.058 652.596 455.478
591 0 80.1621 14.6328 1173 110.666 653.882 451.205
592 0 83.2599 11.326 943 119.064 655.13 454.565
593 0 86.2421 10.9459 944 118.359 655.735 454.469
594 1 47.1673 14.0139 661 108.059 657.536 474.092
595 0 46.0663 13.2418 610 113.461 657.177 469.78
596 0 47.1293 11.2032 528 118.604 657.521 468.85
597 0 50.1173 14.925 748 112.241 658.263 470.477
598 0 52.0924 13.0921 682 116.144 659.006 468.27
599 0 52.1241 13.0266 679 117.504 660.443 467.378
600 0 54.1374 13.7797 746 115.208 660.489 469.177
601 0 58.1045 13.3897 778 114.505 660.671 471.572
602 0 57.0876 11.7188 669 119.266 660.348 469.039
603 0 61.0607 11.5131 703 118.178 660.967 468.607
604 0 63.0581 14.3836 907 112.743 660.644 469.117
605 0 64.1802 10.8133 694 119.151 660.568 470.817
606 0 67.1618 15.3659 1032 112.664 659.421 467.341
607 0 70.0425 12.6923 889 115.683 659.935 468.357
608 0 73.0892 13.4356 982 114.363 659.491 468.743
609 0 72.3214 11.7531 850 118.521 658.648 467.629
610 0 77.106 13.0859 1009 116.279 658.23 465.032
611 0 79.1451 12.0412 953 116.547 657.699 468.84
612 0 80.212 17.4413 1399 108.768 656.828 465.723
613 0 88.5031 14.6888 1300 110.39 656.248 468.718
614 0 90.3224 14.4372 1304 111.906 656.094 465.416
615 1 46.096 13.3851 617 110.36 655.353 482.546
616 0 48.0496 14.3186 688 109.962 653.862 482.166
617 0 46.1205 12.3589 570 114.607 654.644 482.016
618 0 50.079 12.1208 607 115.12 652.936 480.206
619 0 49.1367 11.3154 556 118.446 652.2 479.058
620 0 52.0423 11.4907 598 117.289 651.794 477.572
621 0 53.3313 12.638 674 115.221 650.647 475.987
622 0 56.1324 14.4302 810 112.407 651.596 474.694
623 0 58.1678 14.3894 837 112.148 649.673 473.104
624 0 58.1678 14.3894 837 122.822 648.692 473.228
625 0 60.1188 9.43133 567 116.559 651.109 470.785
626 0 64.1236 15.5013 994 108.116 651.065 464.792
627 0 65.1226 14.7107 958 109.284 651.818 468.312
628 0 68.548 11.6123 796 117.643 651.769 462.631
629 0 69.1176 12.5728 869 116.89 652.334 460.41
630 0 73.2656 10.9601 803 118.078 652.23 461.402
631 0 75.2302 13.0267 980 116.518 653.124 454.948
632 0 76.2059 13.9622 1064 116.05 653.242 457.618
633 0 79.0789 13.7711 1089 116.683 655.094 451.616
634 0 84.2089 13.0509 1099 116.339 654.759 453.811
635 1 44.1176 9.61067 424 121.771 656.125 469.08
636 0 48.3542 10.0715 487 119.513 655.565 469.446
637 0 45.1353 9.81493 443 113.045 656.668 462.325
638 0 48.1011 8.08713 389 112.416 655.694 461.774
639 0 49.0789 11.2064 550 113.122 657.504 469.14
640 0 50.1018 10.5385 528 114.631 657.489 469.633
641 0 50.057 12.8254 642 111.368 657.928 468.607
642 0 55.0845 12.4718 687 110.715 658.785 469.674
643 0 58.1694 11.4665 667 113.055 659.027 468.048
644 0 58.1476 13.6549 794 111.04 660.412 466.098
645 0 61.0653 10.5297 643 115.86 661.18 472.137
646 0 62.155 10.5382 655 116.606 659.997 466.918
647 0 65.0913 13.6577 889 110.749 660.673 466.787
648 0 65.0913 13.6885 891 120.053 661.677 466.744
649 0 72.1583 14.5513 1050 107.94 659.157 468.583
650 0 71.2892 10.3943 741 114.406 657.719 471.337
651 0 76.1854 11.9839 913 112.918 658.524 467.662
652 0 79.1555 15.2864 1210 106.764 658.825 469.931
653 0 80.1058 12.8705 1031 112.108 657.646 468.288
654 0 82.0796 12.4392 1021 112.797 657.393 466.902
655 0 82.0796 12.5244 1028 129.259 657.395 466.894
656 0 92.1967 16.5733 1528 107.181 656.103 466.473
657 0 94.3011 14.4749 1365 114.155 654.114 459.3
658 0 95.288 12.7403 1214 114.512 654.716 464.718
659 0 96.338 11.8852 1145 118.593 653.627 459.347
660 0 101.192 13.2915 1345 117.022 654.956 458.199
661 0 102.357 14.9184 1527 117.126 653.81 451.938
662 0 105.345 9.53063 1004 123.022 653.936 458.235
663 0 106.373 10.905 1160 122.766 652.777 453.335
664 1 59.0655 12.2237 722 115.687 653.421 478.55
665 0 60.1135 16.4356 988 108.899 652.326 474.775
666 0 60.1135 16.3358 982 125.13 651.331 474.711
667 0 65.2005 14.4171 940 112.25 651.434 473.218
668 0 64.0865 13.4194 860 118.621 652.299 467.388
669 0 69.0711 13.3486 922 117.819 651.946 468.331
670 0 70.147 14.1988 996 117.524 652.226 461.669
671 0 74.0623 13.7452 1018 117.657 652.88 458.468
672 0 77.1428 16.3333 1260 112.444 654.877 461.022
673 0 79.0622 14.9502 1182 116.186 653.409 457.305
674 0 79.2666 12.8301 1017 122.015 654.639 452.955
675 0 83.1547 19.3976 1613 110.474 653.648 455.107
676 0 88.1531 16.46 1451 115.442 654.362 452.445
677 0 90.2142 17.3254 1563 114.569 654.785 451.369
678 1 46.1144 10.6041 489 122.086 655.922 471.783
679 0 49.0638 12.1474 596 120.265 657.23 470.815
680 0 48.0576 12.6723 609 118.81 658.415 470.103
681 0 52.1234 14.811 772 108.972 658.372 470.916
682 0 48.0874 10.7721 518 119.087 658.307 471.739
683 0 48.1487 9.98989 481 121.938 659.403 470.657
684 0 52.1019 12.1301 632 115.915 659.978 470.665
685 0 55.1864 13.0104 718 115.65 661.078 470.22
686 0 58.0493 13.5919 789 113.597 660.341 471.987
687 0 58.1287 12.1971 709 117.625 661.048 468.977
688 0 63.1667 14.0422 887 112.955 661.507 473.38
689 0 64.2226 12.5812 808 116.509 660.756 472.239
690 0 64.0919 11.8268 758 118.963 659.97 471.974
691 0 69.0833 14.3884 994 114.833 661.436 468.57
692 0 71.0742 12.5925 895 116.878 660.621 472.331
693 0 75.0723 15.2653 1146 112.686 660.152 471.186
694 0 75.0723 15.2919 1148 127.261 659.159 471.215
695 0 83.1864 14.9544 1244 113.641 658.661 466.176
696 0 85.1042 14.5704 1240 114.385 658.925 463.048
697 1 46.0613 13.6991 631 115.436 659.139 485.144
698 0 47.1719 15.0089 708 114.541 658.085 486.595
699 0 49.2315 15.5388 765 110.033 655.906 482.834
700 0 46.15 11.9393 551 116.033 654.187 483.009
701 0 50.0313 12.692 635 112.461 653.586 484.68
702 0 51.2014 12.9489 663 113.199 652.952 481.614
703 0 53.0964 12.0912 642 114.692 652.084 479.835
704 0 55.0701 14.3998 793 110.218 652.662 483.772
705 0 53.0255 9.46715 502 120.04 652.42 481.468
706 0 58.0563 11.9711 695 114.492 651.899 480.587
707 0 60.0883 13.3803 804 111.82 651.646 479.715
708 0 64.1446 14.7635 947 111.851 652.032 474.945
709 0 65.0807 14.4129 938 114.068 651.837 472.018
710 0 68.3216 16.3931 1120 112.124 651.56 472.264
711 0 69.197 11.8213 818 122.822 652.198 469.424
712 0 71.1676 10.8336 771 124.244 650.953 470.145
713 0 74.1226 13.5182 1002 118.442 652.74 469.032
714 0 75.1544 14.1841 1066 118.068 652.241 468.498
715 0 78.241 13.6757 1070 121.38 653.183 462.464
716 0 78.1445 14.6267 1143 119.599 653.091 464.628
717 0 84.2977 13.5591 1143 126.198 653.276 458.346
718 1 42.0718 13.0016 547 118.973 653.36 479.444
719 0 42.109 11.874 500 124.966 654.608 476.536
720 0 42.0693 11.6712 491 125.705 654.617 476.09
721 0 45.0625 13.337 601 114.754 655.11 473.275
722 0 45.0625 13.3592 602 133.963 656.096 473.289
723 0 45.0593 13.3824 603 133.401 657.109 473.295
724 0 45.0593 13.3824 603 133.129 658.109 473.295
725 0 53.0188 13.3538 708 122.914 655.585 470.877
726 0 55.1005 15.2812 842 119.159 656.996 471.98
727 0 58.1484 12.9152 751 120.969 657.037 473.184
728 0 57.0501 13.7949 787 122.239 657.842 473.416
729 0 59.0754 12.4248 734 123.869 657.917 472.846
730 0 60.0616 14.3852 864 124.677 658.304 470.509
731 0 60.1743 12.63 760 129.312 658.71 470.126
732 0 64.1002 11.9188 764 130.514 659.077 470.274
733 0 66.1757 13.6001 900 126.856 658.369 470.151
734 0 68.1215 13.3878 912 127.197 658.094 473.501
735 0 69.126 12.3543 854 131.927 658.071 470.167
736 0 69.0999 12.4458 860 132.914 657.015 469.551
737 0 73.0638 11.5789 846 132.616 657.967 472.291
738 0 76.1573 11.9358 909 132.319 656.479 472.64
739 0 78.1324 15.0514 1176 128.62 657.483 467.448
740 0 81.0892 14.0833 1142 130.488 656.094 469.295
741 0 82.0825 14.4367 1185 130.858 656.522 467.169
742 0 85.1337 15.0352 1280 129.696 654.777 464.341
743 0 89.2227 15.5342 1386 127.099 653.826 464.553
744 0 88.2368 13.8944 1226 133.781 655.29 463.58
745 0 91.3253 12.6471 1155 133.474 654.38 459.347
746 0 96.3009 14.3093 1378 130.015 654.306 456.889
747 0 96.3009 14.2885 1376 159.019 654.295 456.859
748 1 51.0735 10.0052 511 135.916 653.409 480.474
749 0 53.107 12.2018 648 132.301 654.458 477.302
750 0 54.2387 12.3712 671 124.092 652.675 473.972
751 0 59.1806 14.2614 844 118.332 652.563 472.73
752 0 58.1721 14.8525 864 118.284 653.024 470.567
753 0 58.0876 12.7566 741 123.351 651.982 470.699
754 0 60.3544 11.2171 677 120.647 651.978 462.433
755 0 64.0663 12.8929 826 119.551 652.266 462.069
756 0 64.0663 13.0178 834 140.306 652.267 462.109
757 0 68.1537 12.824 874 120.356 653.27 459.252
758 0 68.5091 12.845 880 121.559 653.594 456.378
759 0 71.225 13.7311 978 120.189 653.742 452.468
760 0 74.3017 13.5529 1007 119.648 654.85 455.301
761 0 78.1567 14.3046 1118 120.769 654.575 453.491
762 0 78.1408 12.7718 998 122.833 656.022 452.152
763 0 81.238 14.0082 1138 120.74 656.322 450.08
764 0 87.1549 13.5391 1180 120.225 657.678 450.176
765 1 46.088 11.7601 542 115.913 657.745 470.919
766 0 47.0662 9.68848 456 119.513 657.8 469.59
767 0 48.1866 12.4931 602 115.89 658.801 468.841
768 0 50.1784 11.0007 552 118.79 659.632 466.132
769 0 51.0803 11.9616 611 115.813 659.794 468.962
770 0 53.0439 14.1392 750 112.433 660.044 463.203
771 0 58.3048 18.3004 1067 106.528 660.254 469.438
772 0 57.0893 13.7854 787 115.474 659.835 467.544
773 0 59.2338 14.7213 872 113.142 659.912 466.695
774 0 62.3805 13.9467 870 113.287 660.828 467.055
775 0 63.0679 12.5896 794 115.879 661.382 467.574
776 0 65.2996 12.68 828 114.623 661.245 466.669
777 0 66.2297 10.9165 723 117.744 660.383 466.86
778 0 66.2297 10.9316 724 126.522 660.36 466.957
779 0 72.1043 13.2308 954 115.972 659.666 468.937
780 0 74.2518 12.094 898 118.008 659.717 468.663
781 0 77.1634 16.7696 1294 111.236 658.37 465.705
782 0 80.2644 13.3309 1070 116.608 658.646 466.823
783 1 39.2551 9.60385 377 117.08 659.406 489.934
784 0 42.099 12.0668 508 114.748 657.807 488.404
785 0 43.0518 11.0564 476 114.947 657.464 488.195
786 0 47.1317 14.8944 702 113.108 657.387 483.225
787 0 48.053 14.0678 676 114.846 656.714 481.388
788 0 48.1438 12.0265 579 113.207 657.257 481.366
789 0 49.3628 12.6006 622 112.402 655.805 477.125
790 0 51.1765 9.75058 499 116.513 657.102 481.196
791 0 51.0901 12.8205 655 112.504 655.501 475.519
792 0 55.1514 11.1692 616 114.018 656.412 475.88
793 0 57.1221 11.2566 643 116.187 654.292 475.827
794 0 58.0982 15.0607 875 110.96 653.827 471.597
795 0 61.2048 12.8585 787 113.567 654.48 466.831
796 0 63.0262 15.3428 967 110.264 654.433 468.734
797 0 63.0539 10.943 690 115.664 654.151 465.526
798 0 68.1031 14.5074 988 110.612 653.065 462.231
799 0 68.0812 11.0456 752 117.855 652.407 455.467
800 0 76.1135 16.9221 1288 107.488 653.759 454.022
801 0 75.1325 11.513 865 117.867 653.527 452.82
802 0 78.2722 12.0222 941 116.899 654.358 451.465
803 0 82.0878 18.1269 1488 107.481 655.45 448.986
804 0 83.2206 12.5089 1041 116.987 655.936 446.681
805 0 85.1457 13.6354 1161 116.32 656.267 445.472
806 0 89.4163 13.644 1220 117.942 656.642 440.842
807 1 45.0885 9.62551 434 115.357 658.323 465.749
808 0 49.078 11.716 575 118.297 657.901 466.249
809 0 51.1044 12.4647 637 117.003 658.636 467.975
810 0 50.1811 12.415 623 115.401 659.077 467.73
811 0 53.0855 11.9053 632 115.53 660.407 467.945
812 0 54.0981 12.6622 685 115.039 660.515 465.677
813 0 54.3099 10.9925 597 119.399 660.504 463.953
814 0 60.2774 12.3429 744 115.152 660.184 467.056
815 0 62.154 12.5978 783 116.563 661.169 461.05
816 0 64.2056 13.5814 872 115.068 660.616 465.873
817 0 66.1349 10.6449 704 120.229 661.018 466.294
818 0 67.1204 12.1573 816 119.904 661.146 463.515
819 0 73.112 16.1533 1181 110.843 661.454 464.043
820 0 73.2957 11.0511 810 121.228 661.362 463.726
821 0 78.0633 15.0006 1171 116.463 660.754 461.096
822 0 80.2112 13.7387 1102 121.012 660.362 464.841
823 1 42.1001 13.3016 560 117.33 661.216 481.732
824 0 45.0796 10.5813 477 121.528 660.331 480.526
825 0 46.1376 10.317 476 123.359 660.048 479.889
826 0 45.1077 11.0624 499 124.661 658.95 477.234
827 0 49.1589 12.7749 628 121.312 659.158 479.467
828 0 51.1358 13.4739 689 125.996 659.032 476.351
829 0 52.1518 13.3265 695 126.134 657.932 477.197
830 0 54.2841 13.0609 709 127.602 656.865 477.825
831 0 55.1868 12.7023 701 128.539 656.883 475.101
832 0 58.2024 12.6283 735 126.533 655.571 473.848
833 0 58.2909 13.8958 810 125.311 654.46 470.69
834 0 58.4524 11.8729 694 128.275 654.928 471.222
835 0 61.1274 12.3676 756 128.189 654.749 471.143
836 0 64.0859 11.8279 758 128.774 654.927 468.682
837 0 67.2189 13.999 941 125.222 655.153 463.245
838 0 67.2067 15.0431 1011 122.473 654.41 466.574
839 0 70.1835 12.5671 882 128.406 654.531 459.51
840 0 72.1695 13.7454 992 126.445 654.612 459.273
841 0 75.2986 13.7187 1033 124.684 654.452 457.926
842 0 75.1547 12.5608 944 128.232 654.312 453.003
843 0 79.1136 12.6274 999 126.419 655.508 450.31
844 0 85.2647 12.8424 1095 125.033 655.416 450.855
845 0 88.2152 12.5148 1104 125.345 655.742 449.373
846 0 91.2224 13.5274 1234 123.562 655.758 446.558
847 1 47.1676 10.7277 506 121.953 657.053 468.168
848 0 49.1863 12.6051 620 120.234 657.177 463.182
849 0 51.1623 12.3919 634 121.311 658.525 463.344
850 0 50.1385 10.1718 510 120.325 658.241 466.751
851 0 52.1397 11.4308 596 116.795 658.21 467.331
852 0 56.0382 11.2959 633 116.583 657.984 465.768
853 0 56.0802 12.0185 674 115.596 658.938 465.441
854 0 54.113 11.7717 637 119.779 658.746 462.038
855 0 61.0918 14.0608 859 111.731 659.632 463.58
856 0 65.0777 11.9396 777 114.668 660.332 465.94
857 0 64.1696 12.5916 808 117.093 661.428 460.137
858 0 68.1732 10.5467 719 120.815 660.152 461.592
859 0 72.0982 13.1349 947 115.515 661.329 460.921
860 0 73.1571 12.3843 906 118.327 661.55 458.838
861 0 76.1858 13.8215 1053 114.553 661.561 461.429
862 0 77.1677 12.6219 974 119.014 661.047 455.348
863 0 82.0628 13.6603 1121 116.674 663.159 458.601
864 0 84.206 9.97554 840 120.986 662.574 464.456
865 1 45.0676 12.3814 558 117.005 662.955 478.833
866 0 47.0349 10.9918 517 121.851 662.164 476.76
867 0 46.1213 12.1419 560 115.189 661.971 474.541
868 0 45.0827 10.6693 481 115.852 659.576 469.8
869 0 46.0587 9.27077 427 119.986 660.897 471.412
870 0 51.1495 11.9258 610 112.275 659.839 470.143
871 0 49.114 8.1036 398 119.533 659.769 467.648
872 0 49.1155 8.1237 399 134.018 659.757 467.476
873 0 53.0164 11.2795 598 115.043 657.109 464.36
874 0 51.1938 7.93065 406 121.172 656.793 467.054
875 0 59.1191 12.9231 764 109.694 656.007 468.044
876 0 56.1372 9.63711 541 130.152 656.161 462.924
877 0 57.1107 10.1907 582 118.861 655.105 463.029
878 0 61.1903 11.0802 678 117.522 654.006 459.621
879 0 63.1601 11.9854 757 115.193 654.513 459.51
880 0 61.1291 10.2733 628 116.064 654.497 459.166
881 0 65.14 13.0949 853 112.468 654.399 456.66
882 0 68.0723 12.0166 818 114.736 653.776 455.215
883 0 69.0933 10.5365 728 117.746 654.225 449.96
884 0 72.0857 12.0274 867 115.589 654.828 454.774
885 0 76.1449 12.8439 978 114.501 655.176 449.255
886 1 36.0788 9.42382 340 109.521 654.944 469.194
887 0 36.0557 8.57008 309 111.647 656.159 469.317
888 0 44.1009 13.061 576 113.524 655.663 471.118
889 0 42.0658 11.1254 468 115.212 656.782 471.011
890 0 43.0963 11.1378 480 116.708 655.885 470.365
891 0 42.0526 9.06007 381 119.144 657.163 470.449
892 0 46.1223 12.12 559 113.127 657.091 468.816
893 0 48.061 11.8807 571 116.228 657.602 468.217
894 0 49.1164 14.6387 719 109.885 658.341 469.886
895 0 51.0506 12.184 622 114.072 659.084 469.172
896 0 51.1347 12.5942 644 115.273 660.665 468.825
897 0 54.0432 12.8416 694 113.357 661.545 468.095
898 0 56.1192 11.4221 641 117.442 660.934 464.086
899 0 57.035 13.8161 788 114.844 661.157 464.825
900 0 58.0613 11.6773 678 118.341 662.018 464.948
901 0 63.1425 12.7014 802 117.044 662.738 466.035
902 0 61.0668 14.6725 896 113.887 662.552 467.353
903 0 66.0904 12.604 833 118.337 662.448 463.552
904 0 68.0734 11.2085 763 120.975 662.716 464.11
905 0 70.0614 12.7174 891 119.348 663.165 465.612
906 0 74.2767 13.4901 1002 118.002 663.632 465.73
907 0 77.1054 13.9809 1078 117.07 662.902 464.325
908 0 79.1981 12.9927 1029 118.247 662.815 465.259
909 1 40.0703 10.3318 414 121.14 662.672 483.592
910 0 44.1309 9.19989 406 122.126 661.658 483.121
911 0 46.0208 15.3843 708 109.483 660.668 484.754
912 0 48.0855 13.684 658 112.506 660.284 479.298
913 0 49.0589 13.3105 653 114.135 659.819 479.916
914 0 50.0266 13.213 661 114.604 659.372 479.151
915 0 52.1948 12.9515 676 115.34 658.172 479.121
916 0 54.1224 14.227 770 111.875 657.874 480.681
917 0 56.0656 16.2488 911 109.087 657.29 476.361
918 0 56.0895 14.0668 789 113.758 656.951 475.74
919 0 54.0919 7.19146 389 124.954 655.769 477.129
920 0 58.0921 12.8933 749 117.314 655.384 471.35
921 0 59.2018 11.047 654 119.905 655.283 472.757
922 0 63.0867 11.2385 709 119.252 655.065 470.526
923 0 65.0737 12.0632 785 117.445 654.49 470.503
924 0 67.2394 12.1357 816 118.548 654.855 466.96
925 0 68.131 11.1843 762 120.364 655.15 465.369
926 0 73.0808 13.6698 999 116.807 655.253 465.472
927 0 74.1627 12.3782 918 120.301 655.051 460.851
928 0 73.2336 12.8766 943 118.327 655.595 461.122
929 0 78.1175 16.1296 1260 114.279 655.342 456.529
930 0 80.2544 14.5911 1171 117.21 655.088 455.041
931 0 85.1533 11.72 998 122.429 655.679 448.578
932 1 43.1802 9.05507 391 126.32 657.378 469.588
933 0 50.2628 14.8818 748 112.223 656.71 470.73
934 0 49.0852 10.7975 530 121.432 657.7 467.592
935 0 52.0372 11.0882 577 121.891 657.584 468.258
936 0 52.1197 10.4375 544 123.349 658.783 465.072
937 0 52.0604 11.1793 582 119.175 659.337 467.081
938 0 53.0694 11.2871 599 119.925 659.294 464.927
939 0 57.0712 13.0013 742 115.287 660.187 465.325
940 0 58.0232 15.3387 890 111.394 660.717 464.951
941 0 62.0752 14.4986 900 112.09 661.073 464.601
942 0 64.1209 16.001 1026 111.429 661.117 463.306
943 0 67.2647 12.7853 860 119.405 662.144 462.317
944 0 67.0483 10.3209 692 123.46 662.938 463.949
945 0 73.181 13.9927 1024 117.92 662.137 459.897
946 0 74.0742 13.959 1034 118.603 661.571 461.028
947 0 77.1368 15.0641 1162 115.441 662.514 462.605
948 0 79.1965 13.2708 1051 121.208 662.352 456.993
949 0 80.3402 9.68382 778 128.594 662.395 461.891
950 0 83.2378 12.6385 1052 122.516 662.699 459.384
951 0 86.2516 12.4983 1078 123.014 661.428 456.676
952 1 42.2373 10.3937 439 118.802 661.576 474.67
953 0 43.2108 10.9001 471 120.898 661.752 472.318
954 0 47.1237 11.9897 565 118.12 660.853 474.481
955 0 47.1832 9.00745 425 124.574 661.061 476.014
956 0 47.2389 12.0028 567 124 659.547 472.452
957 0 51.2019 14.0815 721 120.154 659.688 471.374
958 0 54.2165 14.1101 765 122.354 657.75 475.608
959 0 56.2894 13.4128 755 127.264 656.713 479.142
960 0 55.1863 13.0648 721 128.971 656.743 479.23
961 0 59.1199 14.293 845 126.401 655.524 478.14
962 0 60.2453 13.2292 797 130.314 656.257 474.414
963 0 59.2807 11.842 702 135.369 654.111 472.369
964 0 64.1308 13.8779 890 128.712 654.931 472.135
965 0 64.1796 12.1222 778 132.65 653.608 471.623
966 0 69.2264 13.0297 902 129.809 653.62 470.697
967 0 69.3886 14.4116 1000 128.376 653.936 466.888
968 0 72.1014 13.0511 941 131.94 653.047 463.633
969 0 73.0546 13.9348 1018 130.981 653.095 459.914
970 0 77.0929 14.2426 1098 129.547 653.111 459.639
971 0 80.1859 14.3292 1149 127.628 653.172 458.554
972 0 85.1486 15.3144 1304 125.437 655.291 453.912
973 0 85.3015 14.1498 1207 128.746 655.489 452.718
974 0 89.1612 16.4758 1469 126.09 655.72 449.817
975 0 91.3444 16.082 1469 124.575 655.342 446.522
976 0 96.2872 15.4434 1487 126.646 655.59 447.934
977 0 96.1763 14.5878 1403 131.073 657.121 441.368
978 1 51.0293 11.7972 602 132.078 657.071 467.046
979 0 55.0943 13.2863 732 129.719 658.168 464.98
980 0 55.2938 13.6724 756 125.692 658.713 464.378
981 0 56.0608 11.8443 664 133.175 659.462 463.235
982 0 57.1139 12.5889 719 129.878 659.956 463.651
983 0 62.1604 13.6582 849 126.915 661.27 464.336
984 0 62.0828 13.7719 855 128.456 661.042 459.101
985 0 65.1322 11.7146 763 131.346 662.451 461.263
986 0 68.078 14.0133 954 124.76 663.14 459.932
987 0 69.1686 11.1033 768 132.527 661.744 460.529
988 0 75.1202 14.0042 1052 124.41 663.036 460.036
989 0 76.1671 16.2931 1241 124.826 663.042 459.93
990 0 78.0842 14.4075 1125 127.503 662.711 458.77
991 0 79.3094 13.7815 1093 131.862 661.596 456.967
992 0 82.2411 12.9862 1068 130.951 661.925 457.985
993 0 85.4513 13.8441 1183 128.954 661.43 458.106
994 0 85.4433 12.6751 1083 133.249 661.007 458.111
995 0 93.4274 18.0675 1688 118.909 660.61 461.36
996 0 93.324 13.3299 1244 127.858 660.943 461.542
997 1 49.058 14.1261 693 120.877 659.594 479.649
998 0 49.1089 11.5865 569 126.687 659.237 480.181
999 0 52.1041 11.3811 593 128.754 659.216 480.749
1000 0 53.265 13.2545 706 125.203 657.099 480.037
1001 0 51.1583 11.5524 591 127.338 657.739 476.45
1002 0 57.1426 13.9826 799 120.33 656.489 475.07
1003 0 57.0266 11.9067 679 123.616 656.524 474.352
1004 0 60.1835 12.7111 765 121.243 656.289 476.186
1005 0 60.218 11.2757 679 125.803 655.75 473.89
1006 0 62.0307 13.2676 823 124.027 655.83 472.287
1007 0 63.105 12.0117 758 126.405 655.768 469.745
1008 0 64.1348 11.2108 719 129.328 654.879 471.612
1009 0 67.2282 13.6104 915 124.649 654.682 467.457
1010 0 71.0703 15.6043 1109 120.805 654.326 465.904
1011 0 72.0852 12.18 878 127.058 655.68 463.919
1012 0 74.062 14.9739 1109 122.889 655.597 466.714
1013 0 73.1934 11.5857 848 132.097 654.924 458.791
1014 0 79.1349 14.4058 1140 126.418 655.164 459.069
1015 0 80.2486 13.8694 1113 127.872 654.823 451.319
1016 0 82.1838 12.2774 1009 131.45 656.8 452.117
1017 0 85.3296 14.9069 1272 127.509 655.907 446.135
1018 0 88.1969 13.2998 1173 131.326 656.646 442.553
1019 0 90.16 13.4539 1213 132.814 656.914 445.459
1020 0 95.4535 13.2211 1262 131.617 657.743 443.551
1021 0 99.1339 12.6294 1252 133.602 658.622 441.058
1022 0 100.345 12.447 1249 136.878 659.208 439.637
1023 0 102.443 13.4222 1375 136.055 659.361 438.916
1024 0 106.456 13.987 1489 133.101 659.31 437.643
1025 0 106.506 12.2998 1310 137.431 661.059 436.977
1026 0 110.402 13.4418 1484 136.4 660.833 432.462
1027 0 115.258 12.4763 1438 135.793 661.983 439.847
1028 0 120.468 14.6595 1766 129.836 662.74 438.475
1029 0 123.262 13.0941 1614 134.845 662.724 431.858
1030 0 123.291 11.3228 1396 139.626 662.804 431.169
1031 0 134.231 12.9553 1739 136.992 662.723 425.675
1032 1 68.1033 14.4633 985 124.017 662.532 459.234
1033 0 71.0507 10.781 766 130.407 662.048 461.441
1034 0 74.2475 12.2024 906 129.48 662.384 457.583
1035 0 78.1444 12.8608 1005 128.2 662.517 458.561
1036 0 80.1515 11.6654 935 131.69 660.582 457.713
1037 0 82.1566 16.785 1379 121.896 661.569 455.036
1038 0 84.1029 12.2945 1034 131.734 661.692 460.507
1039 0 88.2004 12.8117 1130 132.453 661.19 457.412
1040 0 92.2848 13.9893 1291 130.534 659.95 459.671
1041 0 98.2239 13.1231 1289 130.795 659.857 459.339
1042 1 50.2275 11.5076 578 128.785 657.924 475.68
1043 0 52.2296 11.909 622 130.513 657.46 475.83
1044 0 54.1404 10.8976 590 126.659 657.015 478.488
1045 0 55.0907 13.0331 718 120.955 658.061 480.32
1046 0 56.2656 13.774 775 121.394 657.684 474.254
1047 0 56.1211 13.1145 736 123.037 657.182 474.194
1048 0 59.1616 12.8969 763 122.712 655.363 474.979
1049 0 62.1805 14.3132 890 120.034 655.028 472.329
1050 0 64.345 14.3135 921 119.782 654.463 471.353
1051 0 65.0623 11.9578 778 124.508 654.68 470.665
1052 0 67.0972 12.4595 836 123.474 654.007 469.937
1053 0 69.0608 11.946 825 125.696 654.867 467.087
1054 0 72.1665 11.5566 834 125.765 654.884 466.247
1055 0 73.0808 12.6983 928 125.193 654.494 460.981
1056 0 77.0963 12.5428 967 124.882 654.57 461.317
1057 0 79.0907 11.9357 944 127.197 655.378 459.251
1058 0 79.1027 12.4775 987 127.362 655.192 455.286
1059 0 85.1144 14.8741 1266 121.088 655.281 457.645
1060 0 88.2142 15.0203 1325 121.321 655.787 452.858
1061 0 89.3204 13.0877 1169 126.692 655.769 452.221
1062 1 49.0505 11.8449 581 128.709 656.164 469.902
1063 0 50.0913 10.6406 533 129.983 656.743 470.386
1064 0 52.1859 13.8543 723 123.445 657.497 467.606
1065 0 55.1156 14.4968 799 122.812 658.721 468.811
1066 0 54.0984 12.7915 692 127.542 658.211 467.389
1067 0 54.0931 13.181 713 127.91 658.864 463.348
1068 0 59.0905 12.1678 719 126.036 660.341 468.896
1069 0 57.1486 14.2786 816 125.841 660.486 463.974
1070 0 60.1667 13.1468 791 127.36 661.291 464.951
1071 0 62.1694 13.6562 849 127.764 661.637 466.773
1072 0 63.1277 11.944 754 132.765 661.523 463.971
1073 0 66.267 13.4607 892 129.074 662.723 466.568
1074 0 68.2271 14.1 962 130.826 663.764 464.456
1075 0 68.2271 14.056 959 138.313 664.771 464.422
1076 0 72.1508 14.6637 1058 127.124 663.157 461.021
1077 0 74.297 14.8324 1102 126.707 663.378 464.339
1078 0 74.1169 13.5462 1004 131.127 662.259 463.104
1079 0 81.1768 12.3804 1005 132.455 662.829 462.767
1080 0 83.1862 11.8048 982 133.4 661.666 465.852
1081 0 86.2157 13.5706 1170 131.088 661.612 460.438
1082 0 92.3612 11.834 1093 134.51 661.164 460.443
1083 0 91.1285 12.0379 1097 135.163 660.998 456.625
1084 0 95.1678 13.9543 1328 130.472 659.717 453.191
1085 1 50.1768 11.579 581 131.365 659.873 478.477
1086 0 51.0502 10.8521 554 134.431 659.922 482.134
1087 0 51.0432 10.8144 552 135.458 659.915 482.069
1088 0 53.0638 10.3649 550 134.673 657.055 482.196
1089 0 57.2741 12.6759 726 129.872 656.391 480.939
1090 0 56.1279 12.8813 723 129.102 656.035 480.311
1091 0 60.2186 14.0986 849 127.735 655.423 475.748
1092 0 63.0443 12.5309 790 130.829 655.299 475.491
1093 0 64.2234 11.9583 768 132.417 655.014 475.263
1094 0 66.2938 13.0782 867 132.622 653.982 468.668
1095 0 70.1568 15.052 1056 126.557 654.435 471.792
1096 0 70.1291 12.7622 895 133.388 653.513 468.409
1097 0 72.1138 14.1304 1019 130.321 654.243 466.981
1098 0 72.1138 14.1998 1024 134.41 655.207 466.945
1099 0 75.1206 13.8577 1041 131.532 652.645 462.151
1100 0 77.0867 13.4135 1034 133.566 652.8 460.506
1101 0 79.3438 13.3218 1057 133.75 653.221 460.27
1102 0 81.117 15.0154 1218 130.686 652.99 455.878
1103 0 84.1948 13.7894 1161 132.736 653.378 456.322
1104 0 88.1096 14.0847 1241 131.745 655.554 455.004
1105 0 89.1527 15.0753 1344 130.611 654.7 450.609
1106 0 95.1877 19.4458 1851 120.877 655.382 450.286
1107 0 96.1234 14.9807 1440 130.41 655.443 447.444
1108 0 100.14 17.0761 1710 124.804 656.684 446.26
1109 0 102.243 16.7542 1713 127.19 657.461 440.28
1110 1 52.0353 12.2225 636 133.149 658.67 465.737
1111 0 52.0353 12.1264 631 149.887 660.664 465.81
1112 0 57.0482 10.3421 590 138.753 659.456 461.79
1113 0 62.0458 13.6029 844 132.5 660.177 464.55
1114 0 63.0965 12.6632 799 132.529 659.24 468.264
1115 0 67.0915 14.4728 971 129.38 660.219 464.753
1116 0 70.0684 12.759 894 133.303 660.761 463.789
1117 0 68.0684 14.9849 1020 131.092 660.481 461.108
1118 0 70.1043 12.0677 846 136.329 661.294 462.807
1119 0 77.0873 16.2284 1251 125.536 661.115 461.853
1120 0 79.083 12.5944 996 134.853 661.092 459.218
1121 0 81.0586 15.9144 1290 127.412 661.154 460.078
1122 0 83.0892 16.3559 1359 126.935 661.135 461.731
1123 0 86.143 17.6567 1521 124.323 660.093 459.542
1124 0 88.2154 13.6824 1207 133.519 659.659 456.183
1125 1 47.1207 10.5686 498 137.241 658.193 479.914
1126 0 51.1735 12.5456 642 133.196 658.399 478.986
1127 0 51.0912 14.0142 716 132.749 658.478 479.334
1128 0 51.1389 12.7691 653 137.516 657.317 476.92
1129 0 54.1434 11.3218 613 139.561 656.855 478.488
1130 0 59.1518 14.8939 881 130.53 656.421 477.237
1131 0 61.161 15.075 922 129.484 656.049 481.095
1132 0 61.1312 13.0375 797 136.719 653.991 477.646
1133 0 63.1435 14.8709 939 133.561 653.906 476.383
1134 0 66.1226 14.8361 981 133.436 652.564 475.471
1135 0 67.0807 14.5646 977 136.132 654.23 473.514
1136 0 69.1992 13.3094 921 139.991 653.096 471.546
1137 0 72.1278 15.9855 1153 131.774 652.968 472.003
1138 0 72.0551 14.9469 1077 135.079 652.084 470.497
1139 0 72.0551 14.9747 1079 148.099 651.082 470.392
1140 0 79.1523 13.6319 1079 137.057 651.777 467.055
1141 0 80.0345 14.3313 1147 137.301 652.055 463.566
1142 0 82.0985 13.6056 1117 139.554 651.345 461.508
1143 0 82.0985 13.6178 1118 147.928 650.338 461.417
1144 1 48.0943 12.122 583 137.048 651.654 478.696
1145 0 47.1256 12.7744 602 137.963 652.191 475.968
1146 0 51.0958 12.5059 639 131.491 651.789 472.347
1147 0 48.057 11.0702 532 130.556 653.002 473.196
1148 0 55.0881 15.2483 840 120.032 653.886 470.785
1149 0 53.1078 14.3858 764 123.771 654.38 467.652
1150 0 54.1443 12.282 665 127.35 654.188 466.283
1151 0 57.1502 13.5432 774 124.813 654.992 463.742
1152 0 58.071 10.9866 638 129.784 656.804 467.246
1153 0 60.1033 13.0775 786 128.136 656.589 464.073
1154 0 63.0769 12.4768 787 128.95 658.288 461.881
1155 0 67.1653 15.4395 1037 130.007 657.786 460.88
1156 0 68.2265 15.1554 1034 130.901 658.363 462.693
1157 0 72.0898 13.7884 994 132.05 659.394 461.551
1158 0 72.1383 12.3236 889 135.148 658.739 461.606
1159 0 77.1205 14.1856 1094 129.799 660.906 463.123
1160 0 81.1625 15.5121 1259 127.887 660.464 456.338
1161 1 42.0171 9.82932 413 137.634 662.286 481.416
1162 0 43.0445 11.6623 502 135.663 661.213 476.647
1163 0 44.0322 11.4462 504 134.077 662.317 482.046
1164 0 49.1244 14.0052 688 129.632 661.839 478.394
1165 0 49.0909 14.9111 732 128.806 662.418 481.083
1166 0 50.0719 14.9984 751 126.208 661.62 480.506
1167 0 51.1468 14.1358 723 128.022 661.102 481.151
1168 0 54.1115 15.1169 818 126.489 660.483 478.278
1169 0 59.1571 17.2929 1023 119.72 660.275 478.394
1170 0 58.0611 15.0876 876 124.74 659.837 479.914
1171 0 57.14 13.6157 778 129.469 659.373 480.356
1172 0 62.0617 13.8733 861 128.12 658.467 476.478
1173 0 63.0719 12.9535 817 132.879 658.463 475.105
1174 0 66.1442 15.9047 1052 127.422 657.434 473.838
1175 0 70.1436 15.34 1076 127.62 655.913 475.271
1176 0 71.0748 14.9702 1064 129.359 656.258 474.885
1177 0 74.1629 13.9018 1031 130.739 655.633 473.132
1178 0 77.0898 15.0085 1157 128.466 654.91 471.226
1179 0 78.1868 13.8642 1084 129.994 654.098 468.868
1180 0 82.1577 15.5676 1279 127.212 654.081 466.043
1181 1 42.1008 11.2825 475 134.267 653.657 486.293
1182 0 43.2086 12.1504 525 132.987 652.834 482.661
1183 0 42.0355 10.3008 433 129.455 652.326 479.025
1184 0 44.0875 11.8854 524 127.483 652.198 478.538
1185 0 47.1202 12.9032 608 125.424 652.179 478.48
1186 0 48.0713 11.0461 531 131.39 651.797 471.727
1187 0 48.0713 11.0045 529 143.611 650.794 471.73
1188 0 52.0316 13.7993 718 126.428 652.887 471.042
1189 0 51.0649 10.2615 524 135.246 652.046 468.614
1190 0 56.2305 13.5158 760 125.625 652.714 471.762
1191 0 57.1017 15.1134 863 124.667 654.115 466.44
1192 0 62.1262 14.1808 881 123.32 653.849 468.213
1193 0 63.0634 11.6391 734 130.837 654.462 465.059
1194 0 61.0578 11.7594 718 133.21 655.046 462.572
1195 0 63.1 11.87 749 133.271 655.24 461.919
1196 0 69.2377 13.6631 946 126.868 656.384 461.557
1197 0 70.1295 14.3591 1007 127.383 656.896 458.083
1198 0 72.1348 14.9027 1075 126.417 656.984 457.47
1199 0 78.1832 13.4556 1052 128.182 658.309 458.072
1200 0 76.0721 13.1717 1002 131.339 658.24 453.962
1201 0 78.0797 14.8566 1160 127.812 658.534 455.55
1202 0 80.2292 13.611 1092 129.2 659.67 461.766
1203 0 85.2783 12.1602 1037 134.262 660.421 458.789
1204 1 43.0567 11.1945 482 134.977 661.326 476.996
1205 0 51.0408 12.6957 648 130.037 661.352 476.552
1206 0 50.1972 10.6181 533 135.223 661.495 473.668
1207 0 48.0526 13.1939 634 131.014 661.587 460.872
1208 0 51.1172 11.9725 612 133.649 661.096 466.665
1209 0 53.2537 14.6093 778 125.972 660.535 472.658
1210 0 53.1647 12.0945 643 132.58 660.776 473.073
1211 0 56.2936 10.8183 609 134.425 660.179 473.305
1212 0 57.2462 13.2236 757 131.411 660.222 472.719
1213 0 59.1067 14.0932 833 133.246 658.905 477.102
1214 0 61.0308 13.1901 805 134.994 658.768 476.445
1215 0 65.0755 14.0452 914 131.804 657.811 477.978
1216 0 67.0539 11.3789 763 140.222 655.786 472.392
1217 0 70.0701 14.828 1039 132.892 656.01 472.6
1218 0 69.1098 13.0083 899 136.811 655.57 472.753
1219 0 69.097 12.562 868 143.842 655.626 472.243
1220 0 76.1317 13.6474 1039 135.89 653.67 467.183
1221 0 78.1584 12.4491 973 138.378 652.696 465.74
1222 1 93.0988 9.29121 865 141.679 653.047 468.24
1223 0 88.2555 14.2881 1261 133.09 652.383 460.271
1224 0 85.0906 15.3836 1309 130.813 652.227 458.506
1225 0 88.2351 14.4047 1271 133.953 652.543 454.841
1226 1 40.1067 9.6742 388 137.054 651.928 474.657
1227 0 46.0548 12.6371 582 130.172 651.498 473.619
1228 0 49.176 12.2417 602 133.189 651.714 471.512
1229 0 49.0712 12.3494 606 134.497 652.111 468.848
1230 0 53.052 12.9119 685 126.851 653.016 466.885
1231 0 53.0358 12.105 642 127.252 653.874 467.78
1232 0 57.1822 13.3433 763 125.387 653.543 467.769
1233 0 58.1119 10.4798 609 131.166 655.384 467.713
1234 0 63.2124 15.4717 978 121.231 654.766 464.714
1235 0 62.1306 15.7893 981 120.76 655.101 462.774
1236 0 61.1296 11.173 683 128.428 655.095 458.407
1237 0 66.1973 11.2996 748 132.35 657.078 461.627
1238 0 72.071 15.2072 1096 125.359 657.233 459.196
1239 0 71.1562 12.4515 886 131.418 657.696 460.186
1240 0 75.0645 14.9738 1124 127.998 658.642 455.647
1241 0 77.0924 15.2155 1173 128.031 659.412 457.459
1242 0 80.093 14.1585 1134 134.407 659.444 453.769
1243 0 85.2538 13.0434 1112 136.853 659.473 451.862
1244 0 82.2538 12.0845 994 139.444 658.501 450.215
1245 0 86.2362 13.3123 1148 137.882 660.595 446.741
1246 1 44.0563 11.5988 511 136.339 661.716 470.522
1247 0 48.0707 13.0849 629 131.313 662.218 474.114
1248 0 47.0568 11.9005 560 134.305 662.904 473.414
1249 0 49.1059 13.9902 687 126.837 661.712 470.087
1250 0 50.3279 11.9814 603 133.337 662.36 465.798
1251 0 53.1395 15.0735 801 128.355 662.291 469.346
1252 0 55.1342 11.7894 650 132.814 661.991 475.372
1253 0 57.2439 11.8615 679 133.052 660.745 472.582
1254 0 61.1295 13.4469 822 127.849 660.837 472.841
1255 0 60.3138 12.5842 759 126.572 659.519 473.567
1256 0 64.3028 13.1876 848 128.718 658.427 473.327
1257 0 66.1082 12.5249 828 128.413 657.792 475.232
1258 0 71.1179 12.6691 901 126.942 658.129 469.114
1259 0 72.1872 11.9273 861 129.53 657.852 472.495
1260 0 74.1183 12.6824 940 129.093 656.131 468.507
1261 0 76.1417 12.6081 960 129.512 654.462 465.438
1262 0 80.3695 14.8315 1192 124.864 655.086 463.032
1263 0 81.2432 10.9671 891 131.842 654.185 462.998
1264 0 84.1773 11.1669 940 130.702 653.163 463.463
1265 0 88.4608 11.5192 1019 129.879 651.808 463.196
1266 1 43.1605 11.214 484 127.87 652.223 481.736
1267 0 42.1642 8.79894 371 134.809 652.854 482.237
1268 0 44.2624 9.94072 440 133.075 652.916 479.375
1269 0 48.1122 12.3461 594 129.613 651.426 479.825
1270 0 48.0707 11.8367 569 131.36 650.984 475.921
1271 0 52.0431 14.1806 738 126.346 652.001 474.966
1272 0 53.3209 14.4784 772 126.403 650.956 473.028
1273 0 53.1104 15.1948 807 127.856 651.25 467.584
1274 0 54.115 10.4592 566 136.947 651.716 469.023
1275 0 58.1417 16.821 978 124.504 652.707 470.212
1276 0 58.1552 12.9481 753 133.214 652.776 465.866
1277 0 62.252 13.9755 870 129.474 653.747 464.961
1278 0 65.3378 14.8918 973 128.561 653.879 462.381
1279 0 66.335 13.9745 927 131.149 654.132 461.432
1280 0 70.2012 17.6208 1237 126.861 655.179 456.169
1281 0 71.2767 13.1319 936 135.388 656.02 459.712
1282 0 74.3029 15.9886 1188 130.85 657.159 457.099
1283 0 76.2982 13.1065 1000 136.919 658.222 453.458
1284 1 42.4772 11.7946 501 140.796 658.072 469.321
1285 0 42.1827 13.6075 574 138.538 658.796 470.136
1286 0 44.0676 9.55351 421 147.254 659.489 470.321
1287 0 48.1067 12.9504 623 138.573 659.963 472.716
1288 0 46.1108 13.0121 600 135.25 661.053 472.108
1289 0 50.1969 16.8337 845 133.57 661.085 470.924
1290 0 52.1269 12.9108 673 141.64 661.79 470.247
1291 0 54.0742 14.8684 804 137.711 661.558 469.565
1292 0 55.2771 14.5449 804 140.025 660.496 469.058
1293 0 58.3072 14.4236 841 140.585 660.746 468.51
1294 0 59.0882 14.4022 851 141.521 660.866 470.68
1295 0 61.3691 14.8609 912 142.118 659.96 472.117
1296 0 64.1549 13.8103 886 144.629 659.334 470.618
1297 0 67.0459 14.4826 971 143.558 659.35 471.47
1298 0 67.1387 13.9562 937 146.472 659.368 469.517
1299 0 69.109 12.7046 878 151.018 658.858 469.502
1300 0 74.0994 13.3334 988 148.268 658.124 473.091
1301 0 77.1429 18.5111 1428 138.68 657.02 469.651
1302 0 80.2452 13.3092 1068 151.516 656.193 463.922
1303 0 86.1282 16.1387 1390 142.166 655.749 468.775
1304 1 46.2335 11.4635 530 145.817 655.355 486.5
1305 0 47.0791 13.5729 639 145.305 654.002 483.399
1306 0 45.1532 11.0513 499 154.006 654.054 480.002
1307 0 47.0958 12.4427 586 149.276 653.514 480.411
1308 0 47.0958 12.3366 581 150.847 652.522 480.398
1309 0 53.1117 13.481 716 148.89 651.57 475.676
1310 0 56.094 12.6751 711 150.952 651.3 473.752
1311 0 58.0405 13.4734 782 149.607 650.923 471.078
1312 0 58.0446 13.0589 758 152.024 651.748 470.452
1313 0 59.0849 13.3537 789 150.611 651.054 465.975
1314 0 59.0849 13.4721 796 140.525 650.079 465.981
1315 0 67.1853 13.9763 939 146.181 651.538 464.009
1316 0 66.177 11.8319 783 153.572 651.921 459.953
1317 0 70.2271 16.0195 1125 143.771 652.625 461.327
1318 0 72.695 15.118 1099 146.096 652.833 458.199
1319 0 74.1617 12.5806 933 152.103 653.311 457.17
1320 0 77.3086 15.7292 1216 144.674 653.589 455.015
1321 0 78.3166 14.8372 1162 146.63 655.077 452.063
1322 0 82.3309 13.883 1143 148.934 654.682 449.255
1323 0 83.2277 15.8481 1319 141.77 656.412 446.378
1324 1 44.1733 7.96862 352 139.906 656.389 464.415
1325 0 43.2733 7.90326 342 143.974 657.07 462.693
1326 0 47.3553 10.0728 477 140.648 658.216 466.367
1327 0 46.1461 9.59994 443 138.183 658.558 469.011
1328 0 49.3208 11.5975 572 133.065 659.248 470.414
1329 1 99.2461 13.6932 1359 148.589 660.308 440.279
1330 0 102.43 13.0822 1340 150.177 659.539 441.981
1331 0 102.43 13.0529 1337 140.441 659.533 441.841
1332 0 110.464 13.2079 1459 148.87 659.984 440.82
1333 0 109.348 12.2453 1339 152.573 661.01 437.058
1334 0 113.369 11.908 1350 155.387 660.162 433.056
1335 0 119.346 15.5765 1859 147.151 660.823 434.536
1336 0 124.275 14.9749 1861 148.067 660.114 437.454
1337 0 127.28 16.3183 2077 146.354 659.844 431.297
1338 0 130.364 14.6052 1904 151.405 659.599 428.556
1339 0 139.354 12.3929 1727 155.865 659.645 429.012
1340 0 148.431 12.4031 1841 155.866 658.471 422.853
1341 0 150.449 14.131 2126 151.986 658.494 428.269
1342 0 153.153 12.3144 1886 159.036 657.314 417.254
1343 0 160.342 15.6229 2505 150.934 656.889 424.521
1344 0 164.271 15.1944 2496 152.115 655.459 417.83
1345 0 166.479 10.3917 1730 163.545 655.23 414.061
1346 0 165.581 10.0495 1664 165.334 653.231 412.73
1347 1 122.267 6.60033 807 169.519 653.94 424.751
1348 0 127.21 5.70709 726 170.304 654.167 429.596
1349 0 125.055 1.3754 172 157.105 652.39 465.971
1350 0 123.117 1.71382 211 168.602 651.441 450.095
1351 0 126.222 1.10123 139 148.216 650.511 472.777
1352 0 125.044 1.73538 217 141.419 651.654 477.152
1353 0 122.025 1.43414 175 151.457 651.674 461.634
1354 1 33.0689 8.86028 293 128.041 651.768 486.283
1355 0 33.0096 10.6938 353 126.969 651.283 482.649
1356 0 29.0205 7.44301 216 130.125 651.787 479.157
1357 0 28.0112 5.8191 163 130.11 652.319 486.54
1358 0 36.0819 3.90778 141 134.766 652.44 480.121
1359 0 39.0197 9.94369 388 127.665 653.072 476.098
1360 0 36.0327 10.0742 363 128.815 653.73 474.427
1361 0 36.0327 10.1574 366 97.0027 654.713 474.464
1362 0 39.0629 13.1071 512 125.355 653.975 473.766
1363 0 37.038 5.29186 196 138.862 655.026 476.102
1364 0 37.0512 6.45053 239 137.264 655.456 475.703
1365 0 41.0636 5.40625 222 138.996 656.027 477.171
1366 1 120.555 12.1853 1469 148.849 656.467 432.338
1367 0 119.476 10.0523 1201 156.906 658.406 423.594
1368 0 121.241 9.13057 1107 151.639 658.903 434.742
1369 0 125.532 7.94223 997 155.198 659.15 437.043
1370 0 122.372 10.0268 1227 148.674 658.895 440.121
1371 0 123.326 10.525 1298 150.645 660.183 437.391
1372 0 123.396 6.93703 856 154.243 659.445 438.354
1373 1 289.849 14.0108 4061 171.786 660.734 343.268
1374 0 296.697 11.5943 3440 177.405 660.392 335.958
1375 0 300.724 10.4215 3134 177.13 662.026 350.095
1376 0 298.825 5.62536 1681 177.038 661.141 377.002
1377 0 301.927 7.29315 2202 177.052 661.37 367.676
1378 1 290.855 7.95584 2314 176.65 660.08 365.946
1379 0 302.058 12.4513 3761 171.885 661.19 358.095
1380 0 307.307 9.64834 2965 181.062 660.014 340.562
1381 0 311.253 4.0353 1256 169.938 658.806 404.693
1382 0 333.787 13.6944 4571 177.013 658.592 316.286
1383 0 340.263 14.1978 4831 177.025 658.559 316.264
1384 0 348.991 15.2898 5336 176.922 657.898 306.976
1385 0 361.278 21.8198 7883 161.149 657.311 303.349
1386 0 361.498 24.0167 8682 160.632 656.74 295.724
1387 0 368.501 24.5997 9065 160.424 656.132 300.246
1388 1 107.614 13.344 1436 157.149 655.04 453.357
1389 0 107.372 12.7035 1364 160.963 655.049 452.5
1390 1 187.441 8.6107 1614 159.256 652.667 406.496
1391 0 194.731 8.98674 1750 157.603 653.019 411.31
1392 0 197.752 11.5852 2291 152.266 653.608 406.434
1393 0 204.526 9.10399 1862 158.501 652.87 400.125
1394 1 158.63 8.04389 1276 158.012 652.56 419.697
1395 0 165.618 12.4262 2058 148.196 651.994 425.223
1396 0 166.703 12.5853 2098 147.991 651.353 421.15
1397 0 172.003 10.6742 1836 155.953 652.321 412.629
1398 0 170.891 9.12277 1559 157.326 651.23 418.4
1399 0 170.602 10.9905 1875 156.495 651.625 414.031
1400 0 179.612 10.9179 1961 157.392 651.116 409.012
1401 0 185.409 9.14735 1696 160.333 651.172 407.23
1402 1 221.495 8.97989 1989 161.914 652.573 401.119
1403 0 220.327 6.17717 1361 160.491 652.178 419.169
1404 0 219.567 5.70213 1252 166.423 652.943 409.744
1405 0 216.623 6.57364 1424 157.296 652.481 420.607
1406 0 217.439 10.4351 2269 156.891 653.857 397.094
1407 1 74.3884 9.41006 700 142.547 654.663 455.783
1408 0 76.126 9.9309 756 143.775 654.817 452.491
1409 1 42.0525 9.53571 401 141.813 655.616 470.641
1410 0 43.0603 9.52152 410 143.127 658.093 470.61
1411 0 42.0891 9.47988 399 144.622 658.709 470.386
1412 0 46.1664 12.8448 593 129.648 657.85 468.034
1413 0 48.1945 12.3873 597 131.288 658.864 467.204
1414 0 51.1033 12.3867 633 130.311 659.318 465.011
1415 0 53.1765 13.1073 697 128.277 659.481 464.806
1416 0 52.0977 10.8834 567 134.977 660.055 465.843
1417 0 52.1566 11.0628 577 134.792 660.6 463.891
1418 0 53.1059 9.98006 530 136.206 660.809 468.762
1419 0 55.125 7.94558 438 138.546 661.258 473.493
1420 0 54.1076 11.1629 604 136.185 660.672 467.063
1421 0 55.1154 8.36427 461 139.642 661.295 469.382
1422 0 57.3389 9.64442 553 138.477 660.915 466.722
1423 0 59.0821 11.7464 694 134.295 660.108 464.275
1424 0 64.1122 5.03804 323 143.068 659.576 473.254
1425 0 67.0882 13.8474 929 129.793 659.379 469.694
1426 0 69.1856 12.2858 850 133.604 658.104 464.938
1427 0 70.1443 12.2177 857 134.753 658.369 466.825
1428 0 71.3169 10.8389 773 137.595 657.054 466.314
1429 0 76.0928 11.4728 873 136.78 657.081 460.079
1430 0 75.3026 10.5308 793 141.671 655.15 457.641
1431 0 76.2061 13.0436 994 141.131 655.529 450.215
1432 0 75.2316 8.48048 638 145.171 653.98 454.03
1433 1 35.153 8.47723 298 137.198 655.054 472.134
1434 0 43.0712 9.98346 430 134.093 653.486 476.607
1435 0 44.095 7.57456 334 137.725 653.611 477.674
1436 0 50.1197 12.9091 647 129.445 652.844 477.714
1437 0 52.1613 12.3272 643 129.03 652.818 473.974
1438 0 52.2214 12.1598 635 130.091 652.592 473.841
1439 0 53.1825 14.8357 789 97.8885 652.465 471.158
1440 0 56.0945 13.299 746 130.083 651.993 470.035
1441 0 60.3167 10.793 651 132.731 652.075 468.988
1442 0 61.1662 13.5205 827 131.787 651.553 467.277
1443 0 60.1247 12.9564 779 131.53 652.239 462.923
1444 0 64.1041 12.2613 786 131.513 651.866 462.723
1445 0 67.117 13.4988 906 129.387 652.555 462.111
1446 0 67.117 13.5733 911 101.368 652.521 461.841
1447 0 70.141 11.1632 783 132.997 653.948 456.25
1448 0 71.1033 13.839 984 128.902 653.95 456.695
1449 0 75.2364 12.9724 976 130.805 655.253 453.97
1450 0 80.2353 15.7661 1265 125.115 655.661 454.54
1451 0 82.0604 12.7955 1050 131.735 656.356 450.494
1452 0 84.0855 12.7489 1072 132.204 657.105 449.831
1453 0 86.2003 12.0533 1039 137.898 656.472 448.812
1454 0 92.3136 14.6891 1356 132.446 657.216 450.999
1455 0 94.214 14.1168 1330 134.447 658.622 447.783
1456 1 48.1566 10.2374 493 130.854 659.047 474.406
1457 0 48.0377 12.5735 604 127.652 660.134 471.424
1458 0 45.081 10.1595 458 135.249 659.78 470.474
1459 0 47.0928 10.044 473 133.192 660.596 472.755
1460 0 47.0928 10.0015 471 119.947 660.597 472.798
1461 0 54.1249 16.7945 909 124.506 661.981 468.552
1462 0 53.2065 13.2315 704 129.027 661.72 472.224
1463 0 55.114 12.3018 678 132.838 661.206 470.208
1464 0 58.1068 13.4924 784 131.323 661.153 467.717
1465 0 59.1605 14.7734 874 130.637 660.346 472.093
1466 0 62.1168 12.2994 764 139.496 661.025 469.317
1467 0 63.1714 12.9331 817 138.405 660.116 470.595
1468 0 67.1471 12.7184 854 138.994 658.844 468.092
1469 0 71.1643 13.6023 968 135.988 658.716 468.699
1470 0 72.2714 13.1726 952 139.033 657.841 467.152
1471 0 77.2823 12.8231 991 137.916 656.902 467.012
1472 0 76.1061 12.9425 985 140.053 655.49 465.498
1473 0 77.1256 14.418 1112 139.368 655.059 464.705
1474 0 85.2945 14.4323 1231 137.086 654.043 461.914
1475 0 86.2289 16.2938 1405 136.592 654.463 458.203
1476 1 41.0761 11.15 458 141.153 653.611 481.277
1477 0 44.0495 15.3691 677 134.477 652.582 480.864
1478 0 45.0691 14.0895 635 136.712 652.772 481.101
1479 0 48.0419 14.9453 718 135.876 652.898 480.547
1480 0 50.0774 18.8508 944 129.506 652.621 477.8
1481 0 51.0771 11.7665 601 141.532 652.2 478.055
1482 0 50.042 12.5295 627 140.477 652.201 476.032
1483 0 50.0553 12.5661 629 143.021 653.159 473.755
1484 0 55.2073 13.1685 727 138.239 651.748 474.172
1485 0 57.0631 14.5628 831 136.554 652.011 470.42
1486 0 56.2064 13.2725 746 141.221 651.987 465.836
1487 0 60.1611 15.6413 941 136.083 652.453 464.746
1488 0 59.1276 14.2404 842 139.409 653.19 461.594
1489 0 63.2004 13.5917 859 138.822 652.151 465.421
1490 0 67.1657 17.1367 1151 131.525 653.212 462.003
1491 0 67.0756 15.818 1061 135.183 653.797 459.681
1492 0 70.3616 13.9849 984 138.145 655.543 459.924
1493 0 69.3616 14.2298 987 127.947 657.535 459.715
1494 0 74.2315 13.5118 1003 140.583 655.111 454.496
1495 0 72.3088 12.7232 920 143.862 657.497 450.258
1496 0 72.3185 12.5832 910 130.809 660.48 450.237
1497 0 72.3185 12.5556 908 130.389 663.481 450.226
1498 0 85.2259 15.0776 1285 137.956 656.694 445.89
1499 0 88.1377 14.7723 1302 139.344 659.068 446.016
1500 0 89.1991 12.7468 1137 142.156 659.238 442.102
1501 0 93.3829 13.525 1263 139.645 659.377 448.438
1502 1 52.0865 12.0185 626 135.888 660.042 468.789
1503 0 52.0662 10.2562 534 139.663 660.412 467.307
1504 0 50.1072 15.0677 755 136.036 660.523 468.033
1505 0 56.0659 11.7005 656 136.463 659.771 469.037
1506 0 59.1738 9.48055 561 137.631 661.428 472.258
1507 0 58.0758 8.50613 494 141.842 659.947 469.022
1508 0 63.0899 13.9166 878 134.798 661.09 466.935
1509 0 64.0754 13.2188 847 136.498 658.952 469.444
1510 0 68.0439 8.9795 611 142.782 658.658 469.165
1511 0 71.1197 14.4826 1030 136.694 657.916 466.062
1512 0 72.2235 15.009 1084 138.402 658.212 462.191
1513 0 76.4188 15.0356 1149 136.607 657.905 465.047
1514 0 77.0806 13.0513 1006 142.687 656.898 459.348
1515 0 80.2176 10.8954 874 145.617 655.84 461.404
1516 0 84.1264 13.135 1105 143.011 654.292 459.537
1517 0 86.2115 14.1164 1217 141.887 654.063 456.574
1518 0 87.1056 12.2036 1063 144.77 653.943 459.13
1519 0 92.1454 14.3795 1325 141.688 653.58 454.279
1520 0 97.1532 15.4807 1504 138.999 653.356 452.579
1521 0 95.1316 11.0794 1054 148.418 652.88 451.45
1522 1 55.059 10.5705 582 142.546 652.739 468.156
1523 0 54.0328 14.5097 784 137 652.46 469.458
1524 0 57.046 12.7441 727 135.292 651.637 472.546
1525 0 60.0934 11.4988 691 138.899 650.971 469.699
1526 0 62.156 15.2358 947 132.117 652.299 465.752
1527 0 64.1012 13.2447 849 135.85 652.68 466.135
1528 0 65.0803 13.8444 901 134.947 651.897 466.477
1529 0 68.1038 15.3148 1043 134.05 651.503 460.885
1530 0 71.2196 10.6853 761 141.371 652.396 458.127
1531 0 74.1067 9.97211 739 139.175 651.338 463.317
1532 0 75.1763 12.903 970 138.746 653.28 453.632
1533 0 80.1181 12.494 1001 138.222 654.144 449.566
1534 0 81.156 12.1618 987 139.825 654.163 448.82
1535 0 84.2756 10.964 924 141.938 654.953 447.275
1536 0 87.1036 12.135 1057 141.282 655.922 446.018
1537 0 90.147 13.3671 1205 139.045 656.474 444.172
1538 0 91.1145 13.2361 1206 144.43 656.488 439.377
1539 0 96.2593 15.3336 1476 139.974 657.192 440.538
1540 0 101.172 15.3897 1557 139.251 658.044 440.532
1541 0 102.329 14.424 1476 141.409 657.905 439.647
1542 1 56.1089 8.92906 501 145.497 658.611 462.685
1543 0 58.1132 13.6458 793 136.981 659.791 458.75
1544 0 56.0247 9.42442 528 144.169 660.18 458.977
1545 0 60.2383 10.2095 615 142.863 659.663 458.701
1546 0 64.0614 9.13186 585 144.957 659.862 463.226
1547 0 70.0965 10.6567 747 141.297 660.286 463.036
1548 0 72.0475 11.2842 813 140.872 660.899 459.999
1549 0 73.0585 10.4711 765 141.633 660.482 464.201
1550 1 137.337 12.3127 1691 148.568 660.044 430.802
1551 0 142.435 11.4999 1638 148.989 658.424 428.391
1552 0 141.185 10.2489 1447 151.308 659.762 432.092
1553 0 142.25 10.116 1439 152.187 658.838 431.58
1554 0 135.161 8.8635 1198 152.754 658.255 431.89
1555 0 135.808 10.3676 1408 150.832 657.879 428.451
1556 1 87.134 9.84691 858 145.685 657.256 448.111
1557 0 87.1537 11.0839 966 144.06 656.595 448.433
1558 0 92.1209 8.17404 753 148.972 656.076 446.335
1559 1 144.273 8.60866 1242 152.548 655.38 429.247
1560 0 145.199 8.49178 1233 155.67 654.202 420.903
1561 0 148.518 8.50403 1263 152.691 653.983 428.862
1562 1 199.508 9.35802 1867 162.819 652.851 380.843
1563 0 207.534 10.6007 2200 159.718 653.259 383.684
1564 1 164.944 11.3675 1875 152.614 652.938 414.053
1565 0 174.74 13.1624 2300 147.403 651.286 416.181
1566 0 176.822 11.5653 2045 149.482 651.456 415.254
1567 1 66.153 12.4408 823 138.047 651.327 461.044
1568 0 71.2762 12.1078 863 137.446 651.312 461.467
1569 0 71.1386 12.0188 855 139.361 650.884 455.179
1570 0 71.1933 11.0685 788 141.841 650.542 451.845
1571 0 73.2572 13.0363 955 138.161 651.157 455.506
1572 0 77.2744 15.0503 1163 134.682 651.544 451.672
1573 0 78.0933 16.3778 1279 133.272 651.636 446.691
1574 0 85.1553 11.7785 1003 139.997 651.566 447.017
1575 0 85.1758 11.5056 980 141.372 653.21 443.045
1576 0 89.2668 12.8155 1144 139.115 653.059 440.858
1577 0 85.1981 12.3829 1055 142.398 654.148 438.875
1578 0 89.1966 12.6462 1128 140.207 654.261 437.712
1579 0 96.173 12.4463 1197 139.687 655.916 433.59
1580 0 93.1458 12.8723 1199 140.567 655.907 434.963
1581 0 100.29 13.5706 1361 139.777 656.218 429.167
1582 0 101.25 18.242 1847 131.46 656.731 438.813
1583 1 160.227 11.2715 1806 148.045 657.469 407.295
1584 0 156.232 7.71928 1206 151.124 657.578 422.27
1585 0 160.301 7.3362 1176 148.679 658.066 428.32
1586 0 154.349 5.74672 887 154.374 657.799 423.095
1587 1 70.1984 8.9888 631 142.8 658.99 452.64
1588 0 63.1223 11.4856 725 137.348 660.197 450.492
1589 0 63.168 11.4298 722 115.102 661.188 450.33
1590 1 132.621 12.4792 1655 144.375 659.763 409.363
1591 1 74.269 13.2357 983 136.66 660.367 445.298
1592 0 78.3431 11.4113 894 137.944 660.596 447.586
1593 0 79.3084 11.739 931 140.353 659.581 441.824
1594 0 78.1954 13.0315 1019 139.965 659.176 438.08
1595 0 78.1746 12.0627 943 144.387 659.222 438.99
1596 0 86.43 14.0923 1218 139.562 658.034 440.019
1597 0 92.1936 12.4521 1148 139.405 658.487 447.659
1598 0 96.2222 12.731 1225 141.312 658.424 445.144
1599 0 96.3996 10.4254 1005 145.063 657.134 443.443
1600 0 94.3536 10.7574 1015 132.579 655.129 443.535
1601 1 178.937 9.26026 1657 151.986 655.022 414.988
1602 0 177.599 9.96627 1770 152.716 654.815 405.996
1603 1 56.1947 9.69842 545 142.738 653.088 458.185
1604 0 64.2621 13.3827 860 135.997 653.205 460.809
1605 0 70.2821 10.2871 723 137.003 652.315 452.393
1606 0 71.1724 10.5097 748 140.219 651.289 453.88
1607 0 68.2179 14.2045 969 134.989 651.589 448.928
1608 0 73.2291 12.9593 949 134.499 651.097 453.072
1609 0 78.2306 8.74338 684 143.665 650.794 446.943
1610 0 78.1702 13.0101 1017 137.389 650.401 442.741
1611 0 79.2486 10.1958 808 139.715 649.707 443.9
1612 0 84.2371 11.7525 990 137.955 650.506 441.869
1613 0 84.2371 11.705 986 131.694 650.507 441.758
1614 0 92.5058 13.7829 1275 134.208 650.672 445.405
1615 0 90.3232 11.6028 1048 139.975 650.007 436.478
1616 0 86.3304 13.8537 1196 137.748 651.118 433.68
1617 1 18.0327 8.15186 147 110.483 652.871 478.571
1618 0 16.0164 2.18525 35 120.257 654.371 478.686
1619 1 60.198 4.18619 252 134.381 652.615 458.873
1620 0 61.4979 8.17914 503 132.895 654.785 459.227
1621 0 61.4979 8.14662 501 119.389 656.784 459.481
1622 0 64.2102 11.6181 746 135.916 653.554 452.004
1623 0 69.4334 13.6246 946 131.201 654.885 454.389
1624 0 70.1402 11.5626 811 132.475 653.898 458.647
1625 0 69.0697 9.35288 646 133.098 655.35 457.655
1626 0 69.0697 9.54109 659 123.024 656.378 457.619
1627 0 75.0862 11.7465 882 130.412 657.201 451.494
1628 0 76.08 14.143 1076 112.068 658.072 454.862
1629 0 72.1459 7.34623 530 140.751 657.938 447.26
1630 0 75.0948 10.2937 773 134.688 657.44 455.216
1631 0 75.1462 8.94256 672 136.746 657.717 459.808
1632 0 77.1573 6.85612 529 135.036 658.121 465.52
1633 0 78.1221 11.6612 911 132.396 658.555 460.38
1634 0 78.1722 7.30439 571 133.548 659.049 468.116
1635 0 76.1687 7.41774 565 140.577 659.458 459.242
1636 1 52.0456 12.2969 640 131.709 658.995 466.492
1637 0 54.2681 10.4666 568 134.62 658.444 467.273
1638 0 56.1765 14.5968 820 122.379 658.807 469.613
1639 0 58.0613 12.6246 733 126.734 657.512 473.651
1640 0 60.1299 11.1259 669 129 656.447 467.535
1641 0 62.2423 10.3949 647 130.11 657.1 473.539
1642 0 64.2686 13.1013 842 128.825 656.074 468.514
1643 0 65.2013 13.558 884 127.952 655.874 467.632
1644 0 66.125 9.52741 630 137.787 656.505 468.978
1645 0 67.1182 9.84829 661 138.67 655.504 465.452
1646 0 72.1617 11.0862 800 136.628 655.101 468.018
1647 0 74.1215 14.3953 1067 131.674 654.656 466.213
1648 0 73.171 14.7053 1076 130.834 653.946 466.608
1649 0 75.1203 9.62456 723 140.952 653.631 459.378
1650 0 80.4042 11.579 931 136.551 652.906 460.389
1651 0 80.1832 13.4692 1080 134.823 653.053 458.72
1652 0 86.1302 12.0167 1035 137.125 653.137 456.886
1653 0 86.1578 11.7807 1015 136.999 653.399 457.697
1654 0 93.1887 12.2011 1137 135.507 652.405 453.938
1655 0 96.3286 7.27718 701 145.332 651.93 450.886
1656 1 51.0527 10.401 531 134.134 651.024 472.418
1657 0 54.0988 11.7932 638 135.406 652.292 466.842
1658 0 53.0968 9.7181 516 112.43 653.008 469.541
1659 0 57.1251 13.4617 769 125.558 651.296 467.866
1660 1 117.541 10.8047 1270 139.96 651.861 436.61
1661 0 116.204 9.91362 1152 141.272 652.44 436.24
1662 0 112.338 9.62271 1081 142.701 652.392 433.312
1663 0 122.298 15.4459 1889 133.754 653.982 430.01
1664 0 129.673 7.75799 1006 147.993 653.944 422.844
1665 1 65.1726 9.82008 640 134.153 655.095 460.864
1666 0 71.174 13.9377 992 128.992 655.442 453.438
1667 0 72.1509 9.89593 714 136.064 656.409 450.017
1668 0 75.1851 12.4227 934 130.293 656.139 455.42
1669 0 76.2906 10.4993 801 133.949 657.055 455.382
1670 0 80.1159 13.3307 1068 130.651 658.078 446.96
1671 1 39.0683 8.7795 343 136.029 657.058 468.493
1672 0 39.0328 7.22469 282 140.543 658.883 469.681
1673 0 46.0939 11.1512 514 132.36 659.451 472.033
1674 0 46.169 13.1474 607 133.662 660.791 471.147
1675 0 49.0606 13.2897 652 135.224 661.055 471.242
1676 0 50.0303 12.8322 642 136.626 660.363 473.463
1677 0 49.0637 14.5117 712 135.85 660.35 473.706
1678 0 50.0745 10.8838 545 144.046 660.446 472.154
1679 0 54.1421 13.2429 717 138.912 660.827 474.456
1680 0 54.1445 12.873 697 140.699 659.194 474.318
1681 0 55.1761 12.3242 680 143.303 658.402 473.703
1682 0 57.0835 12.543 716 143.908 658.849 473.21
1683 0 57.0852 12.8755 735 124.487 659.921 473.571
1684 0 62.1365 10.2516 637 147.044 657.289 473.579
1685 0 62.119 11.2365 698 146.139 656.213 469.61
1686 0 66.104 15.1277 1000 138.821 655.279 470.369
1687 0 66.3133 14.2204 943 141.433 654.456 468.312
1688 0 66.3133 12.5163 830 129.767 653.554 469.439
1689 0 70.2567 16.3116 1146 139.353 652.6 463.933
1690 0 74.132 16.7809 1244 136.498 652.646 465.448
1691 0 73.2718 15.1491 1110 139.329 652.636 466.192
1692 0 77.1468 14.1419 1091 142.34 652.332 457.767
1693 0 79.2634 14.2689 1131 141.759 652.172 461.285
1694 0 80.2183 11.0823 889 148.496 651.363 456.262
1695 0 85.3275 15.3995 1314 139.591 651.441 455.772
1696 0 90.2965 14.0648 1270 140.384 651.71 448.902
1697 0 90.4024 13.2629 1199 143.881 651.689 445.798
1698 0 92.2423 12.6081 1163 146.705 650.46 439.206
1699 0 96.2972 13.5414 1304 144.732 651.291 435.71
1700 1 53.2567 12.6369 673 141.284 650.875 453.666
1701 0 55.164 11.5293 636 143.574 651.678 451.555
1702 0 56.2411 13.9222 783 139.432 652.365 448.851
1703 0 57.3737 14.728 845 137.641 651.694 449.271
1704 0 59.1241 14.4611 855 138.277 652.132 452.718
1705 0 60.2755 11.7129 706 142.487 653.602 454.307
1706 0 61.1523 12.3789 757 140.672 653.948 456.033
1707 0 64.4209 11.5801 746 141.84 655.42 453.727
1708 0 62.1505 14.2718 887 139.613 655.224 450.406
1709 0 65.1778 13.164 858 141.329 655.994 449.062
1710 0 70.2609 12.4251 873 140.997 656.567 453.068
1711 0 70.3025 12.304 865 121.692 656.593 453.029
1712 0 74.2192 15.1309 1123 134.175 657.327 452.3
1713 0 76.1822 14.2028 1082 135.546 657.831 449.189
1714 0 77.1877 10.0664 777 142.479 658.782 449.928
1715 0 85.2125 12.9206 1101 137.323 658.826 444.926
1716 0 82.3278 14.8431 1222 136.8 660.264 439.865
1717 0 89.2948 15.2864 1365 134.198 659.809 441.828
1718 0 92.2747 12.2894 1134 137.303 659.738 445.246
1719 1 49.1825 11.2642 554 133.61 660.715 467.338
1720 0 49.1825 11.2845 555 117.041 661.686 467.335
1721 0 53.1814 15.1181 804 123.03 659.442 458.876
1722 0 52.067 10.1792 530 130.434 660.036 473.608
1723 0 55.051 10.5538 581 128.775 659.549 473.761
1724 0 56.0522 8.99161 504 131.704 658.242 469.71
1725 0 58.079 11.2261 652 129.42 658.515 468.56
1726 0 62.0934 10.5325 654 129.974 658.745 471.898
1727 0 60.2045 9.30162 560 134.138 657.046 471.205
1728 0 68.2542 14.3288 978 126.684 656.636 467.589
1729 0 71.2303 13.4634 959 128.227 655.402 465.24
1730 0 71.1801 10.0309 714 133.658 653.553 466.475
1731 0 75.3078 11.2206 845 131.424 654.217 464.824
1732 0 80.229 13.1125 1052 128.026 654.011 466.437
1733 0 81.2843 11.3183 920 132.534 653.587 459.404
1734 0 85.1308 13.7083 1167 128.404 652.629 458.709
1735 0 85.2146 12.8851 1098 131.596 653.098 455.536
1736 0 87.2123 13.5875 1185 130.455 651.877 451.023
1737 0 91.2437 13.864 1265 129.828 651.27 453.267
1738 1 48.2405 12.8108 618 125.62 650.796 472.6
1739 0 50.1808 9.24656 464 127.588 651.608 475.636
1740 0 48.1072 10.7468 517 128.981 651.18 468.969
1741 0 53.0492 9.59486 509 131.244 650.517 468.821
1742 0 58.2646 15.79 920 121.948 651.803 466.075
1743 0 54.068 10.7272 580 130.652 650.764 460.912
1744 0 57.2797 10.6495 610 130.618 650.028 457.708
1745 0 55.1079 9.39974 518 135.058 651.537 454.027
1746 0 58.138 12.5391 729 129.608 652.191 456.287
1747 0 65.0726 8.19086 533 137.043 651.649 450.961
1748 0 64.329 10.2753 661 134.82 653.52 450.909
1749 0 72.1712 11.0293 796 133.216 653.984 450.496
1750 0 76.0687 11.161 849 132.108 654.88 451.077
1751 0 80.1564 14.4717 1160 129.847 656.151 448.1
1752 0 76.1459 12.9357 985 135.728 655.9 443.78
1753 0 85.1638 10.4387 889 138.147 656.308 447.255
1754 0 86.1489 14.7303 1269 131.466 657.504 449.435
1755 0 89.1663 12.6057 1124 137.179 657.171 440.837
1756 0 93.282 13.411 1251 134.855 655.768 442.343
1757 0 93.3241 12.4512 1162 137.844 657.563 437.376
1758 0 97.3693 11.9853 1167 137.34 657.999 439.893
1759 0 97.3656 10.8868 1060 142.158 658.834 434.27
1760 0 106.224 12.7467 1354 136.658 659.548 436.192
1761 0 111.454 14.248 1588 136.188 659.555 427.22
1762 1 58.2895 8.97246 523 137.881 659.635 455.751
1763 0 59.1206 10.9776 649 134.713 659.638 457.314
1764 0 68.0539 13.5481 922 128.657 659.722 462.206
1765 0 66.0796 12.1672 804 133.044 659.796 459.668
1766 0 65.0583 12.4043 807 132.913 659.238 459.328
1767 1 75.2466 11.4955 865 132.013 658.732 460.327
1768 0 77.1898 14.9372 1153 126.7 659.063 461.799
1769 0 80.0594 14.2894 1144 127.787 658.064 461.728
1770 0 82.1743 10.9888 903 133.888 657.745 455.54
1771 0 82.1743 13.9095 1143 109.233 656.551 459.855
1772 1 93.2193 11.135 1038 132.605 655.749 452.722
1773 0 94.0975 13.4329 1264 129.588 656.022 453.188
1774 0 91.3788 9.75062 891 133.18 653.918 452.158
1775 0 99.2231 9.90697 983 131.535 653.148 449.855
1776 0 99.1803 11.706 1161 130.879 651.457 447.921
1777 0 104.196 11.9582 1246 129.465 650.728 445.096
1778 0 108.24 7.89912 855 134.856 650.306 446.306
1779 0 110.2 8.38476 924 136.7 649.837 441.042
1780 0 112.142 6.58985 739 140.644 649.452 446.957
1781 0 111.27 8.51978 948 140.234 649.345 444.06
1782 0 121.193 13.9612 1692 131.013 649.445 445.35
1783 0 126.276 10.184 1286 140.079 648.927 434.621
1784 0 126.254 9.79772 1237 143.42 647.854 422.703
1785 0 133.351 16.4753 2197 128.266 650.425 433.062
1786 0 133.267 10.6253 1416 139.987 650.334 427.908
1787 1 79.1025 4.48785 355 131.206 650.09 471.513
1788 0 81.1191 8.56765 695 131.745 650.945 458.229
1789 0 77.1818 9.08245 701 132.783 651.479 453.165
1790 0 81.3524 10.8048 879 130.751 650.826 452.33
1791 1 154.322 11.9231 1840 141.429 652.603 415.003
1792 0 152.617 7.83663 1196 145.523 652.42 418.244
1793 0 152.563 8.37689 1278 134.068 652.461 419.469
1794 0 152.297 5.6994 868 143.942 654.724 431.871
1795 1 92.2266 7.32978 676 142.953 655.142 440.306
1796 0 94.2473 8.40343 792 131.446 656.043 437.965
1797 1 57.1293 10.2749 587 131.888 657.189 458.954
1798 0 57.2 9.54545 546 128.511 657.568 461.209
1799 0 59.474 11.1477 663 131.109 657.477 462.671
1800 0 59.1617 9.00921 533 135.212 658.218 461.6
1801 0 63.2587 10.6705 675 132.013 658.819 463.742
1802 0 65.2582 11.6307 759 131.999 658.874 460.686
1803 0 66.2838 10.7417 712 133.815 659.539 462.969
1804 0 65.3696 13.2936 869 130.196 659.367 459.861
1805 0 70.2535 13.309 935 129.554 659.452 461.018
1806 0 70.2186 14.2128 998 130.367 660.137 455.872
1807 0 73.2942 10.4237 764 135.813 658.808 456.729
1808 0 78.2188 11.2377 879 134.487 658.986 458.739
1809 0 75.1088 11.8362 889 135.117 658.475 459.084
1810 0 82.2912 11.1555 918 135.99 657.504 456.742
1811 0 85.2875 13.2962 1134 132.195 656.739 458.224
1812 0 90.2555 14.5033 1309 128.824 657.58 454.149
1813 0 92.3024 15.9042 1468 127.112 656.898 451.773
1814 0 94.4082 13.9818 1320 130.401 656.522 455.425
1815 0 96.3004 15.2855 1472 128.014 656.258 452.308
1816 0 98.2348 15.9109 1563 125.312 654.523 448.603
1817 0 282.943 10.9704 3104 155.525 653.148 346.357
1818 1 104.19 13.821 1440 127.582 652.134 446.222
1819 0 108.235 10.625 1150 131.852 652.213 443.773
1820 1 58.1966 11.7876 686 119.092 651.846 470.337
1821 0 53.0548 7.8975 419 125.399 651.484 467.069
1822 0 55.2781 7.23613 400 126.878 650.962 463.09
1823 0 59.1355 13.6466 807 119.393 650.9 460.266
1824 0 58.1059 11.8577 689 122.1 650.24 456.782
1825 0 61.1108 8.90187 544 126.331 651.62 454.164
1826 0 60.0794 6.87423 413 130.477 650.78 454.191
1827 0 68.1491 10.3303 704 126.295 649.915 451.547
1828 0 73.1328 10.4878 767 126.585 650.282 454.508
1829 0 72.0699 10.9477 789 128.218 650.888 445.986
1830 0 72.4888 13.2572 961 125.579 650.658 449.24
1831 0 75.5122 12.5807 950 128.088 650.398 442.785
1832 0 80.3017 11.0458 887 129.705 650.861 439.984
1833 0 89.3855 12.1832 1089 126.859 651.476 444.103
1834 0 94.4745 15.8032 1493 123.286 651.616 440.403
1835 0 95.4681 12.4754 1191 127.964 651.837 445.024
1836 0 102.233 14.5941 1492 124.95 652.42 444.595
1837 0 100.294 11.8652 1190 131.703 653.276 437.88
1838 1 51.0839 7.36045 376 131.574 654.021 463.199
1839 0 56.1631 10.2024 573 125.593 655.147 458.829
1840 0 60.117 12.1264 729 125.639 654.985 456.962
1841 0 59.283 14.9284 885 127.09 655.666 459.012
1842 0 64.2066 12.6311 811 118.614 656.126 457.131
1843 0 65.2355 15.0378 981 114.859 656.733 457.04
1844 0 66.2028 14.229 942 116.555 656.841 458.356
1845 0 72.4031 15.3999 1115 112.11 658.017 459.956
1846 0 72.5249 16.5047 1197 112.44 658.009 454.393
1847 0 72.5249 16.5047 1197 128.796 658.009 454.393
1848 0 77.2218 12.8332 991 114.995 658.363 457.303
1849 0 78.1359 14.4748 1131 110.078 658.72 460.292
1850 0 82.219 12.4302 1022 113.591 658.786 454.896
1851 0 82.1783 8.79794 723 120.295 658.7 453.618
1852 0 87.5441 11.6399 1019 115.744 659.256 451.585
1853 0 94.6904 12.789 1211 113.092 658.591 455.417
1854 0 92.2578 11.121 1026 119.43 658.06 449.144
1855 0 96.2368 11.0041 1059 121.221 657.964 451.845
1856 0 97.2205 12.2094 1187 121.174 657.244 449.842
1857 0 101.297 12.7546 1292 119.327 657.178 451.717
1858 0 106.192 15.4908 1645 115.043 656.161 452.035
1859 0 110.153 11.7383 1293 121.969 654.542 447.961
1860 1 62.1747 10.8404 674 116.196 654.448 473.629
1861 0 62.0887 11.3064 702 113.709 653.36 477.718
1862 0 67.0347 10.1888 683 115.969 652.217 472.066
1863 0 68.1785 11.5579 788 117.78 651.716 469.062
1864 0 70.0927 13.7104 961 115.084 651.478 467.487
1865 0 72.1702 12.7754 922 117.357 651.659 464.781
1866 0 75.2493 14.9104 1122 112.29 652.709 469.831
1867 0 75.1033 10.8118 812 121.118 651.772 465.149
1868 0 77.2228 13.8819 1072 117.201 651.732 459.501
1869 0 82.1309 11.6156 954 122.05 650.603 459.032
1870 0 83.206 12.5592 1045 120.737 650.658 455.788
1871 0 83.1108 10.5161 874 126.126 650.981 452.851
1872 0 86.2083 13.0962 1129 122.422 651.076 452.903
1873 0 89.3249 13.1206 1172 122.207 650.66 446.206
1874 0 92.2525 14.3086 1320 122.389 650.758 447.598
1875 0 94.2597 11.4047 1075 127.304 651.914 446.662
1876 0 97.2436 14.6848 1428 122.904 652.969 439.228
1877 0 99.3017 12.5476 1246 126.773 653.734 441.758
1878 0 102.232 11.112 1136 133.029 653.536 436.389
1879 0 101.238 11.2112 1135 146.99 653.531 436.49
1880 0 111.165 13.5295 1504 128.691 654.884 435.023
1881 0 113.266 14.0731 1594 128.388 656.31 429.56
1882 0 116.234 12.9824 1509 130.877 656.203 431.749
1883 0 116.234 12.9824 1509 135.013 655.21 431.585
1884 1 65.1136 12.4552 811 120.266 657.345 462.751
1885 0 69.1326 12.6713 876 121.529 657.991 459.766
1886 0 69.1016 11.172 772 122.697 658.316 457.624
1887 0 75.1273 12.3257 926 122.336 658.118 457.016
1888 0 76.3475 9.35197 714 123.986 659.59 462.272
1889 0 76.3475 9.35197 714 132.762 661.592 462.377
1890 0 78.0769 13.064 1020 121.072 659.144 458.298
1891 0 82.2234 12.612 1037 122.419 659.41 451.382
1892 0 88.0942 12.7818 1126 121.671 659.963 454.659
1893 0 88.2534 9.35941 826 128.065 659.667 456.61
1894 0 93.2289 11.1446 1039 124.362 659.949 458.949
1895 0 97.2196 14.2358 1384 120.783 659.045 454.931
1896 0 98.1941 14.0436 1379 129.205 658.07 455.021
1897 0 101.216 10.7295 1086 129.307 658.427 451.096
1898 0 104.221 9.77731 1019 130.369 657.336 450.31
1899 1 59.1066 12.4013 733 121.756 655.67 473.162
1900 0 60.1365 12.6878 763 121.245 654.946 473.549
1901 0 63.1164 14.402 909 119.298 654.93 471.011
1902 0 63.1152 15.749 994 118.003 652.58 470.248
1903 0 65.1881 13.4534 877 123.177 652.049 471.178
1904 0 68.1736 10.4879 715 127.948 650.859 467.996
1905 0 70.1533 10.7764 756 126.058 651.749 470.161
1906 0 74.2048 12.5059 928 122.268 650.603 467.286
1907 0 74.1943 13.4242 996 120.723 650.614 467.255
1908 0 78.2389 13.3565 1045 119.948 648.788 464.116
1909 0 80.3772 14.32 1151 120.299 649.965 460.566
1910 0 83.1252 17.2872 1437 116.148 648.78 459.311
1911 0 84.1434 12.348 1039 124.634 649.06 460.17
1912 0 88.2662 10.6609 941 127.597 648.876 450.021
1913 0 91.2081 12.0932 1103 124.329 648.936 453.264
1914 0 93.2125 11.2217 1046 126.975 649.698 450.387
1915 1 47.0712 8.1791 385 131.821 648.421 470.545
1916 0 49.0742 7.84526 385 140.314 647.421 470.735
1917 0 54.0467 12.1191 655 124.11 648.89 465.405
1918 0 52.2565 10.8886 569 125.012 650.318 465.691
1919 0 56.034 12.0641 676 121.72 650.362 464.337
1920 0 55.0712 12.3295 679 121.844 650.866 464.227
1921 0 61.1237 13.4481 822 117.712 651.898 464.724
1922 0 62.053 12.2476 760 121.355 652.566 463.843
1923 0 65.058 13.7877 897 119.75 653.793 460.572
1924 0 65.1126 12.3478 804 124.245 653.097 457.163
1925 0 67.1858 14.2738 959 122.25 653.811 458.319
1926 0 70.2262 14.4391 1014 121.531 654.922 455.625
1927 0 73.1137 15.0177 1098 122.38 656.137 455.187
1928 0 75.0887 12.3987 931 123.81 657.667 461.669
1929 0 76.0502 15.8185 1203 121.83 657.148 453.973
1930 0 75.1362 10.674 802 130.993 658.834 451.226
1931 1 90.5105 17.4344 1578 114.996 659.058 442.149
1932 0 90.3423 20.0903 1815 112.669 658.802 444.536
1933 0 93.3648 13.5704 1267 123.871 659.54 448.491
1934 0 93.3275 15.4938 1446 121.967 658.906 443.488
1935 0 94.4294 17.1451 1619 121.226 659.285 451.151
1936 0 97.0885 13.2868 1290 129.794 659.191 452.973
1937 0 98.5323 14.0664 1386 127.384 658.869 449.549
1938 1 53.2524 13.0886 697 120.142 658.868 470.735
1939 0 50.1803 10.9605 550 127.567 656.415 466.435
1940 0 51.1203 9.7026 496 128.264 657.23 468.583
1941 0 56.0813 12.8742 722 123.903 656.701 467.206
1942 0 53.0775 10.268 545 129.266 655.692 462.782
1943 0 63.0782 13.1107 827 118.212 654.826 470.935
1944 0 65.1544 13.8594 903 117.825 653.229 468.584
1945 0 68.1869 11.3365 773 121.943 653.841 467.736
1946 0 66.1624 10.1871 674 125.932 653.108 462.929
1947 0 70.0393 9.59462 672 126.664 651.943 461.771
1948 0 72.1573 8.27359 597 131.628 651.762 460.518
1949 0 76.1513 11.2539 857 126.715 651.754 454.036
1950 0 80.1726 11.5127 923 125.593 650.336 457.573
1951 0 79.1381 11.5747 916 125.545 649.433 458.46
1952 0 85.1606 11.4842 978 126.215 649.308 453.679
1953 0 88.2124 14.261 1258 122.357 649.373 451.716
1954 0 92.278 12.0722 1114 125.521 649.675 449.472
1955 0 98.1992 13.7476 1350 120.996 649.424 449.834
1956 0 94.4126 12.7949 1208 124.261 649.466 445.911
1957 1 53.2214 9.35714 498 125.285 649.697 461.53
1958 0 56.2051 8.94936 503 125.594 649.25 465.348
1959 0 56.1997 15.783 887 115.521 649.743 463.036
1960 0 59.3828 14.7854 878 118.077 650.067 448.166
1961 0 60.2544 15.0528 907 117.17 651.783 447.751
1962 0 60.5155 13.4346 813 119.722 651.018 454.237
1963 0 64.3316 11.5651 744 122.737 651.958 452.099
1964 0 66.391 14.6405 972 118.281 652.523 452.613
1965 0 66.1658 13.3453 883 120.831 653.053 451.766
1966 0 71.1553 7.53282 536 129.748 653.703 446.116
1967 0 72.219 14.276 1031 118.942 654.528 445.217
1968 0 73.1828 12.216 894 122.383 655.327 447.23
1969 0 80.1953 11.2101 899 123.377 656.605 445.571
1970 0 80.1953 11.2226 900 127.752 658.598 445.312
1971 0 84.3168 10.8045 911 124.032 658.137 443.711
1972 0 86.2315 13.4754 1162 120.727 657.804 439.803
1973 0 84.4793 11.5531 976 125.435 658.625 435.583
1974 0 92.2058 13.6109 1255 121.553 660.049 433.523
1975 0 94.3457 9.75137 920 124.373 659.238 444.846
1976 0 101.277 13.705 1388 120.14 659.62 438.137
1977 1 55.2879 11.4311 632 119.449 658.858 459.097
1978 0 57.3064 14.8151 849 112.266 659.504 461.534
1979 0 58.2405 12.1737 709 119.268 659.748 459.866
1980 0 63.1656 12.9818 820 118.159 658.632 462.738
1981 0 64.4089 12.343 795 120.747 659.19 459.326
1982 0 71.2134 13.8457 986 116.186 658.685 464.998
1983 0 70.3866 10.5134 740 124.605 658.862 458.931
1984 0 75.1901 9.93481 747 122.597 658.151 467.918
1985 0 71.1251 10.3058 733 124.988 658.026 462.299
1986 0 74.1517 11.1393 826 125.012 656.071 459.387
1987 0 74.0821 8.62557 639 127.582 656.435 465.329
1988 0 83.1271 12.3907 1030 123.471 653.963 453.116
1989 0 87.1769 11.1956 976 125.967 654.66 451.635
1990 0 93.1415 10.7364 1000 125.773 654.246 453.991
1991 0 95.2046 12.7935 1218 123.226 653.623 452.466
1992 0 104.142 10.2552 1068 127.056 653.266 446.741
1993 1 50.0739 12.841 643 121.075 653.003 466.732
1994 0 55.1105 10.9961 606 122.535 652.13 464.026
1995 0 58.1711 12.532 729 120.32 650.488 463.217
1996 0 57.4483 10.3397 594 122.662 649.64 459.153
1997 0 64.3626 15.6613 1008 113.143 650.54 459.162
1998 0 59.2674 9.75241 578 123.481 649.936 457.578
1999 0 62.4234 8.7307 545 126.554 650.31 456.24
2000 0 65.1603 10.9729 715 121.754 650.527 456.067
2001 0 68.1339 11.2426 766 121.538 650.727 456.334
2002 0 70.4194 11.4031 803 121.171 651.047 455.025
2003 0 72.1662 12.6375 912 122.463 651.583 455.421
2004 0 72.2122 11.3 816 125.853 651.68 449.191
2005 0 72.1749 13.6751 987 122.218 652.385 452.857
2006 0 81.526 18.8161 1534 113.683 652.688 443.246
2007 0 81.2936 14.0602 1143 121.578 654.002 443.569
2008 0 78.3725 13.2827 1041 124.542 654.527 440.117
2009 0 88.3879 15.0699 1332 121.357 654.553 434.331
2010 0 87.2261 13.4593 1174 124.159 656.236 438.696
2011 0 91.3098 14.073 1285 123.731 657.284 434.782
2012 0 99.0247 13.7238 1359 123.428 656.52 432.282
2013 0 97.2784 11.5236 1121 124.105 658.441 439.449
2014 0 98.1936 12.3837 1216 122.507 655.804 437.569
2015 0 99.2319 10.6619 1058 124.64 656.985 437.06
2016 1 63.0391 9.42272 594 124.847 656.806 460.135
2017 0 65.1845 12.3035 802 121.039 657.84 457.45
2018 0 65.1768 8.97558 585 126.291 657.646 457.19
2019 0 69.2889 10.7665 746 122.639 658.009 461.005
2020 0 71.1815 11.9975 854 121.66 657.808 461.322
2021 0 73.2257 14.6533 1073 118.718 657.086 460.082
2022 0 73.1565 10.8261 792 124.09 657.893 462.881
2023 0 74.2601 13.1295 975 122.034 657.55 463.02
2024 0 73.5862 8.53421 628 127.736 657.075 462.455
2025 0 74.1197 10.591 785 126.322 656.311 458.218
2026 0 83.3919 8.47804 707 126.581 656.242 449.943
2027 0 88.4339 10.9686 970 123.387 656.82 444.498
2028 0 95.3412 11.8731 1132 120.3 655.603 451.884
2029 0 100.506 11.9694 1203 120.017 654.929 452.164
2030 0 100.397 12.0521 1210 121.964 654.639 447.393
2031 0 100.238 7.552 757 131.483 652.781 440.711
2032 0 106.514 10.1771 1084 126.444 653.069 437.187
2033 0 108.335 12.6183 1367 121.935 652.19 449.559
2034 0 114.431 16.5689 1896 117.673 652.121 443.008
2035 0 114.557 14.1065 1616 122.278 651.185 439.095
2036 0 113.26 8.49376 962 132.982 651.048 434.147
2037 1 274.019 14.5501 3987 133.686 649.994 360.855
2038 0 277.924 10.4489 2904 140.215 650.439 360.824
2039 0 288.201 12.002 3459 138.408 649.784 358.88
2040 0 298.928 16.9372 5063 134.043 649.745 341.7
2041 0 303.907 13.3561 4059 140.634 649.565 340.124
2042 1 78.194 11.4331 894 124.301 650.046 453.39
2043 0 77.3062 11.6808 903 125.512 649.458 446.795
2044 0 80.1924 9.78896 785 129.237 649.287 445.332
2045 0 84.2972 11.7204 988 125.281 649.917 447.132
2046 0 86.2688 10.931 943 127.732 650.482 446.82
2047 0 87.2329 10.8216 944 128.022 650.772 447.13
2048 0 87.2894 10.6428 929 128.66 651.076 447.582
2049 0 95.2117 12.593 1199 126.379 650.701 442.846
2050 0 98.5052 12.1516 1197 128.794 651.864 441.658
2051 0 102.184 9.97218 1019 132.896 653.163 439.786
2052 1 189.345 13.6735 2589 134.173 654.011 398.909
2053 0 194.64 11.5238 2243 137.384 654.328 403.098
2054 1 285.92 17.6973 5060 135.848 655.552 343.186
2055 0 285.582 9.96912 2847 140.318 655.198 382.301
2056 1 273.701 8.36313 2289 139.861 656.776 396.768
2057 0 274.523 12.611 3462 140.083 656.775 366.769
2058 1 234.876 17.5497 4122 131.063 657.565 378.133
2059 0 243.728 12.9119 3147 140.389 658.575 373.786
2060 0 247.75 11.4955 2848 144.262 657.579 374.332
2061 0 247.746 9.08995 2252 149.205 657.93 377.267
2062 0 249.508 6.41664 1601 145.926 658.388 408.768
2063 1 83.1341 12.6422 1051 129.131 658.002 449.852
2064 0 88.3224 13.0884 1156 128.474 657.087 452.071
2065 0 90.1727 8.73879 788 133.409 658.098 456.148
2066 0 94.3018 12.0995 1141 129.529 656.083 453.751
2067 0 95.2162 15.0394 1432 123.223 656.531 459.707
2068 0 100.193 13.3443 1337 129.4 656.459 449.034
2069 0 102.254 12.997 1329 129.287 656.871 453.36
2070 0 108.219 12.2437 1325 130.627 655.262 456.078
2071 0 109.313 11.4991 1257 135.558 654.317 448.964
2072 0 109.143 8.41097 918 141.932 653.878 449.306
2073 0 113.402 10.8464 1230 139.272 652.095 445.459
2074 1 168.382 12.2816 2068 141.746 651.975 426.368
2075 0 176.676 11.8352 2091 145.162 650.343 416.593
2076 0 180.541 10.0254 1810 150.328 649.978 409.965
2077 0 180.39 8.88076 1602 150.517 650.325 414.267
2078 0 180.644 4.84932 876 143.392 650.345 447.068
2079 0 180.273 8.86988 1599 135.648 650.089 442.958
2080 1 168.629 7.11027 1199 140.769 650.721 439.412
2081 0 165.419 4.59439 760 145.345 651.429 440.213
2082 0 163.598 7.64068 1250 147.209 649.648 420.653
2083 0 165.518 9.46123 1566 145.828 650.059 414.654
2084 0 160.561 7.59215 1219 152.449 649.933 407.142
2085 0 163.481 12.662 2070 143.928 650.108 402.423
2086 0 171.771 12.6855 2179 142.666 649.749 408.15
2087 0 175.597 12.6767 2226 142.08 650.214 410.367
2088 0 173.652 7.95846 1382 151.682 650.619 407.524
2089 0 183.919 13.3483 2455 146.51 651.763 388.458
2090 0 193.982 14.6302 2838 141.642 651.709 399.389
2091 0 195.953 13.8809 2720 145.862 651.83 385.701
2092 0 198.928 11.0291 2194 152.58 652.984 374.053
2093 1 160.825 11.6524 1874 144.119 652.85 409.208
2094 0 167.947 11.7358 1971 146.633 654.374 400
2095 0 172.898 13.5571 2344 142.683 654.869 404.875
2096 0 174.576 10.1159 1766 151.069 656.637 395.069
2097 0 178.934 12.6583 2265 145.636 657.178 399.153
2098 1 188.593 10.748 2027 152.837 656.953 385.247
2099 0 197.072 12.8278 2528 148.581 656.605 386.54
2100 0 196.698 8.47999 1668 154.354 656.652 390.661
2101 0 195.6 8.36402 1636 150.499 657.332 396.246
2102 0 199.695 4.43676 886 143.624 658.297 434.957
2103 0 202.664 9.23204 1871 145.483 657.415 405.603
2104 1 62.5736 10.4677 655 132.869 658.289 461.027
2105 0 64.3763 12.7376 820 129.428 658.828 459.901
2106 0 67.3239 10.6797 719 132.218 658.683 462.231
2107 0 67.3809 11.4276 770 132.588 659.397 462.864
2108 0 69.5016 11.5681 804 132.914 658.915 462.001
2109 0 72.3272 12.2637 887 132.007 657.55 459.972
2110 0 75.6044 12.3802 936 131.162 658.327 461.641
2111 0 72.6996 11.5406 839 133.771 656.167 462.609
2112 0 78.2971 10.4474 818 137.037 656.829 458.215
2113 0 79.4886 14.1278 1123 131.819 656.378 458.001
2114 0 85.6145 11.8905 1018 133.54 655.338 457.523
2115 0 85.6145 11.9022 1019 123.308 654.352 457.478
2116 0 91.398 15.1535 1385 124.952 654.009 459.32
2117 0 92.2916 10.9761 1013 133.752 652.278 455.419
2118 0 94.1793 12.147 1144 133.128 651.655 449.647
2119 0 95.4627 14.3407 1369 130.474 652.104 445.804
2120 0 98.2991 14.6593 1441 131.797 649.925 430.765
2121 0 102.404 13.5736 1390 131.6 649.858 447.912
2122 0 101.302 10.5921 1073 138.601 650.463 443.657
2123 0 107.245 12.8584 1379 132.926 650.704 448.012
2124 0 110.406 14.2656 1575 133.07 649.73 440.481
2125 0 112.462 15.5164 1745 129.551 649.975 444.389
2126 0 116.462 12.8024 1491 137.04 648.846 430.997
2127 0 118.379 13.6089 1611 136.044 651.011 433.562
2128 0 122.364 11.188 1369 138.019 649.77 437.02
2129 0 124.435 12.826 1596 138.057 650.222 427.268
2130 0 128.497 12.156 1562 139.608 650.103 423.278
2131 0 133.327 12.7656 1702 138.814 651.178 424.225
2132 0 136.539 12.5092 1708 139.818 651.196 420.644
2133 0 139.269 13.8366 1927 137.687 652.022 418.804
2134 1 84.2509 11.1928 943 131.292 652.615 445.779
2135 0 85.2216 10.373 884 132.673 653.242 445.31
2136 0 89.1501 11.9349 1064 127.486 652.377 450.595
2137 0 89.3031 9.7645 872 135.018 653.14 442.1
2138 0 95.1462 11.6663 1110 132.657 652.815 434.27
2139 0 98.3016 13.8146 1358 129.081 652.737 435.045
2140 0 97.1351 9.64636 937 139.191 654.47 426.188
2141 0 104.215 11.4763 1196 133.812 654.736 436.255
2142 0 106.195 10.8291 1150 135.55 655.171 436.363
2143 0 109.117 12.1888 1330 134.401 655.358 435.138
2144 0 109.192 10.5869 1156 139.656 657.144 427.065
2145 0 116.181 9.33888 1085 139.05 655.981 436.53
2146 0 116.415 12.4726 1452 136.638 657.516 429.125
2147 0 119.087 13.318 1586 136.137 656.199 427.305
2148 0 124.281 10.2751 1277 138.738 658.287 424.092
2149 0 128.181 14.1909 1819 133.574 657.752 421.826
2150 0 130.261 11.3388 1477 140.348 658.111 417.948
2151 0 134.368 12.4732 1676 138.639 657.918 422.171
2152 0 136.327 10.6435 1451 141.241 657.102 426.314
2153 0 138.428 9.86072 1365 145.83 657.204 416.746
2154 0 147.473 11.7174 1728 139.813 656.677 426.175
2155 0 151.48 12.708 1925 139.898 655.165 417.838
2156 0 157.3 8.86203 1394 147.776 654.285 415.212
2157 0 158.462 9.6679 1532 149.574 652.963 400.245
2158 0 166.493 13.1838 2195 139.359 653.675 417.06
2159 0 164.482 11.6487 1916 143.268 654.611 412.106
2160 1 35.0874 2.82152 99 124.879 653.899 473.576
2161 0 31.0515 2.834 88 122.364 653.67 473.261
2162 0 35.2186 4.3443 153 118.34 652.118 474.693
2163 0 28.0077 5.03433 141 116.603 653.149 478.227
2164 0 29.0338 9.33396 271 111.542 651.494 479.236
2165 0 33.1035 13.775 456 112.158 650.235 481.252
2166 0 34.0565 9.45488 322 118.283 651.5 479.646
2167 0 34.0343 9.02032 307 119.837 650.925 480.564
2168 0 36.1327 9.38208 339 118.9 649.832 482.171
2169 0 34.2199 7.3349 251 123.956 651.084 478.526
2170 0 35.0768 11.0044 386 118.484 651.407 478.622
2171 0 38.2103 11.2012 428 117.967 650.612 476.596
2172 0 36.14 9.29718 336 121.738 651.664 476.051
2173 0 38.239 14.6186 559 114.68 651.476 474.921
2174 0 38.223 11.4067 436 119.289 652.823 476.062
2175 0 38.2104 12.5097 478 116.546 652.623 477.96
2176 0 39.2514 12.3563 485 117.874 653.515 475.738
2177 0 38.2396 8.5775 328 126.357 653.71 476.018
2178 0 38.1402 12.2181 466 120.766 654.032 472.09
2179 0 37.1063 8.94726 332 126.955 655.413 472.56
2180 0 36.1734 9.20566 333 128.156 656.018 473.021
2181 0 37.1172 10.157 377 125.912 656.56 470.891
2182 0 39.2231 10.5295 413 124.334 656.886 473.4
2183 0 38.1787 10.5818 404 125.79 657.374 473.319
2184 0 41.0867 12.2911 505 120.263 659.465 469.17
2185 0 40.117 12.1395 487 122.793 658.454 472.741
2186 0 35.1314 8.93787 314 130.035 659.15 473.669
2187 0 37.1609 15.5809 579 118.432 659.235 473.202
2188 0 39.1684 12.408 486 121.94 659.634 477.432
2189 0 37.1415 11.0389 410 125.876 659.349 478.917
2190 0 45.1663 13.1735 595 121.745 660.195 474.718
2191 0 315.942 18.1647 5739 141.072 659.06 314.737
2192 1 115.537 6.54337 756 129.868 658.967 455.814
2193 0 118.277 8.12497 961 127.17 658.432 450.442
2194 0 116.488 6.92776 807 130.835 658.556 449.477
2195 0 123.404 8.03056 991 127.805 658.064 452.984
2196 0 124.357 7.46239 928 129.751 657.309 446.424
2197 0 315.638 13.11 4138 147.156 657.08 337.191
2198 0 326.774 13.1498 4297 146.593 658.418 342.264
2199 1 47.223 11.4775 542 124.823 656.037 485.408
2200 0 45.1704 10.6043 479 125.697 656.146 486.716
2201 0 39.0928 9.9251 388 132.09 655.119 485.946
2202 0 41.0783 11.2712 463 127.87 654.877 485.857
2203 0 40.0205 12.0438 482 125.633 655.098 484.454
2204 0 44.0797 10.0046 441 128.889 655.612 479.268
2205 1 109.283 11.2917 1234 128.498 652.199 448.961
2206 1 123.16 7.50242 924 125.749 652.37 462.489
2207 0 121.379 5.68469 690 132.284 651.744 457.964
2208 0 122.521 7.16611 878 128.944 651.28 460.616
2209 0 120.417 7.52382 906 132.082 649.77 449.526
2210 0 118.115 9.4992 1122 129.025 650.906 439.838
2211 0 117.518 7.99875 940 132.518 651.615 443.039
2212 0 122.368 12.773 1563 125.004 651.149 434.82
2213 0 123.314 9.69068 1195 130.098 651.414 439.709
2214 0 123.379 11.5173 1421 126.688 650.908 438.646
2215 0 128.521 12.2314 1572 127.38 652.114 432.753
2216 0 136.442 9.48389 1294 130.934 651.791 433.165
2217 0 136.442 9.49855 1296 136.577 651.799 433.359
2218 1 45.0515 13.5844 612 119.011 653.387 472.482
2219 0 43.0755 11.3522 489 123.914 654.182 474.215
2220 1 137.477 7.87768 1083 136.721 654.227 429.182
2221 0 143.747 12.1394 1745 131.758 654.327 422.543
2222 0 147.438 10.6214 1566 136.232 654.646 419.593
2223 0 151.216 13.1798 1993 131.155 655.007 419.247
2224 0 151.495 12.04 1824 134.865 656.146 415.395
2225 0 154.374 11.5304 1780 134.098 656.214 419.74
2226 0 156.395 13.4211 2099 133.816 656.704 408.416
2227 0 161.428 12.5815 2031 134.503 656.871 413.351
2228 1 44.0463 10.489 462 123.416 658.777 474.654
2229 0 42.1451 9.96558 420 125.352 657.969 472.96
2230 0 44.0601 11.9609 527 120.92 659.998 472.04
2231 0 43.2166 12.5415 542 119.982 660.026 471.841
2232 0 44.0959 11.3389 500 121.496 659.314 475.002
2233 0 44.1276 13.6876 604 116.753 660.348 476.407
2234 0 44.1303 12.667 559 118.397 660.304 474.075
2235 0 41.0422 13.8638 569 118.511 659.622 479.418
2236 0 41.2405 10.3539 427 123.686 658.644 479.482
2237 0 40.0875 11.9239 478 122.678 657.772 479.485
2238 0 43.0817 10.1899 439 123.811 658.601 481.888
2239 0 42.0789 12.6191 531 120.043 657.928 483.356
2240 0 42.0438 8.7052 366 126.967 658.071 482.915
2241 0 44.0307 11.7191 516 119.791 657.347 481.081
2242 0 42.0163 10.8053 454 122.137 657.885 485.76
2243 0 44.1208 12.4204 548 118.708 655.449 481.387
2244 0 44.1208 12.4431 549 114.98 653.435 481.413
2245 0 42.0773 11.1224 468 122.235 654.214 481.058
2246 0 44.0351 10.8096 476 121.387 654.302 482.137
2247 0 44.1956 12.7388 563 117.417 651.819 483.369
2248 0 45.1036 12.172 549 118.856 651.683 477.313
2249 0 43.1171 12.4081 535 119.523 651.665 481.34
2250 0 41.0633 11.0804 455 123.433 653.123 478.037
2251 0 44.0706 10.937 482 121.691 652.307 477.307
2252 0 40.1097 10.9948 441 123.433 652.791 474.626
2253 0 44.0518 11.3503 500 120.864 651.418 475.074
2254 0 43.1304 10.248 442 123.946 652.038 473.228
2255 0 45.104 13.3248 601 117.998 652.725 473.676
2256 0 42.0286 10.6118 446 123.939 652.711 471.731
2257 0 43.0371 10.0843 434 123.378 651.242 473.389
2258 0 43.0189 9.32148 401 123.723 651.908 472.172
2259 0 43.0189 9.27499 399 109.075 652.9 472.158
2260 0 39.0281 7.19994 281 128.395 653.989 470.256
2261 0 43.0636 10.7515 463 123.901 652.244 470.443
2262 1 79.4617 10.2691 816 126.135 652.159 450.263
2263 0 83.2772 10.8313 902 123.379 652.502 456.202
2264 0 80.1992 11.4839 921 125.787 652.938 449.387
2265 0 81.2056 10.2579 833 128.282 654.87 447.926
2266 0 83.3365 11.3516 946 126.015 654.941 451.569
2267 0 80.388 12.2406 984 125.946 655.358 451.814
2268 0 80.2361 10.5937 850 127.553 657.338 455.984
2269 0 80.3394 7.36874 592 135.201 656.983 450.941
2270 0 82.1422 11.3218 930 129.494 657.337 450.341
2271 0 83.262 12.0703 1005 127.14 657.621 454.077
2272 0 84.1526 11.4197 961 122.981 658.883 452.776
2273 0 84.413 11.4911 970 123.89 659.546 451.121
2274 0 86.3042 14.3794 1241 118.46 660.061 452.553
2275 0 87.4094 14.1861 1240 118.708 660.703 456.19
2276 0 85.2454 12.1062 1032 124.443 660.366 454.227
2277 0 87.2568 9.74136 850 128.82 659.993 454.473
2278 0 90.2143 12.1156 1093 124.248 658.86 456.618
2279 0 83.2658 11.9617 996 127.02 659.546 456.412
2280 0 87.2497 12.3324 1076 124.657 657.243 460.9
2281 0 87.2409 12.2649 1070 136.07 655.241 460.856
2282 0 90.1342 15.2217 1372 119.202 658.424 458.313
2283 0 88.0696 11.5818 1020 127.051 658.107 459.833
2284 0 89.2063 13.8331 1234 123.296 656.031 460.413
2285 0 91.1918 15.4729 1411 136.233 653.936 463.279
2286 0 88.2441 14.1993 1253 123.703 654.025 461.671
2287 1 322.796 13.1073 4231 132.461 653.111 344.368
2288 1 90.2494 13.097 1182 124.99 652.096 461.048
2289 0 89.2935 15.0179 1341 122.33 651.836 456.276
2290 0 90.0998 15.1499 1365 121.005 649.903 459.36
2291 0 87.245 12.4935 1090 126.289 651.379 462.121
2292 0 87.245 12.5394 1094 147.366 652.393 462.157
2293 0 88.3345 11.8074 1043 128.017 649.574 455.474
2294 0 87.4142 13.0642 1142 127.197 648.99 456.489
2295 0 84.1542 11.3245 953 132.016 649.662 453.632
2296 0 91.4497 17.8896 1636 116.182 649.682 449.579
2297 0 87.4426 11.8821 1039 127.352 649.841 456.5
2298 0 93.3597 25.0429 2338 103.53 649.45 437.757
2299 0 103.999 25.4137 2643 100.673 649.526 438.571
2300 0 103.598 28.0796 2909 97.3489 649.204 433.981
2301 0 102.538 26.4781 2715 98.3098 649.585 432.347
2302 0 102.605 25.9831 2666 99.5326 650.013 433.914
2303 0 104.598 20.8321 2179 105.546 650.607 437.018
2304 0 107.549 26.3973 2839 98.7975 650.081 439.776
2305 0 98.3437 22.4315 2206 105.379 652.563 434.91
2306 0 96.3213 17.5454 1690 114.057 652.561 442.131
2307 0 90.2654 17.0719 1541 118.103 654.356 440.552
2308 0 89.2177 13.5287 1207 124.251 654.34 449.239
2309 0 87.2194 14.3202 1249 123.94 654.91 450.081
2310 0 86.357 14.1274 1220 125.774 654.82 447.419
2311 0 93.299 11.1898 1044 128.924 655.314 447.452
2312 0 91.3379 16.0174 1463 119.236 656.911 441.482
2316 0 87.2205 13.2882 1159 123.418 657.814 447.494
