time division length width area intensity CMx CMy
0 0 72.1487 13.7078 989 133.541 891.891 456.851
1 1 33.0339 9.3843 310 138.181 890.826 474.135
2 0 40.0969 15.8117 634 115.162 891.024 475.42
3 0 41.0783 15.6287 642 117.061 889.727 470.369
4 0 40.0188 13.6686 547 130.984 888.938 469.031
5 0 42.0502 11.8192 497 131.254 887.423 472.899
6 0 45.0649 15.7107 708 126.069 886.208 471.425
7 0 45.0447 15.7177 708 136.475 885.208 471.425
8 0 46.0539 18.6521 859 118.803 886.425 475.534
9 0 49.0539 15.0651 739 125.701 885.088 472.165
10 0 49.0442 16.0264 786 123.226 883.901 469.849
11 0 50.0986 12.4953 626 131.829 883.521 469.506
12 0 53.0643 16.7532 889 121.697 883.99 467.994
13 0 52.0201 15.2633 794 124.008 883.097 466.686
14 0 54.0782 18.991 1027 118.823 883.507 462.867
15 0 58.1405 16.1677 940 123.174 883.252 461.974
16 0 58.1352 14.4835 842 124.884 883.72 459.439
17 0 59.103 14.737 871 122.794 882.956 459.38
18 0 62.2517 15.1642 944 128.865 882.904 456.804
19 0 64.09 16.3208 1046 123.559 881.945 450.431
20 0 66.1898 14.398 953 126.369 883.706 449.908
21 0 69.0908 19.2066 1327 117.225 884.245 449.994
22 0 71.0658 18.1241 1288 120.394 883.657 449.187
23 0 72.1599 14.842 1071 130.345 884.544 447.919
24 0 74.1813 17.255 1280 125.787 884.908 444.813
25 0 78.1896 17.9308 1402 122.06 885.708 443.491
26 0 82.0646 18.5586 1523 119.905 886.305 439.888
27 0 83.1286 16.6609 1385 124.936 886.221 440.336
28 0 85.2197 16.5689 1412 123.474 887.368 439.617
29 0 91.2841 18.9518 1730 117.613 888.384 435.53
30 0 93.2106 24.8362 2315 110.417 888.251 432.938
31 0 97.1528 19.9068 1934 115.706 890.162 439.067
32 1 51.1659 12.5083 640 128.447 890.683 457.136
33 0 54.043 12.7121 687 124.511 891.448 456.738
34 0 54.0606 13.5589 733 124.759 892.044 455.452
35 0 58.125 12.3355 717 127.305 891.986 456.116
36 0 60.16 16.4062 987 118.375 893.95 454.719
37 0 63.0694 15.2689 963 118.012 893.563 456.066
38 0 64.0843 14.5902 935 119.788 893.94 454.45
39 0 67.0632 14.5534 976 118.266 893.38 456.324
40 0 70.1326 17.0677 1197 112.994 893.656 453.773
41 0 73.1852 18.7606 1373 112.437 893.841 454.674
42 0 77.2391 16.0929 1243 113.715 893.549 453.994
43 0 78.1121 15.465 1208 116.469 893.735 451.898
44 0 81.2138 15.4407 1254 121.432 891.679 452.248
45 0 88.1331 15.2497 1344 129.228 891.564 452.485
46 0 88.1375 16.4629 1451 127.766 892.414 449.855
47 0 90.1353 16.0315 1445 130.894 890.783 446.935
48 0 96.1749 17.1043 1645 128.587 889.334 450.523
49 1 49.0336 12.9299 634 127.047 889.962 471.692
50 0 50.0465 11.7491 588 132.75 888.277 471.304
51 0 50.0465 11.7691 589 160.078 887.27 471.329
52 0 56.0483 13.078 733 128.042 886.602 465.453
53 0 55.1328 14.3653 792 127.941 886.193 465.139
54 0 60.284 15.4933 934 123.914 884.959 464.838
55 0 62.1277 11.8949 739 131.007 885.549 466.516
56 0 62.0527 14.4877 899 127.426 885.717 463.504
57 0 66.1991 16.0727 1064 124.615 884.304 462.004
58 0 69.1194 12.8329 887 129.981 883.971 461.498
59 0 72.1221 16.4443 1186 124.142 885.674 457.731
60 0 74.16 15.6419 1160 126.777 884.41 454.369
61 0 77.1148 15.4575 1192 127.132 883.458 452.985
62 0 79.1884 16.5049 1307 125.37 883.862 448.704
63 0 83.098 15.572 1294 126.668 884.425 449.731
64 0 87.195 16.4 1430 123.819 883.595 449.031
65 0 87.1266 14.5535 1268 129.914 884.933 445.157
66 0 93.1549 15.1683 1413 127.151 884.74 441.091
67 1 47.066 10.2409 482 128 885.398 464.241
68 0 49.1131 11.0561 543 128.597 886.274 462.751
69 0 50.0516 11.9477 598 129.288 885.599 459.252
70 0 52.1195 12.0109 626 126.567 885.593 458.527
71 0 52.0558 12.3521 643 124.392 887.034 458.555
72 0 54.1601 14.0879 763 121.228 887.599 457.308
73 0 58.1209 12.3364 717 123.448 888.107 457.576
74 0 59.0725 11.3589 671 125.069 888.896 456.942
75 0 59.11 13.4157 793 125.492 889.646 456.62
76 0 59.11 13.4157 793 141.874 890.647 456.55
77 0 65.0782 13.3071 866 127.975 890.294 454.177
78 0 67.1214 12.5593 843 131.554 891.359 453.135
79 0 71.1665 14.3747 1023 127.147 892.879 454.118
80 0 71.1665 14.3185 1019 142.954 894.878 454.143
81 0 75.1132 13.7792 1035 131.332 893.755 452.045
82 0 77.1115 13.3832 1032 132.256 892.642 454.96
83 0 81.1272 13.4357 1090 133.078 892.944 451.828
84 0 82.2801 12.7613 1050 135.038 892.768 451.401
85 0 89.2241 16.3185 1456 126.609 892.678 453.424
86 0 90.2992 11.7055 1057 134.334 892.043 455.934
87 0 93.1482 12.8827 1200 134.231 891.817 453.159
88 0 93.1482 12.8398 1196 153.696 890.813 453.171
89 1 48.0709 10.2557 493 130.383 892.357 476.639
90 0 51.1047 11.3884 582 128.363 891.514 474.302
91 0 52.0783 12.1548 633 126.325 890.956 474.842
92 0 53.0363 14.1224 749 120.927 889.218 472.698
93 0 55.1146 14.0798 776 121.39 888.75 471.776
94 0 57.1582 11.4594 655 126.42 887.38 472.489
95 0 58.1062 13.0967 761 124.351 885.438 471.418
96 0 58.0964 11.6014 674 128.001 885.947 470.861
97 0 62.1952 12.0588 750 127.099 885.521 469.535
98 0 64.1494 12.5021 802 128.016 884.15 467.009
99 0 69.1646 14.2992 989 123.275 883.527 464.9
100 0 67.218 15.5167 1043 121.199 882.728 465.235
101 0 71.1147 12.8103 911 129.228 881.775 460.218
102 0 73.2067 12.2393 896 129.465 880.855 456.509
103 0 75.21 12.6845 954 128.688 881.702 455.31
104 0 79.1322 11.6008 918 130.375 881.423 457.814
105 0 81.3102 10.2201 831 132.527 881.348 457.64
106 1 43.0176 12.0183 517 125.841 881.331 469.176
107 0 46.0888 11.3694 524 125.861 881.601 469.082
108 0 49.1263 13.3737 657 123.84 883.927 466.916
109 0 45.142 10.7882 487 125.565 883.413 467.008
110 0 49.0682 12.1667 597 122.136 884.35 465.337
111 0 50.1785 11.5986 582 121.363 884.911 466.239
112 0 52.1123 12.1085 631 121.547 886.206 463.664
113 0 54.1686 12.7934 693 122.397 886.68 460.312
114 0 55.0878 12.4529 686 121.647 887.21 459.535
115 0 56.1158 11.8327 664 122.431 887.938 460.681
116 0 58.2841 13.417 782 120.566 887.857 457.925
117 0 60.1592 12.5999 758 123.313 888.868 458.024
118 0 62.255 12.8504 800 121.859 889.079 459.768
119 0 63.1753 12.03 760 124.333 889.117 457.372
120 0 64.2103 13.3623 858 124.056 890.119 453.237
121 0 67.3538 14.2531 960 122.247 891.394 453.877
122 0 70.4012 16.4628 1159 117.334 892.156 456.501
123 0 71.2396 12.9703 924 124.568 892.406 455.132
124 0 71.2039 12.5555 894 125.855 892.438 454.265
125 0 75.1386 12.0178 903 123.781 891.859 457.295
126 0 77.1202 13.0057 1003 125.164 891.993 451.85
127 0 81.2602 12.0723 981 126.602 891.129 451.119
128 0 86.1871 15.1647 1307 120.455 892.05 452.892
129 0 88.1963 12.064 1064 125.646 890.747 452.359
130 0 91.2816 13.7815 1258 122.77 890.475 451.684
131 0 92.2319 11.406 1052 127.818 890.238 449.375
132 0 95.3738 10.6004 1011 128.895 890.439 442.93
133 0 100.143 11.6533 1167 125.677 889.296 449.451
134 1 50.1637 10.1866 511 119.184 888.182 474.025
135 0 54.0576 13.1156 709 114.378 888.725 470.347
136 0 55.1042 12.2132 673 115.85 886.82 470.275
137 0 56.0776 11.2879 633 116.907 888.035 474.103
138 0 57.097 9.49262 542 121.066 886.59 473.236
139 0 58.1801 13.0801 761 114.887 886.16 471.74
140 0 59.0888 11.5589 683 124.032 884.266 467.635
141 0 64.2025 12.7409 818 119.812 883.128 464.754
142 0 68.1538 14.2325 970 114.979 882.557 464.499
143 0 69.0546 14.0034 967 118.017 883.109 461.296
144 0 68.1867 10.1339 691 123.252 882.01 461.389
145 0 68.1867 10.2219 697 145.666 882.014 461.389
146 0 74.1498 16.8038 1246 112.108 880.474 459.656
147 0 78.1322 14.757 1153 115.324 880.874 458.735
148 0 78.1073 11.9707 935 121.926 880.387 453.212
149 0 86.1806 13.4369 1158 120.12 880.973 449.776
150 0 86.3845 12.7106 1098 120.961 881.521 452.795
151 0 85.2172 12.6031 1074 121.067 880.966 448.627
152 0 88.2358 13.2713 1171 119.801 881.733 443.276
153 0 88.0739 12.5803 1108 121.014 881.656 444.335
154 0 95.2424 12.9879 1237 119.613 882.232 440.693
155 0 100.136 14.9496 1497 116.009 883.258 439.964
156 0 103.212 14.9111 1539 117.72 884.578 438.671
157 1 57.1328 11.7796 673 117.212 884.634 458.868
158 0 56.2633 11.8194 665 117.959 886.087 457.818
159 0 59.1473 15.9094 941 110.527 885.962 453.612
160 0 61.2643 12.6175 773 117.462 886.621 454.242
161 0 63.2101 15.488 979 113.191 888.169 454.534
162 0 65.2243 17.7541 1158 108.782 888.011 453.415
163 0 67.2739 13.5119 909 115.531 889.179 451.813
164 0 68.1875 11.791 804 118.32 889.631 450.616
165 0 72.1867 13.6867 988 114.508 889.296 452.451
166 0 72.2693 12.9931 939 116.829 889.503 453.079
167 0 77.2278 13.6997 1058 114.819 889.572 453.739
168 0 76.1001 12.2602 933 119.063 889.909 452.422
169 0 79.1734 12.5295 992 118.039 890.372 456.639
170 0 84.1855 13.7672 1159 117.055 889.966 449.974
171 0 87.2323 14.5359 1268 116.107 889.774 451.747
172 0 90.2435 14.7822 1334 115.756 890.051 452.573
173 0 92.1916 15.0665 1389 117.558 889.184 447.627
174 0 97.2674 14.6503 1425 117.486 889.597 452.075
175 1 50.1186 10.4153 522 117.46 888.805 475.617
176 0 53.095 10.8297 575 116.591 887.692 474.826
177 0 52.1346 9.83991 513 120.938 888.066 473.503
178 0 53.1367 11.7621 625 119.078 887.115 470.414
179 0 54.1211 12.4166 672 118.874 886.122 471.318
180 0 57.181 14.1481 809 115.431 885.231 471.394
181 0 60.1042 15.2069 914 114.101 884.826 470.613
182 0 60.2745 14.1353 852 115.681 883.981 470.377
183 0 61.1754 12.2598 750 117.843 883.263 472.077
184 0 61.1754 12.2435 749 145.701 882.31 472.162
185 0 69.261 13.2253 916 114.646 881.946 467.409
186 0 70.1753 15.7463 1105 112.058 881.774 461.442
187 0 69.1834 12.2717 849 118.416 880.055 460.088
188 0 74.1352 13.4484 997 114.967 880.484 457.731
189 0 76.1735 15.0709 1148 111.767 880.292 459.287
190 0 75.1668 13.4767 1013 115.473 880.192 456.871
191 0 81.2253 13.9612 1134 116.399 880.453 450.801
192 0 84.3282 13.8388 1167 117.528 880.868 447.281
193 0 85.171 12.4573 1061 121.131 880.257 447.451
194 1 44.0686 11.2779 497 115.34 880.793 467.793
195 0 46.1413 10.6195 490 117.255 880.441 466.841
196 0 46.0781 12.2835 566 116.087 880.938 463.5
197 0 47.08 13.955 657 129.979 881.053 465.138
198 0 47.067 11.4305 538 113.201 880.816 464.63
199 0 49.0991 12.2405 601 113.376 882.042 460.684
200 0 49.0991 12.2405 601 130.551 883.042 460.684
201 0 52.1218 14.8498 774 108.211 882.872 462.121
202 0 54.1552 14.5323 787 109.142 882.126 460.241
203 0 55.0655 12.7666 703 112.781 885.556 461.279
204 0 55.1572 12.6185 696 113.815 885.078 460.177
205 0 58.207 15.548 905 106.924 885.382 461.397
206 0 58.0447 14.9195 866 109.751 886.614 461.837
207 0 62.1405 12.7936 795 113.077 886.815 460.79
208 0 62.1589 12.9346 804 114.388 887.667 458.02
209 0 67.2076 16.9624 1140 107.532 888.61 458.558
210 0 68.1853 12.7594 870 114.672 887.39 458.447
211 0 71.119 13.1751 937 113.651 889.29 458.997
212 0 70.1873 12.1105 850 116.821 889.204 459.512
213 0 73.1542 12.1114 886 118.212 889.059 456.082
214 0 76.14 11.3869 867 118.273 890.308 458.197
215 0 81.1235 12.5364 1017 117.331 890.464 453.734
216 1 43.0636 10.3336 445 116.542 890.544 474.966
217 0 43.2247 11.6831 505 115.792 890.184 476.695
218 0 46.104 14.207 655 112.114 889.592 476.714
219 0 48.063 13.191 634 114.295 889.15 477.286
220 0 49.0866 14.342 704 109.318 886.693 478.196
221 0 52.1797 13.8943 725 109.948 886.873 477.87
222 0 53.1667 13.9749 743 109.773 885.207 480.077
223 0 52.0606 8.2596 430 119.847 884.356 479.709
224 0 54.1245 9.201 498 119.367 883.139 473.466
225 0 56.147 12.6454 710 113.204 881.597 474.69
226 0 59.0804 12.356 730 112.897 881.353 472.921
227 0 59.2689 12.6204 748 112.807 880.02 472.299
228 0 55.1134 8.56417 472 119.347 879.515 470.405
229 0 64.0776 12.36 792 112.168 879.28 472.554
230 0 67.2287 13.759 925 109.059 879.489 472.203
231 0 70.1986 17.9918 1263 103.108 878.651 464.204
232 0 70.2293 13.0999 920 111.736 878.554 465.105
233 0 73.3488 12.4201 911 113.188 878.587 459.956
234 0 75.1206 11.2486 845 114.935 877.839 458.869
235 0 78.125 12.032 940 113.415 879.054 459.427
236 1 39.1214 7.46394 292 116.113 877.695 476.61
237 0 43.0585 9.96318 429 111.643 877.797 474.371
238 0 43.0528 11.753 506 110.708 877.217 471.905
239 0 47.1166 12.8829 607 110.957 879.025 467.01
240 0 45.0809 10.5144 474 112.681 879.76 470.411
241 0 46.0224 9.10427 419 114.413 879.21 468.002
242 0 46.0252 10.3422 476 113.914 880.454 465.565
243 0 46.0252 10.4725 482 132.135 881.411 465.674
244 0 49.0808 11.206 550 111.785 880.736 467.827
245 0 49.2238 11.7017 576 112.269 882.286 465.868
246 0 53.0751 12.6425 671 109.945 882.34 466.614
247 0 54.1244 12.6375 684 110.449 882.884 462.345
248 0 56.0457 12.2043 684 112.192 883.022 462.434
249 0 56.1286 14.6271 821 109.65 883.672 462.395
250 0 57.1076 9.736 556 118.739 884.234 462.04
251 0 60.1072 11.8289 711 116.675 885.318 456.321
252 0 62.1647 12.5795 782 116.24 886.534 456.757
253 0 65.0909 14.3799 936 112.793 887.703 457.46
254 0 68.1932 14.5616 993 112.135 887.837 460.368
255 0 69.3575 11.5633 802 117.542 887.367 458.308
256 0 70.0879 11.9421 837 117.959 887.792 459.013
257 0 73.2785 13.6739 1002 115.178 888.533 458.466
258 0 77.358 14.7108 1138 112.838 888.26 459.714
259 0 76.0968 11.8533 902 118.326 888.337 457.989
260 0 82.1484 12.7939 1051 117.597 887.229 457.995
261 0 81.2172 11.4877 933 121.095 887.546 456.509
262 1 44.0836 9.57271 422 120.526 886.486 477.365
263 0 46.2461 14.7472 682 110.012 886.692 475.21
264 0 46.1146 11.775 543 115.965 887.328 478.847
265 0 43.0506 10.8477 467 117.223 885.687 478.557
266 0 50.1508 12.3627 620 113.068 884.195 478.656
267 0 50.1018 12.9337 648 113.903 883.071 475.102
268 0 53.1143 12.4825 663 114.51 882.296 475.845
269 0 52.11 11.7828 614 116.661 881.41 473.969
270 0 53.0887 9.64423 512 119.51 880.494 475.816
271 0 59.0309 13.2642 783 113.872 880.999 471.372
272 0 60.0537 12.5554 754 116.806 879.828 469.883
273 0 61.1253 13.595 831 116.152 879.226 465.134
274 0 63.2637 12.7087 804 117.688 879.28 465.071
275 0 64.1014 17.3943 1115 108.139 878.607 469.509
276 0 67.2275 14.2947 961 116.525 877.931 459.79
277 0 71.142 12.9038 918 118.042 877.652 460.797
278 0 73.255 13.0093 953 118.028 877.76 456.907
279 0 76.1984 14.0292 1069 115.19 878.825 458.731
280 0 80.2012 12.9674 1040 117.923 878.722 452.852
281 0 80.1882 15.3638 1232 113.377 878.741 454.171
282 1 42.1442 9.27766 391 116.258 879.095 471.841
283 0 45.0819 13.9967 631 111.122 879.441 466.995
284 0 44.04 9.65032 425 116.153 880.224 468.139
285 0 47.1412 11.8156 557 110.792 879.201 465.018
286 0 47.1392 13.5344 638 109.594 880.514 463.577
287 0 48.0572 11.8192 568 111.181 881.285 464.607
288 0 48.0782 12.2509 589 110.11 880.827 463.579
289 0 48.1056 11.4955 553 112.259 883.009 462.219
290 0 49.1075 10.365 509 113.405 883.866 462.631
291 0 54.0523 14.4305 780 107.679 884.281 458.688
292 0 58.1772 19.6469 1143 99.4934 885.062 462.836
293 0 56.0557 12.7195 713 111.161 886.382 457.379
294 0 59.2172 14.2188 842 109.467 886.972 458.937
295 0 61.1223 15.2972 935 108.037 888.482 458
296 0 59.2494 12.152 720 114.436 888.065 456.544
297 0 66.1861 15.3355 1015 108.047 890.072 458.473
298 0 65.1718 20.4843 1335 104.388 892.034 462.168
299 0 68.1788 13.2886 906 113.323 889.202 456.267
300 0 70.0662 17.7974 1247 107.383 889.536 457.2
301 0 72.1679 14.3 1032 113.182 889.411 455.89
302 0 74.1535 11.0581 820 116.951 888.585 461.643
303 0 75.0424 12.393 930 117.239 888.538 458.352
304 0 81.1053 18.9014 1533 107.093 889.183 458.653
305 0 81.0539 18.7406 1519 125.011 889.14 458.58
306 0 86.264 13.1341 1133 117.229 888.461 457.672
307 0 88.1198 14.0831 1241 116.662 887.882 456.287
308 1 46.1215 10.3639 478 115.492 888.019 478.262
309 0 46.0423 12.4451 573 113.698 886.832 477.946
310 0 45.0514 10.1884 459 118.978 885.993 474.218
311 0 48.0557 13.0682 628 113.895 883.879 472.137
312 0 51.1491 13.3727 684 110.501 883.759 471.857
313 0 50.0599 11.9856 600 108.987 882.75 476.685
314 0 51.0565 13.9258 711 110.311 881.689 474.539
315 0 53.091 10.8493 576 111.618 882.062 472.747
316 0 54.0578 12.0612 652 110.713 881.222 467.377
317 0 59.082 10.003 591 114.235 880.47 466.081
318 0 58.0925 11.1202 646 115.519 879.443 467.034
319 0 62.1394 10.7661 669 113.895 878.692 465.997
320 0 65.1489 10.0846 657 115.738 877.884 461.746
321 0 70.1593 12.8992 905 113.054 878.919 457.708
322 0 73.3987 13.488 990 112.661 879.203 456.539
323 0 75.2149 12.3513 929 114.484 878.402 455.99
324 0 78.2718 12.891 1009 115.904 878.368 449.076
325 0 81.2098 14.8504 1206 112.657 879.389 445.696
326 1 44.0694 12.7299 561 110.03 879.075 466.287
327 0 43.1395 14.2793 616 108.177 880.537 465.102
328 0 44.0983 8.68515 383 118.097 880.436 461.548
329 0 48.0478 13.4658 647 106.839 879.612 463.927
330 0 48.0281 13.2839 638 108.647 880.729 462.553
331 0 50.0228 11.3948 570 110.426 881.83 463.081
332 0 50.1329 12.1876 611 110.39 883.345 459.902
333 0 50.1329 12.2873 616 121.852 885.349 459.873
334 0 51.1856 13.7539 704 107.896 884.824 459.496
335 0 56.0384 12.42 696 109.016 885.402 459.524
336 0 57.1131 13.2719 758 108.4 885.79 456.332
337 0 56.0159 13.4605 754 110.741 885.739 453.952
338 0 59.1487 12.0375 712 113.146 887.653 452.657
339 0 62.2612 14.134 880 109.061 888.597 455.039
340 0 64.1807 12.013 771 113.272 889.126 453.014
341 0 67.2218 13.567 912 110.249 888.885 456.361
342 0 71.1267 11.599 825 113.108 889.621 455.608
343 0 73.1372 13.1807 964 111.565 889.804 454.828
344 0 77.1853 12.9429 999 110.747 889.938 456.878
345 0 77.2842 10.2479 792 116.133 891.148 454.157
346 0 78.1105 11.9574 934 113.937 890.612 454.062
347 0 82.1171 14.662 1204 110.696 889.861 453.958
348 0 84.228 10.4003 876 116.029 889.817 449.675
349 0 87.1552 12.5409 1093 111.047 889.568 446.506
350 0 92.2908 14.6819 1355 107.25 888.987 449.72
351 0 95.3364 11.9682 1141 112.795 889.175 447.578
352 0 96.3948 13.2891 1281 113.294 888.041 446.224
353 0 98.2381 9.21231 905 121.17 887.251 442.783
354 0 102.14 12.6885 1296 113.789 887.377 448.199
355 1 50.2391 7.88231 396 114.136 885.225 471.134
356 0 55.064 11.7136 645 108.597 885.456 472.558
357 0 57.1379 9.88836 565 112.965 884.828 470.361
358 0 60.1125 11.8112 710 109.625 885.139 471.213
359 0 62.1322 16.6419 1034 103.033 883.676 470.612
360 0 64.097 13.0895 839 109.77 884.023 466.122
361 0 64.2714 10.5646 679 114.791 882.595 463.979
362 0 69.1896 13.8316 957 108.09 882.858 463.173
363 0 70.3011 13.4706 947 108.264 882.229 461.901
364 0 73.2365 12.2753 899 110.004 882.135 461.011
365 0 75.3316 11.4693 864 113.082 881.932 458.131
366 1 40.0237 9.59432 384 112.18 882.552 472.74
367 0 40.0237 9.49438 380 124.776 882.568 472.787
368 0 42.1323 9.6363 406 112.219 881.571 470.273
369 0 43.1064 11.5064 496 110.111 882.224 466.702
370 0 42.222 11.3448 479 109.741 882.507 467.154
371 0 45.0749 14.0877 635 106.038 883.498 467.986
372 0 43.1116 10.554 455 112.4 883.582 466.092
373 0 47.2319 9.97207 471 114.055 883.803 464.155
374 0 47.0443 11.5423 543 113.772 884.661 460.133
375 0 48.0832 12.0208 578 112.159 885.528 461.865
376 0 47.3206 15.5323 735 109.456 885.347 460.569
377 0 53.1663 10.4201 554 116.641 886.848 458.413
378 0 55.1584 14.7394 813 109.845 886.866 456.52
379 0 56.0705 14.5888 818 108.855 888.1 459.259
380 0 59.2012 14.2902 846 108.32 888.16 457.688
381 0 60.2895 12.0253 725 113.004 889.239 458.332
382 0 61.1022 13.5347 827 113.261 889.836 456.138
383 0 62.1073 13.3962 832 114.399 891.537 454.76
384 0 64.2347 11.8783 763 116.604 890.594 454.95
385 0 68.2399 13.4232 916 113.77 890.835 456.586
386 0 69.159 11.9146 824 117.002 891.771 454.177
387 0 72.1798 13.2031 953 115.656 891.723 454.504
388 0 74.1033 12.0912 896 116.487 891.199 455.196
389 0 77.1886 11.3359 875 117.421 890.357 456.846
390 0 79.1851 14.0557 1113 114.04 890.278 456.378
391 0 83.2954 13.7823 1148 116.01 890.048 455.172
392 0 84.2023 12.5175 1054 118.081 889.903 454.727
393 0 88.1513 14.4524 1274 114.238 889.82 455.006
394 0 87.3235 13.742 1200 116.312 889.525 452.999
395 1 50.1441 11.3274 568 118.727 887.472 473.319
396 0 51.1205 11.1892 572 119.974 887.642 473.853
397 0 55.1376 11.9519 659 118.986 887.395 473.671
398 0 56.1324 11.0631 621 119.185 884.539 473.879
399 0 55.0864 13.379 737 116.437 884.601 472.72
400 0 57.0292 12.5374 715 119.12 884.615 471.648
401 0 57.0387 13.2191 754 120.586 883.617 469.072
402 0 63.1785 13.8497 875 118.327 882.833 467.592
403 0 63.1116 11.646 735 123.824 882.333 465.107
404 0 65.3986 11.8198 773 122.988 881.825 465.969
405 0 68.0871 14.7018 1001 118.3 881.246 462.962
406 0 72.2735 14.6803 1061 116.375 879.842 463.337
407 0 73.1988 13.4019 981 119.649 879.448 459.7
408 0 74.0226 12.2935 910 123.014 879.292 457.091
409 0 78.1241 15.4242 1205 116.052 880.49 454.356
410 0 81.2778 13.7922 1121 118.256 880.242 454.276
411 0 83.1606 13.0831 1088 119.681 879.146 452.369
412 1 43.044 10.1756 438 120.338 879.495 467.32
413 0 43.1096 10.4617 451 110.029 881.572 465.747
414 0 42.2272 10.0409 424 111.835 881.634 459.925
415 0 45.0417 12.6105 568 107.074 880.431 460.685
416 0 49.0159 14.6279 717 108.439 882.053 464.722
417 0 48.0156 10.7465 516 125.785 882.837 461.609
418 0 48.1101 10.3513 498 117.655 882.422 462.773
419 0 49.0462 13.0082 638 113.299 884.36 463.083
420 0 50.2768 10.2234 514 117.669 884.506 460.08
421 0 53.1153 10.449 555 114.27 885.591 462.697
422 0 54.1478 11.0623 599 115.209 886.197 457.294
423 0 56.2408 13.5667 763 112.204 887.408 455.991
424 0 61.2346 11.4478 701 114.872 887.776 456.097
425 0 62.1768 11.403 709 114.645 889.025 456.02
426 0 62.1008 11.433 710 115.248 889.556 452.604
427 0 65.1898 15.708 1024 107.211 890.965 455.637
428 0 67.0906 10.9106 732 115.742 891.098 459.523
429 0 68.3049 14.1132 964 112.155 891.776 452.727
430 0 70.5217 15.6689 1105 108.705 891.303 457.894
431 0 73.128 15.7942 1155 107.489 890.926 455.197
432 0 76.2526 13.9012 1060 110.539 890.692 453.003
433 0 80.1385 14.1006 1130 108.75 891.199 457.858
434 0 80.3994 11.4926 924 114.657 890.879 454.619
435 0 84.2177 13.8807 1169 110.37 890.848 456.932
436 0 86.1747 13.0665 1126 111.471 890.06 455.686
437 1 44.0897 10.456 461 114.818 889.356 472.844
438 0 44.0777 11.2528 496 114.53 889.125 474.78
439 0 47.1531 15.2058 717 106.978 888.001 474.49
440 0 47.0485 15.771 742 105.402 887.813 476.811
441 0 49.0352 12.0933 593 111.497 886.047 477.14
442 0 49.0329 12.2163 599 112.274 886.14 473.564
443 0 49.0309 11.972 587 114.302 886.097 474.438
444 0 52.0255 11.9557 622 113.727 885.85 476.14
445 0 52.0763 13.6722 712 112.118 885.107 474.367
446 0 55.1214 11.5745 638 116.481 883.771 470.718
447 0 57.1261 13.3039 760 112.047 883.693 473.699
448 0 61.1664 14.2399 871 111.273 883.721 470.915
449 0 61.1233 13.1701 805 115.086 883.399 469.968
450 0 64.2428 15.3947 989 111.062 883.358 468.954
451 0 64.146 14.3891 923 114.176 882.563 465.33
452 0 66.1434 14.3778 951 113.516 882.533 466.424
453 0 73.1539 13.1094 959 116.128 881.949 464.056
454 0 69.2904 14.0856 976 117.451 882.06 459.288
455 0 70.2884 12.1073 851 120.65 880.973 459.482
456 0 73.192 13.0889 958 119.428 882.278 459.71
457 0 75.1583 13.1855 991 121.624 881.187 455.28
458 0 74.13 13.3279 988 120.93 881.515 456.795
459 0 79.1794 15.8248 1253 116.647 882.477 454.683
460 0 81.2782 18.6274 1514 112.065 882.541 455.889
461 0 83.129 15.7346 1308 117.358 883.36 449.836
462 0 86.2711 14.3153 1235 118.432 884.426 451.211
463 0 84.4552 12.0064 1014 122.508 884.812 451.054
464 0 90.468 16.691 1510 114.029 886.172 449.463
465 0 94.3883 11.6646 1101 123.151 885.937 447.748
466 0 96.3699 13.8736 1337 120.857 886.226 445.408
467 1 56.1645 13.959 784 114.051 885.825 466.44
468 0 58.2489 12.9445 754 111.187 886.928 466.334
469 0 58.1908 13.8682 807 110.66 887.202 463.623
470 0 61.2305 12.5101 766 119.783 888.219 465.322
471 0 61.241 15.6104 956 114.869 889.224 465.157
472 0 65.1663 13.0282 849 118.875 889.156 465.974
473 0 64.1988 12.3055 790 122.577 888.367 461.776
474 0 68.1831 14.5344 991 118.417 889.623 463.781
475 0 67.0992 12.6678 850 121.736 888.569 467.685
476 0 73.159 14.4343 1056 118.19 888.412 466.857
477 0 77.2302 15.2013 1174 115.994 888.271 467.543
478 0 77.256 14.1607 1094 119.197 887.609 464.89
479 0 80.2599 16.2098 1301 116.059 887.549 465.271
480 0 85.3162 15.7297 1342 116.115 886.274 466.508
481 0 88.3264 16.0881 1421 115.913 884.944 464.622
482 0 88.3264 16.0767 1420 129.631 882.942 464.586
483 1 45.24 9.7259 440 121.78 882.423 480.609
484 0 49.2265 10.9697 540 118.946 882.626 477.902
485 0 49.0987 10.4687 514 120.99 880.331 479.119
486 0 50.1917 11.6553 585 120.096 881.345 477.378
487 0 52.1713 14.8932 777 114.681 880.2 477.088
488 0 55.1406 12.314 679 119.253 879.736 475.713
489 0 58.1826 12.117 705 118.743 878.443 477.762
490 0 61.0714 15.5556 950 116.822 878.47 477.347
491 0 60.24 14.7742 890 119.773 877.783 477.848
492 0 64.1376 14.5624 934 118.773 877.433 473.687
493 0 66.1007 14.3569 949 119.017 877.066 472.903
494 0 66.1007 14.5082 959 137.429 877.062 472.941
495 0 69.2552 14.9158 1033 118.991 876.712 467.048
496 0 71.1308 14.0164 997 119.978 875.832 466.37
497 0 75.198 17.0217 1280 113.932 875.177 462.103
498 0 76.17 12.9185 984 121.349 875.18 460.679
499 0 78.0882 14.5092 1133 119.492 876.442 457.831
500 0 79.1011 10.0504 795 127.486 876.796 454.649
501 0 83.1075 13.3081 1106 120.553 877.637 455.024
502 0 87.182 13.7643 1200 118.946 878.27 452.122
503 0 92.2641 13.6456 1259 117.396 879.566 445.371
504 0 91.2142 12.7941 1167 119.155 880.352 443.768
505 0 95.1712 15.2567 1452 115.789 881.563 442.213
506 0 95.2191 16.1417 1537 112.967 881.449 442.705
507 0 98.1566 13.6313 1338 117.464 882.04 441.373
508 0 103.354 9.94643 1028 123.143 883.366 446.594
509 0 105.227 9.56976 1007 125.242 884.628 437.452
510 0 110.282 12.4408 1372 120.593 883.945 434.313
511 0 113.551 11.2461 1277 123.388 885.609 434.668
512 0 117.308 11.5252 1352 120.562 886.039 442.251
513 0 125.208 13.1381 1645 120.067 887.543 435.049
514 1 66.122 10.4957 694 118.2 887.383 463.009
515 0 69.1153 14.5988 1009 111.952 887.544 461.301
516 0 71.1708 15.779 1123 110.031 887.738 461.849
517 0 73.2288 15.3219 1122 109.76 888.669 462.945
518 0 73.2288 15.4311 1130 115.678 889.707 462.91
519 0 79.1162 14.3081 1132 113.116 886.814 461.337
520 1 42.0921 12.2351 515 112.194 887.825 482.371
521 0 43.1818 12.0653 521 112.578 886.981 482.766
522 0 45.0202 11.306 509 113.776 886.566 484.699
523 0 46.0446 11.4237 526 116.192 885.768 481.703
524 0 49.1941 14.8392 730 108.038 885.492 479.43
525 0 48.0937 12.1014 582 117.259 884.686 478.644
526 0 51.0316 10.1702 519 116.908 884.474 483.566
527 0 53.0325 11.5778 614 117.44 884.046 478.362
528 0 55.225 15.5364 858 109.945 882.765 480.57
529 0 51.064 11.3583 580 121.283 882.084 477.119
530 0 56.0937 12.0869 678 118.906 881.314 475.153
531 0 57.0302 12.5021 713 118.008 879.923 476.142
532 0 60.109 14.0744 846 114.823 879.418 475.566
533 0 61.0724 14.0325 857 115.042 879.775 475.161
534 0 62.1812 12.4153 772 119.911 878 470.834
535 0 64.2133 12.6142 810 118.704 876.46 472.432
536 0 64.1844 10.7814 692 119.075 875.6 471.662
537 0 69.1952 11.2291 777 116.698 875.521 471.286
538 0 73.103 11.6001 848 117.387 875.821 467.959
539 0 75.0959 14.0887 1058 113.048 876.507 466.855
540 0 76.2529 14.7142 1122 113.444 875.689 459.315
541 0 79.0863 13.3399 1055 114.884 876.666 461.009
542 0 80.2966 12.0553 968 114.876 876.527 462.25
543 0 83.2366 16.0266 1334 110.076 877.681 455.913
544 0 84.1331 14.5127 1221 114.037 877.047 450.23
545 0 89.2522 12.7392 1137 115.573 877.979 449.208
546 0 91.0867 16.0616 1463 110.889 877.757 447.064
547 0 93.2364 10.6933 997 121.235 879.976 449.253
548 1 47.1753 10.9167 515 116.483 879.008 471.01
549 0 51.1122 12.7954 654 112.777 880.509 470.472
550 0 52.1144 14.0652 733 111.337 880.735 472.025
551 0 54.1315 13.1716 713 114.285 880.293 466.435
552 0 54.0482 13.0624 706 115.152 881.489 465.948
553 0 56.0351 14.7408 826 111.887 882.228 466.53
554 0 58.221 14.2388 829 112.407 882.953 466.316
555 0 58.0612 13.4341 780 115.964 884.624 463.27
556 0 62.2844 19.9568 1243 105.508 884.956 464.963
557 0 62.2931 12.072 752 119.039 886.509 463.919
558 0 63.1104 13.1832 832 118.105 886.576 461.56
559 0 71.2636 16.6705 1188 109.285 886.976 466.523
560 0 70.1649 13.3685 938 117.047 886.628 463.244
561 0 72.1024 13.4253 968 117.566 885.847 464.305
562 0 72.1964 12.7292 919 119.584 886.006 465.065
563 0 77.4373 14.0888 1091 115.179 885.301 465.538
564 0 78.3845 14.2885 1120 116.478 885.188 464.579
565 0 81.6436 19.9281 1627 107.462 884.465 461.352
566 0 79.253 12.8071 1015 114.485 883.936 460.203
567 0 84.1775 12.8063 1078 115.799 883.288 455.296
568 0 87.1231 13.0275 1135 115.73 882.507 455.295
569 1 43.1361 8.87888 383 117.089 882.781 476.243
570 0 46.2286 11.7027 541 114.394 881.593 475.848
571 0 49.1085 13.7858 677 111.155 880.182 477.564
572 0 49.0619 11.0065 540 115.683 880.289 478.743
573 0 51.1287 13.3389 682 113.664 879.453 473.402
574 0 53.099 16.554 879 107.969 878.881 476.217
575 0 54.1784 12.5327 679 115.511 877.32 471.15
576 0 54.1784 12.5881 682 125.054 876.296 471.166
577 0 55.1894 7.95443 439 123.089 877.932 471.768
578 0 58.1094 13.2337 769 114.459 876.567 468.339
579 0 61.207 12.7273 779 111.834 877.479 469.53
580 0 63.1085 12.0428 760 115.343 876.334 464.033
581 0 68.2445 15.0049 1024 111.671 876.828 466.503
582 0 68.1839 14.0502 958 115.509 877.172 464.415
583 0 71.1604 14.5868 1038 113.536 877.367 463.125
584 0 76.097 17.5697 1337 108.002 876.981 463.314
585 0 76.4044 13.8212 1056 118.06 877.02 455.022
586 0 80.3851 15.5253 1248 116.704 878.18 457.629
587 0 82.1872 13.2259 1087 120.475 879.54 456.805
588 1 42.196 10.2853 434 122.705 879.952 472.818
589 0 46.2882 12.2926 569 117.815 878.671 470.13
590 0 46.1406 11.4866 530 118.553 878.942 468.008
591 0 48.0999 13.6591 657 113.536 880.126 465.536
592 0 50.1121 13.7292 688 115.017 882.27 469.142
593 0 49.0284 11.9727 587 116.315 881.363 468.836
594 0 53.1409 10.331 549 116.047 882.86 471.623
595 0 54.1719 11.1682 605 116.881 882.982 465.833
596 0 56.0984 14.2785 801 113.514 884.367 465.925
597 0 60.2208 13.5833 818 113.905 884.901 465.653
598 0 60.0905 12.4313 747 115.426 885.972 466.282
599 0 65.2345 13.5971 887 112.105 886.826 465.494
600 0 65.1447 14.061 916 111.767 886.537 464.301
601 0 65.1557 11.2193 731 116.713 887.36 465.049
602 0 71.3748 12.9037 921 114.109 886.725 459.219
603 0 70.2813 11.084 779 114.354 887.689 466.43
604 0 74.1159 15.152 1123 108.085 887.454 463.152
605 0 75.1427 11.0323 829 115.812 887.338 461.542
606 0 79.1045 13.6149 1077 110.216 886.344 462.517
607 0 80.5133 11.0417 889 113.281 886.713 463.573
608 0 85.1305 12.3223 1049 111.278 885.905 461.531
609 1 45.0568 12.2512 552 108.498 885.605 481.514
610 0 44.0633 5.99138 264 112.356 885.383 474.913
611 0 44.1052 10.9511 483 106.795 883.395 476.787
612 0 48.0807 11.6055 558 109.744 882.959 478.93
613 0 51.0641 11.8674 606 108.14 881.662 481.465
614 0 54.1764 15.228 825 103.464 881.001 478.71
615 0 53.0666 12.6822 673 108.208 879.681 479.26
616 0 55.2335 10.3922 574 107.066 878.324 480.605
617 0 54.132 12.0262 651 105.799 879.465 478.496
618 0 59.1008 12.2502 724 104.956 878.395 478.843
619 0 61.102 13.0765 799 107.584 877.808 473.264
620 0 63.1228 17.5214 1106 102.134 877.498 471
621 0 64.0872 11.5468 740 110.835 876.461 471.657
622 0 65.2426 16.0325 1046 104.558 877.616 468.749
623 0 71.1689 11.3533 808 110.038 876.017 469.948
624 0 70.1918 11.1694 784 134.3 874.02 469.375
625 0 74.1815 13.467 999 108.646 876.146 462.436
626 0 77.1964 14.5603 1124 107.551 876.222 460.133
627 0 77.2475 12.7512 985 111.171 876.872 458.498
628 0 80.1332 12.3919 993 111.418 876.695 453.864
629 0 83.1556 11.4123 949 113.689 877.389 449.653
630 0 86.3825 10.6619 921 114.355 878.224 452.845
631 0 91.2724 12.6216 1152 111.678 878.969 452.854
632 0 91.2305 12.5616 1146 112.817 879.079 452.915
633 0 89.2796 12.1976 1089 115.755 880.895 449.129
634 1 51.2589 10.5933 543 109.884 880.328 474.339
635 0 51.1108 13.7153 701 109.173 881.512 467.004
636 0 52.0973 13.5708 707 111.423 880.982 466.625
637 0 52.0973 13.4556 701 123.469 880.994 466.571
638 0 56.0966 10.9276 613 115.24 881.863 466.359
639 0 63.6114 13.7868 877 107.31 883.156 466.234
640 0 63.1039 13.5491 855 110.536 882.974 461.835
641 0 63.0917 11.5388 728 111.628 884.054 468.073
642 0 66.1153 16.2595 1075 105.319 884.983 465.62
643 0 67.2177 11.7677 791 112.675 884.828 463.1
644 0 71.2413 12.3805 882 110.293 887.094 463.965
645 0 76.1783 13.2846 1012 109.828 887.615 463.701
646 0 73.2482 13.229 969 110.964 886.71 461.625
647 0 78.0481 12.1335 947 110.669 887.728 464.605
648 0 78.0481 12.0695 942 133.558 889.744 464.501
649 0 83.1366 14.831 1233 108.081 886.225 461.642
650 0 85.3429 14.1195 1205 109.956 885.568 459.686
651 0 89.0718 13.6519 1216 108.746 886.244 464.376
652 0 90.1564 13.6541 1231 110.098 886.742 460.616
653 1 47.0338 10.3542 487 111.487 885.821 482.955
654 0 51.1209 12.6367 646 107.703 885.652 481.615
655 0 51.1209 12.5585 642 125.696 885.656 481.622
656 0 55.0775 13.5264 745 105.811 884.407 475.568
657 0 56.1132 11.7619 660 113.52 883.305 477.333
658 0 56.1947 12.0296 676 113.895 883.905 476.791
659 0 57.163 12.823 733 113.677 882.393 476.82
660 0 57.163 12.753 729 136.136 880.409 476.794
661 0 64.0782 14.7788 947 111.333 881.806 474.631
662 0 65.1039 16.0666 1046 109.824 881.537 471.311
663 0 67.0445 10.8435 727 115.44 880.25 477.179
664 0 68.0681 12.9135 879 116.105 880.648 471.945
665 0 71.0418 13.3302 947 114.93 879.741 468.574
666 0 71.0461 13.2449 941 131.721 879.739 468.548
667 0 74.1304 11.9789 888 118.509 879.494 466.876
668 0 77.073 13.4807 1039 117.75 879.399 462.413
669 0 80.0979 13.0715 1047 117.733 878.995 462.963
670 0 81.1075 11.9471 969 122.447 879.323 455.41
671 0 84.3798 13.5341 1142 118.995 879.375 454.049
672 0 89.1983 12.1751 1086 121.255 881.729 452.683
673 0 88.1321 11.6416 1026 122.756 880.373 450.95
674 1 47.0508 11.8383 557 117.305 879.251 472.885
675 0 50.3423 11.6403 586 113.794 878.703 473.671
676 0 46.2317 10.8151 500 119.884 879.108 470.376
677 0 47.0888 11.85 558 118.136 880.272 470.224
678 0 51.0785 14.5462 743 115.522 882.991 465.972
679 0 54.0602 14.2619 771 115.882 884.147 467.06
680 0 55.048 11.5172 634 120.637 885.47 466.902
681 0 58.1682 13.5641 789 115.679 885.485 467.667
682 0 59.0712 13.1197 775 118.365 885.16 463.935
683 0 62.1073 14.8775 924 113.561 887.333 466.711
684 0 64.1003 16.8018 1077 110.495 886.396 463.993
685 0 63.1733 14.4681 914 113.934 887.985 465.329
686 0 64.209 13.8921 892 115.25 886.757 464.102
687 0 68.2711 11.7766 804 116.374 887.377 468.17
688 0 71.5167 15.8844 1136 109.078 887.562 470.583
689 0 67.0997 12.9956 872 118.639 887.087 464.891
690 0 74.2715 14.9048 1107 112.664 886.557 465.867
691 0 79.2975 15.2968 1213 110.283 887.601 469.552
692 0 77.2556 12.5428 969 115.957 887.147 468.838
693 0 80.3045 13.262 1065 115.781 886.396 463.348
694 0 80.3045 13.3243 1070 144.298 885.406 463.359
695 0 85.1485 13.8112 1176 113.706 884.883 465.739
696 0 86.3063 12.3861 1069 115.907 885.405 464.666
697 0 89.3598 11.9853 1071 115.21 885.246 466.348
698 0 93.2602 13.1675 1228 114.295 884.644 461.363
699 1 52.1662 11.5017 600 113.935 883.92 479.825
700 0 53.1978 13.4028 713 106.178 882.527 481.206
701 0 55.1349 14.2922 788 103.325 880.369 482.981
702 0 56.3104 14.1715 798 104.115 879.833 477.378
703 0 60.112 14.5728 876 102.138 878.317 474.091
704 0 64.0861 15.1047 968 100.274 878.098 477.594
705 0 65.1071 10.9973 716 105.378 877.904 476.226
706 0 67.0467 14.1543 949 102.55 877.469 472.459
707 0 70.1061 13.8362 970 102.986 877.08 469.646
708 0 71.1174 13.8644 986 104.795 877.128 468.021
709 0 72.1183 10.2332 738 109.299 876.847 467.069
710 0 74.0603 11.1666 827 108.005 876.537 469.667
711 0 80.1919 18.2936 1467 99.728 878.303 464.345
712 1 39.1216 10.199 399 106.551 876.807 482.216
713 0 43.3916 10.9468 475 107.333 878.65 477.198
714 0 44.3205 12.1163 537 105.192 878.255 478.289
715 0 46.2966 13.7807 638 103.795 878.459 475.545
716 0 48.2563 10.7136 517 107.907 878.319 472.574
717 0 51.1152 14.2815 730 102.384 878.867 473.56
718 0 50.0754 12.1417 608 104.467 878.308 475.16
719 0 55.0868 14.5225 800 102.51 879.799 470.899
720 0 53.1418 13.511 718 109.38 879.852 470.269
721 0 56.4016 13.1734 743 110.31 880.619 468.192
722 0 56.4016 13.1734 743 134.293 881.619 468.369
723 0 56.4016 13.1734 743 133.672 882.594 468.452
724 0 56.3796 13.4978 761 132.649 883.682 468.099
725 0 63.2917 11.2969 715 114.255 883.238 466.064
726 0 66.31 13.2107 876 109.066 884.249 466.288
727 0 69.3036 11.226 778 111.215 884.379 465.922
728 0 72.2814 14.0977 1019 107.275 885.502 461.908
729 0 72.4204 11.5161 834 112.428 885.639 459.241
730 1 36.0383 11.0715 399 110.652 885.769 480.296
731 0 40.0491 13.9579 559 104.97 886.945 482.318
732 0 38.0891 9.87158 376 113.447 888.274 482.404
733 0 42.1397 13.0518 550 109.489 887.176 476.778
734 0 44.0449 11.4883 506 111.316 887.012 481.818
735 0 46.0811 12.6733 584 111.469 886.654 480.88
736 0 44.0583 11.5756 510 113.908 883.837 481.408
737 0 47.1037 11.8674 559 114.521 884.98 481.524
738 0 48.2725 12.2844 593 115.138 883.469 482.079
739 0 49.1789 11.387 560 116.955 884.321 481.884
740 0 50.0957 11.9571 599 116.319 883.05 481.865
741 0 51.2582 10.4764 537 119.642 883.594 479.022
742 0 54.3435 11.1697 607 119.301 882.015 479.703
743 0 55.0646 12.222 673 118.027 880.985 477.212
744 0 59.2274 13.0176 771 115.658 881.397 474.811
745 0 58.0861 11.1386 647 116.281 880.291 477.861
746 0 60.2687 11.7972 711 116.982 880.468 473.657
747 0 60.2444 11.8019 711 120.177 879.468 473.657
748 0 68.3901 15.8795 1086 110.832 879.079 471.902
749 0 68.3901 15.9526 1091 118.04 879.068 471.823
750 0 70.2333 10.8923 765 119.125 879.706 468.265
751 0 74.1903 10.9583 813 116.786 879.442 467.414
752 0 72.1203 12.8951 930 115.485 880.161 463.67
753 0 77.1677 13.3605 1031 114.999 879.152 459.667
754 0 81.1384 12.4725 1012 114.745 878.317 456.942
755 1 42.2354 12.0042 507 113.146 878.84 478.781
756 0 42.2032 11.9659 505 128.499 879.846 478.657
757 0 44.161 13.0432 576 115.441 879.719 475.646
758 0 45.124 12.3216 556 112.284 879.971 471.279
759 0 48.2332 13.3725 645 114.639 880.631 471.989
760 0 47.1078 12.6943 598 116.769 881.351 472.694
761 0 49.1321 13.4942 663 116.489 881.373 467.673
762 0 50.1459 13.6601 685 115.577 883.124 468.222
763 0 52.509 13.1216 689 116.033 882.746 464.977
764 0 54.1657 11.2617 610 119.166 883.998 464.644
765 0 54.1657 11.2617 610 136.003 884.998 464.644
766 0 57.3508 14.3852 825 114.655 884.678 464.081
767 0 59.2748 16.9549 1005 109.9 885.635 463.909
768 0 62.3555 13.2145 824 115.87 886.3 462.752
769 0 63.2777 12.6585 801 116.468 886.634 463.968
770 0 63.2166 12.4334 786 114.575 886.536 463.407
771 0 66.1721 11.2283 743 116.048 886.785 464.639
772 0 70.188 13.6206 956 112.386 886.554 461.398
773 0 74.4791 12.6881 945 113.201 886.434 458.837
774 0 75.2268 13.0804 984 112.368 887.584 464.131
775 0 78.2276 14.151 1107 112.244 888.024 462.018
776 0 81.4197 14.9472 1217 110.997 888.25 459.294
777 0 85.412 11.2162 958 116.139 887.689 459.492
778 0 85.412 11.2045 957 141.276 886.69 459.575
779 0 90.3355 15.531 1403 110.382 887.128 458.541
780 0 97.8666 14.0395 1374 110.904 887.449 460.817
781 1 46.1083 11.8634 547 117.475 885.772 476.587
782 0 52.1374 13.0233 679 113.786 885.239 480.579
783 0 52.2312 12.7319 665 115.029 886.164 480.884
784 0 54.0445 12.9338 699 114.494 885.522 481.403
785 0 55.0948 13.9033 766 113.898 885.649 479.185
786 0 55.1683 12.5253 691 115.731 885.067 479.754
787 0 59.0829 14.2004 839 113.248 884.499 475.423
788 0 65.2789 15.5027 1012 109.881 884.398 476.516
789 0 66.4094 12.8897 856 111.794 881.494 479.161
790 0 64.2958 13.5934 874 114.508 882.784 473.779
791 0 67.1994 13.1698 885 115.966 881.252 469.136
792 0 71.1502 14.8278 1055 110.444 882.394 471.912
793 1 138.33 14.2124 1966 115.875 880.636 433.035
794 1 76.2403 13.3525 1018 114.908 880.202 464.435
795 0 80.2212 12.8146 1028 114.921 880.157 462.471
796 0 80.1533 12.8129 1027 113.442 880.266 463.76
797 0 85.2265 15.9223 1357 110.379 879.981 456.982
798 1 43.1405 10.7092 462 115.299 878.377 475.74
799 0 43.0876 12.6486 545 111.84 877.572 476.389
800 0 45.03 16.0782 724 108.081 879.225 472.546
801 0 45.0358 12.6122 568 115.692 878.764 468.127
802 0 46.0543 12.6155 581 115.917 879.682 468.198
803 0 50.172 13.3939 672 113.18 880.728 469.71
804 0 50.0624 14.5019 726 112.722 881.19 467.347
805 0 52.0358 12.1839 634 116.293 882.174 468.789
806 0 53.0615 13.5315 718 115.596 882.124 463.818
807 0 57.1058 15.8828 907 109.488 883.47 466.657
808 0 55.0736 11.0942 611 120.056 883.304 466.036
809 0 58.2306 12.9314 753 118.325 883.841 463.34
810 0 59.0852 11.6611 689 121.163 884.778 461.347
811 0 62.0944 11.7402 729 121.166 885.8 459.933
812 0 67.0498 13.9598 936 116.572 885.968 457.811
813 0 69.1512 11.4532 792 123.28 886.178 459.501
814 0 72.0643 12.1281 874 121.801 886.011 459.815
815 0 73.138 13.4267 982 115.944 886.593 464.877
816 0 80.1999 14.5761 1169 116.228 886.079 460.463
817 1 40.0794 13.074 524 115.372 886.223 477.748
818 0 40.0446 15.4328 618 112.421 886.539 476.727
819 0 41.1897 11.4592 472 118.557 887.415 478.034
820 0 49.3622 11.7701 581 113.043 886.611 482.26
821 0 44.0314 11.9687 527 118.708 886.283 477.81
822 0 47.0513 11.7106 551 118.283 886.053 482.201
823 0 50.1001 13.8323 693 115.042 886.962 481.371
824 0 50.1321 12.8461 644 121.733 885.433 477.065
825 0 51.0716 13.2559 677 121.294 884.804 478.607
826 0 52.1923 13.5844 709 120.896 884.567 477.958
827 0 53.1177 12.0299 639 123.998 885.036 478.734
828 0 56.1135 16.6448 934 115.161 884.784 475.592
829 0 59.1047 16.4623 973 115.822 883.667 473.632
830 0 60.1357 16.1468 971 116.64 882.882 473.855
831 0 62.2021 15.5782 969 117.626 882.788 471.756
832 0 65.1285 22.2944 1452 105.301 881.782 473.32
833 0 66.121 13.4753 891 119.654 880.778 469.118
834 0 69.3072 14.0534 974 118.11 880.964 467.529
835 0 70.1428 12.8167 899 122.195 880.731 465.186
836 0 72.2977 12.324 891 122.486 880.855 465.608
837 0 74.332 13.6684 1016 120.797 881.119 462.665
838 0 79.2055 14.3551 1137 116.975 880.632 463.792
839 0 83.5709 17.0634 1426 111.447 881.294 459.191
840 0 85.3466 14.2712 1218 118.282 880.966 455.557
841 1 44.08 10.7985 476 119.742 881.384 474.803
842 0 46.1362 13.2 609 115.841 880.903 472.828
843 0 46.0817 11.2843 520 120.483 881.64 470.179
844 0 50.2376 12.839 645 111.693 881.735 468.685
845 0 51.2384 15.0473 771 109.32 881.876 465.348
846 0 52.2997 11.8165 618 118.872 881.521 466.997
847 0 53.1578 12.1901 648 117.907 882.599 468.048
848 0 57.1529 13.7526 786 115.424 882.536 464.611
849 0 60.1149 13.5906 817 118.706 883.891 464.046
850 0 61.2464 17.3071 1060 112.692 884.466 464.443
851 0 62.0726 14.9825 930 117.796 884.528 461.38
852 0 64.096 13.0273 835 121.301 884.16 458.987
853 0 68.0696 15.4254 1050 115.985 885.457 459.746
854 0 69.0822 12.5068 864 118.981 885.597 460.021
855 0 69.0968 14.154 978 117.284 886.706 459.816
856 0 72.077 11.9594 862 121.794 887.557 456.479
857 0 77.1346 14.6238 1128 116.844 888.312 455.707
858 0 79.0628 12.6355 999 120.068 887.651 457.655
859 0 79.0447 16.2566 1285 114.191 888.767 456.605
860 0 80.0938 12.5603 1006 118.734 889.298 460.724
861 1 42.0823 9.14873 385 120.364 888.114 478.314
862 0 44.2026 13.1667 582 111.12 887.253 479.706
863 0 44.0405 10.7628 474 116.357 887.968 479.924
864 0 46.1252 9.14902 422 120.121 887.284 478.891
865 0 47.1034 11.4642 540 116.698 887.443 476.007
866 0 49.1042 8.43105 414 119.903 886.891 480.746
867 0 49.0675 12.4115 609 114.194 886.995 477.683
868 0 52.088 11.711 610 115.897 884.93 474.487
869 0 52.088 11.6918 609 126.872 882.941 474.465
870 0 58.3204 11.9684 698 113.713 885.179 474.678
871 0 58.2963 12.2306 713 114.522 885.02 472.041
872 0 58.2963 12.2478 714 135.455 885.007 472.042
873 0 59.3887 9.54727 567 118.788 882.358 470.109
874 0 64.4107 10.3089 664 115.491 881.729 471.654
875 0 68.2789 12.0828 825 113.682 881.328 466.535
876 0 68.2789 12.1414 829 130.926 880.337 466.355
877 0 71.2177 14.3784 1024 112.386 880.814 462.992
878 0 73.5748 12.9528 953 115.362 879.633 461.846
879 0 76.2912 12.9242 986 115.764 880.869 457.768
880 0 79.383 12.6601 1005 115.491 880.691 457.143
881 0 84.4428 10.7765 910 117.074 880.398 460.798
882 0 88.255 12.5545 1108 114.512 879.922 454.762
883 0 85.304 10.3747 885 116.073 879.788 459.393
884 0 89.2516 11.3948 1017 116.579 879.98 455.868
885 0 94.1391 11.1856 1053 117.763 880.26 453.788
886 0 98.2045 12.3518 1213 116.145 880.439 449.724
887 1 51.077 10.7681 550 122.033 882.502 461.653
888 0 55.2392 13.6859 756 115.938 881.304 461.56
889 0 57.1694 11.2822 645 119.426 881.048 464.011
890 0 57.3928 13.5557 778 116.257 882.342 462.153
891 0 58.1731 11.6033 675 119.124 883.154 459.508
892 0 59.2877 11.4526 679 119.854 883.222 456.159
893 0 61.1906 11.9626 732 118.628 884.092 459.742
894 0 66.3018 12.6995 842 115.322 883.951 458.928
895 0 66.3036 11.6434 772 119.14 884.819 453.664
896 0 68.5119 11.56 792 118.138 886.345 454.495
897 0 74.4343 10.7074 797 118.025 886.903 454.811
898 0 80.2511 16.7724 1346 108.088 886.295 450.73
899 0 84.369 19.6992 1662 103.712 886.871 454.386
900 0 85.1235 13.2983 1132 113.557 887.781 454.003
901 0 89.0911 15.4449 1376 111.653 888.822 452.358
902 1 50.0638 17.3379 868 102.242 888.176 474.291
903 0 50.042 14.7476 738 110.117 888.625 471.222
904 0 52.0923 12.9386 674 111.951 888.318 472.728
905 0 53.0523 13.1757 699 113.705 888.78 471.546
906 0 56.2255 15.3311 862 109.079 889.435 475.906
907 0 57.0523 16.3359 932 107.205 888.697 476.989
908 0 57.2654 11.8396 678 116.257 888.543 473.473
909 0 59.0446 14.2943 844 113.217 887.998 472.276
910 0 60.1813 11.3989 686 118.052 887 472.832
911 0 60.187 12.4279 748 115.372 886.468 472.675
912 0 67.0851 11.9699 803 114.366 885.719 470.822
913 0 69.4361 17.4981 1215 106.216 885.23 471.677
914 0 73.215 13.8906 1017 112.291 884.278 469.243
915 0 76.242 15.0836 1150 110.49 883.49 466.312
916 0 76.1583 15.0345 1145 111.73 882.783 460.07
917 0 80.18 11.3994 914 115.978 881.97 462.545
918 1 46.0456 14.0947 649 106.433 881.462 476.422
919 0 47.1199 10.0807 475 112.714 880.265 476.114
920 0 47.1872 13.2663 626 106.984 880.55 475.981
921 0 46.1078 13.4034 618 107.748 880.275 472.248
922 0 47.0736 12.0874 569 111.503 879.764 470.61
923 0 51.108 13.5595 693 107.398 879.478 473.382
924 0 52.0927 12.8425 669 110.525 879.828 470.223
925 0 52.0927 12.8617 670 133.964 879.824 470.264
926 0 58.1481 12.9325 752 112.106 880.197 471.35
927 0 56.1058 13.1359 737 114.284 880.495 468.03
928 0 57.1181 11.8351 676 115.096 881.056 469.868
929 0 59.1306 12.5823 744 117.082 880.985 464.59
930 0 62.1716 15.3446 954 111.831 881.161 463.431
931 0 64.1287 14.2058 911 113.877 881.622 463.994
932 0 68.279 15.1877 1037 111.559 883.398 461.291
933 0 70.0813 12.6853 889 116.223 883.101 457.119
934 0 74.2633 12.4826 927 116.311 883.803 455.736
935 0 74.0468 16.2735 1205 109.476 884.192 457.995
936 0 77.2183 13.805 1066 114.034 884.296 453.356
937 0 81.2396 12.8632 1045 113.727 884.88 456.458
938 0 85.2031 13.1685 1122 114.62 885.094 451.592
939 1 45.1266 10.3265 466 114.811 885.603 469.457
940 0 47.1971 15.0009 708 107.691 886.449 469.895
941 0 46.0812 12.4563 574 108.375 885.955 472.436
942 0 50.0979 16.7073 837 102.779 886.229 470.628
943 0 47.0514 10.4354 491 114.373 886.862 471.454
944 0 49.0678 13.1655 646 109.492 887.937 471.943
945 0 53.0337 11.785 625 112.974 886.742 471.531
946 0 54.1083 13.6023 736 109.618 887.667 472.45
947 0 57.1853 11.7513 672 111.558 888.238 473.493
948 0 56.1256 10.8507 609 115.673 888.325 470.998
949 0 59.1403 10.6526 630 115.07 888.179 474.26
950 0 60.2731 10.2036 615 116.015 888.078 474.216
951 0 63.1286 13.6863 864 111.492 887.362 471.932
952 0 64.2132 13.424 862 111.927 887.455 470.538
953 0 68.2714 13.9443 952 111.106 887.331 467.574
954 0 68.2652 8.15935 557 118.576 886.255 473.865
955 0 72.2658 11.7206 847 113.825 886.715 472.529
956 0 70.1518 8.72393 612 117.332 884.729 474.088
957 1 115.343 10.4818 1209 122.429 885.648 447.875
958 1 78.2959 11.5459 904 114.178 884.003 467.652
959 0 82.2221 12.9527 1065 113.023 883.408 464.941
960 1 38.0998 7.19164 274 119.646 882.365 483.61
961 0 45.0914 9.29224 419 114.346 881.754 486.129
962 0 45.07 11.6707 526 111.281 882.447 481.544
963 1 134.343 10.235 1375 123.397 880.481 440.041
964 0 133.304 8.55186 1140 141.724 878.341 445.26
965 0 131.356 4.26323 560 127 879.832 453.486
966 0 133.336 7.37986 984 123.31 879.678 447.865
967 1 154.4 12.8303 1981 118.848 880.127 430.392
968 1 163.301 8.29145 1354 125.148 879.292 429.289
969 0 162.58 9.78595 1591 126.678 879.769 412.81
970 1 105.424 12.3217 1299 113.994 879.873 446.66
971 0 108.214 9.86014 1067 118.989 879.891 438.112
972 0 115.405 11.9232 1376 112.941 880.898 444.055
973 0 117.738 12.6297 1487 114.591 881.092 431.139
974 0 124.521 10.8576 1352 117.971 881.366 432.02
975 0 130.418 10.8804 1419 115.902 880.677 433.94
976 0 132.572 13.3588 1771 111.837 882.173 436.588
977 1 67.21 10.3854 698 113.951 883.569 460.47
978 0 70.3157 12.643 889 111.317 883.801 456.173
979 0 73.2455 14.4855 1061 108.371 884.183 457.015
980 0 76.2222 15.5335 1184 105.183 885.124 456.785
981 0 76.2262 12.3317 940 112.959 884.734 452.389
982 0 78.2011 12.7236 995 110.782 885.298 454.602
983 0 81.2633 16.2066 1317 102.51 886.15 460.857
984 1 43.1764 11.2098 484 110.624 885.374 470.231
985 0 45.0512 9.89986 446 112.917 886.776 472.294
986 0 47.0574 10.4978 494 111.81 887.372 471.702
987 0 46.1267 9.2788 428 109.175 886.986 469.57
988 0 46.15 11.5926 535 110.221 888.073 466.678
989 0 49.0287 12.6661 621 111.591 887.936 468.509
990 0 52.1229 17.1518 894 104.416 887.407 467.361
991 0 51.1395 10.9504 560 116.204 886.991 469.195
992 0 55.086 11.836 652 112.63 887.41 469.802
993 0 58.094 13.788 801 109.092 887.09 469.236
994 0 57.2532 13.4141 768 111.874 886.669 471.104
995 0 59.1244 14.1058 834 110.378 886.429 469.013
996 0 61.1147 11.5193 704 114.763 886.72 471.153
997 0 64.1608 12.1258 778 116.036 886.695 471.676
998 0 66.1087 13.145 869 115.101 885.834 474.511
999 0 69.1025 14.6015 1009 115.9 885.942 469.511
1000 0 71.1596 12.4087 883 119.53 883.871 467.973
1001 0 73.0812 12.9719 948 120.066 884.406 468.33
1002 0 73.1855 13.2677 971 120.452 883.338 465.527
1003 0 77.0878 12.583 970 120.442 883.307 467.191
1004 0 78.0782 11.4373 893 123.334 882.272 466.884
1005 0 83.0677 10.7021 889 125.236 881.886 464.228
1006 0 83.1158 13.415 1115 121.503 881.64 461.107
1007 0 90.1202 13.0492 1176 119.534 881.448 462.188
1008 0 89.1207 14.2616 1271 121.115 880.522 458.059
1009 1 48.081 12.9573 623 122.502 880.302 477.022
1010 0 49.0302 12.2985 603 124.216 879.841 475.38
1011 0 52.0374 15.1429 788 117.89 881.315 474.654
1012 0 54.2199 13.3346 723 121.78 882.4 473.373
1013 0 55.1719 13.0682 721 125.834 881.189 472.445
1014 0 55.2232 12.9837 717 127.485 881.537 466.781
1015 0 59.1037 14.9568 884 123.521 880.95 464.491
1016 0 62.1969 12.8945 802 125.954 882.943 466.281
1017 0 63.333 12.7422 807 126.791 882.171 464.891
1018 0 65.3799 13.7198 897 124.394 882.687 461.921
1019 0 69.3245 14.7711 1024 121.521 883.475 458.972
1020 0 68.1453 15.0414 1025 122.747 883.293 459.081
1021 0 73.1615 15.7323 1151 120.325 884.251 457.944
1022 0 74.3882 16.0106 1191 121.387 884.847 454.554
1023 0 74.1498 12.6501 938 129.109 885.019 456.042
1024 1 145.351 17.9497 2609 117.236 884.903 429.384
1025 1 80.1489 15.0969 1210 121.052 886.334 451.75
1026 0 86.1982 15.476 1334 117.941 886.091 452.256
1027 0 85.2289 13.9272 1187 122.354 887.519 453.575
1028 0 89.2814 13.8887 1240 122.182 887.98 450.357
1029 0 92.3018 14.2034 1311 121.073 888.552 447.794
1030 1 49.1779 11.3059 556 123.71 887.896 470.714
1031 0 49.0499 10.6626 523 124.057 887.704 471.728
1032 0 48.0657 10.6313 511 123.675 887.982 469.873
1033 0 50.2631 11.7183 589 120.048 888.177 466.771
1034 0 50.2347 12.6208 634 118.661 888.361 466.981
1035 0 52.1222 13.1038 683 119.078 888.805 467.378
1036 0 55.1437 13.6371 752 116.278 886.637 469.277
1037 0 61.1006 11.6038 709 118.429 887.914 470.052
1038 0 59.3221 11.8843 705 120.304 887.797 467.339
1039 0 62.0569 12.0212 746 118.786 887.137 469.855
1040 0 62.2786 12.6528 788 119.963 886.534 467.082
1041 0 62.2215 10.2858 640 126.591 886.841 464.258
1042 0 69.1844 14.6709 1015 117.825 884.798 465.649
1043 0 70.1322 12.4337 872 122.628 884.439 468.409
1044 0 71.1646 11.5085 819 126.612 882.58 462.81
1045 0 73.2389 11.6605 854 126.413 883.69 465.816
1046 0 76.1866 13.4013 1021 123.543 883.563 459.619
1047 0 76.2381 12.2117 931 126.382 882.808 456.374
1048 0 80.2092 10.1734 816 129.822 880.898 458.868
1049 0 81.2469 13.0097 1057 126.161 880.982 452.845
1050 0 86.2348 12.2108 1053 125.862 880.198 456.732
1051 0 89.2012 14.1254 1260 124.753 880.564 447.954
1052 0 91.214 11.5772 1056 129.989 880.119 447.611
1053 0 92.2696 13.9699 1289 126.103 880.5 445.601
1054 0 97.3372 13.6844 1332 126.948 880.408 444.496
1055 1 48.1101 11.7023 563 120.792 879.568 465.879
1056 0 51.1683 8.97039 459 124.277 879.401 467.294
1057 0 51.128 12.2047 624 120.787 880.103 467.114
1058 0 54.0651 11.6341 629 122.234 880.191 465.542
1059 0 58.1925 13.2663 772 126.07 881.206 469.299
1060 0 62.1344 15.1607 942 122.33 881.82 465.556
1061 0 62.2407 14.1708 882 125.05 881.732 466.397
1062 0 69.7901 16.1771 1129 117.618 881.965 465.224
1063 0 66.2518 13.1166 869 127.919 882.613 460.768
1064 0 71.228 16.6086 1183 119.058 883.635 461.448
1065 0 72.3629 13.916 1007 126.289 884.441 457.521
1066 0 72.2834 12.119 876 131.084 884.411 456.201
1067 0 75.6495 13.5361 1024 127 885.11 456.107
1068 0 76.2708 13.2292 1009 127.024 886.623 452.779
1069 0 82.2759 15.4602 1272 121.267 887.013 453.715
1070 0 84.3422 13.9669 1178 123.997 887.664 451.541
1071 0 86.6469 14.7149 1275 123.103 887.901 449.994
1072 0 89.4049 14.7084 1315 122.824 887.8 449.865
1073 0 88.7779 14.5306 1290 123.779 888.825 448.59
1074 1 48.4532 11.6607 565 125.021 889.881 472.667
1075 0 48.4532 11.6607 565 140.23 890.881 472.667
1076 0 50.3953 11.6876 589 126.881 888.942 461.311
1077 0 51.3974 14.0474 722 121.612 889.881 468.314
1078 0 55.2572 15.1654 838 119.785 888.684 461.937
1079 0 56.061 12.6648 710 124.769 888.942 474.031
1080 0 57.3808 14.8307 851 120.966 887.817 472.09
1081 0 58.2519 12.034 701 125.729 887.944 476.351
1082 0 62.3193 16.4315 1024 117.15 887.63 472.839
1083 0 64.1564 15.8519 1017 119.242 887.543 469.37
1084 0 63.1247 14.2416 899 124.346 886.66 472.194
1085 0 69.4073 14.4942 1006 121.214 886.444 472.306
1086 0 69.4135 13.3836 929 125.234 886.157 472.138
1087 0 69.4135 13.3836 929 138.223 885.138 472.074
1088 0 75.2528 14.5908 1098 121.035 883.213 468.277
1089 0 76.2756 13.307 1015 124.335 882.397 464.069
1090 0 79.4083 12.5805 999 125.114 882.286 463.283
1091 0 82.2304 15.335 1261 116.403 882.247 463.351
1092 0 84.4817 12.701 1073 120.705 881.791 464.357
1093 0 84.3638 13.9633 1178 119.909 881.143 464.364
1094 0 86.2567 14.0511 1212 119.493 880.305 460.41
1095 0 89.2928 12.0614 1077 122.57 880.869 459.066
1096 0 91.1217 11.3694 1036 123.184 880.001 455.631
1097 0 95.2529 13.8998 1324 119.166 880.478 452.684
1098 1 49.1411 10.7039 526 144.496 881.808 475.679
1099 0 52.1436 14.4984 756 115.435 880.438 473.206
1100 0 53.143 12.6451 672 117.53 880.426 471.781
1101 0 55.2175 14.8504 820 114.555 880.485 466.457
1102 0 55.1486 13.2188 729 116.883 880.58 469.624
1103 0 58.1265 15.9824 929 111.299 880.998 469.724
1104 0 59.2636 12.2503 726 116.39 882.114 467.631
1105 0 64.4788 15.5865 1005 110.812 881.281 463.32
1106 0 63.2622 13.6732 865 114.954 882.084 459.898
1107 0 69.3458 12.8198 889 114.688 881.408 459.907
1108 0 71.3095 14.7526 1052 112.458 882.768 457.672
1109 0 78.6002 19.7582 1553 102.14 883.212 461.314
1110 0 81.4919 11.7312 956 115.831 884.428 451.738
1111 0 81.4919 11.7558 958 149.638 885.424 451.611
1112 0 80.3008 12.4781 1002 115.452 885.562 452.254
1113 0 84.4196 13.4092 1132 113.799 885.704 450.416
1114 1 45.2019 10.1987 461 116.479 884.119 472.241
1115 0 48.0576 12.485 600 112.252 885.133 470.773
1116 0 48.2083 10.994 530 113.208 885.564 469.394
1117 0 49.3042 12.433 613 109.971 885.16 467.122
1118 0 52.1653 11.1377 581 113.318 886.998 466.37
1119 0 54.2699 14.649 795 107.595 887.097 467.386
1120 0 55.1478 13.8355 763 114.372 885.923 469.958
1121 1 104.342 14.8263 1547 116.641 886.797 447.632
1122 0 108.546 12.8701 1397 119.769 886.55 452.945
1123 1 62.1281 10.591 658 119.962 885.193 474.333
1124 0 62.1281 10.5588 656 139.3 885.177 474.282
1125 0 63.1371 9.17052 579 124.542 884.282 474.421
1126 0 67.0917 14.0852 945 116.898 884.646 470.767
1127 0 69.1581 12.3774 856 121.571 884.578 472.058
1128 0 71.1228 15.3116 1089 116.213 883.3 471.219
1129 0 71.1228 15.3397 1091 136.748 881.299 471.138
1130 0 76.093 14.4034 1096 118.544 882.222 472.16
1131 0 79.1436 14.9854 1186 118.541 881.664 471.135
1132 0 80.0981 14.7319 1180 119.643 879.891 468.773
1133 0 87.0932 13.4454 1171 120.827 879.718 469.748
1134 0 85.06 12.0738 1027 125.541 878.419 465.213
1135 0 89.2396 13.0772 1167 122.915 879.967 461.853
1136 0 90.1208 12.7939 1153 120.788 878.888 465.153
1137 0 92.1764 12.411 1144 122.51 878.642 457.953
1138 1 50.1488 11.0072 552 116.679 877.172 480.078
1139 0 50.1488 10.9474 549 130.386 876.168 480.058
1140 0 53.153 11.9466 635 121.665 877.632 475.365
1141 0 56.0268 12.5297 702 119.054 876.423 475.828
1142 0 55.1887 11.6147 641 125.203 875.365 472.479
1143 0 55.1887 11.5422 637 137.071 875.37 472.526
1144 0 58.0378 12.0956 702 123.571 876.301 471.349
1145 0 62.0413 12.1693 755 122.558 877.469 470.077
1146 0 62.0894 13.1262 815 124.863 879.84 467.654
1147 0 64.5034 12.821 827 124.326 879.827 466.313
1148 0 66.1954 13.8529 917 121.909 880.556 467.577
1149 0 67.1529 12.345 829 123.66 881.578 464.171
1150 0 68.0946 11.4693 781 125.469 881.383 462.867
1151 0 68.1394 11.4325 779 127.022 882.51 456.856
1152 0 68.1394 11.4325 779 137.452 883.533 456.623
1153 1 85.0878 7.93298 675 131.136 884.326 462.579
1154 0 86.1834 9.64223 831 125.898 885.909 464.149
1155 0 81.1745 10.2495 832 128.982 885.357 458.738
1156 0 83.0989 11.9376 992 125.786 885.49 454.877
1157 0 86.6556 13.4902 1169 122.109 885.838 454.393
1158 0 93.6241 13.2338 1239 123.047 885.026 446.538
1159 1 49.2873 9.49535 468 124.547 886.75 469.573
1160 0 48.2135 10.3083 497 124.557 886.732 462.783
1161 0 52.0783 10.7722 561 121.219 889.128 468.071
1162 0 54.0311 12.2522 662 119.21 886.477 472.263
1163 0 58.0527 12.6265 733 122.023 886.585 469.613
1164 0 60.1264 12.7565 767 122.249 886.09 467.763
1165 0 59.0924 11.7105 692 124.801 887.847 471.107
1166 0 61.1252 12.3844 757 123.832 887.73 471.918
1167 0 64.1175 12.945 830 118.76 886.617 474.266
1168 0 65.1596 11.7558 766 119.274 884.991 474.38
1169 0 70.1333 12.5475 880 118.936 884.633 470.181
1170 0 73.1457 12.3452 903 118.382 884.318 465.37
1171 0 76.1121 12.2451 932 118.548 886.553 469.609
1172 0 75.1872 13.9784 1051 113.7 885.795 473.284
1173 0 74.1661 11.9731 888 118.805 885.533 469.998
1174 0 75.178 10.8941 819 120.101 884.519 471.716
1175 0 84.3456 9.3188 786 123.877 882.443 468.26
1176 0 86.1752 9.2486 797 123.008 882.9 469.567
1177 0 91.321 11.2132 1024 120.938 882.2 462.559
1178 0 92.2074 12.8081 1181 118.866 881.135 462.428
1179 1 52.2618 10.4857 548 119.641 878.748 482.281
1180 0 53.2123 11.5575 615 117.987 878.979 479.211
1181 0 53.5632 11.4818 615 120.675 878.689 477.189
1182 0 56.0934 11.9265 669 125.028 879.912 474.825
1183 0 58.1209 14.0053 814 120.683 880.2 474.131
1184 0 57.1242 12.3415 705 125.994 880.136 472.696
1185 0 59.1707 11.7626 696 126.223 880.086 472.273
1186 0 65.1712 16.5257 1077 115.877 879.186 471.044
1187 0 65.1712 16.7098 1089 125.298 879.196 471.002
1188 0 66.0844 13.1498 869 124.021 880.352 467.376
1189 0 70.242 15.3897 1081 118.85 878.809 465.859
1190 0 70.4006 13.8493 975 121.81 879.795 462.613
1191 0 77.666 16.7898 1304 114.593 880.469 458.994
1192 0 75.2608 13.1011 986 122.661 881.016 454.495
1193 0 79.2788 15.9942 1268 117.045 881.084 454.948
1194 0 79.3112 14.6638 1163 119.253 881.55 456.353
1195 0 82.2822 12.53 1031 123.226 882.133 453.522
1196 0 85.2896 11.502 981 125.037 883.758 447.595
1197 1 45.0352 13.012 586 119.073 882.916 470.253
1198 0 48.0453 11.4059 548 120.566 882.985 470.434
1199 0 52.0375 12.2796 639 120.934 884.034 466.823
1200 0 52.1544 10.584 552 122.714 884.6 469.44
1201 0 52.2298 10.4921 548 121.307 885.827 467.604
1202 0 56.0559 13.8077 774 116.656 885.008 467.24
1203 0 56.0365 12.7239 713 122.447 885.791 465.431
1204 0 54.0597 10.0999 546 128.201 886.54 468.18
1205 0 59.0721 13.0688 772 122.729 886.677 466.417
1206 0 62.1016 12.5118 777 122.389 887.374 469.275
1207 0 61.1242 12.5809 769 124.41 887.341 465.871
1208 0 63.0735 11.3043 713 127.902 886.621 467.979
1209 0 67.1064 15.4531 1037 120.432 886.456 469.489
1210 0 69.1521 15.531 1074 120.493 887.307 464.553
1211 0 72.1826 16.0565 1159 118.658 886.25 470.44
1212 0 72.1431 12.1564 877 127.406 886.339 467.957
1213 0 76.1712 14.6512 1116 124.373 885.556 465.092
1214 0 81.2196 12.3739 1005 128.017 885.242 465.016
1215 0 82.3191 13.5206 1113 126.235 884.594 462.766
1216 0 86.1604 16.9103 1457 119.824 882.537 464.639
1217 0 88.1391 12.9341 1140 127.698 882.787 463.749
1218 0 93.1024 13.4905 1256 125.899 882.326 457.911
1219 0 93.1024 13.4046 1248 135.494 881.323 457.895
1220 1 49.0152 8.34434 409 129.286 879.032 480.592
1221 0 52.1791 12.7637 666 121.044 878.096 478.646
1222 0 55.1066 14.6081 805 117.053 878.627 478.703
1223 0 51.197 10.9577 561 125.07 878.717 472.929
1224 0 55.2799 13.8929 768 118.906 878.333 474.654
1225 0 58.2532 12.2568 714 125.969 878.958 469.57
1226 0 62.2829 16.0076 997 117.078 878.449 471.881
1227 0 63.0713 11.701 738 123.989 879.629 470.504
1228 0 66.0611 11.8375 782 125.203 879.927 464.492
1229 0 71.3258 14.0202 1000 120.164 879.708 462.489
1230 0 71.1346 13.9594 993 119.933 880.278 462.394
1231 0 74.2029 15.2285 1130 118.533 881.475 462.108
1232 0 73.2018 11.2839 826 126.927 881.501 458.453
1233 0 77.2047 11.3465 876 127.104 882.922 456.232
1234 0 80.2041 11.3585 911 126.794 882.352 455.45
1235 0 83.0989 13.2011 1097 124.465 882.616 449.786
1236 0 83.0989 13.3094 1106 133.473 882.635 449.635
1237 0 81.1474 9.66143 784 128.895 884.496 455.051
1238 1 92.2099 10.7906 995 127.782 884.502 448.965
1239 0 97.0775 12.2788 1192 127.068 884.936 444.93
1240 0 102.377 12.493 1279 125.823 885.876 446.771
1241 1 53.0435 10.8213 574 122.984 886.927 470.343
1242 0 52.0946 11.6519 607 126.211 885.32 466.333
1243 0 57.1146 15.3026 874 112.776 885.415 467.211
1244 0 57.0969 15.0621 860 112.527 885.378 467.157
1245 0 60.1001 11.3977 685 123.717 886.257 468.961
1246 0 63.0726 12.6204 796 122.632 887.352 467.074
1247 0 66.118 11.54 763 124.464 887.936 468.25
1248 0 65.1245 11.7314 764 124.173 887.3 469.956
1249 0 69.1301 12.7152 879 123.557 886.484 462.901
1250 0 70.1412 12.1469 852 124.837 887.573 466.184
1251 0 71.1075 12.2491 871 125.142 886.976 465.642
1252 0 78.2008 14.1047 1103 119.571 886.953 470.649
1253 0 77.1873 13.5644 1047 122.886 885.629 464.202
1254 0 84.1487 14.0941 1186 120.051 886.078 468.834
1255 0 82.1606 12.5121 1028 125.464 884.69 462.908
1256 0 84.1192 12.9697 1091 125.724 883.941 462.555
1257 0 88.3696 13.1833 1165 125.148 883.446 462.363
1258 0 93.1997 11.7704 1097 128.076 883.71 460.546
1259 0 93.1246 14.2497 1327 123.922 883.203 463.077
1260 0 99.261 12.4822 1239 127.312 881.813 457.135
1261 0 97.1896 10.9065 1060 127.269 880.539 463.391
1262 0 104.124 10.5835 1102 125.08 881.144 466.004
1263 0 103.119 11.5401 1190 128.753 880.764 453.171
1264 0 105.127 9.75961 1026 129.23 879.636 455.857
1265 0 111.179 9.74102 1083 130.769 878.825 454.969
1266 0 119.251 9.83642 1173 130.87 878.672 453.106
1267 0 117.172 11.9055 1395 126.353 879.54 454.181
1268 0 121.23 12.266 1487 126.894 879.529 447.032
1269 0 126.326 9.5942 1212 129.12 878.856 448.049
1270 1 70.0757 16.0398 1124 118.57 877.745 467.03
1271 0 71.2551 13.0938 933 123.641 878.923 466.507
1272 0 73.1942 14.7826 1082 122.079 878.302 461.42
1273 0 76.2026 14.199 1082 124.245 878.323 459.157
1274 0 79.1455 14.8082 1172 123.644 878.945 455.209
1275 0 81.3658 12.7326 1036 127.622 880.087 457.214
1276 0 79.2376 13.5668 1075 126.212 880.29 457.675
1277 0 85.1508 10.9453 932 130.187 882.014 452.071
1278 0 95.3106 9.84151 938 129.641 882.152 452.773
1279 0 91.4367 13.2769 1214 128.582 882.588 444.24
1280 0 93.3866 13.9313 1301 127.77 883.39 444.095
1281 1 49.2846 9.11036 449 128.241 884.436 468.169
1282 0 53.1955 11.4671 610 125.287 885.723 465.816
1283 0 52.0811 11.9813 624 122.038 884.316 468.551
1284 0 52.1363 12.0453 628 122.865 885.368 467.623
1285 0 50.0379 7.75412 388 131.562 885.869 467.273
1286 0 56.1696 12.5691 706 123.503 887.013 466.275
1287 0 59.2867 17.8117 1056 118.525 886.892 466.854
1288 0 59.2467 17.6888 1048 115.475 887.907 466.807
1289 0 63.1548 11.8914 751 130.266 890.1 463.481
1290 0 64.3168 15.1593 975 123.258 890.457 465.125
1291 0 67.3095 12.5094 842 127.291 890.441 465.791
1292 0 67.0753 15.3857 1032 122.798 889.437 465.803
1293 0 69.3652 12.3405 856 127.882 889.574 466.599
1294 0 71.1866 11.5752 824 129.883 889.561 464.158
1295 0 73.274 11.9824 878 131.129 888.698 462.993
1296 0 74.1632 13.9422 1034 128.062 887.972 462.75
1297 0 77.1861 12.4245 959 130.362 887.471 464.872
1298 0 80.0718 12.9134 1034 127.59 885.964 466.413
1299 0 84.2665 15.3679 1295 123.5 885.48 464.808
1300 0 85.1304 12.2635 1044 127.906 884.898 463.398
1301 0 87.2149 13.9311 1215 126.195 883.739 461.244
1302 0 91.2137 12.6516 1154 128.594 882.806 457.963
1303 0 91.1866 10.8898 993 131.167 882.502 460.083
1304 0 94.0782 10.6613 1003 128.322 883.03 461.57
1305 0 97.1246 12.5818 1222 130.049 882.175 455.943
1306 1 203.678 8.20902 1672 137.713 880.974 417.615
1307 0 205.474 9.87472 2029 133.582 880.425 419.161
1308 0 205.426 10.2373 2103 141.898 879.443 416.49
1309 1 187.632 13.4625 2526 133.104 878.525 413.323
1310 1 64.1456 13.1264 842 123.438 877.7 467.087
1311 0 65.1209 13.974 910 122.592 877.516 469.635
1312 0 66.0991 7.57953 501 133.535 878.124 471.918
1313 0 70.1842 13.1938 926 127.934 877.143 462.726
1314 0 70.1842 13.2081 927 131.079 876.135 462.71
1315 0 75.2378 14.3545 1080 125.709 877.88 459.862
1316 1 143.463 13.2299 1898 135.241 878.947 422.915
1317 0 153.259 14.9682 2294 130.915 879.7 424.649
1318 0 157.387 10.6044 1669 137.544 879.91 424.932
1319 0 163.181 12.6608 2066 133.823 880.218 424.29
1320 1 44.0982 11.996 529 127.476 878.989 466.784
1321 0 44.0301 11.4467 504 128.337 880.266 467.022
1322 0 46.2408 12.2619 567 126.718 880.183 466.291
1323 0 47.1019 13.1205 618 123.361 882.5 466.914
1324 0 44.0845 8.7559 386 132.155 883.086 468.935
1325 0 50.0995 14.4513 724 125.112 882.693 464.314
1326 0 50.0897 10.1218 507 133.148 882.937 465.635
1327 0 54.0249 14.2897 772 124.587 883.08 463.434
1328 0 55.0984 11.9604 659 127.929 883.967 466.687
1329 0 57.0998 14.1507 808 124.608 886.002 468.301
1330 0 57.0643 11.671 666 129.52 884.628 464.102
1331 0 57.068 11.6878 667 124.571 883.589 464.313
1332 0 61.0607 12.4794 762 126.328 885.198 467.955
1333 0 64.117 14.957 959 123.062 887.033 464.767
1334 1 193.402 7.78172 1505 142.941 887.084 404.871
1335 0 199.323 12.5474 2501 133.396 887.55 410.848
1336 1 69.1352 13.394 926 124.185 887.276 469.87
1337 0 68.0653 9.72595 662 131.84 887.361 466.219
1338 0 72.0675 11.3782 820 128.106 887.139 467.718
1339 0 74.2971 13.0018 966 125.615 886.958 464.192
1340 1 40.0963 8.47958 340 128.615 885.932 485.75
1341 0 38.0215 10.5467 401 126.99 885.431 484.284
1342 0 39.037 12.4497 486 123.619 884.381 483.72
1343 0 39.2348 14.7063 577 116.061 882.801 476.882
1344 0 41.1074 13.6472 561 119.323 880.993 477.412
1345 0 43.1808 11.9961 518 121.45 881.145 478.654
1346 0 45.1331 12.5407 566 120.173 879.436 480.627
1347 0 43.0131 10.1132 435 126.559 880.423 476.11
1348 0 51.0438 8.52209 435 127.23 880.745 485.763
1349 0 48.1103 9.39507 452 130.197 879.664 476.44
1350 0 51.0734 14.1561 723 122.228 878.235 476.79
1351 0 51.1805 13.2668 679 123.493 877.623 476.287
1352 0 52.1255 11.1078 579 126.791 878.292 477.332
1353 0 55.2432 12.092 668 125.171 878.302 474.615
1354 0 56.0761 12.911 724 125.163 878.272 470.912
1355 0 60.1315 7.78295 468 133.37 877.607 471.368
1356 0 57.1825 12.7661 730 126.614 877.681 464.968
1357 0 59.1286 13.0394 771 125.866 879.044 466.15
1358 0 61.1942 12.7463 780 124.494 879.273 466.047
1359 0 64.3465 11.5935 746 127.961 879.652 463.634
1360 0 67.1123 12.1438 815 126.788 880.756 463.628
1361 0 67.1123 12.2183 820 114.899 881.773 463.833
1362 0 69.1399 10.1823 704 132.578 880.483 457.768
1363 0 74.162 12.8098 950 127.037 881.943 461.647
1364 0 77.2148 10.9565 846 132.195 882.386 455.4
1365 1 40.1248 11.6138 466 128.921 882.979 474.084
1366 0 43.0721 14.9517 644 123.432 882.643 471.893
1367 0 44.0835 12.6124 556 130.678 884.419 470.914
1368 0 43.2297 10.2476 443 128.77 885.53 467.33
1369 0 40.0599 9.98506 400 131.518 885.668 466.452
1370 0 44.0263 11.584 510 129.855 884.947 464.545
1371 0 47.108 13.5858 640 127.248 886.109 465.705
1372 0 48.1191 13.9446 671 126.605 885.769 466.948
1373 0 50.1371 13.0043 652 128.281 886.604 469.209
1374 0 51.0626 11.7699 601 130.384 886.133 465.985
1375 0 50.099 11.8964 596 131.794 887.815 468.581
1376 0 55.085 11.2735 621 135.742 887.887 472.309
1377 0 56.2664 9.0107 507 140.574 887.947 470.112
1378 0 60.1437 14.7148 885 129.519 886.868 471.482
1379 0 62.1048 14.6043 907 131.329 887.9 472.184
1380 0 65.2239 12.894 841 133.137 886.703 470.532
1381 0 64.1155 11.7288 752 135.449 885.388 473.727
1382 0 69.2524 16.2449 1125 128.32 885.278 466.852
1383 0 68.179 11.3965 777 136.883 884.961 468.327
1384 0 74.2873 7.72676 574 141.937 884.585 466.983
1385 0 74.1326 13.5163 1002 133.203 884.049 463.74
1386 0 77.1626 12.1432 937 133.85 883.508 466.942
1387 0 77.1147 12.0081 926 133.568 882.896 469.665
1388 0 84.1963 10.0598 847 138.777 881.256 463.567
1389 0 85.403 14.4726 1236 133.804 881.407 457.794
1390 0 88.2692 11.0797 978 138.539 879.839 450.424
1391 0 89.3867 13.3353 1192 133.821 880.062 457.006
1392 1 51.0799 10.3563 529 134.221 880.622 476.202
1393 0 50.108 11.7346 588 134.813 879.588 479.429
1394 0 53.1703 12.5258 666 136.395 879.248 473.52
1395 0 54.2067 11.2717 611 139.483 877.972 474.602
1396 0 55.1672 11.3836 628 138.99 877.46 469.419
1397 0 58.1376 12.8316 746 137.296 878.94 470.373
1398 0 64.2835 8.96031 576 139.938 878.052 473.691
1399 0 62.1183 11.9128 740 140.069 878.099 466.447
1400 0 63.3073 12.4946 791 139.683 877.743 463.733
1401 0 70.2453 17.5385 1232 128.195 877.627 463.405
1402 0 70.1892 14.233 999 135.407 878.777 461.616
1403 0 72.1133 12.106 873 138.609 878.085 459.147
1404 0 75.1217 13.8974 1044 137.909 879.293 454.704
1405 0 77.1507 12.6894 979 139.669 879.175 453.628
1406 0 79.379 13.1395 1043 138.694 880.654 452.536
1407 0 80.111 12.2455 981 139.851 881.897 453.62
1408 0 83.3738 13.2296 1103 141.739 882.075 447.004
1409 0 86.2489 11.5016 992 143.852 882.744 450.347
1410 0 90.3078 12.0034 1084 145.583 884.66 445.542
1411 1 45.0899 11.7986 532 139.398 886.026 469.145
1412 0 48.1049 11.3502 546 140.819 885.799 469.925
1413 0 49.083 9.88121 485 146.355 886.891 467.39
1414 0 48.0396 10.8036 519 146.742 887.04 467.256
1415 0 53.026 14.8795 789 136.532 887.496 465.435
1416 0 55.0252 11.3584 625 144.76 887.974 466.966
1417 0 56.1138 14.0964 791 139.259 888.129 469.372
1418 0 53.0754 11.4177 606 133.564 888.276 466.249
1419 0 62.0547 12.0539 748 143.598 889.175 471.35
1420 0 61.0507 12.1866 744 146.293 888.04 467.062
1421 0 62.0388 10.7191 665 150.012 888.95 467.556
1422 0 65.1005 11.9047 775 146.254 888.464 472.551
1423 0 68.0732 12.9126 879 145.171 887.932 468.022
1424 0 72.0459 11.8119 851 147.268 887.356 468.114
1425 0 74.1619 16.2752 1207 138.74 886.866 465.362
1426 0 76.1449 15.1028 1150 141.383 885.859 464.351
1427 0 78.1538 11.7973 922 147.151 885.494 468.748
1428 0 84.077 13.1427 1105 144.85 884.372 464.406
1429 0 84.2236 10.7215 903 150.596 884.323 464.68
1430 1 45.0495 8.87911 400 147.232 881.662 483.898
1431 0 43.0165 8.43862 363 151.623 881.804 479.32
1432 0 49.1457 11.1098 546 141.134 879.401 476.621
1433 0 52.0539 13.1978 687 136.442 880.865 476.742
1434 0 53.0682 13.7559 730 135.514 879.575 476.573
1435 0 55.1225 11.7012 645 140.036 879.002 477.372
1436 0 55.0723 13.1282 723 137.183 878.494 476.368
1437 0 55.1045 10.7614 593 141.445 879.027 475.051
1438 0 59.0576 12.5132 739 138.291 879.135 473.986
1439 0 59.0576 12.5132 739 121.065 879.114 474.076
1440 0 65.2286 13.2457 864 142.286 879.081 468.869
1441 0 65.1493 13.1391 856 143.903 879.249 464.166
1442 0 70.194 14.5881 1024 140.652 878.388 461.69
1443 0 70.1414 14.9127 1046 141.354 879.462 460.635
1444 0 70.3593 11.3702 800 146.494 878.835 463.256
1445 0 76.2742 15.0379 1147 141.254 879.588 453.185
1446 0 76.2742 15.1427 1155 122.32 880.59 453.094
1447 0 82.2402 14.5792 1199 142.331 881.084 445.56
1448 0 87.4728 14.5531 1273 138.789 880.506 450.798
1449 1 43.161 11.0053 475 136.36 882.35 472.886
1450 0 43.2063 11.7575 508 137.024 881.297 470.22
1451 0 44.0551 13.1199 578 135.675 881.813 469.433
1452 0 47.0495 8.52293 401 145.524 882.085 468.466
1453 0 47.0465 11.0742 521 142.071 882.05 466.785
1454 0 55.0341 13.2827 731 134.461 883.003 465.824
1455 0 52.1363 12.0645 629 139.758 884.256 463.892
1456 0 52.1363 12.0454 628 110.693 885.244 463.76
1457 0 53.026 14.7663 783 136.902 885.344 465.286
1458 0 54.2239 10.4382 566 146.127 885.235 464.535
1459 0 57.1477 11.1291 636 143.654 885.759 466.151
1460 0 56.1464 11.2741 633 128.731 885.752 466.314
1461 0 64.333 13.197 849 137.847 887.201 468.08
1462 0 63.1614 12.0485 761 141.122 886.899 466.33
1463 0 66.4376 11.7855 783 142.958 886.906 462.835
1464 0 68.1848 11.6155 792 143.021 886.875 466.466
1465 0 70.2488 11.7013 822 142.341 885.788 468.331
1466 0 71.3314 17.9865 1283 132.76 886.645 463.511
1467 0 71.3599 17.9793 1283 111.687 885.613 463.575
1468 0 78.2476 16.3839 1282 134.736 884.698 464.292
1469 0 79.0901 11.9105 942 138.494 885.127 467.854
1470 0 83.1374 14.2174 1182 136.926 883.838 466.334
1471 0 85.0975 9.78877 833 144.593 882.916 462.334
1472 0 86.2446 13.1255 1132 136.582 882.972 463.046
1473 1 48.2161 12.9003 622 135.453 881.159 479.847
1474 0 50.2781 11.6552 586 137.237 880.724 476.939
1475 0 49.0995 11.8942 584 139.541 880.029 473.961
1476 0 49.0154 10.1805 499 140.581 879.565 477.281
1477 0 53.1549 12.9433 688 136.528 879.336 476.375
1478 0 53.1549 12.9245 687 117.792 878.358 476.32
1479 0 55.3837 11.628 644 137.391 879.441 474.79
1480 0 58.3167 11.8662 692 137.507 878.733 471.704
1481 0 59.1256 15.0189 888 132.136 878.492 470.002
1482 0 60.1322 9.04673 544 134.956 879.112 474.868
1483 0 61.2255 9.22818 565 138.175 879.554 466.414
1484 0 60.1522 8.2125 494 142.666 878.219 462.144
1485 0 66.1004 11.0589 731 134.912 878.64 461.204
1486 0 73.2506 7.98629 585 135.103 879.114 468.248
1487 0 72.1718 9.82379 709 137.848 879.1 454.331
1488 0 74.2592 14.5706 1082 129.737 879.76 456.488
1489 0 74.1268 10.6979 793 136.435 878.719 453.091
1490 0 78.3283 15.4478 1210 127.87 879.929 451.083
1491 0 80.1552 13.1994 1058 128.888 880.795 452.433
1492 0 79.1057 8.3559 661 134.16 882.779 460.749
1493 0 80.101 12.0723 967 112.872 883.569 453.421
1494 0 87.2768 11.9161 1040 130.547 882.15 447.393
1495 0 91.2154 12.8377 1171 129.409 884.433 444.205
1496 0 91.2042 12.7735 1165 104.14 886.44 444.373
1497 0 91.2026 12.8176 1169 103.511 888.452 444.352
1498 1 46.3305 8.50412 394 135.627 883.723 456.028
1499 0 50.2163 7.28847 366 131.445 885.071 459.639
1500 0 50.2034 10.9156 548 125.438 885.316 459.819
1501 0 54.3041 11.896 646 123.944 885.848 459.559
1502 0 58.206 14.2082 827 127.057 886.198 464.785
1503 0 60.2924 10.7144 646 133.353 886.622 466.172
1504 0 60.3009 9.2536 558 136.43 887.011 462.093
1505 0 63.2099 12.8145 810 131.267 886.153 463.736
1506 0 64.1303 12.9736 832 130.21 887.334 461.769
1507 0 67.2154 9.43236 634 135.356 885.826 463.669
1508 0 71.2365 11.3144 806 131.422 887.118 466.569
1509 0 71.2495 10.2036 727 133.736 885.607 460.999
1510 0 75.181 12.583 946 129.433 884.981 463.487
1511 0 78.1816 10.2454 801 133.006 884.61 462.734
1512 0 82.1106 11.7281 963 131.171 884.495 463.898
1513 0 86.1868 13.7956 1189 128.046 884.639 459.743
1514 1 47.075 13.2767 625 127.043 884.136 479.538
1515 0 49.0391 12.3167 604 129.176 883.823 481.546
1516 0 51.0276 11.9347 609 130.22 881.933 477.997
1517 0 51.0276 11.8759 606 117.705 880.921 478.012
1518 0 53.1178 11.5592 614 132.658 881.345 477.402
1519 0 52.0641 12.5422 653 131.695 880.998 476.492
1520 0 51.1449 10.1476 519 137.175 880.719 472.861
1521 0 56.1212 15.0567 845 127.588 880.413 474.649
1522 0 55.0611 12.8584 708 131.672 879.825 474.819
1523 0 55.0611 13.93 767 117.147 879.622 475.57
1524 0 50.0211 6.43728 322 143.776 879.009 473.034
1525 0 61.0987 13.2081 807 131.139 878.441 469.481
1526 0 63.1024 11.5368 728 133.041 879.43 467.187
1527 0 65.0495 12.6519 823 131.463 879.756 463.382
1528 0 65.0495 12.6519 823 112.375 880.753 463.362
1529 0 72.1422 14.2912 1031 128.507 878.933 462.205
1530 0 73.1079 12.1875 891 132.829 879.799 457.027
1531 0 73.0387 13.8146 1009 129.917 878.566 460.214
1532 0 78.2279 11.8628 928 132.78 880.655 451.692
1533 0 80.2131 7.89148 633 136.984 881.084 457.229
1534 0 86.1859 10.6746 920 133.88 881.078 452.154
1535 1 46.0417 10.5122 484 131.233 881.651 466.632
1536 0 46.0328 10.8184 498 131.239 882.574 467.582
1537 0 46.0328 10.7532 495 125.99 883.58 467.57
1538 0 52.1494 11.6972 610 128.605 882.7 465.775
1539 0 51.1223 10.0934 516 134.44 883.589 465.486
1540 0 51.1223 10.1521 519 129.073 883.586 465.538
1541 0 57.2232 14.6794 840 127.77 883.998 462.729
1542 0 57.1134 13.1843 753 132.066 883.861 460.977
1543 0 59.1337 12.2942 727 132.758 885.179 459.047
1544 0 60.1545 12.5178 753 132.024 885.446 463.29
1545 0 63.1843 13.5318 855 130.094 886.297 464.63
1546 0 65.1987 11.3346 739 134.019 886.188 462.506
1547 0 66.1449 14.6194 967 129.455 886.192 461.497
1548 0 68.1834 12.1877 831 132.963 886.703 463.566
1549 0 71.1503 13.9142 990 130.292 886.329 461.884
1550 0 74.3568 12.3324 917 132.677 886.356 463.004
1551 0 74.1971 16.874 1252 124.656 885.292 461.912
1552 0 79.2093 14.569 1154 128.403 886.359 461.639
1553 0 84.242 11.099 935 133.461 885.864 465.441
1554 0 85.2534 11.5069 981 133.278 885.3 465.724
1555 0 86.2544 15.234 1314 128.288 884.874 464.37
1556 1 243.602 11.1288 2711 150.782 883.583 387.142
1557 1 191.277 6.31544 1208 141.887 883.139 448.914
1558 0 188.376 8.78561 1655 146.3 882.276 422.409
1559 0 189.766 12.937 2455 140.767 881.508 415.766
1560 0 191.487 10.3036 1973 144.482 880.275 419.97
1561 0 199.563 10.6783 2131 146.738 880.563 395.255
1562 1 55.1284 10.9381 603 129.247 878.832 468.839
1563 0 59.2175 14.3539 850 124.758 879.271 471.472
1564 0 58.0582 9.0771 527 134.34 878.856 467.903
1565 0 63.1069 9.04814 571 131.828 877.501 465.862
1566 0 65.2935 10.6596 696 129.121 877.609 467.042
1567 0 66.1274 12.5667 831 127.761 877.942 459.024
1568 0 62.1664 10.3915 646 132.469 877.689 457.704
1569 1 81.1343 10.5504 856 129.752 876.915 457.714
1570 0 77.0636 8.39566 647 133.638 876.62 457.462
1571 0 77.3338 14.2628 1103 127.927 877.609 452.509
1572 0 77.3266 14.1478 1094 108.115 879.575 452.385
1573 0 85.3867 11.2898 964 134.017 878.287 450.854
1574 0 87.1686 11.8162 1030 133.204 878.162 446.1
1575 0 90.2744 8.00891 723 139.083 879.502 445.728
1576 0 93.292 11.6194 1084 115.842 880.517 451.804
1577 1 49.0845 11.9386 586 130.278 879.536 463.058
1578 0 52.1337 12.5255 653 128.127 879.593 462.41
1579 0 55.1882 8.60692 475 131.869 881.861 460.754
1580 0 55.2797 7.85099 434 130.604 882.823 463.442
1581 0 57.1109 16.1615 923 124.79 881.515 459.286
1582 0 58.0604 13.6582 793 128.627 882.368 456.641
1583 0 65.2169 15.7934 1030 122.172 882.779 456.778
1584 0 63.1555 11.1471 704 131.037 883.406 459.048
1585 0 64.0663 12.4715 799 129.1 884.144 460.242
1586 0 64.0663 12.5807 806 107.94 885.11 460.135
1587 0 69.2744 11.0286 764 132.915 885.897 455.22
1588 0 73.332 14.3594 1053 128.33 886.356 456.7
1589 0 72.308 13 940 109.423 886.385 458.504
1590 0 79.176 15.2445 1207 127.508 886.36 456.063
1591 0 81.1778 13.4273 1090 129.072 886.668 459.054
1592 0 83.5351 15.2152 1271 128.633 886.843 454.891
1593 0 85.4727 13.9109 1189 130.774 886.046 456.748
1594 0 91.4194 12.5794 1150 132.74 885.465 454.283
1595 0 92.1997 13.0912 1207 133.924 885.582 451.193
1596 0 100.414 13.7032 1376 131.116 884.414 454.215
1597 0 99.3166 15.3449 1524 130.341 885.014 448.919
1598 0 105.38 12.7254 1341 135.919 885.025 450.759
1599 1 56.3466 11.0033 620 132.887 884.056 473.416
1600 0 56.3466 10.8791 613 121.132 881.997 473.375
1601 0 62.168 11.7906 733 132.52 882.173 474.195
1602 1 121.371 11.2465 1365 139.658 881.409 446.183
1603 0 118.608 11.2303 1332 140.64 879.891 444.884
1604 0 123.529 12.7743 1578 136.12 879.885 450.598
1605 0 128.441 14.0998 1811 137.13 879.029 435.483
1606 0 131.915 13.3343 1759 135.804 877.921 445.897
1607 0 135.23 11.3732 1538 143.973 878.262 428.35
1608 0 141.244 11.4766 1621 143.369 877.853 429.524
1609 0 143.374 12.7917 1834 138.301 877.231 437.922
1610 0 143.273 11.9283 1709 140.891 876.85 436.951
1611 1 79.3409 10.2343 812 137.16 875.957 461.102
1612 0 82.4929 14.1346 1166 131.535 876.955 456.471
1613 1 94.5215 5.60719 530 135.302 877.591 459.598
1614 0 95.4444 10.1106 965 132.422 877.207 459.827
1615 0 88.5156 8.75552 775 138.425 876.405 451.166
1616 0 96.6514 9.14627 884 135.088 877.912 451.799
1617 1 55.2766 7.52579 416 134.82 878.642 467.428
1618 0 56.1991 8.95032 503 129.988 879.322 465.535
1619 0 55.2422 10.5535 583 128.257 879.106 460.228
1620 0 59.2282 9.59003 568 133.019 880.81 464.238
1621 0 59.2282 9.45496 560 131.677 881.768 464.036
1622 0 61.1072 12.5026 764 130.712 879.289 460.513
1623 0 63.19 14.4168 911 127.653 880.079 457.06
1624 0 61.234 10.6477 652 135.333 880.802 458.873
1625 0 64.1241 13.3647 857 130.705 881.782 456.438
1626 0 64.1065 13.4776 864 119.413 882.806 456.48
1627 0 68.1766 11.6756 796 131.701 883.606 457.864
1628 0 68.1766 10.8688 741 129.91 883.59 456.748
1629 0 73.1542 13.8475 1013 128.238 884.778 453.378
1630 0 75.5362 12.4841 943 130.314 884.554 454.961
1631 0 76.1841 12.3123 938 131.108 884.852 453.026
1632 0 77.3845 12.3797 958 131.192 885.463 451.96
1633 0 84.1605 14.805 1246 125.69 885.604 452.539
1634 0 87.4048 13.489 1179 128.217 886.695 452.578
1635 0 90.7796 10.7513 976 132.492 887.101 445.567
1636 0 92.561 12.6511 1171 130.675 886.577 450.831
1637 0 93.3121 12.4528 1162 132.108 885.86 446.64
1638 1 50.2854 8.71029 438 131.498 885.315 475.518
1639 0 50.3646 9.1731 462 130.03 885.522 474.149
1640 0 50.2559 10.168 511 126.885 884.264 471.84
1641 0 53.2018 12.8191 682 128.443 884.686 472.528
1642 0 53.1368 14.1521 752 127.773 883.431 470.419
1643 0 53.1368 13.964 742 100.516 883.456 470.57
1644 0 58.2839 12.3705 721 128.883 882.391 471.925
1645 0 58.2381 11.4015 664 131.392 881.139 470.333
1646 0 58.2591 13.8004 804 129.389 880.918 469.779
1647 0 63.2814 14.317 906 126.812 880.684 467.978
1648 0 64.1687 13.184 846 128.768 880.05 467.069
1649 0 66.2109 11.9618 792 129.056 879.428 468.596
1650 0 73.2137 11.6508 853 127.579 878.869 467.843
1651 0 72.1396 11.4223 824 130.068 878.97 460.808
1652 0 72.1983 11.3438 819 130.73 879.088 462.846
1653 0 74.2531 12.188 905 129.285 879.512 460.077
1654 0 77.1603 10.2903 794 132.452 878.496 454.806
1655 0 78.202 11.4064 892 130.731 877.899 451.839
1656 0 84.237 14.2574 1201 125.689 877.353 449.33
1657 0 84.2911 13.3941 1129 126.131 879.17 451.593
1658 0 84.2848 13.3595 1126 115.154 880.191 451.564
1659 0 92.1011 14.0824 1297 126.415 879.09 448.26
1660 0 91.1065 12.5897 1147 126.622 879.638 453.16
1661 0 99.2859 12.8417 1275 127.778 879.664 444.94
1662 0 101.158 14.9963 1517 126.837 879.678 433.459
1663 0 103.271 12.3462 1275 131.888 881.642 439.907
1664 1 52.0737 9.1985 479 134.933 882.196 455.923
1665 0 56.0676 13.0378 731 129.04 883.718 458.078
1666 0 58.1686 12.2747 714 129.483 883.85 459.86
1667 0 61.1798 13.8444 847 127.848 883.811 458.342
1668 0 64.236 13.3103 855 127.815 883.715 458.085
1669 0 63.184 13.3895 846 127.56 883.2 459.796
1670 0 63.184 15.7635 996 116.321 884.136 457.72
1671 0 64.1544 9.46156 607 131.31 885.308 458.703
1672 0 64.1812 11.0468 709 129.329 887.157 455.918
1673 0 73.1158 13.2119 966 125.047 888.231 458.589
1674 0 76.1261 12.164 926 125.344 888.266 460.177
1675 1 152.604 16.1005 2457 125.798 887.014 432.302
1676 0 152.338 12.597 1919 137.065 885.593 415.879
1677 0 160.456 11.8973 1909 137.787 885.838 419.092
1678 0 169.535 12.5874 2134 136.321 885.88 417.594
1679 0 176.365 11.8675 2093 136.73 886.368 423.344
1680 0 178.472 12.9656 2314 140.153 884.646 408.369
1681 0 184.486 12.5972 2324 140.524 884.158 408.82
1682 1 98.1522 14.6915 1442 126.279 884.483 455.561
1683 0 97.1607 14.0489 1365 112.727 884.423 454.408
1684 1 56.0339 16.7756 940 124.656 885.124 475.134
1685 0 57.0953 11.6122 663 132.679 884.228 474.931
1686 0 59.0398 13.2284 781 130.339 883.111 471.778
1687 0 60.02 11.9127 715 133.228 882.323 470.048
1688 0 58.0413 11.3023 656 125.215 882.412 468.91
1689 0 65.1185 9.78216 637 136.248 880.353 472.024
1690 0 65.2388 13.1363 857 132.312 880.156 468.111
1691 0 67.0467 12.633 847 133.042 880.354 466.39
1692 0 69.1551 12.0165 831 133.69 879.646 466.03
1693 0 69.1274 13.439 929 132.042 879.371 468.016
1694 0 75.1291 13.7896 1036 130.986 878.715 461.259
1695 0 76.0891 12.2357 931 132.795 879.003 462.232
1696 0 81.2704 12.7106 1033 129.663 879.311 465.463
1697 0 84.2083 16.1029 1356 126.835 879.218 455.06
1698 0 83.1461 13.35 1110 131.752 878.321 457.197
1699 0 93.3245 15.3657 1434 127.974 878.766 449.866
1700 0 93.1043 12.5021 1164 134.193 878.966 447.599
1701 1 48.1326 10.4711 504 132.821 879.571 470.351
1702 0 51.0861 11.3142 578 130.728 879.86 467.159
1703 0 50.3337 9.61582 484 133.494 878.089 466.636
1704 0 54.124 11.4182 618 131.911 879.733 463.356
1705 0 54.0879 13.7184 742 128.813 880.949 460.788
1706 0 57.0703 11.3544 648 131.927 881.298 459.935
1707 0 59.0716 16.8609 996 123.73 882.572 458.081
1708 0 61.2025 14.1988 869 127.131 882.642 459.298
1709 0 60.1407 11.1073 668 132.033 883.734 457.63
1710 0 67.2196 11.7823 792 129.231 883.78 456.189
1711 0 67.2196 11.8715 798 118.62 883.792 456.162
1712 0 67.1594 10.2145 686 132.758 884.898 453.606
1713 0 73.1982 12.2681 898 129.276 885.433 452.381
1714 0 73.266 11.8336 867 130.52 886.102 451.082
1715 0 77.1838 14.4719 1117 125.755 886.944 447.064
1716 0 78.1636 11.6934 914 130.765 888.086 449.953
1717 0 76.1154 7.97473 607 137.091 887.718 453.506
1718 0 83.1328 11.4034 948 131.227 887.651 449.481
1719 1 44.0617 9.69095 427 132.131 888.958 468.843
1720 0 44.0617 9.64556 425 121.318 889.958 468.849
1721 0 44.131 7.18316 317 134.379 885.391 468.237
1722 0 48.3386 11.0264 533 128.934 885.385 469.739
1723 0 53.1236 11.445 608 128.456 884.668 470.451
1724 0 55.192 11.7227 647 127.716 883.683 470.175
1725 0 55.112 13.3546 736 126.467 883.923 469.732
1726 0 58.0903 11.9986 697 129.75 884.28 468.657
1727 0 56.1373 13.8232 776 127.956 882.871 469.992
1728 0 61.0694 13.3127 813 127.157 882.168 469.338
1729 0 59.0882 11.339 670 132.306 880.702 467.898
1730 0 64.1006 13.51 866 130.739 879.105 473.685
1731 0 66.0599 13.0488 862 132.834 880.057 464.984
1732 0 69.1039 9.98496 690 135.29 880.441 473.101
1733 0 64.1666 9.44416 606 139.728 880.612 467.972
1734 0 74.213 13.569 1007 132.679 879.483 464.107
1735 0 75.1358 14.8664 1117 132.028 879.91 462.733
1736 0 75.137 14.8662 1117 126.266 880.918 462.662
1737 0 78.3028 11.4811 899 137.435 878.047 461.28
1738 0 82.0981 16.2854 1337 129.418 877.462 460.298
1739 0 84.1036 15.1361 1273 131.443 877.959 453.345
1740 0 89.1328 13.0592 1164 134.588 877.582 454.866
1741 0 90.1068 14.9378 1346 130.48 877.002 454.224
1742 0 92.3402 13.5152 1248 133.821 878.83 452.728
1743 0 95.3609 15.6353 1491 130.537 877.535 447.681
1744 0 98.1873 11.9567 1174 135.047 877.942 452.332
1745 1 52.0241 10.2645 534 137.858 879.097 465.509
1746 0 53.032 11.2196 595 135.182 879.887 463.062
1747 0 59.4263 13.2433 787 129.221 877.935 465.521
1748 0 58.1417 13.5187 786 133.719 879.631 458.664
1749 0 57.1615 9.5169 544 141.138 879.463 458.438
1750 0 62.2223 11.4589 713 135.621 880.24 456.511
1751 0 65.2208 12.91 842 131.23 881.482 456.524
1752 0 67.0973 15.0528 1010 126.186 881.089 459.07
1753 0 68.1943 10.2501 699 135.373 881.87 453.844
1754 0 70.2065 13.3463 937 130.365 883.129 454.157
1755 0 73.2421 18.3364 1343 123.344 883.132 449.163
1756 0 78.2165 14.1019 1103 126.413 882.678 456.283
1757 0 80.1456 13.201 1058 128.909 884.293 450.003
1758 0 83.1386 13.4113 1115 128.843 884.435 451.049
1759 0 87.1805 16.5748 1445 123.42 885.199 452.902
1760 0 87.312 11.247 982 132.321 885.824 451.926
1761 0 89.1382 12.0936 1078 130.045 885.891 452.857
1762 1 48.0966 15.1986 731 120.066 886.926 468.655
1763 0 51.1067 10.2922 526 123.359 886.823 476.943
1764 0 49.1503 11.8209 581 127.54 887.046 472.537
1765 0 51.0679 12.2386 625 127.798 886.274 472.667
1766 0 51.1856 11.3118 579 128.953 885.522 470.499
1767 0 56.2136 11.1361 626 127.92 885.426 473.286
1768 0 55.1029 10.5439 581 128.232 886.098 475.224
1769 0 60.0804 10.7523 646 127.937 884.684 469.28
1770 0 63.0999 12.2187 771 124.071 884.358 472.77
1771 0 64.0937 14.198 910 102.489 884.394 470.274
1772 0 67.0531 15.361 1030 120.291 881.844 467.14
1773 0 71.1682 14.7819 1052 120.791 882.208 467.925
1774 0 70.0633 11.0472 774 127.72 881.159 466.778
1775 0 74.1997 13.4906 1001 123.135 880.674 464.476
1776 0 76.1208 12.3357 939 125.441 879.612 464.48
1777 0 80.0728 11.1274 891 126.999 878.796 460.488
1778 0 85.1327 12.7918 1089 123.814 878.784 464.242
1779 0 85.2183 13.131 1119 124.472 878.483 457.111
1780 0 91.3356 13.1821 1204 123.947 877.852 458.689
1781 0 88.4365 11.1153 983 128.903 877.509 454.7
1782 0 87.4571 6.73473 589 130.604 877.075 467.102
1783 1 52.0174 11.4577 596 126.092 875.446 466.678
1784 0 54.0991 12.9947 703 123.868 874.115 461.279
1785 0 56.0719 13.8216 775 121.734 876.257 466.83
1786 0 54.0583 9.58225 518 130.33 876.176 465.541
1787 0 57.0638 10.2867 587 128.804 876.55 469.164
1788 0 58.0407 15.2996 888 123.37 876.874 465.171
1789 0 58.0872 13.2043 767 126.771 877.506 464.361
1790 0 62.038 16.0063 993 122.232 877.325 463.41
1791 0 62.0591 11.6663 724 129.874 878.436 461.47
1792 0 62.0437 11.0245 684 130.404 878.287 461.984
1793 0 62.0507 11.1199 690 125.8 877.293 462.019
1794 0 66.1653 12.1816 806 130.649 879.684 454.557
1795 0 69.2123 10.7784 746 132.563 880.515 456.965
1796 0 69.2623 10.8284 750 133.609 881.527 456.888
1797 0 75.1676 15.0065 1128 125.821 881.863 457.178
1798 0 76.0825 11.6584 887 130.616 882.603 454.784
1799 0 78.1657 10.8104 845 132.321 883.234 456.244
1800 0 83.1562 13.9136 1157 128.711 884.176 452.55
1801 1 45.1871 11.9503 540 130.861 883.594 466.931
1802 0 47.0362 9.12064 429 135.152 884.233 465.783
1803 0 48.1581 13.1857 635 131.469 884.523 464.608
1804 0 46.0398 8.9705 413 139.404 884.523 466.862
1805 0 50.0663 13.7418 688 130.106 884.849 464.379
1806 0 53.2733 17.0066 906 123.706 885.403 465.762
1807 0 55.1214 15.1665 836 127.449 884.268 466.022
1808 0 55.089 11.8898 655 133.14 884.444 468.754
1809 0 60.148 13.9822 841 128.663 884.018 468.58
1810 0 59.2412 12.8964 764 131.615 883.175 465.72
1811 0 63.0533 12.4974 788 131.003 882.433 469.817
1812 0 61.0651 17.5714 1073 125.175 883.558 467.983
1813 0 65.2249 16.5428 1079 125.345 882.846 467.555
1814 0 64.0951 12.2318 784 134.043 882.427 468.115
1815 0 74.2153 18.8371 1398 123.183 882.318 469.057
1816 0 72.4571 13.4148 972 132.706 881.122 469.181
1817 0 77.2751 13.3549 1032 132.154 880.258 463.23
1818 0 79.3741 14.5513 1155 131.387 879.822 462.452
1819 0 82.3921 13.3629 1101 133.768 879.774 460.986
1820 0 87.1911 18.5225 1615 123.906 879.39 458.31
1821 0 89.1187 17.9199 1597 123.158 878.976 462.629
1822 0 91.1479 14.7453 1344 131.392 878.126 452.647
1823 0 95.1482 14.3671 1367 135.286 877.659 448.91
1824 0 98.134 12.0142 1179 139.805 876.587 448.222
1825 1 47.0317 11.673 549 131.235 877.552 470.375
1826 0 50.0591 14.1832 710 130.77 876.566 464.197
1827 0 53.1055 12.88 684 131.575 875.697 468.276
1828 0 54.2668 15.5344 843 127.391 876.477 469.789
1829 0 54.1069 12.6786 686 132.402 876.937 468.905
1830 0 56.0916 22.0354 1236 119.35 876.949 464.683
1831 0 57.1314 13.8103 789 133.283 876.195 461.529
1832 0 60.1275 13.0888 787 131.571 876.98 466.286
1833 0 62.1347 12.1832 757 134.62 877.612 462.832
1834 0 63.1108 13.3892 845 133.788 877.82 459.948
1835 0 66.1861 13.3563 884 134.768 877.941 456.395
1836 0 69.1749 16.3065 1128 129.359 878.401 454.272
1837 0 71.0945 15.1067 1074 130.777 879.385 455.319
1838 0 70.1001 10.2282 717 138.548 881.902 455.821
1839 0 71.0941 12.8984 917 132.465 882.874 459.638
1840 0 79.2083 10.8953 863 138.556 882.787 452.691
1841 0 79.1725 13.1485 1041 136.617 883.41 448.46
1842 0 83.3707 12.2465 1021 124.252 883.618 448.564
1843 1 46.069 11.613 535 122.153 884.622 458.153
1844 0 48.0597 11.2984 543 120.23 884.893 463.803
1845 0 47.1012 9.3416 440 129.132 885.425 457.293
1846 0 50.3961 12.6796 639 123.008 884.308 459.729
1847 0 50.3961 12.6399 637 139.967 883.32 459.579
1848 0 53.0547 12.0819 641 123.367 886.534 467.897
1849 0 57.0416 14.3054 816 118.858 886.955 467.134
1850 0 58.0593 12.2461 711 121.212 886.911 469.809
1851 0 59.0846 12.8121 757 121.631 886.67 468.337
1852 0 61.1 13.0114 795 122.449 886.391 465.914
1853 0 67.2654 16.0558 1080 114.969 885.612 466.851
1854 0 67.2547 13.7239 923 120.378 885.096 467.288
1855 0 69.0729 13.5509 936 121.601 885.109 464.781
1856 0 69.0647 12.4955 863 124.328 884.322 465.356
1857 0 72.0939 13.6073 981 122.071 884.104 465.249
1858 0 73.1874 11.1631 817 125.135 883.246 466.16
1859 0 78.122 11.5716 904 125.049 881.732 460.855
1860 0 80.223 12.2159 980 123.713 881.508 461.781
1861 0 83.3328 13.4521 1121 121.331 880.418 462.793
1862 0 84.1675 10.99 925 127.209 878.337 460.006
1863 0 89.2604 12.2227 1091 126.093 877.74 455.426
1864 0 91.151 14.4156 1314 120.468 877.163 459.553
1865 0 90.3206 8.9127 805 129.537 877.704 452.114
1866 1 54.1725 11.4634 621 122.493 877.37 471.491
1867 0 57.1102 13.2201 755 120.473 876.47 470.138
1868 0 58.1694 14.0108 815 120.007 876.552 466.913
1869 0 57.2675 11.1407 638 126.625 875.563 463.292
1870 0 62.1799 15.2622 949 118.224 875.615 462.182
1871 0 60.2874 12.2248 737 125.83 876.098 461.149
1872 0 60.2811 10.0363 605 130.608 876.197 460.597
1873 0 65.3644 13.9678 913 122.173 876.081 457.043
1874 0 64.1434 13.9531 895 123.231 875.894 460.364
1875 0 71.136 15.9835 1137 117.965 876.694 459.547
1876 0 72.2813 11.9533 864 125.758 877.972 454.75
1877 0 76.2206 12.9099 984 124.574 878.758 451.799
1878 0 78.16 13.6899 1070 123.217 878.668 450.548
1879 0 78.165 13.5994 1063 128.48 879.643 450.565
1880 0 83.1746 16.1227 1341 120.798 879.775 447.589
1881 0 85.2148 14.2698 1216 123.94 881.58 441.444
1882 0 87.1631 15.1899 1324 122.939 881.206 446.273
1883 0 87.1631 15.0522 1312 128.177 881.236 446.168
1884 0 91.2177 12.0043 1095 126.144 882.547 436.52
1885 0 94.1778 11.7968 1111 126.475 883.417 437.305
1886 0 98.138 14.9585 1468 125.668 884.267 443.399
1887 0 100.266 12.6963 1273 130.958 883.243 433.543
1888 0 106.254 14.8606 1579 126.764 885.459 434.892
1889 0 106.224 15.1379 1608 132.109 887.463 439.384
1890 1 174.552 9.09758 1588 135.39 885.457 419.481
1891 0 174.455 7.21677 1259 138.964 885.079 418.6
1892 0 173.404 9.82678 1704 133.449 885.215 420.288
1893 0 174.643 13.6793 2389 129.906 885.137 406.222
1894 1 72.1252 12.2842 886 124.941 884.222 464.676
1895 0 75.1683 15.9908 1202 118.767 883.943 460.789
1896 0 75.1683 16.0041 1203 128.423 882.988 460.667
1897 0 80.1899 11.1859 897 127.794 882.717 456.715
1898 0 82.1668 12.6207 1037 126.667 882.611 454.81
1899 0 85.1728 12.0109 1023 126.996 882.329 456.871
1900 0 85.1989 10.8452 924 128.391 881.442 460.28
1901 1 45.0446 8.34728 376 132.944 880.354 476.638
1902 0 48.1098 9.70696 467 128.246 878.488 477.336
1903 0 48.1098 9.83167 473 139.275 876.45 477.315
1904 0 53.3896 8.82194 471 127.516 877.894 476.851
1905 0 52.1933 12.2813 641 120.476 879.339 471.643
1906 0 52.1932 11.6873 610 122.446 878.361 467.466
1907 0 54.3333 13.7485 747 118.525 878.008 470.349
1908 0 49.3497 8.26753 408 130.493 876.522 464.949
1909 0 57.3855 12.3202 707 120.154 877.052 470.52
1910 0 57.5513 8.93116 514 128.665 876.152 465.854
1911 0 58.294 9.46924 552 127.576 876.294 465.281
1912 0 64.2297 12.2529 787 121.662 876.311 462.404
1913 0 63.2582 12.9311 818 121.227 876.513 461.081
1914 0 65.2129 11.6541 760 124.954 877.401 460.413
1915 0 67.1887 12.0705 811 122.413 876.568 457.668
1916 0 67.1887 11.9514 803 125.584 876.583 457.577
1917 0 70.1665 11.5867 813 121.674 876.258 458.905
1918 0 71.1139 8.01531 570 130.139 877.404 451.054
1919 0 75.1871 10.8662 817 125.58 878.053 449.638
1920 0 80.254 14.0429 1127 120.503 878.428 448.597
1921 0 81.2798 12.0571 980 123.63 879.27 440.798
1922 0 82.3669 12.6507 1042 123.958 880.127 438.715
1923 0 90.2312 13.953 1259 120.481 881.492 444.339
1924 1 46.1127 11.4068 526 119.268 879.298 463.738
1925 0 47.1049 12.6526 596 116.896 880.386 464.201
1926 0 49.1553 13.6099 669 115.176 881.756 459.86
1927 0 52.0532 11.8533 617 119.919 881.125 463.549
1928 0 53.175 8.70711 463 124.333 882.706 463.639
1929 0 54.03 7.16268 387 127.455 883.01 463.638
1930 0 54.1062 9.55529 517 122.315 883.928 466.29
1931 0 54.2024 9.64903 523 123.476 884.285 463.774
1932 0 59.2408 11.1747 662 119.909 883.893 462.489
1933 0 62.1282 9.94718 618 120.995 884.78 459.718
1934 0 65.0855 13.4439 875 116.104 884.357 463.8
1935 0 65.089 10.9389 712 120.537 884.692 463.326
1936 0 68.0971 12.35 841 117.439 885.335 468.054
1937 0 70.0713 12.6015 883 118.755 884.661 462.501
1938 0 74.1417 15.2141 1128 115.095 884.58 462.172
1939 0 74.0754 11.0158 816 119.183 882.93 468.983
1940 0 76.0764 10.9627 834 120.62 883.55 464.927
1941 0 82.345 12.6419 1041 118.211 883.19 466.672
1942 0 85.0934 11.9398 1016 121.191 881.9 458.316
1943 0 86.1503 9.79683 844 124.549 881.027 464.485
1944 0 89.1196 11.5687 1031 123.352 879.432 452.349
1945 0 92.1184 10.7362 989 125.012 880.079 457.828
1946 0 96.2501 15.2623 1469 118.82 879.222 452.531
1947 0 100.193 14.1027 1413 123.403 878.815 449.75
1948 0 102.371 13.8907 1422 124.36 878.398 450.397
1949 0 108.372 15.0593 1632 126.689 879.15 444.198
1950 1 58.3652 10.8112 631 126.48 877.848 471.193
1951 0 61.2694 11.0332 676 130.615 876.667 464.197
1952 0 62.1109 12.6387 785 126.815 877.101 470.96
1953 0 65.1414 13.1099 854 127.683 877.148 467.808
1954 0 68.1797 13.7431 937 127.372 877.067 465.388
1955 0 69.337 10.5716 733 132.524 877.281 462.296
1956 0 71.1223 13.062 929 128.555 877.287 462.011
1957 0 73.1437 14.0272 1026 126.705 877.593 462.296
1958 0 77.1351 14.8181 1143 126.227 876.836 455.904
1959 0 73.2826 12.9908 952 126.517 875.59 455.682
1960 0 77.2509 11.9351 922 128.156 875.581 455.61
1961 0 76.4492 11.7594 899 130.752 877.074 454.209
1962 0 85.3242 12.1654 1038 128.783 876.435 455.175
1963 0 91.3597 16.1121 1472 122.143 877.798 440.868
1964 0 90.1969 12.9273 1166 132.636 878.118 434.284
1965 0 93.232 13.7185 1279 130.776 878.431 439.722
1966 0 96.2269 14.2891 1375 132.783 879.543 428.814
1967 0 98.173 13.4049 1316 134.435 880.354 422.277
1968 0 101.253 13.9848 1416 134.02 881.076 416.2
1969 0 103.12 12.917 1332 136.556 882.183 418.284
1970 0 103.12 12.9073 1331 147.98 884.187 418.204
1971 0 110.112 13.8314 1523 133.703 883.415 428.085
1972 0 111.154 13.8636 1541 134.204 883.193 427.404
1973 0 115.404 13.6044 1570 134.588 883.989 431.378
1974 0 118.073 14.5249 1715 134.093 885.514 433.354
1975 1 68.1417 8.02739 547 131.252 884.241 465.79
1976 0 69.126 10.5315 728 131.441 885.657 461.975
1977 0 70.3266 11.603 816 130.509 885.802 461.016
1978 0 72.1253 13.0606 942 127.817 886.366 461.382
1979 0 74.1425 14.634 1085 126.974 884.937 457.588
1980 0 77.1937 12.9156 997 129.163 883.761 457.611
1981 0 82.1748 12.5951 1035 128.561 884.211 461.935
1982 0 81.1035 11.8121 958 132.944 883.736 458.387
1983 0 87.1732 13.2839 1158 131.482 883.832 456.515
1984 0 88.0688 12.9331 1139 132.203 882.317 458.637
1985 0 92.1698 11.3486 1046 134.102 882.257 456.813
1986 1 183.474 14.3781 2638 139.677 880.989 413.937
1987 0 190.228 12.8425 2443 143.22 881.224 407.638
1988 0 197.297 14.2425 2810 137.41 878.963 414.473
1989 1 102.18 13.1337 1342 131.352 879.156 447.857
1990 0 104.181 10.3474 1078 135.808 878.881 441.394
1991 1 59.1513 7.47236 442 128.751 877.828 472.674
1992 0 64.1771 9.87891 634 125.397 878.811 471.397
1993 0 65.3387 14.5855 953 118.704 878.667 466.463
1994 0 66.1968 9.97027 660 125.214 876.765 468.545
1995 0 67.1498 11.2882 758 123.979 875.632 466.091
1996 0 69.3247 13.819 958 119.72 875.295 465.763
1997 0 70.1971 11.7811 827 122.83 876.039 466.914
1998 0 74.2577 13.6686 1015 119.977 875.314 460.41
1999 0 76.1651 10.6085 808 125.546 875.86 455.873
2000 0 78.3191 13.9047 1089 119.329 876.086 456.22
2001 0 80.2598 12.7336 1022 121.664 876.022 456.911
2002 0 79.1014 12.1869 964 123.25 876.76 454.72
2003 0 80.2087 11.7818 945 126.34 877.562 450.661
2004 0 86.1316 11.7262 1010 127.762 877.681 447.348
2005 0 90.4456 12.9912 1175 124.465 878.332 446.3
2006 0 87.1758 12.0446 1050 129.698 879.001 441.83
2007 0 87.1758 12.0561 1051 126.485 879.991 441.972
2008 0 94.2435 11.4703 1081 130.971 880.363 435.969
2009 0 98.2108 12.4121 1219 128.354 880.696 433.03
2010 1 57.2596 11.5614 662 126.403 882.793 459.14
2011 0 57.2793 11.9415 684 126.152 884.082 459.7
2012 0 59.1395 13.4428 795 123.839 883.779 458.121
2013 0 59.1233 11.18 661 126.939 885.098 456.649
2014 0 59.1275 11.2131 663 109.428 887.118 456.511
2015 0 63.5691 10.8858 692 130.001 885.004 457.919
2016 0 65.2793 12.6686 827 127.034 885.143 457.476
2017 0 66.508 9.39736 625 132.397 886.069 456.23
2018 1 137.459 7.35492 1011 137.569 885.686 433.688
2019 0 140.267 12.3621 1734 130.77 885.812 428.667
2020 0 141.346 12.5083 1768 131.994 885.62 425.679
2021 0 144.415 13.7036 1979 130.808 884.458 419.244
2022 0 151.482 13.4472 2037 129.761 885.488 427.334
2023 0 154.564 11.7427 1815 134.779 884.952 424.377
2024 0 156.739 10.8142 1695 137.56 883.759 415.989
2025 0 166.871 11.1943 1868 137.685 883.475 412.251
2026 0 169.764 11.7221 1990 136.831 883.594 412.39
2027 0 178.748 13.712 2451 133.645 883.839 411.628
2028 1 94.1922 10.5529 994 130.418 882.481 455.418
2029 0 96.2951 10.9663 1056 130.98 882.025 450.183
2030 0 98.1995 11.0999 1090 133.257 881.652 447.022
2031 0 101.32 13.788 1397 129.577 879.746 442.258
2032 1 116.317 8.52842 992 132.394 880.411 454.452
2033 0 117.335 7.41465 870 135.771 879.325 450.417
2034 0 114.493 10.3238 1182 134.681 879.172 436.692
2035 0 118.155 13.7277 1622 130.752 878.665 438.699
2036 0 122.134 14.2958 1746 128.927 878.714 441.952
2037 1 69.099 13.5747 938 126.864 878.134 463.941
2038 0 69.058 11.7148 809 130.911 878.517 459.466
2039 0 72.1458 12.1144 874 129.465 877.991 463.375
2040 0 75.1944 8.84374 665 136.08 878.245 459.94
2041 0 76.1297 10.9287 832 133.151 877.749 457.328
2042 0 76.1454 11.7144 892 131.461 878.432 460.41
2043 0 74.0428 9.81864 727 137.272 877.836 456.043
2044 0 72.1431 10.396 750 135.209 877.692 458.096
2045 0 84.1152 13.3032 1119 131.987 877.852 448.578
2046 0 86.0635 12.2003 1050 131.485 878.935 453.066
2047 0 90.1532 12.4233 1120 132.34 878.704 447.961
2048 0 98.3033 9.30793 915 137.871 879.142 442.552
2049 0 93.3288 12.2256 1141 133.661 878.308 437.336
2050 0 99.3291 11.8294 1175 136.042 879.321 432.736
2051 0 106.288 16.1824 1720 128.278 880.524 433.478
2052 1 51.1013 10.1954 521 136.273 880.065 453.871
2053 0 56.0955 12.96 727 130.622 880.656 454.763
2054 0 54.0866 10.0764 545 134.67 881.47 454.119
2055 0 57.0613 8.16666 466 138.18 880.97 452.627
2056 0 58.0386 9.94165 577 135.359 882.645 453.244
2057 0 64.1564 12.1422 779 130.858 882.442 458.193
2058 0 65.0686 12.6175 821 132.783 883.468 453.833
2059 0 67.1176 13.305 893 131.889 883.854 458.096
2060 0 73.1745 15.9482 1167 124.6 882.99 460.176
2061 0 73.2768 13.9608 1023 131.624 883.442 455.348
2062 0 74.2077 15.3488 1139 130.501 884.476 451.974
2063 0 76.1414 14.8408 1130 131.695 884.707 452.437
2064 0 79.1101 14.1069 1116 134.136 883.795 449.837
2065 0 79.2202 10.6665 845 138.469 885.082 456.454
2066 0 85.3241 12.1185 1034 135.991 883.053 452.307
2067 0 85.2848 10.8108 922 135.367 883.627 456.002
2068 0 89.2907 13.3721 1194 132.485 883.317 453.291
2069 0 93.2663 12.6412 1179 134.266 883.771 449.856
2070 0 96.3259 12.873 1240 134.373 881.94 451.536
2071 0 102.212 15.2038 1554 129.335 881.157 447.915
2072 1 52.127 7.48173 390 136.344 880.172 473.377
2073 0 58.0907 11.7403 682 133.909 877.884 471.311
2074 0 58.0907 11.8263 687 128.878 875.854 471.502
2075 0 62.1392 13.5824 844 131.584 877.515 471.286
2076 0 63.0843 13.4582 849 130.299 876.252 473.19
2077 0 62.1115 10.6261 660 137.921 876.439 470.13
2078 0 67.4003 13.4272 905 132.451 876.779 468.122
2079 0 69.1663 15.0218 1039 127.705 875.996 469.769
2080 0 71.1834 14.4416 1028 131.152 876.002 464.814
2081 0 74.1781 13.8855 1030 133.617 876.895 458.616
2082 0 76.3966 12.0555 921 137.219 875.233 455.664
2083 0 76.6984 9.96109 764 140.843 875.613 457.971
2084 0 83.2781 14.7818 1231 131.704 875.922 456.583
2085 0 81.3403 12.1711 990 136.748 875.993 456.834
2086 0 79.3176 12.4058 984 133.538 876.235 459.99
2087 0 87.3968 11.1789 977 137.744 876.386 451.337
2088 0 87.4381 14.5589 1273 133.192 877.119 445.983
2089 0 85.5951 10.6548 912 139.474 877.998 449.466
2090 1 52.2429 10.6043 554 134.908 878.227 467.023
2091 0 54.3465 13.1011 712 130.813 878.597 465.037
2092 0 54.2182 11.841 642 127.646 879.755 462.578
2093 0 57.1128 11.3109 646 132.379 879.282 455.941
2094 0 59.1638 14.688 869 126.602 882.11 456.487
2095 0 57.2155 11.7101 670 133.842 882.458 454.8
2096 0 62.0964 11.611 721 134.52 882.778 461.255
2097 0 60.3073 11.8062 712 135.624 883.379 458.426
2098 0 65.4391 12.3626 809 132.433 883.209 461.664
2099 0 62.1175 10.7699 669 139.051 882.803 457.668
2100 0 68.2426 11.5324 787 135.584 882.903 455.712
2101 0 67.2617 9.97596 671 137.142 883.708 459.094
2102 0 67.1614 10.646 715 136.213 884.422 459.635
2103 0 74.264 11.917 885 134.281 883.745 458.156
2104 0 75.537 13.5298 1022 133.069 884.917 455.994
2105 0 79.4563 13.7812 1095 131.205 885.565 457.018
2106 0 83.3555 12.4887 1041 133.857 885.313 456.298
2107 0 83.3555 12.5247 1044 136.696 885.304 456.091
2108 0 89.3051 12.8884 1151 134.173 885.532 455.871
2109 0 89.4696 14.8095 1325 132.064 883.983 454.42
2110 0 93.2521 15.635 1458 130.136 884.852 453.272
2111 0 95.3776 16.377 1562 129.581 882.575 452.821
2112 0 97.2341 12.691 1234 137.895 882.999 448.085
2113 0 102.24 14.7301 1506 133.087 882.337 451.141
2114 0 106.259 16.7233 1777 130.519 881.029 447.541
2115 0 106.259 16.6951 1774 130.119 879.999 447.663
2116 0 113.137 14.4073 1630 138.437 879.508 437.315
2117 0 116.181 14.684 1706 137.514 878.346 437.776
2118 0 121.352 12.9458 1571 137.734 877.913 438.225
2119 1 70.1997 13.6895 961 129.197 878.185 463.524
2120 0 70.2438 12.0438 846 132.943 876.126 457.73
2121 0 75.0494 13.0714 981 130.418 875.971 458.821
2122 0 72.1571 12.4173 896 133.473 876.006 453.056
2123 0 78.0463 13.3895 1045 131.312 876.469 450.994
2124 0 80.1714 12.7726 1024 131.743 875.669 453.667
2125 0 84.3235 10.1395 855 135.821 875.751 452.177
2126 0 86.1557 14.5202 1251 128.129 875.082 449.654
2127 0 90.1105 12.0741 1088 132.408 876.583 449.574
2128 0 94.1585 12.8825 1213 130.864 875.311 445.256
2129 0 93.0913 14.7382 1372 128.069 875.646 443.293
2130 0 91.2904 11.3594 1037 134.453 876.655 444.971
2131 0 101.35 14.7608 1496 129.283 877.53 437.385
2132 0 96.0948 9.23047 887 137.458 878.073 441.426
2133 1 45.0599 8.05594 363 136.697 879.014 453.84
2134 0 58.4667 9.98859 584 126.462 878.67 458.594
2135 0 60.0414 10.143 609 130.862 877.192 460.33
2136 0 61.0593 8.40166 513 135.162 878.064 456.105
2137 0 65.0855 11.1238 724 129.079 878.623 456.445
2138 0 65.059 16.2161 1055 121.793 879.574 454.282
2139 0 70.222 15.8497 1113 121.636 879.406 452.364
2140 0 72.0882 10.2652 740 130.069 880.67 454.315
2141 0 72.1039 12.3017 887 128.072 881.444 448.72
2142 0 72.1111 11.8844 857 128.751 881.994 446.719
2143 0 75.2862 12.924 973 126.866 882.116 447.802
2144 0 79.1266 16.6695 1319 120.085 883.46 453.029
2145 0 83.2352 12.5548 1045 124.631 883.081 449.417
2146 0 84.2798 10.738 905 128.461 884.407 448.613
2147 0 84.2709 10.7392 905 120.019 885.407 448.613
2148 0 92.1294 14.6207 1347 122.392 884.978 453.489
2149 0 96.6428 13.286 1284 125.625 884.358 446.995
2150 1 52.2938 11.4354 598 125.562 885.286 471.231
2151 0 53.2775 9.53498 508 125.339 884.476 469.982
2152 0 52.103 9.09736 474 129.373 883.333 466.464
2153 0 55.082 13.5797 748 123.108 883.977 467.238
2154 0 55.2123 9.2914 513 129.618 882.782 470.992
2155 0 60.1565 9.87424 594 129.569 881.236 473.855
2156 0 61.1453 8.47163 518 132.241 880.494 474.965
2157 0 62.1631 11.4376 711 127.66 879.473 473.899
2158 0 65.2227 12.4803 814 126.301 879.878 473.064
2159 0 65.2227 12.465 813 121.219 879.924 472.966
2160 0 67.2078 11.8885 799 126.587 878.125 473.716
2161 0 72.2869 14.7745 1068 123.632 878.273 466.895
2162 0 77.1802 12.0368 929 127.814 876.8 466.827
2163 0 77.2294 10.9803 848 129.749 877.156 463.759
2164 1 156.566 13.5598 2123 131.116 876.008 430.114
2165 0 159.398 13.5008 2152 133.113 875.729 418.241
2166 0 163.331 13.1757 2152 133.54 876.653 424.261
2167 0 163.651 10.7973 1767 139.788 876.089 418.428
2168 0 160.447 7.65363 1228 139.742 874.796 436.786
2169 1 51.1652 11.1795 572 128.809 875.481 472.115
2170 0 53.2343 9.89963 527 132.051 876.554 466.068
2171 0 55.2103 12.0811 667 127.247 875.865 467.39
2172 0 56.071 13.5364 759 123.675 875.932 468.141
2173 0 56.0575 14.1462 793 121.654 875.881 467.469
2174 0 57.1997 12.7623 730 124.897 877.375 464.386
2175 0 59.1547 11.1741 661 126.623 876.955 464.543
2176 0 63.0714 14.0317 885 122.798 877.944 461.768
2177 0 60.0843 8.90415 535 131.17 878.465 462.712
2178 0 61.1389 10.0591 615 129.743 878.745 461.286
2179 0 64.0996 11.1389 714 129.008 879.777 459.755
2180 0 67.0841 12.9688 870 126.399 881.005 456.638
2181 0 67.0707 12.0917 811 129.104 881.358 452.465
2182 1 136.351 13.3039 1814 131.53 882.436 423.256
2183 0 146.293 9.12555 1335 134.606 882.795 432.101
2184 0 146.54 13.0681 1915 131.668 883.436 419.67
2185 1 160.493 8.60473 1381 135.245 883.94 425.449
2186 0 159.421 12.972 2068 132.538 885.014 406.776
2187 0 163.437 11.5152 1882 135.65 885.479 404.79
2188 0 170.485 7.04461 1201 141.59 886.185 415.548
2189 0 172.289 12.6822 2185 132.556 885.629 416.674
2190 1 139.497 12.0218 1677 132.559 886.21 431.665
2191 0 139.569 9.45054 1319 140.715 885.433 425.355
2192 0 143.273 6.37944 914 145.318 885.625 427.238
2193 1 102.3 10.9872 1124 130.041 884.806 455.827
2194 0 105.17 10.6494 1120 134.102 884.982 441.242
2195 0 113.384 11.2097 1271 133.379 884.449 435.282
2196 0 114.152 12.5797 1436 130.185 883.658 432.597
2197 0 121.354 11.2645 1367 131.012 883.066 438.105
2198 1 65.2901 10.9358 714 130.326 884.167 465.856
2199 0 72.2719 10.3083 745 131.016 882.098 469.333
2200 0 73.1567 14.8175 1084 123.665 881.816 466.223
2201 0 73.2206 13.8076 1011 126.676 880.688 463.355
2202 0 77.182 18.0353 1392 120.284 880.429 462.98
2203 0 79.267 13.4987 1070 127.711 879.556 459.435
2204 0 81.1867 12.0709 980 131.501 879.83 455.271
2205 0 84.1345 13.3001 1119 129.389 878.228 456.824
2206 0 85.2862 9.81402 837 135.977 877.395 454.866
2207 0 84.2557 9.86283 831 139.097 876.812 455.986
2208 0 91.4537 10.2238 935 138.435 876.917 452.569
2209 0 94.5378 13.4549 1272 132.91 875.166 449.214
2210 0 96.2548 13.7759 1326 132.909 876.108 445.064
2211 1 52.1446 14.3639 749 124.694 876.665 463.252
2212 0 51.0852 12.117 619 129.299 875.439 460.64
2213 0 51.3116 10.4655 537 133.438 877.518 459.639
2214 0 59.1613 17.5453 1038 117.157 877.461 459.126
2215 0 60.1263 17.9954 1082 117.003 878.524 457.282
2216 0 60.1609 16.2065 975 121.952 877.417 457.158
2217 0 60.1609 16.1899 974 114.911 876.412 457.226
2218 0 61.1198 12.4346 760 129.151 877.57 454.459
2219 0 63.1369 12.7026 802 128.211 878.353 453.296
2220 0 67.1265 14.4652 971 124.988 878.883 450.87
2221 0 68.2834 15.3771 1050 123.26 879.453 451.881
2222 0 70.2426 12.6277 887 127.981 879.823 451.742
2223 0 71.1389 12.6091 897 127.99 880.337 443.784
2224 0 76.2736 12.6387 964 127.464 881.392 443.989
2225 0 74.1844 15.2593 1132 122.13 881.754 439.476
2226 0 77.2777 11.4004 881 127.936 882.226 439.456
2227 0 82.2295 14.0217 1153 123.216 882.472 439.696
2228 0 85.2645 13.9683 1191 123.511 884.411 439.908
2229 0 82.2954 11.5195 948 128.545 883.457 445.152
2230 0 85.4062 10.2452 875 129.766 885.506 436.255
2231 0 90.1672 15.2605 1376 121.577 885.389 440.751
2232 0 89.2049 12.2527 1093 127.102 884.731 441.876
2233 0 96.4029 12.7278 1227 127.888 885.999 432.7
2234 0 103.294 13.8246 1428 124.618 885.705 439.361
2235 0 106.074 11.1808 1186 129.805 885.082 437.663
2236 1 63.1455 9.58104 605 128.63 884.223 459.539
2237 0 65.0702 8.62145 561 131.191 884.599 458.49
2238 0 67.4017 8.53094 575 131.157 885.396 459.237
2239 0 68.3026 12.8546 878 123.361 884.35 455.851
2240 0 73.2121 15.6258 1144 119.337 883.26 457.212
2241 0 76.1599 10.1366 772 127.052 881.811 456.75
2242 0 79.099 15.6513 1238 118.796 882.31 455.253
2243 0 80.1774 9.67853 776 128.474 879.91 452.594
2244 0 80.162 9.55566 766 130.632 877.894 452.576
2245 1 90.1468 13.6333 1229 121.913 878.45 453.817
2246 0 85.222 12.7432 1086 127.157 879.513 444.689
2247 0 93.2372 12.302 1147 128.234 877.343 440.673
2248 0 93.2857 12.1348 1132 129.428 877.194 442.926
2249 0 92.1855 12.5833 1160 130.028 877.106 439.384
2250 0 101.149 10.8059 1093 130.601 878.171 444.61
2251 0 98.1663 10.5128 1032 134.29 877.092 437.059
2252 0 98.1834 9.50263 933 137.513 877.55 434.999
2253 0 106.134 10.0345 1065 135.132 876.01 430.212
2254 0 112.136 13.5996 1525 130.696 876.793 428.446
2255 0 121.418 13.5977 1651 130.147 877.472 420.815
2256 0 129.24 6.34477 820 139.567 877.239 427.367
2257 0 126.3 9.71494 1227 136.015 877.328 419.299
2258 0 118.263 7.39876 875 141.425 876.911 417.098
2259 1 60.1168 8.69973 523 125.136 877.162 442.904
2260 0 74.2314 8.13672 604 131.589 879.273 446.445
2261 0 77.1476 9.15129 706 129.939 878.916 449.904
2262 0 77.1024 7.65216 590 131.027 879.402 452.227
2263 0 82.0554 12.5769 1032 125.019 880.118 441.086
2264 1 94.1918 10.0009 942 127.826 880.884 443.951
2265 0 93.2221 10.0405 936 125.1 882.957 448.784
2266 0 93.1518 12.2166 1138 125.08 882.598 440.838
2267 0 99.2353 8.37404 831 130.432 882.87 440.141
2268 0 99.1581 13.1911 1308 124.343 883.67 438.13
2269 0 106.191 10.5941 1125 127.262 884.103 436.629
2270 0 106.228 13.7723 1463 122.644 884.507 438.735
2271 0 109.138 11.7008 1277 128.226 884.528 429.031
2272 0 117.307 12.6847 1488 116.206 885.992 429.797
2273 0 117.136 13.7704 1613 114.732 886.133 432.493
2274 0 124.273 15.0073 1865 112.81 886.846 427.433
2275 0 124.19 10.017 1244 120.562 887.471 430.289
2276 0 131.388 17.4978 2299 109.73 887.093 424.05
2277 1 73.1651 11.6312 851 111.951 886.597 452.618
2278 0 79.1057 9.68325 766 116.004 884.794 447.718
2279 0 81.2151 11.3895 925 113.563 885.604 452.856
2280 0 86.3211 13.7857 1190 111.395 883.485 448.582
2281 0 86.3211 13.6236 1176 131.097 880.479 448.537
2282 0 93.1881 9.12134 850 119.562 883.992 447.919
2283 0 97.2034 10.5758 1028 117.003 883.52 450.913
2284 0 96.1723 11.1882 1076 119.283 882.479 439.822
2285 0 96.1883 11.124 1070 133.08 881.488 439.857
2286 0 104.103 10.6145 1105 119.175 881.178 452.474
2287 0 107.139 11.9471 1280 115.848 880.862 456.556
2288 0 110.204 9.50962 1048 120.427 879.022 451.86
2289 0 117.245 11.4546 1343 118.017 878.421 444.978
2290 0 121.318 12.1252 1471 117.894 876.634 439.581
2291 1 67.2014 15.2378 1024 108.874 877.197 462.034
2292 0 67.2014 15.4312 1037 112.954 877.166 462.014
2293 0 73.2041 12.3217 902 111.36 876.346 447.458
2294 0 75.3899 17.1376 1292 105.538 876.18 455.195
2295 0 77.3609 9.9792 772 115.876 877.074 449.206
2296 0 79.3651 13.1418 1043 111.601 875.976 449.203
2297 0 79.2936 10.417 826 116.288 876.17 449.105
2298 0 84.3935 14.1362 1193 109.594 875.331 449.936
2299 0 86.4412 11.4529 990 113.907 875.707 442.892
2300 0 86.3185 11.4112 985 113.302 876.206 442.559
2301 0 89.3879 14.8118 1324 109.174 876.899 439.621
2302 0 92.4633 11.0855 1025 114.713 877.918 436.532
2303 0 96.3648 13.6253 1313 110.509 877.538 438.291
2304 0 96.6693 13.6651 1321 111.499 878.362 434.376
2305 0 101.478 11.5001 1167 114.922 879.864 429.266
2306 0 104.247 11.9236 1243 113.439 879.058 433.246
2307 0 105.514 14.9933 1582 109.753 881.039 426.015
2308 0 106.402 9.94341 1058 118.698 880.995 420.346
2309 0 113.295 12.3924 1404 114.881 881.773 416.219
2310 0 114.25 12.9978 1485 115.426 882.15 422.396
2311 0 111.523 12.2576 1367 116.575 882.459 425.023
2312 1 63.1268 11.6432 735 108.11 883.657 450.547
2313 0 69.2028 13.1787 912 105.866 884.041 451.544
2314 0 71.3295 11.7062 835 107.867 884.202 449.087
2315 0 71.1322 11.556 822 108.675 883.912 447.243
2316 0 73.1234 11.6652 853 107.727 883.503 446.035
2317 0 78.2991 11.9797 938 106.741 884.758 446.261
2318 0 81.185 11.8741 964 106.69 884.626 446.868
2319 0 88.3377 15.6558 1383 101.67 884.346 446.337
2320 0 85.1319 10.9712 934 108.891 884.391 444.84
2321 0 95.3286 13.8364 1319 103.588 883.819 447.89
2322 0 90.2543 12.4759 1126 107.556 882.739 442.841
2323 0 96.3031 10.467 1008 110.449 882.272 440.96
2324 0 92.3161 11.4173 1054 110.27 881.958 444.893
2325 0 100.32 9.65912 969 112.542 882.293 442.706
2326 0 103.265 11.2042 1157 111.323 881.696 438.22
2327 0 105.19 12.9385 1361 109.081 880.173 440.334
2328 0 111.404 13.8594 1544 107.527 879.793 437.429
2329 0 115.161 13.0687 1505 110.213 879.043 433.976
2330 0 120.249 16.8982 2032 106.687 878.424 436.741
2331 1 64.0903 7.03694 451 115.313 877.058 461.284
2332 0 63.0818 10.1138 638 110.564 877.063 459.959
2333 0 66.1569 12.8029 847 107.396 876.329 459.012
2334 0 72.2746 10.889 787 109.587 877.294 455.572
2335 0 70.1972 9.37359 658 112.837 876.322 454.584
2336 0 77.159 13.038 1006 108.641 877.699 453.645
2337 0 78.3918 9.63111 755 114.732 876.691 447.697
2338 0 84.1978 14.0146 1180 108.126 875.82 448.293
2339 0 82.2122 11.9569 983 112.779 875.835 437.659
2340 0 88.2918 11.6885 1032 112.672 876.375 440.856
2341 0 88.2095 11.0872 978 114.677 876.437 437.819
2342 0 91.1522 11.9032 1085 113.878 876.37 437.92
2343 0 92.2112 10.1723 938 118.466 876.471 431.038
2344 0 94.2554 12.6147 1189 115.609 877.694 430.855
2345 0 89.2105 8.05959 719 123.549 879.21 428.494
2346 0 96.2198 9.02101 868 122.427 878.987 426.71
2347 0 106.281 15.3085 1627 112.559 879.114 428.214
2348 0 105.311 10.8061 1138 120.002 879.154 424.934
2349 0 109.256 11.7797 1287 118.699 880.514 421.211
2350 0 112.22 12.4043 1392 118.451 881.976 414.687
2351 0 121.277 15.9469 1934 112.398 882.692 420.914
2352 0 125.542 16.616 2086 112.698 882.036 413.684
2353 0 128.315 15.1736 1947 115.301 883.372 412.761
2354 0 135.634 14.775 2004 114.942 884.031 417.098
2355 0 136.333 18.0147 2456 110.982 885.206 411.343
2356 1 75.4378 6.84007 516 118.076 886.415 445.841
2357 0 79.1206 12.9676 1026 110.516 886.709 444.399
2358 0 85.306 12.0038 1024 109.111 885.761 440.545
2359 0 86.1801 11.0118 949 108.941 886.864 448.16
2360 0 92.3406 13.9809 1291 105.455 886.064 446.857
2361 0 94.2468 13.8042 1301 107.311 885.64 440.899
2362 0 102.477 13.1736 1350 107.181 885.276 443.12
2363 0 102.358 12.5149 1281 108.73 884.962 446.687
2364 0 102.358 12.5735 1287 124.148 884.944 446.904
2365 1 120.27 9.18762 1105 114.31 883.434 440.526
2366 0 124.544 11.514 1434 114.787 883.327 445.87
2367 0 122.341 11.1573 1365 116 882.654 447.076
2368 0 123.425 13.9518 1722 112.873 881.365 439.922
2369 0 125.266 11.3519 1422 117.149 879.716 439.177
2370 1 136.375 8.99725 1227 118.589 878.614 445.171
2371 0 136.37 12.7814 1743 115.431 877.245 433.606
2372 0 140.238 13.0777 1834 114.982 877.923 421.68
2373 0 145.297 18.4175 2676 108.355 877.004 425.985
2374 0 146.383 12.2555 1794 117.653 876.24 426.033
2375 0 152.35 14.0729 2144 115.398 875.972 423.21
2376 0 157.309 13.127 2065 116.887 874.694 423.878
2377 0 157.309 13.038 2051 135.784 873.716 423.87
2378 0 157.292 12.9695 2040 135.529 872.712 423.687
2379 1 171.206 14.3921 2464 119.661 874.936 411.295
2380 0 173.325 11.6833 2025 126.447 875.485 405.109
2381 0 179.295 13.2854 2382 124.732 874.882 400.726
2382 0 184.501 16.4932 3043 119.426 875.715 404.268
2383 0 191.552 18.6372 3570 117.571 876 393.197
2384 0 195.277 15.3167 2991 123.697 876.443 397.383
2385 0 199.418 14.4069 2873 125.988 876.46 391.849
2386 0 207.483 13.3794 2776 128.713 877.321 380.706
2387 0 214.654 16.5336 3549 122.755 876.601 388.426
2388 0 217.484 13.739 2988 128.842 878.339 384.413
2389 0 221.744 12.0454 2671 133.146 878.312 375.939
2390 0 230.601 16.8126 3877 126.439 878.195 365.906
2391 0 242.597 16.6737 4045 125.959 880.231 361.222
2392 0 247.37 12.9724 3209 133.531 879.859 356.821
2393 0 257.497 14.0312 3613 131.934 879.626 351.518
2394 1 319.718 13.1616 4208 130.975 881.76 350.374
2395 0 313.817 6.73323 2113 140.952 881.235 358.739
2396 0 314.667 9.0699 2854 137.666 882.633 348.068
2397 1 229.612 12.9479 2973 132.191 881.123 365.127
2398 0 237.696 10.261 2439 134.697 883.45 367.86
2399 0 247.935 13.5842 3368 130.136 883.663 364.763
2400 0 256.611 13.5536 3478 129.912 884.006 363.53
2401 0 266.627 16.5437 4411 126.233 883.851 358.687
2402 1 344.805 13.2365 4564 133.013 884.51 324.045
2403 0 343.616 10.6689 3666 138.775 884.08 314.646
2405 0 372.756 25.9339 9667 128.471 880.775 297.055
2406 0 321.596 18.1936 5851 123.061 881.509 326.215
2407 1 240.457 10.8502 2609 130.365 880.995 373.814
2408 0 250.467 15.9981 4007 124.075 881.917 380.331
2409 0 258.942 17.5986 4557 121.294 879.625 378.602
2410 0 268.574 17.0902 4590 124.594 879.799 351.06
2411 1 287.957 22.7743 6558 116.325 878.537 338.446
2412 0 290.816 15.4049 4480 127.279 878.864 342.411
2413 0 346.018 11.5688 4003 130.067 877.445 350.943
2414 0 339.629 11.9483 4058 133.216 876.986 330.249
2415 1 320.816 18.7397 6012 123.467 876.586 311.586
2416 0 339.898 28.4644 9675 109.546 874.775 301.276
2417 0 337.751 20.2279 6832 120.765 875.583 310.087
2418 0 342.969 18.8122 6452 120.569 875.574 328.475
2419 0 339.06 12.6143 4277 125.561 875.378 345.959
2420 0 363.054 17.0884 6204 123.433 875.246 286.826
2421 0 364.073 17.0433 6205 132.228 875.246 286.859
2422 0 178.421 14.5275 2592 115.504 875.349 405.886
2423 0 180.572 11.447 2067 121.417 875.581 400.031
2424 1 17.0143 6.64148 113 98.531 874.699 477.018
2425 0 17.0143 6.87657 117 87.812 874.615 476.94
2426 0 24.0381 4.70088 113 98.8938 873.814 480.566
2427 0 19.0128 4.62845 88 100.545 874.818 480.716
2428 0 22.0153 1.181 26 107.5 873.692 476.346
2429 0 15.0009 0.866616 13 109 875.923 475.308
2430 0 225.867 13.7337 3102 119.801 877.982 371.092
2431 0 230.225 12.5529 2890 121.657 878.512 365.36
2432 0 248.785 21.4161 5328 109.018 878.94 335.855
2433 0 239.646 11.0705 2653 125.723 879.547 350.011
2434 1 278.753 9.06897 2528 126.748 880.43 361.535
2435 0 276.719 10.1475 2808 120.281 880.931 381.356
2436 0 277.115 12.3631 3426 125.091 880.583 346.536
2437 0 274.839 12.3381 3391 127.564 882.1 328.426
2438 0 281.898 13.0934 3691 126.536 882.515 333.863
2439 0 293.881 21.5972 6347 113.789 882.863 322.199
2440 0 300.952 17.2154 5181 121.041 882.74 313.976
2441 0 314.265 21.3291 6703 115.681 883.417 303.114
2442 0 319.997 19.8908 6365 118.784 883.11 307.256
2443 1 28.0666 4.7031 132 103.561 881.553 482.508
2444 0 23.1237 6.27062 145 99.6483 880.462 484.848
2445 0 347.871 25.4261 8845 113.456 882.662 302.326
2446 0 355.245 17.3514 6164 125.776 882.24 301.947
2447 0 360.591 14.8284 5347 128.985 882.451 324.23
2448 0 363.088 9.63402 3498 131.702 881.67 350.49
2449 0 360.888 6.24017 2252 138.737 881.272 344.86
2450 0 357.708 9.07723 3247 135.648 880.042 338.454
2451 0 370.956 12.3411 4578 130.853 878.784 327.464
2453 0 38.1258 9.38996 358 103.128 879.573 488.707
2454 0 35.1356 6.77375 238 109.239 880.361 486.185
2457 0 48.3709 15.836 766 94.6514 873.58 481.569
2458 0 49.1279 24.1004 1184 87.3547 874.905 488.237
2459 0 51.639 17.8547 922 92.7202 873.51 480.161
2460 0 51.639 18.0096 930 128.544 873.494 480.176
2461 0 51.1316 14.3551 734 99.624 872.868 483.903
2462 0 51.3914 16.2284 834 96.8046 873.191 484.192
2463 0 47.0216 14.0148 659 103.895 872.859 478.578
2464 0 47.163 15.1602 715 102.779 872.467 480.281
2465 0 46.25 17.8378 825 101.332 872.379 476.182
2466 0 49.1265 19.9485 980 97.9071 874.003 477.58
2467 0 49.2034 15.0396 740 105.126 873.735 475.055
2468 0 55.1957 14.0591 776 104.572 874.442 474.903
2469 0 45.2481 12.774 578 111.817 874.599 475.725
2470 0 50.0559 15.4028 771 106.096 874.949 474.805
2471 0 51.3538 22.7052 1166 96.6792 876.017 473.004
2472 0 46.0543 14.7218 678 111.056 875.698 472.854
2473 0 48.1121 21.2836 1024 101.347 876.67 469.942
2474 0 44.0894 12.8149 565 116.943 877.027 474.527
2475 0 46.0875 19.7016 908 105.398 877.579 473.305
2476 0 51.575 31.1197 1605 91.5352 878.484 472.232
2477 0 47.0854 16.5232 778 110.181 879.154 472.761
2478 0 46.1186 15.8504 731 112.358 879.331 470.914
2479 0 46.1414 17.1429 791 110.121 878.583 473.241
2480 0 50.0811 17.1721 860 109.145 880.302 474.337
2481 0 47.0987 21.7203 1023 105.548 880.042 473.689
2482 0 46.3445 17.5857 815 112.701 882.202 473.483
2483 0 50.3488 18.0541 909 109.634 882.228 469.47
