time division length width area intensity CMx CMy
0 0 46.0873 17.098 788 113.668 359.079 474.511
1 0 46.0664 13.6325 628 121.291 358.011 477.932
2 0 49.2155 22.7977 1122 101.167 357.237 476.128
3 0 49.179 15.7994 777 114.619 355.692 475.138
4 0 50.1823 18.1538 911 112.599 355.569 478.02
5 0 51.1772 15.5538 796 117.729 354.94 475.886
6 0 52.085 16.4731 858 116.583 353.445 476.311
7 0 52.0651 13.9249 725 121.657 353.397 477.186
8 0 61.6965 17.9427 1107 109.662 351.114 478.539
9 0 57.1385 17.3613 992 113.276 350.493 474.643
10 0 57.2021 16.7302 957 115.136 349.995 473.537
11 0 58.2977 15.0606 878 117.675 350.29 473.274
12 0 58.1431 16.3734 952 116.907 349.575 471.146
13 0 61.1045 16.6109 1015 113.207 349.944 467.944
14 0 61.2483 16.2943 998 117.549 348.814 466.285
15 0 65.0882 25.258 1644 101.861 349.282 467.604
16 0 66.1926 21.9511 1453 106.379 349.195 464.999
17 0 68.0763 18.7877 1279 110.862 349.894 462.008
18 0 70.3376 16.6199 1169 113.598 350.275 462.796
19 0 73.2457 19.7964 1450 108.708 350.286 455.369
20 0 71.1213 13.02 926 121.69 350.164 454.433
21 0 77.1289 18.9683 1463 110.599 350.232 452.072
22 0 79.3101 16.3787 1299 111.577 350.821 452.601
23 0 79.2103 14.1269 1119 120.582 351.604 451.119
24 0 83.1514 13.8543 1152 120.409 351.959 449.123
25 0 86.1316 15.1744 1307 117.361 353.406 447.041
26 1 43.0619 14.305 616 114.906 353.183 465.841
27 0 45.2905 16.9351 767 108.611 354.362 469.189
28 0 47.1002 14.3099 674 113.99 355.221 465.211
29 0 52.2187 14.8031 773 111.639 355.882 464.127
30 0 51.0984 13.7382 702 112.788 357.631 462.759
31 0 52.1881 17.7435 926 108.208 356.49 463.682
32 0 50.065 14.621 732 113.805 356.616 461.964
33 0 55.103 11.8687 654 109.404 359.171 464.297
34 0 56.1541 15.0123 843 109.921 359.9 463.409
35 0 59.0576 14.0371 829 111.957 360.842 465.043
36 0 66.5435 15.9595 1062 106.132 359.273 463.993
37 0 62.3051 12.9684 808 113.512 361.693 462.984
38 0 63.0607 10.593 668 113.205 359.787 462.871
39 0 65.2033 12.0699 787 112.886 360.515 461.136
40 0 68.1379 13.4727 918 111.183 359.926 461.898
41 0 73.1424 17.8009 1302 106.719 359.846 459.548
42 0 76.0764 14.2225 1082 110.12 359.741 459.513
43 0 77.203 19.2868 1489 103.815 360.545 458.156
44 0 79.2372 14.3115 1134 110.529 359.25 458.894
45 0 82.2086 13.636 1121 125.189 359.391 458.692
46 0 86.0672 17.5212 1508 117.483 358.336 460.228
47 1 46.1332 11.5969 535 123.357 356.772 478.254
48 0 43.078 10.1908 439 126.062 356.569 479.816
49 0 46.0909 11.3905 525 121.213 355.152 477.326
50 0 48.1274 12.7786 615 123.356 355.028 474.338
51 0 52.1296 14.4639 754 118.548 354.365 477.094
52 0 54.2561 13.1782 715 120.936 353.671 474.771
53 0 56.1745 13.4225 754 118.796 352.492 474.598
54 0 58.0941 12.738 740 120.676 353.45 472.603
55 0 62.199 13.2156 822 119.504 352.747 469.78
56 0 64.187 15.4548 992 116.293 351.878 468.255
57 0 64.187 15.2679 980 130.929 351.893 468.124
58 0 65.131 11.7916 768 123.645 352.105 466.314
59 0 73.0997 14.8291 1084 117.224 350.289 465.394
60 0 73.1734 13.8028 1010 120.007 351.713 460.514
61 0 77.2688 15.2584 1179 118.154 351.238 458.99
62 0 80.3997 11.617 934 124.874 351.114 455.853
63 0 82.2342 13.2305 1088 123.798 349.879 453.232
64 0 85.0601 13.6021 1157 124.117 350.801 450.424
65 1 42.1441 11.6031 489 120.822 349.575 473.147
66 0 43.0513 10.2668 442 120.312 350.928 469.328
67 0 43.0739 13.4188 578 115.254 351.289 467.132
68 0 45.2006 11.46 518 117.716 352.541 468.236
69 0 47.031 10.6738 502 119.629 353.641 467.026
70 0 43.1699 7.22725 312 127.676 354.747 461.266
71 0 50.13 14.6818 736 114.386 354.663 463.443
72 0 52.0998 13.1287 684 116.083 355.386 462.42
73 0 57.1067 7.95003 454 122.469 355.52 459.361
74 0 57.1067 7.91501 452 132.838 355.484 459.354
75 0 57.1372 12.9338 739 111.882 356.566 464.476
76 0 62.1426 12.0368 748 115.81 357.135 461.209
77 0 65.0691 13.939 907 112.91 357.112 458.169
78 0 65.0846 11.5081 749 116.327 357.493 459.453
79 0 68.1107 13.5661 924 113.774 358.784 459.315
80 0 70.1814 11.741 824 117.409 360.04 456.678
81 0 70.4352 11.8833 837 117.544 359.361 458.775
82 0 75.16 12.5333 942 116.575 358.651 458.738
83 0 80.1758 13.8321 1109 114.034 359.527 458.675
84 0 83.1141 13.0904 1088 114.172 357.966 461.101
85 1 42.0807 9.45803 398 115.427 357.502 478.97
86 0 47.0639 14.5547 685 109.688 356.774 477.423
87 0 44.1137 10.1102 446 118.863 356.843 475.87
88 0 50.2425 12.8775 647 112.75 356.836 477.366
89 0 47.0787 10.5356 496 118.161 356.21 474.81
90 0 50.1289 13.3057 667 113.861 355.439 474.039
91 0 51.0794 10.2585 524 119.263 354.279 476.863
92 0 53.0322 9.0511 480 120.358 353.696 477.635
93 0 57.1142 12.6939 725 116.663 353.582 476.156
94 0 57.1442 11.1472 637 119.633 351.713 474.391
95 0 61.0906 13.1608 804 114.408 352.167 477.807
96 0 60.1219 15.2024 914 112.507 351.278 475.042
97 0 66.1309 13.0952 866 114.119 351.636 473.96
98 0 68.1008 14.4638 985 114.4 350.661 468.755
99 0 69.0668 11.9015 822 118.585 349.908 467.066
100 0 73.0935 13.2707 970 114.844 349.952 467.838
101 0 74.183 11.1211 825 121.128 350.145 463.699
102 0 78.0611 12.1059 945 118.497 349.201 460.642
103 0 79.0974 13.7425 1087 117.277 349.361 457.705
104 0 83.2921 12.7503 1062 119.49 348.307 456.944
105 0 90.1731 12.0102 1083 120.519 349.149 452.368
106 0 89.1867 13.0737 1166 119.888 349.503 448.334
107 0 92.1987 13.0588 1204 118.445 348.817 450.822
108 0 94.2182 13.7553 1296 118.052 349.327 445.901
109 1 50.0338 10.8527 543 115.705 350.956 468.468
110 0 53.0626 12.3628 656 113.974 351.008 464.431
111 0 53.1514 11.74 624 115.186 350.716 461.728
112 0 53.1514 11.74 624 119.926 350.716 461.728
113 0 56.0768 11.5912 650 114.531 351.626 462.511
114 0 58.1145 9.30922 541 117.702 353.009 461.738
115 0 58.2287 12.8974 751 114.305 351.931 461.048
116 0 63.1108 9.58632 605 117.813 352.916 459.678
117 0 63.0814 14.1722 894 112.686 353.4 457.103
118 0 66.2369 10.6587 706 118.068 354.467 459.055
119 0 70.121 10.5389 739 119.38 355.074 456.522
120 0 72.2714 12.5084 904 117.618 355.77 457.446
121 0 72.2238 15.9643 1153 114.533 356.445 452.709
122 0 75.4199 12.5166 944 119.267 356.457 458.579
123 0 78.4493 15.9848 1254 115.037 356.933 458.372
124 0 79.3016 11.3365 899 123.764 357.221 454.996
125 0 82.248 14.5171 1194 117.59 356.974 457.872
126 0 85.3153 13.3974 1143 120.079 357.647 454.145
127 1 132.438 12.3001 1629 124.51 357.594 441.942
128 1 89.1437 12.665 1129 122.891 355.757 454.31
129 0 92.0783 11.7074 1078 123.476 358.006 459.836
130 0 93.1373 12.401 1155 124.333 356.629 456.019
131 1 50.0936 12.8959 646 118.331 356.384 476.121
132 0 55.0713 14.9624 824 110.924 355.757 478.61
133 0 56.0854 12.998 729 120.532 354.078 476.927
134 0 57.0456 9.72905 555 126.121 354.73 478.002
135 0 62.3469 13.5211 843 119.141 353.195 475.596
136 0 61.1881 11.9141 729 125.155 352.907 473.609
137 0 65.1871 13.9445 909 117.923 351.524 475.688
138 0 64.2357 13.9019 893 118.866 351.947 474.614
139 0 64.1465 11.5205 739 122.007 350.261 473.392
140 0 68.1852 14.2113 969 116.412 350.698 473.011
141 0 71.1915 13.8219 984 115.51 348.351 471.368
142 0 74.1374 12.5982 934 117.66 348.078 468.55
143 0 76.2891 13.7503 1049 117.55 348.118 465.68
144 0 79.2878 13.2051 1047 118.401 347.562 464.672
145 0 79.1901 12.7036 1006 121.21 347.151 461.584
146 0 82.1708 11.7925 969 123.938 347.078 457.148
147 0 87.3293 13.5808 1186 120.063 346.461 457.118
148 0 89.1256 15.3828 1371 118.372 346.977 452.495
149 0 92.3107 14.137 1305 121.59 346.941 449.187
150 0 94.2387 12.5108 1179 124.611 346.703 447.497
151 0 95.1338 11.9516 1137 124.507 347.57 448.817
152 0 99.1625 14.4611 1434 121.211 347.496 439.849
153 0 103.101 14.8593 1532 119.234 349.179 442.777
154 0 104.165 13.1714 1372 122.344 349.09 439.862
155 0 108.217 14.7481 1596 118.023 348.395 434.108
156 0 106.16 11.1906 1188 123.012 349.55 433.816
157 0 113.37 10.7083 1214 122.638 350.264 436.475
158 0 122.166 10.1992 1246 122.242 350.696 437.327
159 0 124.271 15.9652 1984 114.485 351.228 430.016
160 0 124.232 11.9857 1489 121.474 352.833 424.481
161 1 71.1093 12.0519 857 115.564 351.372 456.833
162 0 74.2105 15.3482 1139 110.578 353.233 456.144
163 0 77.1013 13.6574 1053 113.662 352.824 454.219
164 0 78.229 12.6424 989 116.046 353.48 453.605
165 0 82.4096 11.8797 979 117.657 354.545 452.253
166 0 86.2111 14.5921 1258 113.52 356.15 451.498
167 0 86.2322 14.0203 1209 112.534 354.985 451.39
168 0 88.2259 12.1733 1074 116.17 354.824 449.937
169 0 91.1516 13.7463 1253 113.534 355.729 454.564
170 0 94.3047 12.5551 1184 115.883 356.428 453.079
171 0 98.3638 14.1312 1390 113.742 356.827 449.88
172 0 99.1866 11.433 1134 117.325 355.523 447.854
173 0 104.696 13.907 1456 110.426 354.955 460.632
174 0 106.316 12.8108 1362 116.001 355.003 452.116
175 0 110.408 13.2147 1459 116.27 354.67 456.101
176 1 60.38 11.262 680 118.024 353.319 470.506
177 0 61.2812 12.3692 758 119.058 352.712 471.325
178 0 62.2875 9.35983 583 133.542 352.482 473.828
179 0 67.0695 10.586 710 119.011 351.292 472.394
180 0 69.1159 13.0361 901 114.66 351.175 474.858
181 0 71.1258 13.0333 927 115.991 350.193 470.39
182 0 74.0694 12.6098 934 115.693 350.049 468.169
183 0 77.1686 13.9046 1073 113.881 348.602 468.689
184 0 81.1466 13.1983 1071 114.713 348.395 465.997
185 0 81.178 13.5628 1101 114.289 347.127 459.913
186 0 85.0952 13.432 1143 114.602 346.582 457.367
187 0 89.3722 11.6815 1044 118.761 346.742 458.377
188 0 94.3132 13.9747 1318 114.689 345.376 458.263
189 0 95.44 11.9656 1142 118.651 345.947 453.667
190 0 97.1059 11.7707 1143 115.178 344.954 451.252
191 0 102.213 14.2252 1454 110.648 345.149 443.546
192 0 106.146 14.5931 1549 110.609 345.95 443.297
193 1 54.1685 8.14126 441 112.701 344.719 469.853
194 0 55.176 15.9127 878 100.485 344.853 472.413
195 0 58.1135 10.6688 620 112.877 344.729 467.806
196 0 60.049 12.9727 779 110.729 345.538 463.038
197 0 62.17 10.6321 661 112.818 345.808 465.416
198 0 65.121 15.7553 1026 104.788 346.966 468.249
199 0 65.061 12.8649 837 110.584 347.24 459.367
200 0 66.0966 12.285 812 111.031 347.911 461.512
201 0 67.0971 10.373 696 115.739 347.045 458.684
202 0 70.0694 10.8464 760 115.895 348.049 455.945
203 0 72.0553 14.9191 1075 107.783 348.85 461.727
204 0 73.0892 14.2976 1045 111.199 350.565 453.916
205 0 80.3575 9.14662 735 117.528 350.857 454.414
206 0 83.0616 11.5577 960 113.862 351.793 456.445
207 0 83.1192 12.9332 1075 112.847 352.618 454.493
208 0 88.1879 14.4578 1275 112.3 352.494 455.146
209 0 88.2364 11.2992 997 118.173 354.719 457.365
210 0 92.2486 12.3145 1136 118.574 355.023 452.321
211 0 94.2634 13.579 1280 116.026 354.527 455.986
212 0 98.449 14.5558 1433 117.224 353.92 448.574
213 1 53.1384 14.6787 780 109.499 355.323 474.986
214 0 52.1167 12.6447 659 115.844 355.785 472.847
215 0 56.1575 12.4471 699 117.389 354.732 475.754
216 0 60.1165 14.1891 853 114.776 353.926 476.771
217 0 59.0819 10.3246 610 121.197 353.059 476.523
218 0 60.3232 12.6983 766 118.623 353.821 472.577
219 0 63.242 11.0686 700 120.91 353.421 476.274
220 0 66.2262 12.8952 854 117.617 352.868 473.829
221 0 68.2412 14.4048 983 114.523 351.554 476.347
222 0 68.2049 16.2745 1110 113.32 352.05 471.812
223 0 71.2255 13.8293 985 117.056 351.396 473.245
224 0 75.2581 15.7857 1188 113.875 349.106 466.966
225 0 77.1578 14.5546 1123 115.909 349.086 470.863
226 0 78.2267 13.806 1080 117.208 346.256 467.085
227 0 78.2267 13.7677 1077 145.201 344.266 467.004
228 0 86.235 14.1706 1222 114.404 345.288 467.286
229 0 88.2433 15.0833 1331 115.154 344.6 464.098
230 0 88.2433 15.038 1327 136.24 343.597 463.988
231 0 91.4381 14.7969 1353 116.481 344.036 455.668
232 0 94.4004 13.1355 1240 118.727 344.636 458.502
233 0 98.1203 14.2172 1395 118.376 343.465 453.082
234 1 51.0352 12.0309 614 116.166 344.112 475.764
235 0 55.0548 9.59044 528 118.93 344.278 474.688
236 0 57.1517 13.6654 781 110.333 343.615 475.492
237 0 55.4495 11.9749 664 118.229 344.124 469.69
238 0 58.1145 11.2192 652 118.219 343.064 468.417
239 0 61.1485 12.8703 787 113.961 344.311 471.264
240 0 62.0488 14.7465 915 113.115 343.733 466.324
241 0 61.103 13.8618 847 116.6 344.744 464.315
242 0 63.0822 12.4916 788 118.613 345.264 461.957
243 0 66.0797 10.9716 725 119.954 344.683 461.968
244 0 70.3368 12.3975 872 114.763 346.761 465.775
245 0 70.292 16.4599 1157 109.656 346.752 463.766
246 0 72.1185 11.4256 824 118.336 347.073 453.467
247 0 74.2915 12.5856 935 116.188 346.787 456.026
248 0 79.2084 13.2435 1049 115.928 347.866 452.539
249 0 80.3429 15.3965 1237 112.375 349.479 453.936
250 0 82.2574 13.6887 1126 117.484 349.671 448.933
251 0 84.1506 16.0664 1352 112.209 351.05 453.554
252 0 88.3411 14.5119 1282 114.526 352.341 448.836
253 0 89.2038 15.9971 1427 112.491 352.336 455.343
254 0 94.2027 15.1376 1426 115.215 353.055 448.752
255 0 97.2022 12.6952 1234 119.769 351.876 448.572
256 0 99.2951 12.8909 1280 122.638 352.005 448.787
257 0 104.291 14.0856 1469 118.165 352.572 451.75
258 0 105.267 13.993 1473 120.908 353.474 449.25
259 0 105.267 13.9645 1470 135.021 354.467 449.283
260 1 60.2911 13.1363 792 115.766 352.902 473.645
261 0 63.1798 16.4926 1042 109.938 351.627 477.09
262 0 65.1348 14.5851 950 113.982 352.264 471.579
263 0 66.2237 12.7296 843 118.332 351.96 472.332
264 0 68.1776 14.0369 957 115.68 350.731 471.511
265 0 71.1765 13.0802 931 115.4 350.763 473.751
266 0 71.1586 14.3342 1020 115.274 350.16 471.06
267 0 74.1739 14.3042 1061 115.769 349.834 467.789
268 0 77.168 13.8658 1070 116.48 348.68 467.895
269 0 79.1534 13.0759 1035 117.425 347.821 470.072
270 0 85.2654 13.5694 1157 115.401 347.101 467.692
271 0 85.1684 13.7727 1173 117.367 346.121 463.194
272 0 87.2646 12.4334 1085 119.823 346.082 459.484
273 0 91.1028 14.6867 1338 116.77 345.95 460.102
274 0 94.4385 13.6385 1288 119.366 345.172 456.028
275 0 96.2432 16.1154 1551 113.852 345.043 459.47
276 0 100.252 14.8027 1484 117.193 344.467 452.374
277 0 104.185 14.6278 1524 116.923 344.591 453.751
278 0 106.352 11.0952 1180 123.41 344.613 447.28
279 1 58.0876 14.0822 818 111.642 343.559 472.276
280 0 59.0831 12.5755 743 116.583 345.324 468.141
281 0 60.2487 12.382 746 115.543 344.56 467.125
282 0 61.179 11.687 715 118.764 346.11 462.145
283 0 62.0622 9.84496 611 121.73 345.722 463.622
284 0 68.2182 13.0903 893 114.777 347.208 463.441
285 0 66.193 10.5298 697 118.221 347.446 459.951
286 0 73.2388 11.9472 875 116.863 347.697 459.361
287 0 76.2296 15.5452 1185 111.96 347.586 453.49
288 0 77.2904 16.4703 1273 110.503 348.793 456.067
289 0 79.3798 14.4873 1150 113.796 349.98 454.255
290 0 83.1423 15.8644 1319 112.095 349.776 452.763
291 0 84.2049 14.3341 1207 114.669 350.21 452.978
292 0 89.1618 15.7242 1402 109.763 352.347 456.061
293 0 92.1668 12.3472 1138 116.496 352.798 446.38
294 0 95.2454 13.649 1300 115.193 354.248 443.995
295 0 101.359 15.0751 1528 110.678 352.672 448.562
296 1 51.1882 10.5493 540 114.709 354.47 471.544
297 0 52.0473 11.5856 603 110.637 355.763 470.975
298 0 52.0396 11.1646 581 110.403 354.991 468.174
299 0 53.1117 11.9748 636 109.605 354.75 471.333
300 0 55.3354 12.6682 701 111.037 355.444 467.669
301 0 59.3406 14.5769 865 107.765 355.076 467.309
302 0 54.3741 10.814 588 116.442 355.337 466.495
303 0 61.072 13.5578 828 108.785 355.373 470.106
304 0 64.1311 12.1158 777 111.713 355.185 468.332
305 0 65.226 9.76604 637 115.364 355.126 468.493
306 0 66.1776 11.2123 742 113.55 354.799 469.836
307 0 64.2053 10.8714 698 116.251 353.354 464.656
308 0 73.136 14.5209 1062 108.976 352.757 463.717
309 0 72.2323 10.66 770 113.697 352.669 468.758
310 0 81.5056 11.9624 975 114.305 351.862 469.187
311 0 82.3244 11.8555 976 115.173 351.529 462.995
312 0 82.4873 9.86819 814 119.057 349.803 460.398
313 1 44.3193 10.9433 485 111.86 348.604 483.831
314 0 45.0682 8.47604 382 111.382 350.5 481.497
315 0 43.0627 13.3294 574 112.423 351.653 485.213
316 0 48.2787 13.9606 674 105.635 348.344 477.614
317 0 48.0953 12.1425 584 107.404 347.493 475.591
318 0 50.2144 8.38404 421 112.392 346.696 473.28
319 0 53.1218 10.4477 555 108.741 347.029 473.613
320 0 51.138 9.60147 491 110.637 345.896 469.943
321 0 57.2682 18.4046 1054 97.0066 347.11 471.988
322 0 56.2354 11.0251 620 107.589 346.242 467.398
323 0 59.2065 10.7758 638 107.831 346.524 463.854
324 0 62.2255 23.6077 1469 92.9666 345.241 467.182
325 0 60.1889 9.81908 591 107.986 345.609 460.369
326 0 65.3707 15.481 1012 100.74 345.784 454.594
327 0 65.1592 14.4722 943 101.619 346.81 458.797
328 0 69.1385 14.5216 1004 102.085 346.657 454.757
329 0 72.124 11.6189 838 107.193 347.763 455.998
330 0 73.2084 10.313 755 107.673 346.842 456.962
331 0 75.2101 9.95876 749 107.985 349.728 455.16
332 0 84.264 17.196 1449 98.4099 349.053 451.485
333 0 82.1257 10.35 850 105.564 349.124 454.953
334 0 85.3202 12.834 1095 105.3 350.455 445.037
335 1 47.0717 13.0227 613 100.413 351.962 467.095
336 0 49.0799 12.1638 597 99.7806 353.918 467.705
337 1 96.6229 12.7506 1232 102.14 352.955 450.542
338 1 52.2543 14.8122 774 99.2765 353.506 464.386
339 0 53.0943 13.6738 726 100.22 354.883 468.563
340 0 52.3413 12.2465 641 104.278 355.473 467.115
341 0 54.0696 8.93293 483 108.487 356.197 463.59
342 0 55.0771 10.3491 570 104.093 354.523 471.507
343 0 57.077 14.9272 852 101.925 354.85 463.924
344 0 55.1732 8.95361 494 110.372 357.225 466.702
345 0 63.075 16.1554 1019 98.471 357.939 470.602
346 0 64.0976 12.871 825 105.279 357.592 462.385
347 0 63.1019 12.2659 774 105.786 357.174 467.065
348 0 67.0817 10.6437 714 108.403 356.776 468.073
349 0 67.2511 12.6689 852 103.316 356.257 471.262
350 0 70.1753 14.2643 1001 103.498 355.111 468.458
351 0 76.266 13.5316 1032 103.663 353.61 467.087
352 0 75.0639 13.6284 1023 106.059 354.33 460.041
353 0 77.4408 12.7065 984 107.185 353.09 459.623
354 0 78.3656 10.4382 818 110.749 353.01 458.714
355 0 85.5542 15.9782 1367 103.262 352.301 458.78
356 0 87.4022 12.105 1058 109.406 351.732 457.383
357 0 87.3189 11.6584 1018 111.273 351.08 455.769
358 0 94.594 14.2504 1348 105.055 351.234 462.341
359 1 48.2769 13.174 636 105.414 349.623 474.796
360 0 50.2626 13.5488 681 103.238 348.159 476.173
361 0 53.0338 15.179 805 103.446 348.728 476.57
362 0 57.3733 14.1704 813 108.102 348.535 470.876
363 0 57.3733 14.1529 812 122.246 347.526 470.89
364 0 61.4037 14.82 910 107.963 347 464.821
365 0 62.2945 14.6401 912 108.818 347.19 467.179
366 0 65.3676 13.7683 900 110.314 347.56 464.386
367 0 68.6028 12.7546 875 110.585 347.262 466.173
368 0 70.5252 14.2361 1004 110.376 347.23 460.742
369 0 72.3404 14.6253 1058 111.506 347.905 453.882
370 0 72.3404 14.5147 1050 145.79 348.901 453.753
371 0 76.2621 13.4929 1029 115.314 348.751 453.301
372 0 79.6508 13.7977 1099 113.252 348.06 453.814
373 0 82.4986 16.8245 1388 109.3 349.05 452.41
374 0 86.2338 15.8291 1365 112.22 350.417 446.99
375 0 87.2599 16.0555 1401 113.455 350.602 445.073
376 1 47.3111 10.8008 511 114.571 350.213 459.176
377 0 49.3573 11.1432 550 114.378 349.796 461.818
378 0 54.1463 14.0176 759 108.199 351.847 465.149
379 0 54.0957 14.7886 800 107.14 352.944 464.816
380 0 55.1345 13.6756 754 109.076 353.594 462.093
381 0 55.3816 10.5992 587 114.862 354.026 462.327
382 0 59.1797 14.1434 837 108.093 355.308 464.787
383 0 60.1303 16.1982 974 105.263 354.948 463.662
384 0 60.1646 15.5075 933 107.877 354.433 460.637
385 0 62.0925 13.3994 832 111.847 355.048 458.103
386 0 64.1382 12.4419 798 111.283 355.584 463.221
387 0 64.0629 10.0214 642 116.223 356.307 463.333
388 0 67.1456 12.6442 849 113.287 356.73 459.049
389 0 69.071 10.9308 755 114.909 356.803 464.302
390 0 75.1955 13.9902 1052 111.298 356.608 460.55
391 0 74.1127 12.6429 937 112.222 356.273 465.827
392 0 78.1376 16.9189 1322 107.805 356.19 457.962
393 0 80.2553 14.5037 1164 111.51 355.53 460.862
394 0 83.1444 12.6647 1053 114.517 353.886 459.908
395 0 83.1444 12.6286 1050 135.881 351.886 459.785
396 0 89.3142 16.8506 1505 108.009 355.2 461.17
397 0 91.1503 15.7432 1435 110.845 354.086 458.525
398 0 94.4875 12.7318 1203 114.165 352.417 457.587
399 1 53.2514 6.64771 354 118.675 351.559 479.065
400 0 53.2189 9.99645 532 115.938 350.632 475.077
401 0 55.135 12.1339 669 109.517 351.414 475.108
402 0 58.1147 12.8195 745 108.804 349.307 467.011
403 0 59.1088 12.0118 710 111.021 347.854 470.434
404 0 62.0686 9.71506 603 113.469 348.027 469.212
405 0 64.0842 13.0922 839 106.144 347.404 471.816
406 0 66.2261 12.0194 796 108.666 347.834 465.614
407 0 69.1142 12.4721 862 107.78 346.454 465.937
408 0 71.0936 10.6761 759 108.352 347.917 463.399
409 0 71.081 10.0167 712 111.233 346.442 454.923
410 0 77.1014 13.0088 1003 106.457 346.708 456.378
411 0 78.2396 10.9535 857 112.285 346.343 454.8
412 0 81.179 15.5336 1261 107.218 345.756 450.22
413 0 84.1454 14.0352 1181 109.229 347.102 451.874
414 0 86.3368 17.1306 1479 105.331 348.776 443.091
415 1 44.2779 11.9247 528 108.078 348.083 470.458
416 0 47.0568 12.453 586 102.638 348.824 468.268
417 0 48.2235 18.6009 897 98.6945 350.196 469.093
418 0 48.1367 12.6722 610 107.903 351.774 468.566
419 0 50.0401 13.1295 657 107.548 352.953 466.361
420 0 49.0442 11.5202 565 109.575 352.556 467.35
421 0 53.1157 12.9905 690 108.646 352.522 461.79
422 0 52.1109 7.21538 376 116.258 354.527 465.558
423 0 54.1145 7.31782 396 132.432 356.543 465.939
424 0 57.0855 18.8664 1077 101.596 355.089 461.187
425 0 57.0855 18.919 1080 110.674 354.069 461.126
426 0 61.0722 12.7554 779 110.196 356.533 463.955
427 0 64.1123 13.7415 881 109.791 358.25 461.229
428 0 66.0924 12.9213 854 109.944 357.315 460.855
429 0 69.1452 11.7868 815 111.199 357.05 461.561
430 0 71.0751 13.9852 994 108.483 357.566 461.99
431 0 72.1409 13.7093 989 109.776 356.475 457.705
432 0 75.1183 11.0759 832 113.933 357.269 459.609
433 0 77.1494 11.9379 921 114.055 357.265 458.656
434 1 38.0514 8.75132 333 114.616 356.769 475.201
435 0 43.0461 12.9396 557 106.251 355.987 478.136
436 0 48.0522 12.2159 587 108.767 355.169 476.545
437 0 48.1685 11.9995 578 109.67 355.455 476.552
438 0 49.1345 12.8016 629 108.385 354.479 475.118
439 0 50.1047 10.8972 546 110.645 355.375 477.32
440 0 53.2089 14.6404 779 105.483 355.809 478.974
441 0 52.1931 13.8524 723 107.718 354.451 478.069
442 0 55.0823 13.6523 752 107.517 353.221 476.934
443 0 54.2334 12.2065 662 109.668 352.249 476.011
444 0 57.1774 11.648 666 110.239 351.611 468.47
445 0 61.1625 14.1754 867 106.578 351.835 470.453
446 0 63.1467 13.3974 846 106.475 350.745 472.778
447 0 63.2817 10.8878 689 110.769 350.309 469.541
448 0 58.3006 8.35325 487 113.008 349.994 468.914
449 0 70.2303 11.4623 805 107.884 350.475 469.34
450 0 68.57 13.5045 926 106.765 350.397 462.972
451 0 73.1493 12.8641 941 108.528 349.148 461.346
452 0 73.2538 13.2826 973 108.107 348.585 460.617
453 0 77.5608 12.9963 1008 108.042 348.336 458.473
454 0 79.2559 14.0684 1115 107.327 347.532 458.626
455 0 82.2542 11.428 940 108.967 347.956 461.228
456 0 87.1685 11.4376 997 109.437 347.52 456.203
457 0 89.3746 11.4014 1019 110.887 349.049 449.18
458 0 87.2126 8.7946 767 114.774 348.692 450.605
459 0 94.4243 11.0777 1046 113.22 348.894 445.371
460 0 98.4616 11.6187 1144 112.402 349.331 448.81
461 0 103.117 12.704 1310 111.457 349.571 440.76
462 0 106.493 10.1885 1085 116.218 349.848 441.405
463 0 109.622 13.0996 1436 111.877 350.486 441.896
464 1 56.0753 10.9317 613 109.24 351.153 466.378
465 0 59.1718 12.8271 759 107.202 352.545 464.184
466 0 60.1123 13.5912 817 106.34 353.477 468.712
467 0 60.1106 10.6138 638 112.403 353.574 466.088
468 0 65.0822 10.8939 709 111.556 353.746 465.522
469 0 73.2575 12.5857 922 108.933 354.1 462.266
470 0 76.1495 14.6554 1116 104.441 354.658 465.769
471 0 74.165 13.5239 1003 106.623 355.565 458.182
472 0 77.0795 11.1184 857 111.028 355.461 461.1
473 0 80.1617 12.7492 1022 108.923 355.307 465.061
474 1 39.0923 9.02992 353 108.034 354.21 487.227
475 0 41.0726 11.0779 455 105.442 355.086 488.031
476 0 43.0572 10.9854 473 108.92 353.841 487.046
477 0 46.0869 10.9142 503 109.857 353.137 488.825
478 0 47.2532 10.285 486 112.564 352.829 488.85
479 0 50.1292 12.4079 622 108.383 352.561 490.363
480 0 50.265 12.4142 624 112.454 351.381 485.724
481 0 50.265 12.3744 622 141.69 351.4 485.887
482 0 52.1962 11.7825 615 117.102 350.379 483.899
483 0 55.2118 11.7547 649 116.644 350.448 487.2
484 0 57.1504 12.4059 709 117.137 347.994 481.449
485 0 57.1334 11.0443 631 118.81 348.019 486.192
486 0 59.2623 11.4407 678 119.944 347.475 482.757
487 0 64.1933 14.6744 942 113.418 346.762 480.375
488 0 64.1933 14.877 955 131.279 345.772 480.453
489 0 70.2698 14.1597 995 113.832 345.856 479.383
490 0 70.1045 14.4927 1016 112.694 344.296 476.45
491 0 74.2846 17.6079 1308 107.504 344.633 476.996
492 0 72.1129 14.0197 1011 114.823 344.719 473.228
493 0 76.2653 11.342 865 116.919 344.445 474.172
494 0 77.6284 14.1185 1096 113.584 343.051 470.536
495 0 78.0994 14.0206 1095 113.887 342.438 465.837
496 0 84.4769 12.8201 1083 113.431 342.645 468.123
497 0 87.3267 19.6389 1715 103.155 342.362 466.903
498 1 43.0628 12.3773 533 111.629 342.12 483.034
499 0 46.2142 15.32 708 108.956 341.202 478.048
500 0 47.3983 12.6587 600 111.985 344.302 476.652
501 0 51.1477 16.0515 821 104.491 344.177 479.268
502 0 51.0976 11.7422 600 110.073 345.023 477.07
503 0 53.266 12.9726 691 108.392 345.221 474.63
504 0 52.3034 13.5173 707 109.936 345.918 473.727
505 0 56.311 16.8173 947 105.766 346.861 469.556
506 0 61.8636 17.1506 1061 105.592 346.282 464.659
507 0 57.2382 14.2038 813 111.337 347.713 467.777
508 0 59.4104 14.3073 850 111.558 347.992 465.045
509 0 64.2894 16.7524 1077 105.011 348.844 466.936
510 0 64.2894 16.8924 1086 124.569 350.903 466.961
511 0 63.493 12.6943 806 112.774 350.954 462.337
512 0 66.4983 11.88 790 111.611 350.981 466.178
513 0 70.4203 14.0726 991 108.711 351.89 463.38
514 0 70.1704 14.479 1016 107.093 352.324 461.983
515 0 73.358 13.3728 981 107.38 352.705 464.527
516 0 76.474 15.4432 1181 105.577 353.503 464.059
517 0 77.3413 11.947 924 108.536 353.09 469.721
518 0 83.4989 15.3775 1284 106.421 353.776 465.207
519 0 85.6275 18.3119 1568 104.508 353.791 460.335
520 0 85.6275 18.3119 1568 122.781 352.791 460.335
521 1 46.239 11.4838 531 110.168 352.247 483.804
522 0 49.0922 12.2423 601 108.757 351.04 485.341
523 0 47.3847 11.2062 531 109.345 350.815 488.249
524 0 53.2606 20.4466 1089 99.0266 350.309 485.926
525 0 53.2847 14.1504 754 108.643 350.187 485.538
526 0 52.1857 12.3214 643 111.846 349.745 486.282
527 0 54.2039 13.9289 755 110.551 349.163 481.956
528 0 57.2233 13.6133 779 111.222 348.272 481.036
529 0 58.2114 14.4474 841 110.233 347.02 480.627
530 0 60.1875 13.4081 807 111.234 346.843 481.537
531 0 62.2594 13.7008 853 108.837 345.586 480.137
532 0 66.3812 14.0552 933 109.146 344.729 475.899
533 0 67.4474 15.1822 1024 108.156 342.69 476.733
534 0 70.2376 14.2516 1001 110.511 344.361 473.541
535 0 72.3632 15.5189 1123 108.057 342.99 472.268
536 0 74.373 12.4104 923 112.727 343.004 471.439
537 0 77.1698 16.6645 1286 107.289 343.265 464.59
538 0 79.2984 15.9902 1268 108.198 343.496 467.532
539 0 81.1811 14.0796 1143 110.479 343.656 465.925
540 1 43.1152 13.7075 591 107.137 342.244 484.785
541 0 45.2519 12.5299 567 111.028 341.638 482.194
542 0 46.242 12.1751 563 110.735 341.986 478.632
543 0 48.101 14.7606 710 106.713 342.611 475.5
544 0 50.2086 12.707 638 107.947 344.102 476.345
545 0 50.1754 11.3402 569 109.388 344.575 475.067
546 0 54.0845 17.4727 945 100.024 345.447 478.134
547 0 53.1069 12.0888 642 108.092 345.43 471.584
548 0 58.275 12.6641 738 106.382 346.648 471.175
549 0 57.0577 14.424 823 105.682 347.187 468.923
550 0 59.0713 12.5442 741 106.891 347.567 469.476
551 0 62.3844 14.619 912 103.614 348.839 472.851
552 0 64.0899 14.1988 910 104.957 348.145 470.151
553 0 63.092 15.8499 1000 126.927 348.208 469.366
554 0 66.1999 12.4169 822 108.585 349.839 466.802
555 0 70.3388 14.1174 993 107.033 350.003 465.948
556 0 72.3338 13.6312 986 108.109 351.371 465.688
557 0 74.1075 11.5643 857 112.134 352.222 461.552
558 0 80.4481 23.4064 1883 95.7122 351.858 468.167
559 0 81.2282 15.0317 1221 107.565 352.624 464.395
560 0 88.4032 20.5649 1818 97.7079 351.919 467.716
561 1 46.3212 12.4565 577 107.716 352.423 479.6
562 0 48.1274 13.1734 634 109.404 352.009 479.339
563 0 48.2324 11.9629 577 109.341 351.953 483.92
564 0 52.3483 15.4351 808 103.311 351.307 487.556
565 0 53.4191 14.6764 784 106.284 350.458 483.084
566 0 55.1373 13.1309 724 107.242 350.587 485.928
567 0 55.1853 14.9134 823 105.605 349.661 484.137
568 0 57.1243 15.1774 867 105.527 350.05 484.406
569 0 61.2154 13.477 825 106.147 348.628 486.558
570 0 61.2154 13.5097 827 134.55 347.623 486.599
571 0 63.1448 11.3865 719 110.953 347.715 484.626
572 0 67.2836 17.3891 1170 104.991 346.86 479.862
573 0 68.183 11.2345 766 115.149 346.719 475.089
574 0 69.0971 14.1395 977 111.216 345.969 477.122
575 0 72.328 13.5079 977 112.71 346.171 472.921
576 0 75.1666 13.9557 1049 112.648 344.067 469.921
577 0 76.189 15.9472 1215 109.923 343.886 469.104
578 0 78.2143 13.0027 1017 113.995 344.123 467.699
579 0 83.2464 14.0427 1169 110.696 342.305 467.913
580 0 85.2465 17.7485 1513 106.64 343.22 464.964
581 0 89.2551 18.195 1624 104.857 342.437 465.713
582 1 43.0787 12.2566 528 109.1 341.587 484.466
583 0 44.1759 12.2691 542 108.445 341.814 483.378
584 0 44.1759 12.2465 541 134.309 342.811 483.322
585 0 48.3281 16.2225 784 104.923 342.801 475.596
586 0 48.2948 16.8341 813 106.585 343.536 480.304
587 0 51.0366 13.5197 690 112.912 343.871 474.404
588 0 53.4481 14.5001 775 110.115 343.623 476.154
589 0 54.1455 13.593 736 113.803 344.577 473.042
590 0 55.2162 14.7058 812 110.751 344.438 477.266
591 0 58.2363 14.424 840 110.942 345.044 474.396
592 0 62.1674 18.981 1180 103.405 346.493 471.914
593 0 61.4494 16.7455 1029 108.31 346.173 469.377
594 0 63.2327 15.9411 1008 110.34 348.342 470.036
595 0 67.3529 12.828 864 113.686 349.02 469.323
596 0 69.3913 15.4919 1075 109.603 348.627 469.426
597 0 70.1867 13.4356 943 113.877 350.87 468.493
598 0 73.3561 18.1853 1334 106.349 350.769 470.056
599 0 76.3948 11.938 912 112.961 351.644 470.077
600 0 82.3001 18.1774 1496 105.36 352.27 466.736
601 1 44.1516 12.0268 531 109.034 352.102 486.606
602 0 41.0979 12.0931 497 112.149 351.006 483.243
603 0 45.2477 13.2603 600 110.788 350.607 485.053
604 0 45.1241 13.762 621 111.216 351.359 484.839
605 0 46.2873 11.6663 540 114.826 351.465 485.674
606 0 47.2301 15.0328 710 110.708 351.054 485.345
607 0 49.1801 11.7934 580 114.884 349.021 487.888
608 0 52.1491 12.5793 656 115 350.067 484.308
609 0 53.1997 19.2294 1023 104.862 349.933 486.924
610 0 54.181 11.9784 649 116.131 348.738 485.858
611 0 53.0434 11.8582 629 118.638 348.946 482.817
612 0 57.0708 11.915 680 117.556 348.99 485.572
613 0 60.2449 16.9309 1020 108.743 348.661 489.298
614 0 60.1718 12.5806 757 119.709 348.016 482.877
615 0 65.2866 13.7394 897 115.945 346.627 483.674
616 0 67.1831 17.9807 1208 109.893 346.399 479.712
617 0 66.1169 12.7653 844 119.85 345.448 477.832
618 0 68.3319 12.0588 824 120.898 345.303 480.796
619 0 74.1489 13.1492 975 120.363 344.223 473.745
620 0 75.2436 14.1274 1063 119.163 343.729 474.26
621 1 37.1446 12.8955 479 120.576 343.111 490.501
622 0 41.0969 11.5337 474 121.101 343.325 490.04
623 0 40.1385 13.2541 532 120.773 343.002 485.43
624 0 43.0772 13.9053 599 119.624 342.634 485.963
625 0 44.0604 12.9822 572 121.767 342.449 483.913
626 0 47.1991 13.7503 649 119.855 342.502 483.128
627 0 46.0403 13.7488 633 122.112 343.112 479.784
628 0 48.1018 13.0349 627 124.231 343.928 479.646
629 0 52.087 14.1686 738 120.774 342.988 479.369
630 0 52.2396 13.5912 710 121.724 344.037 473.713
631 0 54.1222 13.7836 746 121.496 343.617 476.386
632 0 56.2332 13.5685 763 122.573 345.742 473.864
633 0 53.1005 13.3709 710 123.908 345.4 471.592
634 0 58.1132 14.2997 831 121.274 346.692 469.284
635 0 64.0825 14.0756 902 119.397 345.52 468.217
636 0 65.2337 14.3637 937 119.934 348.35 465.527
637 0 68.1261 15.2218 1037 116.227 346.718 463.143
638 0 70.0278 13.6232 954 117.18 347.72 459.682
639 0 71.1131 14.1887 1009 116.33 348.325 459.19
640 0 74.2592 12.5776 934 117.344 349.74 462.127
641 0 75.2711 12.9399 974 118.549 349.565 459.165
642 0 78.3083 12.9744 1016 118.743 350.622 461.178
643 0 80.2903 17.7356 1424 113.051 350.262 456.712
644 0 80.3189 13.3094 1069 119.331 351.037 459.67
645 0 86.2454 15.3863 1327 116.525 350.518 457.295
646 0 87.367 13.0713 1142 120.78 351.063 459.86
647 0 85.2751 12.5828 1073 122.917 350.457 458.825
648 1 40.11 9.47394 380 113.6 350.434 485.532
649 0 39.111 8.30968 325 131.498 351.412 484.323
650 0 47.1603 11.3019 533 110.415 349.415 481.362
651 0 49.1465 13.7955 678 106.156 350.137 481.516
652 0 47.0632 15.8935 748 105.441 349.825 481.214
653 0 48.1074 8.91755 429 115.916 350.121 479.336
654 0 51.1102 13.0307 666 109.459 349.833 482.763
655 0 52.0331 10.5702 550 114.773 347.953 480.516
656 0 51.2142 6.59974 338 120.429 348.009 481.577
657 0 57.1019 13.4847 770 110.127 348.286 481.634
658 0 56.0702 9.77347 548 114.044 345.681 480.914
659 0 60.1542 12.1853 733 111.689 346.322 479.629
660 0 63.0935 10.952 691 115.855 345.67 476.101
661 0 65.0757 9.2354 601 116.686 344.692 476.138
662 1 33.0424 5.75019 190 111.479 344.879 492.074
663 0 36.0805 9.20164 332 108.94 345.75 491.88
664 0 36.0931 4.59921 166 116.373 344.301 491.801
665 0 40.1033 11.5951 465 104.505 343.923 489.288
666 0 39.111 7.0824 277 117.921 343.957 484.451
667 0 39.1129 12.1188 474 110.612 343.973 483.262
668 0 39.2124 8.31369 326 117.061 343.617 482.426
669 0 44.1899 10.7717 476 114.889 344 479.342
670 0 47.1805 12.2508 578 111.983 345.088 478.519
671 0 47.1296 13.4523 634 111.981 344.681 475.038
672 0 48.2102 7.96513 384 116.38 344.659 478.352
673 0 47.1347 10.4382 492 115.268 345.205 473.685
674 0 50.2078 11.2333 564 114.652 344.824 472.339
675 0 47.2774 8.67222 410 119.429 346.244 468.039
676 0 53.2364 11.0639 589 112.649 346.28 468.703
677 0 55.1556 8.35818 461 116.076 347.672 469.423
678 0 55.1556 8.32191 459 121.174 348.656 469.492
679 0 56.161 8.20855 461 117.23 348.616 462.727
680 0 59.1638 8.12997 481 115.647 349.686 464.191
681 0 70.3821 10.8124 761 112.352 349.92 462.33
682 0 68.1891 8.88706 606 112.795 349.95 462.969
683 0 67.2215 9.44639 635 112.387 349.843 460.849
684 0 70.2367 4.84077 340 119.941 351.712 459.238
685 0 72.2152 8.97318 648 116.003 351.532 462.489
686 0 75.339 8.29584 625 118.229 351.643 468.437
687 0 78.2599 11.3851 891 114.561 350.559 463.738
688 0 77.3523 10.5491 816 119.543 351.066 464.961
689 1 116.51 13.1491 1532 119.177 351.608 452.497
690 0 117.64 13.9663 1643 118.965 351.404 447.355
691 0 123.416 8.91298 1100 125.383 350.527 448.488
692 0 126.29 9.68409 1223 125.095 351.253 447.526
693 1 223.049 10.0471 2241 131.17 350.304 403.73
694 1 89.5641 8.2734 741 121.865 350.364 466.491
695 0 93.6587 8.91535 835 119.503 349.29 470.269
696 1 147.543 10.9731 1619 122.429 350.632 439.136
697 0 147.551 9.94231 1467 125.008 349.848 436.245
698 1 321.913 14.8456 4779 130.527 349.741 344.622
699 1 294.934 4.6146 1361 130.022 348.328 429.091
700 0 293.658 2.27135 667 127.738 347.168 457.103
701 0 295.81 6.66645 1972 131.25 346.299 405.945
702 0 295.621 10.7908 3190 131.95 346.434 367.106
703 0 301.244 11.5289 3473 131.516 346.209 352.827
704 0 303.34 7.47346 2267 129.297 345.768 397.684
705 0 301.908 6.36949 1923 126.057 344.581 423.045
706 0 300.746 6.80974 2048 133.502 344.699 371.304
707 1 70.1629 10.7464 754 113.017 343.894 474.08
708 1 39.0085 9.89529 386 117.104 342.583 488.251
709 0 41.0408 10.4774 430 113.616 341.972 489.977
710 0 36.1271 9.63266 348 110.81 343.698 493.193
711 0 42.1507 10.2015 430 110.495 342.414 489.7
712 0 42.3854 11.6078 492 110.413 343.524 487.144
713 0 42.3115 10.1627 430 113.409 341.3 485.828
714 0 41.1895 11.0708 456 112.719 343.235 485.296
715 1 79.2041 9.2672 734 120.109 341.734 465.281
716 0 83.3842 13.3598 1114 114.724 344.025 464.694
717 0 88.7104 14.1246 1253 112.165 343.009 465.532
718 0 89.6436 12.3489 1107 114.986 343.489 465.144
719 1 52.2135 9.88251 516 113.946 343.36 482.504
720 0 54.2144 10.4954 569 111.772 345.617 484.921
721 0 57.1578 7.34807 420 115.302 345.595 484.398
722 0 58.4038 10.1192 591 113.836 346.32 480.025
723 0 58.1822 14.0077 815 108.638 347.351 475.783
724 0 61.1956 12.2394 749 112.368 348.109 474.069
725 0 61.1956 12.2068 747 119.095 349.111 473.9
726 0 64.3285 11.1926 720 116.953 348.193 470.349
727 1 34.0638 11.2142 382 113.398 349.301 489.686
728 0 36.0638 13.0047 469 110.126 349.93 490.399
729 0 35.042 12.271 430 112.6 350.974 487.251
730 0 36.1741 8.92904 323 117.201 350.495 491.43
731 0 40.0284 10.5925 424 115.722 351.314 489.509
732 0 36.0351 12.0161 433 116.4 350.709 490.062
733 0 40.1832 10.6263 427 115.487 351.295 494.541
734 0 38.1695 10.2962 393 119.567 351.341 491.888
735 0 40.0889 9.4041 377 121.061 350.424 492.788
736 0 39.1174 11.8362 463 117.218 350.395 493.285
737 0 40.0783 10.2799 412 121.272 349.35 492.558
738 0 43.1092 11.6217 501 118.764 349.587 491.341
739 0 45.2955 11.1711 506 119.038 348.783 493.247
740 0 46.0638 14.697 677 112.783 349.038 492.044
741 0 46.1864 11.2587 520 115.754 347.231 495.452
742 0 50.1256 9.77543 490 117.62 347.42 494.055
743 0 52.1748 13.4739 703 112.943 346.607 489.688
744 0 54.247 13.2911 721 112.759 344.792 490.931
745 0 54.1462 12.4478 674 115.258 345.441 488.717
746 0 60.1796 9.57135 576 119.25 345.804 486.306
747 0 59.2321 10.4335 618 119.539 345.303 483.953
748 0 61.126 12.9568 792 116.591 346.25 481.612
749 0 58.2078 11.7854 686 122.749 345.198 481.937
750 0 68.0907 12.1749 829 119.049 345.339 480.261
751 0 68.194 11.9952 818 121.172 344.634 473.784
752 0 70.2122 11.921 837 119.68 344.573 474.082
753 1 36.0159 11.2173 404 119.042 343.109 486.98
754 0 38.0439 14.3518 546 111.264 345.211 491.608
755 0 38.0376 10.253 390 118.467 344.895 485.477
756 0 38.0873 9.95083 379 118.744 344.588 486.058
757 0 42.0233 12.7548 536 112.797 345.873 484.92
758 0 42.1622 14.2545 601 111.912 346.072 483.153
759 0 42.1826 13.7735 581 113.112 346.516 482.807
760 0 42.0673 11.5054 484 116.698 345.736 483.767
761 0 45.0616 12.494 563 115.124 347.597 481.307
762 0 45.1549 11.2723 509 118.035 346.64 479.819
763 0 49.2325 11.4355 563 114.394 348.453 482.282
764 0 49.1709 15.3546 755 108.702 348.148 476.836
765 0 52.2004 12.8543 671 114.11 349.073 475.824
766 0 52.0685 12.2147 636 115.98 349.502 474.291
767 0 57.2303 11.4799 657 116.591 349.979 472.816
768 0 57.2401 16.2823 932 111.077 350.158 471.113
769 0 58.1119 12.6824 737 119.062 350.323 472.316
770 0 60.1536 12.7839 769 118.107 351.081 473.185
771 0 63.1284 13.5755 857 116.271 351.758 469.581
772 0 67.3767 13.3577 900 119.052 351.439 471.717
773 0 68.179 12.0125 819 120.63 351.832 472.206
774 0 72.3496 12.8128 927 118.406 352.18 475.364
775 0 71.3135 12.0594 860 121.317 352.521 471.041
776 0 73.1582 11.687 855 120.588 351.711 474.596
777 0 76.214 13.2522 1010 119.15 351.229 471.483
778 0 79.2748 11.9206 945 121.098 351.18 470.094
779 0 80.2652 12.4961 1003 119.301 350.944 467.579
780 0 84.2256 15.2092 1281 114.276 352.22 470.074
781 0 87.2024 12.0868 1054 117.159 351.182 472.319
782 1 44.0352 9.40157 414 117.374 350.254 493.483
783 0 47.0602 13.2809 625 110.534 349.515 489.429
784 0 50.0561 13.6846 685 108.92 349.492 489.698
785 0 49.139 10.9282 537 109.408 348.495 492.104
786 0 51.1519 13.4697 689 108.242 348.065 488.268
787 1 103.44 10.5761 1094 119.921 348.323 463.516
788 1 53.2132 12.0083 639 109.049 347.394 488.228
789 0 55.1295 13.4411 741 108.49 346.972 483.981
790 0 58.3074 16.0872 938 102.051 346.012 482.899
791 0 60.1834 12.3124 741 108.049 346.081 479.661
792 0 61.2926 13.3784 820 106.846 344.322 475.012
793 1 127.392 13.4938 1719 113.972 345.397 446.946
794 1 271.1 10.9443 2967 117.781 346.17 401.296
795 1 70.2078 14.8986 1046 106.613 343.612 470.268
796 0 71.3155 12.662 903 109.817 344.249 470.554
797 0 77.3586 15.6673 1212 106.725 344.94 467.568
798 0 77.1914 15.2737 1179 108.588 344.935 466.79
799 0 80.2266 13.1502 1055 111.021 345.538 467.112
800 0 83.1941 13.0298 1084 111.5 345.152 463.175
801 0 84.238 10.4822 883 115.79 345.938 464.443
802 0 86.4033 11.4926 993 115.621 345.6 460.608
803 0 87.1792 12.1933 1063 112.829 345.484 456.48
804 0 87.3503 13.7034 1197 110.094 345.758 458.793
805 0 91.2291 15.7187 1434 102.499 347.043 465.367
806 0 92.1582 7.8886 727 118.292 347.391 457.583
807 0 95.2088 11.0704 1054 113.076 347.304 456.644
808 1 154.539 16.8825 2609 111.057 350.143 424.083
809 1 51.3027 12.8648 660 106.93 350.027 476.852
810 0 54.1258 12.7666 691 108.838 350.389 470.46
811 0 55.2436 11.9471 660 110.111 351.261 475.044
812 0 56.3078 12.9112 727 110.259 351.136 471.315
813 0 57.0502 13.6722 780 110.127 351.433 470.974
814 0 61.1156 13.9408 852 107.756 352.988 474.642
815 0 61.1906 9.88714 605 113.316 352.124 474.906
816 0 64.1872 14.3954 924 108.528 352.924 471.578
817 0 66.1329 13.4275 888 110.676 352.176 472.679
818 0 68.2666 12.6416 863 112.284 352.62 472.238
819 0 72.1972 14.2526 1029 110.82 352.947 473.622
820 0 71.1569 11.7346 835 117.701 353.144 469.725
821 0 74.2506 14.1952 1054 114.548 351.976 470.472
822 0 78.2577 13.6344 1067 115.044 352.713 469.163
823 0 78.2263 11.4667 897 119.235 350.624 473.417
824 0 82.1962 12.5432 1031 119.333 352.356 467.359
825 0 85.4299 12.3025 1051 119.038 350.501 470.723
826 0 88.2196 14.0332 1238 116.364 350.434 470.722
827 0 90.2309 11.127 1004 123.066 349.347 464.591
828 0 92.3728 16.2385 1500 115.239 349.573 464.889
829 0 97.2598 13.4691 1310 118.934 348.563 462.589
830 0 97.254 11.7939 1147 122.105 348.306 462.867
831 0 99.2604 12.7342 1264 120.295 347.74 454.459
832 0 104.206 10.8919 1135 122.359 347.583 457.202
833 0 108.277 13.5486 1467 117.877 347.077 454.155
834 0 110.144 11.0673 1219 123.072 346.354 447.58
835 0 117.251 13.9871 1640 117.667 346.463 449.871
836 1 58.0745 13.2072 767 112.364 345.708 482.053
837 0 58.0692 11.2797 655 117.976 345.553 474.055
838 0 61.1912 14.0543 860 113.793 345.929 474.23
839 0 67.3616 16.7158 1126 107.213 345.881 475.139
840 0 66.4306 13.9845 929 111.321 344.783 475.244
841 0 67.1208 11.8443 795 116.303 345.375 468.786
842 0 70.2468 11.9436 839 114.3 345.277 465.298
843 0 73.4518 12.1168 890 113.662 345.472 467.648
844 0 76.1755 12.0117 915 113.364 344.892 462.09
845 0 79.1486 13.8474 1096 109.229 346.557 459.813
846 0 82.2739 14.3302 1179 109.235 346.948 456.968
847 0 84.3811 11.6495 983 110.96 346.925 458.477
848 0 85.1546 14.1625 1206 109.176 347.702 453.925
849 0 89.2744 16.8917 1508 104.145 347.562 458.175
850 0 91.1133 11.9302 1087 111.675 349.377 454.854
851 1 47.0644 11.8774 559 106.818 349.338 475.336
852 0 47.0521 10.6053 499 109.365 351.317 476.559
853 0 51.0562 13.1032 669 104.679 350.154 474.214
854 0 53.1292 14.3047 760 102.813 352.175 474.047
855 0 55.1156 11.485 633 106.722 351.171 475.408
856 0 53.1114 8.99995 478 110.722 352.18 475.268
857 0 56.1065 12.7971 718 106.699 352.911 473.577
858 0 56.1116 10.2831 577 108.073 353.555 478.347
859 0 59.0895 10.2556 606 110.224 353.926 475.919
860 0 65.1887 16.3525 1066 102.037 354.342 475.225
861 0 62.1026 8.37323 520 115.156 353.608 476.321
862 0 67.1342 11.2014 752 114.077 353.558 473.956
863 0 71.118 11.952 850 112.504 353.791 474.025
864 0 77.1802 16.6364 1284 104.859 353.192 473.288
865 1 43.0279 11.4577 493 109.546 351.75 489.15
866 0 45.0458 14.0302 632 106.343 352.038 489.386
867 0 40.0908 11.7234 470 112.489 352.14 490.598
868 0 43.089 10.2346 441 113.585 351.179 491.542
869 0 43.0457 8.2935 357 115.207 350.373 494.818
870 0 45.0518 11.0761 499 112.545 350.515 491.174
871 0 48.1015 11.7876 567 112.548 350.067 488.69
872 0 47.1005 10.743 506 116.781 348.536 489.008
873 0 51.1225 10.6998 547 116.329 348.108 489.022
874 0 52.1879 14.1604 739 109.654 347.789 487.984
875 0 53.1012 12.7116 675 113.708 347.726 486.956
876 0 55.1276 11.6457 642 116.886 347.858 481.914
877 0 56.2072 11.6533 655 117.769 346.411 478.878
878 0 58.1497 11.264 655 119.064 347.087 479.879
879 0 60.2266 13.5654 817 115.315 346.435 478.829
880 0 64.1521 14.6527 940 112.961 346.673 477.73
881 0 65.2356 13.2136 862 116.928 346.478 476.552
882 0 68.3053 12.3709 845 118.801 346.475 476.622
883 0 71.2249 17.6764 1259 111.771 345.868 468.299
884 0 73.2008 15.1501 1109 117.876 346.175 467.797
885 1 37.0215 12.8034 474 121.101 345.131 485.498
886 0 40.1205 14.3318 575 116.805 345.664 484.539
887 0 41.0744 11.7835 484 124.814 346.322 484.159
888 0 42.1155 11.1123 468 127.594 346.175 482.109
889 0 45.0287 12.0812 544 124.45 347.024 480.879
890 0 42.0899 11.8793 500 123.718 347.964 481.27
891 0 46.0448 12.401 571 122.107 347.93 479.876
892 0 44.068 11.1646 492 125.648 349.429 478.868
893 0 47.0954 12.9737 611 122.583 349.383 476.239
894 0 48.2201 12.5881 607 120.735 349.699 477.46
895 0 49.0617 14.5327 713 117.959 350.933 475.401
896 0 51.094 11.1363 569 122.575 351.374 478.086
897 0 53.1541 13.4326 714 120.091 351.42 472.889
898 0 56.1766 13.0125 731 118.646 351.737 475.488
899 0 55.1406 14.1638 781 119.434 352.425 472.469
900 0 59.1076 13.6023 804 119.971 352.954 474.622
901 0 59.1336 13.6978 810 120.877 353.109 469.625
902 0 59.1978 11.3011 669 126.218 353.664 475.091
903 0 64.4026 14.782 952 121.856 353.794 473.798
904 0 66.2278 11.6718 773 127.709 353.684 474
905 0 68.2588 13.0533 891 124.499 353.485 472.309
906 1 33.0116 10.4206 344 126.491 352.477 489.695
907 0 37.0757 12.488 463 121.508 352.311 492.015
908 0 38.0681 11.6633 444 123.482 352.252 490.115
909 0 35.2703 10.6038 374 126.794 352.168 491.016
910 0 38.1471 11.9799 457 122.055 351.593 493.101
911 0 41.0404 10.3556 425 123.762 351.828 494.362
912 0 40.0246 12.917 517 120.439 351.592 492.54
913 0 42.0262 10.2317 430 123.686 350.481 491.5
914 0 44.0451 14.9392 658 114.182 349.76 491.515
915 0 44.0633 13.753 606 116.47 349.152 491.677
916 0 45.1353 11.8311 534 118.125 348.436 488.77
917 0 51.2044 16.2877 834 108.152 347.838 489.942
918 0 50.1243 14.2645 715 113.845 346.063 486.72
919 0 49.0369 11.1549 547 118.709 347.144 486.603
920 0 54.066 12.4662 674 114.838 346.377 487.274
921 0 54.1343 17.4935 947 108.605 347.409 482.587
922 0 52.0823 8.56336 446 123.843 346.63 481.657
923 0 58.1084 14.559 846 113.72 346.104 481.507
924 0 59.1858 13.8716 821 114.773 346.52 478.199
925 0 62.0209 14.9788 929 113.718 345.724 475.629
926 0 62.1416 10.5404 655 121.882 345.002 474.802
927 0 65.2301 11.7584 767 119.348 346.241 472.87
928 0 66.109 13.4475 889 116.758 346.866 471.124
929 0 70.189 13.5634 952 115.767 347.17 470.025
930 0 70.2253 12.1181 851 118.799 346.866 467.613
931 0 74.1098 13.5475 1004 115.108 348.748 466.017
932 0 76.285 11.4833 876 114.886 348.296 469.228
933 0 81.1367 15.061 1222 111.119 348.734 460.813
934 1 41.0249 12.3827 508 113.591 348.071 478.006
935 0 47.2077 11.3117 534 111.682 349.139 478.094
936 0 44.0503 14.0294 618 112.694 349.696 475.11
937 0 47.0468 12.0093 565 116.407 351.559 477.892
938 0 49.1714 13.8088 679 110.894 351.215 475.725
939 0 48.0979 11.4974 553 115.15 351.62 476.029
940 0 50.1493 11.1467 559 114.218 351.621 478.524
941 0 52.0866 13.3624 696 112.546 352.582 471.444
942 0 54.1418 13.5755 735 112.824 353.113 473.688
943 0 54.128 11.1033 601 117.043 353.504 475.674
944 0 56.1281 11.4916 645 117.009 353.533 476.434
945 0 60.0755 11.9849 720 116.411 353.421 474.362
946 0 62.1745 12.6258 785 115.032 353.136 474.312
947 0 62.1916 11.6093 722 117.807 353.73 474.247
948 0 64.182 11.0623 710 119.554 353.386 471.751
949 0 65.1588 11.2648 734 121.241 353.556 473.059
950 0 72.1103 12.3283 889 118.575 353.107 472.252
951 0 74.1378 15.0396 1115 113.983 353.127 471.529
952 0 79.1888 13.4615 1066 115.876 352.766 472.129
953 1 41.0468 10.5976 435 116.271 350.31 492.248
954 0 41.1274 10.2365 421 118.584 350.333 489.836
955 0 45.0523 12.6742 571 114.208 349.196 491.525
956 0 44.1088 10.8595 479 113.486 349.468 491.591
957 0 42.0717 9.88788 416 116.526 349.303 490.877
958 0 49.17 11.3484 558 109.9 348.154 489.468
959 0 48.3461 12.9483 626 107.158 347.722 491.192
960 0 52.2414 13.0931 684 106.48 346.852 487.232
961 0 52.1546 11.1975 584 107.498 347.175 491.49
962 0 54.1715 11.3528 615 111.26 347.15 487.215
963 0 55.2596 13.5361 748 108.952 348.493 484.858
964 0 59.1232 13.0575 772 107.641 346.966 485.298
965 0 64.2301 5.41802 348 115.379 346.178 492.828
966 0 64.2301 5.54257 356 134.244 346.154 492.567
967 0 63.2051 15.2994 967 106.239 346.273 481.463
968 0 66.1383 13.1543 870 110.224 346.122 478.201
969 0 68.0741 14.7633 1005 109.872 346.187 474.235
970 0 71.1476 12.6217 898 113.34 345.516 474.999
971 0 75.5623 14.0017 1058 110.83 346.432 469.976
972 0 73.0978 13.8718 1014 113.209 345.747 464.192
973 0 76.1089 12.2719 934 114.623 346.678 465.303
974 0 78.1053 15.9016 1242 108.977 347.41 466.159
975 0 82.3279 16.0092 1318 108.582 347.652 463.646
976 0 84.3077 14.4234 1216 115.682 348.464 459.224
977 0 86.1603 10.5617 910 121.957 348.238 460.256
978 1 48.0519 13.7143 659 107.936 347.657 480.991
979 0 46.0413 11.3811 524 114.702 349.225 474.859
980 0 46.0413 11.3377 522 131.441 350.247 474.835
981 0 52.0601 14.5025 755 107.848 351.317 473.056
982 0 53.1453 14.1875 754 105.801 351.832 476.416
983 1 104.234 10.6107 1106 119.31 351.58 448.547
984 1 55.0591 11.0064 606 111.827 352.45 477.645
985 0 57.238 12.5441 718 110.451 352.588 475.485
986 0 58.1279 8.05121 468 116.355 352.797 477.301
987 0 61.2431 11.0216 675 119.459 352.987 471.313
988 0 66.2296 14.5856 966 111.546 354.175 472.297
989 0 67.4736 11.7379 792 122.473 353.965 468.787
990 0 69.2053 11.5165 797 120.3 354.044 474.738
991 0 73.2553 15.7668 1155 115.279 354.377 472.889
992 0 76.2917 12.6357 964 117.832 353.492 476.144
993 0 72.3687 10.3498 749 124.722 353.882 471.33
994 0 81.4414 15.0169 1223 115.099 353.772 473.508
995 0 83.4505 14.9789 1250 115.068 353.476 473.475
996 0 85.1934 12.2662 1045 121.024 352.327 473.592
997 0 87.4611 10.9191 955 124.698 351.116 467.171
998 0 90.2888 11.8509 1070 122.886 351.346 473.066
999 1 46.0934 10.3269 476 123.336 350.588 492.233
1000 0 49.0935 11.4272 561 121.087 349.77 491.052
1001 0 49.0813 12.7747 627 117.563 348.089 488.721
1002 0 49.0586 11.4761 563 121.535 348.448 489.382
1003 0 49.0586 11.3945 559 129.054 349.433 489.352
1004 0 49.0784 10.9824 539 122.006 348.516 488.084
1005 0 46.133 9.36422 432 124.13 346.194 489.56
1006 0 53.0384 10.351 549 125.406 347.137 484.98
1007 0 55.0831 11.8185 651 120.714 346.998 484.072
1008 0 57.0752 10.8979 622 121.994 346.807 484.638
1009 0 56.0541 10.0617 564 125.014 345.766 479.942
1010 0 60.0551 10.9733 659 120.873 346.211 479.918
1011 0 61.1078 11.5043 703 121.179 346.455 477.418
1012 0 67.1856 10.791 725 120.992 345.334 476.421
1013 0 66.0734 13.2277 874 119.211 345.974 473.133
1014 0 67.1116 11.995 805 121.927 345.004 470.52
1015 0 71.101 11.9267 848 122.803 346.202 466.9
1016 0 75.0444 15.5908 1170 115.316 347.483 465.393
1017 0 76.1293 11.5461 879 121.843 346.866 464.853
1018 0 79.104 12.3508 977 120.256 347.255 462.98
1019 0 82.0851 13.8758 1139 120.254 347.543 461.639
1020 1 43.0726 11.2136 483 118.7 348.65 480.899
1021 0 44.1406 12.211 539 119.304 349.573 475.716
1022 0 48.1769 11.8937 573 121.223 350.127 477.679
1023 0 47.1523 10.3919 490 121.349 349.735 479.896
1024 0 47.1565 12.2571 578 119.574 351.211 479.324
1025 0 48.1224 10.7642 518 120.672 351.786 477.048
1026 0 49.1475 9.72583 478 122.479 351.73 476.592
1027 0 54.1161 13.8221 748 116.012 352.757 475.378
1028 0 55.0967 11.3619 626 119.345 351.551 476.369
1029 0 56.0459 11.4549 642 122.089 353.413 473.427
1030 0 57.1442 9.29227 531 125.038 353.868 477.06
1031 0 59.1426 10.5677 625 121.28 352.52 478.461
1032 0 59.1426 10.4662 619 133.38 350.546 478.418
1033 0 63.2883 14.4102 912 117.754 353.664 477.028
1034 0 65.2027 16.6251 1084 114.896 354.408 477.807
1035 0 65.0827 14.1666 922 120.76 353.646 478.953
1036 0 69.1119 14.9757 1035 119.649 353.537 478.026
1037 0 72.0883 13.3864 965 124.467 352.459 476.959
1038 1 40.1437 10.1884 409 130.012 353.02 494.562
1039 0 38.02 11.4414 435 130.563 351.257 492.89
1040 0 38.0281 10.9393 416 131.704 350.325 492.286
1041 0 43.0447 13.7996 594 125.635 350.249 492.221
1042 0 41.1075 12.6741 521 124.777 349.9 493.873
1043 0 42.0213 12.2557 515 125.287 349.893 494.802
1044 0 44.0453 9.8535 434 129.408 349.009 495.311
1045 0 42.1577 10.7216 452 130.015 348.064 491.588
1046 0 44.0709 11.4134 503 127.722 347.64 493.342
1047 0 46.1878 13.0121 601 124.687 347.732 490.517
1048 0 49.0591 13.392 657 124.035 346.381 487.863
1049 0 49.0383 10.3389 507 131.308 345.769 488.389
1050 0 52.069 14.9225 777 122.857 345.641 484.667
1051 0 54.05 14.1351 764 122.872 344.482 482.673
1052 0 55.1372 14.1828 782 123.146 345.211 482.258
1053 0 56.1286 13.665 767 124.694 344.958 480.515
1054 0 57.1143 13.4117 766 125.627 345.243 481.85
1055 0 60.0972 14.4266 867 124.304 345.552 478.76
1056 0 62.1744 14.7167 915 122.868 345.608 476.989
1057 0 65.1587 13.1372 856 124.935 344.974 473.94
1058 0 69.2181 15.7907 1093 119.551 345.035 470.693
1059 0 68.1306 13.9732 952 124.47 345.935 469.691
1060 0 72.204 14.8468 1072 123.73 346.188 468.566
1061 0 74.2222 13.8638 1029 125.206 347.108 468.595
1062 1 40.1553 9.98622 401 128.88 346.763 484.806
1063 0 41.1148 13.3285 548 123.774 347.401 483.286
1064 0 38.106 13.2787 506 126.476 347.808 482.239
1065 0 41.154 11.8579 488 127.805 348.76 480.531
1066 0 42.1007 15.2254 641 120.256 348.906 480.011
1067 0 43.0487 13.8912 598 124.478 349.734 479.077
1068 0 46.0457 14.0296 646 122.147 350.105 480.666
1069 0 44.0567 13.3918 590 125.803 351.025 479.347
1070 0 47.1437 13.7664 649 125.709 351.79 476.988
1071 0 45.0668 12.4704 562 129.687 351.97 479.737
1072 0 50.1954 13.6467 685 124.877 352.581 481.825
1073 0 47.1002 12.3354 581 131.346 352.842 480.974
1074 0 52.0649 17.5166 912 118.177 353.743 481.021
1075 0 52.1678 14.0508 733 125.869 354.209 480.45
1076 0 56.1624 16.5591 930 120.06 353.163 480.244
1077 0 57.0944 13.3463 762 127.15 352.869 480.495
1078 0 57.0874 12.4546 711 131.188 353.398 481.527
1079 0 59.1046 11.0313 652 133.729 353.11 480.348
1080 0 63.2226 13.9033 879 128.052 354.05 480.184
1081 0 64.0958 13.277 851 131.663 351.915 479.376
1082 0 63.0936 12.6796 800 149.792 349.932 478.634
1083 0 72.149 14.9552 1079 124.989 351 477.622
1084 0 74.154 14.5373 1078 125.191 351.502 477.698
1085 1 40.031 12.4903 500 123.848 349.562 495.42
1086 0 41.0704 10.0559 413 127.734 350.029 496.419
1087 0 42.0198 13.4461 565 123.865 348.678 493.896
1088 0 43.0513 12.5664 541 127.018 348.782 491.832
1089 0 44.0704 15.7022 692 118.412 347.15 492.069
1090 0 46.1703 12.0207 555 122.692 346.847 492.971
1091 0 45.0776 11.8906 536 123.644 346.66 491.802
1092 0 47.0318 11.2477 529 124.571 345.822 489.904
1093 0 49.1163 12.0123 590 124.244 345.093 487.147
1094 0 51.1348 14.4129 737 118.965 344.977 485.668
1095 0 50.1321 11.729 588 124.16 344.578 486.218
1096 0 54.207 11.3823 617 122.211 345.052 484.598
1097 0 54.1439 12.9654 702 122.019 345.1 480.868
1098 0 59.1552 12.9997 769 120.196 345.51 483.082
1099 0 62.0581 14.0514 872 118.854 344.511 478.745
1100 0 61.1717 12.6692 775 122.613 345.015 475.57
1101 0 63.1759 13.3279 842 121.938 345.348 474.537
1102 0 69.3206 14.7864 1025 117.839 345.94 472.812
1103 0 69.1962 12.1539 841 122.434 345.957 472.373
1104 0 69.3429 12.878 893 121.29 345.438 466.391
1105 0 73.1907 12.1873 892 121.413 346.34 467.411
1106 1 39.0419 12.1408 474 114.479 346.424 486.827
1107 0 40.086 11.9743 480 115.883 347.581 482.958
1108 0 42.1587 12.3818 522 111.812 346.743 483.902
1109 0 43.1357 11.29 487 115.61 348.433 481.296
1110 0 45.0779 11.3581 512 114.811 348.986 481.16
1111 0 47.0561 14.0046 659 110.707 349.284 478.036
1112 0 44.0149 8.92879 393 119.667 348.941 482.02
1113 0 49.0411 11.7656 577 114.669 349.272 479.132
1114 0 51.1091 10.4482 534 117.418 349.421 479.082
1115 0 51.0177 10.1141 516 118.696 351.062 479.269
1116 0 54.095 12.0898 654 115.87 351.283 473.324
1117 0 55.1333 11.0278 608 118.194 351.701 475.676
1118 0 59.1921 12.6199 747 114.566 350.987 473.53
1119 0 59.2014 10.7092 634 118.131 351.539 474.634
1120 0 61.0902 9.28135 567 120.915 351.914 476.788
1121 0 66.1225 12.5071 827 116.42 351.37 475.637
1122 0 66.1225 12.5525 830 121.464 350.329 475.82
1123 1 37.042 9.39474 348 120.466 350.376 493.684
1124 0 35.0434 9.10299 319 121.981 350.893 492.392
1125 0 40.0381 10.4151 417 119.458 349.753 492.448
1126 0 39.0266 10.1982 398 120.193 349.065 490.543
1127 0 42.0206 10.2093 429 117.918 348.343 492.329
1128 0 39.0307 9.22351 360 115.161 349.614 497
1129 0 43.0792 9.88877 426 114.167 348.326 495.627
1130 0 43.1557 12.5128 540 110.841 347.048 495.281
1131 0 41.1402 11.1327 458 113.175 346.011 494.611
1132 0 39.0355 7.19857 281 120.669 346.342 497.299
1133 0 44.0835 8.64269 381 119.892 345.47 489.827
1134 0 51.0815 10.1407 518 115.22 346.098 493.174
1135 0 47.0747 9.49555 447 116.606 344.051 492.488
1136 0 49.0469 9.43994 463 117.907 344.389 490.175
1137 0 50.0818 10.0835 505 116.741 342.871 490.156
1138 0 51.1155 9.80132 501 118.794 342.756 487.623
1139 0 56.054 17.1085 959 107.043 343.136 485.506
1140 0 55.2273 10.2486 566 118.708 343.134 482.461
1141 0 57.0956 11.3144 646 116.72 341.85 480.822
1142 0 60.2214 13.9984 843 113.756 343.734 478.473
1143 0 60.4483 11.8448 716 118.448 343.493 475.334
1144 0 65.2868 12.4834 815 117.216 343.477 476.307
1145 0 68.4022 13.9177 952 116.049 343.559 472.024
1146 0 72.1769 13.1344 948 116.035 343.52 473.987
1147 0 67.187 10.5824 711 127.55 344.113 468.174
1148 0 73.1855 13.131 961 121.616 344.738 465.305
1149 0 75.3075 12.9868 978 121.93 344.034 462.415
1150 1 39.0442 9.22031 360 124.483 345.764 483.644
1151 0 39.0898 10.1049 395 122.403 346.106 479.246
1152 0 43.0813 11.5131 496 114.853 346.56 482.407
1153 0 41.1103 13.1597 541 113.044 348.736 481.664
1154 0 43.1287 12.1265 523 114.302 348.233 481.193
1155 0 43.0843 12.3247 531 115.808 349.469 479.158
1156 0 45.2318 11.7616 532 116.429 348.944 481.188
1157 0 47.0652 12.812 603 116.272 349.315 480.483
1158 0 46.0867 13.084 603 116.325 350.449 482.066
1159 0 48.138 13.2743 639 117.29 350.124 480.477
1160 0 48.159 11.6489 561 122.07 352.184 480.455
1161 0 51.0502 10.7933 551 123.33 352.091 481.695
1162 0 54.0983 13.993 757 118.384 352.602 480.07
1163 0 55.3079 13.0361 721 121.646 351.135 480.266
1164 0 54.1019 12.5504 679 123.006 352.352 479.96
1165 0 60.1243 14.2039 854 119.57 351.311 478.971
1166 0 60.184 14.4889 872 120.394 351.192 482.365
1167 0 60.1771 10.037 604 130.884 350.77 479.767
1168 0 62.1321 11.8457 736 127.182 350.609 481.688
1169 0 64.163 12.5306 804 126.071 349.99 482.98
1170 0 68.1482 15.4516 1053 121.213 349.926 480.182
1171 0 70.1526 14.3259 1005 125.146 348.429 479.985
1172 0 71.1706 12.6878 903 127.508 348.434 482.691
1173 0 73.1381 12.9344 946 129.406 346.728 476.59
1174 0 76.1496 14.1038 1074 126.079 346.105 478.967
1175 0 77.2697 15.0123 1160 124.93 346.165 477.386
1176 0 77.156 12.222 943 133.206 346.419 472.482
1177 1 44.0578 11.031 486 126.996 345.082 493.346
1178 0 44.0324 10.9692 483 129.155 344.331 490.126
1179 0 46.1288 12.2483 565 128.573 345.297 488.391
1180 0 48.0724 11.7531 565 129.223 344.747 488.356
1181 0 51.0532 13.5545 692 127.35 343.504 484.939
1182 0 51.1703 11.5497 591 130.296 344.519 487.792
1183 0 53.128 14.7568 784 125.628 344.389 481.761
1184 0 55.089 12.5433 691 130.032 343.773 484.777
1185 0 57.1621 13.9778 799 128.089 343.247 482.827
1186 0 57.2292 12.6858 726 133.541 343.559 479.018
1187 0 58.1003 13.9931 813 132.584 343.022 475.139
1188 0 61.0607 12.2665 749 133.162 343.551 474.833
1189 0 64.1821 13.711 880 129.032 344.536 475.778
1190 0 65.1364 14.7844 963 127.805 344.327 471.631
1191 0 69.285 12.3548 856 129.966 344.396 473.02
1192 0 69.1759 12.2008 844 130.557 345.803 471.46
1193 0 72.0925 14.8559 1071 127.266 346.487 466.538
1194 0 72.1474 10.4508 754 134.172 347.072 467.723
1195 0 76.2325 13.918 1061 128.579 347.819 464.005
1196 0 78.2076 11.8914 930 131.849 347.639 463.539
1197 1 42.1735 9.15267 386 132.142 348.031 478.57
1198 0 46.0335 11.7089 539 125.02 349.076 481.059
1199 0 40.0419 8.54105 342 132.348 348.728 480.254
1200 0 45.1571 12.1354 548 126.949 350.245 479.927
1201 0 49.0617 12.8614 631 124.929 350.978 477.624
1202 0 49.1373 12.4549 612 127.725 351.982 478.828
1203 0 51.3354 12.9151 663 128.296 352.534 476.33
1204 0 52.0971 11.6705 608 130.442 353.053 478.724
1205 0 52.2321 12.4636 651 128.676 352.055 479.098
1206 0 54.1624 12.8318 695 128.809 352.744 477.327
1207 0 59.1228 13.3113 787 126.9 353.732 479.543
1208 0 60.1676 12.6812 763 128.316 352.687 478.537
1209 0 62.1602 12.3069 765 129.984 352.75 478.939
1210 0 62.1124 12.2037 758 131.168 351.108 478.127
1211 0 62.1631 9.98984 621 134.375 351.49 481.549
1212 0 67.4007 14.1987 957 125.411 350.812 479.088
1213 0 70.1571 13.1562 923 125.477 350.447 480.481
1214 0 73.1292 12.0745 883 127.513 349.452 474.941
1215 0 73.14 12.9204 945 126.388 349.507 478.505
1216 0 77.1678 11.5203 889 128.818 348.133 474.044
1217 1 41.1294 9.55522 393 126.066 345.644 494.57
1218 0 43.0255 12.8064 551 120.407 345.739 493.557
1219 0 44.0839 11.7503 518 125.143 345.645 490.848
1220 0 46.1082 11.6465 537 126.812 344.603 488.624
1221 0 48.0866 13.6213 655 120.759 344.997 490.695
1222 0 46.0462 13.443 619 118.346 344.289 488.994
1223 0 47.1858 13.3303 629 117.178 345.359 489.653
1224 0 48.0547 12.1528 584 119.235 343.783 488.308
1225 0 49.0938 10.6531 523 123.675 343.285 482.937
1226 0 49.2038 10.8528 534 124.717 343.596 482.59
1227 0 53.0578 14.5502 772 117.268 343.88 482.06
1228 0 56.0554 11.0962 622 123.55 344.548 480.886
1229 0 57.1585 13.5413 774 120.211 344.348 480.401
1230 0 57.1697 11.4571 655 124.435 345.008 472.985
1231 0 57.2413 10.7964 618 125.956 344.393 475.49
1232 0 60.1895 9.75254 587 126.516 345.67 478.446
1233 0 60.2167 12.6709 763 118.44 346.629 474.743
1234 0 62.3916 11.6202 725 126.859 345.789 468.11
1235 0 66.1757 13.7513 910 123.788 346.877 465.059
1236 0 70.3899 14.2634 1004 121.573 348.433 466.198
1237 0 74.4258 13.0466 971 122.099 347.799 464.678
1238 0 74.3704 11.4696 853 125.947 349.127 464.081
1239 0 78.3003 11.6347 911 126.825 349.336 460.738
1240 0 81.5065 11.0298 899 127.056 349.813 461.738
1241 1 48.0971 13.0985 630 119.133 350.943 478.132
1242 0 48.0536 11.9658 575 123.037 350.711 476.678
1243 0 47.1752 10.514 496 123.544 351.073 479.115
1244 0 51.0732 11.6304 594 121.396 351.131 478.675
1245 0 52.0795 11.8665 618 122.618 351.811 476.337
1246 0 54.3499 12.1067 658 120.643 352.454 479.568
1247 0 54.3186 12.1505 660 124.453 353.465 477.952
1248 0 58.3796 13.8918 811 118.772 353.126 478.959
1249 0 57.3629 12.8132 735 122.321 353.653 476.797
1250 0 57.6229 12.7206 733 122.719 352.894 476.84
1251 0 59.4133 10.4017 618 126.044 353.529 478.806
1252 0 62.2442 11.2139 698 124.304 352.245 476.132
1253 0 65.3399 10.1316 662 125.924 352.949 478.82
1254 0 68.3315 11.7515 803 121.696 352.137 480.956
1255 0 69.3269 9.07296 629 125.811 352.679 479.499
1256 0 73.48 13.718 1008 118.373 351.292 475.934
1257 1 41.1525 10.0358 413 123.104 351.32 498.632
1258 0 39.0706 9.54682 373 124.705 350.099 494.314
1259 0 39.0983 7.80085 305 130.613 349.928 491.502
1260 0 43.2412 11.2624 487 123.577 349.107 491.593
1261 0 46.187 13.5752 627 117.884 348.27 490.742
1262 0 45.2063 10.3083 466 124.59 347.131 491.305
1263 0 46.2516 11.4158 528 124.509 347.303 486.131
1264 0 48.1723 11.2928 544 124.428 346.719 484.164
1265 0 49.2444 12.3669 609 122.355 346.578 484.197
1266 0 53.2708 11.2069 597 123.102 345.573 483.628
1267 0 55.0787 14.5247 800 115.999 345.022 482.619
1268 0 55.0405 14.2622 785 116.334 345.106 475.814
1269 0 57.3464 12.4332 713 120.233 343.842 477.802
1270 0 61.1239 17.7999 1088 108.257 344.301 480.607
1271 0 61.1587 12.1814 745 119.489 344.031 474.161
1272 0 62.2491 10.4259 649 123.801 345.307 473.442
1273 0 65.1258 12.0536 785 119.245 345.089 469.633
1274 0 67.1226 13.0954 879 116.233 345.259 470.837
1275 0 69.1414 11.961 827 120.796 345.387 470.854
1276 0 72.115 13.5617 978 115.748 345.97 466.059
1277 0 72.1518 12.737 919 117.694 347.016 466.76
1278 0 74.2782 12.2243 908 117.907 346.258 463.585
1279 0 75.0883 12.9714 974 117.393 346.972 459.934
1280 0 77.1563 10.8222 835 121.479 347.46 459.893
1281 0 83.2807 13.0282 1085 117.692 348.93 457.425
1282 0 83.1311 9.94814 827 122.457 349.383 460.836
1283 0 83.1311 9.94814 827 133.105 349.399 460.873
1284 1 40.008 6.82363 273 125.96 349.524 480.703
1285 0 44.1077 10.6104 468 120.085 351.9 480.726
1286 0 45.2476 11.3376 513 121.534 352.68 478.828
1287 0 47.1032 12.2072 575 116.336 353.254 480.132
1288 0 45.1142 11.7036 528 117.894 353.742 479.996
1289 0 47.0954 11.2538 530 119.892 353.711 481.194
1290 0 47.1661 12.4454 587 118.521 353.939 480.394
1291 0 50.0689 11.1047 556 118.514 353.923 485.478
1292 0 53.1777 13.0694 695 116.94 353.57 483.597
1293 0 53.0841 11.3217 601 120.737 354.537 484.479
1294 0 51.0391 9.03229 461 126.746 353.748 484.473
1295 0 55.2546 11.8542 655 122.426 353.076 480.508
1296 0 55.2546 11.9447 660 126.595 352.121 480.579
1297 0 62.2407 10.7486 669 121.867 352.097 481.782
1298 0 64.1881 12.9307 830 120.096 351.963 479.992
1299 0 66.1048 11.8297 782 122.151 352.436 483.005
1300 0 70.2118 13.972 981 117.476 350.739 479.673
1301 0 72.2294 14.7862 1068 116.964 349.978 480.914
1302 0 75.1405 13.6943 1029 118.707 348.015 479.216
1303 0 77.1806 12.7364 983 118.932 346.684 477.937
1304 0 78.0996 10.9091 852 122.38 346.413 478.13
1305 0 85.1537 10.5104 895 122.32 346.265 477.65
1306 0 83.2057 12.403 1032 119.548 345.443 473.828
1307 0 87.1341 12.957 1129 119.389 345.105 467.69
1308 1 48.2003 13.9626 673 117.896 344.642 488.092
1309 0 51.3078 12.5712 645 119.388 344.617 488.439
1310 0 50.2667 12.1353 610 117.556 344.611 486.344
1311 0 51.0398 11.4812 586 118.71 343.821 483.747
1312 0 54.1504 12.65 685 117.666 344.477 480.771
1313 0 54.1466 14.0914 763 114.664 343.152 476.478
1314 0 54.1466 14.0914 763 129.176 341.152 476.478
1315 0 60.162 11.5355 694 117.399 343.857 476.316
1316 0 58.1775 9.88355 575 121.36 344.643 477.05
1317 0 62.3117 13.1115 817 115.521 344.288 469.862
1318 0 65.0835 14.4737 942 114.089 344.89 469.998
1319 0 65.183 14.0988 919 115.896 344.695 468.294
1320 0 68.0371 13.2722 903 116.377 347.508 472.759
1321 0 70.0728 14.3993 1009 115.775 345.734 468.384
1322 0 72.201 14.0857 1017 117.594 346.703 466.159
1323 0 75.0822 15.4497 1160 114.719 347.489 464.228
1324 0 77.206 13.8202 1067 119.329 348.206 463.484
1325 0 80.0943 13.1845 1056 121.757 349.949 461.084
1326 0 82.1146 11.9711 983 122.903 349.215 464.567
1327 0 84.257 13.2333 1115 123.971 350.42 460.168
1328 0 88.1622 12.7719 1126 125.456 351.564 454.306
1329 0 89.1351 12.4642 1111 125.677 350.569 459.843
1330 0 93.2362 14.0074 1306 123.087 351.276 460.145
1331 1 182.599 12.3495 2255 125.518 351.639 425.494
1332 1 52.1 13.1094 683 118.855 352.312 483.719
1333 0 52.0947 11.6711 608 122.947 350.602 480.977
1334 0 54.0563 10.896 589 124.742 352.353 481.737
1335 0 57.1366 12.2163 698 127.741 352.411 481.115
1336 0 59.1264 12.634 747 126.636 352.85 481.57
1337 0 61.1143 14.2847 873 124.066 351.241 479.963
1338 0 60.0929 10.75 646 132.511 351.471 478.969
1339 0 65.0992 13.057 850 127.098 351.554 479.528
1340 0 66.1896 11.603 768 129.221 349.892 480.785
1341 0 69.0914 13.6631 944 124.625 349.408 481.132
1342 0 72.0534 12.7128 916 127.111 349.623 480.465
1343 0 74.0928 14.6573 1086 123.597 348.1 477.579
1344 0 77.0739 14.7651 1138 123.527 348.169 475.088
1345 0 77.2065 11.4498 884 130.869 346.233 476.706
1346 0 81.0677 13.5072 1095 127.425 346.575 474.048
1347 1 155.377 12.8848 2002 132.967 345.314 434.661
1348 0 164.259 13.3265 2189 129.171 346.263 439.452
1349 1 90.1643 13.2536 1195 126.202 344.318 468.359
1350 1 50.0395 10.152 508 126.433 343.87 486.179
1351 0 48.0832 11.7089 563 125.881 343.666 484.169
1352 0 52.059 12.2745 639 124.477 343.394 483.351
1353 0 53.0777 11.2288 596 127.742 343.416 481.997
1354 0 55.0361 12.0103 661 126.489 342.555 479.567
1355 0 55.0547 12.2969 677 127.857 344.445 478.013
1356 0 57.1615 13.4181 767 124.793 344.043 477.117
1357 0 60.1026 11.68 702 128.218 345.137 474.907
1358 0 62.1681 13.6565 849 123.539 344.176 473.901
1359 0 62.1681 13.6404 848 143.792 343.202 473.763
1360 0 68.1465 14.2781 973 122.549 345.061 465.803
1361 0 69.0941 14.4875 1001 121.162 345.757 465.648
1362 0 72.122 13.2692 957 122.995 347.043 465.563
1363 0 69.0999 10.9407 756 126.336 347.02 465.664
1364 0 77.1075 14.9272 1151 118.794 348.081 462.432
1365 0 82.2648 12.9825 1068 121.996 348.51 460.182
1366 0 83.1624 12.4095 1032 122.478 349.781 459.312
1367 0 84.2459 9.65032 813 127.354 350.745 458.058
1368 0 89.2491 11.8657 1059 122.199 350.408 456.478
1369 0 88.3402 9.80301 866 127.633 350.852 455.535
1370 1 46.0676 9.07361 418 119.675 350.995 476.799
1371 0 47.1256 11.5436 544 115.669 351.349 475.754
1372 0 49.1093 11.4642 563 115.249 352.16 474.673
1373 0 52.105 12.9546 675 112.333 352.138 477.049
1374 0 51.0783 10.435 533 115.069 353.332 479.698
1375 0 54.1172 13.1751 713 111.439 352.142 478.755
1376 0 52.1442 11.1422 581 115.864 353.274 478.697
1377 0 55.074 10.6584 587 118.291 352.232 475.516
1378 0 59.2319 10.7206 635 117.49 352.065 477.759
1379 0 60.2139 11.3429 683 115.755 350.928 481.802
1380 0 60.1348 10.7259 645 119.322 352.336 478.865
1381 0 62.1332 10.4292 648 120.707 351.676 477.352
1382 0 64.2819 10.7029 688 120.968 351.499 477.407
1383 0 65.2006 13.7882 899 116.367 350.372 477.063
1384 0 65.089 8.18879 533 126.944 350.165 472.405
1385 0 70.1178 13.3347 935 118.185 349.168 474.463
1386 0 66.213 9.33351 618 125.93 348.277 472.066
1387 0 73.2793 12.8822 944 120.075 346.322 471.552
1388 0 76.1798 13.0481 994 118.25 346.631 475.788
1389 0 75.1722 9.11241 685 126.609 345.864 473.061
1390 0 81.2303 10.8088 878 121.795 345.554 474.336
1391 0 84.3647 15.6226 1318 115.385 345.638 469.401
1392 1 42.025 12.326 518 115.469 344.784 489.82
1393 0 44.0737 11.095 489 117.773 344.81 488.558
1394 0 44.0813 10.5487 465 120.058 344.469 487.783
1395 0 46.0994 12.3863 571 117.271 343.674 483.291
1396 0 48.0398 13.4888 648 116.613 344.498 485.218
1397 0 47.1065 10.4656 493 122.588 343.862 481.01
1398 0 49.0922 11.7534 577 119.277 344.354 480.057
1399 0 51.1339 10.2476 524 122.477 343.971 478.586
1400 0 54.1348 12.358 669 118.747 344.534 475.182
1401 0 57.3017 16.1077 923 110.971 344.916 476.293
1402 0 56.1534 12.1453 682 117.934 344.758 473.038
1403 0 59.1039 13.5186 799 116.026 343.889 472.95
1404 0 59.1784 13.5184 800 118.484 344.022 466.71
1405 0 62.069 13.775 855 116.305 344.681 472.556
1406 0 61.1312 10.502 642 124.65 345.684 468.009
1407 0 61.0682 11.5281 704 123.098 346.73 466.967
1408 0 62.1444 14.3215 890 118.247 347.825 466.21
1409 0 68.21 13.1506 897 119.953 347.524 463.502
1410 0 68.179 13.5232 922 120.86 348.503 463.097
1411 0 71.0962 11.5899 824 123.012 349.464 466.28
1412 0 75.116 11.7019 879 123.357 348.615 463.214
1413 0 72.3702 10.8055 782 126.922 349.882 464.242
1414 0 75.1817 9.81622 738 126.348 350.364 465.431
1415 0 82.32 14.5408 1197 118.578 350.969 462.207
1416 0 84.2483 11.2643 949 123.978 352.249 463.458
1417 0 87.2832 13.0495 1139 121.611 351.741 461.296
1418 0 87.3003 13.8602 1210 120.575 351.663 462.955
1419 0 89.2777 12.5451 1120 124.101 351.689 459.836
1420 0 92.2833 13.1226 1211 121.402 352.508 467.104
1421 0 93.3411 12.1061 1130 125.893 352.42 460.075
1422 0 97.4398 10.7143 1044 128.733 351.955 461.868
1423 0 98.2597 9.72932 956 130.29 351.07 465.44
1424 1 49.1399 12.0676 593 120.28 351.449 489.472
1425 0 52.1249 11.8178 616 121.305 350.825 486.425
1426 0 55.1118 12.7015 700 120.053 350.073 485.946
1427 0 55.1134 11.9935 661 121.62 349.107 486.461
1428 0 57.091 9.98406 570 124.974 349.286 488.549
1429 0 60.105 10.1655 611 121.894 347.548 492.368
1430 0 67.1653 8.21853 552 126.047 347.429 487.524
1431 0 65.2155 11.1937 730 123.3 345.29 482.337
1432 0 66.1111 11.2992 747 124.813 344.605 477.292
1433 0 69.0979 12.2001 843 123.026 343.871 477.504
1434 0 70.106 12.0104 842 124.531 344.386 475.507
1435 0 73.0987 12.531 916 123.803 343.831 472.862
1436 1 40.127 12.286 493 121.801 343.45 490.55
1437 0 40.0123 11.4715 459 124.765 342.438 487.928
1438 0 38.0671 10.534 401 126.531 343.12 488.863
1439 0 41.0314 13.1119 538 116.855 342.98 488.147
1440 0 43.0447 11.2674 485 120.359 341.487 484.75
1441 0 43.0907 12.3925 534 117.27 340.921 485.659
1442 0 39.0553 9.37134 366 123.727 342.27 485.708
1443 0 45.0892 12.5085 564 118.762 342.3 479.61
1444 0 45.2233 11.0562 500 121.84 343.122 483.362
1445 0 46.0753 12.9136 595 118.437 343.062 481.679
1446 0 48.0545 12.3818 595 119.978 344.047 477.21
1447 0 50.1015 12.4747 625 120.69 344.584 475.242
1448 0 48.0719 7.23916 348 126.537 345.457 479.546
1449 0 53.2344 10.7825 574 122.009 345.556 476.152
1450 0 54.2515 10.8937 591 123.492 345.706 474.396
1451 0 59.2279 14.8072 877 115.098 347.794 472.876
1452 0 58.174 13.58 790 119.642 347.637 469.549
1453 0 61.2232 12.3319 755 121.461 348.738 469.237
1454 0 63.1274 11.6906 738 122.831 348.416 470.817
1455 0 65.2082 11.1182 725 125.247 348.073 469.105
1456 0 66.1132 11.329 749 127.212 349.609 467.874
1457 0 71.2447 13.9519 994 121.005 350.526 464.927
1458 0 73.5644 11.9759 881 125.186 351.14 466.047
1459 1 39.1718 11.0794 434 125.779 350.302 481.643
1460 0 41.0867 10.271 422 126.922 350.87 484.315
1461 0 43.0762 12.3734 533 119.366 350.961 485.529
1462 0 44.0629 14.0481 619 116.393 351.813 486.344
1463 0 42.0831 13.5684 571 116.011 351.499 490.142
1464 0 43.0795 11.2118 483 121.304 350.849 490.043
1465 0 45.0379 10.9019 491 122.776 350.64 490.534
1466 0 45.0976 10.0227 452 125.071 350.133 490.918
1467 0 47.0904 12.1044 570 121.396 351.089 492.954
1468 0 48.0609 12.7963 615 124.111 350.176 487.881
1469 0 51.0341 11.5805 591 125.829 348.949 490.215
1470 0 51.1005 10.6848 546 129.709 349.183 490.128
1471 0 53.0992 12.6932 674 126.78 349.151 488.546
1472 0 57.0875 13.6282 778 123.377 347.087 488.112
1473 0 58.0629 15.2938 888 121.238 347.057 484.614
1474 0 60.0842 13.8306 831 123.957 346.194 485.212
1475 0 61.1115 11.5199 704 127.544 345.76 484.401
1476 0 62.1136 12.5576 780 126.954 345.914 485.018
1477 0 64.0733 12.8915 826 127.634 344.909 482.235
1478 0 68.0949 13.4371 915 127.239 344.724 480.103
1479 0 70.1617 14.2243 998 126.322 343.307 479.213
1480 0 72.0712 13.112 945 129.172 344.182 476.762
1481 0 75.1918 14.2835 1074 126.174 343.08 475.279
1482 0 76.2917 11.692 892 132.203 343.189 472.738
1483 0 83.1833 15.7844 1313 121.711 343.213 472.055
1484 0 86.3247 14.0979 1217 125.802 343.727 468.1
1485 0 86.2685 12.264 1058 131.262 342.612 464.977
1486 1 47.0408 11.7983 555 129.222 343.389 484.065
1487 0 46.0667 12.5036 576 132.701 343.427 478.906
1488 0 49.0417 13.4987 662 129.382 343.953 480.369
1489 0 51.0652 14.3346 732 127.519 343.321 478.348
1490 0 56.2297 12.0755 679 121.568 344.848 480.087
1491 0 51.0648 11.8085 603 125.741 345.378 475.854
1492 0 52.1454 12.3309 643 126.051 346.351 472.451
1493 0 55.1016 14.936 823 120.491 346.34 471.532
1494 0 58.157 11.7785 685 125.209 347.055 470.781
1495 0 57.1963 11.0497 632 126.622 347.666 470.791
1496 0 62.245 12.258 763 123.249 348.503 472.252
1497 0 64.0612 10.9114 699 127.046 350.129 471.249
1498 0 69.2632 14.8564 1029 118.596 350.449 470.861
1499 0 69.1299 10.8491 750 125.031 349.712 471.563
1500 0 76.2425 15.1884 1158 117.871 351.366 467.5
1501 0 76.1067 13.2314 1007 122.842 351.302 467.507
1502 0 77.1587 13.3232 1028 123.636 351.534 467.689
1503 0 79.2436 13.0736 1036 124.216 351.602 467.82
1504 0 83.0941 14.9349 1241 122.1 351.857 471.116
1505 0 82.2551 9.9933 822 133.895 353.198 467.392
1506 1 163.451 12.4808 2040 131.104 352.495 433.947
1507 1 99.2821 9.83057 976 128.518 352.377 474.139
1508 0 99.2104 10.0393 996 129.761 351.41 471.962
1509 0 99.238 11.3263 1124 130.518 352.105 464.907
1510 1 50.228 11.7464 590 123.385 350.063 492.407
1511 0 51.2416 12.9387 663 124.008 350.336 490.066
1512 0 53.0846 10.7376 570 128.14 349.696 492.04
1513 0 55.1392 14.5269 801 123.849 348.868 488.825
1514 0 58.0831 14.4276 838 124.803 347.604 487.115
1515 0 59.1012 15.5496 919 122.107 346.933 486.979
1516 0 59.0845 13.9123 822 126.794 345.921 484.937
1517 0 63.0868 12.7602 805 127.687 345.774 484.696
1518 0 64.1048 13.0568 837 127.492 345.37 482.303
1519 0 66.0568 13.2613 876 126.152 345.163 482.323
1520 0 68.4077 13.8435 947 125.611 344.975 478.666
1521 0 69.1479 13.5796 939 127.277 344.313 476.402
1522 0 72.1862 13.1881 952 126.951 344.404 474.167
1523 0 72.1621 13.3727 965 126.925 343.734 474.284
1524 0 75.1684 15.3389 1153 123.971 344.376 475.637
1525 1 86.248 10.4582 902 131.061 344.293 469.184
1526 0 87.3731 11.9831 1047 127.203 343.464 470.508
1527 0 86.1391 15.1731 1307 121.675 343.717 469
1528 0 87.2639 13.1784 1150 127.605 344.242 465.601
1529 0 83.2709 9.13885 761 130.305 343.654 471.64
1530 0 83.3251 9.44493 787 129.637 343.549 472.163
1531 1 50.1381 15.1781 761 119.79 344.494 480.252
1532 0 50.0487 12.9874 650 127.614 344.16 475.66
1533 0 56.0855 15.4051 864 120.149 345.397 474.493
1534 0 55.0654 13.3478 735 124.045 345.448 476.185
1535 0 58.0581 16.3974 952 117.233 346.196 475.089
1536 0 60.1288 13.022 783 122.239 346.962 473.475
1537 0 62.6596 15.8475 993 117.573 347.301 469.794
1538 0 64.2093 15.465 993 118.806 347.212 470.291
1539 0 66.169 15.8382 1048 120.115 348.135 467.271
1540 0 69.0496 13.0341 900 123.758 348.521 471.179
1541 0 71.2482 13.6986 976 123.539 350.261 470.692
1542 0 73.2397 13.8313 1013 124.415 349.964 468.303
1543 0 74.3058 15.194 1129 123.523 350.138 466.67
1544 0 77.1875 14.4194 1113 123.896 350.93 465.932
1545 0 80.0973 15.6435 1253 121.535 350.856 465.212
1546 0 83.2506 16.8167 1400 120.011 351.673 467.252
1547 0 83.2908 14.2633 1188 125.261 351.273 465.795
1548 0 87.2617 14.4737 1263 125.754 350.439 459.523
1549 1 45.1097 12.5915 568 122.032 350.331 487.326
1550 0 47.0654 13.2582 624 124 350.671 486.359
1551 0 48.0812 14.6003 702 121.816 351.17 487.076
1552 0 51.0811 12.627 645 125.878 350.493 485.341
1553 0 54.1177 17.9793 973 113.483 350.761 491.164
1554 0 54.1673 12.6091 683 126.971 349.012 485.81
1555 0 53.1091 12.4461 661 129.02 349.983 482.33
1556 0 57.1136 13.762 786 125.564 349.205 484.415
1557 0 57.1538 12.5276 716 128.642 347.666 483.128
1558 0 58.3328 12.223 713 129.269 347.446 482.035
1559 0 60.0868 14.5789 876 125.567 345.979 478.638
1560 0 65.1657 14.0104 913 124.99 345.921 479.289
1561 0 65.1657 13.9951 912 147.802 344.916 479.307
1562 0 67.0606 12.4216 833 128.113 344.483 478.762
1563 0 69.0527 12.628 872 129.253 345.489 478.167
1564 0 73.188 14.169 1037 125.632 344.119 475.655
1565 0 73.1778 12.0118 879 131.147 343.563 472.015
1566 0 76.0829 15.6277 1189 124.431 342.971 470.721
1567 0 80.1263 16.2868 1305 122.65 341.943 468.26
1568 0 82.2994 16.5979 1366 122.841 343.289 467.731
1569 0 84.1451 18.9791 1597 118.808 344.025 462.002
1570 0 87.2127 13.7595 1200 128.186 343.871 460.136
1571 0 87.2127 13.7136 1196 148.579 342.87 460.106
1572 0 92.0996 15.6461 1441 126.748 343.257 454.339
1573 0 93.1368 13.754 1281 131.063 342.882 455.013
1574 0 96.1188 14.8982 1432 128.298 343.974 453.283
1575 1 51.0887 11.9792 612 125.941 342.959 473.585
1576 0 52.2488 12.1342 634 122.566 344.405 470.621
1577 0 52.2488 11.9811 626 134.385 345.388 470.645
1578 0 53.0634 10.4969 557 126.801 346.312 469.889
1579 0 55.2352 11.4058 630 124.208 347.146 470.002
1580 0 55.1159 10.2874 567 127.654 346.84 466.6
1581 0 60.1034 11.8629 713 122.403 347.306 468.659
1582 0 61.0912 11.3437 693 124.045 348.414 464.693
1583 0 65.1247 13.2976 866 122.866 349.08 468.096
1584 0 66.1268 11.8711 785 125.115 348.996 466.443
1585 0 71.0897 12.6601 900 122.373 350.416 465.137
1586 0 71.1709 11.6059 826 125.913 350.742 459.485
1587 0 73.2442 8.19177 600 125.633 350.922 468.067
1588 0 78.0828 10.809 844 123.94 350.844 463.345
1589 0 81.1135 9.99833 811 124.783 350.938 463.914
1590 0 81.1571 9.04419 734 125.781 351.887 464.567
1591 0 86.1965 13.1676 1135 119.893 351.138 462.673
1592 1 49.0808 10.717 526 116.462 350.876 480.922
1593 0 49.0397 12.1126 594 114.71 350.29 479.394
1594 0 52.0493 11.6236 605 116.493 350.63 482.195
1595 0 51.0842 8.20214 419 123.575 350.117 482.279
1596 0 54.1619 7.9207 429 119.42 350.089 484.79
1597 0 55.0469 11.2813 621 115.89 349.114 481.517
1598 0 55.1514 8.15936 450 120.478 349.069 484.291
1599 0 59.142 10.2465 606 116.172 348.939 482.939
1600 0 60.2245 9.64724 581 118.831 347.329 479.658
1601 0 63.1122 10.5526 666 120.533 348.033 481.793
1602 0 66.1055 13.7205 907 116.954 345.772 475.815
1603 0 67.1723 11.3588 763 120.674 345.881 476.868
1604 0 70.164 13.3687 938 119.373 346.062 473.431
1605 0 72.1956 12.4107 896 122.062 345.401 471.814
1606 0 74.1715 12.134 900 122.091 345.336 469.548
1607 0 78.1267 13.8237 1080 119.12 344.86 468.831
1608 0 77.2378 12.1443 938 124.186 344.724 467.939
1609 0 82.1024 10.9741 901 125.726 344.958 465.957
1610 0 85.3871 11.2078 957 124.685 344.861 463.251
1611 0 93.2961 10.8257 1010 126.151 344.766 458.727
1612 0 91.1566 10.1803 928 128.42 344.12 454.39
1613 0 96.201 11.0914 1067 126.849 344.85 457.137
1614 0 99.287 11.3106 1123 126.733 343.118 454.273
1615 1 53.224 11.198 596 117.059 344.674 477.7
1616 0 52.0248 11.3984 593 114.973 342.97 474.799
1617 0 56.1004 14.2958 802 110.105 344.985 475.358
1618 0 55.0953 10.2913 567 116.91 343.746 475.875
1619 0 57.157 10.7423 614 117.638 344.642 472.358
1620 0 57.2576 11.23 643 117.184 345.37 471.594
1621 0 59.2254 9.32033 552 123.207 346.755 466.502
1622 0 64.1675 12.2804 788 118.162 346.817 468.15
1623 0 64.1292 9.96426 639 126.701 348.488 466.299
1624 0 68.2031 11.0112 751 123.165 348.915 466.172
1625 0 71.1431 11.6385 828 121.322 349.585 464.127
1626 0 77.1502 8.36031 645 124.87 349.724 463.251
1627 0 78.2186 8.36118 654 125.45 350.067 466.388
1628 0 79.1805 5.5443 439 126.9 350.772 470.15
1629 0 80.1181 11.9823 960 122.052 351.143 460.34
1630 1 158.239 11.944 1890 128.094 352.674 425.499
1631 0 163.284 11.2749 1841 130.068 351.062 422.681
1632 0 169.482 10.3492 1754 130.326 351.929 427.743
1633 0 169.482 10.3315 1751 149.697 352.942 427.586
1634 1 92.1674 12.6183 1163 123.375 352.242 458.526
1635 0 96.1689 10.7519 1034 125.174 352.763 463.57
1636 0 100.265 13.1551 1319 122.315 351.039 460.499
1637 0 101.3 11.2142 1136 126.413 351.337 459.445
1638 1 56.1124 10.7641 604 119.742 351.341 484.589
1639 0 58.1799 12.1348 706 118.35 350.588 484.086
1640 0 61.2368 11.676 715 120.351 350.643 481.848
1641 0 63.1036 13.359 843 122.899 349.107 481.346
1642 0 64.212 10.3563 665 128.669 349.502 481.752
1643 0 65.2264 12.7556 832 123.907 347.864 480.562
1644 0 70.2494 14.8756 1045 118.555 346.764 479.368
1645 0 70.1619 13.1553 923 122.505 346.129 480.04
1646 0 73.2411 12.5886 922 123.21 344.672 474.854
1647 0 72.1336 11.6451 840 122.461 345.001 473.098
1648 1 143.424 16.5104 2368 118.684 345.861 440.643
1649 0 144.404 16.8209 2429 119.57 344.775 438.425
1650 0 149.33 12.978 1938 125.381 344.317 440.188
1651 1 83.2105 12.0658 1004 122.376 343.357 465.743
1652 0 84.3535 12.4358 1049 122.072 343.378 467.084
1653 0 89.1986 11.5921 1034 122.707 342.252 458.379
1654 0 93.114 11.6416 1084 122.195 341.862 462.9
1655 0 94.121 10.9009 1026 124.999 342.129 456.127
1656 0 99.2627 12.2805 1219 120.554 342.016 458.18
1657 1 54.0663 13.3355 721 111.892 342.316 479.222
1658 0 54.1156 13.3049 720 111.818 343.785 478.338
1659 0 56.2946 11.2622 634 114.844 342.797 476.74
1660 0 56.276 12.0122 676 114.873 344.651 473.354
1661 0 59.1613 12.4237 735 113.382 345.184 473.382
1662 0 61.1418 13.6404 834 111.507 345.068 472.366
1663 0 61.3643 12.0591 740 114.77 344.959 469.232
1664 0 64.236 13.7773 885 112.018 347.495 465.425
1665 0 63.1067 11.0765 699 119.361 346.295 470.092
1666 0 66.08 12.3184 814 116.684 347.423 467.294
1667 0 69.2588 7.84016 543 123.991 347.276 463.177
1668 0 73.1097 10.1765 744 118.195 347.759 465.898
1669 0 78.1796 12.1004 946 116.913 348.19 461.061
1670 0 78.1036 9.70506 758 119.909 350.044 464.959
1671 0 79.0991 11.9091 942 117.586 349.812 460.71
1672 0 84.2094 13.7871 1161 112.029 349.973 464.408
1673 0 83.0908 11.8665 986 117.181 348.969 457.65
1674 1 166.371 10.717 1783 125.281 351.783 416.907
1675 1 255.607 11.8854 3038 128.633 351.532 382.857
1676 0 252.579 9.68805 2447 131.394 350.664 388.97
1677 0 255.625 6.11833 1564 130.313 351.382 416.712
1678 1 51.0767 11.6296 594 114.864 350.653 482.759
1679 0 51.0767 11.7079 598 130.222 350.691 482.754
1680 0 55.266 10.6395 588 120.427 349.029 481.128
1681 0 59.2097 12.4304 736 112.815 349.777 480.39
1682 0 64.3763 14.9123 960 107.174 349.508 481.785
1683 0 68.1789 14.4326 984 107.36 350.069 479.255
1684 0 70.5985 19.0797 1347 100.292 349.339 474.242
1685 0 67.6382 12.0346 814 113.76 348.22 476.256
1686 0 65.166 13.8569 903 114.007 347.843 477.7
1687 0 66.2125 11.3876 754 118.609 346.924 482.43
1688 0 72.2083 12.7686 922 115.678 346.463 475.012
1689 0 72.2165 15.869 1146 113.223 347.17 475.036
1690 0 75.0819 13.9847 1050 116.099 344.966 474.37
1691 0 76.1823 13.5333 1031 116.369 343.572 475.857
1692 0 76.1371 14.0667 1071 115.706 343.741 473.288
1693 0 77.2141 10.8918 841 122.177 342.709 470.813
1694 0 82.3094 10.91 898 121.92 342.709 466.851
1695 0 79.0594 10.549 834 123.158 342.083 465.844
1696 0 85.1466 12.684 1080 120.808 341.443 460.994
1697 0 89.1436 12.1041 1079 119.933 342.363 465.976
1698 0 94.1132 13.5156 1272 116.663 342.145 460.257
1699 0 96.3045 15.4095 1484 112.736 342.526 460.279
1700 0 100.171 15.4236 1545 116.21 343.192 455.716
1701 1 65.0512 7.11747 463 117.06 342.235 480.583
1702 0 63.0785 10.1144 638 113.182 343.456 475.671
1703 0 58.2109 10.0668 586 117.483 343.038 470.418
1704 0 65.1977 12.209 796 109.672 343.862 475.225
1705 0 64.2083 12.8021 822 112.74 344.005 465.893
1706 0 66.1091 13.2206 874 112.241 345.105 467.705
1707 0 68.1358 15.381 1048 108.036 345.812 469.214
1708 0 70.1553 12.344 866 114.427 346.363 463.398
1709 0 73.2533 14.5932 1069 108.927 346.271 466.37
1710 0 75.2267 14.6756 1104 110.433 348.144 462.208
1711 0 79.1544 14.2885 1131 110.677 349.403 458.575
1712 0 80.1278 13.3162 1067 113.034 349.242 456.986
1713 0 84.0913 12.7956 1076 113.71 350.467 456.649
1714 0 87.2186 12.7725 1114 113.129 350.267 456.134
1715 0 89.1342 13.1263 1170 112.138 351.299 454.251
1716 1 53.1198 10.6928 568 109.759 351.076 479.28
1717 0 50.0387 10.8116 541 113.738 350.662 474.122
1718 0 52.0998 10.1536 529 113.265 351.73 478.214
1719 0 56.1497 13.6599 767 108.226 351.313 478.083
1720 0 60.1424 14.9977 902 105.878 351.14 473.763
1721 0 61.2104 13.4944 826 108.384 350.446 478.105
1722 0 61.2104 13.5598 830 130.537 349.465 478.169
1723 0 63.1481 13.3812 845 112.825 349.036 475.876
1724 0 63.1354 10.1686 642 118.178 349.746 473.942
1725 0 68.2037 13.3277 909 110.928 349.498 478.905
1726 0 69.2068 10.7359 743 117.432 348.253 477.237
1727 0 70.1668 12.57 882 116.12 347.831 475.722
1728 0 76.2086 15.7331 1199 109.346 348.189 476.028
1729 0 76.1069 12.4693 949 116.445 347.207 471.525
1730 0 80.1599 12.0634 967 116.786 346.391 473.006
1731 0 86.1977 14.1419 1219 111.16 344.578 466.445
1732 0 88.4229 16.0931 1423 108.17 344.58 461.091
1733 0 91.136 11.8504 1080 115.622 344.036 467.21
1734 0 90.0856 12.1995 1099 115.857 343.403 462.161
1735 0 98.1838 19.5552 1920 102.866 342.316 458.039
1736 1 53.0849 8.55234 454 113.643 342.861 481.278
1737 0 55.1039 12.5218 690 108.668 343.504 482.975
1738 0 56.171 9.95176 559 111.785 343.125 480.018
1739 0 58.3204 14.0774 821 107.152 341.948 476.814
1740 0 58.0512 11.8688 689 108.975 342.167 477.913
1741 0 59.1504 12.8993 763 108.709 343.248 472.539
1742 0 63.1134 11.5031 726 110.391 343.078 471.438
1743 0 66.3057 10.4667 694 113.637 343.043 469.429
1744 0 69.3226 15.7813 1094 105.917 343.146 469.023
1745 0 72.226 13.347 964 109.528 343.8 465.281
1746 0 71.2146 11.8515 844 111.539 343.578 462.137
1747 0 74.1581 9.5202 706 114.139 344.977 461.052
1748 0 75.1564 8.51557 640 116.083 345.444 457.834
1749 0 79.216 14.4415 1144 107.981 345.101 458.812
1750 0 81.2509 11.7906 958 112.442 345.886 454.564
1751 0 87.2478 13.433 1172 108.309 346.613 455.093
1752 0 89.0865 9.95662 887 112.963 346.593 455.502
1753 0 91.4483 10.7711 985 112.994 346.956 451.621
1754 0 94.4042 11.5461 1090 111.801 347.954 450.802
1755 0 98.2423 15.1971 1493 107.534 348.38 448.48
1756 0 101.485 12.0018 1218 111.265 349.706 448.904
1757 0 108.381 12.9543 1404 107.174 349.252 451.622
1758 1 58.3066 12.5543 732 103.495 349.578 470.868
1759 0 61.2547 12.1133 742 104.027 350.651 470.477
1760 0 62.1334 11.9581 743 108.349 352.016 467.642
1761 0 66.1152 12.448 823 107.408 351.531 469.832
1762 0 68.1268 10.5979 722 110.482 351.582 464.512
1763 0 72.3037 19.0447 1377 97.398 350.844 462.389
1764 0 73.2541 12.2041 894 106.506 351.017 468.406
1765 0 75.0994 12.2504 920 104.861 350.996 472.447
1766 0 78.2313 16.9242 1324 100.05 349.872 469.143
1767 0 76.0921 9.88276 752 111.624 349.875 465.233
1768 0 82.0766 10.0272 823 110.894 348.43 469.572
1769 0 83.2379 9.11845 759 113.198 348.86 465.137
1770 0 90.1103 13.9052 1253 106.189 347.504 468.936
1771 0 91.2452 14.6528 1337 106.652 346.503 463.486
1772 0 95.2307 15.3417 1461 104.394 345.904 467.459
1773 0 98.1328 12.7582 1252 109.733 345.152 461.742
1774 0 102.307 11.4264 1169 110.825 345.222 462.275
1775 0 104.166 12.5089 1303 110.662 344.623 459.125
1776 1 58.0546 8.88819 516 111.134 343.676 480.211
1777 0 57.1093 12.9576 740 106.649 343.282 478.292
1778 0 60.097 11.9141 716 106.561 343.818 478.416
1779 0 60.1873 13.2752 799 104.418 343.002 475.24
1780 0 60.1587 9.69103 583 109.245 342.288 471.738
1781 0 65.0872 13.5511 882 103.709 342.796 476.242
1782 0 67.0945 12.6538 849 105.949 342.257 473.118
1783 0 65.0862 12.7062 827 106.868 341.971 470.625
1784 0 69.126 13.5839 939 105.265 342.208 470.627
1785 0 72.1842 13.6457 985 105.513 341.623 467.303
1786 0 72.1053 13.4526 970 106.102 342.507 466.122
1787 0 77.1059 11.9835 924 107.515 342.436 464.845
1788 0 77.1784 14.5766 1125 105.738 342.516 460.881
1789 0 80.316 10.9692 881 109.608 342.385 460.692
1790 0 81.157 13.3199 1081 107.562 344.031 456.033
1791 0 85.1884 15.6711 1335 102.4 343.927 460.288
1792 1 42.0976 9.28794 391 112.578 344.366 472.78
1793 0 49.0729 10.8206 531 107.136 344.761 474.209
1794 0 50.083 11.9601 599 106.741 345.566 472.252
1795 0 51.2586 10.8079 554 108.977 345.852 472.892
1796 0 53.0662 12.833 681 105.436 347.787 474.131
1797 0 54.1632 16.5241 895 101.642 346.868 472.018
1798 0 53.196 9.88795 526 112.593 348.618 470.895
1799 0 56.1777 12.0866 679 109.728 349.539 470.191
1800 0 58.1179 13.9028 808 106.584 348.769 468.396
1801 1 114.431 14.323 1639 112.651 349.42 440.204
1802 1 68.1077 15.1084 1029 102.095 349.372 468.837
1803 0 69.1723 16.1625 1118 102.427 349.877 465.589
1804 0 72.3092 19.6794 1423 98.8693 350.216 466.52
1805 0 73.1261 20.0886 1469 98.1239 350.064 462.468
1806 0 72.0996 17.5868 1268 103.979 349.401 467.666
1807 0 76.2855 19.3484 1476 100.888 350.785 468.375
1808 0 75.1753 14.0472 1056 109.812 349.221 465.755
1809 0 80.1296 20.1549 1615 100.152 350.129 460.902
1810 0 86.2346 21.4531 1850 96.4686 348.884 456.036
1811 0 93.7031 22.2725 2087 95.4557 348.48 457.524
1812 0 97.3963 17.5058 1705 102.272 348.371 462.416
1813 0 95.351 18.1015 1726 102.06 348.523 460.032
1814 0 94.3891 18.3178 1729 103.584 346.862 458.464
1815 0 102.376 14.769 1512 107.905 346.371 463.786
1816 0 102.316 16.9476 1734 104.299 345.515 451.371
1817 1 52.0532 12.0262 626 111.026 345.364 486.449
1818 0 52.0532 12.0454 627 126.014 345.36 486.45
1819 0 53.3111 10.3918 554 112.899 343.291 484.307
1820 0 57.212 12.2527 701 110.292 343.961 480.796
1821 0 65.4585 20.9904 1374 95.591 343.969 478.369
1822 0 63.1775 19.4215 1227 99.0098 344.054 473.45
1823 0 60.0879 12.515 752 110.358 343.27 473.985
1824 0 63.1068 11.4885 725 109.774 342.601 477.594
1825 0 64.3102 12.9684 834 108 342.225 473.655
1826 0 66.1234 15.4559 1022 104.856 342.008 470.83
1827 0 68.1596 14.3047 975 105.998 341.921 471.14
1828 0 71.257 17.9211 1277 101.082 341.498 465.33
1829 0 73.2949 13.0023 953 107.742 341.652 464.887
1830 0 74.0713 11.3269 839 110.479 342.592 462.803
1831 0 77.3016 14.3593 1110 106.392 342.114 461.52
1832 0 80.3114 14.0204 1126 106.635 342.119 457.003
1833 0 82.2135 11.0687 910 111.162 343.489 458.521
1834 0 87.1442 12.6113 1099 109.866 343.642 454.348
1835 0 93.2722 15.2564 1423 105.305 343.797 446.945
1836 0 92.4899 11.5688 1070 108.889 344.873 451.496
1837 1 49.1043 11.893 584 108.245 344.075 466.76
1838 0 49.2496 10.3351 509 109.473 345.86 469.11
1839 0 52.1578 9.18368 479 112.608 346.593 466.069
1840 0 56.1659 12.5877 707 110.76 347.092 466.41
1841 0 58.249 13.3564 778 109.042 347.95 467.247
1842 0 60.174 14.6242 880 104.695 348.815 467.039
1843 0 61.1296 12.678 775 107.721 348.93 465.714
1844 0 63.2699 12.7391 806 108.588 349.789 463.509
1845 0 67.2072 11.472 771 109.661 349.607 467.861
1846 0 70.1463 13.2723 931 108.075 351.242 460.639
1847 0 70.2002 13.433 943 107.976 351.725 465.56
1848 0 74.2896 15.0627 1119 105.454 351.737 464.262
1849 0 77.2282 14.2565 1101 106.659 350.815 464.696
1850 0 80.6332 11.881 958 110.391 351.114 465.085
1851 0 80.1732 9.59173 769 114.931 352.124 465.389
1852 0 85.2993 13.6695 1166 110.576 350.924 461.84
1853 0 85.2667 11.9507 1019 114.555 349.976 457.563
1854 0 90.4202 13.4373 1215 112.224 350.022 458.617
1855 0 93.4905 12.8783 1204 113.7 349.316 459.311
1856 0 96.4326 12.4543 1201 112.439 349.254 462.196
1857 1 50.253 12.7555 641 110.09 348.3 480.952
1858 0 54.134 11.9333 646 110.698 347.189 481.396
1859 0 56.0751 12.1266 680 112.809 346.332 477.331
1860 0 56.0938 13.317 747 112.214 345.106 480.296
1861 0 59.2015 12.7362 754 113.771 345.345 476.647
1862 0 62.2006 14.6944 914 109.449 344.713 477.104
1863 0 62.212 13.1164 816 112.757 343.512 475.73
1864 0 66.2764 14.6659 972 109.887 343.124 474.299
1865 0 67.3168 13.5776 914 112.146 343.056 472.838
1866 0 69.1033 12.6043 871 113.239 343.04 472.085
1867 0 72.1264 14.2389 1027 108.939 341.997 471.427
1868 0 73.2247 13.6429 999 110.234 342.356 465.944
1869 0 76.478 12.8141 980 112.153 342.486 466.134
1870 0 76.4798 13.716 1049 111.343 343.129 464.142
1871 0 79.5177 12.4375 989 113.042 343.112 462.445
1872 0 79.3694 11.1 881 115.796 342.924 458.759
1873 0 85.4658 11.4549 979 112.014 342.36 462.061
1874 0 87.4452 11.9275 1043 113.295 343.559 458.363
1875 0 90.5832 12.9715 1175 111.879 343.887 451.605
1876 1 47.0568 7.35282 346 120.012 343.552 465.266
1877 0 55.201 12.7353 703 108.821 344.065 470.046
1878 0 51.1718 12.0574 617 112.947 344.929 465.601
1879 0 57.3472 11.6483 668 111.308 345.189 467.072
1880 0 59.3114 16.8264 998 100.325 345.027 468.706
1881 0 63.1705 18.2205 1151 98.0773 346.611 460.898
1882 0 66.1114 20.5108 1356 95.5052 348.138 458.524
1883 0 66.2013 16.2686 1077 101.326 348.277 458.22
1884 0 65.0647 18.0897 1177 100.454 349.33 464.814
1885 0 69.3408 14.984 1039 105.874 348.838 457.984
1886 0 68.2324 10.4789 715 113.354 348.522 459.533
1887 0 71.1466 14.3928 1024 107.258 350.014 457.56
1888 0 74.1799 12.7932 949 109.377 349.831 459.191
1889 0 74.1332 11.2096 831 112.662 351.567 458.962
1890 0 79.2515 12.3783 981 111.834 351.528 456.56
1891 0 81.3746 11.5024 936 113.075 351.931 459.991
1892 0 85.4175 12.9716 1108 111.361 350.728 455.898
1893 0 89.277 15.3119 1367 108.188 350.986 456.436
1894 0 95.1453 13.9366 1326 109.314 349.682 460.148
1895 1 49.0981 9.4301 463 113.678 348.881 482.214
1896 0 47.0296 10.8655 511 114.569 349.243 476.704
1897 0 51.116 8.82306 451 113.137 348.694 480.545
1898 0 52.0234 10.4184 542 113.465 349.917 479.707
1899 0 55.0492 12.6432 696 108.878 349.661 479.609
1900 0 54.1519 11.1907 606 112.574 348.582 477.348
1901 0 61.057 11.9397 729 108.303 347.444 481.088
1902 0 58.1488 11.9177 693 109.278 347.886 474.924
1903 0 62.1805 10.0031 622 113.397 346.527 475.891
1904 0 65.1701 13.0735 852 108.727 346.818 475.153
1905 0 66.0678 13.2894 878 108.329 345.087 472.419
1906 0 67.0834 14.1615 950 107.667 345.005 472.077
1907 0 67.1224 12.7081 853 110.2 344.658 471.421
1908 0 74.1118 12.8185 950 107.373 343.965 468.526
1909 0 77.0897 14.295 1102 104.121 342.44 464.728
1910 0 77.1879 13.072 1009 106.704 343.519 461.427
1911 0 77.1906 10.8433 837 110.387 342.755 461.284
1912 0 79.0831 12.6955 1004 107.147 342.786 460.555
1913 0 84.1919 13.5049 1137 105.062 341.642 460.425
1914 0 84.191 10.9513 922 109.681 342.413 453.049
1915 0 88.1351 15.1359 1334 103.81 342.55 448.385
1916 0 94.4326 15.3549 1450 101.61 342.851 452.91
1917 1 47.1275 8.76347 413 112.174 342.642 468.838
1918 0 56.0992 12.9592 727 104.373 343.935 469.651
1919 0 52.1484 10.4893 547 109.784 343.978 466.931
1920 0 54.0181 16.2538 878 100.218 344.341 465.795
1921 0 60.1297 13.5873 817 103.251 344.458 465.086
1922 0 58.1267 13.9007 808 103.978 345.249 463.939
1923 0 64.1709 14.3523 921 103.595 345.572 460.165
1924 0 64.2988 12.753 820 107.145 347 463.617
1925 0 67.1216 11.9932 805 109.195 347.976 462.76
1926 0 69.0774 14.8674 1027 103.288 348.229 464.651
1927 0 69.1524 13.9113 962 107.31 348.142 455.581
1928 0 75.3716 17.1285 1291 100.887 349.37 459.811
1929 0 79.2395 14.3489 1137 104.476 350.361 457.404
1930 0 80.1551 12.3261 988 107.683 350.695 457.411
1931 0 83.3496 15.177 1265 104.288 351.666 457.704
1932 0 86.2882 17.1055 1476 101.609 352.693 458.738
1933 0 89.5782 18.4085 1649 101.204 352.047 454.526
1934 0 93.3506 16.6898 1558 103.354 352.356 457.001
1935 0 91.2376 12.7031 1159 109.35 351.777 457.785
1936 0 96.2868 13.5117 1301 109.483 350.959 453.659
1937 0 100.309 13.7077 1375 108.371 352.071 454.269
1938 1 56.1419 10.135 569 107.188 350.938 478.278
1939 0 55.2125 11.3199 625 109.368 349.717 476.186
1940 0 60.1337 11.3081 680 108.076 348.096 477.079
1941 0 58.1319 11.4223 664 108.149 348.753 475.117
1942 0 64.0858 14.0905 903 103.993 349.354 474.027
1943 0 67.5298 14.4381 975 102.972 348.956 479.516
1944 0 64.0828 9.67499 620 113.789 347.41 473.542
1945 0 71.1951 12.3183 877 108.621 345.969 473.569
1946 0 75.1909 12.9537 974 107.017 345.92 472.439
1947 0 76.2314 14.2592 1087 106.359 344.862 470.196
1948 0 79.478 14.4568 1149 103.701 344.536 470.662
1949 0 78.2769 14.7936 1158 104.209 344.44 465.732
1950 0 82.2049 13.8191 1136 104.804 343.243 459.759
1951 0 82.1514 11.8075 970 107.376 342.598 464.008
1952 0 84.1758 19.0197 1601 98.8276 343.414 462.705
1953 0 84.1758 19.2098 1617 110.779 344.428 462.713
1954 0 90.4615 14.3597 1299 104.333 343.456 455.65
1955 0 90.4615 14.4481 1307 135.836 342.477 455.758
1956 0 96.459 13.1351 1267 104.855 342.68 457.614
1957 0 99.4747 16.0141 1593 99.2687 342.048 461.086
1958 0 101.221 14.7005 1488 102.425 343.332 451.845
1959 0 99.2507 12.4432 1235 105.636 342.97 451.533
1960 0 100.24 14.1859 1422 105.33 343.594 445.728
1961 0 102.336 11.6479 1192 110.382 342.617 435.253
1962 1 60.2418 10.9558 660 104.233 343.795 462.353
1963 0 59.2034 13.6985 811 98.2898 344.551 469.052
1964 0 63.1648 9.51479 601 106.156 344.389 460.138
1965 0 66.2019 11.2837 747 106.232 345.327 455.289
1966 0 71.3543 15.43 1101 99.5649 346.29 459.906
1967 0 68.1052 10.7774 734 108.249 347.362 451.745
1968 0 75.233 10.6203 799 107.553 348.237 454.036
1969 0 77.2137 11.125 859 107.31 348.497 449.811
1970 0 74.2382 13.1873 979 106.271 349.287 451.344
1971 0 82.1665 12.2921 1010 107.139 349.688 451.001
1972 0 79.1319 12.4349 984 108.275 350.283 446.545
1973 0 88.136 12.0269 1060 107.392 350.58 451.072
1974 0 89.2411 12.2589 1094 107.799 350.101 449.698
1975 0 89.1552 8.77122 782 114.069 350.598 440.564
1976 0 92.2567 13.354 1232 108.963 351.663 445.86
1977 0 97.3142 13.4307 1307 107.761 352.359 451.644
1978 1 51.064 6.54081 334 112.123 352.856 471.434
1979 0 58.4452 12.4903 730 102.299 351.949 474.623
1980 0 54.1333 10.9914 595 105.859 352.17 467.052
1981 0 55.2181 9.97861 551 107.737 351.245 469.245
1982 0 57.0951 12.9784 741 104.553 350.494 469.409
1983 0 60.0396 11.7422 705 109.562 350.121 465.339
1984 0 69.1085 11.1853 773 109.567 350.765 467.975
1985 0 69.1069 8.82691 610 112.651 348.418 467.938
1986 0 73.202 11.8849 870 108.599 349.426 469.631
1987 0 72.0967 11.4846 828 110.493 346.553 467.203
1988 0 76.203 13.0179 992 107.257 346.591 469.506
1989 0 81.2407 11.4475 930 110.056 344.476 466.283
1990 0 80.168 13.7461 1102 107.721 344.807 463.412
1991 0 85.1969 11.7258 999 110.781 343.955 462.199
1992 0 87.153 13.2067 1151 109.017 343.622 459.62
1993 0 91.3166 12.6264 1153 110.164 343.046 457.048
1994 0 93.2272 13.8801 1294 106.906 343.199 455.794
1995 0 94.1776 12.7419 1200 108.858 342.512 450.369
1996 0 100.204 11.9456 1197 108.705 342.484 449.677
1997 0 102.232 16.8538 1723 101.194 341.86 456.974
1998 0 105.158 16.0139 1684 104.273 342.419 451.47
1999 0 107.231 11.8809 1274 111.178 341.824 447.4
2000 0 110.28 12.9217 1425 112.207 341.276 442.754
2001 0 111.239 12.7383 1417 112.673 342.378 440.37
2002 1 61.1642 11.8697 726 108.059 342.722 466.857
2003 0 60.1287 9.14704 550 110.856 343.365 467.482
2004 0 65.1702 11.7231 764 109.99 343.991 461.229
2005 0 68.2475 10.7989 737 111.422 344.617 464.938
2006 0 68.144 12.591 858 109.646 344.481 461.99
2007 0 69.1206 11.0821 766 112.691 345.449 458.166
2008 0 73.1217 12.7185 930 111.154 346.223 458.14
2009 0 76.1517 15.6661 1193 106.747 347.22 454.521
2010 0 77.1137 13.2402 1021 111.048 348.075 452.07
2011 0 78.0883 8.69529 679 117.462 347.879 454.429
2012 0 83.1123 11.7913 980 112.728 348.84 453.081
2013 0 87.1557 12.4031 1081 111.791 348.386 452.88
2014 0 93.3622 14.749 1377 107.89 349.78 451.878
2015 0 95.1125 14.036 1335 109.997 349.692 448.394
2016 0 95.2709 12.921 1231 113.96 351.271 443.663
2017 0 99.3074 12.1844 1210 114.308 350.335 444.634
2018 0 103.643 13.0641 1354 113.06 351.261 448.797
2019 1 57.1518 10.0434 574 109.101 351.002 472.186
2020 0 59.1457 10.1444 600 107.38 350.967 475.547
2021 0 59.3178 11.1265 660 106.294 351.498 478.098
2022 0 60.3237 10.8912 657 109.382 350.699 467.145
2023 0 65.0866 11.1851 728 108.688 349.812 473.018
2024 0 67.2309 10.9622 737 109.232 349.469 469.551
2025 0 67.1942 13.5577 911 104.596 348.686 474.266
2026 0 71.3357 12.8547 917 105.796 349.538 470.862
2027 0 73.2159 15.5704 1140 101.761 347.89 471.002
2028 0 76.4334 15.7915 1207 101.885 348.722 469.773
2029 0 79.2468 16.1016 1276 102.372 348.637 469.973
2030 0 79.4098 10.7669 855 111.007 346.765 468.295
2031 0 79.3064 12.4454 987 109.836 346.487 464.235
2032 0 85.7341 15.2915 1311 104.729 345.436 460.215
2033 0 83.6398 13.9168 1164 106.895 344.474 458.168
2034 0 88.3843 8.30464 734 113.856 344.072 454.906
2035 0 90.2469 14.283 1289 106.171 343.322 452.63
2036 0 85.2924 7.96086 679 115.86 342.75 457.043
2037 1 104.286 7.05753 736 112.889 343.19 463.099
2038 0 104.268 10.7128 1117 109.934 342.624 453.57
2039 1 55.1768 11.7803 650 104.586 342.845 472.62
2040 0 54.3187 8.52377 463 110.19 342.199 475.305
2041 0 59.1968 10.9972 651 105.637 343.47 476.378
2042 0 59.3369 10.7859 640 108.236 343.028 473.025
2043 0 63.1504 14.3467 906 102.732 342.338 473.356
2044 0 63.0982 12.3775 781 105.837 341.323 473.049
2045 0 64.0882 11.0941 711 110.022 342.149 468.945
2046 0 65.2191 12.6037 822 108.221 342.647 466.482
2047 0 66.2207 6.87096 455 117.029 343.585 467.314
2048 0 70.1204 11.9794 840 109.276 343.085 466.013
2049 0 72.1506 14.4143 1040 106.994 343.495 461.994
2050 0 78.1778 12.3948 969 109.119 343.792 459.73
2051 0 75.1344 12.1782 915 111.069 345.079 454.338
2052 0 79.2027 12.7773 1012 110.314 346.186 453.317
2053 0 81.3801 14.4753 1178 108.058 346.126 455.499
2054 0 85.218 16.4402 1401 105.58 346.759 454.488
2055 0 92.2011 14.3382 1322 105.644 349.206 459.952
2056 0 92.3482 15.604 1441 106.129 348.698 454.425
2057 0 95.1008 13.5646 1290 109.166 349.523 451.119
2058 0 94.2227 11.4197 1076 114.006 349.875 446.928
2059 1 193.433 11.6216 2248 115.628 350.328 405.616
2060 1 102.322 15.9986 1637 107.764 350.466 449.698
2061 0 101.395 11.8152 1198 116.376 351.091 447.178
2062 0 106.579 10.5744 1127 119.311 351.614 449.311
2063 1 57.1759 9.81183 561 117.734 351.373 470.891
2064 0 61.3836 11.7947 724 115.523 351.702 473.148
2065 0 62.353 12.2689 765 112.26 350.013 472.326
2066 0 63.3329 11.1159 704 115.273 350.724 473.956
2067 0 70.1715 13.0822 918 110.514 349.014 475.207
2068 0 69.1696 13.8645 959 111.675 349.221 471.667
2069 0 71.318 13.0682 932 113.425 347.925 474.744
2070 0 73.3994 11.9756 879 116.11 348.215 475.998
2071 0 75.4569 12.1924 920 118.384 346.54 470.563
2072 0 82.564 14.6068 1206 114.051 345.69 469.192
2073 0 80.4522 13.362 1075 115.278 345.171 468.789
2074 0 82.4442 11.8262 975 118.777 344.58 469.845
2075 0 87.5241 18.8748 1652 107.145 344.815 466.774
2076 0 91.5047 15.8025 1446 110.71 343.244 467.257
2077 0 92.5331 15.5188 1436 113.822 342.838 461.791
2078 0 93.369 17.9503 1676 110.854 342.203 455.557
2079 0 96.4564 17.3343 1672 111.896 341.932 452.888
2080 0 100.511 13.7995 1387 116.483 341.481 455.311
2081 0 101.33 15.8591 1607 113.689 341.686 451.451
2082 0 107.734 19.7802 2131 106.072 341.76 453.287
2083 0 104.244 11.6554 1215 121.211 342.326 450.789
2084 1 58.1262 9.46217 550 120.262 341.64 472.793
2085 0 59.2938 13.3403 791 115.608 341.7 469.182
2086 0 60.0372 11.5762 695 117.761 343.16 467.718
2087 0 64.0936 11.8108 757 116.989 343.159 468.708
2088 0 63.1374 12.164 768 117.181 344.266 467.556
2089 0 65.1568 14.1965 925 114.426 343.352 461.897
2090 0 68.215 10.9067 744 119.165 343.534 461.854
2091 0 72.0953 13.5099 974 113.961 343.894 464.913
2092 0 72.1076 11.9544 862 117.683 345.039 462.709
2093 0 75.1297 14.9342 1122 113.342 345.379 458.546
2094 0 76.0862 10.9744 835 120.643 345.249 454.487
2095 0 78.0838 15.0992 1179 114.254 347.714 453.326
2096 0 86.1255 15.071 1298 112.607 346.615 449.934
2097 0 84.1457 13.8807 1168 115.902 348.739 447.298
2098 0 85.2166 10.0098 853 123.654 348.706 446.73
2099 0 91.1738 13.1946 1203 116.89 348.657 449.341
2100 0 94.2171 12.9276 1218 116.833 349.304 447.102
2101 0 95.2424 9.88006 941 122.295 350.325 446.259
2102 0 101.328 12.9185 1309 116.155 350.472 448.153
2103 0 106.228 14.1865 1507 113.36 350.975 442.683
2104 1 56.0232 13.1196 735 112.024 351 468.419
2105 0 57.1118 10.9259 624 115.71 351.224 467.062
2106 0 59.3001 11.1973 664 116.767 350.473 469.045
2107 0 64.1062 15.5367 996 108.609 349.673 469.562
2108 0 66.0537 15.0938 997 109.038 348.951 470.382
2109 0 68.173 12.527 854 113.816 349.656 466.965
2110 0 70.2971 14.7232 1035 109.641 348.642 467.679
2111 0 74.1672 16.7459 1242 107.027 349.738 469.589
2112 0 77.1958 12.5914 972 112.954 348.546 468.352
2113 0 80.2232 16.4416 1319 106.563 348.646 471.472
2114 0 81.0954 12.8367 1041 112.714 347.395 467.893
2115 0 85.2044 16.8184 1433 107.431 346.476 459.497
2116 0 89.1172 15.878 1415 106.869 345.295 466.972
2117 0 91.1507 13.7355 1252 112 345.24 460.744
2118 0 96.2721 14.4175 1388 110.852 344.628 459.893
2119 0 96.3492 12.7349 1227 115.126 343.426 454.866
2120 0 100.272 12.8949 1293 115.852 343.623 454.551
2121 0 102.271 14.8429 1518 112.758 343.122 449.444
2122 0 106.193 14.9821 1591 111.919 342.626 452.921
2123 0 110.249 15.2926 1686 112.305 342.649 443.909
2124 0 114.268 14.6235 1671 113.748 342.13 441.832
2125 0 115.551 11.2245 1297 115.114 342.262 447.581
2126 0 116.302 10.5071 1222 116.839 342.814 444.427
2127 1 70.1822 11.8406 831 110.126 341.923 465.298
2128 0 72.1776 12.7463 920 108.536 342.774 463.24
2129 0 73.1822 14.5254 1063 106.731 342.839 464.121
2130 0 68.1582 10.9158 744 114.968 343.042 455.364
2131 0 78.1608 13.3187 1041 108.856 343.968 460.046
2132 0 80.101 14.4692 1159 107.05 343.808 458.565
2133 0 79.0712 10.7119 847 115.005 344.555 455.842
2134 0 84.3767 13.5464 1143 108.493 344.175 457.636
2135 0 84.1122 15.4674 1301 107.274 344.779 454.689
2136 0 85.2016 10.2228 871 116.643 345.006 447.538
2137 0 90.1769 11.9765 1080 111.991 346.594 451.143
2138 0 93.237 13.2136 1232 111.618 347.389 447.652
2139 0 97.2631 13.8079 1343 113.086 347.806 446.012
2140 0 98.2373 13.559 1332 113.874 348.246 447.395
2141 0 101.45 14.1153 1432 113.659 348.51 444.561
2142 0 102.136 13.4037 1369 114.014 349.186 445.813
2143 0 109.356 13.3326 1458 112.44 349.227 443.069
2144 0 111.436 13.4427 1498 113.079 349.734 442.681
2145 1 67.0985 11.2819 757 106.384 351.092 466.207
2146 0 66.1667 10.8967 721 105.761 350.416 469.309
2147 0 69.2162 10.879 753 111.619 350.74 467.509
2148 0 75.205 14.0948 1060 106.436 349.988 467.108
2149 0 75.1556 14.5831 1096 104.245 349.692 471.536
2150 0 80.302 11.9175 957 110.921 350.148 465.809
2151 0 81.1082 12.3662 1003 110.343 349.306 465.308
2152 0 85.2224 11.2881 962 111.789 349.309 465.839
2153 0 86.3002 12.2248 1055 111.568 348.758 463.792
2154 0 88.1405 15.3845 1356 106.471 348.252 459.506
2155 0 93.4616 12.2082 1141 112.007 349.109 466.817
2156 0 94.1923 13.0265 1227 112.531 348.104 463.194
2157 0 97.147 12.9494 1258 112.963 346.936 460.182
2158 0 98.271 10.583 1040 116.673 345.363 457.294
2159 0 103.223 14.212 1467 111.289 345.532 454.176
2160 0 106.211 12.0515 1280 114.148 344.662 458.131
2161 1 58.1817 11.086 645 110.011 343.66 481.398
2162 0 61.1934 10.2299 626 112.105 343.236 482.083
2163 0 62.2066 9.1791 571 114.814 342.399 478.426
2164 0 64.1414 12.8622 825 112.205 342.524 473.115
2165 0 67.233 12.5682 845 110.398 342.263 475.89
2166 0 71.2636 12.9098 920 110.634 342.741 473.22
2167 0 70.2427 12.827 901 111.93 343.02 465.236
2168 0 76.2812 11.4445 873 112.055 342.324 470.423
2169 0 75.1379 11.6453 875 113.226 341.803 463.167
2170 0 82.34 16.5412 1362 103.931 341.839 467.732
2171 0 84.2466 12.7008 1070 109.803 341.323 465.279
2172 0 82.115 12.6895 1042 111.842 341.956 455.27
2173 0 85.15 13.7287 1169 109.653 342.605 460.953
2174 0 89.1942 11.8505 1057 112.763 342.105 457.483
2175 0 89.2543 12.3916 1106 112.771 343.693 456.306
2176 0 92.3228 15.9441 1472 108.114 343.827 450.092
2177 0 94.2419 14.6326 1379 111.125 343.829 451.39
2178 0 97.4082 12.3706 1205 115.3 344.375 446.973
2179 0 102.242 14.2896 1461 111.797 344.232 447.763
2180 0 102.207 15.6838 1603 110.813 345.676 444.845
2181 0 102.225 11.729 1199 117.65 347.144 444.68
2182 0 109.209 15.2644 1667 110.821 347.386 445.217
2183 0 114.175 16.1419 1843 109.129 348.521 441.25
2184 0 111.395 11.4547 1276 118.885 348.413 437.838
2185 0 115.343 12.97 1496 117.602 349.442 438.68
2186 0 121.51 14.3362 1742 116.237 349.545 432.421
2187 1 70.3418 11.4868 808 112.999 348.382 465.582
2188 0 66.2081 8.89619 589 117.659 350.168 465.272
2189 0 75.175 14.4463 1086 109.683 351.24 463.362
2190 0 77.2777 10.9346 845 115.228 351.67 465.892
2191 0 82.1175 12.1046 994 112.742 350.694 467.691
2192 0 84.1572 13.5223 1138 111.466 350.006 466.699
2193 0 87.2238 14.1016 1230 111.583 351.014 461.817
2194 0 89.3208 11.6322 1039 116.138 350.346 463.861
2195 0 93.2141 16.3602 1525 109.779 349.289 461.439
2196 0 97.1707 12.1744 1183 116.603 348.865 462.193
2197 0 99.2605 13.52 1342 115.901 349.315 458.799
2198 0 105.261 16.2644 1712 111.446 349.143 457.258
2199 0 108.251 14.9653 1620 113.65 347.768 459.245
2200 0 112.169 15.0487 1688 113.866 346.194 457.213
2201 0 116.129 15.9995 1858 111.964 346.102 458.885
2202 0 116.329 10.4703 1218 122.574 343.805 452.395
2203 0 124.161 17.0666 2119 111.827 344.662 443.919
2204 0 125.321 14.5466 1823 117.184 343.101 446.77
2205 1 74.4218 7.59186 565 116.758 343.042 479.402
2206 0 73.2435 10.4446 765 117.016 342.682 473.274
2207 0 78.1264 9.80463 766 118.074 341.976 469.129
2208 0 78.2156 11.0975 868 116.266 342.022 468.798
2209 0 78.2455 12.3841 969 116.867 341.206 461.429
2210 0 84.1245 11.7802 991 115.448 342.289 460.529
2211 0 84.1828 14.1478 1191 112.469 341.521 458.178
2212 0 87.4066 12.745 1114 114.963 342.349 452.794
2213 0 90.2334 14.2076 1282 112.392 341.609 453.837
2214 0 92.1402 11.2654 1038 115.866 342.367 456.904
2215 0 96.3257 14.9285 1438 111.486 342.461 450.202
2216 0 96.2831 11.5493 1112 118.005 343.102 446.343
2217 0 99.3112 12.637 1255 117.414 343.775 445.5
2218 0 103.136 14.4373 1489 114.338 344.104 442.036
2219 0 107.236 13.0927 1404 116.561 344.216 446.383
2220 0 106.459 11.4316 1217 120.867 344.879 435.979
2221 0 112.24 13.1058 1471 117.73 345.871 437.997
2222 0 115.182 12.6669 1459 119.005 346.269 432.803
2223 0 115.404 12.3999 1431 119.475 347.009 440.577
2224 0 122.305 13.5972 1663 118.403 346.412 431.438
2225 0 125.536 12.3869 1555 120.689 349.048 430.001
2226 0 132.577 14.7084 1950 115.41 349.2 434.247
2227 1 77.3312 11.0563 855 112.833 349.132 462.083
2228 0 77.2909 10.5834 818 114.251 348.531 461.357
2229 0 80.46 12.6274 1016 112.636 351.199 455.104
2230 0 83.1429 11.823 983 111.649 351.027 459.225
2231 0 88.4327 11.0932 981 112.675 351.123 459.106
2232 0 90.3801 13.1555 1189 112.014 350.846 453.218
2233 0 92.4504 13.0773 1209 112.568 351.539 456.804
2234 0 96.4083 13.1731 1270 111.996 351.596 455.697
2235 0 98.3763 13.2146 1300 113.089 351.385 454.292
2236 0 101.414 13.0159 1320 113.44 350.124 454.909
2237 0 105.427 15.8213 1668 109.86 350.668 451.889
2238 0 109.359 13.2316 1447 115.056 348.351 452.318
2239 0 110.2 13.4573 1483 115.705 348.438 449.194
2240 0 113.262 11.6368 1318 117.897 347.598 450.733
2241 0 116.294 12.9413 1505 116.21 347.292 450.375
2242 0 123.34 12.9884 1602 115.202 345.702 452.31
2243 0 123.466 12.635 1560 117.109 345.735 448.17
2244 0 131.323 14.9631 1965 113.901 344.333 441.239
2245 0 132.575 13.185 1748 116.136 344.136 445.894
2246 1 77.3726 10.9341 846 113.554 343.4 469.18
2247 0 80.1819 11.8605 951 114.764 344.027 469.898
2248 0 82.2367 13.3639 1099 112.246 344.359 465.611
2249 0 86.296 11.5996 1001 113.777 343.081 462.13
2250 0 85.3971 9.0167 770 117.482 342.23 461.165
2251 0 91.1804 12.1517 1108 111.634 342.529 461.905
2252 0 93.1631 12.0219 1120 112.538 341.471 460.56
2253 0 97.4526 14.4686 1410 110.23 342.78 454.674
2254 0 99.1039 12.5525 1244 113.323 342.383 452.245
2255 0 99.2958 11.2391 1116 115.885 340.903 455.955
2256 0 104.125 12.2545 1276 114.97 343.034 448.8
2257 0 105.173 10.9439 1151 117.165 342.091 443.467
2258 0 110.486 13.7846 1523 112.026 342.731 446.428
2259 0 110.467 10.709 1183 117.241 343.474 442.674
2260 0 116.412 11.0556 1287 115.644 343.688 442.73
2261 0 119.389 11.8939 1420 115.208 344.894 433.148
2262 0 121.423 13.07 1587 113.919 345.118 434.032
2263 0 124.568 11.1505 1389 116.927 345.488 429.891
2264 1 73.2028 14.0432 1028 105.346 345.511 463.41
2265 0 73.1853 11.0268 807 111.057 345.506 460.618
2266 0 76.124 10.6274 809 112.056 347.231 454.661
2267 0 80.2847 14.897 1196 105.399 346.476 458.052
2268 0 81.2336 16.8034 1365 104.097 347.478 451.891
2269 0 83.2758 11.7561 979 112.637 349.044 457.398
2270 0 81.1237 10.823 878 115.182 348.884 453.156
2271 0 86.226 11.5974 1000 114.113 349.496 451.144
2272 0 91.1505 13.0773 1192 109.824 349.746 456.301
2273 0 93.2013 12.5857 1173 111.672 349.889 451.167
2274 0 95.6229 13.5741 1298 111.289 351.265 446.767
2275 0 102.295 12.9722 1327 112.217 351.282 444.366
2276 0 103.448 13.5913 1406 111.944 350.482 446.331
2277 0 110.427 18.6097 2055 104.015 349.628 450.891
2278 0 110.577 12.3443 1365 115.817 350.981 444.634
2279 0 115.493 14.2606 1647 113.168 349.713 446.847
2280 0 117.255 16.6646 1954 109.778 350.513 450.307
2281 0 124.567 13.5269 1685 114.816 348.221 447.126
2282 1 178.516 11.8029 2107 120.012 348.374 419.79
2283 1 129.486 11.8391 1533 119.879 348.068 440.834
2284 1 73.1712 11.5346 844 113.842 347.019 468.13
2285 0 79.1452 11.7506 930 110.732 344.326 469.161
2286 0 75.1544 9.72664 731 113.986 344.037 465.949
2287 0 84.1258 12.2317 1029 111.17 342.903 468.046
2288 0 86.2579 12.1496 1048 113.37 343.191 460.953
2289 0 86.1473 11.4919 990 114.251 342.573 462.888
2290 0 90.1004 11.3429 1022 114.431 342.771 458.204
2291 0 95.1597 12.4633 1186 111.587 341.089 458.223
2292 0 98.2575 11.3172 1112 113.121 341.246 454.108
2293 0 103.188 13.5287 1396 109.19 340.872 454.936
2294 0 103.281 14.3105 1478 109.946 341.793 452.709
2295 0 106.179 12.7897 1358 112.758 340.387 445.471
2296 0 108.311 13.5073 1463 111.273 341.422 448.239
2297 0 112.219 12.6538 1420 112.56 342.128 444.074
2298 0 115.262 11.8166 1362 113.552 341.95 440.485
2299 0 120.384 15.2346 1834 107.189 342.173 440.182
2300 0 116.419 11.45 1333 114.012 342.361 435.382
2301 0 124.301 13.5397 1683 108.956 343.378 437.175
2302 0 126.503 13.8574 1753 107.867 343.123 433.743
2303 0 132.29 15.8893 2102 104.836 343.519 428.052
2304 0 134.33 13.7423 1846 105.943 344.501 429.43
2305 1 12.0073 3.66445 44 90.5 343.136 490.136
2306 0 9.00059 9.33272 84 85.7619 344.333 488.857
2307 0 11.0042 6.63382 73 91.9315 345.082 486.767
2308 0 10.0139 9.58663 96 88.0521 346.229 487.219
2309 1 82.3303 9.42545 776 109.098 346.022 447.658
2310 0 88.2046 14.8065 1306 101.315 347.368 446.248
2311 0 93.1754 10.4212 971 105.693 347.38 449.677
2312 0 93.3384 10.2102 953 108.461 347.782 440.822
2313 0 95.3349 12.7026 1211 105.761 348.054 441.642
2314 0 100.646 10.4028 1047 108.655 349.331 443.392
2315 0 105.357 11.9213 1256 107.537 349.205 441.046
2316 0 105.455 12.356 1303 106.633 350.735 437.425
2317 0 109.371 11.2827 1234 108.181 350.136 438.344
2318 0 110.488 9.47615 1047 111.442 350.728 438.567
2319 0 115.467 12.0381 1390 107.319 349.396 441.421
2320 0 117.465 11.4672 1347 108.33 348.992 444.029
2321 0 118.413 13.0222 1542 107.394 348.833 440.996
2322 0 122.472 10.8515 1329 111.207 348.683 434.354
2323 0 130.339 12.7514 1662 107.503 349.211 436.92
2324 0 130.35 15.6732 2043 104.156 348.208 431.19
2325 1 79.2678 10.6853 847 103.601 347.817 464.3
2326 0 83.2727 10.4356 869 104.205 346.738 462.168
2327 0 82.3722 8.10954 668 111.584 346.349 459.337
2328 0 91.3155 12.068 1102 104.313 345.466 463.752
2329 0 90.3067 13.9857 1263 102.247 344.713 462.663
2330 0 94.35 10.832 1022 108.268 344.551 455.295
2331 0 97.3299 10.5312 1025 107.966 344.89 458.155
2332 0 101.155 9.50025 961 107.487 343.729 463.08
2333 0 104.475 11.1606 1166 107.42 343.712 456.632
2334 0 106.603 11.4162 1217 108.515 342.627 440.063
2335 0 111.45 11.2068 1249 108.405 342.41 439.183
2336 0 113.529 10.1648 1154 110.38 341.719 440.571
2337 0 115.612 11.158 1290 109.57 342.395 441.384
2338 0 118.53 10.8664 1288 110.733 341.513 436.571
2339 0 121.473 12.933 1571 108.323 341.137 434.762
2340 0 126.523 14.2109 1798 105.314 341.531 437.372
2341 0 131.436 10.431 1371 109.768 343.552 429.096
2342 1 71.4377 5.05336 361 111.452 343.028 458.693
2343 0 74.488 11.9214 888 102.49 342.376 458.047
2344 0 82.1902 9.06434 745 105.156 343.658 458.985
2345 0 82.1611 12.0738 992 98.8004 343.888 461.925
2346 1 8.00028 1.74994 14 99.9286 342.071 492.143
2347 0 9.00719 5.77317 52 91.75 342.288 491.538
2348 1 161.703 10.6059 1715 110.182 345.634 408.111
2349 1 93.1615 14.0187 1306 100.054 345.238 450.652
2350 0 92.2884 13.3603 1233 102.124 346.852 447.311
2351 0 101.23 14.8473 1503 99.1031 347.53 450.11
2352 1 183.401 11.9302 2188 109.393 347.887 405.405
2353 1 103.222 10.9085 1126 105.75 348.167 439.838
2354 0 109.308 13.0365 1425 102.811 349.392 440.349
2355 0 110.135 11.8128 1301 104.191 349.578 443.693
2356 0 111.405 10.8253 1206 108.376 350.455 439.46
2357 1 13.0015 4.92249 64 94.4688 348.453 491.75
2358 0 14.015 6.8498 96 94.0208 349.698 492.115
2359 0 12.0155 3.41227 41 96.4878 348.927 496
2360 0 8.0007 3.12473 25 98.44 348.72 498.76
2361 0 10.001 1.59983 16 99.1875 348.938 499.25
2362 0 9.00132 4.44379 40 95.475 349 500.1
2363 0 7.00199 6.71237 47 95.1915 348.021 496.872
2364 0 14.004 5.42702 76 98.4737 348.263 499.066
2365 1 87.3505 9.4905 829 106.228 347.049 465.525
2366 0 88.2936 13.0247 1150 102.809 346.623 464.829
2367 0 92.1412 7.96603 734 110.076 346.774 466.187
2368 0 87.1191 4.75212 414 117.208 346.331 455.184
2369 0 97.09 9.56844 929 109.288 344.481 459.288
2370 0 105.221 13.2864 1398 103.397 343.433 462.562
2371 0 109.246 14.1333 1544 102.985 343.081 461.059
2372 0 108.273 12.1453 1315 106.85 342.143 458.271
2373 0 112.264 11.7669 1321 107.145 342.521 460.209
2374 0 112.248 12.7218 1428 107.607 341.436 445.334
2375 0 119.254 12.6537 1509 107.158 340.613 451.854
2376 0 121.357 12.0389 1461 107.71 340.688 453.259
2377 0 125.446 13.5277 1697 107.254 341.347 444.862
2378 0 131.33 13.8887 1824 107.005 341.386 442.932
2379 0 135.468 14.4389 1956 105.998 339.589 440.168
2380 0 140.252 20.1851 2831 97.7344 340.353 442.62
2381 0 142.351 13.6283 1940 107.106 340.76 432.224
2382 0 146.62 12.5358 1838 108.741 341.126 428.337
2383 0 149.492 11.0441 1651 111.59 340.664 425.231
2384 0 153.26 10.0874 1546 113.16 341.223 424.888
2385 0 160.547 11.6103 1864 111.533 342.099 420.608
2386 0 163.47 12.7241 2080 110.047 342.574 422.362
2387 0 168.754 16.687 2816 104.416 343.379 422.8
2388 0 171.782 13.9305 2393 108.771 343.002 420.585
2389 0 178.789 13.2782 2374 111.535 343.918 409.446
2390 0 181.648 12.4031 2253 113.572 344.312 402.844
2391 0 189.593 15.565 2951 108.69 345.056 408.194
2392 0 190.627 12.8733 2454 115.566 344.681 395.883
2393 0 199.528 12.9506 2584 116.444 345.786 397.785
2394 0 207.83 16.3018 3388 111.895 345.687 397.9
2395 0 213.37 14.8193 3162 115.11 346.997 396.973
2396 0 218.551 13.1045 2864 119.282 346.568 384.339
2397 0 227.915 12.1405 2767 119.692 348.144 384.46
2398 0 235.629 14.3276 3376 116.001 348.785 387.753
2399 0 242.527 13.4913 3272 118.557 348.314 383.012
2400 0 241.609 9.35395 2260 126.611 349.285 367.047
2401 0 244.869 8.06963 1976 122.131 348.022 407.558
2402 1 61.3431 11.5742 710 104.738 348.135 477.884
2403 0 62.1751 14.1214 878 101.604 346.755 479.696
2404 0 67.1954 12.8431 863 103.592 346.946 476.948
2405 0 71.0817 13.2523 942 102.361 346.222 478.349
2406 0 71.0984 9.80332 697 108.914 345.987 475.288
2407 0 69.3852 7.72499 536 111.203 345.647 480.297
2408 0 74.1906 15.0289 1115 101.447 346.517 479.415
2409 0 74.3614 11.2693 838 107.13 345.987 478.051
2410 0 76.1747 11.6312 886 107.192 344.651 481.711
2411 0 79.4498 15.0032 1192 103.96 344.734 475.136
2412 0 81.2631 12.3919 1007 108.051 342.4 476.657
2413 0 86.5883 11.2486 974 110.419 343.489 472.21
2414 0 85.1505 11.2976 962 111.146 342.42 472.947
2415 0 89.2531 12.7054 1134 110.407 342.638 466.478
2416 0 91.327 14.0046 1279 108.321 341.594 467.386
2417 0 94.2423 12.4679 1175 111.861 341.222 463.064
2418 0 94.2281 11.1538 1051 114.601 341.003 458.216
2419 0 97.2844 11.7079 1139 114.21 340.548 457.91
2420 0 101.475 12.1508 1233 113.205 340.756 456.135
2421 1 56.2768 8.6892 489 112.305 339.489 482.233
2422 0 59.0576 8.44938 499 113.505 340.395 478.22
2423 0 61.1142 10.3086 630 113.719 339.927 473.498
2424 0 63.1991 12.4369 786 111.013 339.802 473.618
2425 0 64.5539 12.6251 815 111.465 339.877 470.563
2426 0 67.2401 12.1951 820 111.946 340.38 471.49
2427 0 66.3771 10.7718 715 113.417 339.93 474.066
2428 0 68.1747 12.7467 869 113.377 341.069 462.922
2429 0 71.2056 11.4176 813 115.41 341.392 464.615
2430 0 75.3545 12.7929 964 113.187 342.206 462.851
2431 0 79.3671 17.8411 1416 104.49 342.667 461.814
2432 0 80.6509 15.0525 1214 109.281 343.577 462.059
2433 0 83.3969 13.9214 1161 111.168 344.028 462.626
2434 0 91.1094 15.8381 1443 106.281 345.099 452.875
2435 0 101.193 20.199 2044 98.1996 345.1 448.005
2436 0 97.329 23.2716 2265 97.3581 346.437 449.465
2437 0 96.5299 17.4039 1680 106.269 347.283 452.804
2438 0 97.3791 19.6243 1911 104.483 347.418 455.523
2439 1 53.0687 10.0059 531 120.002 347.164 478.087
2440 0 56.1599 12.1261 681 115.705 347.875 478.909
2441 0 55.3012 11.1028 614 120.638 347.741 475.798
2442 0 56.0964 11.5337 647 123.261 348.972 477.527
2443 0 60.2684 13.8879 837 119.385 346.374 478.024
2444 0 60.3648 10.8341 654 125.31 347.919 480.498
2445 0 63.1623 15.8639 1002 116.409 346.261 475.149
2446 0 67.123 14.5405 976 117.725 347.356 480.738
2447 0 69.064 13.2341 914 121.44 346.186 476.679
2448 0 72.2526 14.7676 1067 118.868 345.138 474.113
2449 0 71.1365 11.2741 802 125.766 344.577 471.449
2450 0 78.3474 15.7759 1236 116.701 344.948 473.237
2451 0 84.3743 15.6446 1320 116.122 343.975 472.526
2452 0 84.1853 14.6344 1232 117.985 343.154 475.229
2453 0 88.2256 14.1569 1249 119.589 342.916 473.107
2454 0 85.2793 11.3158 965 125.879 342.379 471.568
2455 0 93.3305 13.9504 1302 121.454 341.678 464.315
2456 0 98.9166 19.9057 1969 108.928 340.664 468.177
2457 0 95.3444 13.3936 1277 122.045 341.387 452.333
2458 0 101.512 14.4711 1469 119.317 341.272 456.844
2459 0 105.42 14.2573 1503 119.819 340.78 455.679
2460 0 109.424 15.1521 1658 117.501 341.062 457.469
2461 1 61.4628 12.8208 788 119.395 340.83 477.85
2462 0 61.1742 13.5515 829 117.995 340.688 476.48
2463 0 64.3924 13.2003 850 119.009 341.536 474.732
2464 0 68.2795 13.7816 941 117.095 341.445 470.842
2465 0 66.1349 14.5611 963 116.109 340.217 469.043
2466 0 69.0874 13.0125 899 117.793 340.296 469.887
2467 0 70.1354 11.7202 822 120.029 340.78 467.411
2468 0 75.1486 17.991 1352 108.193 341.121 467.606
2469 0 78.2344 15.3002 1197 112.464 342.067 465.15
2470 0 81.1226 15.1006 1225 113.354 341.237 461.468
2471 0 81.1883 13.4009 1088 116.812 341.705 459.451
2472 0 84.2499 13.6024 1146 116.441 342.112 456.202
2473 0 87.1568 14.56 1269 114.902 342.27 456.12
2474 0 90.1204 14.4252 1300 114.712 342.873 457.175
2475 0 91.2134 11.0181 1005 120.741 344.286 454.174
2476 0 97.3768 13.6172 1326 115.652 343.676 454.972
2477 0 97.3005 11.8499 1153 119.799 345.837 453.034
2478 0 99.2446 12.0813 1199 121.019 345.284 447.546
2479 0 105.215 12.6693 1333 119.907 347.072 447.594
2480 0 111.192 14.6864 1633 115.64 346.586 446.722
2481 0 114.297 12.5813 1438 118.643 347.764 447.306
2482 0 120.2 12.6539 1521 116.585 346.493 451.809
2483 0 126.367 13.6507 1725 115.953 348.104 443.809
2484 1 69.4208 12.7627 886 112.606 346.856 473.333
2485 0 71.1844 13.2894 946 112.981 347.759 471.643
2486 0 75.2632 13.0077 979 114.033 346.947 470.374
2487 0 78.4574 13.0007 1020 113.851 346.44 471.262
2488 0 82.3152 11.6625 960 115.707 346.219 471.931
2489 0 85.1228 13.4629 1146 114.868 346.35 466.133
2490 0 84.1219 11.8281 995 118.738 346.742 464.461
2491 0 90.1315 13.3694 1205 116.162 345.066 467.368
2492 0 95.2493 16.9975 1619 111.174 344.92 466.882
2493 0 99.1382 12.074 1197 119.261 344.899 464.951
2494 0 100.209 14.4298 1446 117.573 343.444 458.991
2495 0 106.157 14.7894 1570 117.237 343.797 459.251
2496 0 107.227 13.131 1408 119.987 341.99 457.816
2497 1 66.1235 9.84522 651 119.568 341.945 481.453
2498 0 65.1152 11.1495 726 120.479 340.657 475.996
2499 0 71.126 12.4286 884 115.778 341.561 476.791
2500 0 72.2714 12.965 937 116.411 340.308 470.177
2501 0 72.1998 9.83382 710 121.823 340.552 469.882
2502 0 78.1688 13.4964 1055 115.909 340.664 465.676
2503 0 81.1244 10.8968 884 119.83 340.548 467.018
2504 0 82.1711 12.3644 1016 118.3 340.583 463.234
2505 0 87.3758 14.0084 1224 113.87 340.729 466.829
2506 0 89.1547 13.1345 1171 117.607 341.008 460.441
2507 0 93.2063 13.5935 1267 117.569 341.149 458.141
2508 0 96.1312 14.3554 1380 116.864 341.622 451.868
2509 0 96.2148 14.1558 1362 118.169 341.75 452.586
2510 0 102.302 16.1483 1652 114.291 342.168 452.932
2511 0 105.398 15.4273 1626 116.072 341.849 446.012
2512 0 112.267 14.8575 1668 115.306 342.414 452.049
2513 0 109.208 15.6673 1711 116.646 343.148 446.898
2514 0 112.374 13.8111 1552 118.894 343.891 448.993
2515 0 119.292 15.5082 1850 116.687 345.262 440.607
2516 0 122.339 17.1001 2092 114.211 345.361 436.974
2517 0 124.367 18.4695 2297 112.729 347.175 437.891
2518 0 128.346 19.1358 2456 111.456 346.37 437.322
2519 0 131.387 18.1601 2386 113.027 346.829 438.244
2520 0 132.528 14.7063 1949 121.774 346.748 429.709
2521 0 139.317 16.8322 2345 117.246 348.168 433.856
2522 0 145.42 15.1286 2200 120.535 347.352 432.79
2523 1 88.2085 10.0444 886 124.824 347.732 462.526
2524 0 92.1587 13.3465 1230 121.022 347.218 460.508
2525 0 94.1933 16.1689 1523 117.752 347.745 458.416
2526 0 100.096 14.3962 1441 121.099 347.894 456.944
2527 0 99.1447 13.3441 1323 125.085 348.305 452.252
2528 0 107.215 16.2943 1747 118.793 347.353 459.191
2529 0 110.299 16.8179 1855 118.184 346.481 456.907
2530 0 114.11 16.8521 1923 118.755 348.092 449.539
2531 0 117.105 15.5928 1826 121.266 347.107 451.039
2532 0 119.208 18.0776 2155 117.742 347.167 449.189
2533 1 61.1195 10.0295 613 115.93 345.158 480.886
2534 0 63.0999 7.81301 493 122.85 343.783 472.621
2535 0 67.1003 7.68998 516 119.601 343.101 471.105
2536 0 67.1131 8.76134 588 138.245 342.054 471.384
2537 0 71.1069 11.3632 808 112.611 342.459 467.056
2538 0 73.1074 9.5476 698 115.175 341.496 468.556
2539 0 76.1807 9.41184 717 115.573 340.98 467.623
2540 0 78.1733 14.0073 1095 108.438 340.317 467.512
2541 0 77.1107 8.96115 691 120.253 341.061 456.867
2542 0 86.1421 12.1311 1045 113.196 340.766 458.748
2543 0 87.4434 11.6075 1015 114.671 341.441 456.961
2544 0 90.1086 10.9867 990 114.906 339.811 450.347
2545 0 90.3262 10.1078 913 115.492 339.934 450.034
2546 0 93.096 12.181 1134 115.508 341.613 454.946
2547 0 96.1657 9.702 933 117.618 342.055 459.563
2548 0 98.0868 10.6946 1049 119.133 341.523 448.97
2549 0 104.185 12.6794 1321 115.236 342.447 448.207
2550 0 106.338 13.0056 1383 114.471 341.889 449.541
2551 0 108.251 9.91215 1073 121.157 343.492 442.337
2552 0 114.123 11.1984 1278 118.549 342.559 443.401
2553 0 117.169 15.4307 1808 112.762 343.166 435.685
2554 0 117.179 12.6132 1478 117.448 342.895 433.765
2555 0 120.355 11.6157 1398 120.03 344.632 431.866
2556 0 127.501 11.5136 1468 120.854 344.209 427.832
2557 1 81.1819 9.4356 766 114.824 345.409 459.419
2558 0 79.1881 5.89735 467 117.36 345.178 460.321
2559 0 82.2246 11.6997 962 112.357 346.784 455.242
2560 0 85.1884 9.01531 768 114.578 347.281 461.546
2561 0 89.1968 12.8031 1142 110.75 347.473 457.004
2562 0 93.3051 12.8932 1203 110.192 349.121 459.324
2563 0 96.2522 12.9348 1245 112.131 349.823 452.928
2564 0 97.3873 11.3567 1106 116.23 350.116 449.752
2565 0 104.28 9.76219 1018 117.298 349.183 455.893
2566 0 105.208 11.9002 1252 115.343 349.88 451.501
2567 0 106.241 12.4151 1319 115.184 349.095 452.796
2568 0 112.302 10.73 1205 118.17 350.055 446.049
2569 0 117.281 10.948 1284 118.507 348.958 446.945
2570 0 123.383 10.3742 1280 118.652 348.209 447.312
2571 1 211.618 11.568 2448 126.374 347.08 397.955
2572 1 134.425 12.7506 1714 115.38 347.87 448.165
2573 1 79.3184 9.82117 779 114.123 347.173 471.676
2574 0 80.2615 10.391 834 113.577 345.872 472.205
2575 0 82.1998 12.2871 1010 110.685 344.552 472.865
2576 0 86.5206 10.8414 938 112.687 344.502 470.868
2577 0 85.2926 7.52703 642 118.62 343.681 464.695
2578 1 160.416 11.7445 1884 115.727 342.963 435.102
2579 0 162.727 13.3967 2180 113.545 342.438 433.737
2580 0 167.636 13.7321 2302 114.019 341.735 429.178
2581 0 174.448 12.2329 2134 116.079 342.077 429.023
2582 1 100.194 11.0785 1110 111.195 341.673 464.697
2583 0 100.236 8.25055 827 117.098 341.074 456.568
2584 0 106.243 11.7278 1246 111.259 339.655 455.228
2585 0 107.31 11.4434 1228 112.7 341.697 448.98
2586 0 111.276 11.3951 1268 113.07 340.023 446.629
2587 0 109.248 12.1284 1325 111.651 340.408 450.044
2588 0 115.448 10.1171 1168 114.344 340.889 448.331
2589 1 127.313 11.3107 1440 111.071 341.405 447.2
2590 0 122.273 8.98806 1099 117.427 341.431 436.699
2591 0 122.325 14.6822 1796 108.209 342.046 442.552
2592 0 129.358 13.7603 1780 109.968 342.192 440.729
2593 0 128.226 11.7995 1513 114.783 342.171 433.708
2594 0 135.705 11.5692 1570 113.639 342.417 435.343
2595 0 137.998 14.6379 2020 109.562 343.314 433.945
2596 0 144.375 17.3021 2498 104.927 343.282 432.645
2597 0 145.349 12.7761 1857 112.999 344.093 425.492
2598 1 161.706 10.6304 1719 111.797 345.479 426.088
2599 0 162.637 12.4141 2019 109.69 345.061 424.688
2600 0 159.815 11.3631 1816 113.402 345.923 416.43
2601 1 95.3529 9.9525 949 112.162 345.895 450.023
2602 0 99.1778 13.2388 1313 105.79 346.032 451.6
2603 0 101.603 11.3284 1151 107.857 346.728 453.78
2604 0 106.716 13.5594 1447 106.108 347.779 450.028
2605 0 110.288 14.2445 1571 103.188 347.504 452.097
2606 0 113.299 13.1775 1493 103.824 347.093 446.938
2607 0 115.31 11.0571 1275 110.111 346.65 438.4
2608 0 122.28 15.0556 1841 104.608 347.041 446.695
2609 0 121.315 8.19355 994 115.097 347.155 447.832
2610 0 127.425 10.5003 1338 108.501 346.395 455.216
2611 0 129.772 12.0673 1566 109.586 345.903 446.261
2612 0 135.278 12.4337 1682 109.034 345.853 444.309
2613 0 137.408 12.7066 1746 108.95 346.538 439.836
2614 1 82.1829 8.84612 727 104.898 345.084 476.585
2615 0 85.2446 10.9567 934 105.056 344.061 465.593
2616 0 89.3231 9.84068 879 106.557 343.333 463.47
2617 0 92.2544 12.9967 1199 101.88 343.019 466.897
2618 0 94.8231 9.80774 930 106.9 342.067 456.788
2619 0 100.227 16.0137 1605 97.8885 341.357 456.784
2620 0 98.2927 13.1648 1294 103.189 340.724 461.145
2621 0 102.368 12.4355 1273 104.353 340.454 455.601
2622 0 106.333 16.8621 1793 97.5064 340.471 456.983
2623 0 107.223 14.1668 1519 102.678 340.213 453.149
2624 0 111.391 14.6242 1629 101.729 340.351 451.242
2625 0 115.355 12.0931 1395 106.169 339.499 446.69
2626 0 116.289 15.2121 1769 101.418 339.673 447.349
2627 0 123.229 17.999 2218 97.2687 339.743 450.834
2628 0 125.103 13.0612 1634 104.708 340.379 444.299
2629 0 126.163 13.7441 1734 104.764 339.889 431.05
2630 0 132.486 16.0621 2128 98.4591 340.765 446.444
2631 0 133.479 13.4853 1800 104.757 340.856 429.812
2632 0 139.305 12.1675 1695 105.802 341.63 429.394
2633 1 82.1411 4.54097 373 103.756 340.592 467.48
2634 0 87.114 10.2509 893 101.586 341.123 456.093
2635 0 92.0948 11.0647 1019 96.5996 341.692 463.617
2636 0 93.3045 13.8364 1291 97.0194 342.673 454.438
2637 0 96.2082 10.8099 1040 100.687 342.691 453.346
2638 0 96.4056 11.5139 1110 100.995 344.35 449.392
2639 0 99.3876 10.3836 1032 103.266 343.851 445.046
2640 0 102.191 12.6919 1297 100.532 346.046 441.308
2641 0 102.191 12.6919 1297 127.094 348.046 441.308
2642 1 129.408 14.3886 1862 94.4356 348.522 435.978
2643 0 139.517 23.0796 3220 86.1854 348.625 444.339
2644 0 140.272 11.0072 1544 97.0531 348.554 441.138
2645 0 143.289 15.0116 2151 94.8954 347.495 430.281
2646 0 145.808 9.89657 1443 96.7145 347.449 444.103
2647 0 154.507 15.5398 2401 94.7376 346.858 428.612
2648 0 163.6 10.7152 1753 99.336 347.071 423.788
2649 1 98.4839 9.7681 962 93.4189 345.764 461.057
2650 0 100.226 10.3765 1040 93.6192 344.867 460.637
2651 0 108.455 14.1902 1539 88.2826 343.465 471.545
2652 0 105.163 12.5994 1325 95.0098 344.303 450.457
2653 0 109.496 12.2927 1346 94.8915 342.61 453.637
2654 0 115.392 12.3665 1427 93.3378 341.351 454.756
2655 0 118.538 14.9488 1772 91.6501 341.009 446.955
2656 0 116.309 11.3749 1323 94.836 340.731 451.136
2657 0 121.428 13.7695 1672 92.9378 340.358 432.388
2658 0 124.597 9.96818 1242 96.4412 340.134 448.005
2659 0 127.686 10.6981 1366 96.9231 338.919 443.668
2660 0 135.4 17.2305 2333 92.0947 339.581 447.456
2661 0 138.433 14.2452 1972 95.7723 339.222 441.937
2662 0 145.516 11.6895 1701 96.1376 339.13 434.46
2663 0 145.395 18.0886 2630 91.0293 338.81 428.339
2664 0 150.872 20.534 3098 89.5236 338.607 427.742
2665 0 153.687 21.9667 3376 88.9606 339.007 415.474
2666 0 157.406 17.3183 2726 93.62 339.238 426.952
2667 0 161.548 10.2446 1655 100.948 339.444 418.392
2668 0 165.632 13.0289 2158 99.7572 339.993 421.214
2669 1 97.2991 15.2211 1481 93.7009 340.564 453.624
2670 0 98.1578 11.7871 1157 98.3691 341.688 446.373
2671 0 102.333 11.9707 1225 96.6571 340.594 448.144
2672 0 103.251 11.2541 1162 99.2246 341.394 436.856
2673 0 109.208 22.6266 2471 88.6702 341.053 445.417
2674 0 115.252 17.6309 2032 93.0428 343.383 438.042
2675 0 112.671 9.65645 1088 101.067 344.385 439.817
2676 0 117.46 9.49262 1115 101.566 344.878 438.561
2677 0 119.29 10.0595 1200 101.541 345.204 432.218
2678 0 130.565 15.2185 1987 95.0815 344.539 436.592
2679 0 127.439 10.7502 1370 101.511 345.781 429.132
2680 0 135.437 16.2806 2205 95.1569 345.639 430.556
2681 0 136.419 15.2251 2077 96.9778 345.948 426.484
2682 0 143.477 15.1592 2175 95.3071 346.577 433.754
2683 0 143.361 11.8093 1693 97.8045 346.247 427.716
2684 0 145.279 12.328 1791 96.7621 346.967 426.701
2685 0 154.708 12.9858 2009 95.5699 345.229 422.676
2686 1 89.2278 17.3825 1551 88.1947 344.755 460.304
2687 0 92.3519 14.6505 1353 89.3023 344.823 464.812
2688 0 90.1979 11.0757 999 94.0701 345.924 453.937
2689 0 97.4107 12.1958 1188 92.3005 345.645 456.107
2690 0 98.3339 18.5592 1825 87.4926 345.107 456.773
2691 0 98.3516 11.7741 1158 92.9206 344.758 464.639
2692 0 106.585 12.9287 1378 91.9702 345.628 459.692
2693 0 111.464 15.6194 1741 90.7163 344.169 453.538
2694 0 111.193 15.4686 1720 91.4744 343.581 448.449
2695 0 112.631 22.9778 2588 86.0862 342.991 455.957
2696 0 113.411 12.1505 1378 94.8113 341.595 453.159
2697 0 113.361 11.3002 1281 96.5105 341.804 444.6
2698 0 120.374 11.672 1405 96.0776 341.293 443.402
2699 0 124.448 13.8933 1729 91.8219 340.547 433.163
2700 0 124.437 14.2964 1779 92.3176 340.679 431.16
2701 0 130.495 18.9202 2469 93.3208 340.36 434.846
2702 0 136.321 15.8302 2158 84.6691 339.651 434.86
2703 1 257.961 8.9277 2303 93.7916 339.583 376.865
2704 1 218.491 24.8523 5430 81.4936 338.41 402.357
2705 0 211.759 20.3392 4307 84.9406 338.602 403.418
2706 0 222.443 15.7344 3500 88.8429 338.747 368.474
2707 0 308.256 29.748 9170 80.4714 337.61 352.423
2708 1 94.4114 12.5091 1181 85.5445 338.884 452.568
2709 0 98.3887 24.6471 2425 78.0722 338.71 456.49
2710 0 100.393 12.6802 1273 85.2946 339.88 451.693
2711 0 103.87 18.398 1911 81.9236 340.297 449.08
2712 0 104.722 11.1916 1172 88.0316 340.996 443.997
2713 0 109.696 9.42605 1034 88.1586 341.602 453.398
2714 0 110.176 15.1031 1664 84.1659 341.171 450.598
2715 0 122.184 16.426 2007 83.9063 342.509 440.328
2716 0 123.542 16.9577 2095 84.0668 342.148 436.272
2717 0 130.535 18.3476 2395 81.8313 341.891 443.231
2718 0 124.365 12.5276 1558 88.6605 342.601 424.331
2719 1 145.56 5.9082 860 89.35 343.866 450.724
2720 0 147.323 9.69978 1429 88.4626 343.899 437.877
2721 0 146.976 12.6755 1863 87.9517 344 426.885
2722 0 151.366 22.8651 3461 80.36 343.388 428.335
2723 0 153.456 13.6195 2090 85.8794 344.575 429.962
2724 1 282.108 13.8351 3903 89.0502 344.667 368.255
2725 1 88.3066 21.7651 1922 80.3554 344.712 451.74
2726 0 89.2995 13.9978 1250 85.5408 345.178 451.858
2727 0 92.6808 16.7025 1548 83.9134 345.326 449.278
2728 0 94.3457 16.1004 1519 84.5648 345.901 445.462
2729 0 95.8108 10.2076 978 88.9059 346.876 456.473
2730 0 100.138 16.8867 1691 84.5381 346.439 451.241
2731 0 102.328 13.7108 1403 86.0962 346.026 457.801
2732 0 110.715 21.036 2329 81.7836 345.744 450.343
2733 0 111.4 16.0862 1792 84.9531 345.936 453.814
2734 0 113.805 16.1329 1836 85.7849 345.792 446.631
2735 0 118.581 23.739 2815 81.1027 344.847 446.977
2736 0 120.384 25.6181 3084 80.3719 344.062 443.047
2737 0 116.43 18.8095 2190 85.2817 344.951 442.79
2738 0 124.422 18.1641 2260 85.8004 343.578 433.188
2739 0 129.648 16.0357 2079 86.8004 343.888 439.083
2740 0 134.552 21.2037 2853 84.0866 342.646 435.381
2741 0 131.758 10.2764 1354 92.6566 341.938 439.02
2742 0 140.27 22.6207 3173 83.5714 341.232 435.325
2743 0 143.581 13.9155 1998 89.4429 340.909 426.996
2744 0 149.521 11.9849 1792 90.779 340.057 424.628
2745 0 153.532 22.6142 3472 83.4816 338.528 425.514
2746 0 165.871 17.7427 2943 85.9106 338.742 430.932
2747 0 163.398 18.7456 3063 86.3111 339.426 424.801
2748 1 184.645 18.7874 3469 84.4013 338.118 428.066
2749 0 177.559 24.6115 4370 83.0222 338.721 408.085
2750 0 184.669 25.8246 4769 81.7943 337.862 408.935
2751 1 103.826 14.6398 1520 84.3329 339.128 456.978
2752 0 104.435 18.5474 1937 83.9577 338.863 445.3
2753 0 108.532 11.8951 1291 88.3153 339.383 442.172
2754 0 110.378 22.2147 2452 87.0648 340.28 444.349
2755 0 116.55 20.6264 2404 87.6751 340.167 444.904
2756 0 115.269 12.3277 1421 95.6629 341.365 440.668
2757 0 111.282 15.5102 1726 93.1419 341.588 437.764
2758 1 183.13 17.1244 3136 91.9155 342.483 416.212
2759 0 187.722 16.354 3070 93.1564 342.907 405.439
2760 0 188.825 12.4348 2348 97.8948 343.78 395.708
2761 0 191.641 11.9964 2299 98.8147 343.83 386.437
2762 0 200.883 13.2167 2655 96.2128 344.147 395.07
2763 1 146.534 13.6896 2006 92.9965 345.173 427.153
2764 0 155.575 19.5597 3043 89.0066 345.581 418.008
2765 1 91.3105 15.0147 1371 90.4734 344.87 446.909
2766 0 93.2858 17.8162 1662 88.3604 344.438 453.601
2767 0 97.2844 12.8695 1252 93.8307 346.085 444.176
2768 0 97.3796 20.2507 1972 87.7728 345.546 447.438
2769 0 103.27 17.7593 1834 89.7841 346.963 448.48
2770 0 102.678 14.638 1503 92.4078 346.661 443.232
2771 0 108.381 9.12519 989 96.4024 346.5 448.606
2772 1 203.871 7.50964 1531 101.579 347.206 404.011
2773 0 210.973 18.6516 3935 89.3149 346.199 423.198
2774 0 219.881 25.0818 5515 86.5164 345.869 414.858
2775 0 232.067 16.9649 3937 91.6038 346.22 415.33
2776 0 229.293 10.9598 2513 100.291 346.497 399.973
2777 0 237.823 12.0678 2870 98.3192 346.433 406.104
2778 0 244.688 22.7555 5568 89.0519 345.876 406.968
2779 1 151.511 7.28001 1103 96.5122 345.019 453.068
2780 0 153.344 10.3232 1583 94.0935 345.91 445.325
2781 0 151.649 19.0242 2885 88.8354 345.485 432.598
2782 0 149.256 12.1469 1813 94.7077 345.854 435.075
2783 0 159.365 16.9046 2694 89.9748 344.399 431.006
2784 0 164.32 13.0599 2146 92.3728 343.467 431.576
2785 0 172.911 18.5529 3208 88.8211 343.045 421.566
2786 0 182.542 24.0329 4387 86.1751 342.217 423.592
2787 0 188.409 11.6926 2203 94.9047 342.613 426.593
2788 0 190.695 10.876 2074 96.284 341.64 416.324
2789 1 108.44 20.4536 2218 85.2971 340.976 455.715
2790 0 111.551 14.0294 1565 89.8639 341.55 451.925
2791 0 116.559 19.5438 2278 84.2138 341.276 456.23
2792 0 119.263 21.9515 2618 82.068 340.777 458.564
2793 0 121.481 13.3848 1626 89.4446 340.447 437.284
2794 1 234.782 26.8547 6305 85.2198 339.964 387.401
2795 1 128.831 13.1257 1691 87.0036 340.761 452.221
2796 0 135.71 15.7616 2139 88.4423 341.05 431.208
2797 0 142.594 15.1339 2158 89.0158 341.17 436.41
2798 0 151.61 12.5783 1907 90.9743 342.218 427.068
2799 1 84.2311 9.54517 804 89.9851 342.26 453.098
2800 0 87.4781 16.3698 1432 84.0314 342.756 456.89
2801 0 86.4587 11.2886 976 87.4529 343.507 459.425
2802 0 93.2524 10.2732 958 89.4635 343.76 445.078
2803 0 103.321 9.26236 957 89.092 343.498 450.276
2804 0 105.952 18.9236 2005 83.1516 344.719 453.203
2805 0 99.2179 10.0788 1000 92.615 345.245 444.916
2806 0 95.2196 9.35732 891 89.6498 344.838 460.175
2807 0 106.266 17.0985 1817 87.2636 345.139 446.9
2808 0 106.257 9.83466 1045 93.9388 345.74 439.735
2809 0 107.259 16.1852 1736 88.0708 347.831 448.097
2810 0 113.237 19.1545 2169 86.4998 346.527 447.942
2811 0 120.638 18.2116 2197 88.4242 346.756 440.272
2812 0 125.399 11.8103 1481 93.6509 347.103 438.689
2813 0 125.376 13.958 1750 92.1297 349.035 429.151
2814 0 128.237 12.1962 1564 93.7596 348.862 437.364
2815 0 136.015 18.1524 2469 88.8153 347.111 439.263
2816 0 137.794 10.8568 1496 96.611 347.965 426.551
2817 1 151.521 20.0434 3037 87.5278 347.787 436.819
2818 1 80.4173 10.4579 841 92.8395 347.554 461.681
2819 0 84.4685 8.9856 759 94.2385 347.171 465.462
2820 0 89.2243 15.0295 1341 89.4705 346.795 462.153
2821 0 88.2348 14.8241 1308 89.948 346.893 459.33
2822 0 91.4384 11.5706 1058 91.8374 346.748 465.213
2823 0 94.4394 10.1864 962 94.2713 345.791 462.348
2824 0 103.208 22.1882 2290 85.0253 344.772 459.769
2825 0 101.354 15.885 1610 89.1068 344.18 462.462
2826 0 108.226 23.5155 2545 83.303 343.514 465.623
2827 0 101.252 9.43189 955 98.2126 344.23 447.236
2828 0 111.812 15.7675 1763 91.1373 343.174 453.225
2829 0 120.207 27.6275 3321 82.5694 342.218 452.78
2830 0 114.533 11.8569 1358 96.2165 342.303 436.484
2831 0 121.62 17.8589 2172 90.2003 341.7 447.628
2832 0 124.323 13.0145 1618 94.5766 340.465 443.611
2833 0 126.602 17.3852 2201 90.3798 340.36 443.988
2834 0 132.539 21.6163 2865 88.0066 340.137 443.611
2835 0 134.908 16.9226 2283 91.6588 340.205 436.328
2836 0 138.264 28.2503 3906 84.0581 339.698 442.329
2837 0 140.267 14.8503 2083 94.7292 340.104 428.843
2838 0 145.52 12.5756 1830 94.7087 341.084 438.532
2839 0 154.615 15.4901 2395 93.863 340.911 423.812
2840 1 87.3522 15.8897 1388 88.139 341.007 460.144
2841 0 88.3895 18.5316 1638 87.3987 342.36 457.127
2842 0 92.1997 15.4014 1420 91.5099 341.485 452.396
2843 0 87.1818 10.0938 880 98.167 341.316 440.702
2844 0 101.318 21.694 2198 86.9395 342.332 446.862
2845 0 101.252 10.1529 1028 96.071 343.119 447.732
2846 0 104.226 17.4429 1818 90.5776 344.589 447.401
2847 0 105.229 15.623 1644 93.7038 344.108 441.987
2848 0 109.54 14.7251 1613 94.6733 345.99 440.182
2849 0 112.741 13.4556 1517 95.7508 345.658 441.047
2850 0 114.485 16.3428 1871 93.6718 346.428 437.374
2851 0 120.369 19.2575 2318 91.1281 346.488 438.734
2852 0 119.438 17.9089 2139 92.77 346.92 437.489
2853 0 118.452 15.3057 1813 92.4247 347.274 446.65
2854 0 130.48 18.6542 2434 92.1553 348.364 432.203
2855 0 134.709 18.848 2539 90.5258 349.327 436.429
2856 0 137.48 15.5296 2135 94.6515 349.81 429.719
2857 1 63.2661 11.2857 714 90.0616 348.252 470.804
2858 0 68.6927 16.945 1164 88.0241 350.19 465.814
2859 0 66.2009 12.0089 795 94.2981 350.093 468.194
2860 0 64.3056 8.81727 567 98.2099 350.108 470.646
2861 0 70.1401 13.8009 968 88.1674 350.315 481.143
2862 0 70.169 9.02108 633 98.0664 350.221 470.228
2863 1 165.744 12.1874 2020 99.9564 350.127 421.654
2864 0 174.129 19.2271 3348 94.1168 349.075 420.211
2865 1 255.816 13.0758 3345 105.31 348.624 371.065
2866 1 82.1789 17.1212 1407 89.6198 348.24 465.881
2867 0 85.2089 18.1084 1543 88.5638 348.299 469.73
2868 0 83.1943 15.6261 1300 91.3238 347.188 469.86
2869 0 87.213 12.8192 1118 95.3694 345.383 463.903
2870 0 91.3134 15.0252 1372 92.6596 344.642 459.434
2871 0 93.2189 11.2102 1045 96.4373 345.177 462.868
2872 0 88.1323 9.47439 835 100.008 344.255 455.323
2873 0 100.58 15.3609 1545 91.8706 344.304 460.793
2874 0 104.777 19.1359 2005 89.421 342.964 457.504
2875 0 103.254 16.0478 1657 93.0018 343.078 450.597
2876 0 108.605 23.5625 2559 85.4803 342.58 457.325
2877 0 109.341 12.5662 1374 95.4309 342.673 446.347
2878 0 116.494 16.7219 1948 91.3429 341.705 444.349
2879 1 70.1325 12.9754 910 88.3396 340.641 477.812
2880 0 71.2943 15.443 1101 88.9637 340.638 469.332
2881 0 77.1532 12.5853 971 92.2997 341.064 470.2
2882 0 80.5165 17.8721 1439 89.435 340.979 459.404
2883 0 77.1857 12.8133 989 95.2649 342.597 457.756
2884 0 84.535 22.0619 1865 86.0504 341.367 454.662
2885 0 86.4036 10.4972 907 96.9471 342.147 454.867
2886 0 89.1859 12.2777 1095 94.2685 341.882 459.114
2887 0 82.2024 10.8634 893 98.28 343.132 450.882
2888 0 85.2341 10.0899 860 98.5279 344.267 442.462
2889 0 91.392 12.1783 1113 96.3028 345.318 442.196
2890 0 96.2868 13.1794 1269 94.3475 346.584 450.56
2891 0 97.221 13.135 1277 95.6844 346.367 445.46
2892 0 96.2288 17.8533 1718 92.0594 346.421 438.735
2893 1 238.94 20.9927 5016 92.2733 346.741 363.919
2894 0 245.861 12.2508 3012 98.9469 348.073 389.238
2895 0 251.579 10.5176 2646 102.169 348.292 375.481
2896 0 252.585 14.2012 3587 100.068 348.618 368.607
2897 0 261.875 10.5012 2750 103.452 349.274 377.319
2898 1 123.24 16.1879 1995 93.1103 349.713 445.36
2899 0 120.238 15.5609 1871 95.3816 350.338 438.772
2900 0 122.52 13.2387 1622 98.77 350.629 429.89
2901 0 128.455 16.3092 2095 95.0062 350.508 435.023
2902 0 131.348 13.3462 1753 99.7159 350.584 428.191
2903 1 85.7727 12.9995 1115 92.3013 349.848 469.823
2904 0 79.1726 7.86888 623 101.756 347.9 458.583
2905 0 84.257 14.4083 1214 93.5873 347.7 466.943
2906 0 87.1332 10.6618 929 97.7255 347.295 464.995
2907 0 87.3369 12.9728 1133 97.0494 347.56 462.318
2908 0 92.1161 12.7556 1175 98.3098 348.161 461.139
2909 0 93.1811 14.7133 1371 95.0007 347.654 464.741
2910 0 95.1396 7.3471 699 103.183 346.14 464.479
2911 0 97.2975 11.2336 1093 99.107 346.916 463.424
2912 0 98.2105 12.1576 1194 99.3208 346.214 460.381
2913 0 104.353 18.7633 1958 93.215 345.21 453.502
2914 0 104.456 13.039 1362 100.582 344.388 457.01
2915 0 109.277 10.0662 1100 101.45 343.407 461.145
2916 0 110.23 12.6009 1389 102.433 344.208 449.314
2917 0 109.413 9.5144 1041 106.646 343.813 445.587
2918 0 113.656 10.0743 1145 106.103 342.817 446.652
2919 0 119.286 12.885 1537 102.686 342.766 441.351
2920 1 206.606 17.197 3553 105.261 343.184 393.064
2921 1 180.41 11.9506 2156 106.144 342.777 425.457
2922 0 166.276 12.9603 2155 110.51 342.765 397.142
2923 1 131.277 13.7953 1811 104.655 341.733 425.579
2924 0 138.24 13.9251 1925 102.557 342.125 433.126
2925 0 138.452 12.1486 1682 105.61 343.144 430.133
2926 0 143.411 15.5985 2237 103.08 343.12 424.916
2927 0 140.366 16.1435 2266 102.912 343.771 417.707
2928 0 148.322 14.6371 2171 102.562 343.237 424.933
2929 0 155.472 14.0733 2188 105.33 344.112 413.162
2930 0 161.472 21.8675 3531 97.6066 344.007 411.694
2931 0 167.582 14.8345 2486 104.665 345.353 404.195
2932 0 172.417 11.507 1984 109.237 344.415 401.681
2933 0 177.535 10.2008 1811 109.97 344.509 404.974
2934 0 187.569 13.8296 2594 103.416 345.117 412.699
2935 0 183.428 14.169 2599 108.669 347.115 386.614
2936 1 197.379 15.336 3027 105.254 346.572 395.997
2937 0 203.343 14.8665 3023 107.389 346.164 381.629
2938 0 213.405 19.1186 4080 101.628 347.318 382.101
2939 0 220.589 17.3264 3822 104.473 347.643 376.906
2940 1 173.304 10.2768 1781 110.742 348.903 409.798
2941 0 172.366 12.9608 2234 108.836 348.373 404.85
2942 0 180.523 16.2085 2926 104.728 347.846 406.097
2943 0 185.486 15.3003 2838 106.889 348.885 389.164
2944 0 195.695 17.0827 3343 104.098 349.689 396.06
2945 0 196.458 19.2153 3775 102.041 350.142 398.04
2946 0 206.571 10.0208 2070 112.987 350.599 397.85
2947 0 213.614 13.3231 2846 109.751 349.194 398.858
2948 0 213.64 9.97474 2131 109.61 349.697 413.659
2949 1 189.782 11.2866 2142 110.063 350.042 404.182
2950 0 187.338 9.5656 1792 111.344 349.927 404.518
2951 0 191.578 8.27861 1586 107.306 348.265 424.755
2952 0 191.58 8.17935 1567 148.977 346.241 424.845
2953 0 192.687 16.4723 3174 101.349 347.743 413.021
2954 0 193.688 11.09 2148 109.296 347.311 399.256
2955 0 195.493 12.6245 2468 106.052 346.541 398.616
2956 0 204.513 11.036 2257 107.899 345.495 391.763
2957 0 214.666 13.337 2863 105.906 344.684 369.461
2958 0 216.623 13.8905 3009 106.571 344.735 383.671
2959 0 222.114 10.5396 2341 109.686 344.308 387.802
2960 1 266.784 6.40969 1710 115.364 342.745 379.683
2961 0 269.705 6.8779 1855 114.615 342.939 374.189
2962 0 269.68 10.3567 2793 109.344 342.416 375.13
2963 0 271.482 9.24923 2511 107.29 342.663 393.133
2964 0 271.774 15.0198 4082 105.557 341.821 360.202
2965 1 206.581 9.39581 1941 106.245 341.87 407.557
2966 0 211.588 15.1521 3206 99.889 342.245 402.127
2967 0 218.851 12.5062 2737 104.097 341.681 392.29
2968 0 218.731 7.43377 1626 103.584 341.245 416.092
2969 1 234.705 12.2026 2864 103.229 341.275 387.607
2970 0 241.08 16.1399 3891 99.6407 341.787 382.708
2971 0 247.841 10.8659 2693 106.627 341.967 363.994
2972 1 267.661 10.248 2743 106.339 343.475 372.893
2973 0 265.46 17.5356 4655 97.8217 343.258 384.487
2974 0 272.603 16.5625 4515 99.8055 343.034 377.491
2975 0 281.779 12.6198 3556 106.626 343.766 348.27
2976 0 284.645 16.575 4718 100.022 344.869 367.216
2977 0 282.926 9.51839 2693 105.268 346.333 381.004
2978 0 279.867 3.7625 1053 116.176 344.814 361.529
2979 1 241.673 12.5418 3031 104.928 345.764 371.94
2980 0 246.967 13.1961 3259 104.637 346.596 366.353
2981 0 253.609 14.5263 3684 103.787 347.526 362.347
2982 0 260.747 11.8314 3085 107.343 348.812 360.382
2983 0 270.618 18.0217 4877 99.7488 347.852 366.444
2984 0 276.508 14.0502 3885 106.202 348.932 349.442
2985 0 288.669 17.2516 4980 101.464 348.926 360.815
2987 1 73.1842 10.1388 742 92.1496 348.39 459.131
2988 0 76.1351 8.86582 675 93.7422 348.659 461.519
2989 0 79.4452 9.25166 735 96.1184 350.271 457.808
2990 1 10.0154 14.8771 149 79.8859 348.168 491.819
2991 0 13.0012 2.99973 39 84.6923 349.615 496.487
2992 1 75.1238 6.24303 469 102.416 349.39 457.535
2993 0 80.1527 11.7151 939 94.1278 349.257 462.236
2994 0 83.3085 11.5955 966 94.3219 348.587 462.547
2995 0 86.4615 11.0454 955 96.3895 349.015 445.511
2996 0 83.1898 9.73677 810 99.0049 347.731 445.843
2997 0 95.2366 13.2302 1260 94.6603 347.075 457.456
2998 0 95.511 15.9353 1522 92.9632 347.048 450.288
2999 0 91.2808 15.1401 1382 94.7851 346.873 446.308
3000 0 92.2627 10.947 1010 99.5436 346.183 444.859
3001 0 98.1485 10.423 1023 100.046 345.59 440.038
3002 0 106.207 10.2441 1088 99.8208 343.177 440.465
3003 0 114.343 16.5904 1897 92.1049 342.629 448.331
3004 0 138.577 17.6509 2446 88.2118 342.672 424.696
3005 0 136.424 28.5215 3891 83.6155 340.821 437.939
3006 0 132.455 22.6039 2994 88.2809 341.097 436.874
3007 0 133.879 20.765 2780 90.7169 341.342 431.048
3008 0 130.412 16.4172 2141 95.2307 341.779 433.034
3009 0 136.432 19.4969 2660 91.5105 341.122 435.943
3010 0 134.586 18.2411 2455 92.7043 341.132 424.824
3011 0 135.451 19.0327 2578 92.3693 340.914 417.033
3012 0 149.708 23.7195 3551 86.8707 340.542 417.654
3013 1 116.535 10.6749 1244 93.287 341.522 460.802
3014 0 120.611 21.7393 2622 82.2982 340.315 450.547
3015 0 119.089 16.0972 1917 87.1961 340.994 447.626
3016 0 106.276 32.6886 3474 78.9994 338.423 453.656
3017 1 121.33 16.1955 1965 89.1934 343.166 449.272
3018 0 122.341 28.6494 3505 81.2014 341.506 440.379
3019 0 117.322 17.0898 2005 89.6793 343.647 439.698
3020 0 114.194 18.7138 2137 89.1717 343.728 436.796
3021 0 123.28 17.5779 2167 89.9303 344.385 432.602
3022 0 123.213 16.6135 2047 90.9805 345.359 443.331
3023 0 119.439 26.9175 3215 84.6681 344.297 439.597
3024 0 121.404 25.4028 3084 85.8093 345.068 442.167
3025 0 116.41 12.121 1411 98.0943 346.962 443.348
3026 0 119.382 15.5132 1852 96.0308 347.57 438.746
3027 0 123.28 16.9776 2093 94.5418 348.596 440.128
3028 0 127.338 16.1617 2058 94.7439 347.511 443.171
3029 0 130.478 15.4585 2017 96.6777 348.442 442.702
3030 0 129.303 13.9362 1802 100.728 348.829 432.026
3031 0 135.53 21.3458 2893 93.0996 348.428 437.898
3032 0 140.683 19.9953 2813 93.3505 347.72 444.786
3033 0 143.37 13.4198 1924 102.449 347.88 430.04
3034 0 149.442 14.2263 2126 100.035 348.611 437.613
3035 0 152.353 15.5494 2369 100.24 348.383 419.846
3036 0 159.993 17.6508 2824 96.6353 348.034 432.345
3037 1 99.3855 11.5309 1146 98.7504 347.609 455.482
3038 0 102.217 13.8333 1414 95.925 348.128 460.795
3039 0 100.245 12.7786 1281 97.8244 347.601 454.41
3040 0 106.312 9.82018 1044 100.555 346.544 455.207
3041 0 106.609 9.11741 972 102.394 345.362 446.773
3042 0 113.588 16.463 1870 91.5808 344.051 453.05
3043 0 118.413 11.7385 1390 96.6914 344.078 452.884
3044 0 118.342 18.3536 2172 91.6984 343.154 443.497
3045 0 123.403 14.6107 1803 93.4437 343.125 452.416
3046 0 121.401 13.7066 1664 95.6424 342.306 445.933
3047 0 131.435 14.2503 1873 93.5894 342.992 445.824
3048 0 124.391 14.3579 1786 95.3203 341.998 441.905
3049 0 127.231 12.3004 1565 98.6045 341.312 431.974
3050 0 135.399 17.0015 2302 92.9796 341.05 437.662
3051 1 148.767 19.749 2938 89.823 340.986 435.286
3052 0 151.301 12.9345 1957 98.1681 341.533 423.74
3053 0 148.652 17.6587 2625 94.4008 340.925 411.415
3054 0 151.614 13.8576 2101 97.8824 340.876 415.376
3055 1 15.0101 9.92664 149 78.5772 339.45 490.403
3056 0 13.0059 10.7643 140 75.6429 338.2 491.721
3057 1 171.82 16.4416 2825 94.3784 341.334 411.048
3058 0 167.417 7.37081 1234 104.323 341.169 401.639
3059 1 185.471 17.7171 3286 92.6166 341.209 407.393
3060 0 186.598 12.6207 2355 100.488 342.098 396.609
3061 0 192.483 19.342 3723 93.2844 342.195 400.69
3062 0 201.603 14.1466 2852 98.2542 343.039 390.644
3063 0 210.665 19.5571 4120 92.3357 342.298 398.936
3064 0 212.487 11.9819 2546 100.949 343.859 381.584
3065 0 216.903 15.417 3344 98.1788 344.312 386.635
3066 1 163.41 17.6733 2888 92.5215 345.757 419.249
3067 0 162.536 9.86243 1603 101.928 344.444 410.956
3068 0 173.401 18.0968 3138 93.1536 346.775 414.236
3069 0 177.389 14.5556 2582 97.4136 346.153 408.368
3070 0 181.467 17.342 3147 93.6117 347.669 420.863
3071 0 181.86 16.1663 2940 97.2742 347.685 401.357
3072 1 192.501 11.2831 2172 102.272 347.868 399.1
3073 0 200.469 11.8821 2382 101.751 346.59 392.636
3074 0 209.458 12.0836 2531 101.013 347.254 399.009
3075 0 212.572 12.3111 2617 100.538 346.134 403.815
3076 0 220.717 14.3079 3158 99.3369 346.547 390.816
3077 1 355.321 28.4616 10113 87.4382 346.078 313.435
3078 0 349.035 24.6222 8594 91.293 347.402 313.169
3079 1 170.377 13.1239 2236 95.2885 346.53 431.421
3080 0 176.415 11.2179 1979 95.4391 345.744 438.49
3081 0 182.487 8.96504 1636 100.529 345.229 432.484
3082 0 183.413 12.2511 2247 99.4717 345.622 409.903
3083 0 192.502 11.3661 2188 100.22 345.096 417.768
3084 0 192.518 10.477 2017 100.744 344.104 412.788
3085 1 205.387 14.6748 3014 95.7342 343.854 419.213
3086 0 212.597 17.3004 3678 94.8817 343.174 401.27
3087 1 160.408 10.2676 1647 98.5033 342.405 433.733
3088 0 164.383 11.9598 1966 96.9359 342.654 432.45
3089 0 173.317 15.3072 2653 93.8813 342.448 427.935
3090 0 174.273 10.4491 1821 98.7216 341.187 428.205
3091 0 176.373 14.2993 2522 92.4996 340.69 440.105
3092 0 189.671 15.1737 2878 95.058 339.989 420.525
3093 0 194.299 17.8231 3463 92.0511 339.483 423.109
3094 0 200.554 16.1702 3243 94.6053 339.886 411.279
3095 0 205.534 11.6672 2398 100.583 339.711 399.31
3096 0 212.613 12.0171 2555 98.6998 339.755 405.066
3097 0 218.408 12.6644 2766 100.319 340.987 399.39
3098 0 221.637 17.5783 3896 95.5626 340.033 395.284
3099 0 231.87 11.5021 2667 102.046 341.122 377.974
3100 0 230.663 8.73135 2014 104.163 340.96 384.635
3101 0 240.677 12.5147 3012 102.812 341.154 355.18
3102 0 251.515 12.9018 3245 102.9 340.556 370.954
3103 1 288.456 8.26471 2384 103.757 340.771 387.602
3104 1 63.1273 13.4649 850 87.1718 343.14 465.342
3105 0 63.1838 12.6615 800 88.3875 344.682 463.021
3106 0 67.2174 11.7975 793 88.261 345.14 466.358
3107 0 65.0852 13.0598 850 89.5671 344.819 458.552
3108 0 72.7379 10.7647 783 90.8212 345.748 455.48
3109 0 73.2756 8.91157 653 92.9878 346.662 460.57
3110 0 70.2776 13.2759 933 90.3098 345.774 455.727
3111 0 70.0991 8.08855 567 96.3968 346.586 451.044
3112 0 77.2574 13.6556 1055 90.2863 347.779 457.212
3113 0 76.3596 11.0661 845 94.1669 347.667 455.675
3114 0 76.2627 8.47072 646 98.0573 347.878 449.514
3115 0 77.111 11.3473 875 95.4834 346.562 450.523
3116 0 81.1026 11.2573 913 95.7568 347.781 454.916
3117 0 82.3068 10.6188 874 96.7037 346.95 450.58
3118 0 82.168 10.0161 823 97.706 347.451 453.791
3119 0 89.1621 15.7466 1404 91.136 346.34 457.721
3120 0 88.1584 16.0733 1417 90.1609 345.663 458.202
3121 0 96.2423 14.0063 1348 92.8279 345.749 458.705
3122 1 168.526 10.1053 1703 95.973 346.182 438.569
3123 0 172.459 12.3681 2133 94.5762 345.388 434.9
3124 0 177.615 10.8887 1934 98.031 344.815 420.237
3125 1 188.95 14.9246 2820 91.5383 345.335 434.001
3126 1 107.379 12.8331 1378 95.2163 344.179 453.993
3127 0 110.544 12.8093 1416 96.4329 344.169 441.994
3128 0 114.336 14.5536 1664 94.8534 342.822 437.614
3129 0 118.253 20.0418 2370 89.6561 341.728 437.308
3130 1 132.37 22.9207 3034 84.8991 340.914 452.195
3131 0 132.308 16.1442 2136 91.7814 341.371 445.581
3132 0 130.376 12.0881 1576 95.9626 341.826 440.019
3133 0 138.46 14.6685 2031 93.3639 340.661 437.731
3134 0 134.433 19.1248 2571 88.592 339.651 443.454
3135 0 139.653 18.6963 2611 91.0571 340.407 423.956
3136 0 139.653 16.4193 2293 91.7985 340.471 442.47
3137 0 147.885 14.7683 2184 94.5073 340.555 420.935
3138 1 212.05 17.4487 3700 91.3695 339.524 410.577
3139 0 214.033 12.8438 2749 94.6206 340.579 412.213
3140 0 216.949 17.133 3717 93.8087 340.429 384.441
3141 0 227.834 20.8354 4747 89.6425 340.56 387.929
3142 0 231.881 17.5694 4074 89.4772 340.744 406.182
3143 1 283.412 16.6295 4713 87.0554 340.053 414.232
3144 1 253.094 16.484 4172 93.6517 341.865 378.846
3145 0 256.58 13.4188 3443 96.2219 341.506 370.197
3146 1 104.357 14.4312 1506 90.5896 342.414 437.481
3147 0 115.252 13.093 1509 89.8416 341.353 443.391
3148 0 112.46 19.5804 2202 86.4968 341.842 432.451
3149 0 110.413 22.9865 2538 83.6269 342.274 440.385
3150 0 117.289 18.8595 2212 85.7658 342.986 437.958
3151 0 119.289 14.1505 1688 89.3572 342.607 435.785
3152 0 124.412 16.5739 2062 87.7148 343.675 430.786
3153 1 232.581 16.175 3762 93.4338 344.644 383.113
3154 0 234.613 19.9861 4689 91.5716 344.946 365.148
3155 1 136.284 12.1951 1662 91.4976 345.048 424.239
3156 0 142.589 11.712 1670 91.1922 344.946 425.083
3157 0 152.76 15.0759 2303 87.9362 344.026 432.621
3158 1 86.4134 13.8404 1196 84.5042 344.027 461.041
3159 0 88.4148 15.6196 1381 82.6329 345.189 455.248
3160 0 84.1615 14.4128 1213 83.5664 345.49 460.941
3161 1 164.479 12.3359 2029 92.1484 346.167 406.533
3162 0 165.74 9.08652 1506 95.1248 345.862 418.493
3163 0 174.34 8.47195 1477 96.0799 346.802 415.684
3164 0 183.115 14.0458 2572 90.4708 345.654 424.757
3165 0 187.493 11.5364 2163 96.2626 345.385 407.591
3166 0 189.746 12.5484 2381 94.417 345.233 410.59
3167 0 196.525 8.17199 1606 99.0554 345.356 408.978
3168 0 197.458 11.7646 2323 96.7374 344.472 402.446
3169 0 192.285 14.9102 2867 95.4339 344.922 400.771
3170 1 206.463 7.52193 1553 102.376 343.717 402.837
3171 1 194.4 8.01954 1559 99.2598 341.959 420.754
3172 1 238.762 5.96828 1425 106.487 342.064 393.235
3173 0 237.742 8.45874 2011 102.705 341.728 395.877
3174 1 186.499 9.7856 1825 100.952 340.667 399.382
3175 0 189.704 12.9412 2455 98.6652 339.296 401.07
3176 0 188.565 13.4224 2531 97.6318 338.401 401.955
3177 1 141.414 11.0244 1559 95.6389 340.719 423.332
3178 0 137.342 10.9508 1504 97.6177 339.83 416.285
3179 0 147.426 12.4944 1842 96.3968 340.716 415.515
3180 0 157.864 11.7253 1851 94.0767 339.378 423.729
3181 1 169.443 19.6173 3324 86.6188 339.176 435.875
3182 0 168.396 12.9872 2187 94.4111 339.11 413.841
3183 0 174.482 16.6435 2904 89.876 338.635 426.284
3184 0 178.541 9.03992 1614 99.7664 339.781 410.141
3185 0 174.43 5.40044 942 103.478 339.294 408.266
3186 1 112.352 16.297 1831 87.9612 339.72 449.106
3187 0 116.5 15.854 1847 88.9594 339.374 445.184
3188 0 111.431 12.2497 1365 94.6396 339.139 434.574
3189 0 111.162 13.9616 1552 93.7758 340.892 435.021
3190 0 113.173 13.3689 1513 93.7469 341.555 438.12
3191 0 120.229 17.9989 2164 90.9325 341.681 435.078
3192 0 123.307 12.7649 1574 96.6175 342.419 429.595
3193 0 131.564 12.5262 1648 97.7536 342.079 423.351
3194 1 10.0076 9.69267 97 79.2577 343.526 486.454
3195 0 7.001 14.9979 105 75.5238 345.057 490.552
3196 0 10.0077 4.29671 43 82.2791 346.233 492.558
3197 0 9.01179 7.65664 69 80.1594 343.565 491.101
3198 0 11.0046 12.0859 133 78.6241 344.143 488.985
3199 1 151.719 9.86691 1497 102.678 344.771 407.329
3200 1 236.009 25.6134 6045 90.1241 344.293 400.509
3201 1 168.577 8.18615 1380 106.082 344.961 410.482
3202 0 175.494 11.9434 2096 101.742 344.607 414.437
3203 0 180.694 15.1749 2742 96.0937 344.521 427.457
3204 0 189.574 19.1113 3623 96.3668 345.559 408.567
3205 0 190.42 13.1184 2498 102.745 344.776 415.734
3206 1 111.29 16.6501 1853 93.653 345.088 453.434
3207 0 114.254 8.3148 950 103.252 343.711 449.457
3208 0 119.289 12.2476 1461 95.6927 344.148 464.506
3209 0 121.575 19.3873 2357 91.6822 343.322 451.728
3210 0 127.185 12.0376 1531 99.7446 343.166 439.767
3211 1 233.592 8.24086 1925 111.577 343.125 395.611
3212 0 232.566 13.6004 3163 106.688 343.2 384.969
3213 0 240.905 15.3629 3701 104.758 343.282 364.484
3214 1 308.369 14.8037 4565 104.761 343.251 363.411
3215 1 205.457 7.56361 1554 107.495 342.06 427.983
3216 1 149.482 11.1986 1674 103.318 342.225 439.857
3217 0 149.588 12.862 1924 104.14 341.982 423.687
3218 0 155.799 13.6458 2126 103.929 341.293 423.82
3219 0 161.401 17.4658 2819 100.365 340.269 413.741
3220 0 169.421 9.66821 1638 109.711 340.384 417.599
3221 0 165.712 15.1648 2513 101.915 340.994 430.403
3222 0 174.442 14.5779 2543 104.323 340.118 417.201
3223 0 183.488 11.9027 2184 107.583 340.205 417.141
3224 0 184.461 15.2877 2820 104.652 339.046 410.465
3225 0 189.548 14.3816 2726 107.066 339.574 409.523
3226 0 194.677 17.5213 3411 101.901 339.296 403.469
3227 0 198.62 15.4567 3070 105.765 339.994 393.663
3228 0 205.43 17.3198 3558 103.713 340.146 393.131
3229 1 6 2.33333 14 84.4286 342.357 501
3230 0 13.0722 7.7263 101 84.703 340.99 490.762
3231 0 225.661 15.9399 3597 102.285 341.933 401.591
3232 0 226.488 11.0734 2508 108.281 341.465 397.138
3233 1 166.456 8.59086 1430 111.317 340.889 391.204
3234 0 182.495 17.2827 3154 99.5371 341.764 415.191
3235 0 186.822 11.6475 2176 106.983 342.48 401.485
3236 0 196.478 14.2052 2791 105.04 343.707 394.095
3237 0 200.583 7.82221 1569 112.912 343.747 389.999
3238 0 213.738 12.3235 2634 107.923 343.296 385.159
3239 0 218.814 14.0393 3072 106.379 343.974 381.163
3240 0 223.03 13.2897 2964 108.814 344.327 375.357
3241 0 229.653 15.8674 3644 104.951 345.864 386.95
3242 0 239.643 12.4644 2987 109.073 345.747 382.129
3243 0 237.483 10.9102 2591 114.694 345.832 358.309
3244 0 247.901 13.2513 3285 110.919 346.424 368.876
3245 0 252.813 10.9251 2762 115.942 346.228 351.754
3246 0 270.821 14.6702 3973 109.693 346.59 367.854
3247 0 273.519 13.5822 3715 112.022 345.614 359.285
3248 0 274.561 12.1248 3329 114.983 346.365 348.169
3249 0 279.859 10.9984 3078 116.124 346.688 353.582
3250 0 279.719 10.8359 3031 113.998 346.076 367.689
3251 0 282.672 6.98336 1974 118.434 346.887 370.668
3252 0 278.576 6.54758 1824 118.266 344.856 375.819
3253 1 250.508 15.7999 3958 106.525 346.429 374.205
3254 0 249.494 13.9202 3473 109.814 345.813 375.117
3255 0 257.954 18.9375 4885 99.9994 345.028 389.834
3256 0 268.757 16.3345 4390 106.53 344.443 362.761
3257 0 277.553 15.388 4271 107.966 343.775 354.075
3258 0 291.05 15.4269 4490 107.032 343.012 342.72
3259 0 298.963 19.0158 5685 102.143 343.049 317.882
3260 0 308.814 25.5396 7887 96.5921 342.624 332.559
3261 0 318.001 22.5534 7172 99.0315 343.214 330.828
3262 0 328.622 19.2105 6313 103.853 343.4 315.88
3263 0 341.799 17.2791 5906 106.392 342.238 305.659
3264 0 353.049 17.7738 6275 105.722 341.681 304.234
3265 1 111.496 9.64158 1075 99.293 342.001 446.263
3266 0 109.402 8.77494 960 101.042 340.209 436.99
3267 0 110.458 5.04266 557 107.002 342.115 435.418
3268 0 116.731 12.1989 1424 97.1208 341.25 436.193
3269 0 118.647 10.4175 1236 99.7217 341.494 432.091
3270 0 115.933 11.7999 1368 97.3297 342.365 439.072
3271 0 123.44 9.20286 1136 101.177 342.15 425.622
3272 0 129.997 11.9849 1558 96.0481 342.388 429.438
3273 0 131.043 7.12746 934 102.115 342.379 430.121
3274 0 129.49 4.51001 584 102.539 341.027 434.387
3275 0 145.808 16.5149 2408 91.723 341.38 422.417
3277 0 155.684 15.3131 2384 91.7148 342.266 427.95
3278 0 159.008 8.47126 1347 101.785 344.434 413.733
3279 0 166.062 16.4095 2725 93.3582 343.061 414.918
3280 0 169.249 14.3517 2429 95.2227 344.924 421.105
3281 0 171.59 18.7774 3222 92.0314 345.583 412.997
3282 0 180.094 16.1971 2917 94.7439 344.999 407.861
3283 1 109.344 12.6207 1380 93.2638 345.36 441.575
3284 0 110.414 10.4878 1158 95.5596 346.597 441.681
3285 0 116.501 11.4162 1330 95.088 345.993 438.556
3286 0 119.525 18.6572 2230 90.9713 346.897 437.102
3287 0 120.522 11.6908 1409 97.8559 346.821 434.023
3288 0 127.693 10.118 1292 99.0101 347.966 433.454
3289 0 127.476 11.0217 1405 98.1829 346.915 440.674
3290 0 128.315 12.4771 1601 96.6071 347.836 441.234
3291 0 125.339 11.5527 1448 100.124 348.403 425.92
3292 1 226.691 14.2573 3232 100.612 347.67 384.118
3293 0 236.869 14.4468 3422 100.079 347.855 395.284
3294 0 243.743 20.6159 5025 95.0028 347.787 380.154
3295 1 146.301 12.2008 1785 100.541 347.864 421.562
3296 0 154.531 15.8479 2449 93.4908 347.606 439.928
3297 0 159.718 10.1679 1624 102.038 347.288 429.52
3298 0 160.551 12.7997 2055 99.8623 348.326 425.199
3299 1 171.443 8.01434 1374 104.052 347.106 426.63
3300 0 169.651 9.56079 1622 103.739 346.048 419.438
3301 0 171.398 14.405 2469 99.0871 345.09 416.785
3302 0 174.396 15.396 2685 95.5922 345.11 430.295
3303 0 172.725 13.5244 2336 99.9598 343.836 417.187
3304 0 173.361 13.4286 2328 100.868 343.889 414.238
3305 0 167.474 2.9736 498 108.6 342.128 432.592
3306 1 197.464 13.0555 2578 101.438 342.924 402.571
3307 1 242.593 11.1875 2714 93.318 342.345 432.728
3308 1 207.547 13.7222 2848 99.309 342.31 391.867
3309 1 135.285 15.8997 2151 94.1404 342.559 432.267
3310 0 140.259 26.779 3756 83.8426 341.469 440.805
3311 0 145.664 13.4625 1961 93.4253 342.434 439.998
3312 0 146.418 16.0977 2357 93.2389 341.597 429.351
3313 0 149.377 11.7957 1762 98.4064 342.743 424.46
3314 0 154.368 18.7474 2894 90.5425 342.812 431.06
3315 0 153.313 12.9278 1982 99.1236 342.782 409.773
3316 0 162.516 26.8096 4357 87.3266 342.797 409.953
3317 0 167.541 15.8767 2660 94.9865 344.046 410.011
3318 0 170.549 13.5855 2317 97.5334 343.338 406.592
3319 0 174.501 15.9082 2776 93.9424 343.967 405.38
3320 0 184.758 14.6786 2712 96.0487 343.506 395.744
3321 0 183.072 16.7857 3073 95.3316 345.232 394.373
3322 0 188.419 18.3686 3461 93.8035 346.121 397.012
3323 0 196.843 13.3508 2628 99.0986 346.645 388.339
3324 0 199.752 21.3615 4267 92.254 346.942 389.754
3325 0 203.909 17.704 3610 96.7058 348.054 381.612
3326 0 209.691 15.2224 3192 98.266 348.569 387.534
3327 0 212.885 13.1668 2803 101.976 349.662 379.589
3328 1 13.0404 8.51199 111 79.6396 345.207 489.811
3329 0 7 4.28571 30 84.0667 344.6 489.333
3330 0 9.00541 2.44298 22 87.6818 345.773 490.545
3331 0 9.00575 2.2208 20 87 345.8 491.45
3332 0 6 7.66667 46 78.3913 348.478 493.348
3333 0 11.0032 6.90711 76 79.8816 345.737 494.789
3334 0 18.0536 1.93867 35 90.6286 346.4 487.029
3335 0 20.0164 4.79608 96 86.4583 345.219 487.927
3336 1 272.873 15.073 4113 103.517 349.82 358.812
3337 0 280.232 14.5522 4078 105.327 348.092 351.338
3338 0 285.129 12.8503 3664 107.735 347.281 348.096
3339 0 322.892 29.8644 9643 88.9082 345.403 313.494
3340 0 314.15 25.838 8117 93.8445 347.037 338.658
3341 0 316.174 23.7812 7519 95.934 347.466 320.249
3342 1 79.082 5.02011 397 99.8413 346.028 446.509
3343 0 81.3109 11.8434 963 91.2741 346.481 458.859
3344 0 86.2509 9.84338 849 93.2026 345.31 450.876
3345 0 84.3448 12.5082 1055 90.9175 345.181 456.148
3346 0 86.3994 5.97227 516 97.5698 343.341 458.661
3347 0 88.1802 5.20525 459 99.4357 342.309 449.002
3348 0 88.41 6.57166 581 98.0293 342.105 452.756
3349 0 87.262 11.6775 1019 93.471 342.488 448.764
3350 1 18.0229 8.37825 151 86.9007 341.974 479.02
3351 0 29.0438 7.02387 204 85.3039 341.804 486.608
3352 1 11.0035 10.3603 114 78.5263 341.921 495.298
3353 0 8.00152 8.87331 71 79.3239 342.789 497.225
3354 0 16.0091 9.1823 147 84.7279 342.293 484.592
3355 0 15.0037 10.2642 154 85 341.539 479.831
3356 0 21.0203 9.65735 203 85.4926 342.232 478.281
3357 0 19.0857 6.7066 128 88.0938 343.477 477.492
3358 1 9.00274 6.77571 61 80.2623 343.475 492.951
3359 0 4 2 8 88.75 341.875 488
3360 0 8.00281 3.99859 32 83.9062 342.781 487.781
3361 0 6 3 18 83.8333 343.5 489.333
3362 0 8 1.375 11 87.3636 343.091 489.455
3363 0 141.952 8.60151 1221 97.9165 344.983 424.232
3364 0 139.535 11.5957 1618 96.3158 345.453 422.649
3365 0 142.403 13.0966 1865 92.8987 345.668 429.438
3366 0 144.711 12.0931 1750 96.7903 347.297 419.455
3367 0 153.722 14.0969 2167 94.8717 347.683 419.594
3368 0 152.416 12.9514 1974 98.617 347.186 411.684
3369 0 154.352 14.4928 2237 97.0979 348.3 410.636
3370 0 154.496 16.6606 2574 95.0711 348.516 421.148
3371 0 162.424 12.4674 2025 101.172 347.803 405.099
3372 0 164.414 20.4848 3368 93.0923 348.977 408.989
3373 0 163.709 16.9325 2772 98.0516 348.456 402.294
3374 0 167.429 9.80116 1641 107.991 347.971 390.204
3375 0 177.374 13.2432 2349 101.395 348.867 406.284
3376 0 181.539 14.6855 2666 101.111 348.657 390.004
3377 0 185.378 12.078 2239 105.048 349.381 399.913
3378 0 187.534 10.6381 1995 108.437 349.356 393.866
3379 0 190.471 17.5407 3341 101.084 349.567 383.771
3380 1 202.71 22.4755 4556 95.2175 348.999 400.967
3381 0 206.001 16.5339 3406 101.295 350.08 388.774
3382 0 210.177 14.9635 3145 105.632 348.637 386.759
3383 0 210.384 12.2823 2584 110.486 348.806 383.216
3384 0 215.428 16.0379 3455 103.27 347.207 410.393
3385 1 48.3796 7.37915 357 93.5798 348.891 481.042
3386 0 40.32 6.57242 265 93.2792 348.426 490.94
3387 0 38.2773 9.92756 380 87.0447 346.026 495.313
3388 1 234.836 15.679 3682 107.917 346.75 384.933
3389 0 238.919 12.5691 3003 113.862 345.497 358.257
3390 0 247.852 16.7439 4150 106.613 344.554 378.164
3391 0 251.905 15.1486 3816 110.229 343.747 368.17
3392 0 257.875 16.4847 4251 108.261 344.384 363.43
3393 0 264.705 13.7701 3645 112.694 342.765 357.515
3394 0 273.778 15.0596 4123 110.153 343.619 354.758
3395 0 283.619 18.3239 5197 105.656 343.139 354.893
3396 0 289.199 18.4268 5329 106.022 343.39 350.294
3397 0 333.388 10.3483 3450 117.268 343.754 329.095
3398 0 333.031 8.84901 2947 117.883 343.889 345.972
3399 1 228.045 14.8874 3395 107.093 344.005 378.483
3400 0 229.994 11.4481 2633 112.378 343.38 368.77
3401 0 240.169 12.7327 3058 109.875 343.826 370.337
3402 0 247.028 13.3224 3291 108.527 342.828 367.14
3403 0 255.036 14.296 3646 105.372 344.064 375.995
3404 0 260.433 12.6789 3302 110.571 345.059 354.984
3405 0 267.326 11.5664 3092 111.506 345.456 347.686
3406 0 274.337 10.334 2835 111.97 344.881 347.205
3414 0 355.585 24.8352 8831 95.2035 349.398 328.595
3415 1 99.6884 10.593 1056 92.3797 349.752 453.562
3416 0 102.685 13.1372 1349 89.3744 350.488 460.706
3417 0 103.11 14.15 1459 91.0898 350.25 446.831
3418 0 104.807 7.85251 823 97.1652 349.457 457.023
3419 0 108.718 12.6383 1374 93.9491 350.417 444.589
3420 0 112.66 8.86739 999 98.1331 349.849 445.617
3421 0 110.664 8.58454 950 98.8674 351.224 451.126
3422 0 114.72 13.8947 1594 93.7114 350.428 452.107
3423 0 118.412 9.7541 1155 99.8069 350.539 449.224
3424 0 120.674 17.5929 2123 91.6618 350.55 450.671
3425 0 123.529 6.31429 780 102.785 349.026 451.363
3426 0 126.172 12.2769 1549 98.4822 348.668 445.518
3427 0 129.757 9.95705 1292 101.9 348.334 436.289
3428 0 131.63 10.841 1427 99.8935 348.116 449.938
3429 0 132.86 11.2976 1501 101.015 346.527 442.143
3430 0 132.864 11.9446 1587 102.335 346.813 432.916
3431 0 137.625 13.2607 1825 100.456 346.373 436.192
3432 0 141.624 15.9083 2253 96.8944 346.009 438.75
3433 0 144.332 12.693 1832 97.9667 345.898 449.449
3434 0 145.658 14.6782 2138 97.9495 344.59 443.129
3435 0 148.726 12.0826 1797 102.207 344.324 438.257
3436 0 153.756 15.5116 2385 98.2922 344.865 433.603
3437 0 156.938 11.7307 1841 104.001 343.744 428.913
3438 0 158.828 12.7307 2022 103.489 343.865 425.959
