time division length width area intensity CMx CMy
0 0 41.1316 14.7818 608 115.646 434.836 482.951
1 0 42.0758 12.1447 511 121.115 434.01 482.949
2 0 46.1184 15.6987 724 107.5 433.559 482.054
3 0 46.0365 13.6631 629 115.294 431.692 479.731
4 0 46.1346 17.2972 798 111.581 431.609 479.642
5 0 47.0831 12.2762 578 120.734 430.991 478.554
6 0 48.0968 14.4292 694 116.082 429.612 482.676
7 0 50.0698 13.7808 690 117.374 429.33 479.584
8 0 51.0369 13.4217 685 118.099 427.574 480.58
9 0 52.0899 14.0526 732 117.654 426.604 476.156
10 0 52.0729 12.6937 661 121.23 425.973 473.327
11 0 55.1055 11.5959 639 121.183 426.321 474.836
12 0 59.0339 15.8892 938 114.479 425.757 470.533
13 0 60.1487 15.5614 936 112.432 426.178 469.238
14 0 64.0766 17.5727 1126 111.856 424.827 469.064
15 0 65.0813 15.9646 1039 113.321 425.55 465.898
16 0 66.0437 14.7024 971 115.071 424.809 466.851
17 0 71.166 18.1126 1289 109.593 425.812 459.313
18 0 72.1971 13.103 946 117.872 426.387 460.525
19 0 78.1895 13.1348 1027 114.839 426.208 460.873
20 0 79.0542 13.6995 1083 113.992 426.049 459.888
21 1 42.1415 12.2207 515 115.392 425.734 472.695
22 0 40.1498 13.5244 543 113.044 426.289 471.186
23 0 41.0494 11.1817 459 122.837 427.272 470.8
24 0 45.1739 11.1347 503 118.39 427.549 472.475
25 0 46.2362 14.8585 687 110.889 428.965 469.493
26 0 46.0303 12.8394 591 113.003 428.814 468.839
27 0 50.1359 11.1297 558 114.731 429.943 469.86
28 0 50.1442 12.8829 646 112.85 430.828 467.128
29 0 51.0463 14.8884 760 109.786 431.437 465.992
30 0 52.1004 17.3895 906 105.384 433.232 464.41
31 0 52.2231 12.2551 640 113.689 432.419 465.8
32 0 56.1409 12.8605 722 110.645 432.485 465.623
33 0 61.2816 15.1269 927 103.393 434.947 462.321
34 0 60.1788 13.2106 795 109.003 435.454 464.336
35 0 61.2156 14.1467 866 109.813 436.527 464.196
36 0 61.093 14.2242 869 108.868 434.932 463.07
37 0 64.1185 14.7695 947 108.725 437.291 463.287
38 0 69.2465 16.1019 1115 102.133 435.516 466.013
39 0 71.1338 19.8218 1410 99.4624 436.223 461.807
40 0 71.2217 17.6491 1257 100.911 435.858 468.926
41 0 77.1249 19.9806 1541 99.5172 435.857 466.166
42 0 79.1016 17.901 1416 101.905 435.583 463.501
43 0 81.1106 15.5837 1264 105.41 436.442 460.727
44 0 86.2581 14.0393 1211 106.375 435.207 461.574
45 1 44.1165 12.399 547 118.631 434.841 481.112
46 0 45.1358 12.8723 581 118.22 433.778 481.04
47 0 47.067 12.8753 606 120.018 432.386 480.772
48 0 49.1499 12.8179 630 119.565 432.146 482.817
49 0 49.051 12.1302 595 117.75 430.642 482.755
50 0 53.1541 15.5774 828 115.643 430.659 479.174
51 0 53.1958 12.6326 672 120.701 429.958 480.057
52 0 54.1107 13.5833 735 119.946 429.386 475.903
53 0 60.2618 13.4414 810 118.238 428.219 476.154
54 0 61.0901 12.5389 766 119.495 429.084 476.336
55 0 64.0996 12.8706 825 118.405 428.268 474.902
56 0 65.0886 17.4378 1135 111.989 427.589 472.578
57 0 65.0961 17.6662 1150 126.366 426.619 472.554
58 0 71.0803 11.8739 844 120.648 427.653 467.017
59 0 74.2334 16.8523 1251 113.363 426.183 463.337
60 0 76.2327 11.7535 896 120.64 427.468 458.72
61 1 38.0449 11.4864 437 117.947 427.167 479.584
62 0 38.0634 12.1902 464 116.078 427.347 478.853
63 0 40.0991 13.1674 528 113.112 426.39 477.822
64 0 42.0954 11.6165 489 113.487 427.243 475.697
65 0 43.1278 10.8515 468 113.316 425.947 475.442
66 0 44.0891 13.7449 606 104.441 426.266 479.269
67 0 48.0611 12.7754 614 108.396 427.062 472.839
68 0 47.1502 11.7709 555 111.094 427.605 472.76
69 0 46.0907 6.72586 310 116.532 428.484 474.735
70 0 47.073 8.81608 415 113.889 429.983 471.937
71 0 53.1601 17.9646 955 101.779 430.035 469.24
72 0 52.0427 14.5457 757 105.896 430.728 471.192
73 0 54.061 10.7471 581 111.074 430.489 467.435
74 0 54.061 10.8026 584 124.221 430.479 467.411
75 0 57.1175 17.6653 1009 101.691 431.631 468.902
76 0 57.1114 14.7081 840 106.393 432.246 467.692
77 0 61.3125 13.2599 813 108.069 432.554 466.769
78 0 62.0904 12.6912 788 110.9 433.181 460.406
79 0 64.1042 14.2424 913 109.426 434.263 463.847
80 0 67.1621 11.8072 793 112.56 435.565 465.634
81 0 68.4284 14.0439 961 110.335 435.062 465.274
82 0 71.1347 12.5536 893 112.945 434.579 467.204
83 0 76.2153 12.7927 975 116.142 435.511 464.91
84 0 76.2853 10.8933 831 117.961 434.318 465.17
85 0 80.3708 12.0193 966 116.606 434.131 464.571
86 0 81.2318 12.1381 986 117.954 433.582 462.736
87 1 42.0303 11.8486 498 112.502 433.667 482.677
88 0 45.0149 11.7072 527 110.93 433.461 484.269
89 0 47.1313 12.2212 576 108.455 432.707 483.993
90 0 45.0413 10.0574 453 112.625 431.386 484.177
91 0 49.0699 12.8185 629 108.048 430.706 485.273
92 0 49.0683 11.107 545 111.811 430.253 484.714
93 0 51.1116 11.5238 589 112.051 430.122 483.918
94 0 53.2135 13.0982 697 109.076 428.211 483.894
95 0 53.0908 12.4127 659 111.874 428.431 482.008
96 0 56.101 15.1334 849 108.631 427.432 479.137
97 0 58.2294 11.6951 681 111.059 427.73 479.808
98 0 65.3832 14.0097 916 106.169 426.602 479.971
99 0 64.0919 15.4154 988 106.364 425.78 475.745
100 0 65.1702 13.1042 854 110.679 425.841 471.196
101 0 68.1155 13.8882 946 111.777 425.586 469.023
102 0 70.1578 12.6144 885 113.278 424.923 465.141
103 0 74.0966 13.5769 1006 111.739 425.197 468.766
104 0 76.1212 12.8742 980 115.297 423.992 463.999
105 0 77.1422 12.652 976 116.084 425.016 463.558
106 0 81.2692 9.91765 806 119.466 425.079 460.805
107 0 83.2227 13.0854 1089 114.592 424.275 457.963
108 1 44.2472 13.9218 616 107.281 424.826 477.745
109 0 49.4361 18.266 903 100.204 425.856 477.959
110 0 46.1256 8.36846 386 114.658 426.373 475.894
111 0 46.0583 7.55564 348 115.517 425.299 471.532
112 0 46.0583 7.62077 351 129.764 425.262 471.362
113 0 51.0226 18.09 923 101.727 426.417 472.311
114 0 53.0673 12.0978 642 111.202 428.407 468.696
115 0 52.0329 10.3012 536 113.591 427.403 469.756
116 0 54.0828 9.54093 516 115.769 428.665 466.438
117 0 56.1137 7.96597 447 115.378 429.092 472.141
118 0 61.0951 12.0304 735 112.418 430.619 467.388
119 0 63.1032 13.2798 838 112.041 431.087 464.669
120 0 64.1186 11.7127 751 114.991 431.959 464.888
121 0 69.1881 17.3296 1199 106.991 432.555 464.327
122 0 69.1229 9.64948 667 116.396 432.63 468.928
123 0 71.1379 12.9607 922 113.32 432.948 468.117
124 0 74.3781 11.9256 887 116.663 433.433 462.525
125 0 74.101 9.94589 737 119.798 433.223 461.864
126 0 79.1244 11.1723 884 116.949 434.037 462.412
127 0 81.106 8.23614 668 118.644 434.066 468.404
128 0 86.1712 12.7537 1099 113.864 431.944 461.877
129 1 44.1302 11.4207 504 111.137 433.77 480.718
130 0 48.1259 13.714 660 108.474 431.764 478.864
131 0 50.1178 12.1913 611 115.845 432.547 481.913
132 0 49.3094 11.3366 559 116.097 431.844 484.419
133 0 54.1182 13.9509 755 111.412 430.812 481.584
134 0 55.2531 13.3205 736 110.077 431.391 484.598
135 0 54.1191 14.2464 771 112.101 430.104 480.986
136 0 58.1296 13.143 764 113.099 429.804 480.846
137 0 57.1279 11.5705 661 115.399 428.195 478.333
138 0 59.0816 13.0159 769 112.687 428.632 479.882
139 0 64.1249 12.0858 775 110 426.657 480.395
140 0 64.2692 13.1478 845 110.439 426.612 474.227
141 0 61.2738 9.20458 564 113.633 424.202 476.94
142 0 68.1236 13.5342 922 107.953 423.92 474.196
143 0 66.0749 9.38329 620 115.553 424.158 470
144 0 71.1662 9.69562 690 113.894 423.514 467.545
145 0 71.1169 10.2789 731 112.707 423.244 464.037
146 0 79.4885 10.6305 845 109.25 422.702 470.02
147 0 80.3129 6.2381 501 112.028 422.172 475.186
148 0 88.2957 10.5668 933 111.793 422.901 459.284
149 0 87.2043 12.1324 1058 110.827 423.026 458.488
150 0 87.2469 10.1207 883 113.76 423.085 452.01
151 0 92.3235 12.1854 1125 113.234 423.785 454.874
152 0 93.5368 12.6367 1182 113.527 423.687 451.436
153 1 46.0277 14.8389 683 103.204 425.015 477.864
154 0 43.0317 10.9222 470 109.796 424.587 473.126
155 0 48.062 11.506 553 106.852 423.915 473.333
156 0 49.2286 12.1677 599 106.262 424.741 472.803
157 0 46.0754 7.55284 348 110.664 425.405 474.606
158 0 48.114 11.161 537 106.304 426.034 476.296
159 0 53.1028 17.7768 944 101.834 426.832 467.14
160 0 55.0832 13.5068 744 105.64 428.195 470.82
161 0 56.2121 9.49973 534 111.421 426.779 469.976
162 0 58.0762 12.7591 741 108.081 428.603 467.197
163 0 59.2405 10.432 618 112.366 428.633 464.605
164 0 61.0836 12.3274 753 110.44 429.514 463.883
165 1 136.531 11.5212 1573 119.008 430.571 429.182
166 0 143.541 10.8749 1561 119.905 432.024 426.696
167 0 148.306 12.5012 1854 117.634 431.224 428.789
168 0 152.323 15.1192 2303 115.844 430.792 420.837
169 0 157.349 15.1193 2379 116.223 431.887 419.949
170 1 75.2748 15.9682 1202 107.855 432.115 464.418
171 0 79.3134 11.65 924 113.246 432.259 465.473
172 1 43.0421 9.89728 426 113.277 430.883 485.469
173 0 46.1872 17.3425 801 103.719 430.248 485.08
174 0 45.1202 13.2092 596 114.621 430.284 485.809
175 0 45.0921 13.1287 592 117.632 429.417 484.027
176 0 44.0352 14.1932 625 112.33 428.499 485.042
177 0 46.0654 12.6125 581 116.167 428.68 487.188
178 0 46.0654 12.5908 580 135.969 429.657 487.388
179 0 48.1436 14.2698 687 112.753 427.801 488.121
180 0 51.0857 10.0028 511 118.926 427.157 488.286
181 0 51.1033 15.6154 798 112.217 426.304 483.33
182 0 54.028 13.2524 716 114.79 426.141 483.568
183 0 56.0957 10.6247 596 118.107 424.837 485.795
184 0 57.0915 14.1878 810 113.115 424.543 483.83
185 0 62.0874 15.6231 970 111.397 423.02 475.919
186 0 63.2454 14.9102 943 112.546 422.766 474.909
187 0 66.3182 15.9534 1058 110.227 423.193 475
188 0 73.5129 14.9362 1098 109.438 421.86 476.61
189 0 70.0984 13.909 975 113.923 421.98 471.304
190 0 73.1 19.0424 1392 106.511 421.041 471.896
191 0 74.2135 13.6633 1014 114.297 421.095 467.088
192 0 76.2294 10.3635 790 119.295 421.894 466.994
193 0 81.1504 14.9229 1211 114.148 421.196 467.557
194 0 84.1989 19.8221 1669 110.009 421.417 458.259
195 0 87.2324 13.8022 1204 117.958 421.492 459.743
196 0 90.3193 15.2459 1377 116.716 422.477 455.959
197 0 91.216 12.7719 1165 119.868 422.912 454.615
198 0 95.1978 15.0739 1435 116.738 423.896 452.858
199 0 95.2224 12.9381 1232 120.423 424.071 448.741
200 1 50.0268 16.3313 817 106.787 424.636 474.182
201 0 50.1208 13.228 663 113.958 423.855 472.217
202 0 51.2037 12.6358 647 114.869 424.955 472.714
203 0 54.0739 13.2966 719 113.844 425.395 471.811
204 0 56.1096 13.7944 774 114.107 426.791 470.947
205 0 58.0348 16.4384 954 110.253 427.226 470.442
206 0 58.0536 16.5537 961 111.464 428.083 466.924
207 0 62.2051 14.1628 881 114.641 428.877 467.017
208 0 64.0955 11.8729 761 118.377 428.757 470.971
209 0 66.2892 16.8655 1118 111.27 430.901 469.217
210 0 69.0832 15.6623 1082 113.756 430.856 466.289
211 0 69.101 13.5164 934 117.999 430.161 464.598
212 0 72.2228 10.7307 775 120.68 429.935 468.947
213 1 38.0425 15.4564 588 112.384 430.779 482.578
214 0 40.0424 15.3337 614 112.474 430.896 485.749
215 0 39.0149 11.3803 444 122.338 429.752 485.601
216 0 44.0461 14.008 617 119.332 429.347 483.705
217 0 44.0434 13.5548 597 118.844 429.461 486.067
218 0 46.1452 13.4792 622 115.183 430.032 486.561
219 0 47.0665 12.9604 610 115.659 429.734 488.231
220 0 47.0635 10.7302 505 119.301 429.057 486.111
221 0 48.0794 8.50676 409 120.567 427.9 491.01
222 0 49.1975 11.2404 553 118.727 428.027 487.427
223 0 52.053 12.6794 660 116.976 426.988 486.6
224 0 55.1963 13.5335 747 114.671 424.545 483.257
225 0 55.1525 11.2778 622 118.706 424.613 484.063
226 0 60.1586 13.4478 809 114.527 422.335 480.776
227 0 60.1586 13.4312 808 132.718 420.347 480.855
228 0 64.1463 12.9392 830 115.401 421.434 479.331
229 0 67.2344 12.8803 866 115.758 420.85 480.508
230 0 66.2325 13.0299 863 134.506 419.871 480.492
231 0 72.1616 14.9664 1080 113.066 420.074 473.807
232 0 74.0991 15.9111 1179 112.632 420.724 471.67
233 0 79.1953 14.7105 1165 112.991 419.323 472.33
234 0 81.2591 12.1833 990 117.314 420.12 471.824
235 1 45.1028 15.5644 702 109.707 419.338 487.791
236 0 46.0338 13.7508 633 112.327 419.447 484.111
237 0 45.1736 12.618 570 115.609 420.312 482.061
238 0 47.0473 13.3057 626 115.088 420.192 480.955
239 0 51.029 11.1701 570 117.221 421.409 481.7
240 0 50.0844 12.1395 608 118.885 420.5 476.836
241 0 51.0286 12.7184 649 118.901 421.652 476.607
242 0 54.1316 13.929 754 117.17 421.934 475.479
243 0 53.1366 11.0094 585 123.05 421.067 474.632
244 0 55.1548 15.2299 840 116.795 423.155 473.329
245 0 55.1548 15.3386 846 138.771 425.166 473.293
246 0 57.1082 9.7359 556 123.237 423.104 473.763
247 0 60.0986 12.3297 741 117.895 422.703 472.314
248 0 61.0476 11.9743 731 120.737 424.016 470.52
249 0 64.1242 15.0177 963 116.532 425.216 470.093
250 0 68.1237 16.2645 1108 115.132 425.538 466.453
251 0 68.1095 14.5648 992 119.12 426.895 465.877
252 0 71.1696 12.7583 908 119.729 428.372 469.172
253 0 73.0765 11.8643 867 122.329 428.042 469.55
254 0 79.3833 13.6931 1087 120.029 428.936 466.6
255 0 77.2266 12.159 939 124.948 428.013 464.479
256 0 83.1508 13.9746 1162 120.657 428.363 465.178
257 0 81.331 12.2585 997 124.287 428.433 466.029
258 0 85.17 11.6003 988 127.297 429.414 463.225
259 0 87.1596 12.6205 1100 144.773 430.333 464.397
260 1 48.0224 14.0351 674 119.212 429.193 485.399
261 0 47.0919 16.351 770 116.355 427.799 486.597
262 0 49.1837 15.0863 742 117.69 428.518 485.446
263 0 51.0407 12.0492 615 122.431 428.424 489.063
264 0 53.1192 13.6485 725 119.388 426.93 488.959
265 0 54.0886 12.2392 662 120.789 427.582 488.293
266 0 55.0551 15.3119 843 117.429 426.47 487.065
267 0 55.0824 12.7445 702 121.836 426.265 484.754
268 0 58.0284 12.1492 705 121.752 425.081 485.078
269 0 65.1243 11.1479 726 122.537 424.511 484.2
270 0 63.0843 14.758 931 117.29 423.535 482.595
271 0 64.1429 12.8463 824 122.38 422.699 479.567
272 0 67.083 12.3578 829 121.612 422.499 481.72
273 0 67.1358 12.3779 831 124.339 422.428 477.502
274 0 73.3135 15.3996 1129 118.414 421.649 473.551
275 0 76.172 14.5329 1107 120.928 421.539 471.624
276 0 76.125 12.3613 941 123.145 420.948 473.643
277 0 82.1742 16.1364 1326 120.165 420.828 467.673
278 1 45.2132 12.7839 578 120.913 420.721 484.803
279 0 45.228 13.7304 621 116.742 419.989 482.237
280 0 43.0182 9.62384 414 124.988 419.942 484.986
281 0 43.1099 9.62656 415 124.446 420.147 483.123
282 0 45.0862 13.574 612 119.059 421.711 481.371
283 0 47.1826 11.6992 552 123.839 421.332 479.534
284 0 48.1363 12.6723 610 122.252 422.856 475.515
285 0 48.0573 13.4839 648 118.699 422.702 475.606
286 0 53.0615 12.0049 637 120.436 423.121 472.454
287 0 54.1946 12.0307 652 119.997 422.805 470.928
288 0 60.3559 12.8239 774 115.581 424.196 473.735
289 0 57.0548 12.7246 726 119.371 425.136 470.581
290 0 56.0864 13.497 757 118.39 425.402 469.729
291 0 56.0516 13.7195 769 119.268 425.789 467.945
292 0 61.0862 12.5724 768 119.445 428.016 467.335
293 0 66.2222 13.9832 926 115.876 428.488 464.214
294 0 69.1562 13.6503 944 116.332 430.039 465.202
295 0 71.1163 15.2708 1086 113.352 428.876 465.887
296 0 70.0418 10.9649 768 117.445 431.126 471.126
297 0 76.0976 12.3 936 116.483 431.122 466.944
298 0 81.239 13.171 1070 116.322 430.509 461.984
299 0 81.2068 13.4841 1095 117.122 430.57 460.218
300 0 85.1413 11.9214 1015 119.002 431.095 463.948
301 0 87.2646 11.5855 1011 119.203 430.852 463.206
302 1 46.0793 13.3899 617 115.384 430.64 480.912
303 0 48.0817 15.5152 746 109.353 430.858 483.442
304 0 51.3212 13.1525 675 112.554 431.326 482.764
305 0 51.0519 20.4889 1046 103.359 430.277 481.952
306 0 56.0996 13.1374 737 113 430.303 484.871
307 0 55.1128 13.2818 732 113.193 428.424 483.908
308 0 56.2418 12.0729 679 115.984 427.913 480.997
309 0 59.1857 16.8453 997 107.871 428.007 482.716
310 0 61.159 14.7321 901 112.705 427.797 481.141
311 0 62.2115 13.1165 816 114.76 427.328 479.74
312 0 67.0584 16.1352 1082 110.588 425.37 478.952
313 0 66.0773 14.1652 936 115.738 425.107 474.432
314 0 68.1233 12.0223 819 118.255 425.75 477.836
315 0 68.1088 12.0102 818 145.412 425.757 477.863
316 0 74.0895 17.5328 1299 110.28 424.217 471.747
317 0 79.2097 14.7583 1169 112.732 423.574 468.092
318 0 80.1996 15.6111 1252 112.026 422.875 466.968
319 0 83.2217 13.0975 1090 116.288 423.294 465.206
320 1 44.194 14.4364 638 107.513 422.404 483.157
321 0 45.0503 12.5193 564 109.821 423.261 480.456
322 0 45.1304 12.4085 560 111.371 422.739 483.488
323 0 45.2265 12.7138 575 111.523 422.963 477.508
324 0 48.0899 19.1932 923 101.459 422.04 479.544
325 0 48.0838 10.7313 516 113.618 421.874 478.256
326 0 48.0478 13.0495 627 110.514 422.046 473.911
327 0 52.0876 17.4706 910 102.809 422.849 473.618
328 0 54.1309 17.4023 942 102.744 422.845 471.611
329 0 56.2594 15.784 888 106.081 424.118 468.553
330 0 56.066 12.1821 683 110.416 423.611 468.55
331 0 59.1393 20.1727 1193 99.1442 425.715 469.976
332 0 59.1354 16.7074 988 104.381 425.294 467.053
333 0 60.2709 17.9855 1084 103.912 425.169 461.332
334 0 63.0975 12.9324 816 110.453 426.474 464.89
335 0 64.1961 12.9291 830 110.631 427.511 463.401
336 0 68.1248 16.7046 1138 105.331 429.135 460.664
337 0 69.2727 17.2362 1194 102.367 429.397 461.209
338 0 75.2949 15.7248 1184 105.791 430.15 459.076
339 0 77.7422 15.68 1219 104.24 432.474 465.909
340 0 79.2285 15.8403 1255 106.351 432.396 460.52
341 0 80.4367 12.6808 1020 110.15 432.594 461.947
342 0 85.1314 18.9354 1612 109.698 431.661 452.864
343 0 87.1901 16.378 1428 111.581 431.817 460.112
344 0 91.2411 14.8727 1357 114.985 433.775 458.339
345 1 46.1216 14.2233 656 107.436 434.017 483.282
346 0 49.0734 13.8568 680 108.016 433.771 479.522
347 0 50.1686 16.6638 836 103.752 432.49 483.142
348 0 48.0442 14.445 694 109.889 432.187 478.594
349 0 53.1681 14.8397 789 106.842 431.782 479.316
350 0 52.1831 13.3376 696 109.417 430.148 482.221
351 0 55.1354 19.171 1057 101.74 428.675 481.488
352 0 57.1022 14.5704 832 107.148 429.888 481.743
353 0 57.0792 16.0479 916 106.365 428.666 479.728
354 0 59.1 12.1489 718 112.205 428.678 477.299
355 0 60.1742 11.2008 674 113.69 427.712 480.117
356 0 64.3276 16.0273 1031 106.201 427.217 481.879
357 0 63.1489 11.8767 750 114.393 426.407 479.596
358 0 64.1188 10.8705 697 117.778 426.595 476.851
359 0 61.1352 11.401 697 117.617 425.42 475.28
360 0 70.1724 13.0963 919 113.734 424.099 471.575
361 0 71.1184 7.55079 537 119.397 424.466 476.367
362 0 77.3261 15.0273 1162 110.026 424.966 464.405
363 0 77.3499 14.9968 1160 121.709 424.978 464.214
364 1 43.0967 10.9521 472 115.576 422.71 479.695
365 0 45.1073 12.0158 542 113.716 422.985 479.891
366 0 43.0955 10.9292 471 112.921 423.535 477.431
367 0 47.0923 10.8298 510 115.975 423.831 475.882
368 0 44.1099 12.2875 542 111.089 424.168 476.871
369 0 46.0919 12.3015 567 110.45 424.534 475.476
370 0 46.0919 12.3666 570 133.691 425.542 475.514
371 0 50.0715 13.8802 695 106.483 425.227 476.878
372 0 53.027 15.7656 836 104.172 424.795 471.724
373 0 55.0966 14.4837 798 107.159 425.583 468.45
374 0 57.1384 14.3161 818 106.869 426.983 467.568
375 0 57.0555 10.3934 593 113.484 427.01 466.548
376 0 62.2182 13.2276 823 104.8 427.249 469.446
377 1 122.672 13.1081 1608 114.731 426.328 435.951
378 0 128.282 15.0839 1935 112.609 429.01 428.731
379 1 65.1198 10.4423 680 110.785 429.957 462.431
380 0 68.1558 13.924 949 106.695 430.339 456.78
381 0 70.208 19.1716 1346 100.233 430.914 460.097
382 0 71.063 12.4256 883 108.673 432.244 457.015
383 0 79.1616 14.9694 1185 104.249 432.327 456.218
384 0 81.2073 19.0131 1544 96.6179 431.381 454.887
385 0 81.0825 11.0135 893 106.012 431.976 452.324
386 0 82.1067 10.8883 894 106.625 432.4 452.501
387 0 89.0979 14.8825 1326 101.339 432.983 458.948
388 0 91.1672 14.424 1315 110.614 433.358 453.598
389 0 95.1735 15.2038 1447 106.026 433.645 461.255
390 0 99.1843 13.7723 1366 109.751 433.554 455.21
391 1 50.2183 9.85696 495 109.168 432.525 482.168
392 0 49.1166 8.16424 401 107.471 432.334 476.509
393 0 50.1091 7.96263 399 107.444 432.444 477.454
394 0 48.2944 8.17901 395 107.435 429.985 475.689
395 0 48.2944 8.22042 397 125.69 429.015 475.801
396 0 58.1149 15.0908 877 99.6146 431.673 475.876
397 0 60.1232 11.1937 673 103.829 430.348 475.486
398 0 62.0453 14.1187 876 99.5936 428.78 476.529
399 0 61.1111 10.7346 656 105.3 428.486 473.146
400 0 66.2152 12.6557 838 110.566 426.808 474.248
401 0 66.2152 12.55 831 136.822 424.841 474.341
402 0 66.1528 9.34201 618 110.574 426.576 478.155
403 0 75.1168 13.5655 1019 108.028 424.956 468.342
404 0 77.2306 14.6962 1135 106.948 424.917 465.355
405 0 82.2171 14.0725 1157 106.564 424.112 462.01
406 0 85.3487 11.0371 942 109.323 424.69 465.896
407 0 84.3602 13.2646 1119 106.162 423.272 465.31
408 0 87.1997 10.4702 913 110.231 424.229 461.802
409 1 181.649 14.4399 2623 109.782 422.753 418.286
410 0 179.369 9.15429 1642 115.917 423.284 407.063
411 0 176.539 8.15117 1439 116.832 422.992 410.685
412 1 106.33 11.8593 1261 103.869 422.151 446.368
413 1 52.1657 10.3133 538 105.336 423.02 471.489
414 0 57.148 14.0862 805 100.78 423.799 468.865
415 0 59.0661 13.2902 785 101.268 423.568 466.522
416 0 57.078 9.58338 547 103.96 423.426 468.974
417 0 62.0982 15.6043 969 97.7853 424.405 464.48
418 0 61.0336 11.2397 686 103.283 425.434 463.84
419 0 66.1631 11.5775 766 101.932 427.077 464.996
420 0 66.3419 12.7371 845 102.537 426.738 460.276
421 0 73.0627 19.3533 1414 94.4505 426.902 453.426
422 0 73.0562 10.2798 751 105.325 428.791 458.78
423 0 73.0562 10.1566 742 128.97 429.776 458.876
424 0 80.1899 11.7471 942 102.182 429.362 460.738
425 0 80.1899 11.8219 948 131.643 429.39 460.545
426 0 83.2533 13.1286 1093 107.212 431.013 454.889
427 0 91.1571 18.1445 1654 100.284 432.87 454.048
428 0 97.174 13.7588 1337 102.846 432.574 457.173
429 0 95.1455 19.4859 1854 98.3619 432.166 454.656
430 0 98.4745 13.6685 1346 105.715 432.705 449.624
431 0 102.339 14.8037 1515 104.749 433.071 448.778
432 0 103.276 12.4327 1284 104.994 433.185 458.327
433 1 52.1199 12.9509 675 105.145 433.852 474.227
434 0 58.1306 14.3126 832 100.601 433.47 472.067
435 0 65.9234 18.0512 1190 87.5185 433.044 478.362
436 0 57.1692 13.3289 762 95.3386 431.294 473.635
437 0 61.2355 26.7982 1641 83.8684 430.406 478.141
438 0 63.1608 15.4843 978 93.8139 429.919 471.005
439 0 62.2153 11.2673 701 98.7789 430.705 473.252
440 0 65.0836 11.2317 731 99.42 431.252 470.534
441 0 66.0977 12.421 821 99.0073 430.007 472.314
442 0 72.5061 16.3159 1183 93.6754 428.609 472.14
443 0 71.2681 19.3214 1377 91.8533 427.84 473.203
444 0 72.1928 12.4666 900 99.84 427.527 458.369
445 0 73.1327 13.2499 969 99.4107 427.503 462.428
446 0 84.8193 22.542 1912 87.5941 426.878 472.959
447 0 80.1618 12.6369 1013 101.192 426.304 459.805
448 0 82.2567 10.601 872 104.404 425.675 460.508
449 1 96.1271 12.6915 1220 104.981 426.55 459.516
450 0 95.304 19.0233 1813 96.2648 425.59 468.211
451 0 94.5518 13.8231 1307 105.634 424.946 456.197
452 0 94.3158 12.9565 1222 105.659 424.602 453.444
453 1 51.4567 11.6797 601 101.9 423.987 480.12
454 0 49.2512 10.1926 502 107.631 423.536 474.506
455 0 53.3996 11.6106 620 106.011 423.592 474.292
456 0 51.0725 11.8263 604 108.738 424.31 474.301
457 0 59.2498 16.0169 949 100.389 425.75 476.369
458 0 58.1309 15.5683 905 102.83 425.102 471.613
459 0 62.3343 14.7912 922 104.615 425.768 471.163
460 0 64.5229 14.1345 912 104.622 426.208 471.78
461 0 62.1883 13.4591 837 108.989 426.332 465.344
462 0 66.0928 13.9652 923 107.153 426.52 467.64
463 0 66.1452 10.9607 725 113.495 427.301 464.143
464 0 68.1948 16.4675 1123 104.973 426.943 462.037
465 0 73.2184 11.0082 806 111.79 428.149 465.826
466 0 75.2466 12.0537 907 111.803 429.151 463.348
467 0 77.2126 12.8994 996 110.692 427.964 465.838
468 0 80.161 13.7349 1101 111.018 428.119 460.45
469 0 86.0968 17.4339 1501 104.073 428.342 464.227
470 1 46.106 12.4279 573 105.002 429 480.852
471 0 46.0919 15.5993 719 99.1488 429.708 482.919
472 0 47.1755 12.4005 585 102.846 429.966 484.42
473 0 46.0925 15.5123 715 98.2811 430.607 486.092
474 0 48.1893 10.2512 494 104.842 429.765 487.559
475 0 49.0857 12.2235 600 103.833 430.533 483.24
476 0 51.0718 16.1341 824 98.6881 429.643 483.897
477 0 53.0704 14.396 764 100.556 428.952 485.623
478 0 54.0478 14.9867 810 99.4654 428.93 483.428
479 0 57.0604 14.6862 838 100.135 429.016 487.53
480 0 57.0873 13.5757 775 101.819 428.046 485.693
481 0 55.0841 10.4204 574 119.676 426.981 489.432
482 0 62.1308 12.5381 779 102.756 426.756 488.076
483 0 62.142 13.6623 849 100.568 425.629 490.013
484 0 65.5642 11.1951 734 102.552 423.287 489.048
485 0 69.2852 13.3939 928 100.242 423.245 487.962
486 0 68.1233 12.4921 851 103.278 422.814 484.086
487 0 69.1803 6.96731 482 108.205 421.952 487.33
488 0 69.1803 6.82276 472 119.347 421.989 487.261
489 0 76.1515 10.571 805 107.12 422.308 474.467
490 0 78.1836 11.4474 895 104.968 420.807 474.796
491 0 82.5494 12.1019 999 104.23 420.831 475.498
492 0 84.3435 13.5754 1145 100.412 420.674 471.458
493 0 87.1711 8.24814 719 107.684 420.277 471.38
494 0 86.1868 9.45621 815 109.152 418.856 476.291
495 1 42.1849 10.6436 449 102.361 417.688 492.757
496 0 42.2701 14.7622 624 98.4327 418.07 489.45
497 0 45.1996 13.4293 607 98.626 417.499 485.244
498 0 44.1118 10.3147 455 103.868 416.771 486.585
499 0 51.0823 7.69346 393 107.097 416.863 482.491
500 0 53.0729 10.2312 543 102.357 418.959 485.127
501 0 50.0966 9.1623 459 101.941 419.791 485.719
502 0 51.2456 12.2157 626 101.399 420.281 480.462
503 0 55.2262 11.4257 631 102.307 420.669 479.269
504 0 54.1794 11.4435 620 102.556 421.173 479.115
505 0 51.1057 9.29447 475 109.084 422.221 472.806
506 0 56.111 14.1683 795 100.873 422.381 474.814
507 0 59.0811 13.2191 781 102.7 423.965 472.616
508 0 60.1386 10.2098 614 105.555 424.847 474.046
509 0 60.0655 10.5718 635 104.701 425.38 473.627
510 0 61.0668 11.4792 701 116.756 426.364 471.799
511 0 67.0976 12.0273 807 104.098 427.411 466.494
512 0 67.1885 10.4333 701 106.17 427.718 467.241
513 0 74.2296 14.024 1041 101.287 428.339 467.574
514 0 75.0665 11.4299 858 106.196 428.944 463.577
515 1 41.1577 12.3428 508 101.48 429.48 487.518
516 0 43.0676 9.54314 411 106.601 430.022 485.139
517 0 40.0418 9.54004 382 104.424 428.78 486.406
518 0 42.0597 9.46273 398 103.716 429.937 481.43
519 0 44.1056 12.3567 545 104.33 429.213 487.143
520 0 43.0977 11.9728 516 112.82 429.3 487.928
521 0 45.0549 10.2985 464 108.655 428.108 491.989
522 0 48.0938 11.4984 553 108.067 426.886 490.993
523 0 51.1608 15.4806 792 101.747 426.63 491.102
524 0 51.0606 14.5122 741 104.471 426.506 488.32
525 0 52.0651 13.1758 686 106.121 426.413 490.657
526 0 54.1472 12.0412 652 106.287 426.244 490.679
527 0 56.1538 13.6055 764 105.284 425.292 486.895
528 0 57.3477 13.7059 786 105.903 424.682 486.281
529 0 59.1444 10.0939 597 109.028 423.894 491.956
530 0 61.1069 12.2736 750 107.505 423.491 486.435
531 1 127.554 12.1439 1549 109.405 421.857 456.063
532 0 131.672 13.1843 1736 108.48 421.052 455.285
533 0 132.514 15.0248 1991 106.087 419.329 452.691
534 1 72.1386 13.8484 999 105.851 420.61 478.123
535 0 75.1444 16.262 1222 101.57 419.628 477.954
536 0 77.2777 11.3228 875 107.813 419.49 476.585
537 0 81.2658 17.6458 1434 100.093 419.788 474.513
538 0 85.2636 13.1357 1120 105.281 420.021 469.112
539 1 44.0264 13.1285 578 103.818 420.166 488.988
540 0 44.0558 12.7339 561 105.818 419.677 486.053
541 0 45.0945 11.6422 525 103.07 418.257 481.318
542 0 48.0673 13.4187 645 101.674 419.093 485.14
543 0 48.1077 14.7378 709 102.179 419.663 479.553
544 0 52.315 12.7879 669 102.637 420.807 481.979
545 0 53.0563 11.1203 590 105.22 421.02 480.685
546 0 52.0842 20.4477 1065 95.6028 422.097 478.457
547 0 56.1028 13.1366 737 102.815 421.501 474.87
548 0 60.0952 13.3954 805 101.374 422.817 473.886
549 0 59.1256 15.002 887 100.355 423.292 473.927
550 0 62.1263 11.7825 732 105.068 423.669 470.518
551 0 62.2435 11.7281 730 103.71 425.167 472.821
552 0 64.1556 13.2646 851 101.134 424.251 467.016
553 0 64.1556 13.2335 849 119.121 424.251 466.949
554 0 70.1237 15.2587 1070 99.5047 425.742 462.863
555 0 70.1962 12.636 887 103.378 426.333 464.919
556 0 73.1047 12.9951 950 103.889 427.737 465.842
557 1 39.0873 12.0755 472 102.869 428.417 483.11
558 0 40.0742 12.2772 492 102.23 428.435 486.053
559 0 41.1531 8.55343 352 107.906 428.435 487.841
560 0 45.2063 13.9361 630 100.113 428.54 485.771
561 0 52.2788 17.1771 898 93.4243 429.256 487.818
562 0 46.0303 12.8176 590 104.181 428.366 485.781
563 0 48.118 10.7444 517 106.203 428.122 486.24
564 0 48.1309 13.1932 635 103.943 427.562 488.184
565 0 48.1454 10.4475 503 108.165 426.831 487.082
566 0 52.1395 13.157 686 103.666 426.741 490.001
567 0 55.2078 13.7481 759 102.615 425.705 488.451
568 0 55.0879 14.4678 797 102.848 426.221 487.216
569 0 57.157 21.0648 1204 94.4726 424.534 489.313
570 0 57.157 21.0123 1201 112.69 423.505 489.416
571 0 61.1206 13.4161 820 102.752 423.944 484.33
572 0 64.1014 18.8452 1208 96.2583 423.392 483.257
573 0 68.1212 17.5569 1196 97.939 422.669 480.384
574 0 69.1628 17.307 1197 97.3843 421.708 474.135
575 0 72.2951 14.6345 1058 99.5085 422.291 476.359
576 0 73.1317 13.2774 971 100.511 420.33 477.922
577 1 36.0192 10.6332 383 101.99 420.06 492.175
578 0 38.0565 5.93854 226 105.022 420.934 493.429
579 0 44.2112 14.4986 641 95.9423 418.754 488.07
580 0 47.4599 13.3797 635 100.617 419.265 490.86
581 0 46.0415 13.3792 616 101.667 418.157 487.826
582 0 47.1369 11.6894 551 100.354 418.381 478.655
583 0 47.2369 15.073 712 95.9831 418.306 475.735
584 0 47.2369 14.7978 699 118.908 419.232 475.724
585 0 46.0382 9.83966 453 104.053 419.126 475.316
586 0 51.0692 11.7488 600 102.68 419.778 470.968
587 0 57.5874 12.3812 713 104.711 420.062 478.475
588 0 58.1907 14.8305 863 107.577 419.93 477.468
589 0 59.1622 16.2773 963 106.571 420.532 476.167
590 0 59.2128 14.6928 870 111.087 420.726 475.379
591 0 60.2551 16.6957 1006 108.774 421.05 471.474
592 0 64.0919 13.7927 884 111.182 422.692 474.352
593 0 67.3299 13.6344 918 112.613 421.972 471.075
594 0 68.3361 13.8726 948 113.153 424.151 470.677
595 0 71.3038 14.8379 1058 108.789 424.623 470.607
596 0 74.1412 13.8924 1030 111.24 423.676 466.652
597 0 76.0906 12.5771 957 112.894 425.814 469.336
598 0 82.3302 22.7377 1872 98.1261 425.825 469.465
599 0 79.0785 12.2537 969 114.055 426.67 463.446
600 0 81.0878 11.0991 900 112.466 427.106 467.902
601 0 90.1166 16.1901 1459 105.48 427.664 464.224
602 0 91.1475 15.7766 1438 103.621 427.286 458.346
603 1 44.0676 13.0028 573 99.9948 426.77 480.44
604 0 44.2271 7.57455 335 106.06 427.645 481.576
605 0 53.3758 13.1708 703 97.4808 427.639 487.253
606 0 53.0712 13.0579 693 102.088 426.978 485.193
607 0 54.1053 13.0856 708 102.462 424.822 483.448
608 0 56.1321 11.3126 635 103.373 425.635 489.435
609 0 57.0734 12.0722 689 104.681 425.628 483.502
610 0 59.2381 12.4582 738 104.213 424.238 484.469
611 0 62.2259 15.5723 969 100.067 424.311 482.159
612 0 63.2174 10.8514 686 105.216 424.558 484.949
613 0 67.127 13.0797 878 102.782 424.287 485.74
614 0 70.1334 12.3194 864 104.156 423.637 481.596
615 0 69.1365 8.40367 581 107.627 421.895 485.289
616 0 73.137 13.7277 1004 101.999 422.29 477.743
617 0 79.2276 14.3763 1139 100.809 421.18 476.226
618 0 80.1764 15.0917 1210 100.595 421.139 475.671
619 0 82.3935 15.6202 1287 100.545 420.097 472.105
620 1 46.094 10.9342 504 104.804 420.153 492.901
621 0 43.1045 11.1589 481 106.705 419.861 490.152
622 0 46.0881 12.845 592 104.576 420.211 487.483
623 0 47.0743 9.51687 448 107.297 419.212 484.567
624 0 46.0962 9.97912 460 106.774 418.472 484.624
625 0 51.1153 12.462 637 102.312 417.922 484.736
626 0 49.2098 14.6922 723 101.83 418.127 480.091
627 0 52.0494 15.5621 810 100.006 419.247 478.019
628 0 50.2674 14.1444 711 103.46 420.141 480.664
629 0 52.1521 13.6332 711 104.15 418.896 481.38
630 0 53.0634 15.2459 809 102.271 419.671 475.642
631 0 59.5307 15.639 931 99.986 419.161 477.965
632 0 56.1312 13.1834 740 105.738 421.254 475.792
633 0 59.1958 12.8894 763 105.152 420.902 475.007
634 0 60.0612 13.1199 788 105.084 422.188 472.633
635 0 63.2955 12.7655 808 104.891 420.931 472.496
636 0 65.2468 11.8933 776 106.14 423.67 473.322
637 0 64.3575 12.0576 776 107.696 422.347 469.861
638 0 67.0897 11.8051 792 106.551 423.126 469.996
639 0 67.1526 10.8708 730 108.271 423.551 470.236
640 0 75.0953 15.7267 1181 102.075 425.303 468.515
641 0 73.3197 9.72454 713 109.16 425.672 463.175
642 0 80.1933 14.2655 1144 102.998 426.524 468.013
643 0 84.1653 16.4082 1381 102.254 426.214 464.421
644 0 84.3426 12.0817 1019 106.813 427.009 455.509
645 0 88.1173 11.7798 1038 107.86 426.418 458.945
646 0 91.5192 12.2269 1119 109.109 426.874 461.812
647 0 96.6223 17.1803 1660 102.64 426.326 463.205
648 1 146.306 12.4534 1822 113.384 426.643 434.453
649 0 146.306 12.3577 1808 127.958 426.622 434.341
650 1 53.1051 15.6105 829 102.277 425.314 482.165
651 0 55.11 15.9862 881 103.218 425.847 481.711
652 0 55.0994 12.7588 703 109.309 425.556 481.856
653 0 57.267 19.1035 1094 100.621 425.648 484.963
654 0 58.3389 11.7932 688 110.946 425.39 483.198
655 0 61.1323 12.7592 780 110.696 423.48 482.686
656 0 62.4174 12.4324 776 112.101 423.668 478.941
657 0 61.1423 9.66598 591 117.164 423.697 485.75
658 0 59.1059 12.0631 713 114.484 421.227 480.801
659 0 64.1964 12.4773 801 114.953 421.896 476.331
660 0 67.2071 11.0703 744 117.612 421.09 476.819
661 0 72.1392 11.4639 827 117.098 419.987 473.01
662 0 73.1532 11.2777 825 118.867 419.715 473.792
663 0 76.1954 10.8537 827 120.44 420.398 473.681
664 0 80.3638 13.7375 1104 118.067 419.403 463.231
665 0 83.582 14.0222 1172 117.07 419.078 459.214
666 0 85.2619 12.1273 1034 120.641 418.71 461.434
667 0 87.3592 15.5565 1359 115.631 418.838 455.728
668 1 46.0996 14.1433 652 110.442 417.998 481.676
669 0 44.1009 6.39443 282 114.496 418.748 481.273
670 0 50.0959 11.6576 584 112.296 419.461 482.265
671 0 48.1613 12.3751 596 114.107 419.107 479.628
672 0 50.0731 12.5616 629 112.188 419.065 481.432
673 0 49.1237 10.8705 534 116.172 419.697 479.931
674 0 53.2841 13.0057 693 113.993 419.403 475.84
675 0 55.2697 15.1439 837 111.803 420.826 474.778
676 0 54.1241 13.6538 739 114.478 421.146 473.241
677 0 54.0576 11.9317 645 117.335 422.366 474.305
678 0 54.0628 7.63926 413 136.121 423.036 480.659
679 0 62.063 12.3262 765 116.813 423.332 468.14
680 0 66.1776 13.0407 863 114.578 424.925 468.769
681 0 69.1275 12.9182 893 116.352 425.384 467.707
682 0 73.2301 18.5716 1360 106.185 425.329 464.741
683 0 75.2153 14.8773 1119 111.999 425.273 461.372
684 0 77.16 11.6641 900 117.096 426.72 467.153
685 0 77.3317 11.2114 867 121.42 426.901 462.692
686 0 81.177 13.8463 1124 117.665 427.745 461.43
687 0 86.2514 13.8433 1194 116.176 426.273 463.195
688 0 85.2224 13.2594 1130 115.727 427.755 464.373
689 0 90.2041 13.2588 1196 118.421 427.977 457.191
690 0 90.1644 13.8081 1245 117.973 427.807 455.698
691 0 97.2805 13.2812 1292 117.172 426.955 455.568
692 0 98.1323 12.6054 1237 117.715 427.542 457.602
693 0 101.332 15.0692 1527 115.058 426.613 458.322
694 0 104.322 10.8606 1133 122.188 427.384 455.787
695 0 110.28 13.901 1533 118.098 426.322 453.599
696 0 114.281 13.9219 1591 117.762 427.183 455.383
697 0 121.271 15.5025 1880 115.986 426.211 456.088
698 1 62.0764 11.808 733 114.05 426.131 489.121
699 0 64.0518 12.2245 783 112.433 424.321 481.687
700 0 64.2142 12.9878 834 121.041 423.624 482.246
701 0 66.0902 12.8612 850 120.674 422.334 479.345
702 0 69.3657 15.5264 1077 118.02 422.334 476.451
703 0 71.2999 11.9495 852 123.941 422.13 475.715
704 0 74.2474 12.9163 959 122.187 421.476 472.814
705 0 75.4812 14.3215 1081 119.478 420.591 471.984
706 0 77.4305 12.8115 992 120.207 420.576 472.03
707 0 80.3903 13.9694 1123 118.917 420.578 470.18
708 0 83.2557 12.5997 1049 120.516 419.463 469.393
709 0 86.241 13.6478 1177 118.402 418.91 463.472
710 0 89.5391 13.3126 1192 118.81 420.277 463.504
711 1 49.1766 10.2691 505 113.754 418.339 485.491
712 0 50.0316 11.4128 571 110.205 421.1 483.366
713 0 49.2004 11.8902 585 112.615 418.631 478.844
714 0 52.1722 12.3629 645 110.107 419.31 479.952
715 0 54.2828 12.2322 664 109.982 418.943 478.154
716 0 56.1229 11.4035 640 111.492 421.084 478.858
717 0 58.0644 15.2934 888 105.651 419.407 474.813
718 0 55.1217 12.7717 704 111.305 419.964 473.54
719 0 60.1364 13.1202 789 109.836 419.638 475.038
720 0 61.1339 12.2191 747 112.73 421.779 473.197
721 0 62.108 11.4156 709 111.135 422.508 474.197
722 0 66.1852 12.5708 832 107.281 423.095 475.994
723 0 63.3695 8.75816 555 114.987 423.8 469.441
724 0 70.1065 14.8916 1044 109.103 423.477 468.702
725 0 68.1178 13.462 917 99.578 423.501 470.962
726 0 74.1966 12.7095 943 112.872 423.626 469.258
727 0 78.3154 17.1103 1340 107.484 425.907 463.381
728 0 76.2099 9.55256 728 119.082 426.363 462.929
729 0 83.1432 13.6752 1137 113.5 426.907 463.288
730 0 87.0701 13.3226 1160 115.461 426.416 460.197
731 0 92.1233 12.6569 1166 115.504 426.994 464.313
732 0 90.1535 16.5828 1495 109.016 426.817 458.153
733 0 85.1456 9.10206 775 118.404 427.44 460.726
734 0 94.3595 12.9081 1218 114.83 427.7 463.629
735 0 98.2972 8.40309 826 119.988 426.191 464.909
736 0 102.331 13.0655 1337 114.941 426.722 461.332
737 0 107.513 11.4032 1226 115.456 425.201 464.048
738 0 106.255 11.5289 1225 117.445 426.017 459.948
739 1 56.0484 13.524 758 108.707 424.489 486.507
740 0 57.1112 10.7685 615 111.158 424.324 486.867
741 0 62.1114 11.2057 696 108.191 422.806 489.109
742 0 58.0325 8.83987 513 112.953 423.092 486.682
743 0 64.1417 14.4056 924 105.144 422.255 481.049
744 0 66.1144 11.9792 792 108.818 420.862 479.737
745 0 67.5683 9.6199 650 112.174 420.894 476.348
746 0 71.117 8.95707 637 111.575 421.496 477.664
747 0 76.058 11.3729 865 108.748 420.629 477.809
748 1 42.0688 10.8869 458 112.199 421.028 489.956
749 0 43.0473 9.77994 421 114.781 419.983 490.066
750 0 44.1609 14.5604 643 109.557 420.883 485.314
751 0 47.1429 13.406 632 112.783 420.584 486.104
752 0 50.1075 15.4867 776 109.274 418.789 485.022
753 0 55.6084 16.3464 909 104.494 418.708 486.033
754 0 49.1023 15.2742 750 112.348 420.572 480.173
755 0 57.4546 11.9224 685 114.349 420.073 481.937
756 0 55.0532 13.6958 754 112.451 419.805 481.946
757 0 50.1238 10.7135 537 113.706 421.993 477.814
758 0 52.2593 10.0461 525 114.665 421.465 481.703
759 0 54.0896 11.9062 644 111.48 421.939 480.151
760 0 59.247 12.7095 753 109.772 421.792 477.101
761 0 58.1095 13.6294 792 111.058 423.235 472.391
762 0 60.222 10.8598 654 113.219 422.148 474.82
763 0 66.3131 14.0998 935 105.482 423.815 476.483
764 0 73.3252 12.3286 904 104.792 423.46 473.968
765 0 72.1171 15.35 1107 103.463 424.795 473.053
766 0 72.142 11.4635 827 111.077 425.169 469.851
767 0 72.2013 8.5871 620 112.008 425.453 475.469
768 0 79.1293 10.5397 834 112.824 425.651 464.86
769 0 82.186 12.3135 1012 112.279 426.152 462.04
770 0 89.2428 7.64207 682 115.925 426.713 470.091
771 1 42.0445 13.4144 564 103.996 427.268 480.697
772 0 43.1151 12.1535 524 108.723 426.916 481.958
773 0 46.1007 12.1256 559 108.744 427.265 481.243
774 0 50.1805 13.0728 656 107.546 428.064 485.142
775 0 49.2866 13.2896 655 107.997 428.518 483.302
776 0 51.2173 11.1486 571 111.475 427.849 481.988
777 0 48.1408 7.64425 368 117.353 426.88 482.826
778 0 49.2572 9.09512 448 115.353 426.839 486.377
779 0 54.1128 10.4781 567 111.319 426.501 485.593
780 0 54.1332 12.0813 654 107.783 427.619 486.098
781 0 58.2842 13.0052 758 106.708 426.978 483.129
782 0 59.247 10.1102 599 110.083 426.676 485.788
783 0 60.0393 8.91083 535 105.914 426.114 485.402
784 0 64.095 10.3596 664 105.369 426.336 481.033
785 0 64.1352 6.81373 437 109.979 425.256 477.632
786 0 66.1719 10.0949 668 106.837 424.548 481.266
787 1 139.413 10.6805 1489 116.119 424.381 440.586
788 0 144.313 9.07752 1310 117.15 423.482 427.091
789 0 151.342 10.4928 1588 115.077 422.764 432.832
790 1 77.2434 9.2953 718 108.272 421.749 464.676
791 0 81.2065 10.1223 822 107.828 422.201 472.478
792 1 43.0356 13.7793 593 102.029 419.836 487.027
793 0 39.0398 6.55741 256 112.73 421.059 486.824
794 0 43.0415 8.27108 356 110.848 422.379 485.896
795 0 47.1652 11.0463 521 104.474 418.749 478.775
796 0 49.0764 10.718 526 105.622 419.43 481.869
797 0 50.1309 13.2054 662 104.187 419.773 477.947
798 0 51.1916 11.0565 566 108.398 420.201 479.691
799 0 52.0872 11.8263 616 109.604 421.274 478.106
800 0 54.2004 14.9076 808 104.634 420.703 474.804
801 0 55.1976 13.0622 721 108.436 421.528 470.614
802 0 57.1447 15.3995 880 104.693 421.225 471.912
803 0 63.1139 9.50663 600 112.177 421.498 472.888
804 0 65.0963 11.9515 778 109.121 421.821 470.218
805 0 64.0976 12.559 805 117.215 424.185 466.4
806 0 69.1175 16.7251 1156 108.529 425.187 466.026
807 0 67.0911 11.6558 782 118.754 424.899 462.647
808 0 70.2111 11.6078 815 118.018 426.293 465.004
809 0 73.1898 12.9116 945 116.727 426.507 459.71
810 0 77.3292 15.2077 1176 108.722 426.64 459.344
811 0 77.4498 10.949 848 116.276 427.515 460.186
812 0 80.2283 14.3466 1151 111.68 427.481 454.988
813 0 77.1712 9.30399 718 121.063 427.705 455.666
814 0 84.2216 11.541 972 115.925 429.334 460.807
815 1 40.125 6.95326 279 116.262 427.982 481.91
816 0 45.2295 10.6789 483 110.371 428.749 481.087
817 0 49.058 10.5589 518 108.653 427.579 482.923
818 0 50.1503 9.7108 487 109.444 427.624 482.817
819 0 52.0345 13.1643 685 106.21 428.415 481.016
820 0 51.1107 11.1523 570 110.423 428.367 485.03
821 0 55.1757 11.2187 619 109.501 427.347 481.73
822 0 52.1103 8.52039 444 114.477 428.122 481.311
823 0 55.2494 11.0408 610 110.849 426.23 479.503
824 0 59.3391 11.2742 669 109.342 427.522 478.248
825 0 60.0425 12.8576 772 107.798 426.073 477.501
826 0 63.2028 12.5153 791 106.728 425.756 482.583
827 0 64.0758 15.4036 987 103.957 424.83 477.455
828 0 63.1767 9.22808 583 112.842 425.345 477.54
829 0 62.2818 8.34914 520 114.531 424.429 477.66
830 0 65.2691 9.20803 601 111.547 424.181 481.617
831 0 73.0841 13.8881 1015 105.486 424.265 472.39
832 0 79.1177 12.8543 1017 106.577 424.252 471.168
833 0 81.1586 12.3955 1006 107.918 423.278 469.305
834 0 83.1085 12.1889 1013 113.111 422.956 466.19
835 0 88.1706 7.19061 634 120.683 423.189 464.095
836 1 44.0601 12.1652 536 108.28 423.787 482.498
837 0 48.1127 15.7547 758 101.231 423.139 482.347
838 0 54.4433 12.5084 681 103.404 423.282 483.28
839 0 49.0584 14.6356 718 103.058 422.826 482.554
840 0 54.1686 14.6395 793 102.064 420.38 480.103
841 0 53.1405 11.1591 593 109.096 420.976 476.228
842 0 54.1214 11.9546 647 106.719 421.212 472.046
843 0 53.0869 8.72155 463 111.95 421.562 474.838
844 0 58.1317 11.8868 691 106.855 420.741 470.625
845 0 61.0539 12.3989 757 105.716 421.826 471.555
846 0 64.1289 10.666 684 108.063 422.354 472.569
847 0 62.3828 9.47376 591 111.448 422.543 467.267
848 0 66.1138 10.7391 710 109.915 422.993 467.845
849 0 66.0952 11.6801 772 109.198 422.703 467.061
850 0 70.0857 9.48839 665 111.329 424.681 468.926
851 0 72.2189 12.1159 875 110.622 424.568 459.713
852 0 75.2084 12.5252 942 110.226 426.428 462.687
853 0 74.2383 12.6215 937 114.778 427.482 462.406
854 0 81.0811 14.7753 1198 107.015 427.513 458.906
855 0 84.2582 14.954 1260 107.467 427.429 457.63
856 0 86.2205 12.7232 1097 111.335 428.16 454.888
857 0 89.3005 11.7804 1052 112.442 428.63 457.669
858 0 89.3175 10.5578 943 112.538 429.095 463.128
859 0 97.1334 12.9307 1256 109.943 429.065 463.102
860 0 99.4962 9.528 948 116.59 430.173 458.897
861 0 100.202 10.4389 1046 118.56 429.595 452.82
862 0 103.685 11.3614 1178 113.156 428.977 461.715
863 0 108.284 11.5622 1252 114.657 429.067 457.495
864 0 112.32 15.0375 1689 107.128 429.463 452.371
865 0 113.304 8.95818 1015 115.626 428.713 454.182
866 0 119.492 11.1388 1331 115.282 428.928 448.757
867 0 122.296 13.0257 1593 111.818 428.913 447.205
868 1 64.132 12.3027 789 105.797 428.243 476.689
869 0 65.1999 9.60124 626 110.511 427.203 473.021
870 0 69.1973 11.4744 794 108.69 427.128 475.963
871 0 67.1976 9.58367 644 112.012 425.93 472.592
872 0 72.1397 10.6599 769 110.385 424.694 471.137
873 0 79.1069 12.679 1003 106.102 424.12 470.534
874 0 80.119 14.4161 1155 104.377 423.634 467.37
875 0 83.1619 11.4355 951 108.767 423.382 464.733
876 1 40.0812 10.2791 412 105.49 423.415 485.813
877 0 41.0584 8.08605 332 111.521 421.25 480.506
878 0 45.0741 9.14051 412 110.536 422.425 483.177
879 0 50.1399 11.1687 560 104.404 421.716 485.786
880 0 56.9901 14.8096 844 103.363 424.532 481.576
881 0 50.0863 11.2406 563 111.915 424.242 479.661
882 0 52.0469 11.5473 601 112.06 423.506 476.859
883 0 54.0429 10.9358 591 113.078 422.702 474.856
884 0 53.0286 8.69342 461 110.649 421.354 478.178
885 0 52.041 9.49252 494 110.822 421.059 477.37
886 0 57.3036 14.7809 847 103.725 421.408 473.6
887 0 56.187 8.63188 485 113.256 422.318 471.769
888 0 57.2009 10.3145 590 112.949 421.976 470.73
889 0 64.0737 12.9694 831 108.395 422.697 468.821
890 0 67.1607 12.0904 812 109.415 423.289 469.484
891 0 66.2448 9.54037 632 113.022 423.041 470.453
892 0 68.1897 10.0895 688 113.398 424.776 463.706
893 0 66.1777 8.59807 569 116.141 424.408 466.824
894 0 73.4879 12.696 933 110.373 424.743 461.098
895 0 74.1114 10.1469 752 114.106 425.886 462.473
896 0 78.3282 10.2645 804 113.007 426.529 463.209
897 0 80.2425 12.375 993 109.854 426.702 463.05
898 1 43.0682 10.7504 463 110.68 426.469 477.097
899 0 48.2824 11.0806 535 106.157 426.884 478.817
900 0 43.085 7.4504 321 106.847 429.9 473.146
901 0 44.0786 6.46572 285 109.635 430.425 472.007
902 0 46.0609 10.3124 475 105.838 430.869 469.661
903 0 51.1514 10.0095 512 104.289 429.84 482.443
904 0 48.1317 11.5309 555 105.067 429.649 478.989
905 0 51.0748 10.6706 545 106.154 430.433 478.67
906 0 51.165 10.3977 532 106.105 429.977 482.41
907 0 54.1489 10.3049 558 105.425 429.767 484.011
908 0 50.072 6.27098 314 112.118 428.911 476.067
909 0 58.0604 6.42434 373 110.105 429.544 484.772
910 0 57.2542 9.60628 550 103.107 428.284 478.044
911 0 57.198 10.857 621 101.678 428.396 473.644
912 0 56.072 10.1298 568 106.954 428.449 482.81
913 0 63.0616 3.02879 191 117.696 425.874 477.565
914 0 68.2009 9.00281 614 107.788 424.91 478.337
915 0 67.0639 8.85723 594 109.658 424.221 474.024
916 0 72.1075 12.0098 866 104.618 423.71 471.872
917 0 74.1633 11.8657 880 104.672 423.036 471.97
918 0 82.1637 14.2034 1167 103.816 420.931 466.877
919 0 84.1176 12.9224 1087 105.855 422.408 467.567
920 0 83.0831 11.2658 936 108.296 421.283 468.834
921 0 87.1473 12.7141 1108 106.339 422.29 469.165
922 0 90.0944 12.4425 1121 106.646 421.549 463.409
923 1 43.0631 6.54852 282 112.032 420.738 483.394
924 0 47.1041 9.89298 466 104.891 421.253 482.461
925 0 48.0493 15.713 755 95.1854 420.926 480.07
926 0 51.1018 11.9761 612 99.3938 420.281 479.417
927 0 52.1639 17.4642 911 91.8814 420.829 482.575
928 0 52.0309 7.45711 388 105.296 420.874 479.67
929 0 53.0917 9.30465 494 103.621 421.966 474.8
930 0 53.0927 12.902 685 99.9474 421.93 471.104
931 0 57.0979 10.0704 575 102.118 423.863 476.174
932 0 56.1263 9.5499 536 102.015 422.769 475.047
933 0 54.1573 9.06618 491 103.418 423.047 471.295
934 0 63.0976 11.189 706 101.21 424.419 466.368
935 0 63.1438 11.7351 741 101.957 425.486 464.789
936 0 68.1469 10.1105 689 103.536 425.3 461.602
937 0 71.1298 14.0307 998 98.6102 427.095 461.161
938 0 71.0871 11.8587 843 101.228 426.701 462.391
939 0 69.1114 9.63661 666 101.844 427.422 462.107
940 0 76.0658 9.93876 756 104.739 427.341 459.197
941 0 78.1229 10.8419 847 103.384 427.862 460.094
942 0 86.4527 15.4998 1340 97.3672 429.822 454.302
943 0 89.2317 12.2938 1097 100.636 430.465 458.446
944 0 94.244 14.5049 1367 97.8764 430.606 456.715
945 1 47.1059 10.3596 488 103.223 431.258 478.66
946 0 49.0658 11.8209 580 100.819 430.941 479.231
947 0 49.0589 12.006 589 102.696 431.029 479.521
948 0 48.1889 6.64053 320 111.531 430.378 479.581
949 0 54.0756 10.3559 560 104.066 431.504 482.634
950 0 56.1107 11.3169 635 104.578 431.198 479.794
951 0 55.1029 11.5058 634 104.685 430.968 479.506
952 0 60.0483 14.1386 849 96.3015 430.661 489.67
953 0 59.0403 10.7892 637 106.399 428.755 483.455
954 0 60.08 12.0007 721 106.266 428.925 478.849
955 0 65.1537 13.1689 858 104.452 427.711 479.085
956 0 62.1298 6.76004 420 112.893 426.052 483.829
957 0 65.0982 6.20601 404 115.302 425.856 474.658
958 0 69.3131 12.5229 868 102.382 424.353 481.967
959 0 72.1512 11.7531 848 105.231 423.605 477.295
960 0 77.4949 14.9171 1156 100.212 423.035 470.186
961 0 77.1263 12.9269 997 102.318 423.265 473.951
962 0 81.2251 11.6959 950 104.842 423.049 473.506
963 0 82.6727 10.8742 899 106.188 424.358 470.246
964 1 44.1038 12.3572 545 99.1578 421.963 489.101
965 0 46.1019 12.4724 575 99.8852 421.504 489.047
966 0 44.102 12.5845 555 125.941 421.548 488.667
967 0 46.1579 12.8905 595 99.8571 421.613 485.62
968 0 45.1546 10.608 479 104.265 421.484 483.639
969 0 46.0641 10.2466 472 103.886 422.042 481.225
970 0 47.1146 11.7161 552 103.208 421.161 480.888
971 0 52.1596 10.6404 555 102.472 421.708 479.528
972 0 52.1922 12.0133 627 102.145 421.244 477.116
973 0 53.2366 13.5057 719 99.7469 422.481 476.003
974 0 55.2715 12.8276 709 100.234 422.745 476.324
975 0 56.1851 4.89453 275 108.524 422.905 474.687
976 0 59.2798 14.187 841 96.7622 424.007 468.163
977 0 59.1326 11.1275 658 100.541 424.248 466.483
978 0 64.2264 14.3555 922 98.3145 423.631 471.704
979 0 65.2536 15.4168 1006 96.9682 424.877 472.112
980 0 65.2536 15.3402 1001 102.677 426.857 472.248
981 0 72.1891 15.8196 1142 96.2207 427.323 465.554
982 0 75.3936 10.4518 788 101.745 427.161 461.496
983 0 76.0979 11.9057 906 101.663 427.296 460.868
984 0 78.2342 17.2814 1352 95.4667 428.635 459.286
985 1 43.076 9.05378 390 103.372 427.338 482
986 0 45.4509 12.343 561 96.4225 428.299 483.373
987 0 47.0332 14.5854 686 98.3761 428.099 478.708
988 0 49.0516 11.9874 588 100.684 429.179 482.33
989 0 51.1646 11.4532 586 108.432 428.695 479.075
990 0 49.0542 9.72393 477 110.528 429.122 478.153
991 0 53.0284 13.2193 701 107.35 429.18 479.87
992 0 54.2027 8.92944 484 111.157 428.331 482.153
993 0 55.0688 14.037 773 104.756 428.965 478.709
994 0 55.0766 7.38971 407 113.31 428.545 475.71
995 0 53.1157 5.6104 298 110.869 429.923 480.916
996 0 58.1357 8.73818 508 107.756 428.478 475.85
997 0 63.1459 20.7614 1311 92.2593 426.639 478.022
998 0 62.0945 6.92493 430 109.407 427.133 479.456
999 0 62.3474 8.46868 528 110.013 427.011 477.271
1000 0 66.1928 12.6298 836 104.626 426.435 479.2
1001 0 64.2356 7.03659 452 111.482 424.261 476.673
1002 0 73.1239 14.8925 1089 100.362 424.848 473.836
1003 0 73.1239 14.7284 1077 110.129 425.838 473.913
1004 0 79.2075 10.8702 861 106.484 423.88 472.117
1005 0 84.1422 16.0799 1353 100.239 422.05 471.8
1006 0 79.1088 10.2643 812 108.143 422.956 464.64
1007 0 83.2206 9.9014 824 108.716 422.734 458.208
1008 0 90.1468 14.8203 1336 102.935 422.815 460.769
1009 0 95.106 15.3513 1460 101.738 421.362 456.514
1010 0 96.1642 14.9952 1442 102.731 422.114 453.657
1011 1 47.1031 12.6956 598 102.95 422.226 479.87
1012 0 50.165 14.8111 743 101.643 421.217 480.353
1013 0 51.0431 8.65936 442 109.579 422.324 481.29
1014 0 52.0724 9.42918 491 108.589 420.837 479.33
1015 0 54.1726 12.7555 691 105.216 422.394 472.825
1016 0 57.1009 13.625 778 103.936 423.648 476.282
1017 0 58.1273 11.1652 649 107.046 422.928 471.832
1018 0 61.0989 9.75468 596 108.946 423.401 470.478
1019 0 64.1896 11.2168 720 107.375 423.332 472.483
1020 0 66.3314 14.925 990 101.417 424.521 469.077
1021 0 70.1712 14.2509 1000 102.353 425.147 463.808
1022 0 70.1207 13.0917 918 105.496 424.838 461.43
1023 0 71.1928 12.4591 887 107.371 425.825 460.708
1024 0 74.0348 10.9678 812 109.831 427.238 462.411
1025 0 78.2401 12.2571 959 105.425 427.945 459.16
1026 0 80.0582 13.4277 1075 104.22 428.175 458.943
1027 0 86.1397 13.0834 1127 105.653 428.662 460.875
1028 0 85.1666 11.6478 992 108.527 427.703 458.698
1029 0 89.2061 12.0059 1071 109.418 429.492 458.357
1030 0 91.1864 9.82602 896 112.981 430.446 456.286
1031 0 98.2778 13.4822 1325 106.75 428.709 459.802
1032 0 98.2778 13.0141 1279 142.12 427.746 459.333
1033 0 102.14 11.3765 1162 112.144 429.56 453.874
1034 0 104.344 12.9475 1351 110.967 430.613 451.274
1035 0 107.271 12.324 1322 110.237 429.948 448.557
1036 1 59.2464 12.3383 731 109.815 429.153 479.194
1037 0 59.2327 11.7503 696 109.763 428.512 479.388
1038 0 63.1562 11.0836 700 109.457 428.76 480.989
1039 0 63.32 11.3076 716 110.464 426.961 480.52
1040 0 66.1415 11.0974 734 110.852 425.888 478.771
1041 0 70.5204 12.2943 867 108.84 426.12 478.659
1042 0 72.1106 9.81825 708 113.617 427.164 476.448
1043 0 80.7126 13.7525 1110 104.009 426.935 475.841
1044 0 76.139 13.6986 1043 105.802 425.721 473.04
1045 0 81.2044 12.2407 994 108.058 424.509 464.517
1046 0 83.15 11.9904 997 109.137 424.429 469.773
1047 0 87.1394 12.9333 1127 111.149 424.533 470.561
1048 0 89.0975 18.0252 1606 101.429 423.298 469.018
1049 0 93.2796 11.8461 1105 111.698 422.635 462.652
1050 0 96.2176 13.5318 1302 109.912 422.342 462.235
1051 1 50.1773 11.7982 592 107.956 421.601 482.834
1052 0 50.1183 11.0938 556 112.406 422.682 484.876
1053 0 54.1375 13.2995 720 109.162 421.826 480.282
1054 0 55.0832 11.0197 607 113.051 422.415 484.227
1055 0 57.089 13.9256 795 108.025 420.501 482.645
1056 0 59.0977 13.0462 771 110.337 420.534 480.158
1057 0 60.0825 13.3816 804 109.624 419.904 475.704
1058 0 62.2939 11.3494 707 110.822 419.552 480.537
1059 0 62.0673 12.712 789 111.641 420.839 474.681
1060 0 60.0934 13.4291 807 111.804 421.118 473.962
1061 0 60.1205 11.8595 713 113.595 422.031 475.445
1062 0 69.1653 15.4846 1071 106.951 423.525 470.635
1063 0 68.1222 11.9198 812 114.922 424.692 469.533
1064 0 71.2029 12.7663 909 114.053 425.265 463.614
1065 0 77.0758 14.8555 1145 109.849 426.369 464.248
1066 0 76.1623 11.8825 905 116.062 426.162 465.907
1067 0 81.2739 14.6049 1187 112.916 426.759 457.542
1068 0 82.2398 11.2476 925 117.616 425.799 462.986
1069 0 84.1748 12.0107 1011 118.344 426.662 459.138
1070 1 49.1218 11.2577 553 116.201 427.06 477.966
1071 0 49.089 13.282 652 115.126 427.255 478.106
1072 0 48.0554 11.7781 566 121.466 427.693 477.809
1073 0 50.1245 13.3069 667 113.816 427.985 477.282
1074 0 53.0373 12.2555 650 120.483 428.92 477.926
1075 0 53.1062 11.6559 619 122.643 429.341 475.49
1076 0 55.0477 13.6609 752 117.182 428.149 479.327
1077 0 57.0949 13.1185 749 119.581 427.901 475.004
1078 0 59.0476 11.55 682 123.792 428.328 476.16
1079 0 61.0638 13.1666 804 120.621 428.066 474.495
1080 0 64.0645 13.1274 841 120.617 428.954 478.134
1081 0 66.0739 11.7293 775 123.159 426.814 477.236
1082 0 66.0616 10.2177 675 138.495 425.76 479.536
1083 0 67.229 9.38583 631 126.242 426.063 473.861
1084 0 66.1204 10.4053 688 118.778 426.887 472.751
1085 0 65.1282 8.52165 555 122.292 425.014 476.153
1086 0 73.169 10.5782 774 114.587 425.929 475.568
1087 0 75.2436 8.59874 647 115.508 424.992 469.862
1088 0 80.1155 10.722 859 114.005 424.725 466.872
1089 0 81.1622 9.68431 786 122.608 422.757 473.196
1090 0 82.1224 8.07332 663 127.202 422.376 466.679
1091 0 89.1718 13.9057 1240 115.749 422.086 469.447
1092 0 93.1729 10.8079 1007 120.711 421.162 468.271
1093 1 49.1647 11.8784 584 120.608 419.979 484.385
1094 0 52.1996 12.4522 650 117.429 419.906 483.283
1095 0 51.303 12.5724 645 121.769 420.411 481.603
1096 0 54.1992 13.6718 741 115.41 420.675 480.752
1097 0 56.1058 11.3357 636 111.901 420.399 477.616
1098 0 59.0479 13.5483 800 109.919 420.865 477.99
1099 0 62.1875 11.4171 710 112.841 419.793 478
1100 0 63.1433 13.3981 846 110.917 420.687 474.3
1101 0 64.0581 11.4583 734 113.535 421.057 473.899
1102 0 64.1608 11.627 746 114.088 421.601 467.844
1103 0 66.2503 16.0452 1063 107.13 421.995 467.653
1104 0 68.2636 11.0308 753 119.784 421.924 475.519
1105 0 70.0641 11.2897 791 121.924 422.986 470.287
1106 0 73.2664 11.3558 832 121.6 423.346 466.626
1107 0 76.1622 10.4908 799 124.345 425.095 469.899
1108 0 81.1098 15.1893 1232 117.435 423.895 464.208
1109 0 82.1899 13.1038 1077 123.245 425.571 461.283
1110 0 83.2248 12.3401 1027 125.127 425.824 460.152
1111 1 46.07 12.3508 569 123.489 426.271 477.801
1112 0 44.03 9.58437 422 130.303 426.815 478.91
1113 0 49.0616 10.4562 513 128.041 426.733 477.259
1114 0 55.2095 13.4759 744 114.153 426.339 481.339
1115 0 49.0166 12.4244 609 119.985 427.816 476.851
1116 0 53.2453 10.123 539 121.649 428.093 480.514
1117 0 52.1231 11.7414 612 120.624 428.446 479.364
1118 0 57.0327 13.1504 750 116.971 427.133 474.789
1119 0 58.1327 12.1618 707 119.382 428.283 476.134
1120 0 63.1049 14.6581 925 113.608 428.364 477.295
1121 0 62.2319 13.6425 849 116.517 428.125 478.102
1122 0 62.2319 13.6425 849 126.12 427.125 478.102
1123 0 65.0979 12.7193 828 113.328 427.342 473.901
1124 0 65.1322 10.6706 695 116.565 427.783 471.626
1125 0 66.0753 6.55313 433 122.603 426.663 466.342
1126 0 68.4316 9.5716 655 119.061 425.866 468.214
1127 0 75.2136 14.2527 1072 109.259 425.397 468.951
1128 0 80.2793 15.7326 1263 106.789 425.823 474.134
1129 0 78.0735 10.362 809 115.995 424.271 468.104
1130 0 85.0903 10.5535 898 123.471 422.273 463.902
1131 0 86.1106 12.2865 1058 124.86 421.39 467.763
1132 0 88.1254 11.8695 1046 125.18 421.706 463.852
1133 1 49.148 13.1847 648 118.486 420.648 491.171
1134 0 51.0359 13.0692 667 119.99 421.381 489.406
1135 0 50.0202 12.6549 633 118.258 419.186 485.87
1136 0 51.0671 13.6683 698 111.809 420.168 481.302
1137 0 52.0522 12.5643 654 109.145 419.156 480.453
1138 0 53.0826 12.8667 683 109.081 418.717 474.184
1139 0 52.126 10.2828 536 114.433 419.019 477.461
1140 0 55.0656 14.2557 785 108.549 418.924 472.494
1141 0 59.0985 11.8446 700 110.781 417.714 475.504
1142 0 61.0922 11.7691 719 112.348 419.335 469.996
1143 0 64.0822 21.6909 1390 98.8734 419.258 463.555
1144 0 66.101 14.6291 967 108.603 419.56 463.432
1145 0 68.0892 11.3087 770 119.605 419.283 471.435
1146 0 68.0595 17.0733 1162 110.901 419.32 463.511
1147 0 71.0952 9.90221 704 122.933 419.392 468.366
1148 0 77.2922 13.5719 1049 116.679 420.554 464.729
1149 0 77.5111 12.2692 951 121.049 419.368 458.884
1150 0 80.2769 12.9925 1043 120.994 421.476 456.732
1151 0 82.1908 12.7387 1047 120.025 421.734 452.28
1152 0 85.2145 13.554 1155 118.624 422.334 454.863
1153 0 92.4947 13.0926 1211 117.998 424.855 452.997
1154 0 94.433 14.37 1357 116.726 424.587 447.773
1155 1 47.2669 11.6784 552 119.408 426.303 470.328
1156 0 48.4509 14.8191 718 113.982 425.33 472.628
1157 0 52.0816 14.5733 759 113.32 425.171 470.747
1158 0 54.0378 13.8792 750 114.375 426.341 474.151
1159 0 54.4467 12.5444 683 119.228 425.775 475.322
1160 0 56.2489 12.9247 727 120.509 427.99 471.604
1161 0 57.1854 13.9022 795 119.15 427.853 471.429
1162 0 60.168 13.9111 837 118.162 428.524 472.735
1163 0 61.2265 12.9192 791 119.662 427.097 472.485
1164 0 66.1571 14.783 978 114.73 428.173 471.704
1165 0 67.1987 17.3218 1164 111.745 427.311 469.87
1166 0 67.1142 10.0277 673 126.305 427.181 474.386
1167 0 67.1547 12.017 807 123.587 426.517 470.876
1168 0 71.1748 11.9986 854 123.959 426.348 470.326
1169 0 71.3208 10.8524 774 124.256 425.972 470.819
1170 0 73.2191 11.9231 873 125.274 425.852 469.568
1171 0 76.1963 13.4521 1025 123.676 424.37 469.694
1172 0 78.1572 11.9247 932 127.114 424.616 467.004
1173 0 80.3728 11.3098 909 129.605 422.738 464.16
1174 0 86.1497 11.3639 979 126.137 422.203 467.434
1175 0 85.2121 13.3784 1140 125.036 422.387 463.652
1176 0 89.2216 12.3625 1103 129.62 422.524 464.878
1177 0 94.2457 14.2712 1345 124.022 421.549 457.773
1178 0 97.1545 15.0894 1466 123.374 420.453 454.962
1179 0 97.1949 12.9019 1254 127.885 421.341 453.745
1180 0 103.136 16.1243 1663 122.265 420.899 451.452
1181 0 105.189 14.146 1488 126.068 419.921 449.538
1182 1 55.2197 9.07284 501 126.377 420.559 479.533
1183 0 55.2197 8.9823 496 145.97 421.579 479.482
1184 0 60.241 10.2754 619 122.766 419.572 475.982
1185 0 65.1544 13.9054 906 116.368 418.563 472.111
1186 0 67.198 12.4409 836 120.651 419.09 467.228
1187 0 68.1288 15.823 1078 113.208 418.936 468.528
1188 0 71.1035 11.1387 792 121.731 419.744 471.196
1189 0 73.2636 12.5847 922 121.268 420.354 467.604
1190 0 75.2262 13.7851 1037 120.003 419.352 464.34
1191 0 78.233 13.2808 1039 121.934 419.273 461.04
1192 0 82.2807 14.6571 1206 116.54 420.881 458.213
1193 0 86.26 14.1317 1219 124.106 421.827 457.697
1194 0 89.2428 12.6845 1132 125.734 422.278 454.939
1195 1 178.38 13.7796 2458 126.621 423.028 417.422
1196 1 93.3156 14.3063 1335 120.908 423.096 449.011
1197 0 97.2134 13.8047 1342 120.478 423.654 451.306
1198 0 99.3354 13.3286 1324 127.04 424.733 448.742
1199 0 102.224 13.5584 1386 127.762 424.856 446.229
1200 1 57.209 11.9212 682 118.563 425.39 475.359
1201 0 57.3688 9.97057 572 123.781 426.019 473.556
1202 0 57.065 12.8976 736 118.158 428.431 471.61
1203 0 59.2106 12.8524 761 117.51 428.874 475.252
1204 0 61.1005 7.54495 461 124.909 429.299 478.367
1205 0 62.2372 11.0866 690 122.043 428.662 469.446
1206 0 66.0676 12.3813 818 119.303 429.11 473.001
1207 0 67.1144 10.7578 722 123.493 430.313 475.698
1208 0 70.2096 12.4057 871 120.972 429.219 472.677
1209 0 74.0788 15.227 1128 117.632 429.244 470.296
1210 0 77.1987 13.2515 1023 122.732 428.338 470.55
1211 0 82.1343 13.137 1079 122.723 428.583 472.312
1212 0 83.0922 12.9976 1080 123.725 427.507 473.651
1213 0 85.4897 12.0248 1028 129.678 426.533 469.515
1214 0 88.3494 12.0318 1063 130.238 424.778 467.549
1215 0 90.1178 11.1188 1002 130.492 425.666 466.226
1216 0 94.1621 10.3651 976 130.96 424.282 466.001
1217 0 96.4831 11.8985 1148 124.138 421.861 458.78
1218 1 55.1549 12.9272 713 111.271 421.658 483.195
1219 0 55.3213 13.4668 745 112.47 421.368 481.883
1220 0 58.2448 11.6233 677 117.809 420.068 482.264
1221 0 53.1866 10.7358 571 114.939 421.205 476.266
1222 0 58.1352 10.6132 617 114.942 420.002 475.861
1223 0 59.1933 10.5755 626 113.746 421.018 474.169
1224 0 60.2927 10.5154 634 119.052 418.601 480.543
1225 0 65.1465 12.6791 826 114.924 418.391 476.512
1226 0 66.2179 11.0091 729 117.357 418.927 476.661
1227 0 68.3594 11.5127 787 116.789 418.262 472.742
1228 0 70.2084 12.7905 898 113.759 418.63 474.663
1229 0 74.0901 12.2419 907 115.811 418.727 470.526
1230 0 74.2811 9.86792 733 120.18 419.554 463.427
1231 0 78.3536 7.93837 622 119.883 418.691 471.288
1232 0 83.1585 14.9955 1247 110.85 420.553 462.29
1233 0 83.1585 14.8872 1238 112.477 422.527 462.268
1234 0 87.176 12.3084 1073 114.637 420.511 453.704
1235 1 49.1927 10.9976 541 109.109 421.006 476.455
1236 0 48.0501 10.6764 513 115.195 423.556 473.887
1237 0 50.1143 10.1568 509 109.861 421.827 471.024
1238 0 52.2053 8.88799 464 110.435 423.002 472.571
1239 0 49.0946 9.06414 445 112.602 423.396 468.378
1240 0 54.0599 15.2978 827 108.561 424.75 468.486
1241 0 53.1542 7.78866 414 122.145 425.191 472.886
1242 0 57.0556 11.0068 628 115.519 425.637 473.594
1243 0 56.0865 9.98458 560 118.6 426.2 473.514
1244 0 57.0828 12.2629 700 116.026 426.347 470.707
1245 0 56.0324 8.56647 480 120.958 427.025 474.844
1246 0 60.1422 10.2756 618 117.291 426.604 474.505
1247 0 66.1301 12.8837 852 112.856 427.783 471.938
1248 0 66.2084 10.2857 681 116.474 427.665 471.302
1249 0 69.1726 10.5533 730 116.942 427.897 473.012
1250 0 69.1281 10.1695 703 117.555 428.22 473.644
1251 0 74.0272 4.63343 343 123.513 428.997 482.601
1252 0 78.1508 13.6787 1069 110.332 428.349 469.103
1253 0 80.1746 13.0465 1046 112.634 429.22 469.509
1254 0 81.0763 10.8663 881 115.99 427.847 472.487
1255 0 83.1361 9.99566 831 113.018 428.172 466.712
1256 0 83.197 9.55563 795 116.604 426.878 459.488
1257 0 88.0946 9.76224 860 115.784 426.343 469.06
1258 1 46.055 10.748 495 109.236 425.804 485.523
1259 0 44.1786 9.77848 432 112.336 424.866 487.329
1260 0 49.247 11.3509 559 124.038 424.526 484.878
1261 0 48.0609 12.2345 588 123.483 424.946 486.762
1262 0 46.0457 11.1845 515 119.091 422.608 489.633
1263 0 49.0834 9.33107 458 121.234 422.452 488.804
1264 0 49.0551 9.60144 471 120.815 422.603 484.692
1265 0 54.2238 10.844 588 117.228 422.711 483.781
1266 0 53.1308 12.2151 649 115.86 421.627 480.827
1267 0 58.1347 11.6282 676 114.944 421.166 479.991
1268 0 59.1445 11.6494 689 114.167 421.302 479.769
1269 0 57.0768 10.6523 608 117.582 419.854 474.817
1270 0 63.2776 15.5031 981 107.926 420.552 475.163
1271 0 62.1846 10.8869 677 115.687 419.49 479.87
1272 0 64.1173 10.3092 661 116.67 420.744 473.747
1273 0 70.3255 11.6743 821 111.889 420.67 469.946
1274 0 78.4706 13.419 1053 106.953 421.653 472.122
1275 0 75.1444 12.7887 961 112.554 421.27 464.821
1276 0 75.0989 13.2625 996 109.456 421.815 461.143
1277 0 78.148 11.5038 899 114.822 422.566 464.927
1278 0 83.2054 13.9174 1158 110.139 421.718 459.214
1279 1 100.285 13.7807 1382 104.546 422.972 451.538
1280 0 103.333 22.7323 2349 94.3184 423 443.154
1281 0 97.6939 18.3123 1789 100.004 425.227 438.058
1282 0 92.2485 11.3498 1047 112.171 426.144 452.277
1283 0 92.2485 11.4582 1057 122.715 426.156 452.223
1284 0 96.4353 10.6496 1027 115.9 425.705 440.78
1285 0 99.1256 13.6594 1354 110.905 427.373 451.117
1286 1 51.1126 11.8953 608 113.951 427.947 479.505
1287 0 51.0463 11.3426 579 115.263 429.477 476.822
1288 0 52.0764 10.5422 549 117.04 430.579 476.027
1289 0 55.0979 10.8534 598 116.331 430.321 478.5
1290 0 55.0636 13.1847 726 108.23 429.84 473.251
1291 0 55.0331 12.6651 697 109.567 429.773 472.55
1292 0 58.1963 13.0764 761 108.573 429.57 477.658
1293 0 64.1412 13.0961 840 107.539 429.97 473.323
1294 0 61.2569 9.95806 610 112.269 429.366 476.952
1295 0 64.0745 9.59821 615 112.834 428.324 475.26
1296 0 68.0652 10.4018 708 111.227 427.357 474.117
1297 0 70.1202 12.1933 855 107.718 427.68 474.284
1298 0 78.0911 12.844 1003 107.243 427.922 470.623
1299 0 76.0912 14.5878 1110 105.271 428.307 476.922
1300 0 77.1391 11.8487 914 115.953 427.39 475.213
1301 0 84.1234 13.1474 1106 112.057 426.458 474.555
1302 0 86.1725 12.9043 1112 111.807 424.635 472.835
1303 1 46.1042 11.0185 508 105.488 423.343 487.075
1304 0 46.0666 12.8727 593 103.398 422.949 486.437
1305 0 48.0597 12.422 597 115.7 421.136 488.204
1306 0 52.1299 14.1569 738 110.646 420.44 488.092
1307 0 50.0554 12.5661 629 115.989 419.96 483.464
1308 0 55.1182 12.7544 703 114.698 419.135 480.804
1309 0 60.0797 13.765 827 110.395 418.955 482.765
1310 0 59.1438 13.6109 805 113.311 419.673 477.796
1311 0 64.0607 16.7185 1071 108.458 418.775 472.981
1312 0 66.1607 11.9406 790 117.39 419.349 474.047
1313 0 71.1815 19.2044 1367 103.024 418.034 471.941
1314 0 70.3733 13.201 929 114.033 420.322 467.268
1315 0 73.318 15.9579 1170 108.542 419.038 471.23
1316 0 73.1205 11.4879 840 118.383 419.656 466.006
1317 0 78.1902 13.6974 1071 113.186 419.138 464.214
1318 0 77.1344 12.1087 934 117.411 419.783 459.452
1319 0 82.1785 13.2882 1092 114.448 419.891 460.038
1320 0 82.1785 13.3125 1094 141.422 419.871 460.171
1321 1 43.0609 10.5896 456 118.384 421.035 476.917
1322 0 46.0867 14.2774 658 107.087 421.366 475.819
1323 0 44.1251 11.9206 526 108.633 423.165 471.029
1324 0 47.213 10.7174 506 105.676 423.992 475.164
1325 0 47.0529 10.0313 472 109.252 425.877 476.112
1326 0 49.085 11.694 574 113.81 425.247 474.395
1327 0 53.2175 13.3039 708 109.404 427.301 476.85
1328 0 51.1321 13.0251 666 112.012 428.03 470.968
1329 0 57.073 12.6505 722 110.324 427.402 475.381
1330 0 56.0556 12.8087 718 112.227 428.106 475.02
1331 0 56.1068 9.05417 508 117.266 427.665 474.335
1332 0 56.1068 9.01852 506 112.245 426.666 474.455
1333 0 62.0839 13.2724 824 112.011 427.466 472.67
1334 0 64.1943 11.4185 733 114.491 429.538 476.671
1335 0 65.0941 12.7661 831 112.952 428.745 474.207
1336 0 66.2308 11.6562 772 115.39 428.096 476.491
1337 0 72.1615 13.0125 939 112.804 426.15 476.611
1338 0 75.216 12.7632 960 114.429 426.249 472.61
1339 0 75.1273 10.9148 820 119.16 426.33 473.596
1340 1 40.0312 10.7666 431 121.756 424.248 489.796
1341 0 38.0629 13.2938 506 119.486 423.765 490.012
1342 0 43.24 8.25624 357 127.3 425.353 486.74
1343 0 44.133 13.6633 603 115.206 422.652 489.889
1344 0 48.0318 11.888 571 121.04 422.66 487.806
1345 0 47.0218 11.9519 562 121.219 420.738 490.125
1346 0 50.0541 12.5065 626 121.152 421.05 486.842
1347 0 51.0713 12.0224 614 123.865 419.497 483.252
1348 0 53.0832 13.4506 714 119.859 421.587 485.951
1349 0 54.1416 11.9132 645 122.735 419.448 481.02
1350 0 52.1827 11.4214 596 126.691 420.505 477.911
1351 0 55.2285 10.0673 556 128.023 420.712 477.854
1352 0 58.2538 14.6428 853 120.027 420.155 474.37
1353 0 62.2735 12.8144 798 123.368 420.178 473.307
1354 0 64.218 12.4109 797 123.729 419.445 473.749
1355 0 65.2151 14.4445 942 119.47 420.507 476.175
1356 0 65.3086 12.7548 833 125.701 419.788 467.844
1357 0 68.0803 12.4559 848 125.722 421.456 471.362
1358 0 73.1871 14.948 1094 120.568 420.47 468.514
1359 0 72.1508 14.7469 1064 133.286 419.413 467.906
1360 0 77.3624 14.1542 1095 125.018 421.048 461.827
1361 0 78.2428 12.3206 964 128.437 421.979 461.509
1362 0 82.1524 12.8785 1058 127.899 423.309 458.61
1363 0 87.2315 12.507 1091 127.905 423.004 458.74
1364 0 90.1769 13.2406 1194 126.388 423.617 457.19
1365 0 93.4394 14.1054 1318 126.447 424.035 449.641
1366 1 48.1674 12.4981 602 123.583 426.208 474.407
1367 0 51.2045 13.0067 666 118.419 426.931 474.533
1368 0 50.1979 13.0484 655 121.682 426.388 472.22
1369 0 52.0713 12.9438 674 123.866 426.187 475.556
1370 0 56.1762 11.1969 629 128.903 425.618 471.553
1371 0 57.0911 11.4204 652 128.408 426.008 471.33
1372 0 58.2072 11.837 689 127.595 426.628 474.897
1373 0 58.0885 13.6172 791 125.072 426.834 473.554
1374 0 60.0647 18.53 1113 114.509 428.268 473.244
1375 0 62.1509 12.711 790 125.329 426.897 474.014
1376 0 63.1236 12.4518 786 125.91 427.845 474.817
1377 0 64.1783 12.6523 812 128.328 426.994 473.138
1378 0 68.1423 12.7674 870 126.448 426.709 473.531
1379 0 64.1099 9.34333 599 137.043 426.225 471.426
1380 0 71.1324 13.0883 931 128.668 427.261 473.073
1381 0 72.2455 12.0976 874 130.542 426.66 471.947
1382 0 76.2109 11.7175 893 129.875 426.539 473.877
1383 0 80.1785 14.6174 1172 122.985 425.53 472.496
1384 0 80.3681 11.945 960 128.621 426.43 471.427
1385 0 80.3806 10.5747 850 132.116 425.773 471.395
1386 0 87.399 16.3846 1432 118.977 424.605 472.909
1387 0 89.2349 15.2183 1358 121.108 422.686 472.073
1388 0 91.2447 12.5487 1145 128.804 423.087 460.286
1389 1 47.0566 10.753 506 122.972 422.603 491.601
1390 0 48.0748 8.52838 410 130.863 422.617 485.129
1391 0 50.0383 11.9708 599 124.419 422.703 483.469
1392 0 52.0534 12.0837 629 120.68 421.943 486.172
1393 0 56.3278 14.4156 812 118.463 420.936 478.102
1394 0 57.1701 12.629 722 123.161 420.832 480.735
1395 0 57.2976 12.6532 725 124.135 420.018 477.764
1396 0 58.3386 10.8333 632 127.422 420.76 475.848
1397 0 60.0914 12.3645 743 124.633 419 471.098
1398 0 65.2907 14.7035 960 117.414 419.322 473.533
1399 0 66.2841 12.5822 834 123.089 419.261 467.388
1400 0 67.2102 12.7659 858 123.294 419.578 468.378
1401 0 71.3087 15.7484 1123 116.216 420.246 468.267
1402 0 75.2507 13.7274 1033 119.241 420.35 463.621
1403 0 75.246 13.6087 1024 121.491 419.574 459.047
1404 0 78.3273 12.4095 972 124.06 419.3 458.166
1405 1 42.0312 10.4446 439 122.882 419.198 478.998
1406 0 42.078 10.8608 457 123.039 420.223 477.853
1407 0 45.2135 10.3067 466 121.976 422.373 475.906
1408 0 43.1596 9.29109 401 125.845 424.167 472.648
1409 0 46.0094 12.8669 592 119.095 422.552 472.508
1410 0 50.0836 13.3976 671 117.651 422.885 473.857
1411 0 52.1004 12.8982 672 119.69 424.509 474.092
1412 0 53.0727 11.0791 588 123.791 423.541 472.838
1413 0 54.0836 11.0385 597 124.404 424.786 473.69
1414 0 56.1575 12.002 674 121.196 425.684 474.826
1415 0 57.6037 14.3393 826 115.696 426.83 477.268
1416 0 56.1218 10.0318 563 130.258 427.49 472.528
1417 0 61.1347 13.2658 811 122.022 426.998 475.465
1418 0 63.1724 13.9301 880 122.017 426.806 472.308
1419 0 64.1362 15.7945 1013 117.141 426.838 475.67
1420 0 65.2456 16.1084 1051 118.918 427.747 474.994
1421 0 64.2518 10.8012 694 129.999 427.983 473.493
1422 0 70.2708 12.4234 873 124.129 427.104 474.975
1423 0 72.1996 12.5901 909 122.573 425.991 475.766
1424 0 70.1052 12.3956 869 124.258 426.716 469.153
1425 0 76.2716 15.3924 1174 120.543 426.601 472.095
1426 0 75.2975 12.0987 911 128.588 425.306 469.079
1427 0 79.3291 12.3032 976 127.333 425.211 471.266
1428 0 84.4889 13.5402 1144 124.496 425.711 467.645
1429 0 87.2627 17.2926 1509 116.633 424.131 467.516
1430 0 88.2545 14.2769 1260 122.54 423.879 468.244
1431 0 90.3251 12.0675 1090 127.192 421.916 465.991
1432 0 87.4106 10.4335 912 131.191 421.614 460.03
1433 0 88.4448 9.47484 838 129.965 420.949 466.498
1434 1 193.593 11.4984 2226 129.759 421.415 411.417
1435 1 114.561 8.72898 1000 127.501 420.546 459.441
1436 0 111.369 10.7122 1193 126.982 421.249 450.127
1437 0 112.154 11.3862 1277 124.735 419.998 457.653
1438 1 58.0489 14.66 851 116.807 420.403 481.862
1439 0 61.1284 15.6229 955 114.691 419.738 475.813
1440 0 63.1284 12.8152 809 119.027 418.934 473.222
1441 0 65.0539 12.6357 822 119.46 418.62 471.186
1442 0 65.1676 12.9666 845 119.147 419.742 469.843
1443 0 69.1482 11.9309 825 120.709 419.541 465.291
1444 0 68.0824 10.7076 729 124.92 420.342 465.11
1445 0 71.1701 13.531 963 118.559 420.308 465.891
1446 0 74.0964 13.5094 1001 119.073 421.431 458.135
1447 0 79.1736 11.7463 930 121.285 421.827 453.127
1448 0 80.0889 14.2467 1141 114.703 423.233 462.017
1449 0 80.1288 9.47224 759 125.15 423.025 456.918
1450 0 82.1794 11.268 926 122.27 423.173 456.286
1451 0 89.1684 15.1062 1347 112.999 424.874 452.419
1452 0 91.165 13.6127 1241 115.669 424.596 451.599
1453 0 93.3032 13.0435 1217 120.164 425.793 445.19
1454 0 96.1039 10.6135 1020 123.078 425.49 449.683
1455 0 97.1676 11.7426 1141 122.814 425.358 445.275
1456 1 48.2297 10.9891 530 120.096 427.166 467.791
1457 0 51.0627 12.8078 654 116.32 427.609 466.422
1458 0 57.1363 14.5792 833 111.977 428.029 468.502
1459 0 52.0942 9.25247 482 122.496 428.529 467.793
1460 0 59.0411 10.8738 642 120.199 428.846 471.966
1461 0 61.2375 10.2225 626 120.173 428.679 475.609
1462 0 62.1031 11.4326 710 117.503 429.113 476.938
1463 0 66.1166 12.7804 845 115.696 428.992 475.679
1464 0 64.0931 10.6252 681 120.714 428.311 470.391
1465 0 69.1588 11.9291 825 119.903 427.981 470.331
1466 0 75.1304 15.8524 1191 111.447 427.027 469.513
1467 0 77.206 13.2762 1025 116.977 427.88 470.997
1468 0 79.2941 11.4763 910 121.892 426.604 468.959
1469 0 78.192 11.9833 937 122.209 425.303 465.904
1470 0 78.0765 9.14487 714 125.717 425.836 463.094
1471 0 80.1733 8.13239 652 128.386 425.865 470.164
1472 1 47.3084 10.2942 487 120.653 423.528 488.16
1473 0 44.15 11.4609 506 121.603 423.237 483.397
1474 0 40.0509 9.61277 385 121.847 422.826 475.525
1475 0 38.0388 9.5166 362 122.95 422.696 473.439
1476 0 39.0492 9.88497 386 125.562 422.71 474.762
1477 0 43.1616 10.0321 433 124.042 419.919 462.316
1478 0 50.1918 8.50736 427 123.925 419.794 468.759
1479 0 51.0852 10.4336 533 113.358 419.642 473.191
1480 0 57.1182 10.5396 602 117.336 419.349 480.07
1481 0 55.0753 10.7308 591 116.827 418.278 479.66
1482 0 59.2497 10.5823 627 112.743 418.222 473.74
1483 0 53.0954 8.0233 426 119.021 418.744 466.362
1484 0 61.1805 9.30035 569 115.253 418.828 467.188
1485 0 64.1009 8.90783 571 116.837 417.744 463.263
1486 0 68.2034 12.536 855 112.125 418.729 462.561
1487 0 73.2041 10.5732 774 116.267 418.872 462.863
1488 0 71.3201 11.3853 812 117.506 419.748 461.773
1489 0 74.067 12.6642 938 116.055 420.433 457.483
1490 0 76.2109 11.8093 900 117.953 420.996 455.64
1491 0 79.1104 13.9425 1103 116.055 421.906 448.329
1492 0 81.2257 12.3483 1003 125.14 422.454 453.227
1493 0 89.3032 14.1092 1260 119.817 422.283 452.107
1494 0 88.2234 12.253 1081 124.577 423.32 448.957
1495 0 95.192 14.1714 1349 119.871 423.718 449.983
1496 0 94.1142 15.2156 1432 119.527 424.813 446.322
1497 0 99.2039 12.3584 1226 124.055 426.085 446.896
1498 1 54.0982 12.0337 651 123.006 426.691 466.889
1499 0 58.1438 11.9703 696 122.457 425.865 467.932
1500 1 107.094 12.7272 1363 121.689 427.514 452.068
1501 0 108.165 11.2051 1212 126.125 427.375 451.559
1502 0 108.105 11.5073 1244 127.027 427.861 443.669
1503 1 186.328 16.7447 3120 118.162 427.261 416.803
1504 0 192.495 16.0627 3092 118.842 427.675 406.646
1505 0 200.114 15.1164 3025 120.265 428.432 399.33
1506 0 202.574 13.7925 2794 125.178 427.604 405.286
1507 1 75.1556 12.5473 943 118.043 428.709 470.554
1508 0 81.147 13.5926 1103 115.17 427.908 472.406
1509 0 84.0906 13.3309 1121 116.082 428.545 469.769
1510 0 87.2179 13.6555 1191 117.995 427.219 469.257
1511 0 90.2744 11.2546 1016 127.151 427.795 469.796
1512 0 88.1478 10.5278 928 130.399 426.832 464.06
1513 1 45.0472 9.10156 410 124.946 426.607 486.507
1514 0 51.1529 10.6348 544 120.903 425.072 487.327
1515 0 52.2412 12.0212 628 118.943 423.959 483.081
1516 0 50.0761 8.92642 447 127.418 424.078 482.112
1517 0 52.0487 11.739 611 123.082 423.357 480.612
1518 0 53.1314 7.58496 403 115.938 422.246 482.531
1519 0 54.0739 10.0418 543 113.808 421.893 477.593
1520 0 45.0759 5.50184 248 118.613 421.375 477.98
1521 1 57.0656 4.71388 269 127.517 419.323 477.892
1522 0 55.0549 9.62675 530 120.315 420.566 475.664
1523 0 62.1554 11.7769 732 114.48 418.697 477.042
1524 0 67.2367 10.4853 705 115.705 419.095 479.098
1525 0 66.1238 9.40661 622 120.056 419.362 472.616
1526 0 68.0608 13.5908 925 112.756 418.506 473.934
1527 0 65.2128 11.0408 720 116.556 418.742 471.197
1528 0 70.2169 11.8775 834 116.603 419.368 469.259
1529 0 73.1752 8.45915 619 120.822 418.99 464.911
1530 0 78.1991 13.082 1023 114.185 418.974 461.957
1531 0 78.1485 9.35399 731 119.878 419.606 463.57
1532 0 83.2611 14.4846 1206 112.304 419.697 459.362
1533 0 85.2516 13.4074 1143 114.197 420.496 459.394
1534 1 49.0984 9.8985 486 115.578 420.198 480.224
1535 0 52.0501 11.1815 582 115.337 421.081 476.266
1536 0 53.0544 13.8914 737 110.938 421.959 474.246
1537 0 50.0685 9.96635 499 113.357 422.657 463.689
1538 0 52.0661 14.0591 732 110.025 422.527 464.28
1539 0 54.2036 9.27983 503 117.461 423.245 471.171
1540 0 54.1714 10.6329 576 115.806 423.439 470.929
1541 1 111.696 13.8769 1550 116.523 425.856 442.487
1542 0 113.258 12.4142 1406 119.034 425.467 444.526
1543 1 62.188 12.1728 757 115.945 425.203 470.881
1544 0 64.2328 13.4978 867 112.78 426.092 469.215
1545 0 67.1527 10.975 737 115.756 425.628 472.187
1546 0 68.0899 9.41402 641 119.871 426.226 473.19
1547 0 73.3145 12.5623 921 115.763 426.264 468.344
1548 0 73.2927 14.4489 1059 113.752 425.272 468.479
1549 0 76.2065 15.563 1186 113.772 426.295 462.465
1550 0 78.1127 12.2643 958 119.619 426.451 469.213
1551 0 81.2796 14.5178 1180 113.869 426.886 472.959
1552 0 82.2288 14.3259 1178 117.27 426.649 461.373
1553 0 81.2462 10.6836 868 124.629 426.662 463.972
1554 0 86.219 14.5792 1257 119.023 425.095 466.103
1555 0 93.1695 12.8046 1193 121.247 425.818 465.782
1556 1 52.0484 10.5863 551 122.993 424.207 487.554
1557 0 52.2089 12.8139 669 119.665 422.764 486.203
1558 0 52.4384 13.2727 696 118.011 423.027 487.136
1559 0 54.0409 9.34477 505 121.147 420.855 481.925
1560 0 55.1507 10.1177 558 116.014 420.934 486.122
1561 0 52.1537 8.35991 436 121.06 420.413 482.695
1562 0 60.1258 16.7981 1010 106.701 420.248 478.25
1563 0 60.1197 9.64742 580 118.241 420.829 482.624
1564 0 61.1216 12.3851 757 113.679 419.514 477.007
1565 0 68.119 7.8539 535 116.105 418.632 480.112
1566 0 67.2032 12.4994 840 111.163 418.626 471.996
1567 0 69.1348 12.0779 835 111.611 417.452 472.46
1568 0 70.098 10.7564 754 114.509 418.748 473.481
1569 0 73.254 12.5454 919 110.587 419.312 467.577
1570 0 73.2398 12.4386 911 107.662 419.326 467.528
1571 0 73.2453 12.3967 908 107.285 419.324 467.439
1572 0 82.1823 13.0198 1070 110.205 418.561 459.424
1573 0 84.1788 11.3211 953 114.172 418.749 458.044
1574 0 91.305 12.6061 1151 110.127 419.422 458.282
1575 0 91.4093 13.0512 1193 111.657 419.084 451.734
1576 0 96.212 11.2876 1086 113.83 420.367 455.988
1577 0 95.199 11.3762 1083 132.414 421.356 456.105
1578 0 102.257 10.943 1119 118.138 423.395 449.261
1579 1 54.0885 11.6291 629 111.351 424.318 472.943
1580 0 53.0695 10.9856 583 110.192 423.319 470.552
1581 0 57.0824 11.9827 684 109.155 423.762 467.424
1582 0 57.0404 9.78255 558 115.471 424.853 471.022
1583 0 60.0631 14.2017 853 109.713 425.869 470.415
1584 0 62.0689 12.8084 795 113.299 425.629 468.369
1585 1 179.512 12.6565 2272 122.472 427.295 412.799
1586 1 68.0628 11.5629 787 114.421 427.074 468.105
1587 0 68.1237 14.136 963 110.274 427.668 469.287
1588 0 68.0986 12.8637 876 112.463 427.912 471.072
1589 0 72.0808 15.8433 1142 107.943 427.773 466.953
1590 0 73.2413 12.0697 884 115.369 428.433 466.671
1591 0 75.1898 16.6113 1249 107.897 427.516 468.096
1592 0 78.1817 12.8419 1004 113.943 427.596 467.529
1593 0 81.1469 12.9025 1047 110.844 427.208 469.765
1594 0 84.2456 14.8376 1250 110.908 427.33 463.727
1595 0 83.1462 12.0631 1003 117.019 426.569 464.775
1596 0 87.2328 10.8101 943 119.463 426.46 462.516
1597 0 85.1416 7.01185 597 124.114 425.089 457.169
1598 0 93.177 11.2259 1046 116.874 424.745 464.32
1599 1 50.1125 11.115 557 113.065 424.217 484.603
1600 0 53.1749 14.1232 751 108.32 422.475 485.702
1601 0 50.2246 14.475 727 112.223 423.271 483.619
1602 0 52.0857 11.7115 610 117.456 420.879 485.346
1603 0 52.2062 10.6884 558 116.916 421.027 481.054
1604 0 57.0694 3.80239 217 126.622 422.484 488.756
1605 0 57.0254 12.5207 714 115.067 421.833 479.057
1606 0 58.0606 11.4363 664 116.458 421.681 478.977
1607 0 62.1429 14.5471 904 110.545 421.228 476.458
1608 0 65.1794 11.8442 772 115.636 421.148 476.452
1609 0 67.1115 12.4867 838 114.587 421.268 473.654
1610 0 69.1025 13.4293 928 113.436 420.912 472.7
1611 0 72.0922 13.136 947 111.448 420.763 475.886
1612 0 76.2472 10.7283 818 112.961 420.61 474.515
1613 0 77.2453 14.2403 1100 110.592 421.294 467.414
1614 0 82.2435 13.8248 1137 106.412 419.006 464.281
1615 0 82.089 12.6692 1040 110.64 420.8 459.831
1616 0 86.0893 10.0129 862 112.26 419.332 460.771
1617 0 92.3372 14.6636 1354 106.608 421.301 451.415
1618 1 48.1653 8.26321 398 110.244 419.817 476.279
1619 0 51.0779 13.7437 702 104.796 420.484 474.214
1620 0 51.1712 12.4679 638 112.19 421.408 468.56
1621 0 49.12 13.294 653 112.971 423.109 465.512
1622 0 55.0316 10.6484 586 121.677 423.372 470.838
1623 0 56.0559 11.8453 664 120.384 425.095 470.643
1624 0 58.1381 12.8487 747 117.337 425.602 470.929
1625 0 63.0624 12.7651 805 117.149 425.651 468.573
1626 0 63.1751 12.0459 761 116.398 425.958 470.319
1627 0 62.0516 10.5074 652 121.755 426.518 467.945
1628 0 65.0839 13.4288 874 116.875 427.334 465.598
1629 0 65.102 8.72477 568 125.577 427.319 464.056
1630 0 71.1131 14.6668 1043 114.619 428.789 460.874
1631 0 71.1683 13.9247 991 116.938 426.755 461.972
1632 0 77.226 14.2698 1102 115.234 427.912 466.457
1633 0 77.226 14.3087 1105 146.28 428.918 466.308
1634 0 83.289 16.4127 1367 111.618 428.565 465.781
1635 0 82.1588 12.2568 1007 117.638 429.072 468.629
1636 0 85.0642 12.7551 1085 119.443 427.287 465.936
1637 0 89.1084 13.8595 1235 117.669 427.417 463.764
1638 1 46.0454 12.4225 572 114.185 428.014 484.935
1639 0 48.5047 9.463 459 111.985 427.538 486.237
1640 0 47.1268 9.23041 435 118.122 427.322 482.897
1641 0 49.0672 9.51756 467 119.203 425.891 487.154
1642 0 54.113 11.5684 626 114.104 426.107 487.051
1643 0 57.0681 14.544 830 109.758 423.619 485.719
1644 0 58.1388 12.0402 700 114.646 422.637 481.797
1645 0 60.2828 14.6476 883 110.969 421.043 480.489
1646 0 60.1565 13.7807 829 112.836 420.444 480.257
1647 0 61.0812 14.98 915 109.964 421.349 475.599
1648 0 64.1306 15.1722 973 110.243 422.015 476.423
1649 0 67.0861 11.9101 799 115.19 421.011 474
1650 0 68.1067 15.5491 1059 109.534 420.659 473.435
1651 0 72.0542 12.5183 902 113.391 419.693 473.134
1652 0 74.1375 16.6717 1236 107.654 420.261 471.649
1653 0 75.1535 11.3501 853 115.971 418.925 467.016
1654 0 79.1187 14.611 1156 110.421 418.425 463.662
1655 0 77.0876 9.61244 741 116.914 418.68 455.341
1656 0 83.0907 10.5186 874 113.061 418.556 458.116
1657 0 84.1154 9.34431 786 116.209 419.162 454.748
1658 0 91.0781 11.9019 1084 113.036 419.636 454.144
1659 0 93.2714 14.8063 1381 109.082 418.816 449.688
1660 0 98.5089 13.5013 1330 111.13 420.232 456.304
1661 1 48.1824 7.82443 377 121.629 420.255 472.918
1662 0 52.2175 10.7244 560 117.246 420.412 473.327
1663 0 54.2384 15.3397 832 109.776 420.49 467.124
1664 0 59.5447 15.5514 926 107.025 422.603 469.017
1665 0 56.1956 9.89401 556 118.142 422.302 467.694
1666 0 61.0734 11.3798 695 114.888 423.496 465.963
1667 0 62.1028 12.7852 794 112.712 424.613 467.341
1668 0 63.0686 12.2882 775 113.535 424.819 467.493
1669 0 65.0714 12.8935 839 114.78 425.416 463.765
1670 0 68.1328 11.5069 784 115.297 427.364 467.551
1671 0 69.0824 12.9845 897 114.964 426.896 464.911
1672 0 71.0247 13.5868 965 113.303 427.174 462.852
1673 0 75.2273 13.426 1010 112.989 426.333 464.254
1674 0 79.1525 14.2636 1129 112.268 428.447 463.284
1675 0 82.1169 11.7272 963 115.779 428.191 463.456
1676 0 81.2209 10.2683 834 118.285 426.815 466.894
1677 0 86.222 9.83508 848 119.41 426.462 467.158
1678 0 87.1881 10.5519 920 119.305 427.082 462.96
1679 0 87.1881 10.6666 930 134.639 427.069 462.894
1680 1 50.1116 10.9755 550 118.815 423.725 482.096
1681 0 53.2089 16.2755 866 107.095 423.936 489.236
1682 0 52.1608 13.4009 699 114.577 424.691 485.216
1683 0 55.0658 13.6019 749 116.936 424.79 484.923
1684 0 55.1266 10.2854 567 123.811 424.046 483.286
1685 0 55.1206 13.0623 720 119.042 422.811 484.161
1686 0 59.2073 12.4309 736 121.567 423.352 479.832
1687 0 59.2049 12.3132 729 121.413 423.514 482.177
1688 0 62.1807 12.2546 762 120.94 422.629 480.424
1689 0 62.3465 12.4786 778 120.272 422.608 480.983
1690 0 64.2569 12.808 823 120.399 420.881 477.915
1691 0 62.3382 10.4912 654 126.92 419.716 475.101
1692 0 70.1251 14.6025 1024 116.996 419.801 476.242
1693 0 69.1466 13.5798 939 119.806 418.927 474.344
1694 0 72.3111 11.5473 835 123.338 419.053 472.777
1695 0 75.1452 14.1459 1063 118.125 418.427 470.604
1696 0 76.1222 11.7049 891 121.621 417.655 470.901
1697 0 80.3019 15.2549 1225 116.58 418.528 467.819
1698 0 83.2413 12.5419 1044 119.791 418.329 464.451
1699 0 86.2929 12.4228 1072 119.34 418.792 465.381
1700 0 87.3833 15.2432 1332 118.378 418.333 458.615
1701 0 90.2456 12.0338 1086 122.219 418.351 457.733
1702 1 46.0946 10.4784 483 117.59 418.874 477.172
1703 0 51.1273 15.3147 783 108.734 418.401 478.522
1704 0 49.2038 12.3364 607 112.928 419.652 475.354
1705 0 52.1328 12.1421 633 110.844 419.687 471.082
1706 0 51.0441 10.677 545 113.906 420.36 474.69
1707 0 56.1052 12.8865 723 109.658 421.006 472.622
1708 0 59.0465 13.8196 816 108.574 421.737 470.794
1709 0 57.2134 8.19738 469 118.264 421.608 470.424
1710 0 60.129 12.0075 722 113.096 423.27 467.881
1711 0 62.1311 12.9082 802 111.618 424.598 467.926
1712 0 64.0627 11.9726 767 113.033 424.46 468.125
1713 0 65.1936 13.6516 890 111.783 425.913 465.41
1714 0 67.2867 12.2907 827 113.024 426.038 469.287
1715 0 68.2024 12.4483 849 112.13 427.011 468.526
1716 0 73.305 11.3498 832 112.249 427.2 464.719
1717 0 76.2431 13.0373 994 109.22 426.706 467.07
1718 0 79.1577 13.4794 1067 110.672 427.736 465.351
1719 0 79.1965 12.2859 973 113.116 427.195 468.072
1720 0 85.1856 11.7156 998 115.531 426.806 462.754
1721 0 86.1714 11.686 1007 115.633 426.263 459.063
1722 0 91.0854 13.7783 1255 113.449 426.092 462.625
1723 1 48.1026 9.83315 473 116.3 424.556 487.761
1724 0 52.1096 12.4353 648 113.017 425.077 487.884
1725 0 51.0844 9.78772 500 119.262 424.956 485.376
1726 0 54.029 12.919 698 113.699 423.852 486.375
1727 0 56.2052 16.2441 913 108.829 423.246 481.985
1728 0 57.1726 11.1767 639 115.238 423.138 486.795
1729 0 57.1254 9.1903 525 120.164 422.76 485.888
1730 0 63.168 12.7755 807 112.931 421.544 484.156
1731 0 64.1269 15.1107 969 108.351 419.937 481.097
1732 0 66.1472 14.9515 989 109.327 420.095 475.737
1733 0 69.2947 12.8004 887 112.299 419.446 476.775
1734 0 70.2679 12.0966 850 113.967 418.974 473.381
1735 0 73.2185 15.5152 1136 105.855 418.977 476.094
1736 0 72.1519 11.0739 799 112.404 420.013 475.105
1737 0 79.2022 13.2193 1047 110.291 420.518 471.613
1738 0 79.1426 12.0668 955 112.006 420.09 470.165
1739 0 83.2556 13.0562 1087 111.083 418.822 467.565
1740 0 86.1406 12.2474 1055 112.632 418.938 463.717
1741 0 87.1963 12.3514 1077 112.709 419.54 463.863
1742 1 45.1055 9.66623 436 116.69 419.913 480.362
1743 0 47.0147 10.0181 471 119.07 420.265 478.015
1744 0 48.0359 12.7197 611 114.476 420.344 474.987
1745 0 52.0229 13.2826 691 113.671 421.179 475.045
1746 0 49.2384 8.9158 439 114.893 420.679 473.428
1747 0 54.046 10.6576 576 109.764 420.002 477.762
1748 0 55.0743 13.2185 728 107.695 420.606 470.196
1749 0 57.0384 11.4484 653 111.273 420.297 471.942
1750 0 61.1572 11.3968 697 108.283 420.93 474.334
1751 0 60.1744 11.0512 665 108.648 422.973 473.552
1752 0 60.1217 11.3769 684 110.026 423.278 466.238
1753 0 63.1587 11.6849 738 106.787 423.095 461.42
1754 0 65.1055 10.9207 711 106.992 424.117 459.564
1755 0 66.1522 10.8689 719 106.937 424.654 461.156
1756 0 70.1766 10.2028 716 107.947 426.071 460.001
1757 0 73.164 11.1394 815 109.38 424.717 466.407
1758 0 73.194 12.3507 904 105.84 425.869 458.459
1759 0 74.2499 11.0977 824 109.183 426.646 454.392
1760 0 78.3132 10.9305 856 108.715 426.966 457.451
1761 0 80.5276 11.4246 920 108.67 426.635 453.87
1762 0 84.2597 13.2329 1115 105.946 426.634 458.457
1763 0 88.1627 13.8607 1222 106.603 426.497 450.079
1764 0 92.4862 15.2023 1406 103.901 426.491 459.423
1765 0 93.3066 9.73136 908 113.508 427.187 451.101
1766 1 44.3388 6.02181 267 110.768 425.603 477.805
1767 0 48.1116 14.4248 694 101.282 425.284 480.543
1768 0 50.0769 10.6037 531 111.669 423.559 485.721
1769 0 54.0653 14.0386 759 106.659 426.765 483.561
1770 0 55.2658 15.5973 862 105.183 424.79 481.579
1771 0 56.1185 13.7031 769 108.987 424.27 479.813
1772 0 57.0886 12.7521 728 110.672 423.602 481.618
1773 0 59.0801 13.5748 802 109.81 422.758 480.287
1774 0 61.1297 11.1402 681 112.072 422.592 481.026
1775 0 62.0931 12.4168 771 106.909 420.962 476.678
1776 0 63.0476 9.43731 595 114.866 419.879 481.928
1777 0 64.1602 12.6247 810 110.716 419.412 480.583
1778 0 70.082 15.7672 1105 101.08 419.888 472.362
1779 0 70.203 11.1106 780 107.813 419.144 466.23
1780 0 71.132 10.4594 744 109.208 418.507 464.062
1781 0 76.2408 13.1819 1005 105.144 419.4 465.841
1782 0 73.415 9.82089 721 110.792 419.025 462.763
1783 0 79.4506 15.5065 1232 102.537 418.385 463.501
1784 0 80.1803 14.5796 1169 103.133 418.515 463.665
1785 0 81.2402 13.1339 1067 107.061 417.929 456.391
1786 0 88.4524 18.4958 1636 104.087 418.014 459.548
1787 0 87.3389 15.6173 1364 109 418.175 458.946
1788 0 93.4011 15.0748 1408 110.08 418.269 452.873
1789 0 94.1954 13.7586 1296 110.584 418.182 453.541
1790 1 49.2649 9.68236 477 113.593 418.625 474.105
1791 0 52.1062 14.0674 733 104.978 419.04 474.666
1792 0 55.1368 13.4574 742 104.159 420.881 467.097
1793 0 54.1834 11.2027 607 104.929 420.445 470.903
1794 0 56.1716 11.3046 635 108.266 420.92 469.578
1795 0 56.1746 10.0579 565 106.467 422.165 464.184
1796 0 59.1982 10.9632 649 103.954 423.498 466.695
1797 0 59.1553 7.89448 467 109.469 423.009 463.912
1798 0 64.1054 10.4047 667 105.319 424.303 461.202
1799 0 65.347 10.8957 712 106.154 425.841 458.308
1800 0 70.3007 13.2573 932 101.376 425.002 461.994
1801 0 70.3007 13.2289 930 116.357 423.992 461.817
1802 0 72.125 13.6014 981 101.863 425.309 462.156
1803 0 75.2377 13.2513 997 104.34 426.155 462.93
1804 0 76.1252 9.70769 739 109.612 426.407 458.479
1805 0 79.1872 10.5951 839 108.18 426.505 462.34
1806 0 85.2198 12.72 1084 106.455 425.958 461.435
1807 0 87.1861 13.5916 1185 106.105 427.182 457.736
1808 0 88.3059 11.5847 1023 111.97 425.902 460.09
1809 1 48.1227 12.2811 591 105.618 426.382 478.758
1810 0 50.1239 9.89548 496 108.627 424.351 483.218
1811 0 55.109 13.555 747 108.262 424.827 484.483
1812 0 56.2568 17.9534 1010 101.478 423.452 489.279
1813 0 58.1066 12.7352 740 110.038 423.585 484.772
1814 0 57.2033 10.7686 616 113.933 422.109 483.92
1815 0 61.0519 13.3984 818 110.084 421.977 483.329
1816 0 62.159 12.3876 770 110.487 420.84 487.092
1817 0 60.0788 7.873 473 113.934 421.655 479.484
1818 0 60.0845 9.63642 579 123.427 421.884 481.458
1819 0 57.0642 7.79824 445 113.973 419.27 475.537
1820 1 70.2171 13.2589 931 106.654 419.83 473.149
1821 0 72.0837 12.6103 909 108.219 420.124 469.376
1822 0 74.1752 12.8345 952 107.173 419.687 470.725
1823 0 78.1549 11.3493 887 109.009 418.858 469.211
1824 0 78.1189 10.2664 802 113.019 418.459 463.502
1825 0 79.1168 10.731 849 111.753 418.012 463.518
1826 0 83.1764 11.3253 942 111.874 417.929 458.969
1827 0 88.1832 12.372 1091 109.389 417.618 463.822
1828 0 91.43 10.303 942 114.653 417.275 452.768
1829 0 93.0671 11.4434 1065 120.076 418.656 461.535
1830 1 53.4645 13.1676 704 101.777 418.949 479.081
1831 0 50.1018 12.4347 623 106.761 418.116 472.607
1832 0 52.0443 11.3173 589 108.025 418.019 469.362
1833 0 55.1288 10.3031 568 116.208 419.854 478.539
1834 0 56.1265 11.973 672 117.057 419.488 472.844
1835 0 56.0619 13.6991 768 115.057 420.538 471.25
1836 0 58.166 14.1148 821 114.026 421.619 471.518
1837 0 61.1163 12.419 759 119.534 421.208 469.009
1838 0 61.1967 10.0986 618 124.419 423.32 467.898
1839 0 61.1276 9.43927 577 126.09 423.737 468.13
1840 0 67.1686 12.625 848 119.613 423.618 466.871
1841 0 72.1245 14.9464 1078 115.875 424.207 463.473
1842 0 73.1255 10.229 748 120.806 425.218 466.053
1843 0 75.1318 11.8458 890 119.44 425.446 464.272
1844 0 78.0511 12.5559 980 118.865 426.497 463.873
1845 0 82.1074 15.3457 1260 115.259 426.24 461.464
1846 1 45.0534 9.74399 439 123.246 427.95 481.494
1847 0 48.0881 13.1633 633 118.414 428.292 479.534
1848 0 46.1065 9.56482 441 126.37 428.379 479.562
1849 0 50.0485 10.9294 547 123.247 427.174 473.676
1850 0 55.2187 12.0792 667 118.276 427.804 480.507
1851 0 53.0215 14.1075 748 117.529 428.176 476.186
1852 0 53.1008 14.0676 747 117.991 427.548 479.21
1853 0 54.0691 12.9464 700 122.86 426.423 477.237
1854 0 55.2118 12.2438 676 124.34 426.348 475.675
1855 0 61.1085 15.6443 956 115.813 425.654 472.895
1856 0 58.2121 11.6471 678 125.681 425.493 472.043
1857 0 63.2997 13.3966 848 119.894 424.421 479.375
1858 0 62.2768 13.3115 829 122.676 423.374 478.78
1859 0 65.1633 14.9624 975 118.317 422.286 479.342
1860 0 68.1478 13.1919 899 122.855 420.997 476.221
1861 0 70.1205 16.3861 1149 116.953 421.635 475.778
1862 0 70.1293 12.9903 911 124.851 420.833 470.574
1863 0 75.1737 16.9607 1275 116.309 419.774 471.049
1864 0 75.1063 15.2317 1144 120.043 419.238 469.245
1865 0 78.2139 17.0558 1334 117.671 419.024 468.594
1866 0 78.2628 14.0169 1097 124.114 418.926 466.984
1867 0 82.2366 15.504 1275 120.016 417.771 465.689
1868 0 80.3359 13.1822 1059 125.949 418.163 460.538
1869 0 86.2128 22.3633 1928 108.863 418.261 460.912
1870 0 92.2968 20.174 1862 111.044 418.796 454.717
1871 0 91.2112 15.8424 1445 119.845 418.888 457.139
1872 0 93.2874 13.5924 1268 123.999 418.338 457.818
1873 0 96.2557 16.8925 1626 118.76 417.892 436.737
1874 0 99.3472 16.085 1598 120.538 419.345 436.512
1875 1 52.0473 12.8345 668 120.388 419.984 455.531
1876 0 54.209 13.7247 744 118.551 419.812 452.786
1877 0 56.0762 13.553 760 113.255 419.784 452.149
1878 0 53.2422 11.551 615 117.894 420.55 453.732
1879 0 56.1601 10.2742 577 119.137 421.081 452.468
1880 0 59.4227 11.4098 678 116.917 421.001 459.468
1881 0 62.2301 13.2733 826 112.185 422.413 462.035
1882 0 62.4285 12.6224 788 114.261 423.721 461.256
1883 0 68.4479 20.4535 1400 100.886 423.486 459.298
1884 0 68.3192 10.7437 734 117.256 424.99 455.571
1885 0 70.3439 15.012 1056 111.094 424.772 459.734
1886 0 72.309 12.5157 905 116.504 424.408 461.627
1887 0 75.4637 13.4104 1012 115.223 425.451 458.898
1888 0 78.415 15.1374 1187 111.3 425.466 456.905
1889 0 83.4218 16.938 1413 107.345 427.162 455.537
1890 0 85.9293 15.1869 1305 110.576 426.844 458.145
1891 0 85.4886 12.4929 1068 115.982 427.24 460.107
1892 0 90.7229 14.3955 1306 113.508 426.344 458.92
1893 0 92.5957 12.7868 1184 116.778 426.527 459.948
1894 1 54.3777 9.76504 531 116.642 424.697 481.923
1895 0 54.4437 11.8287 644 117.463 424.994 477.217
1896 0 54.0709 10.4123 563 114.005 425.433 476.421
1897 0 56.2665 11.6233 654 110.416 425.43 470.076
1898 0 59.1912 11.201 663 110.971 425.187 471.965
1899 0 60.3439 10.5064 634 112.443 425.084 470.894
1900 0 62.4388 11.227 701 110.615 423.643 474.491
1901 0 63.2382 9.63026 609 109.79 423.128 480.709
1902 0 69.1503 16.1098 1114 102.545 423.329 480.042
1903 0 71.2082 11.5857 825 109.545 422.13 482.016
1904 0 70.3161 8.95954 630 115.994 422.459 481.294
1905 0 73.1145 12.8155 937 111.537 420.733 475.592
1906 0 74.1431 13.2986 986 113.108 421.018 470.741
1907 0 75.3942 12.0434 908 117.807 421.019 468.765
1908 0 79.3054 12.6977 1007 114.707 420.165 467.83
1909 0 80.4535 9.48374 763 118.446 418.571 468.97
1910 0 84.2492 10.6232 895 116.479 419.732 469.611
1911 0 86.356 13.6065 1175 114.37 418.614 462.974
1912 0 87.2491 13.0431 1138 118.129 417.966 464.069
1913 0 92.3139 11.0168 1017 119.728 416.883 466.457
1914 0 93.2264 10.3082 961 124.186 417.562 458.095
1915 1 49.0472 11.3768 558 118.364 417.339 482.824
1916 0 51.0574 10.733 548 121.234 417.874 477.047
1917 0 51.098 12.8968 659 118.018 417.343 473.524
1918 0 52.0592 10.5649 550 117.089 419.051 476.34
1919 0 52.2089 10.0749 526 117.783 419.169 476.038
1920 0 54.0802 10.1886 551 117.445 419.878 470.675
1921 0 56.1031 14.8833 835 108.231 420.193 475.098
1922 0 58.045 12.3525 717 113.332 420.626 472.683
1923 0 60.0533 11.3233 680 115.304 421.212 468.728
1924 0 64.0495 12.9587 830 114.128 422.669 469.518
1925 0 65.1385 10.6235 692 118.704 424.026 467.935
1926 0 66.1828 12.3597 818 114.801 424.145 467.774
1927 0 70.0964 11.0134 772 114.657 424.232 470.609
1928 0 75.2601 12.5432 944 113.048 425.08 465.82
1929 0 77.1558 12.0924 933 113.901 426.223 464.566
1930 0 80.1209 15.8885 1273 108.049 426.803 463.178
1931 1 42.1484 10.0597 424 118.033 427.913 477.934
1932 0 44.1014 11.4962 507 115.446 428.86 477.657
1933 0 42.2571 8.80324 372 121.556 428.406 476.901
1934 0 47.1818 10.8092 510 116.465 428.153 481.582
1935 0 47.1825 11.5297 544 115.733 427.27 479.88
1936 0 50.0946 9.34232 468 118.818 426.515 479.972
1937 0 53.5052 15.2508 816 107.396 427.479 480.667
1938 0 55.3164 14.6973 813 108.14 426.503 483.116
1939 0 55.1917 12.8461 709 111.447 425.544 481.588
1940 0 56.2439 15.3794 865 108.424 423.879 481.066
1941 0 57.4498 11.732 674 113.224 424.297 480.479
1942 0 61.235 14.2402 872 108.784 424.727 483.55
1943 0 61.2898 12.1554 745 113.285 424.035 482.17
1944 0 75.8101 16.7656 1271 100.836 423.068 472.101
1945 0 73.3281 15.7375 1154 103.718 421.639 474.432
1946 0 71.2153 15.1231 1077 106.613 421.206 479.286
1947 0 71.2116 12.7929 911 113 420.164 473.811
1948 0 75.3594 12.8849 971 109.194 419.696 476.715
1949 0 76.1903 11.3925 868 111.018 419.776 469.28
1950 1 44.2448 12.8603 569 102.54 417.895 488.954
1951 0 47.2012 12.8598 607 101.359 417.455 487.199
1952 0 46.4947 10.1732 473 104.224 418.397 486.49
1953 0 46.4947 10.2807 478 133.745 419.377 486.531
1954 0 49.2296 14.4628 712 100.956 418.659 482.472
1955 0 52.3003 15.8316 828 99.151 418.592 480.836
1956 0 51.2306 12.5316 642 105.019 418.249 479.296
1957 0 54.2601 13.5643 736 101.793 417.376 479.989
1958 0 54.3533 11.2229 610 105.959 418.892 476.272
1959 0 56.4425 14.9178 842 100.914 418.475 476.975
1960 0 59.1474 12.6802 750 103.839 418.868 475.991
1961 0 58.2343 12.6386 736 104.849 418.302 472.015
1962 0 59.1685 14.3489 849 103.577 419.612 468.68
1963 0 62.3016 16.051 1000 101.099 420.152 469.247
1964 0 64.2822 16.552 1064 101.115 419.787 466.82
1965 0 62.1642 10.8101 672 109.641 420.917 467.97
1966 0 65.1644 11.6321 758 108.639 421.728 468.533
1967 0 68.2444 14.8877 1016 104.709 422.999 466.718
1968 0 71.1662 10.2717 731 110.714 423.605 466.174
1969 0 73.3335 15.7772 1157 98.9438 423.352 473.044
1970 0 73.0945 14.4607 1057 106.521 425.143 455.932
1971 0 76.2959 14.352 1095 106.335 425.538 461.669
1972 0 79.2604 12.3769 981 108.933 426.102 458.807
1973 0 82.2117 17.4549 1435 100.732 426.118 465.319
1974 0 84.2392 13.4973 1137 105.44 425.515 465.442
1975 0 86.2052 13.5491 1168 106.816 426.099 463.657
1976 0 92.3798 12.546 1159 111.013 427.339 453.696
1977 1 47.0322 9.78053 460 110.239 427.026 481.783
1978 0 52.1734 11.826 617 107.305 428.912 478.013
1979 0 56.6042 13.0026 736 103.629 427.016 483.318
1980 0 56.1584 13.0168 731 105.3 427.25 481.782
1981 0 59.2928 13.037 773 105.94 426.367 480.039
1982 0 57.1276 14.0212 801 106.403 425.74 478.968
1983 0 61.0668 13.4443 821 106.203 424.95 480.326
1984 0 66.2611 15.3635 1018 102.839 425.801 478.648
1985 0 65.1539 13.2149 861 106.638 423.789 479.451
1986 0 68.076 15.4533 1052 104.763 424.883 476.128
1987 0 69.1656 12.8821 891 108.935 422.511 473.433
1988 0 73.1685 16.0998 1178 103.732 422.885 471.236
1989 0 74.1694 12.7141 943 108.828 421.111 470.665
1990 0 78.3592 15.1992 1191 105.449 421.578 469.464
1991 0 78.1928 12.6866 992 109.993 420.482 468.042
1992 0 82.1188 13.9432 1145 107.197 420.298 467.213
1993 0 84.0837 14.438 1214 107.485 419.778 464.535
1994 0 90.3459 14.8983 1346 105.861 420.253 461.284
1995 0 89.2154 12.1392 1083 110.292 419.295 459.536
1996 0 95.2839 13.9268 1327 107.628 419.094 456.555
1997 1 50.0305 9.45424 473 109.053 418.892 481.973
1998 0 59.2519 12.5734 745 105.11 419.501 479.909
1999 0 53.1245 10.8425 576 112.281 419.146 476.632
2000 0 53.2332 14.5022 772 107.873 418.145 477.232
2001 0 56.1734 14.295 803 110.866 419.014 476.346
2002 0 60.4249 13.372 808 110.92 419.063 476.584
2003 0 55.1553 11.4223 630 119.025 419.205 471.533
2004 0 59.1585 12.4073 734 115.847 420.376 471.827
2005 0 60.2378 12.2514 738 117.295 420.775 468.946
2006 0 63.1586 12.0965 764 117.082 420.669 466.229
2007 0 66.2816 16.8523 1117 108.309 421.558 468.925
2008 0 66.1914 13.5063 894 115.227 422.037 464.596
2009 0 71.2361 13.4342 957 115.739 422.727 461.259
2010 0 69.1122 12.5448 867 117.594 424.201 461.104
2011 0 76.2812 11.7853 899 115.842 424.268 464.288
2012 0 79.1718 12.8455 1017 115.231 425.007 459.557
2013 0 80.1172 13.2556 1062 114.519 424.588 460.285
2014 0 83.2924 10.4451 870 117.445 425.774 460.023
2015 0 84.1838 14.896 1254 112.983 425.278 455.679
2016 0 88.308 10.905 963 118.698 426.776 455.012
2017 0 93.1763 14.4887 1350 110.831 425.521 457.114
2018 1 51.2831 11.4463 587 109.935 426.571 476.697
2019 0 54.1213 11.7514 636 111.997 426.031 475.796
2020 0 57.0331 13.5535 773 112.169 425.842 474.761
2021 0 57.0923 12.7338 727 113.351 426.124 479.437
2022 0 59.2243 11.4649 679 114.856 425.834 477.355
2023 0 61.1164 13.237 809 113.303 424.813 474.496
2024 0 63.1536 14.0768 889 110.947 424.454 477.405
2025 0 67.099 11.878 797 113.762 423.536 475.2
2026 0 71.1344 13.0457 928 110.702 424.456 476.277
2027 0 70.1022 12.1965 855 113.492 422.588 469.239
2028 0 73.0736 9.63412 704 115.348 423.212 475.226
2029 0 77.1338 11.318 873 113.025 423.515 468.218
2030 0 79.089 10.052 795 115.074 421.808 466.709
2031 0 83.0804 13.3726 1111 110.003 421.612 466.426
2032 0 85.1898 10.4707 892 113.427 420.303 461.871
2033 0 92.1879 14.0799 1298 106.491 419.576 464.993
2034 0 94.1838 11.3183 1066 111.009 419.147 457.941
2035 0 97.4491 12.3039 1199 108.602 418.736 458.697
2036 0 99.2893 11.2701 1119 111.277 418.298 454.52
2037 0 102.201 14.4323 1475 105.655 418.496 452.294
2038 0 103.317 12.4374 1285 107.307 417.965 456.068
2039 1 57.0863 11.7717 672 103.515 418.124 476.054
2040 0 56.1462 9.02999 507 106.797 417.073 473.608
2041 0 56.2123 14.89 837 100.287 418.501 475.237
2042 0 63.2383 14.5007 917 98.3392 418.19 478.589
2043 0 58.0938 11.4986 668 104.329 417.88 469.615
2044 0 61.3067 11.8747 728 104.126 417.158 469.071
2045 0 62.2614 12.6081 785 103.501 418.432 467.809
2046 0 65.1612 11.1723 728 104.293 419.382 465.926
2047 0 71.1016 12.461 886 101.603 420.569 466.471
2048 0 69.4705 12.7968 889 101.948 419.837 462.087
2049 0 72.3455 13.4632 974 101.958 420.424 458.539
2050 0 73.5558 11.0528 813 105.192 420.53 456.937
2051 0 75.1896 11.3181 851 105.432 421.691 455.566
2052 0 78.155 16.5952 1297 99.384 422.968 456.662
2053 0 82.2143 14.7906 1216 101.486 422.614 454.727
2054 0 84.2864 19.7659 1666 96.7431 422.864 454.872
2055 0 81.3053 10.0362 816 108.939 425.48 451.88
2056 0 87.2654 13.4532 1174 105.037 424.829 451.86
2057 0 88.3764 10.0932 892 110.219 425.785 451.925
2058 0 93.2478 13.9413 1300 107.212 425.83 452.811
2059 0 95.3328 13.6155 1298 109.788 426.152 453.713
2060 0 102.297 11.4275 1169 114.488 426.5 449.375
2061 1 55.159 11.204 618 107.458 426.856 474.261
2062 0 54.2654 8.97442 487 110.154 427.138 478.117
2063 0 58.0479 13.2821 771 105.863 426.624 477.297
2064 0 57.0592 10.7958 616 109.58 427.024 477.924
2065 0 63.1122 12.2956 776 106.566 426.325 477.504
2066 0 65.2129 11.4394 746 108.078 426.795 476.543
2067 0 68.1765 21.1363 1441 95.6766 425.112 476.878
2068 0 72.1382 18.0487 1302 99.7903 425.475 474.223
2069 0 73.0728 13.8081 1009 106.259 424.062 472.388
2070 0 75.1477 12.9744 975 108.142 424.467 470.63
2071 0 80.4073 14.5509 1170 104.265 422.974 473.908
2072 0 81.1719 12.2333 993 109.542 421.928 470.528
2073 0 85.3176 13.1157 1119 107.764 421.6 472.743
2074 0 85.2963 13.1541 1122 109.442 420.899 465.413
2075 0 89.1971 13.0385 1163 109.693 421.427 462.126
2076 0 92.326 15.6619 1446 105.363 419.846 468.606
2077 0 94.2541 12.9225 1218 110.65 419.22 463.758
2078 0 97.1389 11.324 1100 112.221 418.559 464.624
2079 0 99.1734 11.1623 1107 112.917 418.124 461.169
2080 0 106.345 14.2367 1514 107.252 418.114 461.519
2081 1 54.2866 13.5024 733 106.498 418.623 482.95
2082 0 56.231 13.8714 780 107.936 417.586 477.999
2083 0 58.2075 13.2114 769 108.023 418.974 479.243
2084 0 59.1345 14.4416 854 107.314 418.592 476.911
2085 0 59.0686 13.3912 791 110.36 418.166 470.756
2086 0 60.1015 10.3824 624 115.928 418.684 469.255
2087 0 63.0947 19.7164 1244 101.998 418.994 473.45
2088 0 65.1485 11.6963 762 113.222 419.948 468.143
2089 0 70.2601 13.7489 966 108.69 418.723 464.51
2090 0 73.2208 18.4647 1352 102.312 419.488 463.705
2091 0 74.2806 17.8108 1323 103.377 420.613 466.479
2092 0 76.2383 15.845 1208 107.665 421.859 459.916
2093 0 78.3347 14.0423 1100 108.853 422.095 463.542
2094 0 80.1936 13.4175 1076 111.721 421.563 457.949
2095 0 82.1511 13.5604 1114 111.236 423.785 458.179
2096 0 85.2929 14.4561 1233 110.464 422.619 455.761
2097 0 87.386 11.7181 1024 115.573 424.772 454.175
2098 0 92.2596 13.0393 1203 117.072 424.751 449.706
2099 0 95.1911 13.6988 1304 115.581 424.759 452.757
2100 0 103.21 11.5299 1190 118.966 425.24 450.674
2101 0 105.501 15.4596 1631 113.037 425.803 447.974
2102 1 56.2552 10.6124 597 115.523 425.901 469.958
2103 0 58.1851 10.965 638 112.702 427.067 474.55
2104 0 59.2375 11.4623 679 112.766 426.792 472.736
2105 0 63.1821 11.8705 750 112.519 427.309 470.464
2106 0 65.0879 9.78676 637 112.683 426.681 477.394
2107 0 69.2271 10.9206 756 113.005 425.946 471.717
2108 0 72.3285 14.5586 1053 106.978 425.537 474.445
2109 0 72.134 9.14964 660 114.221 425.27 477.812
2110 0 77.1512 11.6395 898 111.942 424.316 473.557
2111 0 80.2222 14.4723 1161 108.465 425.109 471.322
2112 0 81.2436 13.0964 1064 109.836 424.622 473.836
2113 0 86.2922 13.6049 1174 110.538 424.71 470.013
2114 0 88.2526 13.62 1202 111.262 423.324 468.368
2115 0 92.2851 12.5589 1159 113.651 422.547 463.612
2116 0 95.1931 13.2783 1264 112.508 421.37 465.917
2117 0 98.1735 13.9854 1373 113.484 421.189 459.243
2118 0 102.178 11.1863 1143 116.82 420.664 462.344
2119 0 105.3 12.5357 1320 117.736 419.702 457.628
2120 0 109.334 15.1005 1651 114.674 419.918 453.824
2121 0 111.491 13.4092 1495 117.283 419.278 453.221
2122 1 62.3095 13.3046 829 110.672 419.068 481.238
2123 0 65.2111 11.3784 742 115.868 418.822 475.367
2124 0 66.3905 12.8784 855 114.396 417.697 471.622
2125 0 72.3733 13.7758 997 110.414 417.628 475.897
2126 0 73.3574 12.7867 938 111.482 418.096 473.017
2127 0 75.186 12.3427 928 112.944 417.266 470.122
2128 0 78.187 14.0049 1095 111.524 418.284 466.226
2129 0 79.2092 12.2461 970 115.597 418.343 463.142
2130 0 82.2704 14.6104 1202 112.155 418.522 461.766
2131 0 84.1058 13.6851 1151 114.321 419.506 460.301
2132 0 86.2069 13.166 1135 115.794 419.5 457.204
2133 0 90.1701 11.6114 1047 118.765 420.33 459.372
2134 0 95.2752 14.3374 1366 115.412 420.273 454.376
2135 0 92.1846 12.7787 1178 120.323 420.823 447.527
2136 0 98.2025 16.2929 1600 135.231 421.979 453.992
2137 0 98.3084 11.2808 1109 121.838 423.047 449.958
2138 0 107.289 15.4908 1662 114.294 423.921 448.359
2139 1 54.1236 12.4345 673 114.632 424.343 472.266
2140 0 55.0944 11.3079 623 117.149 424.833 470.868
2141 0 58.11 13.0787 760 114.116 424.188 471.437
2142 0 59.4762 14.2578 848 111.323 424.808 473.428
2143 0 61.1755 12.3415 755 113.69 424.743 472.245
2144 0 65.1262 13.3894 872 111.229 426.021 471.979
2145 0 64.2895 14.5125 933 109.597 427.483 473.018
2146 0 67.2278 13.6997 921 111.417 426.749 470.973
2147 0 70.1581 13.8687 973 110.161 428.286 471.387
2148 0 71.2182 9.73067 693 115.83 427.46 471.714
2149 0 75.32 9.91768 747 115.143 426.696 470.348
2150 0 80.362 11.7344 943 115.563 427.384 468.329
2151 0 81.1468 11.9906 973 115.908 426.528 467.137
2152 0 81.2093 10.3436 840 118.177 426.471 468.905
2153 0 85.2684 11.9036 1015 116.71 425.954 464.326
2154 0 91.1775 12.6018 1149 114.217 425.131 467.107
2155 0 91.496 12.5033 1144 116.281 425.074 463.464
2156 0 96.4259 14.4256 1391 113.152 424.196 465.248
2157 0 99.2391 11.8199 1173 117.96 423.02 461.107
2158 0 103.171 12.9688 1338 115.59 421.429 462.662
2159 0 107.35 13.6283 1463 114.39 421.335 460.711
2160 0 113.564 14.1595 1608 112.983 420.691 456.929
2161 1 65.8288 12.3958 816 107.201 420.467 485.866
2162 0 64.1542 13.2805 852 109.293 419.862 480.799
2163 0 66.1973 13.0368 863 115.542 418.971 475.561
2164 0 67.1536 14.5041 974 113.524 418.556 475.307
2165 0 70.1664 14.2803 1002 113.211 418.446 473.814
2166 0 71.226 13.9556 994 114.472 418.865 469.302
2167 0 74.493 9.34316 696 118.059 419.039 474.109
2168 0 76.219 11.4538 873 113.213 419.109 469.275
2169 0 76.1234 9.70792 739 115.989 418.582 468.782
2170 0 83.2696 12.8979 1074 109.46 418.656 468.068
2171 0 84.2155 12.6105 1062 111.491 418.387 462.2
2172 0 85.1357 11.8987 1013 113.815 418.914 457.413
2173 0 87.1886 12.9719 1131 111.611 419.665 458.302
2174 0 92.2322 12.9456 1194 111.044 419.198 454.492
2175 0 96.1692 11.2198 1079 111.531 420.905 458.522
2176 0 96.2637 11.936 1149 115.013 420.91 447.48
2177 0 99.3738 9.57999 952 116.833 421.199 455.782
2178 0 101.413 10.3735 1052 117.58 421.514 449.451
2179 1 61.3102 10.8954 668 111.442 421.71 468.88
2180 0 59.2466 11.1061 658 112.444 422.851 468.195
2181 0 61.1931 11.2594 689 112.122 424.161 467.367
2182 0 63.4704 13.7544 873 106.33 424.207 470.639
2183 0 66.2862 13.0495 865 107.311 424.938 465.028
2184 0 67.5068 12.4728 842 107.942 424.793 463.387
2185 0 66.3329 10.7187 711 111.859 425.76 461.806
2186 0 73.4003 10.2588 753 111.908 425.883 462.786
2187 0 77.3957 13.7475 1064 106.425 425.246 461.456
2188 0 75.4193 16.0834 1213 104.33 426.594 461.757
2189 0 80.5423 17.9781 1448 101.959 427.425 456.96
2190 0 83.2739 13.0053 1083 108.493 427.869 455.186
2191 0 84.2897 12.374 1043 109.457 427.149 460.406
2192 0 90.3634 16.7546 1514 103.244 426.871 456.543
2193 0 92.7034 13.2034 1224 108.756 427.73 455.045
2194 0 94.4159 15.1246 1428 106.732 427.209 452.489
2195 0 97.4777 12.5157 1220 110.861 426.165 454.916
2196 0 97.2077 10.4621 1017 114.717 425.583 458.222
2197 0 105.302 13.6085 1433 109.016 425.965 460.322
2198 0 111.726 14.2671 1594 108.265 425.946 452.679
2199 0 111.479 11.5806 1291 113.971 424.452 450.617
2200 0 116.382 14.6672 1707 109.44 422.504 447.103
2201 1 67.1264 8.2084 551 113.368 422.808 476.336
2202 0 70.3846 12.247 862 109.758 420.742 474.548
2203 0 72.1016 13.0372 940 110.163 421.195 469.81
2204 0 73.2936 14.0394 1029 109.51 419.502 470.89
2205 0 76.3035 11.5722 883 112.458 419.836 470.164
2206 0 78.4353 11.7677 923 112.154 419.479 469.282
2207 0 83.2196 12.6533 1053 108.843 419.058 467.645
2208 0 86.3897 13.6475 1179 104.117 419.166 467.17
2209 0 85.4497 11.6209 993 107.628 418.224 462.539
2210 0 90.2508 11.0692 999 108.534 418.736 455.532
2211 0 92.204 14.4354 1331 103.56 417.967 459.173
2212 0 94.1796 12.0833 1138 107.237 418.541 449.156
2213 0 98.324 11.9096 1171 105.103 418.069 460.535
2214 0 100.117 12.4853 1250 107.415 418.528 450.95
2215 0 106.32 11.6818 1242 107.077 418.628 454.836
2216 0 105.545 11.4264 1206 108.42 419.719 450.815
2217 0 110.407 13.885 1533 105.677 420.498 445.701
2218 0 113.194 10.7426 1216 110.995 420.831 439.558
2219 0 117.332 12.1876 1430 108.549 420.739 441.068
2220 0 118.462 11.7591 1393 110.467 421.421 434.363
2221 0 125.265 11.6313 1457 109.545 422.213 437.21
2222 0 129.45 13.9282 1803 106.212 422.449 435.912
2223 0 132.507 12.7314 1687 108.582 423.042 430.992
2224 1 232.487 7.75096 1802 120.971 421.825 384.166
2225 1 70.2653 9.29335 653 107.323 425 462.043
2226 0 74.2762 9.85511 732 105.704 425.294 458.803
2227 0 77.4038 13.7202 1062 100.552 425.33 460.82
2228 0 78.2097 10.3184 807 105.193 424.551 459.31
2229 0 78.2097 10.3951 813 125.144 424.567 459.293
2230 0 87.2205 11.6372 1015 102.917 426.94 456.055
2231 0 88.285 13.8189 1220 99.4812 427.098 455.835
2232 0 89.3317 14.3734 1284 99.4416 426.921 451.289
2233 0 92.1654 12.087 1114 102.662 427.478 452.958
2234 0 95.3653 11.0732 1056 104.021 427.572 449.264
2235 0 102.552 11.2138 1150 102.458 427.431 461.279
2236 0 100.38 10.7691 1081 104.445 426.235 453.918
2237 0 104.193 7.5629 788 106.376 426.808 461.032
2238 1 220.693 12.5786 2776 110.178 423.665 394.374
2240 1 173.336 10.3268 1790 112.275 423.075 411.915
2241 1 68.2166 10.6132 724 99.6809 422.638 477.971
2242 0 72.253 8.7332 631 103.363 421.065 475.336
2243 0 72.1597 16.6852 1204 93.0523 421.418 472.567
2244 0 73.1291 23.0962 1689 87.7235 419.91 472.427
2245 0 78.0624 12.4388 971 97.9145 419.654 473.305
2246 0 81.3273 12.2714 998 98.2515 419.012 471.593
2247 0 85.4891 15.4406 1320 94.8833 418.989 469.02
2248 0 84.2514 12.0235 1013 99.7779 418.815 460.977
2249 0 91.2237 13.8012 1259 97.3924 418.655 460.893
2250 0 89.164 10.4751 934 101.832 417.475 463.206
2251 0 92.289 12.4825 1152 100.015 417.829 460.455
2252 0 97.1974 13.2102 1284 98.6706 416.674 461.731
2253 0 101.259 15.8701 1607 97.1033 418.044 453.299
2254 0 104.155 15.0161 1564 97.0946 417.296 460.905
2255 0 106.45 11.9399 1271 103.411 416.172 451.891
2256 0 109.233 13.6863 1495 101.862 418.421 445.47
2257 0 112.309 14.6649 1647 101.25 417.789 444.148
2258 0 332.815 33.7365 11228 90.3969 417.718 308.142
2259 0 334.386 30.7549 10284 93.2258 417.695 303.962
2260 1 123.407 12.7141 1569 103.566 419.164 447.007
2261 0 122.268 10.4279 1275 110.093 420.908 442.431
2262 0 131.911 10.636 1403 105.416 421.597 453.506
2263 0 125.23 9.00742 1128 112.52 421.838 439.665
2264 0 130.473 14.892 1943 105.393 422.256 428.572
2265 0 136.545 12.1206 1655 108.617 422.334 431.396
2266 0 137.333 11.767 1616 109.271 423.089 433.413
2267 0 145.386 14.8433 2158 105.366 422.856 432.077
2268 0 149.393 11.4196 1706 110.515 424.077 429.147
2269 1 219.617 9.53934 2095 119.114 425.886 391.159
2270 0 223.732 10.9551 2451 115.387 425.266 396.343
2271 1 86.2922 11.0439 953 105.572 426.346 459.554
2272 0 91.155 11.1239 1014 103.851 426.606 459.371
2273 0 92.2007 9.38171 865 106.673 426.856 458.405
2274 0 96.1288 13.1594 1265 102.747 428.106 454.626
2275 0 103.139 12.0905 1247 103.393 428.08 456.576
2276 0 105.21 12.5369 1319 105.059 427.279 449.604
2277 0 111.275 12.6623 1409 104.013 426.839 453.989
2278 0 115.113 13.0481 1502 104.075 428.005 451.113
2279 0 117.233 11.2425 1318 107.328 426.798 448.571
2280 1 64.1084 11.3246 726 103.788 428.004 480.331
2281 0 68.109 9.92526 676 110.982 422.901 477.578
2282 0 69.1948 11.5616 800 110.968 422.776 471.822
2283 0 73.2559 12.1492 890 108.782 422.62 474.603
2284 0 74.2583 15.6616 1163 103.94 422.212 471.11
2285 0 77.3496 13.9109 1076 105.719 419.958 472.61
2286 0 79.2542 13.0466 1034 107.362 419.472 468.486
2287 0 82.3676 16.6935 1375 102.504 418.815 465.868
2288 0 83.2648 11.8057 983 111.072 418.887 463.534
2289 0 85.3631 12.6401 1079 109.237 418.342 463.246
2290 0 86.3247 12.0244 1038 111.382 418.585 459.81
2291 0 91.3896 12.9336 1182 108.102 416.381 465.254
2292 0 98.5271 11.3877 1122 109.872 416.611 459.977
2293 0 97.427 12.3374 1202 110.6 416.647 450.903
2294 0 99.2431 13.4518 1335 109.307 417.46 448.405
2295 0 101.368 11.7099 1187 112.081 415.852 448.373
2296 0 105.227 13.314 1401 109.718 416.869 444.828
2297 0 107.358 12.1742 1307 111.175 417.357 447.125
2298 1 63.1165 11.9145 752 107.045 416.367 467.479
2299 0 66.0825 9.51841 629 106.851 417.612 471.159
2300 0 67.1579 11.3911 765 103.102 418.874 472.997
2301 0 66.0565 11.6567 770 103.203 419.539 464.695
2302 0 69.284 14.722 1020 99.4588 419.992 464.455
2303 0 74.2968 14.0383 1043 98.9923 420.243 464.926
2304 0 76.3203 15.1729 1158 97.9905 421.399 463.971
2305 0 72.1009 10.6656 769 105.492 420.59 461.904
2306 0 77.3165 16.8787 1305 97.9379 421.538 461.937
2307 0 87.1387 10.9825 957 106.1 422.134 457.362
2308 0 87.7279 15.0351 1319 100.833 423.202 459.019
2309 0 84.2293 12.1454 1023 108.754 422.111 455.539
2310 0 85.1971 11.6553 993 111.206 422.769 450.685
2311 0 91.3495 11.757 1074 108.814 422.565 453.827
2312 0 94.1828 13.3676 1259 107.223 422.584 451.775
2313 0 94.2091 12.8544 1211 108.166 423.139 450.618
2314 1 58.1058 10.4637 608 103.456 426.056 474.561
2315 0 58.1415 6.29499 366 110.811 426.098 473.374
2316 0 63.2275 11.3084 715 99.9245 427.466 477.699
2317 0 61.2908 11.5841 710 103.177 426.63 471.413
2318 0 61.2134 10.2102 625 104.008 426.573 473.182
2319 0 63.3289 12.4588 789 100.399 424.366 469.137
2320 0 63.2016 13.7813 871 98.8462 423.7 471.099
2321 0 68.3683 9.90226 677 102.903 423.821 473.226
2322 0 67.1244 10.4284 700 103.363 423.7 476.539
2323 0 70.3348 11.5164 810 103.369 425.393 472.584
2324 0 74.2033 13.8134 1025 99.3698 424.407 475.771
2325 0 76.2415 12.0669 920 101.226 424.217 479.548
2326 0 81.1187 15.8286 1284 97.8738 423.376 468.943
2327 0 82.2002 11.9586 983 104.817 423.347 468.999
2328 0 83.146 11.2212 933 106.806 422.705 465.958
2329 0 90.1527 12.0573 1087 104.747 421.81 466.136
2330 0 91.3045 11.2481 1027 107.228 420.725 461.896
2331 0 92.1682 11.9781 1104 106.716 420.799 460.807
2332 0 99.2934 15.1772 1507 102.076 419.745 459.307
2333 0 107.394 18.9489 2035 97.226 420.024 462.537
2334 0 104.33 13.7544 1435 107.371 418.514 451.967
2335 0 106.289 11.9485 1270 109.924 418.476 452.335
2336 0 110.289 13.8455 1527 106.934 417.633 450.952
2337 0 114.586 13.9545 1599 107.255 418.373 451.442
2338 1 62.0998 9.17877 570 111.168 417.851 472.049
2339 0 63.0464 11.1505 703 108.474 417.471 469.253
2340 0 65.1003 8.66356 564 108.711 417.876 470.092
2341 0 66.0725 13.0765 864 102.812 419.366 468.832
2342 0 71.1049 13.248 942 102.676 417.806 464.999
2343 0 72.1006 13.606 981 102.353 417.489 463.071
2344 0 75.376 10.9982 829 105.784 418.584 463.008
2345 0 77.2967 14.1144 1091 101.123 419.528 463.627
2346 0 78.1818 14.2616 1115 102.561 418.978 460.315
2347 0 77.2191 13.0149 1005 105.954 419.929 454.5
2348 0 80.2123 14.3993 1155 104.296 421.364 454.006
2349 0 81.1836 13.4879 1095 106.001 421.186 455.109
2350 0 89.3009 15.0054 1340 101.399 422.483 459.537
2351 0 90.259 12.442 1123 106.124 423.416 455.802
2352 0 88.2178 11.1542 984 110.968 423.994 446.429
2353 0 96.283 14.8624 1431 104.813 424.215 449.893
2354 0 96.2805 11.7469 1131 110.08 425.303 450.905
2355 0 100.254 9.65547 968 114.692 425.666 444.041
2356 0 103.172 11.7474 1212 113.101 426.55 442.464
2357 0 105.27 12.4917 1315 112.135 425.936 445.147
2358 0 112.509 16.3187 1836 105.879 426.968 444.338
2359 0 113.453 11.8375 1343 113.057 426.296 445.097
2360 0 118.427 11.6106 1375 110.514 427.127 453.144
2361 1 68.3578 12.2151 835 107.88 426.659 474.325
2362 0 71.0743 12.5221 890 106.791 427.471 475.339
2363 0 74.1302 9.83405 729 113.654 425.818 472.494
2364 0 68.153 7.07232 482 119.255 426.162 466.855
2365 0 77.1922 9.98805 771 113.943 424.551 467.901
2366 0 79.2706 10.7732 854 112.833 423.838 469.176
2367 0 85.0458 11.2528 957 112.683 423.932 468.645
2368 0 87.1112 10.8597 946 113.462 423.648 467.56
2369 0 88.1761 10.5244 928 113.544 421.774 466.38
2370 0 92.1021 8.00199 737 116.594 420.522 458.066
2371 0 100.306 14.4159 1446 106.321 419.965 461.833
2372 0 105.162 12.2763 1291 110.501 418.799 459.59
2373 0 104.408 13.2078 1379 109.989 419.376 459.124
2374 0 103.187 6.71595 693 120.304 418.303 450.584
2375 0 111.13 10.2672 1141 114.864 417.497 449.204
2376 0 109.176 8.29854 906 114.799 417.305 459.592
2377 0 116.328 12.929 1504 112.242 417.974 442.17
2378 0 124.212 12.5753 1562 111.506 417.818 445.171
2379 1 65.0813 9.94141 647 108.614 416.586 473.873
2380 0 70.1516 16.165 1134 98.4471 417.277 475.555
2381 0 70.2137 12.3053 864 104.582 417.346 466.334
2382 0 74.05 11.3437 840 105.386 417.593 468.739
2383 0 75.2054 14.0415 1056 103.219 416.454 465.345
2384 0 72.3284 10.0376 726 110.665 416.587 461.247
2385 0 80.2859 13.5018 1084 104.487 417.775 463.011
2386 0 80.0971 12.2476 981 107.557 418.105 461.593
2387 0 85.4608 13.0703 1117 105.145 419.024 460.638
2388 0 85.2668 12.76 1088 107.382 418.613 455.663
2389 0 90.3481 14.2228 1285 104.504 419.494 457.684
2390 0 91.1513 12.1556 1108 108.784 419.902 449.155
2391 0 96.1888 13.3591 1285 106.851 420.805 451.97
2392 0 97.2464 18.1395 1764 100.259 420.766 453.374
2393 0 100.205 12.8237 1285 108.651 422.09 450.347
2394 0 100.251 10.5236 1055 113.252 422.354 448.686
2395 0 104.182 11.739 1223 112.8 422.736 449.28
2396 0 103.393 9.36233 968 115.498 422.538 447.885
2397 0 104.253 10.4074 1085 114.364 424.494 450.671
2398 0 113.239 12.0719 1367 113.115 425.206 444.796
2399 0 113.239 12.0189 1361 125.522 426.199 444.8
2400 0 123.414 13.637 1683 109.851 425.545 442.645
2401 1 72.1651 13.6354 984 105.697 424.189 471.24
2402 0 71.1328 9.1519 651 117.364 423.532 466.39
2403 0 75.1752 11.6927 879 115.581 421.437 465.817
2404 0 82.1098 15.0043 1232 109.471 421.975 462.862
2405 0 88.0972 14.3364 1263 108.444 421.389 468.835
2406 0 88.2455 12.4426 1098 111.716 421.318 461.218
2407 0 93.2732 12.1149 1130 110.957 421.816 464.038
2408 0 99.2024 12.2477 1215 110.879 421.963 460.045
2409 0 103.437 14.695 1520 106.954 421.313 460.225
2410 0 106.311 11.8332 1258 112.553 420.512 459.972
2411 0 109.594 11.5791 1269 112.098 420.53 459.011
2412 1 60.1266 12.5069 752 107.231 418.172 484.184
2413 0 65.435 11.477 751 109.188 418.77 479.409
2414 0 67.2338 16.5393 1112 102.473 417.565 477.427
2415 0 65.2068 9.27818 605 109.382 418.008 476.988
2416 0 67.2884 7.72793 520 111.1 416.706 474.804
2417 0 73.2611 11.0017 806 104.948 416.577 477.397
2418 0 75.3325 13.394 1009 101.156 415.893 474.912
2419 0 77.3672 10.2886 796 103.966 415.373 474.546
2420 0 83.2818 12.1995 1016 101.896 415.702 467.378
2421 0 87.2864 14.6071 1275 99.1851 414.883 464.612
2422 0 88.1972 13.7079 1209 100.436 415.643 464.84
2423 0 88.3324 13.019 1150 102.962 415.786 457.292
2424 0 92.1549 11.7302 1081 104.393 415.843 457.59
2425 0 94.3419 13.2815 1253 103.156 415.84 456.814
2426 0 96.2659 15.6338 1505 100.91 416.314 454.395
2427 0 98.268 13.2291 1300 105.022 416.068 451.746
2428 0 100.281 11.7868 1182 107.69 417.201 445.949
2429 0 106.175 12.1121 1286 106.74 417.412 447.466
2430 0 112.434 15.8137 1778 100.768 417.99 450.317
2431 1 59.1223 10.5544 624 103.288 417.75 473.409
2432 0 61.1151 8.90123 544 107.324 418.471 469.434
2433 0 61.1554 11.7733 720 104.331 419.353 468.018
2434 0 65.3262 15.4302 1008 101.663 421.069 464.678
2435 0 66.1917 14.3069 947 99.5322 421.031 465.52
2436 0 64.0643 11.8475 759 102.879 422.689 471.679
2437 0 71.1834 10.4519 744 105.704 422.601 464.468
2438 0 72.2456 10.2982 744 106.071 422.352 467.449
2439 0 74.0597 13.7457 1018 103.84 422.153 462.271
2440 0 72.0563 11.6298 838 107.946 423.228 463.712
2441 0 80.1474 12.3522 990 106.967 422.886 463.013
2442 0 78.1584 8.66189 677 114.756 423.901 460.468
2443 0 88.2301 11.6287 1026 108.816 421.933 462.98
2444 0 90.2047 10.7422 969 112.039 423.551 462.651
2445 0 91.3718 12.3889 1132 110.102 422.068 464.807
2446 0 98.2054 15.7323 1545 105.289 423.308 461.008
2447 0 97.1862 10.7423 1044 113.556 422.087 463.885
2448 0 104.183 12.7372 1327 110.604 420.86 459.145
2449 1 57.0574 9.67447 552 115.832 419.721 480.812
2450 0 59.25 10.7004 634 115.131 420.811 479.046
2451 0 62.1733 12.5617 781 112.124 419.744 480.335
2452 0 65.3067 11.9896 783 112.526 418.612 476.429
2453 0 62.1583 11.0524 687 114.563 418.348 480.074
2454 0 71.2515 15.4523 1101 105.56 417.666 473.458
2455 0 70.1874 10.7142 752 113.633 416.915 474.182
2456 0 74.2321 14.1179 1048 107.241 416.179 470.752
2457 0 78.4104 13.7609 1079 105.876 416.287 468.492
2458 0 80.088 15.3581 1230 103.167 416.296 470.28
2459 0 79.1379 10.2985 815 111.249 415.875 465.465
2460 0 84.3846 15.0383 1269 104.545 416.24 465.456
2461 0 84.264 12.8525 1083 107.299 416.063 461.042
2462 0 89.3476 15.4565 1381 103.752 416.017 459.255
2463 0 95.2891 14.7341 1404 102.884 417.068 461.311
2464 0 96.2388 11.6585 1122 108.161 416.824 456.204
2465 0 97.272 18.1656 1767 100.043 416.53 452.165
2466 0 101.248 12.9681 1313 106.749 416.41 449.008
2467 0 105.397 15.1238 1594 103.083 416.902 441.774
2468 0 106.447 14.3076 1523 104.651 417.532 435.909
2469 0 110.392 13.597 1501 103.342 418.338 435.375
2470 0 112.261 13.7003 1538 103.683 417.417 426.531
2471 1 61.2788 12.027 737 105.128 417.593 454.423
2472 0 65.1985 10.9205 712 106.199 418.049 451.226
2473 0 63.2094 9.25495 585 110.335 418.026 448.46
2474 0 68.1112 11.1435 759 101.988 418.934 453.835
2475 0 69.105 10.7373 742 103.035 420.21 453.066
2476 0 71.386 7.92872 566 105.148 419.929 454.659
2477 0 75.1902 9.28313 698 107.739 422.331 453.817
2478 0 83.1624 13.636 1134 104.896 422.691 455.343
2479 0 90.1017 10.1552 915 109.39 424.478 457.252
2480 0 88.0787 11.7168 1032 107.58 423.854 457.956
2481 1 162.255 14.8594 2411 106.341 424.829 428.736
2482 1 105.248 11.7722 1239 108.441 423.68 452.639
2483 0 105.077 7.61348 800 111.975 425.395 460.61
2484 0 105.077 7.623 801 140.491 424.377 460.78
2485 0 109.131 11.564 1262 108.234 424.993 455.028
2486 0 111.167 13.2593 1474 106.427 424.345 455.716
2487 0 115.345 10.5596 1218 107.809 423.725 462.481
2488 0 113.184 7.08579 802 114.166 423.414 461.261
2489 1 68.1018 14.214 968 97.8905 423.145 477.213
2490 0 64.2274 10.058 646 106.875 422.769 461.797
2491 0 69.2328 9.70638 672 108.701 421.198 456.942
2492 0 72.2992 12.7387 921 102.812 420.968 463.666
2493 0 75.2623 11.2407 846 105.98 421.108 451.911
2494 0 76.2022 13.8316 1054 102.164 419.694 454.319
2495 0 80.3732 11.9816 963 105.657 420.329 451.589
2496 0 84.3337 11.8102 996 106.167 418.558 447.34
2497 0 83.0614 12.6774 1053 106.098 418.71 435.47
2498 0 88.1484 12.5584 1107 106.102 417.492 444.458
2499 0 92.1979 9.04576 834 112.122 418.053 443.486
2500 0 92.1862 8.75402 807 113.716 416.843 439.204
2501 0 95.1823 10.5272 1002 111.575 416.872 436.416
2502 0 100.074 13.9296 1394 103.739 416.824 444.95
2503 0 104.291 15.0061 1565 104.295 416.646 433.708
2504 0 106.098 12.2246 1297 107.98 416.656 431.263
2505 1 59.1751 9.15926 542 102.642 417.09 456.83
2506 0 65.3907 14.8186 969 93.9154 417.14 462.656
2507 0 62.6862 11.6932 733 99.7626 417.24 471.128
2508 1 118.386 7.72053 914 112.92 417.796 439.326
2509 0 123.388 13.7776 1700 105.185 417.566 443.422
2510 0 126.275 13.2647 1675 107.407 418.31 432.137
2511 0 131.421 10.5539 1387 109.541 418.138 437.89
2512 0 137.474 14.9702 2058 103.971 418.948 433.376
2513 0 138.302 10.6362 1471 109.364 419.605 433.249
2514 0 141.288 10.8997 1540 110.262 420.192 422.91
2515 0 146.246 10.0106 1464 110.754 421.337 415.616
2516 1 81.1624 11.0149 894 101.24 421.347 460.72
2517 0 83.1348 13.027 1083 100.44 423.266 456.273
2518 0 85.3739 11.4789 980 101.292 423.134 456.905
2519 0 88.2833 10.3304 912 102.749 423.659 456.589
2520 0 91.326 14.0267 1281 99.427 421.824 455.386
2521 0 93.2816 13.9363 1300 100.292 423.366 455.508
2522 0 95.2263 12.9166 1230 102.459 422.31 456.003
2523 0 98.3886 13.9447 1372 102.007 423.219 454.19
2524 0 104.439 11.7389 1226 104.484 422.586 453.273
2525 1 159.652 12.7089 2029 106.048 423.478 430.82
2526 1 111.246 13.5825 1511 103.752 423.675 447.977
2527 0 115.818 12.9168 1496 104.307 423.871 452.759
2528 1 67.5102 9.68742 654 101.118 422.312 478.604
2529 0 69.2182 14.4182 998 96.6172 421.716 470.899
2530 0 73.1971 14.5361 1064 96.9643 422.365 476.759
2531 0 74.1782 13.0766 970 99.8454 421.667 472.29
2532 0 78.198 12.2382 957 100.542 421.574 477.624
2533 0 76.1652 9.19055 700 106.35 421.129 470.56
2534 0 82.1919 12.5925 1035 101.384 420.765 474.391
2535 0 84.1159 12.6254 1062 101.841 419.735 465.877
2536 0 86.1992 12.4943 1077 102.758 419.528 465.256
2537 0 91.1591 12.9444 1180 102.018 418.602 462.772
2538 0 92.3735 12.2438 1131 104.929 417.305 455.685
2539 0 96.2644 12.019 1157 105.052 416.222 462.369
2540 0 97.2137 12.9303 1257 105.563 415.879 455.605
2541 0 104.338 11.9612 1248 107.384 416.547 458.82
2542 1 58.1817 8.09533 471 110.386 415.654 479.826
2543 0 56.1411 11.667 655 107.333 416.89 475.882
2544 0 59.2859 11.5204 683 107.391 415.501 472.726
2545 0 62.2712 12.5419 781 106.676 415.808 472.12
2546 0 62.2142 12.682 789 109.404 416.913 473.522
2547 0 65.0451 14.513 944 105.699 417.301 474.442
2548 0 66.1702 12.7852 846 108.457 417.622 470.909
2549 0 68.2006 12.2726 837 110.606 418.262 466.743
2550 0 70.093 11.7415 823 110.559 417.742 465.831
2551 0 76.1791 14.4134 1098 104.107 419.345 469.208
2552 0 75.2164 10.277 773 112.334 418.254 464.063
2553 0 77.157 13.6734 1055 108.255 419.064 460.089
2554 0 83.2058 14.35 1194 106.142 418.82 458.192
2555 0 83.161 13.9609 1161 106.997 420.728 459.152
2556 0 85.2266 17.9991 1534 102.335 419.736 455.36
2557 0 89.2205 14.268 1273 108.128 421.281 456.05
2558 0 89.2118 13.0924 1168 110.735 421.5 449.108
2559 0 92.3065 14.0185 1294 109.639 423.189 452.432
2560 0 95.1436 14.4729 1377 109.211 423.503 452.972
2561 0 97.2588 12.8009 1245 113.373 423.211 448.933
2562 0 98.1611 13.8955 1364 111.604 424.685 451.608
2563 0 104.248 15.3672 1602 109.086 425.129 445.288
2564 0 106.421 14.6024 1554 109.35 425.673 449.748
2565 0 113.22 14.2554 1614 109.007 424.584 447.736
2566 0 114.323 12.9021 1475 111.503 425.338 444.85
2567 1 70.163 10.9317 767 110.462 424.898 472.596
2568 0 70.2163 12.6324 887 107.112 425.904 475.416
2569 0 74.0969 12.2542 908 108.922 424.153 472.405
2570 0 75.397 11.2869 851 112.532 421.397 466.615
2571 0 81.1749 13.3416 1083 107.608 420.595 472.83
2572 0 84.3929 13.8163 1166 108.515 421.296 471.043
2573 0 85.306 13.012 1110 108.933 420.396 473.339
2574 0 86.3549 12.4718 1077 112.617 420.516 466.808
2575 0 89.3604 13.9995 1251 109.914 419.372 465.458
2576 0 94.2694 13.8327 1304 110.602 419.405 462.508
2577 0 94.2906 11.7933 1112 114.378 418.796 461.029
2578 0 99.482 12.6958 1263 110.848 418.713 466.116
2579 0 102.389 12.8725 1318 113.315 418.743 455.766
2580 0 100.395 11.5843 1163 115.982 418.034 454.154
2581 0 106.296 10.8753 1156 116.888 418.197 448.257
2582 0 104.405 8.94591 934 120.115 417.846 444.111
2583 0 111.443 11.7728 1312 115.27 416.931 439.192
2584 0 117.342 14.5898 1712 109.283 415.495 442.711
2585 0 120.468 13.431 1618 109.989 417.561 434.714
2586 0 127.485 12.5348 1598 107.78 415.533 445.19
2587 1 70.4256 11.7571 828 105.957 416.202 466.122
2588 0 73.3359 8.33152 611 110.257 416.887 464.913
2589 0 69.0828 8.90236 615 110.236 418.042 459.358
2590 0 73.2979 11.7466 861 105.045 416.63 459.526
2591 0 81.1748 10.0647 817 105.859 417.459 459.53
2592 0 72.147 10.6449 768 108.262 417.53 455.526
2593 0 82.1545 11.2228 922 105.399 417.72 450.401
2594 0 84.2483 12.3445 1040 103.168 417.932 459.72
2595 0 87.3192 10.7307 937 106.586 419.391 448.291
2596 0 96.458 16.8052 1621 98.0247 419.101 451.848
2597 0 92.3144 11.5367 1065 106.134 419.87 448.654
2598 0 101.424 15.3317 1555 98.3563 421.338 449.874
2599 0 98.4482 11.3054 1113 104.951 420.966 441.597
2600 0 103.211 10.2605 1059 105.918 421.572 447.259
2601 0 111.281 11.0261 1227 105.844 422.214 440.932
2602 0 276.65 6.5028 1799 119.337 422.34 375.837
2603 1 118.394 9.50214 1125 107.277 422.743 440.03
2604 0 124.306 12.1796 1514 103.87 423.359 447.275
2605 0 131.413 17.837 2344 96.0529 423.53 443.13
2606 0 132.63 11.7319 1556 103.846 422.924 433.39
2607 0 138.614 12.4951 1732 104.277 421.895 441.9
2608 0 143.445 11.6561 1672 107.684 422.44 435.611
2609 0 149.499 10.2208 1528 108.89 422.451 436.639
2610 0 155.422 11.9031 1850 106.242 421.687 435.115
2611 1 91.2708 9.44443 862 103.116 420.776 477.139
2612 0 97.3011 13.2064 1285 102.23 421.187 464.566
2613 0 96.2323 10.6617 1026 100.697 421.99 467.749
2614 0 100.18 8.2152 823 104.99 421.296 455.022
2615 0 110.376 11.3431 1252 99.472 419.731 461.402
2616 0 112.437 11.9889 1348 99.4073 419.121 453.053
2617 0 118.48 12.1202 1436 98.9318 419.281 455.194
2618 0 124.479 15.2958 1904 94.3487 418.506 455.698
2619 0 127.305 14.4771 1843 98.7835 417.897 445.185
2620 0 130.252 12.9826 1691 99.9415 417.404 437.199
2621 1 147.292 10.5233 1550 101.97 417.168 430.41
2622 1 85.6404 16.4875 1412 87.8916 417.351 465.336
2623 0 88.252 28.3393 2501 80.2663 416.729 461.375
2624 0 91.5705 24.8988 2280 82.1662 416.771 459.44
2625 0 93.7307 16.8888 1583 88.993 416.253 458.665
2626 0 97.3438 19.7958 1927 86.356 416.279 455.447
2627 0 97.2594 14.3431 1395 92.7835 416.034 453.781
2628 0 95.3304 14.1088 1345 94.3636 416.972 457.187
2629 0 92.2944 12.7202 1174 98.425 416.365 451.408
2630 0 98.4732 14.2475 1403 96.3956 417.553 454.808
2631 0 100.605 11.6594 1173 99.468 417.407 452.344
2632 0 102.305 10.371 1061 100.903 418.369 456.246
2633 0 104.421 11.3099 1181 102.359 417.493 446.073
2634 0 106.341 11.1622 1187 103.437 418.236 447.314
2635 1 123.481 20.0436 2475 90.5709 418.391 441.513
2636 0 125.889 25.03 3151 87.4624 419.062 437.393
2637 0 120.395 13.3726 1610 100.863 419.642 438.254
2638 0 126.855 13.7953 1750 98.6954 421.389 444.396
2639 0 126.345 10.8433 1370 103.08 420.659 441.227
2640 1 73.2013 11.5299 844 97.5249 422.326 468.276
2641 0 75.2455 11.7748 886 96.2912 422.007 462.004
2642 1 94.2642 16.0188 1510 88.753 424.558 457.594
2643 0 100.548 17.1461 1724 86.8631 425.671 464.259
2644 0 101.316 11.8639 1202 94.8935 424.85 455.207
2645 0 102.331 14.9417 1529 93.4702 423.901 454.429
2646 0 108.34 20.5187 2223 86.7134 422.681 462.903
2647 0 112.629 14.8009 1667 94.1308 421.653 453.869
2648 0 113.199 12.6945 1437 94.9102 421.81 446.296
2649 0 113.49 9.57792 1087 98.3128 421.145 444.64
2650 0 120.451 15.3423 1848 91.8182 420.254 450.005
2651 0 125.681 14.4492 1816 93.2891 419.035 442.595
2652 0 133.132 24.5696 3271 86.2443 419.356 440.371
2653 0 134.547 14.0694 1893 91.7934 418.043 456.594
2654 0 139.503 17.0176 2374 90.6306 416.615 448.406
2655 1 147.656 22.8301 3371 83.7081 416.437 450.313
2656 1 82.2979 14.9093 1227 91.7139 415.449 466.702
2657 0 87.652 11.694 1025 95.2205 415.175 459.032
2658 0 88.3684 16.4878 1457 91.7914 415.264 459.036
2659 0 90.5522 9.92798 899 98.9956 413.874 459.759
2660 0 93.6143 14.7413 1380 94.5428 414.657 461.664
2661 0 92.5778 10.8665 1006 99.4076 413.912 458.546
2662 0 98.6666 16.6216 1640 92.9427 414.18 455.261
2663 0 99.8775 15.0985 1508 94.2659 413.867 455.838
2664 0 103.194 17.5399 1810 91.8746 413.836 455.367
2665 0 108.83 19.0755 2076 90.3459 414.242 456.424
2666 0 118.792 19.471 2313 89.3333 413.649 454.63
2667 0 113.768 18.7224 2130 90.6488 413.857 453.41
2668 0 113.362 17.5632 1991 94.5178 414.868 439.957
2669 1 71.5367 12.8465 919 87.5288 416.107 467.842
2670 0 65.4154 10.5021 687 90.5386 416.945 465.256
2671 0 68.1307 9.70194 661 94.236 416.156 463.351
2672 0 74.2925 10.9567 814 91.5872 416.713 466.996
2673 0 75.1962 15.3199 1152 88.553 417.104 457.773
2674 0 77.1133 11.4766 885 91.1582 419.098 465.72
2675 0 82.1476 15.4235 1267 88.3062 419.64 462.01
2676 0 83.299 14.9221 1243 88.0507 420.222 463.177
2677 0 89.3656 14.5022 1296 88.2654 420.678 461.366
2678 1 161.147 17.481 2817 89.3387 420.123 433.132
2679 0 156.452 11.6457 1822 96.095 421.255 426.73
2680 1 91.2711 15.0431 1373 90.4457 421.363 452.579
2681 0 94.6138 14.2157 1345 90.6706 421.579 456.808
2682 0 98.1475 15.3137 1503 90.1144 422.258 456.971
2683 0 97.229 14.0185 1363 89.4886 422.041 465.499
2684 0 99.544 13.5819 1352 94.7567 423.055 450.564
2685 0 105.401 13.4914 1422 92.5548 421.859 461.491
2686 0 103.337 10.3835 1073 99.2805 421.267 445.752
2687 0 111.276 15.8614 1765 91.2805 421.474 457.977
2688 0 112.277 16.201 1819 93.3073 422.196 448.19
2689 0 118.042 15.3505 1812 92.3438 421.715 456.666
2690 0 117.274 6.77899 795 99.7635 421.635 459.86
2691 0 123.701 10.3394 1279 97.129 420.895 457.331
2692 0 126.286 9.04297 1142 101.695 422.012 440.344
2693 0 128.411 19.4064 2492 91.5373 420.091 448.868
2694 0 136.577 16.3424 2232 93.2285 419.448 449.677
2695 0 138.471 18.1265 2510 91.2988 419.423 445.63
2696 0 144.825 16.0677 2327 94.9089 417.458 428.304
2697 1 79.2752 11.3781 902 91.51 417.62 461.971
2698 0 84.4853 8.02506 678 91.295 416.755 472.335
2699 0 90.3428 16.2603 1469 84.84 416.731 471.43
2700 1 170.586 14.7902 2523 91.6556 416.627 435.373
2701 0 168.558 18.1124 3053 96.4504 416.151 413.794
2702 1 180.712 14.1385 2555 86.3765 415.639 430.59
2703 0 181.751 11.5488 2099 89.789 415.194 416.304
2704 1 102.626 12.7259 1306 83.2312 415.297 463.327
2705 0 107.856 22.6692 2445 78.6761 414.681 458.215
2706 0 111.165 15.1037 1679 83.67 415.03 444.547
2707 0 110.37 11.987 1323 87.4807 414.057 444.243
2708 0 115.764 14.8406 1718 85.3801 413.956 436.205
2709 0 121.529 12.606 1532 86.611 415.061 452.153
2710 0 118.51 20.8843 2475 82.3713 415.098 448.742
2711 1 281.949 11.6262 3278 92.5128 415.919 389.674
2712 1 133.53 16.7228 2233 84.1008 416.128 450.064
2713 1 78.2499 25.0735 1962 77.4694 415.469 463.41
2714 0 78.3144 17.6341 1381 80.9515 416.422 462.615
2715 0 82.2862 20.4408 1682 79.6629 417.697 465.945
2716 0 82.7975 19.2397 1593 81.059 417.606 451.826
2717 0 88.4336 10.7538 951 86.0347 417.607 459.699
2718 0 89.4673 18.3419 1641 81.0347 418.029 463.027
2719 0 92.5417 15.5822 1442 83.1567 418.829 461.018
2720 0 94.5754 19.8995 1882 81.2774 419.376 459.11
2721 0 93.5282 7.86929 736 91.6834 419.758 448.37
2722 0 100.352 19.1127 1918 83.0829 419.747 451.92
2723 0 103.461 10.8833 1126 90.4032 420.319 442.053
2724 1 278.662 27.7684 7738 82.3638 419.974 376.601
2725 0 284.802 24.0939 6862 83.5102 420.453 391.975
2726 1 112.616 18.5498 2089 88.3456 420.562 449.249
2727 0 119.607 27.2559 3260 83.0463 420.803 448.155
2728 0 118.366 16.8545 1995 89.0717 421.67 453.955
2729 0 128.585 15.7095 2020 90.2193 422.255 452.598
2730 0 130.136 15.599 2030 91.4399 421.963 428.01
2731 0 127.512 28.0601 3578 82.6478 420.84 440.375
2732 0 136.72 12.8437 1756 93.4755 421.266 433.546
2733 1 78.4758 5.89991 463 92.2765 420.782 464.184
2734 0 79.2059 5.7824 458 93.6703 420.666 466.249
2735 0 82.183 19.5296 1605 81.3545 420.744 474.318
2736 0 84.2179 22.4893 1894 79.5121 419.88 474.773
2737 0 86.1402 23.7288 2044 79.3033 419.918 473.442
2738 0 95.7228 17.7909 1703 81.4639 418.394 473.026
2739 0 94.2844 8.32588 785 92.0803 419.503 458.276
2740 0 92.4069 10.9083 1008 91.9752 418.069 455.186
2741 0 97.6376 14.6767 1433 88.619 417.607 457.393
2742 0 102.714 14.779 1518 88.5362 417.337 451.402
2743 0 101.276 19.0865 1933 83.1599 416.134 462.703
2744 0 103.76 8.33657 865 95.0902 415.985 436.405
2745 0 104.196 9.74123 1015 93.9123 414.893 437.777
2746 0 114.546 15.461 1771 88.1908 415.054 439.822
2747 0 111.627 11.413 1274 92.8202 415.892 442.278
2748 0 111.403 12.4144 1383 92.5698 414.008 440.126
2749 1 278.626 17.7765 4953 91.0961 415.464 377.048
2750 0 285.28 18.41 5252 91.0373 414.254 342.019
2751 1 313.838 10.3525 3249 95.1163 415.265 390.427
2752 0 307.404 14.8697 4571 93.17 414.739 354.328
2753 1 270.044 15.9418 4305 90.5375 414.936 380.596
2754 1 212.348 12.8987 2739 100.648 416.692 394.072
2755 1 83.2414 13.5509 1128 91.8298 415.863 456.809
2756 0 87.5041 14.9593 1309 91.0023 416.972 451.366
2757 0 92.812 13.0802 1214 91.8344 417.347 452.376
2758 0 91.4833 17.9049 1638 86.7247 417.809 456.182
2759 0 96.3593 11.0005 1060 94.9557 418.978 435.456
2760 0 104.971 16.2045 1701 89.5026 419.935 444.472
2761 0 101.912 13.129 1338 93.2444 419.975 440.838
2762 0 107.702 11.2719 1214 94.5988 420.673 439.606
2763 0 109.61 12.3346 1352 93.7936 422.01 441.336
2764 0 112.519 19.4101 2184 88.4281 421.795 445.444
2765 0 113.403 11.8163 1340 95.3672 421.629 437.592
2766 0 118.476 23.0089 2726 88.0264 421.115 434.642
2767 0 119.887 11.6193 1393 97.3238 423.012 433.679
2768 0 122.472 11.6026 1421 96.6981 421.923 436.797
2769 0 128.668 10.6864 1375 98.6589 423.53 434.436
2770 0 132.565 13.5254 1793 95.585 423.054 432.303
2771 0 137.593 9.19377 1265 95.3723 422.744 451.615
2772 0 141.576 17.1287 2425 92.2297 423.16 427.628
2773 0 150.29 16.2553 2443 92.8682 422.798 435.168
2774 0 149.685 10.2348 1532 93.5986 423.017 451.566
2775 1 86.4214 16.4774 1424 87.7008 422.017 460.353
2776 0 90.3337 12.7638 1153 89.8335 422.181 469.912
2777 0 91.2707 13.9694 1275 89.8039 422.718 467.846
2778 0 93.5029 14.7696 1381 90.0681 422.288 459.593
2779 0 97.5156 13.0748 1275 91.3537 421.425 466.491
2780 0 98.7534 15.7969 1560 90.4846 422.158 463.573
2781 0 104.69 14.6624 1535 91.701 421.964 470.128
2782 0 106.8 15.515 1657 91.9505 421.564 465.919
2783 0 107.345 19.0321 2043 89.2614 420.582 459.475
2784 0 105.654 14.6989 1553 91.0026 419.061 466.653
2785 0 115.633 17.6767 2044 90.1301 419.348 457.594
2786 0 125.103 17.8173 2229 88.3827 418.756 462.406
2787 1 180.66 13.5393 2446 97.444 418.184 421.401
2788 0 184.721 13.7396 2538 97.6036 417.33 413.491
2789 0 193.834 21.9569 4256 91.0564 416.974 413.954
2790 1 135.765 12.7132 1726 94.4658 416.997 448.626
2791 0 142.978 17.3313 2478 91.0093 416.959 447.674
2792 0 144.599 14.1426 2045 95.8127 416.751 437.184
2793 0 142.761 17.3717 2480 92.521 416.419 437.977
2794 1 234.98 13.3416 3135 99.8195 415.99 375.065
2795 1 82.7167 16.8043 1390 87.8691 416.792 464.234
2796 0 86.0026 19.8366 1706 87.2855 416.815 454.008
2797 0 90.4021 20.3093 1836 86.9221 416.46 456.385
2798 0 87.7916 16.9378 1487 88.7747 417.274 462.888
2799 0 90.6494 19.3051 1750 88.9931 418.037 452.991
2800 0 91.3259 14.2566 1302 93.0154 418.817 450.315
2801 0 94.501 19.9257 1883 89.5077 418.978 450.365
2802 0 94.5085 10.8244 1023 97.1349 418.613 440.507
2803 0 100.347 22.7112 2279 86.9272 418.917 450.781
2804 0 102.882 21.442 2206 87.709 420.238 450.214
2805 0 102.79 17.2974 1778 93.5574 420.576 442.552
2806 0 111.285 21.6561 2410 89.7481 420.695 444.252
2807 0 110.491 14.9514 1652 93.8366 420.99 448.717
2808 0 120.129 20.9941 2522 90.8374 421.624 434.36
2809 0 116.722 10.6749 1246 100.593 423.73 435.394
2810 1 64.6618 14.9238 965 91.7668 422.676 467.457
2811 0 69.3754 14.3711 997 93.9739 422.049 463.48
2812 0 72.133 15.4021 1111 92.36 422.355 466.977
2813 0 78.9505 14.9334 1179 92.6175 423.312 466.366
2814 0 78.2604 12.5351 981 97.0245 423.362 461.759
2815 0 84.2572 13.7792 1161 94.6081 421.868 465.502
2816 0 85.759 12.815 1099 97.333 422.711 463.812
2817 0 85.5156 13.1321 1123 97.8825 423.334 463.157
2818 0 88.4634 14.3901 1273 98.1218 423.114 458.36
2819 0 89.5732 11.5325 1033 102.075 422.345 459.33
2820 0 95.5505 13.0926 1251 99.299 421.987 464.472
2821 0 95.4454 18.3875 1755 94.233 422.166 467.348
2822 0 101.345 19.251 1951 94.4767 422.414 461.366
2823 0 104.546 20.0964 2101 93.7987 421.386 463.548
2824 0 102.48 18.7158 1918 95.1908 420.989 464.221
2825 0 108.805 14.6501 1594 101.25 420.319 453.32
2826 0 114.8 14.3205 1644 102.473 420.145 450.397
2827 0 117.787 17.141 2019 99.5696 420.251 454.302
2828 1 63.2294 10.5805 669 104.372 419.028 472.501
2829 0 67.2752 8.74022 588 105.354 418.634 472.714
2830 0 69.6042 12.2837 855 102.322 418.014 471.184
2831 0 76.8798 22.9189 1762 91.4818 417.54 472.142
2832 0 78.4378 17.3386 1360 96.8294 416.593 465.972
2833 0 77.4506 12.5112 969 102.385 416.398 462.551
2834 0 78.3598 14.4207 1130 101.228 416.285 461.094
2835 0 87.64 13.6467 1196 97.9858 416.219 466.854
2836 0 86.651 14.9219 1293 100.642 416.225 457.828
2837 0 88.7274 14.3022 1269 101.492 416.328 454.065
2838 0 91.9034 13.5251 1243 101.697 417.203 457.952
2839 0 94.3924 12.6175 1191 102.801 416.842 454.318
2840 0 92.7844 13.041 1210 101.201 417.228 458.804
2841 0 93.6228 16.8549 1578 99.9512 418.507 455.166
2842 1 192.191 23.8564 4585 95.1143 417.866 412.499
2843 0 190.326 26.5701 5057 93.4295 417.154 414.552
2844 0 186.869 10.2746 1920 106.797 418.992 426.423
2845 1 113.713 16.5945 1887 103.528 419.375 432.401
2846 0 117.692 16.3478 1924 103.641 421.04 438.038
2847 0 114.831 14.7609 1695 105.952 420.015 438.34
2848 0 124.496 12.5547 1563 108.626 422.003 433.878
2849 0 129.468 16.2588 2105 105.443 421.839 431.313
2850 0 135.647 16.1375 2189 105.914 422.606 429.014
2851 0 142.745 21.2197 3029 101.063 422.962 430.606
2852 0 144.713 15.6586 2266 108.818 423.12 425.49
2853 0 151.892 19.448 2954 103.464 423.32 428.394
2854 1 83.2718 10.4597 871 112.017 424.496 452.667
2855 0 88.379 14.4831 1280 100.301 424.887 454.458
2856 0 89.2816 10.3269 922 105.952 425.536 452.101
2857 0 96.1732 15.3889 1480 99.2284 424.314 456.755
2858 0 99.3608 13.0031 1292 101.533 425.436 457.946
2859 0 99.2442 11.4465 1136 103.655 425.143 458.051
2860 0 103.171 11.2531 1161 103.679 425.251 457.308
2861 0 104.236 8.1546 850 110.251 425.855 440.045
2862 0 110.23 9.1717 1011 107.824 425.295 450.511
2863 0 113.41 15.466 1754 101.425 425.662 449.51
2864 0 123.926 19.1889 2378 96.1888 424.521 454.516
2865 0 123.251 12.5435 1546 105.32 424.369 438.69
2866 0 129.511 14.161 1834 103.087 424.118 437.258
2867 0 134.527 16.2867 2191 100.792 424.628 443.102
2868 0 135.428 10.5739 1432 108.973 423.384 432.401
2869 0 144.295 13.5279 1952 104.202 421.759 439.01
2870 0 149.368 10.5378 1574 103.71 421.165 444.02
2871 1 87.0848 5.10996 445 107.052 421.454 456.658
2872 0 91.1258 4.0274 367 105.85 420.594 466.033
2873 0 95.2415 11.0981 1057 99.4059 420.467 457.994
2874 0 98.397 13.6081 1339 97.4384 419.131 458.229
2875 0 100.288 7.28902 731 104.613 419.234 456.951
2876 0 107.173 17.5511 1881 94.5901 418.877 449.474
2877 0 108.433 13.0588 1416 98.9689 418.747 447.913
2878 0 115.195 12.8304 1478 98.1231 417.996 449.921
2879 0 115.459 9.83035 1135 101.58 417.604 448.96
2880 0 123.291 13.3424 1645 98.8997 417.45 443.993
2881 0 124.401 10.016 1246 104.574 418.204 430.754
2882 0 131.564 11.5533 1520 103.465 417.955 429.16
2883 0 133.212 10.4195 1388 105.08 419.295 429.777
2884 0 137.338 16.8853 2319 98.4282 418.67 420.755
2885 0 141.5 10.4806 1483 104.962 418.788 424.179
2886 0 147.25 11.7147 1725 103.99 418.743 421.202
2887 0 154.579 16.3024 2520 98.1524 419.008 422.769
2888 0 155.32 23.9119 3714 92.9106 419.644 414.467
2889 0 164.547 17.849 2937 97.8226 420.93 407.194
2890 0 168.518 23.6592 3987 91.78 421.567 418.434
2891 0 174.741 14.5873 2549 99.2287 421.785 415.623
2892 0 182.936 15.5737 2849 98.828 422.348 407.45
2893 1 104.612 11.0695 1158 96.481 422.524 444.643
2894 0 108.541 13.3313 1447 97.4153 423.741 435.484
2895 0 110.716 10.4141 1153 101.467 423.506 432.53
2896 0 114.626 12.7458 1461 97.7796 423.776 436.61
2897 0 120.565 7.16624 864 106.295 424.416 425.772
2898 0 122.741 15.936 1956 95.0123 424.781 440.925
2899 0 122.463 9.26812 1135 103.744 425.767 431.666
2900 0 130.789 16.4769 2155 94.897 426.089 439.284
2901 0 132.572 12.4838 1655 101.643 426.318 425.998
2902 0 135.71 14.5015 1968 98.75 425.878 436.02
2903 0 139.638 19.6293 2741 93.9967 425.803 436.482
2904 0 144.64 12.6936 1836 102.055 424.501 425.026
2905 0 147.529 12.7093 1875 102.276 424.081 426.669
2906 0 151.552 11.1183 1685 105.563 423.646 419.338
2907 0 162.015 15.3073 2480 99.6871 423.671 431.592
2908 0 166.078 13.2829 2206 103.556 424.052 427.659
2909 0 167.672 15.0949 2531 103.14 423.501 414.133
2910 0 175.646 15.759 2768 102.604 422.18 411.855
2911 1 100.419 10.1176 1016 99.6486 422.924 452.438
2912 0 103.495 14.4742 1498 95.223 422.046 456.895
2913 0 109.613 15.0713 1652 94.8789 420.673 453.595
2914 0 109.501 9.49759 1040 102.724 419.839 452.355
2915 0 114.396 13.5231 1547 98.4286 419.077 450.017
2916 0 116.591 11.579 1350 102.276 419.91 443.324
2917 0 119.515 10.392 1242 103.227 419.209 444.093
2918 0 125.558 14.7422 1851 98.6872 418.105 442.189
2919 0 126.342 11.738 1483 102.374 417.887 439.318
2920 0 129.551 11.455 1484 103.079 418.085 436.914
2921 1 234.735 10.7313 2519 112.048 417.923 375.334
2922 1 150.587 11.4684 1727 103.774 417.608 421.625
2923 0 154.407 10.8026 1668 101.573 416.831 433.868
2924 0 155.404 9.80669 1524 104.417 417.428 425.972
2925 0 153.241 11.9746 1835 102.283 418.345 417.571
2926 1 73.3286 6.58679 483 95.3789 417.578 460.892
2927 0 72.1949 17.7298 1280 85.143 418.08 463.073
2928 0 79.5332 12.5859 1001 93.4116 419.55 460.341
2929 0 78.2175 9.75486 763 95.574 420.667 463.32
2930 0 82.3916 11.9915 988 94.3755 420.658 461.515
2931 1 187.897 9.54244 1793 104.057 421.2 411.843
2932 1 89.3451 14.5951 1304 92.1074 420.544 455.325
2933 0 93.5417 12.016 1124 95.9724 420.227 444.664
2934 0 95.2859 11.5757 1103 100.099 420.84 451.249
2935 0 92.5965 12.3223 1141 101.338 423.127 447.913
2936 0 96.3032 13.1044 1262 98.9842 422.594 450.361
2937 0 101.246 9.05717 917 101.431 422.581 453.997
2938 0 102.496 12.6444 1296 98.7392 423.736 450.475
2939 0 100.391 11.1265 1117 102.354 423.743 442.322
2940 0 334.663 14.2262 4761 107.982 424.413 319.216
2941 1 110.593 16.8908 1868 94.6188 423.472 446.479
2942 0 111.23 13.6923 1523 99.1018 422.907 445.525
2943 0 115.161 14.1715 1632 99.5735 423.803 446.856
2944 0 115.215 14.6942 1693 99.6084 424.767 445.445
2945 0 121.3 12.5639 1524 102.081 425.552 443.113
2946 0 123.829 13.5267 1675 100.028 425.234 444.627
2947 1 77.3296 14.768 1142 95.0026 423.876 467.703
2948 0 80.1868 13.9549 1119 94.6041 423.827 462.646
2949 0 84.6467 19.8236 1678 88.758 424.079 464.022
2950 0 85.3356 10.8864 929 97.5178 424.186 462.582
2951 0 89.5996 19.7769 1772 88.2477 423.033 465.276
2952 0 87.3458 16.2 1415 92.87 422.809 460.611
2953 0 90.3448 21.7832 1968 85.9985 422.344 469.153
2954 0 96.9936 13.3205 1292 94.329 421.933 464.02
2955 0 94.2466 18.7911 1771 90.8662 421.585 452.108
2956 0 99.3412 17.6664 1755 91.6433 420.3 456.207
2957 0 97.1246 12.0773 1173 97.9923 419.927 456.297
2958 0 100.474 17.5568 1764 93.8265 419.463 452.718
2959 0 100.307 11.2256 1126 99.4352 419.024 458.321
2960 0 105.259 14.0225 1476 98.4004 417.994 454.133
2961 0 104.328 6.32618 660 107.55 417.935 453.203
2962 0 110.588 15.6165 1727 97.1471 417.993 444.766
2963 0 113.612 12.3226 1400 101.354 418.046 435.662
2964 0 113.435 17.7282 2011 95.8105 416.995 442.353
2965 0 117.278 12.5173 1468 100.51 417.15 445.009
2966 0 119.668 12.4427 1489 100.372 417.467 447.312
2967 0 125.386 16.5967 2081 97.6771 417.375 438.276
2968 0 128.583 19.0072 2444 95.2565 417.679 440.301
2969 1 188.637 12.4419 2347 106.559 417.223 404.444
2970 1 132.674 13.0998 1738 103.049 417.829 433.769
2971 0 135.366 13.1274 1777 103.566 418.068 428.295
2972 0 146.732 16.1247 2366 98.3935 419.635 436.719
2973 0 149.384 18.1211 2707 99.027 419.818 426.941
2974 0 154.6 18.1372 2804 100.725 419.481 413.602
2975 0 160.476 19.7725 3173 99.434 419.77 409.99
2976 0 162.528 13.7576 2236 106.048 421.224 417.167
2977 0 166.588 13.3803 2229 107.862 422.808 409.686
2978 0 166.532 14.1835 2362 108.062 421.01 400.936
2979 0 174.397 18.9797 3310 102.214 422.011 400.655
2980 0 180.513 15.528 2803 105.508 422.799 403.471
2981 0 189.264 22.7143 4299 98.5087 423.31 401.228
2982 0 191.444 14.6779 2810 107.686 424.425 400.156
2983 1 285.735 15.2344 4353 107.422 423.625 359.45
2984 1 202.529 19.4688 3943 102.419 424.741 396.064
2985 0 207.47 12.4596 2585 111.22 424.631 374.808
2986 0 215.779 18.4819 3988 102.171 425.044 400.75
2987 0 222.47 16.555 3683 106.6 424.718 388.598
2988 0 229.581 15.5632 3573 107.957 424.592 385.637
2989 0 237.35 16.5536 3929 105.203 425.033 390.076
2990 1 167.514 12.2557 2053 104.491 425.077 432.188
2991 0 173.652 15.0013 2605 104.045 424.896 413.775
2992 0 177.422 20.1159 3569 98.1093 424.726 420.718
2993 0 184.437 11.6951 2157 108.686 424.949 416.074
2994 0 189.546 18.7395 3552 101.151 424.06 414.29
2995 0 197.489 13.302 2627 108.451 423.834 403.955
2996 0 202.7 15.1948 3080 106.235 422.427 402.511
2997 1 159.346 13.8127 2201 106.3 422.662 436.321
2998 0 165.426 13.3716 2212 108.764 422.444 424.448
2999 0 172.4 15.1799 2617 106.263 421.946 427.263
3000 0 178.385 15.0349 2682 107.218 421.153 414.23
3001 0 182.375 15.6655 2857 107.244 420.836 411.904
3002 0 186.367 20.5455 3829 101.364 419.829 418.103
3003 1 251.651 19.4158 4886 104.894 419.312 384.659
3004 0 260.604 14.3129 3730 110.652 419.623 386.064
3005 0 270.168 12.9697 3504 113.027 417.546 382.321
3006 0 269.359 11.5051 3099 114.207 417.654 380.413
3007 0 353.992 19.6389 6952 107.236 417.122 306.403
3008 0 362.939 26.5306 9629 100.563 417.048 319.194
3009 0 377.482 19.8288 7485 107.066 416.621 292.345
3010 0 380.125 27.2411 10355 99.1386 416.464 296.273
3011 1 248.657 12.282 3054 111.225 416.32 367.021
3012 0 260.854 13.8967 3625 107.371 416.774 376.053
3013 0 268.987 15.7517 4237 103.815 416.819 380.609
3014 0 274.832 17.8946 4918 103.452 416.897 350.77
3015 1 66.1426 9.11666 603 100.197 415.58 470.045
3016 0 67.2262 10.9927 739 100.307 416.359 466.831
3017 0 69.3041 18.7435 1299 92.8029 418.54 465.229
3018 0 74.3479 10.7468 799 102.438 417.399 461.804
3019 0 72.227 14.4683 1045 99.0947 418.845 459.131
3020 0 75.2903 11.8076 889 102.238 418.461 461.251
3021 0 79.2267 15.5377 1231 98.3355 419.543 461.154
3022 0 78.1902 15.4239 1206 99.3093 420.501 460.006
3023 0 80.2301 15.655 1256 98.6338 420.553 457.682
3024 0 84.5002 17.8343 1507 93.9615 420.825 466.137
3025 0 84.3385 13.9912 1180 100.653 422.244 448.588
3026 0 83.2184 11.608 966 103.941 422.756 452.604
3027 0 89.166 24.2133 2159 89.8013 423.269 459.625
3028 0 91.4078 14.5283 1328 99.738 423.025 452.42
3029 0 96.19 17.7253 1705 95.0252 423.833 462.063
3030 0 93.2568 14.2081 1325 101.334 424.091 452.768
3031 0 94.2031 11.8149 1113 104.609 423.65 458.314
3032 0 99.1832 11.5745 1148 106.403 423.157 448.167
3033 0 102.156 11.551 1180 103.571 423.158 460.853
3034 0 106.347 14.7537 1569 101.906 424.152 449.215
3035 0 114.199 10.9108 1246 105.536 423.253 447.723
3036 0 116.709 9.97355 1164 105.847 422.937 454.596
3037 0 114.373 10.8855 1245 106.716 422.36 444.324
3038 0 124.37 13.8216 1719 98.8191 423.268 456.853
3039 0 127.418 16.6225 2118 98.9315 422.627 421.212
3040 0 136.393 13.9744 1906 98.9654 422.221 430.361
3041 1 74.1791 14.0336 1041 100.23 421.863 428.161
3042 0 79.4306 18.0157 1431 95.8113 420.942 423.831
3043 0 82.3239 16.0828 1324 98.1934 420.096 421.249
3044 0 84.3833 18.7596 1583 96.1699 419.176 419.253
3045 0 82.1272 20.2978 1667 95.7558 418.959 413.963
3046 0 93.5699 20.5515 1923 92.0671 418.509 425.506
3047 0 90.1326 16.4868 1486 96.817 418.752 426.75
3048 0 92.4478 18.1832 1681 96.7305 417.603 419.836
3049 0 92.1148 18.1513 1672 96.1519 416.856 426.593
3050 0 90.1746 13.0303 1175 104.436 416.748 418.504
3051 0 94.1182 21.473 2021 94.8422 417.124 421.1
3052 0 100.211 20.7162 2076 95.5867 416.865 420.387
3053 0 105.354 29.3296 3090 87.1472 416.35 431.294
3054 1 194.55 19.1827 3732 96.0557 416.373 388.384
3055 1 107.63 17.8946 1926 97.5462 416.062 421.528
3056 0 115.254 21.5785 2487 93.3828 416.381 426.697
3057 0 120.951 20.3223 2458 93.3129 417.483 432.176
3058 0 119.907 17.4636 2094 97.3902 417.006 430.386
3059 0 116.505 17.2953 2015 97.8531 417.426 439.879
3060 1 69.2054 18.8858 1307 93.8692 418.82 466.188
3061 0 69.1798 14.1804 981 97.2579 418.89 466.261
3062 0 69.1165 12.8623 889 98.7267 419.505 457.211
3063 0 75.1339 16.1445 1213 96.5334 418.532 458.594
3064 0 82.1618 15.4816 1272 94.2343 419.197 469.169
3065 0 85.0271 22.3223 1898 89.9378 419.458 456.187
3066 1 144.466 11.2829 1630 104.369 421.596 436.849
3067 0 144.557 14.3473 2074 102.406 420.509 432.202
3068 0 145.408 7.48928 1089 103.884 422.143 454.338
3069 1 92.5282 19.9074 1842 92.4549 421.623 460.045
3070 0 91.2909 11.4031 1041 103.734 423.144 452.394
3071 0 98.0465 16.3086 1599 95.561 423.355 459.932
3072 0 101.642 15.6136 1587 94.9899 423.446 457.515
3073 0 102.211 19.4989 1993 91.1606 422.159 461.543
3074 0 106.247 16.9793 1804 94.7084 422.894 455.268
3075 0 109.503 14.3923 1576 97.8541 421.742 451.263
3076 0 112.334 13.7359 1543 97.5392 421.954 452.972
3077 0 118.271 11.2454 1330 97.9398 423.052 455.153
3078 0 123.313 12.0263 1483 95.8436 423.344 457.569
3079 0 129.703 15.6974 2036 93.1719 422.344 450.658
3080 1 74.0689 12.9744 961 90.9136 422.288 482.482
3081 0 77.1646 10.1342 782 96.8453 420.928 475.179
3082 0 78.1069 14.8386 1159 88.5315 421.536 474.042
3083 0 78.2802 15.815 1238 91.1131 421.001 478.626
3084 0 82.1533 15.0329 1235 92.2105 421.361 468.244
3085 0 82.1027 12.8985 1059 94.9169 420.801 468.035
3086 0 86.2329 10.7152 924 97.8041 419.89 472.368
3087 0 87.3072 8.73925 763 100.429 419.414 468.579
3088 0 89.1245 14.7322 1313 94.4768 419.657 469.047
3089 0 94.2729 12.2835 1158 96.0803 419.043 468.173
3090 0 100.201 13.6026 1363 94.9861 417.978 464.709
3091 0 99.2381 16.6267 1650 92.0382 417.886 465.587
3092 0 106.445 14.524 1546 94.7561 417.01 460.496
3093 0 106.28 15.8167 1681 93.6454 416.394 456.481
3094 0 109.589 17.0455 1868 92.9309 416.584 454.039
3095 0 111.592 19.1322 2135 91.3461 416.259 452.757
3096 0 116.651 13.9475 1627 94.7836 416.374 450.484
3097 0 123.451 12.7257 1571 97.5035 417.029 450.822
3098 0 126.508 15.6987 1986 95.355 416.423 437.147
3099 0 131.288 13.139 1725 97.8006 417.112 438.723
3100 0 138.574 13.841 1918 96.0954 417.183 440.27
3101 1 76.2267 21.869 1667 87.0978 417.053 471.783
3102 0 80.195 13.3175 1068 96.161 416.422 465.253
3103 0 84.1979 12.6725 1067 95.776 416.506 467.292
3104 0 84.2076 13.0036 1095 96.2539 417.515 465.147
3105 0 86.2972 13.3608 1153 96.8829 418.858 453.596
3106 1 168.258 11.2744 1897 99.2441 419.724 428.685
3107 0 172.453 17.686 3050 94.5207 419.591 425.817
3108 1 185.156 9.66753 1790 98.1302 420.044 444.155
3109 0 180.592 8.01251 1447 103.985 421.346 418.192
3110 0 190.845 14.8969 2843 96.8234 420.712 416.075
3111 0 198.963 15.8975 3163 97.6655 421.032 411.62
3112 0 205.652 16.0319 3297 99.0246 422.722 403.744
3113 1 112.686 11.1194 1253 98.5962 422.782 457.933
3114 0 114.615 15.2423 1747 96.1534 422.721 450.404
3115 0 125.347 14.4798 1815 95.5686 421.731 457.758
3116 0 124.33 12.2094 1518 100.358 422.886 446.645
3117 1 74.6621 23.0371 1720 84.5634 422.866 477.719
3118 0 76.2413 17.0511 1300 89.6792 423.085 475.753
3119 0 73.137 10.5555 772 95.0492 422.509 480.063
3120 0 73.2611 13.9228 1020 92.8294 422.511 472.899
3121 0 80.1788 13.2454 1062 95.3286 422.729 463.347
3122 0 77.4899 11.808 915 97.2186 421.546 464.352
3123 0 80.1746 10.4522 838 97.3282 421.14 471.193
3124 0 84.3393 18.6153 1570 91.8586 420.443 464.364
3125 0 84.423 9.53532 805 100.676 421.342 466.774
3126 0 83.4061 9.75948 814 101.431 420.059 465.604
3127 0 95.5559 11.543 1103 99.019 419.897 466.572
3128 0 92.2435 10.082 930 102.642 418.727 462.065
3129 0 94.2062 15.4873 1459 97.6436 417.88 461.899
3130 0 101.315 17.7861 1802 94.4506 417.381 455.552
3131 0 99.2896 15.9231 1581 98.0721 416.636 458.858
3132 0 107.327 17.6097 1890 95.3291 417.421 465.33
3133 0 107.545 17.3694 1868 97.6188 416.492 458.874
3134 0 112.812 20.3524 2296 94.1354 415.589 458.284
3135 0 112.687 11.2258 1265 102.871 416.333 461.255
3136 0 117.648 15.4614 1819 100.637 416.262 446.404
3137 0 117.421 12.4083 1457 103.608 416.417 447.699
3138 0 125.579 18.761 2356 94.3659 415.575 454.804
3139 0 127.574 12.0479 1537 99.9297 416.366 458.319
3140 0 124.347 11.2829 1403 100.658 416.652 459.401
3141 0 124.587 8.95761 1116 98.4866 416.769 469.104
3142 1 213.826 17.4114 3723 99.6328 417.567 405.61
3143 0 283.041 12.9911 3677 104.621 416.395 378.535
3144 1 226.117 19.7774 4472 99.4911 418.04 385.978
3145 0 236.434 16.4443 3888 102.085 417.178 387.432
3146 0 236.434 16.3048 3855 147.501 417.177 387.154
3147 0 235.815 14.6682 3459 95.8933 417.495 426.146
3148 1 177.573 16.3989 2912 99.3712 418.312 422.464
3149 0 184.454 17.2238 3177 95.1325 418.658 434.442
3150 0 192.58 9.04557 1742 106.799 419.459 416.687
3151 0 194.411 16.0331 3117 100.147 418.859 409.556
3152 0 206.763 17.1259 3541 97.2067 419.775 415.876
3153 1 110.287 17.5814 1939 96.1619 420.551 447.089
3154 0 113.599 17.8346 2026 96.3327 420.92 444.549
3155 0 119.174 18.5694 2213 95.8712 421.119 442.084
3156 0 123.466 12.4892 1542 101.331 421.099 443.838
3157 0 125.148 15.198 1902 99.7003 420.494 439.898
3158 0 132.429 15.5404 2058 100.653 421.07 439.947
3159 0 136.405 18.3351 2501 96.2171 421.84 443.525
3160 1 78.3164 13.2922 1041 99.366 421.774 469.014
3161 0 76.1655 15.6633 1193 100.392 421.689 466.453
3162 0 78.3494 14.9714 1173 98.8167 421.615 471.824
3163 0 83.3335 16.668 1389 100.22 422.282 463.929
3164 0 87.1893 12.6048 1099 103.684 421.43 467.47
3165 0 89.2324 21.4048 1910 95.4623 420.756 468.366
3166 0 92.156 15.0072 1383 100.884 420.445 471.306
3167 0 89.1984 15.359 1370 102.709 420.823 468.44
3168 0 95.1638 16.1721 1539 101.173 420.012 469.863
3169 0 98.2458 12.0005 1179 107.195 420.722 466.039
3170 0 104.558 22.1217 2313 96.4583 419.628 461.537
3171 0 104.213 20.4965 2136 98.0094 417.823 463.74
3172 0 110.175 19.9863 2202 99.6076 417.655 453.086
3173 0 111.11 11.0612 1229 111.555 417.318 458.635
3174 0 115.581 17.8402 2062 102.505 416.587 452.258
3175 0 112.175 18.0076 2020 104.146 415.48 448.032
3176 0 119.185 14.1545 1687 108.132 414.306 442.708
3177 0 119.557 11.8521 1417 111.262 416.125 446.471
3178 0 128.481 16.555 2127 105.724 415.148 441.828
3179 0 132.807 15.3908 2044 107.952 416.07 437.436
3180 0 134.617 11.5365 1553 112.989 415.341 433.604
3181 0 139.393 15.2806 2130 109.238 415.563 424.237
3182 0 147.376 15.7556 2322 105.172 415.151 436.171
3183 0 152.65 15.8664 2422 105.729 414.85 429.655
3184 0 156.557 14.3398 2245 109.375 415.746 416.913
3185 0 167.557 15.6782 2627 103.884 415.453 427.815
3186 0 170.546 16.6173 2834 105.022 415.876 415.531
3187 0 169.507 15.3386 2600 108.085 415.758 410.905
3188 0 177.381 16.7042 2963 108.083 415.276 402.057
3189 0 182.452 13.3899 2443 112.263 416.578 400.913
3190 0 190.645 13.4648 2567 111.813 417.308 401.893
3191 0 194.337 16.9551 3295 108.991 417.548 391.396
3192 0 204.363 16.9992 3474 108.282 418.128 395.304
3193 0 211.32 18.1762 3841 108.168 417.653 388.381
3194 0 220.538 17.7157 3907 107.644 419.855 395.331
3195 0 221.551 14.254 3158 112.229 419.61 399.521
3196 0 214.426 11.6171 2491 118.101 420.627 390.558
3197 0 219.427 10.9467 2402 114.406 420.417 407.232
3198 1 56.2149 9.53484 536 108.188 420.252 464.683
3199 0 63.2375 15.3074 968 98.6777 419.978 469.915
3200 0 63.0448 15.1797 957 98.8819 420.934 475.437
3201 0 68.2094 17.4023 1187 96.3008 420.424 474.092
3202 0 71.254 12.6309 900 100.608 420.078 475.64
3203 0 58.1622 6.58503 383 114.407 420.102 460.12
3204 0 75.8695 11.8757 901 103.699 421.214 471.416
3205 0 74.0943 13.7258 1017 102.374 420.369 469.403
3206 0 77.0917 10.6497 821 107.521 420.892 463.419
3207 0 81.1486 16.7964 1363 99.0976 419.682 468.395
3208 0 69.2406 8.36214 579 113.558 420.299 463.142
3209 1 81.2753 10.7044 870 107.929 419.109 459.368
3210 0 86.1285 10.3798 894 108.294 418.862 458.922
3211 0 86.2113 12.3882 1068 107.153 418.854 456.465
3212 0 93.255 14.9054 1390 103.248 418.828 457.015
3213 0 89.4186 13.722 1227 104.695 419.068 458.836
3214 0 94.339 10.9605 1034 108.579 418.74 457.919
3215 0 97.7858 16.2396 1588 100.54 418.004 462.074
3216 0 98.4505 18.9537 1866 101.024 417.676 448.003
3217 0 104.404 12.2313 1277 109.826 417.648 445.33
3218 0 108.251 13.4502 1456 108.315 416.832 448.05
3219 0 108.251 13.4872 1460 133.692 414.833 448.359
3220 0 176.631 14.1142 2493 110.799 415.911 418.038
3221 0 169.633 11.4836 1948 113.653 416.52 424.904
3222 0 164.605 10.7834 1775 114.283 415.558 427.731
3223 0 164.587 10.1649 1673 142.64 414.555 430.424
3224 1 73.138 10.7195 784 107.033 413.763 470.346
3225 0 78.2464 11.7322 918 105.453 415.495 471.841
3226 0 77.2768 10.1583 785 108.78 415.541 465.102
3227 0 78.1957 16.2925 1274 101.972 416.257 461.374
3228 0 84.2287 11.9674 1008 106.664 416.155 456.419
3229 1 174.461 10.5353 1838 112.476 416.798 422.844
3230 0 180.31 10.8702 1960 113.926 415.721 410.69
3231 1 99.4474 17.6777 1758 97.818 417.436 446.72
3232 0 103.478 20.0042 2070 95.4696 417.268 441.281
3233 0 93.2958 24.1383 2252 94.8544 416.72 435.072
3234 0 95.3702 12.0478 1149 109.182 417.616 438.823
3235 0 99.2272 10.5616 1048 112.017 417.968 441.752
3236 0 100.301 8.26513 829 113.49 418.786 442.439
3237 0 103.257 17.1805 1774 103.344 419.522 436.48
3238 0 99.3447 11.1531 1108 113.374 418.537 430.971
3239 1 216.194 12.9189 2793 116.627 419.445 389.145
3240 0 211.004 9.16096 1933 120.02 419.882 398.838
3241 0 206.842 10.3026 2131 116.596 421.402 408.374
3242 1 126.037 16.6697 2101 104.362 421.159 432.504
3243 0 123.451 10.3847 1282 116.236 421.323 423.178
3244 0 127.324 15.0247 1913 109.536 421.801 426.104
3245 0 135.572 13.0041 1763 108.846 421.746 432.381
3246 0 137.556 12.2641 1687 111.99 421.828 424.174
3247 0 139.349 13.7066 1910 110.267 420.828 422.254
3248 0 146.416 8.82419 1292 117.101 421.659 409.646
3249 1 88.3594 10.6157 938 106.805 421.517 447.493
3250 0 82.1575 9.11664 749 111.075 420.581 441.506
3251 0 99.3044 15.528 1542 99.6984 423.097 450.622
3252 0 97.1506 9.40807 914 109.148 420.999 445.044
3253 0 106.281 10.6604 1133 105.874 422.585 450.515
3254 0 108.226 12.1043 1310 102.092 421.644 459.198
3255 0 110.361 18.2401 2013 96.2876 420.233 443.715
3256 0 115.373 15.2636 1761 98.3032 420.1 450.777
3257 0 114.207 12.4861 1426 103.612 419.69 442.114
3258 0 118.305 13.5244 1600 101.082 418.954 444.638
3259 0 112.213 10.186 1143 107.933 418.858 431.239
3260 0 120.633 16.919 2041 96.805 418.342 445.523
3261 0 124.492 13.7037 1706 103.49 419.201 429.652
3262 0 126.506 13.0033 1645 104.982 419.06 418.962
3263 1 138.486 14.0159 1941 101.807 417.953 433.975
3264 0 139.13 15.2951 2128 102.619 417.298 417.952
3265 0 138.459 12.6246 1748 106.693 417.311 415.261
3266 0 146.561 10.8897 1596 107.794 415.898 411.058
3267 0 152.099 16.8838 2568 100.023 417.344 414.48
3268 1 165.69 11.5034 1906 105.28 416.553 410.349
3269 0 165.851 12.4087 2058 104.442 416.811 405.507
3270 0 171.626 16.7865 2881 99.2124 417.628 409.19
3271 0 175.383 15.5887 2734 101.526 417.637 390.304
3272 0 181.257 11.1334 2018 103.914 417.919 399.948
3273 0 188.727 10.343 1952 105.572 418.256 399.353
3274 0 197.676 5.06891 1002 107.147 417.096 420.353
3275 0 198.615 12.6728 2517 103.512 417.26 388.232
3276 0 204.567 15.7894 3230 100.476 418.67 380.719
3277 1 223.595 7.22734 1616 105.671 419.112 398.976
3278 1 52.1085 3.24323 169 98.3314 420.432 464.237
3279 0 57.4125 7.66383 440 99.1114 419.409 466.882
3280 0 58.1585 8.02978 467 99.1863 421.623 468.263
3281 0 58.1585 8.16734 475 138.619 423.642 468.326
3282 0 65.6187 9.90571 650 91.7646 422.034 470.775
3283 0 63.0937 10.5082 663 92.5943 422.181 467.7
3284 0 68.3147 10.1735 695 92.9237 423.852 467.528
3285 0 68.0954 19.0762 1299 85.2579 422.906 468.864
3286 0 71.0518 17.5224 1245 87.4016 423.902 466.409
3287 0 75.6006 13.1613 995 89.6613 424.167 470.669
3288 0 70.1341 10.7081 751 95.6032 424.955 467.86
3289 0 79.3413 12.8811 1022 92.9589 424.226 469.983
3290 0 78.4465 9.79011 768 99.5938 424.764 464.057
3291 0 80.9538 11.2533 911 96.2656 425.015 470.369
3292 0 83.2669 14.2313 1185 95.1249 423.75 461.611
3293 0 80.3162 10.1598 816 102.428 424.489 462.87
3294 0 84.2313 13.4748 1135 97.8476 424.303 459.556
3295 0 85.3015 12.11 1033 100.185 424.081 455.028
3296 0 87.1682 12.7914 1115 99.3094 424.132 459.428
3297 0 91.3035 13.9863 1277 97.2052 423.84 460.709
3298 0 94.3592 13.2261 1248 98.2099 424.436 459.272
3299 0 97.5955 13.9863 1365 97.4769 423.158 452.106
3300 0 106.263 15.2264 1618 94.8986 421.881 454.246
3301 0 102.306 19.1093 1955 92.4292 420.973 447.052
3302 0 107.444 14.6681 1576 96.2602 421.628 445.309
3303 0 110.498 21.0592 2327 89.9205 420.075 447.398
3304 0 114.497 15.1795 1738 94.3096 420.189 451.453
3305 1 68.1893 11.1748 762 98.2507 419.398 463.627
3306 0 69.1454 19.0757 1319 87.2881 419.371 474.82
3307 0 72.3358 10.9628 793 98.1425 419.354 464.097
3308 0 76.161 11.3575 865 98.0983 418.798 463.891
3309 0 75.3148 11.9764 902 96.2517 419.266 457.751
3310 0 87.7711 26.8425 2356 81.9542 418.311 454.531
3311 1 168.607 13.9555 2353 93.2393 419.336 419.371
3312 0 173.284 11.6053 2011 96.0666 418.587 413.498
3313 0 180.725 12.2672 2217 94.3915 419.387 422.699
3314 1 225.773 18.0181 4068 90.3692 419.669 403.648
3315 1 175.625 20.5951 3617 87.8637 419.765 417.811
3316 0 177.377 24.462 4339 85.9571 419.665 417.222
3317 1 101.505 13.8614 1407 92.9069 421.149 433.474
3318 0 97.1155 15.6 1515 92.6805 420.614 431.057
3319 0 101.426 18.0722 1833 88.9482 421.028 433.722
3320 0 105.25 21.7102 2285 87.1414 420.19 426.088
3321 0 107.302 15.9177 1708 93.404 422.023 423.139
3322 0 104.273 11.796 1230 98.735 422.914 419.539
3323 0 112.343 17.3665 1951 92.6269 423.172 418.323
3324 0 113.746 17.3018 1968 92.2439 423.713 425.19
3325 0 117.743 15.3385 1806 93.0947 424.632 422.875
3326 0 118.341 11.0021 1302 99.374 425.156 418.484
3327 0 121.412 20.1381 2445 91.9296 425.582 413.99
3328 0 125.224 17.4726 2188 94.8149 424.831 408.372
3329 0 128.272 14.3133 1836 97.9788 425.209 414.98
3330 0 132.414 13.7222 1817 96.6478 425.395 424.733
3331 0 137.339 12.2544 1683 98.5662 424.967 425.951
3332 1 78.1614 13.5873 1062 90.0122 426.209 459.312
3333 0 82.2666 9.09239 748 96.3249 424.727 454.155
3334 0 89.248 14.1404 1262 92.7591 425.224 452.987
3335 0 91.368 16.056 1467 91.9905 423.815 449.089
3336 0 91.2632 11.4723 1047 97.3849 425.109 449.87
3337 0 98.4613 15.1735 1494 93.1513 423.523 451.023
3338 0 99.4851 12.1526 1209 97.4342 422.935 441.076
3339 0 104.361 14.124 1474 94.6391 422.128 453.405
3340 0 106.444 23.3738 2488 87.367 423.458 451.34
3341 0 111.434 18.0645 2013 90.4029 423.517 454.499
3342 0 108.274 12.4222 1345 97.8744 422.58 449.445
3343 0 116.389 10.5852 1232 101.051 422.644 440.718
3344 0 121.078 17.6167 2133 93.2494 421.956 442.09
3345 0 120.581 12.4979 1507 99.418 421.567 437.624
3346 0 124.609 11.9735 1492 98.4497 419.897 444.237
3347 0 124.336 13.4636 1674 99.3542 419.018 433.756
3348 0 134.709 14.0971 1899 98.1085 419.193 434.953
3349 0 141.01 19.8922 2805 91.6068 420.179 428.467
3350 0 142.568 15.4874 2208 94.7246 418.933 432.617
3351 1 205.72 15.4191 3172 99.7062 418.486 391.038
3352 0 213.736 13.9284 2977 100.705 418.183 398.534
3353 1 153.625 11.0789 1702 102.476 418.965 412.537
3354 0 160.488 16.1383 2590 96.0934 418.848 419.251
3355 0 164.646 14.6861 2418 97.8912 417.922 412.581
3356 1 95.2516 8.61928 821 98.0475 418.482 443.65
3357 0 97.1648 7.08076 688 99.6773 420.074 447.459
3358 0 102.172 9.8461 1006 98.6183 421.1 434.707
3359 0 104.351 11.9501 1247 94.9864 420.443 447.601
3360 0 109.409 17.1284 1874 91.3879 420.205 444.815
3361 0 112.489 14.3658 1616 94.2791 420.58 440.186
3362 0 112.254 10.6098 1191 100.002 420.787 434.215
3363 0 120.351 14.4245 1736 96.1279 421.772 433.307
3364 0 123.808 12.4951 1547 96.5785 421.807 441.27
3365 0 125.489 25.5401 3205 88.015 421.999 432.212
3366 0 133.093 16.0865 2141 95.0743 423.702 436.431
3367 0 133.719 11.3223 1514 102.993 423.953 418.535
3368 0 135.369 13.8732 1878 98.9201 423.562 430.56
3369 0 139.55 9.30132 1298 107.202 424.495 413.589
3370 0 145.534 11.207 1631 105.726 424.8 417.225
3371 0 149.678 14.8118 2217 101.938 424.266 410.992
3372 1 229.774 11.0326 2535 108.962 425.462 394.073
3373 1 159.549 14.9484 2385 102.858 424.201 410.507
3374 1 97.2315 10.8607 1056 100.715 423.755 448.033
3375 0 99.2867 9.71933 965 100.605 424.825 452.664
3376 0 100.457 12.7318 1279 99.8225 424.987 444.284
3377 0 105.663 11.7639 1243 102.43 425.239 445.241
3378 0 109.923 11.9357 1312 99.939 424.787 452.171
3379 0 113.541 13.4136 1523 101.631 425.092 440.172
3380 0 112.86 12.7238 1436 103.766 424.95 440.48
3381 0 120.915 13.985 1691 101.049 425.533 439.254
3382 0 122.937 17.5781 2161 98.3628 423.993 439.658
3383 0 124.872 12.0363 1503 105.281 424.609 439.232
3384 0 129.514 14.8324 1921 103.597 423.223 435.925
3385 0 133.621 21.7182 2902 96.2702 423.469 433.316
3386 0 133.922 13.1719 1764 105.73 423.971 431.799
3387 0 140.521 14.005 1968 105.357 421.683 426.347
3388 0 145.783 11.7984 1720 108.278 422.294 426.611
3389 1 82.2354 11.9413 982 104.05 421.141 456.618
3390 0 84.2772 13.4081 1130 102.358 419.453 457.429
3391 0 88.3059 15.6615 1383 99.5625 418.383 455.658
3392 0 90.2552 13.3289 1203 101.993 419.16 454.874
3393 0 90.1877 13.3167 1201 102.49 417.5 450.847
3394 0 97.1793 14.7562 1434 99.9602 418.454 448.374
3395 0 99.2884 22.6915 2253 91.9152 418.004 445.052
3396 0 97.2436 12.371 1203 104.412 418.361 433.487
3397 0 103.325 15.1463 1565 99.915 418.889 442.482
3398 0 111.237 25.1984 2803 90.6222 419.131 437.015
3399 0 112.633 16.6203 1872 99.3884 419.381 429.55
3400 0 115.293 14.3547 1655 101.298 418.847 431.408
3401 0 118.18 16.4749 1947 98.3832 419.146 435.162
3402 0 118.493 13.4692 1596 103.536 418.149 423.544
3403 0 132.022 16.9669 2240 96.0938 419.589 436.716
3404 1 60.1492 11.8705 714 95.3431 420.036 466.185
3405 0 60.1116 13.1921 793 93.7428 419.757 464.671
3406 0 63.3536 12.8327 813 93.8856 419.311 460.129
3407 0 61.1499 12.1014 740 96.5405 420.764 458.057
3408 0 64.1675 10.1765 653 98.6968 421.283 455.032
3409 0 65.1442 15.1663 988 93.1215 421.422 458.332
3410 0 69.2269 11.3106 783 97.9617 422.096 453.457
3411 0 71.676 14.6074 1047 93.6275 422.377 455.217
3412 0 73.1398 13.8092 1010 94.8574 422.005 456.454
3413 0 73.1455 12.3726 905 99.1282 423.543 443.545
3414 0 75.1335 10.8474 815 101.445 424.59 442.292
3415 0 78.1053 14.7109 1149 97.215 424.889 443.916
3416 0 79.0975 19.1156 1512 92.7354 425.218 450.089
3417 0 79.4113 11.5223 915 99.8295 425.416 450.328
3418 0 76.1661 8.59962 655 106.461 424.976 448.87
3419 0 83.165 11.5914 964 103.561 426.155 451.631
3420 0 86.304 14.391 1242 100.378 425.538 451.877
3421 0 89.1506 12.047 1074 103.672 425.477 452.304
3422 0 96.5583 17.3367 1674 95.905 425.211 454.077
3423 0 91.2305 13.4604 1228 104.486 424.988 444.515
3424 0 99.1948 15.7266 1560 100.557 425.121 449.726
3425 0 101.336 14.3384 1453 103.194 423.739 443.562
3426 0 103.467 12.2938 1272 105.808 423.21 447.888
3427 0 107.392 17.1056 1837 100.103 422.991 441.974
3428 0 112.744 16.3823 1847 100.833 423.133 443.866
3429 0 114.329 14.6419 1674 104.283 421.487 435.673
3430 1 64.1077 12.7286 816 103.037 421.408 460.98
3431 0 67.1944 6.66723 448 111.837 420.556 459.987
3432 0 65.1448 9.80891 639 108.462 420.797 457.269
3433 0 75.2333 13.2521 997 100.651 420.62 463.11
3434 0 79.1968 11.503 911 101.928 419.538 461.799
3435 0 78.3265 15.3588 1203 97.2186 419.107 463.598
3436 0 77.1321 12.3943 956 102.853 419.985 453.907
3437 0 83.2656 12.7544 1062 101.878 418.792 454.11
3438 0 85.2233 14.1511 1206 99.1683 418.71 451.842
3439 0 87.1238 11.719 1021 101.561 419.455 453.708
3440 0 93.2253 14.2343 1327 97.8515 419.447 451.43
3441 0 90.302 9.47931 856 104.673 420.194 449.478
3442 0 89.2395 12.3264 1100 101.928 418.82 436.242
3443 0 89.2532 12.1788 1087 102.279 418.78 438.632
3444 1 1 5 5 92.4 419.8 478.8
3445 0 11.0014 8.1808 90 84.3667 418.689 482.3
3446 1 95.5809 10.3368 988 107.047 420.321 432.999
3447 0 105.329 17.8869 1884 96.0207 420.517 433.916
3448 0 104.545 10.4452 1092 106.618 420.659 429.26
3449 0 101.436 11.2288 1139 105.056 422.274 430.015
3450 0 109.228 8.9812 981 102.385 420.736 442.747
3451 0 112.277 13.5825 1525 102.251 421.72 426.903
3452 0 114.316 10.9696 1254 105.385 421.928 422.537
3453 1 72.1258 14.2529 1028 97.4883 423.451 446.946
3454 0 78.2078 15.4972 1212 95.4158 424.05 447.047
3455 0 77.1151 7.5342 581 104.582 422.744 448.368
3456 0 73.0803 11.7952 862 99.2227 423.124 443.325
3457 1 85.0656 11.4382 973 102.581 422.974 451.368
3458 0 82.2022 8.55208 703 109.471 423.616 441.508
3459 0 77.3318 9.19415 711 110.706 424.533 441.64
3460 1 94.2392 17.4025 1640 96.6555 424.504 450.434
3461 0 99.5049 15.7078 1563 97.8938 423.841 448.848
3462 0 100.207 14.6597 1469 100.034 423.925 446.332
3463 0 100.159 11.8911 1191 102.193 424.163 459.198
3464 0 104.236 11.5891 1208 105.44 423.822 446.605
3465 0 105.381 16.3598 1724 98.4768 423.158 447.128
3466 0 110.199 12.6499 1394 103.613 424.301 446.378
3467 0 111.414 12.8889 1436 101.831 422.744 453.953
3468 0 114.628 12.798 1467 104.312 424.449 446.928
3469 0 120.213 13.368 1607 103.612 422.241 437.945
3470 0 124.144 14.2898 1774 101.355 422.613 447.602
3471 0 128.432 16.6236 2135 99.4052 422.658 446.212
3472 0 134.311 13.5432 1819 103.578 421.283 439.284
3473 0 133.354 10.4234 1390 108.254 421.072 439.264
3474 0 140.419 12.7618 1792 104.222 420.639 440.829
3475 0 145.676 22.5089 3279 94.194 419.564 434.529
3476 0 148.481 13.005 1931 105.595 419.987 427.655
3477 0 158.437 15.6213 2475 101.45 419.018 432.067
3478 0 156.501 11.3034 1769 109.142 417.994 419.221
3479 0 163.58 13.9137 2276 103.838 418.978 420.3
3480 0 169.304 15.0498 2548 102.361 418.421 421.086
3481 0 171.459 10.7956 1851 106.757 418.137 409.612
3482 1 100.345 13.8123 1386 96.7128 417.648 440.494
3483 0 106.299 16.7923 1785 91.8644 417.837 452.765
3484 0 107.375 12.6472 1358 98.5412 417.773 440.088
3485 0 110.154 9.55932 1053 101.67 416.852 443.507
3486 0 114.177 14.0484 1604 95.3117 418.141 449.023
3487 0 117.534 8.9506 1052 101.131 418.926 442.041
3488 0 122.841 12.7319 1564 100.196 419.19 431.982
3489 0 126.499 14.5456 1840 97.6761 419.527 435.999
3490 0 130.516 19.3769 2529 93.3725 418.498 434.538
3491 0 131.394 11.9488 1570 102.611 418.473 428.566
3492 0 128.116 13.2458 1697 100.574 419.245 427.562
3493 1 137.258 10.3455 1420 105.704 418.74 430.809
3494 0 145.257 12.199 1772 103.456 420.499 432.97
3495 1 85.2346 10.8407 924 100.887 420.307 458.569
3496 0 89.3511 13.2175 1181 99.6732 420.449 458.67
3497 0 88.257 13.2681 1171 102.319 419.902 448.023
3498 0 93.436 14.2879 1335 100.736 421.47 445.096
3499 0 94.2041 19.479 1835 94.6877 421.688 453.915
3500 0 98.1943 14.0843 1383 102.897 423.061 449.619
3501 0 99.2668 10.8798 1080 105.703 422.569 453.342
3502 0 101.351 12.5997 1277 104.812 423.344 448.063
3503 0 107.38 13.075 1404 102.979 423.195 446.853
3504 0 112.468 15.0532 1693 101.183 423.224 440.904
3505 0 113.364 12.0762 1369 105.715 422.505 436.464
3506 0 122.898 14.0848 1731 102.382 422.738 443.068
3507 0 120.361 19.6492 2365 96.3205 423.022 449.285
3508 0 115.625 11.84 1369 107.754 422.75 445.839
3509 0 124.364 13.9671 1737 105.735 422.889 444.635
3510 0 129.295 12.7538 1649 107.686 423.142 445.676
3511 0 134.26 13.9357 1871 105.559 423.475 445.951
3512 0 138.438 15.2992 2118 103.377 423.126 444.633
3513 0 143.732 14.2209 2044 105.155 422.552 438.666
3514 0 146.496 13.5021 1978 104.251 421.798 439.799
3515 0 153.622 14.9328 2294 102.156 420.148 442.638
3516 0 156.507 15.5201 2429 103.534 420.413 426.814
3517 0 162.372 14.67 2382 105.561 419.555 429.181
3518 1 90.2787 13.1593 1188 105.678 418.744 464.797
3519 0 92.2 12.679 1169 102.941 419.343 458.021
3520 0 97.3426 13.8069 1344 102.321 419.651 455.225
3521 0 96.11 10.4672 1006 109.188 418.792 441.594
3522 0 102.211 13.071 1336 103.942 418.427 448.846
3523 0 107.195 20.2155 2167 95.0577 416.786 453.167
3524 0 107.137 12.0966 1296 105.424 418.268 450.434
3525 0 111.15 14.0441 1561 103.659 418.299 445.747
3526 0 115.44 14.3104 1652 102.238 417.291 442.735
3527 0 122.255 11.8196 1445 105.844 416.695 434.486
3528 0 123.363 14.6722 1810 101.427 417.543 439.61
3529 0 124.218 13.1623 1635 102.287 417.015 443.434
3530 0 127.163 10.6163 1350 111.227 416.961 441.473
3531 1 73.2303 9.81834 719 105.862 416.745 466.761
3532 0 79.1814 14.3089 1133 100.301 417.62 468.628
3533 0 78.2316 14.6872 1149 101.044 416.976 466.228
3534 0 78.2529 12.9196 1011 105.887 418.991 459.547
3535 0 83.2422 16.2177 1350 99.7911 418.039 461.671
3536 0 84.2229 16.6344 1401 98.8087 418.622 464.43
3537 0 86.2576 12.6713 1093 105.233 418.661 454.453
3538 0 89.4146 14.0469 1256 102.861 419.213 454.834
3539 0 92.3825 17.2435 1593 99.8292 420.859 452.621
3540 0 95.2378 12.054 1148 105.15 420.704 454.843
3541 0 98.3587 19.8661 1954 96.9718 420.765 447.838
3542 0 101.161 14.0271 1419 105.118 421.658 433.674
3543 0 102.235 12.618 1290 107.763 422.476 427.092
3544 0 107.336 16.7884 1802 101.57 422.726 410.745
3545 0 107.231 14.5108 1556 105.248 423.29 414.274
3546 0 112.265 15.1784 1704 102.697 423.327 423.175
3547 0 114.314 14.6264 1672 105.83 421.895 423.893
3548 0 118.366 16.3899 1940 103.284 423.428 432.664
3549 0 117.413 9.72636 1142 113.385 422.601 438.514
3550 0 125.445 13.3046 1669 105.814 422.612 434.871
3551 0 128.653 14.1854 1825 104.559 422.249 437.863
3552 1 68.4592 9.99136 684 103.339 422.69 465.107
3553 0 75.5335 11.0017 831 100.288 422.096 466.679
3554 0 75.2407 12.0812 909 100.721 421.356 461.449
3555 0 81.4092 23.7934 1937 87.5245 421.252 466.759
3556 0 82.1713 11.0744 910 100.279 420.353 468.882
3557 0 85.0978 14.407 1226 97.9829 421.023 454.729
3558 0 86.2501 11.4898 991 100.302 420.473 458.072
3559 0 91.3195 13.5787 1240 98.6468 420.227 457.804
3560 0 93.3194 10.9516 1022 101.338 419.863 459.65
3561 0 97.232 15.5299 1510 96.698 419.301 459.578
3562 0 99.4159 15.6414 1555 96.2373 418.659 463.332
3563 0 103.378 13.0008 1344 99.9129 417.998 458.86
3564 0 109.329 21.9063 2395 90.4898 417.158 462.652
3565 0 107.282 11.7727 1263 102.732 418.113 457.621
3566 0 117.396 20.5203 2409 92.3155 417.797 453.11
3567 0 113.282 13.5768 1538 100.804 417.599 452.856
3568 0 119.427 15.1892 1814 98.9614 417.777 444.168
3569 0 119.446 13.6379 1629 102.79 417.118 440.765
3570 0 124.317 15.1467 1883 99.1752 416.767 444.56
3571 0 128.271 13.0038 1668 101.363 416.211 443.892
3572 0 130.544 11.6436 1520 104.631 415.466 434.207
3573 0 136.397 13.5413 1847 101.61 415.424 435.667
3574 0 142.445 15.0303 2141 99.5479 415.192 433.192
3575 0 140.838 14.0374 1977 102.673 416.835 429.407
3576 0 151.026 16.0833 2429 99.5228 417.474 420.679
3577 1 89.5035 15.5078 1388 93.2118 416.581 455.818
3578 0 91.4632 10.6382 973 99.0812 417.508 445.949
3579 0 93.2966 10.6006 989 97.5642 417.571 456.711
3580 0 97.1904 14.5282 1412 95.5014 418.426 453.084
3581 0 102.144 10.5831 1081 99.1489 418.781 447.235
3582 0 97.3897 14.3855 1401 97.227 419.72 449.402
3583 0 98.498 13.2592 1306 98.2443 419.851 454.494
3584 0 101.228 11.3605 1150 102.316 421.443 452.528
3585 0 102.203 9.11913 932 105.884 421.734 446.304
3586 0 107.644 13.1731 1418 101.027 422.453 448.176
3587 0 108.221 8.2239 890 107.62 422.579 446.508
3588 0 117.646 14.8412 1746 98.862 421.389 448.967
3589 0 120.459 14.3285 1726 98.0162 422.426 451.495
3590 0 120.511 13.1856 1589 103.407 422.234 440.403
3591 0 126.295 13.4368 1697 104.184 422.41 432.493
3592 0 130.641 18.1413 2370 98.0515 422.206 439.167
3593 0 138.666 17.8487 2475 97.9487 423.436 433.964
3594 0 139.489 14.7252 2054 102.322 423.21 428.369
3595 0 149.762 18.7498 2808 95.5082 423.15 441.086
3596 0 150.54 14.8731 2239 102.902 421.883 424.396
3597 0 153.437 15.1137 2319 100.067 422.322 436.437
3598 0 160.393 17.4572 2800 99.2211 422.145 430.129
3599 0 164.426 13.0089 2139 106.614 421.73 416.921
3600 0 170.398 17.553 2991 100.714 421.054 417.701
3601 0 177.476 15.3993 2733 103.584 421.504 415.144
3602 0 180.36 14.0719 2538 105.406 420.32 399.869
3603 0 187.392 13.0155 2439 106.271 419.989 401.674
3604 1 108.486 15.2738 1657 98.9276 418.604 441.529
3605 0 116.281 17.2428 2005 95.7845 418.034 443.005
3606 0 115.349 10.7674 1242 104.804 418.098 445.197
3607 0 118.42 13.6041 1611 101.284 416.948 444.281
3608 0 123.463 16.6609 2057 96.1322 416.874 450.284
3609 0 125.147 13.9117 1741 100.562 416.477 444.899
3610 0 127.395 19.6475 2503 94.2853 415.735 438.883
3611 0 133.31 17.3056 2307 96.7525 416.986 431.199
3612 0 139.321 13.4294 1871 99.8487 415.707 434.693
3613 0 141.449 12.577 1779 100.364 416.115 434.486
3614 0 146.702 11.8676 1741 101.416 416 426.433
3615 0 149.318 15.8186 2362 97.5178 415.892 423.282
3616 1 235.489 6.07671 1431 103.32 415.542 429.965
3617 0 237.644 8.92091 2120 106.781 415.698 393.4
3618 1 163.782 19.4649 3188 93.2255 416.454 404.214
3619 0 170.464 14.3843 2452 98.1334 417.35 413.759
3620 0 175.562 14.3027 2511 98.7077 417.843 408.095
3621 0 184.581 24.217 4470 89.3148 417.757 401.185
3622 0 187.523 16.8352 3157 96.4359 418.08 391.962
3623 0 191.347 9.74145 1864 105.267 418.767 388.69
3624 0 202.426 15.2747 3092 99.4699 418.755 397.111
3625 1 115.63 12.1162 1401 100.559 419.771 431.215
3626 0 119.317 14.4154 1720 97.6884 419.767 436.324
3627 0 120.678 13.0595 1576 100.304 420.26 433.275
3628 0 128.648 16.5024 2123 97.154 421.533 425.327
3629 0 134.463 12.338 1659 101.477 421.86 421.902
3630 0 141.472 18.1307 2565 94.2811 423.07 430.457
3631 0 142.459 14.4042 2052 99.4995 421.738 422.861
3632 0 143.276 15.1387 2169 97.9682 423.122 428.178
3633 1 250.804 12.8427 3221 102.747 421.632 385
3634 0 245.335 4.49181 1102 114.469 423.174 395.023
3635 1 168.591 18.4767 3115 94.277 423.113 421.805
3636 0 171.591 16.009 2747 95.4529 422.731 421.101
3637 1 93.362 14.01 1308 94.6208 421.31 450.653
3638 0 101.169 12.7213 1287 96.5688 422.876 439.033
3639 0 99.2318 15.3076 1519 94.3759 422.519 451.267
3640 0 107.662 14.2019 1529 93.7835 423.304 453.664
3641 0 108.093 16.4025 1773 93.4292 422.209 450.483
3642 0 113.406 15.3166 1737 95.072 422.415 443.403
3643 0 118.264 13.4784 1594 97.0885 421.6 440.851
3644 0 124.202 25.7806 3202 85.0671 420.386 440.767
3645 0 124.443 14.4966 1804 95.1364 419.611 436.605
3646 0 130.293 23.6237 3078 85.2846 419.732 450.714
3647 0 134.386 13.1487 1767 95.94 420.189 439.726
3648 0 139.26 13.9954 1949 94.9867 419.68 432.524
3649 0 145.372 16.8602 2451 92.0979 418.534 425.242
3650 0 147.368 12.2414 1804 97.0316 418.543 418.072
3651 0 151.767 11.0762 1681 96.909 419.183 427.294
3652 0 156.301 15.7708 2465 92.585 418.24 425.113
3653 0 163.215 14.484 2364 93.1739 417.78 422.248
3654 1 95.2729 10.6851 1018 96.333 417.565 452.19
3655 0 100.716 21.5359 2169 85.6408 416.744 449.974
3656 1 179.373 12.8782 2310 96.6693 417.806 402.736
3657 1 108.278 11.609 1257 95.2936 415.951 442.631
3658 0 109.639 31.6129 3466 79.6549 415.31 447.407
3659 0 110.535 13.878 1534 92.9016 415.471 441.494
3660 0 113.442 15.2412 1729 91.7681 416.515 439.918
3661 0 117.6 17.1854 2021 90.7773 416.74 431.428
3662 0 122.181 14.0202 1713 94.0811 417.436 430.252
3663 0 122.181 14.0693 1719 132.028 418.418 430.392
3664 0 126.908 16.9099 2146 90.7791 417.959 438.549
3665 0 128.712 15.6628 2016 93.8775 418.597 428.735
3666 0 129.474 11.8943 1540 98.8136 419.633 424.297
3667 0 135.608 12.691 1721 97.9919 419.781 418.693
3668 0 143.653 12.3422 1773 97.8195 419.625 412.382
3669 0 147.58 18.8169 2777 91.3871 421.241 415.515
3670 0 152.382 16.0189 2441 93.9222 420.914 419.663
3671 0 157.572 13.7969 2174 97.1288 420.664 412.462
3672 0 157.968 19.4216 3068 92.56 421.742 403.204
3673 0 161.616 14.1632 2289 98.5522 422.62 409.948
3674 0 167.065 14.8745 2485 97.7384 422.968 413.827
3675 0 175.666 13.9583 2452 99.7753 424.441 411.611
3676 0 179.445 14.4501 2593 98.7435 423.533 410.475
3677 0 186.453 12.5393 2338 101.944 424.061 407.329
3678 0 190.372 13.1164 2497 102.032 425.28 407.129
3679 0 196.478 13.6046 2673 103.465 425.121 398.071
3680 0 202.549 18.3906 3725 99.1605 423.612 390.173
3681 0 212.52 13.7399 2920 104.054 424.744 399.288
3682 0 218.474 13.6538 2983 105.521 423.933 391.513
3683 0 230.545 16.9294 3903 102.152 423.097 388.298
3684 0 235.718 18.2973 4313 100.312 422.337 386.684
3685 1 182.828 14.4945 2650 102.907 421.891 414.622
3686 0 182.55 9.5371 1741 112.105 421.456 395.543
3687 0 195.82 14.2682 2794 104.676 421.503 410.695
3688 0 206.036 12.8424 2646 107.433 420.619 402.643
3689 0 215.513 16.8064 3622 101.317 420.254 412.945
3690 0 223.701 15.3106 3425 104.091 419.618 410.801
3691 0 229.697 13.7921 3168 108.681 419.143 383.071
3692 0 238.782 13.0244 3110 108.884 419.024 390.934
3693 0 245.925 16.6311 4090 105.034 418.57 374.053
3694 1 191.805 15.6357 2999 102.284 418.308 422.242
3695 0 189.554 12.7774 2422 108.031 417.517 407.575
3696 0 196.872 15.1571 2984 104.258 417.554 416.387
3697 0 201.694 11.2844 2276 109.728 417.046 399.261
3698 0 206.99 13.0441 2700 108.689 416.631 399.469
3699 0 212.728 15.1085 3214 104.236 416.869 398.44
3700 0 219.742 15.7503 3461 102.836 416.946 400.535
3701 0 225.605 18.2221 4111 100.541 417.261 387.755
3702 0 230.923 13.7145 3167 106.799 417.009 381.835
3703 0 242.163 18.2976 4431 99.4326 417.115 397.16
3704 0 243.713 14.078 3431 106.857 418.157 373.297
3705 1 66.2254 9.30157 616 95.9854 419.528 473.32
3706 0 66.132 13.9116 920 92.037 420.416 467.328
3707 0 64.1813 8.5539 549 101.297 417.304 464.403
3708 0 64.1596 13.4508 863 95.7625 416.985 469.994
3709 0 66.1745 13.4493 890 95.9865 418.245 470.11
3710 0 327.308 13.2566 4339 108.051 419.038 360.027
3711 0 322.885 7.01177 2264 111.467 420.387 385.375
3712 0 322.967 13.602 4393 107.387 419.754 361.072
3713 0 322.884 14.3395 4630 109.692 420.214 341.954
3714 0 322.085 13.2822 4278 110.234 420.861 342.381
3715 1 84.25 14.0772 1186 97.3415 421.492 459.51
3716 0 82.2944 12.2001 1004 101.073 420.833 454.366
3717 0 83.1168 10.1544 844 102.914 421.858 450.677
3718 0 86.2332 16.0379 1383 95.2675 421.042 453.221
3719 0 88.1942 13.0621 1152 97.5356 422.353 456.937
3720 0 91.1243 14.5406 1325 96.5789 422.66 452.87
3721 0 93.3801 18.8263 1758 90.6519 423.714 459.357
3722 0 96.215 12.0355 1158 101.443 422.997 443.706
3723 0 98.493 13.0568 1286 98.1042 423.484 456.327
3724 1 37.131 6.94838 258 91.1512 422.368 483.903
3725 0 39.1988 11.6585 457 91.081 423.061 486.304
3726 0 49.8267 23.7623 1184 77.5431 420.494 483.751
3727 0 46.3407 21.8167 1011 80.6607 420.856 488.676
3728 0 41.0643 13.004 534 90.9176 421.365 493.665
3729 0 38.0638 8.66966 330 98.7727 421.624 493.861
3730 0 47.4932 14.002 665 88.9474 419.898 496.259
3731 1 87.1131 9.01127 785 83.9325 420.59 497.611
3732 0 86.9504 10.9028 948 82.0443 420.141 486.495
3733 0 91.6274 8.60004 788 84.297 419.791 477.404
3734 0 97.5431 14.1168 1377 78 419.517 471.224
3735 0 85.7383 10.1355 869 84.832 419.166 484.771
3736 0 93.0408 12.2527 1140 81.3035 418.127 473.032
3737 0 90.6587 11.615 1053 82.8034 417.354 474.582
3738 0 90.7932 25.5856 2323 73.1808 416.557 475.279
3739 0 85.6286 7.334 628 92.844 416.661 484.256
3740 0 85.3001 17.374 1482 78.1748 416.788 464.343
3741 0 83.3169 11.6423 970 86.4608 417.186 480.769
3742 0 83.0257 9.55126 793 89.0416 416.139 476.965
3743 0 83.1053 10.1799 846 88.8664 414.844 482.372
3744 0 73.6335 26.9443 1984 76.0832 415.062 470.204
3745 0 68.9766 21.5725 1488 80.2856 414.928 473.044
3746 0 62.9652 13.976 880 89.4659 416.131 480.826
3747 0 63.1124 26.54 1675 78.5552 415.994 472.431
3748 0 59.1647 12.0342 712 93.5028 417.107 477.639
3749 0 62.2868 24.1143 1502 80.2024 416.934 471.721
3750 0 61.7458 23.9692 1480 79.9649 417.245 466.978
3751 0 58.6672 16.4317 964 88.5913 416.88 472.106
3752 0 58.6672 16.4657 966 113.256 414.845 471.986
3753 0 67.7162 15.7717 1068 86.7425 417.267 472.144
3754 0 60.174 29.6307 1783 78.903 417.344 468.393
3755 0 59.223 12.7822 757 94.1836 418.963 473.115
3756 0 59.223 12.6302 748 125.603 420.029 473.269
3757 0 49.3179 24.5347 1210 85.4942 420.596 471.055
3758 0 47.1478 14.3803 678 97.0236 421.316 478.639
3759 0 44.1218 13.2361 584 100.041 421.795 475.259
3760 0 47.1291 19.8604 936 91.485 423.096 477.173
3761 0 47.0354 12.6288 594 100.577 422.487 479.609
3762 0 45.0644 11.7388 529 103.677 423.395 479.1
3763 0 48.2003 14.9377 720 97.9264 423.006 478.44
3764 0 47.2174 13.3425 630 99.8524 422.686 482.903
3765 0 44.1539 13.385 591 101.25 423.711 483.728
3766 0 42.3284 12.9464 548 103.522 422.192 485.624
3767 0 45.181 14.0767 636 99.5535 424.796 483.431
3768 0 45.0508 13.8288 623 99.8122 422.624 486.384
3769 0 46.2111 15.4941 716 96.3855 423.806 486.485
3770 0 47.1077 12.9915 612 100.025 422.696 488.139
3771 0 45.1143 16.4471 742 94.2871 422.271 491.071
3772 0 42.1064 11.0434 465 105.551 421.847 487.062
3773 0 45.035 13.545 610 100.349 423.159 489.746
3774 0 50.2517 19.86 998 90.0661 421.687 488.696
3775 0 45.1432 14.31 646 97.4737 421.568 492.717
3776 0 46.2271 12.5467 580 97.4034 420.098 493.566
3777 0 48.022 13.2648 637 97.7316 419.819 490.945
3778 0 46.0489 13.5725 625 96.9312 418.749 492.819
3779 0 47.1051 13.0559 615 99.1837 418.52 487.444
3780 0 42.0357 8.30247 349 107.229 417.805 487.53
3781 0 44.0836 10.7977 476 103.324 418.233 488.099
3782 0 45.056 11.1639 503 101.815 418.084 488.225
3783 0 44.2243 10.4468 462 101.92 417.768 488.327
3784 0 48.0622 11.5059 553 100.125 417.311 486.421
3785 0 46.1654 14.0148 647 97.2334 417.852 486.272
3786 0 45.0698 13.823 623 97.6597 417.716 484.562
3787 1 102.511 13.4718 1381 96.6227 418.418 460.621
3788 0 103.386 16.8204 1739 93.2093 418.27 455.005
3789 0 105.231 10.9473 1152 99.8585 418.229 452.267
3790 0 109.143 14.9987 1637 94.6933 418.692 447.89
3791 0 110.433 13.0849 1445 97.1841 418.884 450.922
3792 0 111.357 16.4606 1833 93.8456 419.097 445.972
3793 0 113.504 16.995 1929 93.028 419.228 445.3
3794 0 116.515 15.3886 1793 94.251 419.549 449.36
