time division length width area intensity CMx CMy
0 0 85.9649 31.699 2725 90.8018 55.5317 411.645
1 0 81.3045 24.931 2027 98.8135 55.3981 410.997
2 0 96.2616 30.7495 2960 90.1601 54.725 410.994
3 0 88.3794 21.2493 1878 100.682 54.3088 411.044
4 0 85.1374 20.649 1758 104.366 52.9989 410.83
5 0 92.6108 26.1632 2423 97.161 53.0677 408.258
6 0 95.3016 24.8474 2368 98.8725 51.4979 413.784
7 0 98.8317 27.5317 2721 95.5814 51.1793 409.96
8 1 51.1856 14.0469 719 112.955 48.9402 429.338
9 0 52.1036 12.8014 667 113.459 48.3388 428.883
10 0 54.1054 16.1167 872 107.718 47.8498 430.338
11 0 56.2099 23.5368 1323 96.0552 47.6674 435.795
12 0 59.1736 15.0236 889 109.025 47.5062 429.513
13 0 59.1149 16.1381 954 104.217 47.3532 429.872
14 0 65.851 16.3703 1078 105.906 46.3312 425.212
15 0 64.2359 21.6079 1388 98.8919 46.8422 426.656
16 0 64.0817 17.8054 1141 103.215 46.3953 423.71
17 0 68.1832 20.5476 1401 99.7131 47.1064 421.328
18 0 67.1278 12.7965 859 111.254 47.8615 417.381
19 0 72.1556 16.0348 1157 105.538 47.6958 417.626
20 0 81.1798 18.7855 1525 100.184 47.362 416.915
21 0 78.3365 16.1483 1265 104.195 47.4221 417.668
22 0 81.3016 21.6847 1763 96.101 47.8469 420.948
23 0 82.2578 15.4271 1269 107.887 48.8668 413.511
24 0 86.3904 13.6126 1176 108.151 49.4048 415.679
25 0 94.5858 28.7781 2722 90.8817 49.6936 418.511
26 0 91.1618 15.2915 1394 105.623 50.7661 410.047
27 0 97.5106 18.4903 1803 102.726 51.6295 409.026
28 0 97.3711 15.7028 1529 105.41 52.5422 410.827
29 0 100.564 14.9556 1504 106.588 53.3431 407.656
30 0 106.558 16.7046 1780 102.047 54.9225 408.493
31 1 51.3099 18.6903 959 96.7174 53.682 433.786
32 0 54.1772 16.4645 892 99.6626 53.9843 429.508
33 0 58.5639 16.9046 990 95.7727 56.5475 426.341
34 0 57.2827 12.482 715 102.775 56.8224 428.59
35 0 61.1765 13.224 809 102.279 57.7454 433.397
36 0 64.2306 14.8216 952 98.3561 56.1555 434.982
37 0 62.2345 26.0306 1620 91.2401 57.563 433.808
38 0 67.2271 17.5078 1177 95.5556 56.6347 431.364
39 0 68.5834 14.2309 976 98.4119 57.3443 436.509
40 0 70.2341 22.2114 1560 92.116 56.5141 435.421
41 0 72.1729 17.4719 1261 95.8358 56.6281 438.258
42 0 75.3444 20.7315 1562 92.9718 56.4558 438.576
43 0 75.5025 15.4564 1167 100.053 57.3993 430.505
44 0 79.4804 20.2943 1613 93.4414 56.3162 438.999
45 0 82.1573 14.813 1217 109.633 56.3854 436.277
46 0 88.3009 14.7224 1300 109.125 55.3808 438.771
47 0 89.1651 14.7255 1313 112.096 53.968 437.408
48 0 92.2798 14.1851 1309 111.584 53.3216 446.405
49 0 95.2958 31.7538 3026 92.8153 52.463 445.26
50 0 101.383 22.1734 2248 100.225 51.8848 457.354
51 1 52.079 9.19757 479 110.39 50.8163 481.837
52 0 54.4055 13.5464 737 108.351 50.8412 476.425
53 0 55.1526 13.9975 772 107.074 49.6231 476.19
54 0 56.1598 12.6959 713 110.01 50.54 474.073
55 0 58.1129 12.166 707 110.553 49.5941 473.622
56 0 62.0738 15.5782 967 105.023 49.0631 474.544
57 0 60.0888 8.82029 530 115.93 49.2019 470.345
58 0 64.1984 13.3181 855 111.53 48.6842 467.456
59 0 67.151 13.0154 874 112.624 47.1682 466.77
60 0 68.1703 11.9847 817 114.553 48.4002 464.383
61 0 73.0678 14.8766 1087 111.124 47.7884 463.44
62 0 75.3294 13.2618 999 112.235 47.4184 466.604
63 0 81.3812 16.4289 1337 107.888 46.7966 463.335
64 0 81.5394 16.446 1341 109.533 47.3729 459.619
65 0 84.2456 14.8613 1252 112.839 46.9537 453.177
66 0 86.1498 17.7482 1529 109.141 47.6409 452.71
67 0 86.3462 11.8013 1019 118.194 48.1443 450.329
68 0 91.1868 12.9514 1181 114.899 48.989 451.978
69 0 98.2023 16.6086 1631 110.109 50.1275 447.651
70 0 99.1546 14.0589 1394 114.14 51.259 446.42
71 0 102.303 14.5255 1486 113.658 51.2867 444.999
72 0 108.326 14.0595 1523 115.019 52.042 440.487
73 1 57.0608 14.3882 821 107.167 51.4884 468.722
74 0 57.0908 12.629 721 110.969 51.8571 466.215
75 0 60.2038 10.4811 631 112.65 53.0158 468.792
76 0 61.054 12.8739 786 110.798 53.3728 467.071
77 0 63.168 13.5987 859 110.97 53.7695 463.439
78 0 63.0486 13.0851 825 112.804 54.2582 463.095
79 0 67.2254 14.3993 968 110.124 55.53 462.876
80 0 70.1551 12.7432 894 112.72 56.8121 462.721
81 0 72.2156 13.7228 991 110.641 56.1382 464.794
82 0 73.0986 12.7909 935 112.826 55.3005 462.806
83 0 79.3596 15.5873 1237 107.492 56.1213 465.762
84 0 78.0708 13.7055 1070 110.768 54.8673 465.199
85 0 81.0924 12.6276 1024 113.327 54.4736 461.501
86 0 85.4511 14.2772 1220 109.491 54.0525 465.108
87 0 87.2406 11.9211 1040 114.985 54.4087 464.429
88 0 89.1306 13.1941 1176 113.44 54.176 463.251
89 0 95.7778 12.1322 1162 110.935 53.8563 468.856
90 1 50.0753 10.1647 509 107.829 52.888 487.104
91 0 49.1446 13.267 652 105.078 51.6288 485.966
92 0 50.0855 10.3224 517 109.36 51.0638 478.764
93 0 48.0952 9.23168 444 112.5 50.795 485.3
94 0 53.0917 9.85088 523 109.734 48.7667 486.48
95 0 54.1763 10.392 563 110.512 49.0036 485.565
96 0 56.3026 11.598 653 110.766 48.1271 481.783
97 0 58.1791 12.4959 727 109.308 48.5818 480.556
98 0 59.0737 12.7976 756 110.073 47.0542 478.481
99 0 60.1147 11.844 712 112.726 46.5421 475.015
100 0 68.1877 12.4509 849 110.157 46.477 475.856
101 0 65.1238 16.1999 1055 107.843 46.3081 473.363
102 0 68.1726 16.8543 1149 106.536 45.7903 472.065
103 1 144.273 12.6635 1827 117.747 46.3946 434.336
104 1 71.2552 15.4796 1103 110.483 44.7724 462.818
105 0 70.1515 10.4203 731 118.828 45.6416 460.029
106 0 72.2005 12.8254 926 115.715 45.8121 457.302
107 0 77.1954 13.6407 1053 112.867 45.226 457.05
108 0 80.1045 16.3786 1312 109.563 45.7325 454.845
109 0 81.2316 14.4771 1176 111.384 47.0264 453.115
110 0 85.1393 14.1063 1201 110.847 47.1007 452.805
111 0 90.3885 15.3227 1385 107.671 46.7877 454.531
112 0 91.2808 12.708 1160 111.675 47.8431 451.435
113 0 93.1899 12.6408 1178 111.18 48.511 451.246
114 1 49.1683 13.6063 669 106.658 50.3019 469.306
115 0 50.0906 9.26321 464 112.985 49.0065 472.157
116 0 50.0999 11.7964 591 113.355 49.7462 466.978
117 0 55.1101 14.2079 783 107.625 50.1788 469.678
118 0 53.0767 12.3029 653 113.867 51.3737 468.657
119 0 56.1363 13.7522 772 109.881 51.965 470.645
120 0 59.0835 13.4894 797 112.691 52.4931 465.509
121 0 59.2282 15.3812 911 110.524 53.1229 467.16
122 0 61.1172 11.4534 700 117.291 53.38 467.094
123 0 64.0682 14.1256 905 111.436 53.8011 469.905
124 0 64.0413 13.7099 878 114.631 53.9396 463.673
125 0 69.1837 17.7065 1225 106.879 53.702 464.161
126 0 69.0971 15.7315 1087 110.075 54.5704 465.158
127 0 72.1487 12.8623 928 114.516 54.3157 467.218
128 0 72.2276 16.1711 1168 110.977 52.7714 462.749
129 0 75.1037 13.9141 1045 113.271 54.8211 463.407
130 0 77.1779 13.5142 1043 112.83 53.0834 466.171
131 0 80.1936 14.7144 1180 112.089 53.3568 464.338
132 0 83.15 12.6639 1053 113.241 52.9345 467.664
133 0 87.3283 16.4551 1437 108.307 51.9297 465.507
134 0 87.1175 15.2897 1332 110.947 52.6366 460.552
135 0 89.1454 13.3265 1188 115.46 50.9369 457.322
136 1 47.0515 7.56618 356 112.747 50.8174 482.287
137 0 52.2504 10.0095 523 109.415 48.7476 477.662
138 0 56.0565 15.5201 870 106.525 49.7621 482.08
139 0 59.1601 9.63487 570 113.354 47.0702 482.321
140 0 58.1626 15.577 906 105.996 47.3642 481.64
141 0 61.0642 14.2801 872 107.807 45.0149 474.836
142 0 62.105 12.3501 767 110.411 44.5072 477.151
143 0 64.1368 15.5449 997 107.223 44.5306 476.352
144 0 65.0858 13.2287 861 110.103 44.0894 476.08
145 0 66.1171 13.5063 893 111.766 43.6652 470.755
146 0 68.0919 13.144 895 112.743 43.3944 468.125
147 0 70.2639 12.4673 876 113.898 42.4178 465.105
148 0 73.144 12.4275 909 113.147 42.7954 467.349
149 0 76.1143 13.4534 1024 114.526 43.0781 462.191
150 0 75.1669 12.3459 928 118.361 42.9881 459.65
151 0 82.7058 17.133 1417 110.92 44.1489 453.802
152 0 83.2821 15.0573 1254 115.034 44.1404 454.446
153 0 84.2273 15.4938 1305 115.714 45.7341 453.436
154 0 89.3061 14.4895 1294 116.206 45.4297 454.729
155 0 90.3263 17.8353 1611 113.183 45.2272 447.836
156 0 94.2044 16.1139 1518 114.833 46.4078 451.123
157 0 99.289 15.1175 1501 114.533 47.2838 453.154
158 1 49.0921 10.6331 522 115.885 47.3276 473.427
159 0 57.1168 12.2206 698 114.342 48.1189 471.375
160 0 57.1401 10.3605 592 117.098 49.1943 474.037
161 0 57.1006 13.4149 766 117.042 47.6332 472.01
162 0 60.141 13.6845 823 118.124 49.4872 468.141
163 0 63.4362 18.1284 1150 111.297 49.6017 466.871
164 0 62.1968 14.84 923 115.634 49.935 468.793
165 0 62.1764 11.7408 730 123.208 51.1301 467.422
166 0 65.1553 13.8438 902 120.031 52.6863 466.095
167 0 69.0798 14.809 1023 117.146 52.0538 468.314
168 0 68.1052 12.1136 825 123.412 51.7527 465.207
169 0 72.2496 13.9932 1011 119.385 52.7557 466.333
170 0 75.2961 19.1776 1444 110.447 53.4155 468.697
171 0 77.0396 14.1875 1093 117.973 53.5462 469.117
172 0 77.0876 14.6846 1132 116.874 52.3419 470.758
173 0 81.0639 16.6659 1351 114.993 51.8135 465.778
174 0 83.1385 12.9663 1078 119.503 51.4462 466.977
175 0 87.2025 17.8091 1553 111.765 50.9775 466.673
176 0 89.1121 18.1681 1619 110.986 49.5886 465.838
177 0 92.1818 12.8984 1189 119.366 49.5408 468.241
178 0 95.0788 19.1525 1821 108.01 50.1938 465.762
179 0 95.4453 10.561 1008 120.96 48.9067 463.925
180 0 100.322 13.5863 1363 116.437 48.6097 461.429
181 1 54.0788 10.7806 583 115.921 47.4494 485.916
182 0 58.3685 12.9008 753 112.131 47.3041 485.616
183 0 55.1923 11.7589 649 118.077 46.1787 481.216
184 0 58.0508 12.8853 748 114.979 45.8436 480.445
185 0 61.1092 11.3404 693 115.645 44.6566 478.447
186 0 64.5276 14.0715 908 110.717 44.1013 477.665
187 0 64.197 12.3214 791 114.831 44.579 472.353
188 0 68.1976 15.6017 1064 108.069 43.3684 476.301
189 0 70.2987 13.8552 974 111.844 43.5308 469.608
190 0 68.2629 12.3786 845 114.798 42.684 469.142
191 0 74.2867 16.5979 1233 105.195 42.8508 470.629
192 0 74.2309 16.7181 1241 106.21 43.3175 469.756
193 0 78.2486 17.3677 1359 105.35 42.465 467.239
194 0 80.0734 14.6491 1173 110.221 42.7221 457.911
195 0 81.1522 13.9121 1129 111.252 42.481 456.283
196 0 85.3082 13.715 1170 109.723 43.1598 461.479
197 0 88.2376 18.6202 1643 104.261 43.9014 451.158
198 0 93.2646 15.6115 1456 106.229 44.6978 457.858
199 0 93.1495 12.1096 1128 112.484 44.7624 448.934
200 0 98.2447 14.2094 1396 108.34 46.3481 450.188
201 0 98.2656 12.629 1241 112.147 45.639 446.867
202 0 103.458 14.1313 1462 108.189 46.4891 448.794
203 1 54.1138 7.39184 400 115.01 47.14 468.238
204 0 58.1855 11.0165 641 108.466 47.3947 469.27
205 0 61.1617 14.0938 862 103.796 48.3643 469.732
206 0 64.1235 15.0335 964 104.428 49.279 464.838
207 0 66.1745 14.6129 967 103.262 49.9607 469.091
208 0 68.0584 18.4254 1254 99.8915 49.8947 469.54
209 0 71.1368 11.4427 814 108.773 52.0516 468.819
210 0 73.2103 12.1294 888 108.273 52.0552 466.025
211 0 74.0892 15.6028 1156 104.804 51.224 462.892
212 0 78.0951 11.6525 910 109.602 51.2593 465.213
213 0 78.1875 13.3653 1045 108.9 52.3522 460.92
214 0 83.2563 13.9929 1165 107.83 52.6652 466.631
215 0 85.2321 16.3671 1395 105.432 51.5118 460.056
216 0 86.1981 14.3391 1236 109.066 51.4871 458.353
217 0 90.3593 13.557 1225 109.415 51.6376 463.149
218 0 97.6922 19.2953 1885 100.633 51.2817 465.074
219 0 100.139 9.46686 948 115.04 50.6593 461.752
220 0 104.354 17.0094 1775 104.091 50.0575 461.353
221 0 103.211 13.1769 1360 110.007 49.3897 458.773
222 0 109.207 14.7885 1615 107.667 50.1387 458.445
223 0 111.315 13.3765 1489 109.282 48.7784 456.022
224 1 57.1687 12.4194 710 105.466 46.4155 483.293
225 0 60.0676 11.587 696 107.733 46.2543 478.343
226 0 61.2361 10.5003 643 108.042 43.8709 478.771
227 0 66.2027 11.2986 748 104.987 44.5134 480.993
228 0 66.2153 14.0753 932 102.847 42.9335 477.54
229 0 69.3059 16.4488 1140 99.893 42.1746 480.138
230 0 71.2312 14.6846 1046 102.748 40.6931 473.773
231 0 71.1989 7.41584 528 112.405 40.947 470.473
232 0 75.1705 14.527 1092 102.972 41.7729 473.151
233 0 74.1425 10.3854 770 110.304 40.3325 466.265
234 0 79.1794 12.718 1007 107.058 41.0834 467.046
235 1 164.335 9.43194 1550 114.665 40.5155 426.672
236 0 161.362 10.7336 1732 110.892 41.0468 434.536
237 1 87.5203 16.4076 1436 102.201 41.7772 458.2
238 0 89.5546 16.5039 1478 102.562 41.5873 453.252
239 0 90.2926 13.6999 1237 105.546 42.6532 457.157
240 0 94.8497 10.8593 1030 108.485 41.7583 454.656
241 0 97.6571 14.3256 1399 108.44 43.2981 447.801
242 0 99.6124 12.8197 1277 111.712 43.7416 443.892
243 0 102.587 12.1165 1243 111.121 43.0716 444.475
244 1 59.2118 13.325 789 104.84 44.7959 469.724
245 0 60.1126 14.0237 843 103.227 44.6916 471.467
246 0 60.1219 14.271 858 103.303 44.7821 469.219
247 0 66.154 14.8744 984 102.451 44.4675 465.117
248 0 65.1388 15.0602 981 103.963 45.6065 466.386
249 0 67.1901 15.032 1010 105.11 46.8564 464.136
250 0 68.2229 15.9038 1085 104.096 47.1779 466.85
251 0 72.7001 13.6038 989 105.999 48.5106 467.382
252 0 70.6662 14.9435 1056 106.754 49.4176 459.899
253 0 78.5216 16.2503 1276 103.801 48.9796 461.826
254 0 75.4043 15.7285 1186 104.093 49.8432 463.963
255 0 79.5642 16.2636 1294 106.409 48.7921 454.838
256 0 80.6238 16.9801 1369 106.395 49.4609 455.966
257 0 82.3936 16.409 1352 107.23 49.5873 457.121
258 0 83.1063 13.3323 1108 109.535 50.3827 462.082
259 0 83.1058 14.0905 1171 109.645 50.9308 460.371
260 0 87.4474 13.5281 1183 108.419 50.47 466.495
261 0 89.4472 14.5337 1300 110.568 49.1192 457.763
262 0 94.1513 14.2749 1344 110.604 49.9978 458.7
263 0 95.1304 10.6065 1009 115.629 49.6868 464.058
264 0 100.126 13.0336 1305 112.686 48.2651 460.31
265 0 104.529 14.8762 1555 110.241 49.0206 459.023
266 1 59.1759 13.5359 801 110.388 47.9625 478.659
267 0 62.3969 17.6611 1102 104.466 48.0145 479.11
268 0 59.0898 10.831 640 113.702 46.4 476.067
269 0 61.0614 14.3626 877 110.132 45.5165 474.42
270 0 65.0922 13.4886 878 110.751 44.5888 474.017
271 0 69.2129 18.6093 1288 104.566 43.8082 472.599
272 0 69.0852 13.8669 958 111.483 43.2965 471.119
273 0 74.2951 18.2246 1354 105.547 43.3013 470.892
274 0 75.1943 14.9745 1126 111.692 42.4813 462.835
275 0 79.1279 12.8021 1013 113.348 42.1836 467.862
276 0 80.1378 15.4609 1239 109.412 41.6013 464.579
277 0 81.1777 16.6425 1351 111.064 41.8172 456.017
278 0 83.3551 14.6362 1220 113.889 41.773 453.937
279 0 84.1986 16.8768 1421 110.563 40.9824 459.046
280 0 89.3789 12.6987 1135 116.607 41.0934 457.715
281 0 93.1864 14.9807 1396 113.882 41.4642 448.997
282 0 95.211 14.8092 1410 113.652 42.9518 451.707
283 0 101.151 20.2172 2045 107.512 42.8763 443.552
284 0 103.422 17.8105 1842 108.517 44.1944 449.577
285 0 106.203 13.6248 1447 114.916 44.3946 444.03
286 0 110.162 17.7466 1955 110.676 44.9795 439.561
287 1 60.1694 14.7583 888 109.089 44.0315 464.486
288 0 60.2127 13.4191 808 113.959 45.5 464.11
289 0 63.0725 13.2705 837 114.731 46.2843 463.969
290 0 65.2203 12.3274 804 116.382 46.3943 462.774
291 0 67.1352 13.2866 892 115.752 46.7242 462.515
292 0 71.2373 15.3852 1096 112.526 49.0173 459.365
293 0 72.1139 12.2445 883 117.238 49.376 460.149
294 0 77.2322 14.0485 1085 113.965 50.9493 456.438
295 0 81.3553 17.9583 1461 105.233 49.7563 463.823
296 0 82.1648 15.4567 1270 111.69 51.9795 460.087
297 0 78.3526 12.4565 976 116.393 52.4713 458.154
298 0 79.5547 9.17608 730 120.845 51.4041 458.881
299 0 83.1788 11.9983 998 115.812 51.7725 460.844
300 0 83.103 12.8636 1069 117.027 52.1029 457.587
301 0 86.2115 7.5164 648 114.014 51.9799 474.478
302 1 52.1429 12.063 629 111.068 52.6248 479.453
303 0 53.3735 14.4079 769 107.263 52.8544 480.796
304 0 54.0192 15.6241 844 108.146 52.6126 477.66
305 0 57.0841 10.9838 627 115.268 51.6794 476.823
306 0 59.2965 14.1492 839 109.962 51.5781 479.172
307 0 61.0968 13.7487 840 111.348 50.0726 477.381
308 0 63.1663 16.7178 1056 106.366 49.6326 479.402
309 0 64.1507 15.2765 980 107.8 49.4102 480.096
310 0 69.1454 15.5614 1076 108.058 49.3504 478.013
311 0 67.0937 12.013 806 114.174 48.5608 476.341
312 0 73.7464 17.3161 1277 107.06 47.1989 466.481
313 0 73.5376 14.1288 1039 112.36 46.437 467.025
314 0 75.2674 13.9768 1052 111.842 47.038 472.087
315 0 77.776 11.186 870 115.8 46.331 470.336
316 0 89.3139 11.4652 1024 114.166 45.5918 468.106
317 0 90.57 15.6233 1415 107.006 44.9809 465.61
318 0 87.5289 17.857 1563 103.163 44.1286 469.051
319 0 88.3667 14.3267 1266 109.927 44.7915 463.303
320 0 84.2095 4.60756 388 114.608 43.3144 476.206
321 0 81.1597 4.38641 356 115.978 44.3455 472.197
322 1 100.236 14.4858 1452 108.063 43.7052 455.656
323 0 101.142 11.6767 1181 111.698 43.7045 450.739
324 0 108.364 13.8699 1503 107.329 42.3573 443.711
325 0 117.442 10.1667 1194 111.699 42.7747 447.827
326 0 118.375 12.9503 1533 107.233 42.9237 448.387
327 1 61.0903 13.6028 831 105.596 43.5644 464.668
328 0 64.1063 11.5589 741 107.182 43.4872 465.139
329 0 64.0964 10.4998 673 109.871 44.584 464.105
330 0 70.1855 14.9461 1049 103.207 44.2469 459.833
331 0 70.4531 18.5655 1308 98.5665 46.0971 464.239
332 0 70.2391 14.0378 986 105.008 45.8114 458.859
333 0 74.1359 14.5544 1079 104.542 45.772 454.279
334 0 75.3213 13.9137 1048 105.576 46.7758 455.465
335 0 77.1834 15.5863 1203 103.662 48.1953 455.781
336 0 79.1802 13.7155 1086 107.378 49.7753 449.502
337 0 85.2396 17.1282 1460 103.414 50.4308 447.785
338 0 88.3094 13.113 1158 107.342 51.0976 453.725
339 0 92.1736 17.6081 1623 102.016 53.3426 454.64
340 0 91.1579 13.7893 1257 108.5 53.502 447.739
341 1 51.1223 11.1302 569 102.821 53.7065 477.255
342 0 51.1986 13.6332 698 102.762 52.712 471.006
343 0 55.119 11.6475 642 104.55 52.933 470.992
344 0 54.1266 14.7617 799 101.156 54.1802 474.526
345 0 59.0738 19.518 1153 95.9853 53.9219 473.618
346 0 57.1746 14.7268 842 102.167 53.9014 474.989
347 0 59.2923 14.9598 887 102.157 53.8952 475.109
348 0 63.189 14.1797 896 103.429 53.5904 475.052
349 0 66.2281 17.5001 1159 99.2744 52.9379 470.362
350 0 66.2499 14.3849 953 103.251 51.6044 470.788
351 0 68.1114 16.1647 1101 101.093 50.2234 472.73
352 0 70.2965 14.4673 1017 104.447 51.0826 470.741
353 0 73.1604 13.3542 977 104.634 49.6745 471.827
354 0 76.213 14.9187 1137 102.61 49.5875 466.796
355 0 77.1009 14.1503 1091 104.575 48.9771 465.701
356 0 78.1542 12.2322 956 108.638 48.4048 463.232
357 0 82.1718 13.2771 1091 106.123 47.8689 466.888
358 0 85.1131 14.2046 1209 104.591 48.5409 467.924
359 0 86.3037 13.4873 1164 105.918 47.0859 463.796
360 0 93.9904 15.8846 1493 99.6229 45.9303 465.736
361 0 92.1484 12.9031 1189 105.471 46.3179 456.651
362 0 92.1622 12.5106 1153 105.537 46.7121 455.454
363 0 99.2141 14.5846 1447 101.77 45.9523 453.078
364 1 49.1292 9.66839 475 101.501 45.4042 479.269
365 0 52.1457 12.1774 635 100.146 45.378 476.849
366 0 54.1206 8.96147 485 103.338 46.0206 476.478
367 0 57.3699 15.0427 863 99.0127 45.1228 467.634
368 0 58.3391 13.1473 767 101.639 44.7249 468.695
369 0 62.2943 14.4796 902 99.3049 45.2384 467.907
370 0 61.2082 13.1355 804 101.495 44.1567 468.067
371 0 63.302 12.5904 797 103.588 46.6524 459.329
372 0 65.375 12.5124 818 102.185 45.6149 459.983
373 0 67.2707 13.349 898 101.869 47.1849 458.366
374 0 70.5823 15.0038 1059 100.401 48.1114 455.758
375 0 70.266 15.5836 1095 100.159 48.1142 452.943
376 0 71.4868 13.0094 930 102.587 47.8613 447.129
377 0 71.2229 11.4289 814 103.334 47.2924 449.176
378 0 78.2797 13.5795 1063 100.045 49.9981 447.443
379 0 74.1523 12.0293 892 103.622 50.9249 442.835
380 0 82.103 17.1005 1404 96.651 51.5085 446.645
381 0 79.2294 11.5992 919 103.338 52.0054 446.318
382 0 87.3461 15.2611 1333 99.931 53.4929 444.532
383 0 88.4928 12.7242 1126 102.405 53.5986 448.683
384 0 92.2456 15.7839 1456 98.921 53.0302 447.822
385 1 51.262 11.3339 581 98.5181 52.9243 467.408
386 0 46.0492 9.81558 452 103.319 53.0177 461.726
387 0 52.1165 10.0544 524 102.04 53.8053 470.242
388 0 56.1565 10.0434 564 102.479 54.2145 470.257
389 0 54.0308 11.2528 608 103.27 54.5164 469.133
390 0 55.1499 11.7498 648 104.603 54.1065 467.157
391 0 61.191 13.1555 805 101.944 53.8149 468.969
392 0 63.1085 13.5323 854 98.7143 53.555 474.496
393 0 64.0943 13.2929 852 102.001 52.8756 471.796
394 0 65.2864 9.98676 652 109.298 51.089 466.928
395 0 68.1823 12.6866 865 107.169 51.4751 463.764
396 0 70.1392 12.8174 899 107.742 52.2703 465.006
397 0 72.143 13.9029 1003 105.117 51.1296 471.175
398 0 80.4796 15.0473 1211 105.263 49.1429 466.396
399 0 80.3161 12.8368 1031 109.662 48.9787 466.767
400 0 82.2414 15.6734 1289 106.783 47.2638 462.922
401 0 85.5111 22.5 1924 97.8758 47.803 465.144
402 0 90.4939 15.548 1407 105.517 47.3539 460.927
403 0 93.1792 12.2023 1137 111.002 46.2164 460.712
404 1 49.0995 12.5256 615 104.784 44.8976 481.698
405 0 49.2409 10.8243 533 107.758 43.6961 480.071
406 0 58.2306 16.3145 950 101.144 45.5116 475.142
407 0 56.398 15.692 885 103.272 44.4701 473.652
408 0 58.267 13.4038 781 107.283 44.4558 473.428
409 0 60.1863 14.5548 876 104.695 43.3139 470.821
410 0 62.1889 19.5533 1216 98.7525 43.7714 473.346
411 0 63.2043 15.6002 986 103.745 43.5852 471.93
412 0 62.2233 13.2266 823 108.851 43.0182 465.854
413 0 67.1162 16.7471 1124 101.823 44.4368 468.094
414 0 69.1862 13.5287 936 106.564 45.5951 462.651
415 0 70.1206 12.7495 894 106.73 45.4799 464.998
416 0 76.4406 17.059 1304 101.732 45.1212 460.01
417 0 77.5353 16.7408 1298 102.796 46.5778 458.149
418 0 76.5409 12.3071 942 110.224 47.7505 454.16
419 0 80.1429 16.9697 1360 104.539 49.4456 450.4
420 0 83.5484 16.1463 1349 105.695 48.9118 449.547
421 0 85.3711 13.6463 1165 109.652 48.9682 447.832
422 0 87.358 13.7709 1203 108.388 51.1712 450.766
423 1 46.2652 11.0018 509 107.153 50.7937 468.682
424 0 47.1414 11.9004 561 106.209 51.7914 466.383
425 0 50.1434 11.1879 561 104.932 52.8752 471.102
426 1 103.296 13.4952 1394 110.391 52.9971 446.418
427 1 54.0696 14.1484 765 106.684 53.949 469.987
428 0 54.1352 12.1732 659 109.706 53.1214 468.53
429 0 55.187 11.5063 635 111.443 52.948 469.189
430 0 58.2465 11.2968 658 110.637 53.5547 472.628
431 0 62.3315 12.4816 778 108.967 54.1902 472.832
432 0 61.2893 13.3302 817 109.72 54.53 470.96
433 0 63.4019 12.4286 788 111.978 54.5508 473.137
434 0 64.1342 12.583 807 113.456 54.7472 472.343
435 0 67.1638 17.0628 1146 105.575 53.5323 472.647
436 0 68.3752 13.9086 951 111.356 53.0862 468.619
437 0 70.3939 13.9927 985 112.217 53.1797 468.069
438 0 71.1182 14.1736 1008 112.357 51.8105 467.341
439 0 75.079 17.1553 1288 106.794 52.493 467.551
440 0 78.4107 16.031 1257 108.041 52.9706 471.656
441 0 78.1927 15.8711 1241 108.932 51.7373 470.1
442 0 78.2975 13.6275 1067 113.376 49.9456 467.59
443 0 82.2388 13.9472 1147 112.213 49.2162 463.209
444 0 84.1788 14.1247 1189 112.511 48.9092 464.159
445 0 89.2886 16.5867 1481 107.241 49.1431 465.416
446 0 91.4084 13.6421 1247 110.839 48.1828 464.085
447 0 92.2125 14.2714 1316 111.451 47.7553 460.818
448 0 96.218 15.2051 1463 108.567 47.309 457.565
449 1 50.0689 9.78652 490 112.318 47.551 478.086
450 0 53.0353 13.4062 711 107.759 46.8031 476.713
451 0 58.1193 17.3092 1006 103.583 46.0268 474.978
452 0 57.0817 11.7551 671 112.155 45.6811 476.285
453 0 59.6943 14.3565 857 106.259 45.5613 476.848
454 0 62.0757 11.0188 684 112.981 44.4971 468.126
455 0 63.4718 13.7069 870 107.436 45.0529 473.984
456 0 64.2262 17.9677 1154 101.288 45.0286 473.653
457 0 69.1696 18.7076 1294 100.933 46.3385 468.113
458 0 69.1377 12.005 830 109.336 45.6807 468.078
459 0 72.2521 18.5047 1337 101.283 45.9065 466.941
460 0 76.149 10.5582 804 111.123 46.2425 465.517
461 0 75.3367 12.7693 962 109.14 46.5925 458.093
462 0 77.2668 13.8611 1071 108.287 46.887 457.093
463 0 82.3146 13.4848 1110 107.998 47.9613 459.339
464 0 85.2689 17.4155 1485 100.847 47.6808 458.83
465 0 87.508 15.85 1387 103.408 49.0224 453.253
466 0 94.3545 16.279 1536 101.925 49.9746 458.197
467 1 48.1838 11.8505 571 106.609 49.8161 474.725
468 0 48.0938 12.2885 591 106.844 49.9526 472.169
469 0 51.1264 12.7723 653 107.773 50.196 475.657
470 0 53.1054 17.0981 908 100.811 51.2324 479.361
471 0 55.1916 15.5277 857 101.187 51.6406 479.551
472 0 55.0728 10.2228 563 109.59 52.0835 476.54
473 0 57.1132 13.412 766 106.27 51.7963 475.42
474 0 61.3249 14.3498 880 103.811 50.7739 480.302
475 0 63.1612 18.9515 1197 99.4578 51.5138 478.317
476 0 69.9428 20.3452 1423 94.8791 50.5699 482.507
477 0 66.0731 11.9413 789 107.172 49.7693 480.545
478 0 69.3236 12.9249 896 105.868 49.9062 482.392
479 0 69.3304 11.5678 802 109.204 49.6397 479.514
480 0 74.3596 12.1975 907 108.934 48.6946 473.927
481 0 75.2428 11.4562 862 109.515 48.5336 478.798
482 0 82.1614 14.6419 1203 105.829 47.4339 477.86
483 0 81.1888 13.019 1057 109.983 47.3132 476.622
484 0 84.4425 13.3345 1126 109.599 44.8055 474.78
485 1 44.0541 11.0092 485 108.901 44.7711 493.437
486 0 45.2822 9.25308 419 111.389 44.6301 494.048
487 0 47.0533 11.2001 527 108.425 44.2011 489.801
488 0 50.0453 12.0891 605 105.015 43.0612 493.607
489 0 51.3011 12.2025 626 109.562 43.1166 491.567
490 0 52.0905 15.3003 797 104.837 41.9498 488.881
491 0 52.0946 14.6656 764 106.823 41.9634 487.414
492 0 53.088 11.9613 635 110.643 42.1591 486.526
493 0 61.7643 14.2963 883 103.281 41.2956 489.438
494 0 59.1226 9.92853 587 110.535 40.0017 488.003
495 0 60.1742 13.6271 820 106.577 39.6488 484.933
496 0 62.2162 13.437 836 108.028 39.5969 479.961
497 0 58.1304 15.0868 877 104.619 39.3409 482.784
498 0 67.2366 13.0881 880 110.234 38.5227 475.428
499 0 68.227 16.5184 1127 105.452 38.5004 476.605
500 0 73.195 13.8397 1013 110.458 40.7631 472.812
501 0 73.5001 12.8979 948 112.401 41.8671 467.904
502 0 76.3091 13.2619 1012 114.211 42.0049 462.675
503 0 77.5348 12.8458 996 114.805 42.2209 462.009
504 0 82.5517 14.4273 1191 112.852 42.8119 459.093
505 0 85.4314 14.5146 1240 113.175 43.5452 457.906
506 0 85.6291 12.0053 1028 116.679 43.858 457.916
507 0 90.4712 14.0155 1268 114.236 45.2729 455.608
508 1 49.1994 15.7929 777 105.954 45.5792 477.526
509 0 52.1994 11.207 585 112.149 46.0598 475.865
510 0 51.1871 14.3591 735 109.644 46.8395 475.424
511 0 56.1706 16.165 908 105.674 47.6982 477.013
512 0 54.1587 16.5624 897 107.313 48.2977 473.299
513 0 60.1892 17.7607 1069 103.659 48.9373 474.169
514 0 61.2638 13.6949 839 108.157 49.6186 477.019
515 0 64.3488 17.9335 1154 101.477 49.6759 481.391
516 0 63.2406 14.516 918 109.439 50.7146 472.755
517 0 66.654 13.7576 917 109.851 50.2388 475.448
518 0 69.1193 14.3375 991 109.391 51.2866 476.212
519 0 71.1406 14.7454 1049 109.417 51.245 475.01
520 0 76.3653 22.8114 1742 99.667 50.6533 474.072
521 0 74.5304 17.1205 1276 105.754 49.873 478.765
522 0 79.3656 19.3913 1539 105.016 48.6699 470.125
523 0 82.5136 14.7612 1218 110.306 48.0575 474.187
524 0 81.1256 13.8427 1123 110.658 48.13 467.893
525 0 87.1968 17.4662 1523 104.554 48.2495 468.844
526 0 90.174 18.3534 1655 101.526 47.8653 474.189
527 0 90.1604 16.759 1511 102.695 46.906 476.612
528 0 93.1637 16.0792 1498 107.628 46.4473 466.267
529 0 95.3581 13.7691 1313 111.07 45.5529 465.509
530 0 99.3324 15.3324 1523 107.726 45.4767 463.141
531 0 105.428 14.6451 1544 106.847 43.7811 459.877
532 0 109.904 17.7701 1953 103.072 42.9007 456.829
533 0 109.229 17.9897 1965 104.285 41.1746 452.429
534 0 113.168 21.5608 2440 100.164 42.2631 455.643
535 0 116.562 14.3185 1669 108.981 41.2247 445.431
536 0 128.512 12.6058 1620 108.418 40.558 450.009
537 0 126.312 15.6992 1983 105.553 41.0504 445.489
538 1 66.2713 12.1772 807 107.467 40.8377 468.885
539 0 75.2044 16.3022 1226 99.6378 40.898 469.803
540 0 72.1687 11.4038 823 108.017 40.096 464.358
541 0 80.0987 14.1825 1136 103.129 39.7738 461.923
542 0 81.1086 14.9676 1214 102.245 39.9481 461.195
543 0 87.1562 16.9122 1474 99.3989 40.4627 458.72
544 0 85.1159 11.8662 1010 106.042 41.6168 450.907
545 0 91.1719 11.6264 1060 105.835 41.9226 452.027
546 0 93.2336 17.011 1586 99.9288 43.0612 448.883
547 0 101.833 21.3977 2179 94.7632 42.7219 448.094
548 0 109.561 19.7971 2169 96.3831 43.9756 447.538
549 0 111.348 13.2737 1478 103.877 44.7043 448.942
550 1 51.2856 9.9638 511 105.914 44.1859 471.558
551 0 57.2615 12.1024 693 104.071 45.417 474.254
552 0 61.2685 12.8941 790 103.162 44.5861 474.043
553 0 63.1559 14.1396 893 102.965 46.0067 471.417
554 0 64.1135 14.5055 930 101.954 46.1398 469.491
555 0 66.1274 12.0525 797 104.74 46.3852 470.29
556 0 66.3067 10.7078 710 108.234 48.0803 467.204
557 0 72.1457 12.5302 904 106.004 48.8119 467.461
558 0 75.3673 12.5784 948 105.237 48.6181 469.308
559 0 77.4267 12.8121 992 105.549 49.3679 468.373
560 0 81.2644 11.5918 942 105.166 48.3174 472.32
561 0 83.3379 15.6111 1301 101.628 49.0138 468.564
562 0 86.2676 14.9071 1286 102.894 48.6221 469.469
563 0 86.4084 8.5524 739 110.29 48.2449 474.114
564 0 92.1815 14.7318 1358 104.225 48.8837 468.71
565 0 97.245 13.5945 1322 105.092 47.6218 465.222
566 1 52.2819 10.8642 568 104.614 48.4243 487.993
567 0 55.1723 13.0319 719 101.01 47.4423 490.719
568 0 55.3592 10.6035 587 106.186 46.4923 490.065
569 0 58.2987 14.0312 818 101.62 45.522 487.99
570 0 62.3825 16.495 1029 96.3022 44.0019 485.097
571 0 61.1219 10.8308 662 104.87 43.7508 488.178
572 0 64.0563 17.266 1106 97.575 43.047 486.251
573 0 68.127 14.2381 970 102.428 42.4474 481.294
574 0 66.3443 13.8671 920 104.439 41.8543 479.948
575 0 72.2192 15.0237 1085 101.579 42.4286 478.852
576 0 72.2097 12.9207 933 105.633 39.9035 476.83
577 0 75.2063 14.786 1112 102.03 40.0692 478.029
578 0 77.1719 13.8392 1068 103.946 40.2519 476.467
579 0 80.13 15.3625 1231 102.144 38.9748 468.324
580 0 79.1932 11.3267 897 108.751 39.7893 468.1
581 0 85.2702 14.1315 1205 103.766 38.9129 464.115
582 0 84.1823 10.0377 845 109.988 38.5586 461.892
583 0 90.3741 13.931 1259 104.313 39.3193 461.239
584 0 91.35 10.8703 993 107.985 40.0101 464.635
585 1 46.1184 11.1452 514 104.588 39.0817 483.082
586 0 47.068 9.58188 451 105.43 39.7384 483.978
587 0 50.0496 12.5675 629 101.859 40.2258 482.682
588 0 49.2407 11.393 561 101.15 40.082 480.275
589 0 53.5206 12.1449 650 103.626 41.5492 480.342
590 0 54.1876 13.3425 723 104.184 41.8147 476.598
591 0 57.4682 17.3313 996 98.7259 42.1396 475.802
592 0 63.2234 18.1578 1148 96.351 43.9713 475.025
593 0 57.2861 12.1495 696 105.832 43.227 473.226
594 0 62.2302 19.926 1240 96.6927 44.7944 473.004
595 0 62.1942 16.4485 1023 99.433 45.5386 474.916
596 0 64.1317 14.86 953 103.449 45.043 469.583
597 0 66.1033 13.2217 874 105.892 47.0469 470.355
598 0 67.2881 14.3413 965 104.65 47.3886 469.468
599 0 68.2484 12.4545 850 105.275 48.0447 471.758
600 0 74.1685 14.4805 1074 103.626 48.878 464.998
601 0 75.4385 12.1821 919 106.838 49.1589 466.866
602 0 73.5652 13.0089 957 104.866 48.4389 467.252
603 0 81.2704 16.9927 1381 100.143 48.58 464.406
604 0 82.1951 12.6528 1040 105.381 49.4106 466.456
605 0 88.413 13.0524 1154 104.836 49.5789 466.696
606 0 89.4466 12.2978 1100 105.256 49.0627 466.941
607 0 89.4302 14.8048 1324 101.76 47.2689 469.38
608 0 95.478 14.7992 1413 103.144 48.3808 466.108
609 0 96.8087 14.2962 1384 104.678 48.3461 465.051
610 1 55.4579 14.3532 796 101.505 46.3178 484.384
611 0 57.3102 16.8731 967 98.9462 46.2461 484.23
612 0 59.9811 16.1051 966 97.1491 47.0207 490.675
613 0 59.415 15.8209 940 101.64 46.2894 482.166
614 0 58.324 12.482 728 106.859 45.6305 485.62
615 0 62.1477 14.8678 924 103.456 44.2846 480.947
616 0 64.317 13.8533 891 104.315 44.0539 481.597
617 0 64.2341 12.5323 805 107.01 43.072 477.888
618 0 68.6681 14.8978 1023 103.154 43.2483 480.905
619 0 70.2196 14.4404 1014 105.303 41.8284 473.714
620 0 71.7692 16.6088 1192 102.526 41.3792 477.01
621 0 73.3979 13.311 977 107.28 41.5425 470.818
622 0 75.2858 15.4611 1164 105.018 41.6804 468.59
623 0 81.6032 18.5287 1512 99.9358 41.3915 467.009
624 0 79.2584 13.7903 1093 105.301 40.8188 472.478
625 0 82.2773 12.5794 1035 108.358 40.7874 466.437
626 0 85.3927 15.2238 1300 105.595 40.7946 461.256
627 0 86.3659 18.2711 1578 101.916 41.102 460.594
628 0 89.9019 14.2044 1277 106.872 41.9726 461.672
629 0 92.3712 15.0913 1394 106.607 40.9964 458.621
630 0 96.4245 16.7385 1614 103.709 41.9622 454.071
631 1 50.216 11.9484 600 108.382 41.2117 473.817
632 0 60.949 13.6836 834 101.625 43.6727 478.851
633 0 59.1876 17.6219 1043 100.761 43.185 472.412
634 0 61.6853 14.574 899 104.35 44.0979 470.635
635 0 61.3168 13.1775 808 106.906 42.9208 465.946
636 0 63.5039 18.8965 1200 100.514 45.4492 465.378
637 0 62.1739 15.8266 984 102.411 44.2297 471.279
638 0 67.1411 15.7727 1059 103.491 45.0585 464.282
639 0 70.3678 14.5663 1025 105.289 45.5698 462.28
640 0 76.3102 16.564 1264 101.655 47.3038 464.737
641 0 71.4481 12.1907 871 109.379 47.0999 460.584
642 0 75.3262 12.187 918 108.542 48.049 456.955
643 0 83.7013 16.977 1421 101.429 47.9338 462.628
644 0 85.0994 19.0248 1619 98.7529 48.0964 464.426
645 1 157.503 16.9585 2671 102.866 47.5893 430.718
646 1 86.2634 12.6357 1090 108.414 47.8945 459.277
647 0 92.1696 18.824 1735 100.257 47.2519 461.184
648 0 97.1682 14.0993 1370 106.264 47.5066 460.109
649 0 101.25 18.6074 1884 100.343 47.9252 463.78
650 1 51.0666 12.7872 653 107.08 46.3124 484.617
651 0 54.0701 13.9264 753 105.716 47.7078 481.291
652 0 58.0805 14.5143 843 103.375 46.7794 486.554
653 0 57.1428 11.55 660 110.918 47.3273 484.886
654 0 58.0582 13.9687 811 108.529 46.9075 482.995
655 0 63.094 14.0267 885 108.38 44.9853 484.141
656 0 62.0948 11.1765 694 115.343 44.9481 480.703
657 0 66.0553 18.1666 1200 104.462 44.9967 483.801
658 0 69.1395 19.3522 1338 102.865 42.6898 476.469
659 0 71.1649 15.3165 1090 109.404 43.3147 473.85
660 0 73.1362 14.1243 1033 112.651 42.484 475.945
661 0 77.1626 12.4153 958 113.686 41.3006 473.137
662 0 81.0871 15.4402 1252 110.977 40.9065 464.534
663 0 82.245 16.2442 1336 109.311 41.735 470.62
664 0 85.1181 16.624 1415 108.555 40.5399 471.416
665 0 88.2471 15.9439 1407 109.291 40.4371 465.919
666 1 46.039 11.7075 539 112.039 39.5083 484.668
667 0 47.121 14.9403 704 106.786 39.9162 482.764
668 0 47.0927 11.5304 543 112.333 39.7477 475.772
669 0 48.0592 13.8995 668 110.964 39.9401 472.975
670 0 50.0773 15.5559 779 110.66 41.0745 479.363
671 0 53.1482 14.977 796 113.068 40.4623 478.52
672 0 55.1188 14.9677 825 112.812 40.5758 475.504
673 0 57.0746 17.0479 973 109.079 41.2425 475.469
674 0 57.0273 14.0985 804 116.164 40.791 472.851
675 0 60.0612 16.2667 977 113.193 42.2989 471.76
676 0 60.0991 14.1932 853 117.702 42.7691 470.872
677 0 65.0572 19.4752 1267 108.821 44.1547 469.049
678 0 68.1542 16.6094 1132 113.045 44.0901 467.939
679 0 72.3043 16.1401 1167 112.839 45.0943 469.303
680 0 73.2936 18.8147 1379 108.852 45.7679 463.538
681 0 71.1781 14.274 1016 117.707 46.4429 456.702
682 0 74.5706 15.0864 1125 113.381 46.7689 455.071
683 0 77.1869 14.4195 1113 113.277 46.5624 457.29
684 0 78.2131 13.6422 1067 114.888 48.4189 460.427
685 0 85.2775 16.546 1411 112.066 48.3551 457.634
686 0 87.0914 17.1314 1492 112.084 49.0677 458.515
687 0 86.3371 13.5863 1173 117.428 47.5482 458.897
688 0 91.2867 14.2847 1304 115.077 48.7285 452.896
689 0 97.3253 19.4605 1894 107.362 48.8025 460.493
690 1 55.467 12.7824 709 109.471 48.426 483.972
691 0 55.0615 12.5133 689 115.2 47.1234 480.377
692 0 58.0826 13.5324 786 114.394 47.5331 480.565
693 0 61.0518 14.545 888 111.851 46.7432 482.258
694 0 60.0892 12.8975 775 114.757 47.2877 478.266
695 0 65.0575 12.1124 788 115.476 46.4213 480.209
696 0 65.1406 13.2329 862 112.659 47.0244 481.425
697 0 67.3873 13.1182 884 113.115 46.1697 480.206
698 0 71.1637 14.6563 1043 111.094 46.14 478.361
699 0 74.4309 13.6234 1014 111.868 44.8876 476.98
700 0 76.1928 15.1458 1154 109.041 44.2608 475.302
701 0 78.3143 14.9781 1173 110.188 42.9531 474.047
702 0 79.1295 13.0545 1033 113.099 42.9458 474.09
703 0 84.1485 18.4555 1553 104.437 43.2067 475.436
704 0 88.2542 14.3449 1266 109.585 42.6769 471.477
705 0 91.2353 17.1206 1562 105.075 41.6645 465.182
706 0 92.4208 14.8235 1370 107.285 41.8372 466.123
707 0 92.0859 9.96895 918 113.784 42.1166 464.981
708 0 95.3572 11.9865 1143 110.901 41.2336 465.168
709 1 48.196 10.0631 485 109.105 40.8144 479.122
710 0 49.2016 10.8939 536 107.381 42.5522 476.743
711 0 56.2421 13.6019 765 106.277 40.3059 479.584
712 0 58.3812 14.7479 861 103.686 41.1882 478.358
713 0 58.1069 11.0658 643 109.017 38.7403 476.117
714 0 57.1444 10.2372 585 109.32 39.7043 477.503
715 0 61.315 11.4001 699 108.681 39.0272 475.774
716 1 124.311 11.3426 1410 112.367 41.3823 447.47
717 1 66.1689 15.0977 999 104.208 40.1642 470.819
718 0 68.3325 12.1465 830 107.193 41.2193 464.672
719 0 70.1992 14.0173 984 105.349 41.1209 464.482
720 0 73.4393 14.6379 1075 104.585 43.1712 466.673
721 0 70.1479 8.01164 562 114.591 43.7402 460.993
722 0 76.2817 12.113 924 108.404 44.3009 465.357
723 0 79.4438 13.9344 1107 105.089 45.2385 461.971
724 0 82.4511 14.5783 1202 103.582 45.6639 462.264
725 0 82.4942 12.0008 990 108.169 45.799 459.853
726 0 89.6111 17.8661 1601 100.371 45.6321 453.255
727 0 95.4551 14.8866 1421 103.529 47.7593 456.005
728 0 92.6292 11.4111 1057 109.091 47.8562 454.248
729 1 48.2828 9.56862 462 103.734 48.2273 481.348
730 0 51.0562 9.30347 475 107.204 47.3326 478.758
731 0 51.0935 12.6239 645 104.344 47.8605 480.408
732 0 53.0526 10.254 544 106.715 47.1949 479.34
733 0 55.0838 11.5097 634 104.894 47.9464 476.487
734 0 58.1074 12.2187 710 103.346 47.9662 481.277
735 0 57.0927 9.7911 559 106.556 47.1413 481.424
736 0 61.0808 13.1793 805 102.466 47.4708 480.616
737 0 62.1844 15.1967 945 101.748 46.9376 483.218
738 0 66.2306 13.6795 906 103.776 47.3631 481.46
739 0 73.7679 14.9116 1100 100.428 46.8609 482.838
740 0 70.3377 12.3831 871 106.072 46.7049 479.571
741 0 72.5384 20.5271 1489 95.4345 45.2257 479.193
742 0 78.7523 15.5424 1224 100.89 45.5245 473.339
743 0 73.5893 13.8335 1018 104.477 44.6287 472.699
744 0 79.6198 17.37 1383 97.2502 42.4107 475.5
745 0 78.08 12.6665 989 104.55 42.638 469.483
746 0 83.4 13.6091 1135 101.315 43.3789 473.603
747 0 86.1634 13.6021 1172 104.119 42.6041 464.079
748 1 44.2545 11.0949 491 103.935 43.2892 486.984
749 0 44.1309 15.6806 692 100.383 42.1069 482.491
750 0 46.1365 15.2808 705 98.9688 42.2284 486.98
751 0 46.0689 17.1482 790 99.1886 41.6367 484.277
752 0 47.0363 12.8199 603 106.416 42.1327 479.469
753 0 50.0869 13.6962 686 104.586 42.0671 480.316
754 0 53.1635 14.841 789 104.645 43.3409 480.015
755 0 54.0834 11.6672 631 108.021 43.3344 475.8
756 0 53.0865 12.15 645 108.828 42.6496 475.755
757 0 58.1618 14.4253 839 105.704 43.5518 473.179
758 0 56.1441 14.2312 799 140.633 44.5882 472.568
759 0 62.1178 16.3077 1013 104.707 43.9408 468.359
760 0 62.0803 14.9806 930 106.66 43.4108 469.953
761 0 65.0941 14.4867 943 108.37 44.7688 466.355
762 0 69.4167 16.7683 1164 103.678 44.0026 467.047
763 0 72.1261 14.2112 1025 107.057 46.0234 465.54
764 0 73.1451 17.2397 1261 101.722 45.4274 458.398
765 0 76.218 15.928 1214 105.613 46.5437 455.848
766 0 75.1942 11.4769 863 110.835 47.0487 460.183
767 0 82.0654 18.3634 1507 100.768 47.7286 458.754
768 0 81.1297 11.3892 924 112.218 47.9048 456
769 0 85.1382 13.1668 1121 109.9 48.0589 459.622
770 0 90.3435 17.3006 1563 102.477 48.6999 462.195
771 1 47.0217 12.1433 571 109.951 48.9667 476.876
772 0 48.1133 12.3459 594 108.544 48.9596 477.019
773 0 50.0601 13.2441 663 105.947 49.813 477.199
774 0 52.083 18.2593 951 99.5268 50.0305 482.328
775 0 55.1301 15.6539 863 102.786 50.5446 479.63
776 0 55.0666 10.7688 593 110.433 49.8415 476.825
777 0 56.064 13.5559 760 106.72 48.9934 477.899
778 0 58.0843 11.7932 685 112.764 47.8073 478.058
779 0 61.1309 13.2503 810 109.848 47.5963 479.281
780 0 64.0346 16.5848 1062 104.931 48.9266 480.68
781 0 62.1306 12.6669 787 112.72 48.0343 477.14
782 0 64.1056 11.8242 758 113.193 47.5752 479.157
783 0 69.1597 12.5362 867 110.293 47.0565 481.07
784 0 75.1835 16.0807 1209 105.321 46.7643 478.107
785 0 73.1636 12.8889 943 110.162 45.7232 477.599
786 0 75.1222 13.0454 980 112.208 45.0694 476.459
787 0 78.234 15.5303 1215 109.704 45.2658 471.635
788 0 83.2489 19.5678 1629 103.277 44.6648 467.527
789 0 85.145 17.4996 1490 106.294 44.1477 468.887
790 0 86.3607 15.0879 1303 109.651 43.1612 466.025
791 0 89.1641 19.2903 1720 103.709 43.364 463.513
792 0 90.2686 15.4871 1398 108.871 41.4678 463.938
793 1 48.2062 13.3593 644 108.092 41.8323 484.2
794 0 53.1522 12.3607 657 107.971 43.1522 483.314
795 0 52.152 10.9488 571 112.771 40.1629 477.991
796 0 56.1862 17.2462 969 102.623 41.1146 478.847
797 0 57.0643 15.3336 875 107.141 41.5623 476.506
798 0 58.1713 14.9043 867 109.912 41.4787 475.092
799 0 61.1309 14.7716 903 109.213 41.804 474.414
800 0 64.113 14.5992 936 108.065 41.3526 474.035
801 0 63.2091 14.6973 929 110.785 42.2454 468.396
802 0 63.2868 12.3564 782 113.39 41.9923 470.292
803 0 66.161 14.6763 971 112.105 42.3584 466.365
804 0 70.2513 14.5193 1020 111.221 42.7529 464.129
805 0 72.2333 13.7748 995 112.229 44.3618 462.564
806 0 74.2422 14.8298 1101 112.702 44.8629 460.753
807 0 78.1842 15.796 1235 110.888 44.5482 458.913
808 0 80.2728 14.4134 1157 113.529 47.4175 458.048
809 0 83.2994 15.3542 1279 112.619 47.5223 457.881
810 0 83.4769 15.2857 1276 113.386 47.8425 456.121
811 1 46.2923 14.2788 661 112.897 48.8215 475.552
812 0 47.2594 11.9764 566 113.633 48.1979 477.541
813 0 47.1396 12.1978 575 114.259 48.367 477.748
814 0 52.1073 14.758 769 109.105 49.8205 480.026
815 0 53.1028 16.4775 875 107.975 48.8194 478.128
816 0 55.0453 14.4608 796 111.553 49.2437 476.991
817 0 55.033 13.8281 761 112.201 48.364 479.072
818 0 59.0991 15.4655 914 110.196 49.0656 477.257
819 0 59.2289 15.2459 903 109.446 49.3976 481.553
820 0 63.1325 18.5641 1172 106.824 49.5043 479.212
821 0 63.0265 14.1369 891 115.361 48.4456 475.008
822 0 65.1871 16.5217 1077 110.754 49.3788 475.081
823 0 66.1944 14.261 944 114.778 47.3337 475.708
824 0 67.0482 12.7371 854 117.219 48.9028 474.422
825 0 72.1252 14.0312 1012 113.69 47.4605 474.125
826 0 72.0981 15.0351 1084 113.175 47.4631 472.388
827 0 75.1684 14.5806 1096 112.804 46.4681 475.641
828 0 79.139 18.7518 1484 106.615 46.2763 473.941
829 0 78.1795 14.6074 1142 113.035 45.521 474.109
830 0 83.2543 16.5036 1374 109.351 45.4483 471.733
831 0 87.1487 15.2268 1327 109.843 44.5305 468.369
832 0 88.1766 16.3309 1440 109.185 44.7903 466.846
833 0 90.1707 17.3671 1566 107.556 43.7618 460.352
834 0 94.1256 17.2217 1621 107.343 43.7421 463.157
835 0 98.2057 17.2291 1692 105.758 43.6141 465.523
836 0 102.46 23.5019 2408 98.1906 43.7438 466.114
837 0 102.244 14.749 1508 113.231 43.569 453.572
838 0 106.135 14.5758 1547 112.705 43.2805 456.041
839 0 110.231 16.9009 1863 109.461 43.2142 453.155
840 0 116.532 14.9058 1737 110.6 42.2735 449.72
841 1 63.2967 13.8712 878 110.142 42.7096 473.948
842 0 63.1881 11.1888 707 112.861 42.7482 472.809
843 0 67.0866 13.8031 926 108.836 43.0713 471.698
844 0 72.1011 14.6877 1059 105.638 42.3928 467.589
845 1 139.437 16.2009 2259 102.129 43.6631 437.304
846 1 77.0978 16.9006 1303 102.295 43.9532 465.502
847 0 80.208 18.0281 1446 100.857 44.2351 464.189
848 0 79.1816 13.7911 1092 107.669 44.7628 464.356
849 0 80.1686 14.4071 1155 108.372 44.5593 458.004
850 0 85.3294 18.7977 1604 102.103 46.1683 454.925
851 0 85.2939 10.7862 920 114.717 46.6 454.304
852 0 91.1705 15.5313 1416 107.207 48.6102 455.787
853 0 91.1704 14.9391 1362 107.937 47.663 453.578
854 0 95.4665 13.4916 1288 110.279 49.6995 449.935
855 0 102.261 16.585 1696 105.654 48.6392 450.485
856 0 103.146 16.433 1695 107.3 49.3906 444.127
857 0 105.173 12.5983 1325 113.915 50.1079 444.386
858 1 57.1529 13.5426 774 111.698 50.6589 471.354
859 0 55.1183 12.7362 702 115.427 50.896 472.615
860 0 58.0863 11.6723 678 115.077 51.2109 472.696
861 0 61.1074 13.4026 819 111.78 50.9219 473.327
862 0 64.2475 15.9228 1023 108.457 50.5298 473.877
863 0 66.1126 14.324 947 111.962 50.8458 473.082
864 0 68.0981 16.1679 1101 108.314 50.4423 474.728
865 0 70.0959 11.5984 813 117.231 49.3788 469.289
866 0 73.2011 14.7949 1083 112.718 49.5974 471.357
867 0 75.2021 13.9624 1050 114.632 49.5057 471.748
868 0 81.1726 14.9804 1216 111.741 48.7319 468.851
869 0 82.1864 15.7812 1297 111.453 47.5837 467.761
870 0 86.2314 13.974 1205 113.793 47.6548 468.742
871 0 88.1561 15.3364 1352 112.534 47.2641 467.348
872 0 92.2518 15.6528 1444 112.303 45.9217 462.881
873 0 95.2759 15.5548 1482 111.424 45.5796 464.904
874 0 97.2849 24.6698 2400 99.1646 44.9346 465.02
875 0 99.291 14.0597 1396 114.211 45.2593 459.129
876 0 103.431 16.5231 1709 110.09 45.1568 455.831
877 0 105.352 14.7126 1550 113.754 43.8871 447.293
878 1 55.1676 10.9122 602 116.694 43.995 475.553
879 0 58.1811 13.5267 787 113.433 43.3151 472.32
880 0 60.0569 15.6518 940 109.351 43.6064 473.127
881 0 61.2086 14.5404 890 112.851 43.3112 468.66
882 0 65.0899 14.7642 961 111.472 43.1956 469.643
883 0 66.1093 13.2659 877 114.786 42.382 465.977
884 0 70.0796 12.4573 873 116.202 43.0836 458.369
885 0 73.3964 18.584 1364 105.963 42.7669 460.145
886 0 74.1765 13.8453 1027 114.156 43.4537 459.881
887 0 77.1718 13.3728 1032 115.943 43.9331 456.545
888 0 77.1287 11.6947 902 119.604 43.6951 457.42
889 0 78.1474 14.7798 1155 115.923 44.5333 451.795
890 0 83.2851 13.76 1146 116.968 45.3578 453.602
891 0 85.2367 19.1115 1629 107.964 45.2769 451.952
892 0 85.0605 9.94586 846 124.177 46.8747 447.6
893 0 87.3356 17.0492 1489 110.96 46.268 452.083
894 0 94.1597 16.7906 1581 109.66 47.0455 448.011
895 0 94.2145 14.6687 1382 112.333 48.5188 447.425
896 0 98.4993 15.9392 1570 111.029 48.8987 443.072
897 0 101.44 11.9282 1210 116.862 48.8769 442.737
898 0 103.195 11.8513 1223 117.331 49.3369 438.086
899 0 111.362 13.4875 1502 114.244 49.7317 435.758
900 1 61.274 14.2964 876 109.187 50.3345 468.394
901 0 65.1305 13.4346 875 111.231 49.8571 466.494
902 0 66.1857 13.9909 926 111.21 50.7009 463.032
903 0 68.2325 13.5566 925 113.364 50.6573 465.291
904 0 73.1345 14.1383 1034 111.424 50.5493 466.158
905 0 76.3287 15.5905 1190 107.904 50.2462 468.399
906 0 78.2073 12.6715 991 113.675 50.1443 461.622
907 0 80.2082 12.5673 1008 114.291 49.9851 464.358
908 0 83.1916 14.6649 1220 110.994 49.7574 463.839
909 0 85.2923 13.6003 1160 112.441 49.4129 465.178
910 0 85.2864 11.5845 988 117.091 49.0152 456.221
911 0 89.2946 14.3122 1278 112.243 49.4695 461.092
912 0 91.2335 15.4548 1410 109.801 49.061 464.946
913 0 94.3366 12.784 1206 114.95 48.3035 457.648
914 0 96.5285 13.9441 1346 111.97 47.3031 454.606
915 0 98.1459 11.8599 1164 116.819 46.6297 451.663
916 0 100.31 11.9429 1198 115.233 46.0275 452.918
917 0 99.3583 15.9524 1585 108.909 45.1849 455.218
918 0 107.297 15.35 1647 109.886 43.6096 451.424
919 0 112.527 13.4368 1512 113.371 44.7784 448.831
920 0 115.41 13.8377 1597 112.57 43.8159 445.425
921 0 125.288 16.0271 2008 107.209 44.6449 449.905
922 0 126.353 15.053 1902 109.807 44.0394 442.253
923 1 64.1954 9.4555 607 112.379 42.7414 465.718
924 0 73.1022 14.3498 1049 103.322 43.837 471.766
925 0 76.2473 11.3709 867 109.27 43.391 466.272
926 0 77.0935 19.7034 1519 98.1995 42.1527 464.481
927 0 80.1743 12.8595 1031 108.298 43.5984 463.678
928 0 78.3683 15.1082 1184 106.383 43.9941 456.998
929 0 80.2498 13.4954 1083 109.341 43.8273 451.931
930 0 87.1761 11.4825 1001 110.179 43.3556 454.168
931 0 87.187 11.9513 1042 110.9 45.0182 449.713
932 0 88.1786 12.7015 1120 109.26 44.958 448.245
933 0 91.1325 11.7411 1070 110.83 45.328 443.246
934 0 95.1597 13.1043 1247 109.39 45.4619 439.987
935 0 100.193 16.6279 1666 103.421 46.6735 446.905
936 0 102.164 13.1064 1339 109.764 46.9066 449.978
937 0 105.18 13.5673 1427 109.696 48.8781 446.626
938 0 105.18 12.3408 1298 113.005 48.698 439.133
939 0 108.197 11.6824 1264 112.729 48.9858 438.733
940 1 225.517 11.8705 2677 119.566 49.5151 387.926
941 1 116.238 9.05042 1052 116.314 50.827 438.621
942 1 65.2554 14.4969 946 102.207 51.1459 466.427
943 0 66.1817 9.82144 650 112.171 50.8862 465.117
944 0 71.5133 12.4872 893 109.553 50.4826 466.462
945 0 75.1767 12.3309 927 108.771 50.0032 463.05
946 0 78.1684 16.6564 1302 101.143 49.8733 466.265
947 0 80.2632 14.1908 1139 104.305 50.5847 462.377
948 0 82.3949 17.8166 1468 99.3256 50.1083 457.935
949 0 84.2205 11.0187 928 108.255 50.3373 466.13
950 0 89.17 14.3098 1276 103.19 50.2853 461.085
951 0 91.2554 13.2924 1213 104.364 50.2226 463.004
952 0 92.2032 11.7458 1083 106.942 50.1625 460.687
953 0 95.2093 13.5596 1291 104.289 48.5205 460.265
954 1 48.117 9.04046 435 106.894 48.2253 477.864
955 0 54.1508 11.0248 597 103.771 47.4891 479.621
956 0 54.0611 9.63724 521 107.169 47.0288 484.188
957 0 57.0608 12.2326 698 107.365 45.6934 484.036
958 0 61.1857 10.8686 665 107.444 44.7805 481.418
959 0 61.2469 9.9107 607 107.806 44.4695 481.361
960 0 67.5419 22.8303 1542 90.9916 44.013 474.269
961 0 66.254 15.8028 1047 98.872 43.8854 477.392
962 0 66.1582 13.3015 880 103.373 43.7307 478.688
963 0 70.411 16.7161 1177 98.469 45.0875 477.566
964 0 70.2087 11.2237 788 106.452 43.552 473.636
965 0 74.4779 14.407 1073 101.584 43.5573 474.583
966 0 73.4751 12.739 936 104.572 43.3857 471.734
967 0 75.2933 11.0501 832 109.512 43.1502 467.371
968 0 78.3502 12.3548 968 107.951 43.0537 466.933
969 0 81.2443 14.8564 1207 105.336 43.3687 467.096
970 0 82.2081 13.259 1090 109.439 42.6844 464.671
971 0 86.1887 13.2616 1143 108.108 43.9099 464.166
972 0 86.2656 14.3047 1234 109.438 43.8404 457.164
973 0 89.3259 16.6245 1485 105.055 44.8896 457.542
974 0 94.57 20.8523 1972 97.7637 45.1242 464.751
975 0 95.3009 16.4741 1570 104.054 45.4745 455.448
976 0 98.4597 16.2808 1603 109.029 46.0655 452.995
977 0 99.3771 17.4286 1732 107.956 46.2812 453.637
978 0 100.245 14.8137 1485 110.488 46.0626 453.195
979 0 103.279 15.0176 1551 111.772 47.7247 443.975
980 0 110.415 20.2237 2233 101.862 47.8204 451.922
981 0 110.323 19.5516 2157 103.668 49.382 443.127
982 0 114.185 19.4771 2224 101.83 48.9829 442.335
983 0 119.318 17.885 2134 102.969 49.1003 430.547
984 0 121.331 14.6706 1780 108.471 50.1343 427.968
985 0 124.322 14.1005 1753 109.39 50.4815 425.959
986 0 133.516 16.5748 2213 103.772 51.0741 430.035
987 0 135.273 14.9402 2021 107.389 50.5854 428.937
988 0 140.391 21.3333 2995 99.2841 51.5332 430.672
989 0 145.24 14.1904 2061 111.949 51.3401 430.972
990 0 148.5 12.9966 1930 113.604 51.8964 424.889
991 0 151.266 12.6995 1921 116.283 51.9224 426.435
992 0 156.419 13.937 2180 111.275 51.1463 432.362
993 0 158.431 12.7816 2025 114.487 51.4267 420.07
994 0 169.461 13.8498 2347 113.17 51.1508 422.834
995 0 173.525 15.2254 2642 110.959 51.3902 422.581
996 0 180.368 13.7996 2489 115.008 49.9904 423.466
997 0 187.774 15.3376 2880 110.854 48.7483 424.261
998 0 188.356 10.9155 2056 119.808 49.2354 414.88
999 0 194.641 14.0104 2727 117.375 48.8016 408.226
1000 0 204.723 18.4542 3778 109.516 47.8745 412.567
1001 0 208.365 14.6906 3061 115.192 46.2476 401.936
1002 0 216.731 14.8341 3215 113.425 46.8432 413.498
1003 0 226.633 15.3067 3469 113.759 45.8368 396.367
1004 0 236.71 12.4118 2938 116.791 45.7124 408.773
1005 1 67.1915 10.5222 707 116.307 43.0085 472.24
1006 0 70.2653 14.1748 996 110.918 44.0673 468.8
1007 0 73.1737 13.1195 960 113.396 44.2531 467.098
1008 0 77.1006 14.1244 1089 110.894 43.7713 469.792
1009 0 80.1161 13.755 1102 111.167 42.7632 467.083
1010 0 83.2438 14.2113 1183 110.443 43.2223 466.145
1011 0 84.1339 13.6925 1152 111.126 43.3663 466.128
1012 0 88.2639 13.9808 1234 111.536 42.5632 459.892
1013 0 92.4059 14.9125 1378 107.956 43.2148 462.596
1014 0 94.1384 13.9263 1311 110.978 42.6003 457.58
1015 0 97.1971 15.7309 1529 108.682 44.1746 455.946
1016 0 100.163 17.4915 1752 106.694 44.9315 453.316
1017 0 102.248 12.7045 1299 113.462 44.8714 448.915
1018 0 104.3 14.4295 1505 111.795 45.2286 443.43
1019 0 110.29 14.625 1613 111.687 45.4104 448.657
1020 1 61.1549 13.5067 826 107.626 46.1199 469.093
1021 0 63.1894 12.6603 800 107.63 46.4775 466.929
1022 0 64.2819 13.8608 891 107.982 46.1964 465.169
1023 0 67.2249 13.1499 884 110.07 46.6855 465.115
1024 0 70.4066 14.7998 1042 107.14 48.1324 463.631
1025 0 70.3613 13.9708 983 107.901 48.7202 459.646
1026 0 74.302 12.9472 962 107.167 48.7682 461.15
1027 0 76.6093 13.9409 1068 107.611 49.4934 459.174
1028 0 75.3387 10.7116 807 110.665 48.6865 461.879
1029 0 83.3806 17.57 1465 101.735 50.484 457.054
1030 0 85.6033 12.4762 1068 108.295 51.2631 455.518
1031 0 90.3638 16.5 1491 101.745 50.0872 455.608
1032 0 90.5325 12.7579 1155 107.256 50.8615 455.758
1033 0 92.3638 13.5767 1254 107.026 50.5598 453.62
1034 0 97.7976 14.4891 1417 105.968 51.6076 453.589
1035 0 101.921 11.6365 1186 109.401 51.0438 455.222
1036 0 104.718 15.9476 1670 103.348 51.1138 452.274
1037 0 107.685 13.9481 1502 106.969 50.1185 450.674
1038 0 113.487 15.1119 1715 104.401 51.1633 454.969
1039 0 117.336 12.3747 1452 107.959 49.3326 453.981
1040 1 62.7495 11.6017 728 106.819 48.0838 478.407
1041 0 67.3125 12.3603 832 106.465 47.857 475.35
1042 0 69.226 14.041 972 102.787 47.8416 474.22
1043 0 74.2297 13.1214 974 102.95 47.7464 471.467
1044 1 131.107 5.16372 677 114.49 46.3102 462.597
1045 0 141.686 11.9772 1697 109.035 45.66 440.986
1046 0 150.785 17.2033 2594 101.306 45.6199 441.066
1047 0 154.648 13.0296 2015 107.426 45.7935 434.184
1048 1 91.601 17.0085 1558 99.0411 44.2202 461.948
1049 0 90.5201 11.3787 1030 107.016 43.7874 462.285
1050 0 93.4514 15.4519 1444 102.404 43.5845 457.119
1051 0 97.4978 13.19 1286 105.368 42.2193 455.483
1052 0 99.4239 12.844 1277 105.599 43.1785 456.734
1053 0 101.682 13.2177 1344 106.026 42.7723 456.91
1054 0 102.535 10.6598 1093 110.454 43.0256 453.054
1055 0 113.409 10.8722 1233 108.238 43.2547 456.573
1056 0 112.513 14.2739 1606 104.027 43.2621 452.819
1057 1 61.2964 13.4103 822 102.837 41.955 472.852
1058 0 62.1621 11.7435 730 105.315 40.9795 472.545
1059 0 62.0558 10.1844 632 108.791 41.9715 470.191
1060 0 68.1709 12.6007 859 104.487 41.8731 470.255
1061 0 69.1845 15.2346 1054 102.242 43.1252 466.963
1062 0 71.2671 15.4349 1100 101.527 43.5836 466.855
1063 0 72.2323 13.152 950 106.002 44.6358 468.6
1064 0 76.3403 12.798 977 107.192 44.9898 466.897
1065 0 77.2348 13.336 1030 108.405 45.9175 463.673
1066 0 80.1964 13.3298 1069 109.83 45.9008 459.737
1067 0 82.1361 20.1982 1659 100.844 46.6052 458.271
1068 0 85.2322 16.2615 1386 104.732 47.0577 465.885
1069 0 87.2301 11.2232 979 114.172 48.1267 460.26
1070 0 91.3256 13.304 1215 110.232 49.0091 461.305
1071 0 95.2295 13.9453 1328 109.681 49.2967 457.918
1072 0 93.4409 11.6437 1088 114.46 49.4522 456.775
1073 0 99.2719 15.1805 1507 108.443 49.9131 456.684
1074 0 102.352 13.5708 1389 111.394 51.6105 455.043
1075 0 102.367 12.9828 1329 113.836 52.0737 452.514
1076 0 108.414 16.1326 1749 107.186 50.5397 456.169
1077 0 114.555 12.3172 1411 112.599 50.5599 454.218
1078 0 116.474 15.6945 1828 109.706 50.959 448.632
1079 0 120.402 11.1709 1345 115.728 50.2914 452.747
1080 0 125.865 13.4827 1697 111.253 51.3701 453.974
1081 1 66.2258 11.9591 792 113.028 49.4747 471.84
1082 0 71.3146 14.1906 1012 108.993 49.7283 473.183
1083 0 72.1851 10.5285 760 113.778 46.6789 474.325
1084 0 76.0875 13.9839 1064 107.613 47.3026 476.091
1085 0 81.307 13.8979 1130 106.795 45.8991 473.806
1086 0 82.2198 12.7098 1045 109.62 46.6115 473.261
1087 0 85.2765 15.7253 1341 103.32 45.4713 476.916
1088 0 89.2925 14.9061 1331 105.325 45.3734 471.027
1089 0 92.3414 14.2731 1318 106.238 44.025 472.464
1090 0 94.3742 14.3471 1354 106.191 44.2747 469.63
1091 0 98.4511 13.9054 1369 106.882 44.0183 466
1092 0 96.4426 12.9507 1249 108.743 43.1465 462.161
1093 0 100.295 14.4275 1447 107.238 42.2702 459.475
1094 0 105.327 15.5326 1636 104.813 42.1822 453.397
1095 0 108.483 14.417 1564 106.458 42.1758 455.017
1096 0 106.384 13.5265 1439 104.851 42.2585 458.446
1097 0 108.329 11.105 1203 108.874 42.2244 455.426
1098 1 121.114 9.72639 1178 109.033 42.6774 458.976
1099 0 119.15 17.0206 2028 101.542 41.6341 440.791
1100 1 62.0905 11.3061 702 109.201 42.5783 469.507
1101 0 65.0798 12.5077 814 107.502 42.613 468.557
1102 0 67.0954 13.2051 886 106.358 43.0079 466.72
1103 0 71.1815 10.3538 737 109.144 43.2347 467.366
1104 0 70.2459 10.6198 746 109.475 42.508 464.457
1105 0 74.1065 11.1731 828 108.609 43.6184 463.861
1106 0 83.3723 15.3049 1276 105.046 43.5063 463.882
1107 0 83.3375 13.3913 1116 108.82 44.7213 461.587
1108 0 87.2848 18.7662 1638 101.269 43.514 457.56
1109 0 92.2767 13.8497 1278 108.149 45.9139 459.092
1110 0 92.3489 14.4236 1332 108.733 46.759 452.932
1111 0 92.2224 10.4421 963 114.968 46.785 454.103
1112 0 99.339 15.5729 1547 107.079 46.8559 450.611
1113 0 103.401 16.1506 1670 105.25 46.6707 452.842
1114 1 57.1653 12.0178 687 110.505 45.671 473.981
1115 0 60.0807 13.1157 788 106.214 46.9251 475.65
1116 0 65.7927 18.2239 1199 98.3711 48.7231 470.384
1117 0 63.1336 13.6061 859 108.376 48.8522 466.554
1118 0 62.4104 9.77402 610 113.793 48.2984 470.482
1119 0 67.1617 13.192 886 110.256 48.9176 466.94
1120 0 67.146 13.6568 917 109.659 49.2868 468.373
1121 0 69.1428 13.1756 911 111.15 48.787 470.22
1122 0 70.4658 12.1619 857 112.756 49.133 471.879
1123 0 75.1512 14.7702 1110 109.483 47.7324 473.215
1124 0 77.086 12.8298 989 112.041 48.3721 474.995
1125 0 82.124 14.9165 1225 109.004 47.5167 473.27
1126 0 82.2417 13.971 1149 112.409 46.6188 468.449
1127 0 85.1926 14.8605 1266 109.608 45.7709 468.515
1128 0 86.093 13.9616 1202 111.552 46.4626 471.799
1129 0 91.1059 13.7642 1254 112.253 44.9976 469.205
1130 0 94.2239 15.357 1447 109.142 43.5605 469.469
1131 0 100.264 15.9678 1601 106.956 42.4072 468.695
1132 0 98.1981 12.4035 1218 114.391 42.6281 467.4
1133 0 103.527 13.2912 1376 114.842 41.5763 462.81
1134 0 105.143 12.1359 1276 115.209 42.377 464.651
1135 1 57.1982 10.5423 603 113.199 39.8607 487.514
1136 0 62.0636 12.6967 788 109.703 42.231 482.506
1137 0 61.2602 15.9973 980 104.797 40.3255 480.512
1138 0 65.2399 14.3317 935 108.674 38.8225 477.984
1139 0 65.1441 12.6182 822 111.454 38.9307 481.172
1140 0 67.134 12.0654 810 113.3 39.0346 478.049
1141 0 69.2129 13.09 906 110.817 37.6965 477.317
1142 0 72.1184 12.2438 883 113.163 39.3805 475.297
1143 0 74.2911 15.4393 1147 109.338 39.4167 473.144
1144 0 77.2074 15.2058 1174 110.53 39.7487 467.941
1145 0 79.2512 14.1197 1119 112.601 40.1483 467.705
1146 0 80.0891 13.46 1078 112.337 40.1781 467.795
1147 0 85.1082 20.1273 1713 102.702 40.4594 461.148
1148 0 87.4419 18.1606 1588 104.46 41.6159 462.367
1149 0 88.3913 14.7413 1303 110.505 40.7114 456.739
1150 0 92.6111 17.838 1652 105.854 42.4389 457.708
1151 0 91.2197 11.5655 1055 114.383 43.0777 460.077
1152 1 51.0949 12.0364 615 113.454 42.6569 477.12
1153 0 53.2139 15.3531 817 105.251 45.0159 478.886
1154 0 52.1696 11.5776 604 116.482 44.9752 475.199
1155 0 58.1083 15.3334 891 107.541 45.7733 473.283
1156 0 55.1014 13.4479 741 112.934 45.1714 473.771
1157 0 58.1097 13.9564 811 112.536 45.6819 474.707
1158 0 61.0465 13.76 840 113.063 46.9071 471.895
1159 0 61.1205 14.5287 888 111.831 47.3119 474.368
1160 0 66.0973 15.8403 1047 109.251 49.2111 472.67
1161 0 65.3245 13.4712 880 114.553 48.817 474.02
1162 0 67.1171 12.724 854 117.102 49.5246 472
1163 0 70.1937 13.477 946 114.571 48.0655 470.656
1164 0 71.3414 15.4889 1105 111.357 49.2407 467.643
1165 0 74.0951 13.7661 1020 114.471 48.198 468.346
1166 0 78.2135 14.128 1105 113.006 47.8742 471.16
1167 0 80.1898 13.5803 1089 113.34 47.7493 472.846
1168 0 81.2006 14.8029 1202 112.852 47.574 470.324
1169 0 83.1114 13.6684 1136 114.24 47.0511 472.566
1170 0 87.1273 15.77 1374 110.421 47.2693 471.792
1171 0 90.2854 13.8339 1249 113.944 45.7206 469.962
1172 0 90.2742 12.9827 1172 116.825 45.7227 466.313
1173 0 97.528 15.8826 1549 111.212 44.0297 468.069
1174 0 99.34 13.5595 1347 116.461 44.0713 463.925
1175 0 102.155 18.5208 1892 108.863 43.9498 461.682
1176 0 103.675 13.7931 1430 117.55 44.2531 458.829
1177 0 107.383 15.4493 1659 114.85 43.2749 455.125
1178 0 110.526 15.1096 1670 115.22 42.191 449.586
1179 1 58.1459 11.9699 696 117.481 42.421 482.309
1180 0 60.3508 11.98 723 118.277 42 477.358
1181 0 63.3133 13.1252 831 116.781 41.2479 476.018
1182 0 64.162 11.6736 749 117.765 42.0828 477.434
1183 0 67.2327 13.2822 893 115.819 42.019 472.018
1184 0 71.6281 15.4409 1106 112.373 41.6022 475.041
1185 0 73.6473 13.9992 1031 114.761 41.0175 472.756
1186 0 74.4353 14.4689 1077 116.106 41.5144 466.215
1187 0 80.6161 13.9674 1126 113.152 40.9494 467.678
1188 0 85.9157 13.6529 1173 111.058 41.9147 467.891
1189 0 85.518 13.8801 1187 113.316 42.2072 462.903
1190 0 90.6724 16.0137 1452 108.734 42.0537 461.592
1191 0 89.6078 15.6348 1401 109.273 42.1292 464.218
1192 0 96.6683 16.5101 1596 107.906 43.5138 457.484
1193 0 99.3849 22.0456 2191 100.486 43.7111 459.939
1194 0 100.589 14.4548 1454 112.305 44.8604 453.673
1195 0 105.399 17.0305 1795 108.067 45.644 451.947
1196 0 107.448 15.8216 1700 110.124 45.5765 450.145
1197 1 60.2112 13.7682 829 109.955 45.9819 473.601
1198 0 60.379 10.9641 662 115.222 46.9275 473.252
1199 0 65.3355 13.7291 897 111.068 46.8907 470.557
1200 0 64.718 12.0986 783 113.854 48.0409 474.35
1201 0 67.3489 16.5259 1113 106.643 48.6334 474.243
1202 0 72.3911 15.1814 1099 107.381 49.6379 474.45
1203 0 74.2799 13.6376 1013 112.366 49.5084 469.017
1204 0 75.1493 15.4759 1163 109.046 49.9183 473.027
1205 0 81.2229 21.2625 1727 100.016 49.2113 471.757
1206 0 80.1972 14.6639 1176 110.838 50.0102 470.946
1207 0 81.2405 12.063 980 117.269 50.9735 467.566
1208 0 86.5057 17.5595 1519 107.895 50 469.027
1209 0 88.1473 17.051 1503 109.788 50.0439 469.937
1210 0 91.3757 14.9821 1369 112.89 49.2089 471.349
1211 0 96.6147 15.6394 1511 112.095 49.1873 469.414
1212 1 52.0723 13.366 696 111.996 48.2902 492.28
1213 0 52.1122 14.392 750 113.925 48.0867 490.311
1214 0 55.1016 14.1557 780 114.588 47.0141 489.879
1215 0 57.1281 15.7541 900 113.951 47.2811 486.634
1216 0 58.2249 14.0146 816 117.036 45.9228 486.879
1217 0 59.1566 14.132 836 116.396 43.6914 487.684
1218 0 64.1195 14.972 960 112.632 44.001 486.155
1219 0 63.1799 15.9545 1008 111.715 44.0923 485.933
1220 0 65.3098 16.8887 1103 111.946 42.874 481.84
1221 0 68.3201 15.3981 1052 115.156 43.2101 479.63
1222 0 72.3842 16.3848 1186 111.151 41.9663 482.457
1223 0 70.3071 14.1806 997 116.452 42.8516 478.577
1224 1 99.9358 15.3699 1536 104.213 41.0195 470.185
1225 0 101.991 20.237 2064 97.4588 40.0329 468.641
1226 0 100.351 23.906 2399 94.8416 40.4552 461.028
1227 0 98.9282 24.351 2409 95.8912 40.2017 459.755
1228 0 98.9242 28.537 2823 93.3255 40.6589 458.296
1229 0 95.3492 20.126 1919 104.579 41.1365 463.891
1230 0 97.0441 29.6257 2875 95.0678 40.92 459.897
1231 0 97.3557 16.9276 1648 111.209 41.5479 457.695
1232 0 97.3949 19.2105 1871 109.07 42.8348 457.821
1233 0 100.486 25.2673 2539 101.594 43.4982 450.668
1234 0 98.4539 16.5966 1634 115.299 43.0477 457.261
1235 0 98.2104 12.6158 1239 122.289 43.9217 454.308
1236 0 106.372 16.1039 1713 114.396 45.2207 453.326
1237 1 53.2537 11.9053 634 122 44.6246 471.486
1238 0 59.7671 17.9865 1075 107.795 45.5163 477.189
1239 0 62.9317 16.8913 1063 111.362 45.8561 472.844
1240 0 61.2632 14.5438 891 117.415 46.6319 470.767
1241 0 65.1173 12.6541 824 119.28 47.7112 471.218
1242 0 69.3405 19.6422 1362 107.93 47.732 470.747
1243 0 68.3493 15.6256 1068 116.195 48.589 468.056
1244 0 70.4375 11.7551 828 123.424 48.4903 467.57
1245 0 74.2024 15.3499 1139 116.108 49.2704 469.528
1246 0 76.408 15.2209 1163 116.139 49.7197 469.435
1247 0 77.4482 14.2805 1106 120.439 50.7505 467.557
1248 0 82.2664 16.5195 1359 115.713 50.6026 466.882
1249 0 86.4792 14.5353 1257 118.683 50.8504 465.877
1250 0 86.5456 15.3561 1329 118.108 49.9375 464.917
1251 0 92.2661 16.6692 1538 115.734 50.5514 464.654
1252 0 92.3969 17.1976 1589 115.716 49.3568 464.684
1253 0 94.4038 14.8723 1404 121.001 50.2977 465.135
1254 0 100.289 16.243 1629 117.621 49.3757 464.49
1255 0 101.179 15.3194 1550 120.221 49.8471 458.11
1256 0 108.182 17.4151 1884 116.281 48.3896 460.28
1257 0 108.182 17.3227 1874 145.237 47.3997 460.266
1258 1 66.1042 14.5225 960 113.459 46.1167 482.353
1259 0 68.1966 14.8981 1016 113.705 45.9764 480.732
1260 0 70.2287 12.0891 849 119.265 45.53 479.594
1261 0 70.2035 11.8655 833 121.22 45.5006 475.573
1262 0 72.2122 11.1338 804 120.84 44.5249 476.549
1263 0 75.1051 10.9846 825 120.365 44.1455 475.696
1264 0 78.1872 12.3038 962 116.347 43.7568 478.049
1265 0 82.2284 13.5112 1111 117.768 43.5905 468.588
1266 0 82.2835 11.2781 928 121.131 42.6519 468.391
1267 0 86.4963 13.1566 1138 116.402 42.2548 468.172
1268 0 89.13 13.9908 1247 114.832 42.3224 465.266
1269 0 92.2461 12.6293 1165 116.068 41.3356 463.838
1270 0 96.2852 13.19 1270 114.09 41.5543 462.443
1271 0 95.2236 10.3126 982 117.627 40.5051 461.825
1272 0 100.298 10.8776 1091 119.873 41.9166 451.542
1273 0 106.208 12.4002 1317 114.999 41.6484 452.797
1274 0 107.35 12.3521 1326 115.61 42.009 449.101
1275 0 111.204 15.485 1722 114.517 42.1818 445.178
1276 1 65.1601 10.0982 658 113.357 42.3663 469.226
1277 0 69.1104 11.648 805 111.198 43.5801 472.482
1278 0 71.1837 10.3956 740 113.572 42.7608 464.684
1279 0 71.1837 10.3394 736 140.38 41.7826 464.485
1280 0 72.2736 13.2275 956 110.892 44.5868 462.385
1281 0 78.2756 13.989 1095 110.015 46.6237 463.443
1282 0 79.3067 10.8818 863 113.781 47.2526 464.768
1283 0 83.4734 12.8065 1069 112.645 47.725 456.197
1284 0 84.1779 11.9271 1004 114.371 48.1295 457.04
1285 0 88.1429 13.3647 1178 112.801 50.0772 456.329
1286 0 91.3523 11.8661 1084 115.364 50.2887 455.957
1287 0 94.1471 15.9325 1500 108.159 51.296 455.511
1288 0 98.1349 14.6431 1437 108.12 51.881 456.134
1289 0 97.2134 12.9818 1262 110.128 51.3637 451.893
1290 0 101.269 15.0984 1529 107.521 51.5723 453.096
1291 0 103.293 13.6795 1413 108.05 51.6454 460.534
1292 0 107.286 11.7443 1260 112.463 51.4857 454.984
1293 0 111.264 11.9445 1329 112.117 52.3928 452.329
1294 0 116.517 11.3203 1319 112.409 51.5512 454.526
1295 0 117.318 8.48119 995 117.022 50.6221 452.623
1296 0 123.635 11.1942 1384 113.21 49.3244 446.028
1297 1 70.244 12.4566 875 108.046 50.2183 475.49
1298 0 75.2808 13.4696 1014 105.888 50.3166 478.087
1299 0 77.3268 13.6822 1058 106.424 51.0265 477.926
1300 0 79.5101 9.77234 777 112.386 49.5071 472.1
1301 0 82.2533 10.5528 868 110.975 48.4574 471.593
1302 0 85.586 9.59269 821 112.262 46.5262 471.359
1303 0 83.1972 8.52192 709 114.079 45.4979 467.08
1304 0 88.101 9.95448 877 111.783 44.8894 469.034
1305 0 92.4746 11.906 1101 109.369 44.5005 467.01
1306 0 92.2971 10.5312 972 111.794 43.5021 459.983
1307 0 99.2789 15.7032 1559 103.754 43.0135 464.19
1308 0 103.346 13.2758 1372 110.673 41.4577 455.865
1309 0 106.728 13.8295 1476 108.749 41.3923 462.033
1310 0 112.998 15.5313 1755 106.943 42.1926 461.193
1311 0 110.638 15.8355 1752 108.979 41.4977 451.627
1312 0 115.303 13.9545 1609 111.1 41.941 448.93
1313 0 119.298 14.1327 1686 108.727 40.3689 446.066
1314 1 70.1721 11.258 790 105.697 42.7101 474.568
1315 0 70.3769 13.9108 979 105.828 41.0031 465.659
1316 0 71.5505 11.5024 823 112.481 41.531 469.231
1317 0 74.3215 10.6564 792 114.942 40.9141 459.241
1318 0 76.4283 12.0374 920 112.774 41.7435 460.135
1319 0 80.3626 15.1563 1218 108.406 41.7036 453.825
1320 0 82.6389 15.6464 1293 107.323 44.3635 461.433
1321 0 87.6974 15.4509 1355 107.375 42.9358 455.565
1322 0 85.5437 12.2744 1050 114.868 43.661 451.641
1323 0 90.4603 12.757 1154 113.417 44.3042 451.381
1324 0 91.5673 12.8539 1177 114.097 44.9796 447.552
1325 0 95.6494 12.8595 1230 113.244 46.7317 450.158
1326 0 101.62 14.0524 1428 111.118 46.3487 449.359
1327 0 101.498 11.35 1152 117.102 47.6224 448.581
1328 0 105.503 11.4025 1203 117.144 48.3466 444.872
1329 0 107.278 13.9823 1500 113.497 47.6753 444.876
1330 0 113.378 22.006 2495 101.599 47.9066 441.281
1331 0 111.319 12.0914 1346 114.035 48.24 444.82
1332 0 119.684 13.2432 1585 111.707 50.0151 445.901
1333 0 120.534 11.7394 1415 115.339 47.6629 446.259
1334 1 74.3808 11.6562 867 112.201 49.2953 470.339
1335 0 70.2311 12.7152 893 112.993 48.8589 469.478
1336 0 78.336 10.7486 842 113.914 48.7886 473.582
1337 0 79.0724 13.3169 1053 110.514 46.9905 473.122
1338 0 82.1578 11.0154 905 114.118 46.947 473.433
1339 0 83.2194 10.262 854 117.378 47.2143 467.625
1340 0 88.7498 10.6028 941 110.112 45.7439 480.077
1341 0 91.3346 16.226 1482 106.388 45.6329 467.897
1342 0 93.3201 14.9271 1393 108.261 45.8794 470.384
1343 0 93.1876 12.0724 1125 114.18 44.4098 465.431
1344 0 97.267 11.525 1121 114.734 44.1829 463.221
1345 0 100.116 15.3822 1540 108.54 42.0792 455.773
1346 0 101.236 11.241 1138 115.335 42.3383 461.214
1347 0 110.23 14.3156 1578 109.077 40.9392 460.307
1348 0 112.277 13.8763 1558 110.497 42.4859 455.764
1349 0 117.521 13.1211 1542 110.243 42.2399 452.414
1350 1 62.3443 10.9553 683 109.922 41.2621 471.808
1351 0 63.2581 8.18868 518 116.876 40.0753 471.867
1352 0 63.2162 12.2595 775 110.568 41.3923 477.485
1353 0 68.2155 11.0092 751 111.762 40.7563 474.176
1354 0 71.1291 16.224 1154 104.58 38.9827 471.842
1355 0 71.2395 12.4369 886 111.605 39.7393 466.129
1356 0 72.1213 8.91553 643 116.526 39.3624 464.784
1357 1 142.31 11.2149 1596 114.907 40.802 436.7
1358 0 148.25 10.8802 1613 113.511 39.8481 440.758
1359 0 155.37 14.6746 2280 109.4 39.3882 426.232
1360 0 155.693 11.3171 1762 115.409 40.6703 424.282
1361 0 164.549 13.7041 2255 110.047 41.4244 425.601
1362 1 91.2265 13.0554 1191 109.128 42.5894 457.797
1363 0 93.1622 13.7502 1281 109.226 42.637 451.446
1364 0 97.2523 16.2875 1584 107.359 43.8636 451.253
1365 0 99.2495 11.0529 1097 116.746 44.3163 448.967
1366 1 54.2438 11.3008 613 112.856 45.2284 468.515
1367 0 58.3572 11.104 648 110.938 45.9475 472.241
1368 0 59.0873 11.0853 655 111.431 45.8061 467.444
1369 0 63.1522 14.1879 896 107.51 46.74 469.871
1370 0 64.0717 12.4704 799 111.388 47.592 464.456
1371 0 66.2422 12.8921 854 110.253 47.6429 468.302
1372 0 68.3003 10.4392 713 115.746 48.4572 468.983
1373 0 70.2924 15.9334 1120 106.826 48.7098 468.377
1374 0 72.2833 13.1427 950 109.831 50.16 468.719
1375 0 73.2196 13.3981 981 110.213 49.053 469.649
1376 0 75.4218 12.1848 919 112.43 50.1556 468.495
1377 0 79.2864 13.4197 1064 113.107 49.3712 466.596
1378 0 82.3785 15.6352 1288 108.714 49.0466 467.915
1379 0 83.3874 14.8703 1240 111.307 48.2968 466.157
1380 0 87.2132 14.2639 1244 111.818 49.8167 467.248
1381 0 90.2532 14.0604 1269 113.077 49.1694 464.195
1382 0 93.3242 13.4156 1252 114.54 49.0359 469.019
1383 0 95.3314 15.6087 1488 110.358 47.8219 467.746
1384 0 100.234 14.9549 1499 112.588 47.4716 462.514
1385 0 103.307 16.4945 1704 110.2 46.8081 460.159
1386 0 103.459 12.1304 1255 118.413 45.9458 460.444
1387 0 107.464 12.9439 1391 117.487 44.0403 457.835
1388 1 60.1875 11.2648 678 116.791 43.264 481.605
1389 0 60.1436 12.3039 740 114.711 42.7635 482.678
1390 0 63.2195 12.8441 812 115.329 42.67 476.442
1391 0 64.0717 15.2798 979 111.723 42.6701 475.273
1392 0 69.2412 13.7635 953 112.528 42.5666 476.008
1393 0 68.2266 12.0481 822 117.567 42.7847 473.92
1394 0 73.2957 17.0406 1249 108.666 42.4099 474.943
1395 0 74.3023 14.1584 1052 114.668 41.8489 469.763
1396 0 74.2107 12.99 964 117.451 42.3309 470.356
1397 0 77.2448 12.6093 974 116.578 40.5205 466.225
1398 0 81.691 15.1914 1241 111.668 41.0983 460.115
1399 0 85.7252 14.4065 1235 112.106 40.9231 463.61
1400 0 83.1547 13.3246 1108 116.878 41.2951 457.312
1401 0 87.4216 15.8199 1383 111.762 42.2126 457.983
1402 0 91.4603 13.1751 1205 115.201 42.2407 454.508
1403 0 94.546 14.2576 1348 114.099 41.7767 451.776
1404 0 96.3387 13.7328 1323 115.289 41.65 449.261
1405 0 98.327 12.9466 1273 116.809 42.4399 450.195
1406 0 101.404 11.183 1134 119.938 43.1534 446.616
1407 0 106.609 13.7887 1470 114.118 44.3483 444.051
1408 1 59.1101 13.551 801 110.993 45.3258 466.416
1409 0 60.3345 11.7512 709 113.966 44.976 464.54
1410 0 62.5777 14.1744 887 110.745 45.8354 465.718
1411 0 62.3981 12.7888 798 114.078 47.0877 465.682
1412 0 65.2944 14.3198 935 111.099 45.692 460.657
1413 0 70.823 15.2775 1082 109.349 47.1645 459.831
1414 0 69.2086 14.738 1020 109.622 47.5765 462.124
1415 0 72.3809 12.8487 930 110.781 48.4097 465.062
1416 0 74.2344 12.9724 963 112.911 49.5088 464.571
1417 0 75.2596 11.8789 894 115.436 48.8154 461.515
1418 0 78.292 12.7216 996 113.222 48.9799 462.13
1419 0 80.2754 17.0413 1368 106.889 49.1601 460.474
1420 0 82.3438 13.1643 1084 112.631 50.203 461.896
1421 0 84.3351 11.4662 967 114.592 49.8263 464.733
1422 0 87.3041 11.7635 1027 113.579 49.6543 460.398
1423 0 93.2682 13.1985 1231 110.078 48.6946 459.984
1424 0 96.3762 12.1607 1172 112.096 49.3063 459.419
1425 0 98.2578 14.6248 1437 108.017 48.4962 460.47
1426 1 55.2251 12.1322 670 106.496 47.2642 485.518
1427 0 56.4401 11.4635 647 106.462 45.2937 487.136
1428 0 58.162 12.7918 744 108.04 46.3199 476.946
1429 0 60.1686 16.0549 966 105.678 44.9669 473.851
1430 0 63.3646 13.6669 866 108.103 45.0543 466.963
1431 0 65.3607 23.7605 1553 94.1642 43.5937 473.402
1432 0 64.3406 11.1127 715 112.621 42.3049 472.478
1433 0 66.186 14.429 955 108.286 41.7319 474.494
1434 0 68.294 12.3876 846 111.629 42.2139 469.678
1435 0 71.5563 14.0169 1003 109.54 41.2632 467.363
1436 0 71.4924 13.5958 972 110.525 41.6656 464.596
1437 0 74.5721 14.7911 1103 106.165 40.3427 468.788
1438 0 79.7047 17.1257 1365 104.021 40.548 462.325
1439 0 77.1978 12.4615 962 108.109 41.0624 457.944
1440 0 79.1102 15.9651 1263 103.812 39.5495 454.491
1441 0 83.2215 16.1256 1342 102.39 38.7802 449.353
1442 0 85.1401 15.269 1300 104.125 39.9392 449.162
1443 0 87.2213 14.8817 1298 104.193 40.0601 450.302
1444 0 91.4017 15.7437 1439 103.026 40.8221 449.065
1445 0 91.468 13.9065 1272 106.443 40.7752 444.003
1446 1 53.1107 13.3118 707 105.528 41.2221 467.7
1447 0 53.1809 12.0344 640 108.941 41.8109 463.936
1448 0 59.263 12.4023 735 105.263 43.3605 468.007
1449 0 61.1582 12.9827 794 104.888 42.9887 465.183
1450 0 65.351 20.7342 1355 96.8221 43.3793 468.083
1451 0 66.346 13.3542 886 106.204 45.807 463.252
1452 0 67.2433 19.303 1298 98.8806 45.2188 459.869
1453 0 72.3176 13.012 941 105.995 46.3921 461.649
1454 0 71.2621 15.043 1072 104.074 46.6838 458.359
1455 0 76.2792 15.6924 1197 102.487 46.183 455.594
1456 0 79.501 16.7671 1333 100.82 47.7194 461.479
1457 0 82.701 12.6117 1043 105.932 47.9875 457.763
1458 0 85.5613 13.5809 1162 105.624 48.8632 456.927
1459 0 89.2186 16.0841 1435 102.168 49.007 458.685
1460 0 91.468 18.1047 1656 100.556 49.4136 454.175
1461 0 92.4605 13.4436 1243 106.947 49.2711 456.871
1462 0 98.4826 15.8607 1562 102.182 50.1146 460.078
1463 0 102.74 15.1548 1557 104.608 49.5999 454.438
1464 0 102.774 15.0038 1542 105.689 49.096 455.416
1465 1 61.2983 13.0836 802 105.01 48.9377 477.958
1466 0 60.3573 13.6355 823 104.659 47.503 476.78
1467 0 59.1483 8.75765 518 111.048 48.2085 478.386
1468 0 63.0898 16.849 1063 101.036 46.7065 478.204
1469 0 67.0651 9.15528 614 109.754 45.7883 482.445
1470 0 69.1496 11.9596 827 107.634 46.0109 480.167
1471 0 69.1198 10.055 695 111.606 45.659 474.978
1472 0 68.1502 11.1812 762 107.959 43.9199 480.52
1473 0 74.114 11.7387 870 107.821 43.5954 473.853
1474 0 77.0669 12.0415 928 107.574 42.7683 471.888
1475 0 80.3876 11.6311 935 107.683 42.461 470.53
1476 0 83.2406 11.8812 989 106.775 42.6229 473.63
1477 0 88.1639 17.2179 1518 99.4486 42.6798 474.273
1478 0 87.127 12.4072 1081 106.914 42.753 465.701
1479 0 92.229 12.4256 1146 106.244 41.1963 466.865
1480 0 90.348 10.8469 980 110.427 41.8592 459.941
1481 0 97.194 13.3959 1302 104.74 40.6022 464.783
1482 0 98.4055 17.2043 1693 101.272 40.3148 454.891
1483 0 105.348 13.4507 1417 105.464 40.5709 453.784
1484 0 108.213 11.8655 1284 106.03 40.8505 459.463
1485 1 61.1152 12.2719 750 103.808 39.3973 468.303
1486 0 63.0525 13.9883 882 101.414 40.5193 471.136
1487 0 66.4866 13.8073 918 102.618 40.7505 466.231
1488 0 67.8071 12.5061 848 104.999 41.816 466.066
1489 0 66.3985 13.9612 927 104.182 41.4887 465.563
1490 0 73.8845 11.0578 817 108.222 42.4284 459.346
1491 0 75.679 13.3987 1014 105.049 42.9073 457.115
1492 0 80.6359 11.3721 917 106.942 43.7197 458.138
1493 0 79.3342 17.2687 1370 100.753 43.6131 453.793
1494 0 81.444 12.8923 1050 106.97 44.6162 453.079
1495 0 85.7128 13.8019 1183 105.425 45.1631 453.001
1496 0 83.5668 11.1887 935 110.65 45.7219 443.403
1497 0 88.6302 12.7722 1132 108.491 47.371 448.229
1498 0 93.7163 12.8366 1203 108.172 47.6958 449.543
1499 0 94.8284 12.8864 1222 108.142 46.901 445.354
1500 0 98.5233 19.5182 1923 99.5871 48.7733 447.802
1501 0 100.126 16.8188 1684 103.51 48.8361 449.591
1502 0 100.562 14.4985 1458 107.74 49.2531 448.041
1503 0 106.001 13.8584 1469 108.342 49.3771 448.513
1504 0 97.4148 11.3638 1107 114.593 49.4426 450.012
1505 0 103.613 13.8979 1440 111.006 50.2417 449.436
1506 0 103.532 11.6582 1207 115.049 49.348 448.972
1507 0 105.586 14.0549 1484 110.591 49.6745 455.743
1508 1 123.57 12.1874 1506 112.732 48.6979 447.452
1509 1 67.8724 10.8291 735 109.785 48.8707 476.181
1510 0 69.4474 9.40281 653 113.628 47.0138 473.121
1511 0 72.5393 10.9871 797 111.272 47.6763 476.346
1512 0 75.0149 9.11818 684 113.646 47.3991 477.333
1513 0 78.4261 15.8876 1246 105.562 46.7135 471.799
1514 0 77.6522 12.8522 998 111.004 45.5501 471.19
1515 0 85.9914 12.1175 1042 110.133 44.8215 471.118
1516 0 84.8319 15.348 1302 106.598 43.8687 469.367
1517 0 85.6042 12.7097 1088 111.624 43.625 465.325
1518 0 90.6277 13.4948 1223 108.897 43.1807 467.75
1519 0 93.3729 12.8303 1198 108.746 42.9174 468.604
1520 0 94.7132 11.4873 1088 113.899 42.4504 457.388
1521 0 97.3903 11.1613 1087 114.978 42.0092 457.14
1522 0 102.916 15.7022 1616 106.575 42.0786 460.163
1523 0 105.899 14.1267 1496 109.348 41.393 454.991
1524 0 106.734 13.4353 1434 112.892 42.0098 449.623
1525 0 109.371 18.8075 2057 102.524 41.9558 458.987
1526 0 115.708 14.0353 1624 110.794 41.1207 446.447
1527 0 117.69 12.3035 1448 113.374 41.3881 444.137
1528 0 122.88 15.1774 1865 109.118 41.8831 443.657
1529 0 124.714 15.2509 1902 108.899 41.3849 439.424
1530 0 126.646 13.8576 1755 111.652 41.2114 434.585
1531 0 132.172 15.3437 2028 108.165 42.0434 438.134
1532 0 135.523 16.8459 2283 106.074 41.5672 430.983
1533 0 139.762 14.5175 2029 108.261 42.7905 430.717
1534 0 143.404 14.4626 2074 108.813 43.2883 429.503
1535 0 152.201 16.7147 2544 104.857 44.0668 423.655
1536 0 153.619 15.5059 2382 106.497 44.5957 418.395
1537 1 90.2341 14.0856 1271 102.015 45.2439 455.065
1538 0 97.6172 13.092 1278 103.587 44.975 453.34
1539 0 92.1836 10.4032 959 110.21 45.1825 452.118
1540 0 101.538 12.3993 1259 108.625 45.6775 449.036
1541 0 104.793 15.0105 1573 108.384 47.4565 445.919
1542 0 106.293 14.1966 1509 110.238 47.3658 444.476
1543 0 107.326 13.0071 1396 113.499 47.4255 441.006
1544 0 112.307 15.4932 1740 107.171 48.5615 443.256
1545 0 117.794 15.7394 1854 106.528 48.459 442.296
1546 0 119.53 13.4109 1603 110.289 49.1148 443.228
1547 0 122.735 13.0607 1603 111.769 49.0817 438.097
1548 0 128.822 15.2536 1965 108.619 47.8076 433.374
1549 0 132.557 13.0057 1724 110.404 48.4252 439.942
1550 0 138.688 15.8413 2197 107.376 48.7487 435.115
1551 0 142.854 14.7563 2108 108.48 49.1921 434.847
1552 0 149.242 17.8368 2662 103.5 48.1893 437.438
1553 0 153.818 12.0272 1850 112.841 47.9119 419.52
1554 0 158.631 16.4218 2605 106.695 46.4614 428.032
1555 0 165.932 20.0805 3332 101.589 47.0891 416.711
1556 0 167.882 13.4499 2258 109.559 46.6178 428.124
1557 1 97.5338 10.3554 1010 106.24 45.2446 471.866
1558 0 96.6707 10.7065 1035 110.563 45.2512 457.511
1559 0 105.972 15.8344 1678 101.95 43.8176 459.551
1560 0 104.978 13.4885 1416 107.563 43.7486 455.141
1561 0 109.055 12.5167 1365 109.336 43.1267 455.165
1562 0 110.842 13.8034 1530 108.797 42.2869 450.84
1563 0 112.298 15.4678 1737 107.223 43.3362 449.082
1564 0 116.816 12.9862 1517 110.2 41.9361 448.206
1565 0 122.819 14.2405 1749 107.633 41.4031 445.947
1566 0 123.59 12.234 1512 110.321 40.8823 447.155
1567 0 127.423 11.8896 1515 111.444 39.8172 437.275
1568 0 126.817 10.4954 1331 112.95 41.1555 442.11
1569 1 139.598 17.2711 2411 104.036 41.6205 433.805
1570 0 143.947 16.8256 2422 104.723 41.6193 431.209
1571 0 146.723 12.6293 1853 111.827 40.64 426.677
1572 0 151.009 14.7872 2233 109.701 40.8137 422.243
1573 0 156.771 12.7384 1997 111.941 40.6164 426.309
1574 0 163.727 14.4081 2359 110.808 41.4455 414.739
1575 1 93.8142 13.6227 1278 104.268 40.6635 456.248
1576 0 95.3919 13.9844 1334 105.581 42.1912 450.72
1577 0 97.8558 12.7637 1249 111.351 43.4339 446.97
1578 0 101.874 12.8492 1309 110.693 44.3209 444.483
1579 0 103.53 13.3198 1379 111.466 44.9529 443.002
1580 0 104.678 12.2375 1281 113.866 44.7057 444.627
1581 0 107.733 17.9053 1929 106.697 44.9528 438.932
1582 0 114.051 16.7381 1909 105.67 46.0608 444.498
1583 0 118.148 15.6668 1851 110.037 47.1831 439.609
1584 0 118.664 12.4469 1477 115.479 47.0196 437.976
1585 0 128.008 14.0538 1799 110.377 48.4013 438.586
1586 0 126.849 14.7735 1874 111.916 48.4744 434.322
1587 0 128.901 12.9402 1668 114.156 48.7098 438.049
1588 0 132.556 24.5254 3251 99.8843 48.295 434.605
1589 0 138.658 12.9239 1792 114.89 48.8566 429.714
1590 0 143.42 13.7568 1973 113.461 49.8378 428.775
1591 0 146.736 13.9502 2047 110.905 48.9849 439.964
1592 1 158.513 13.6329 2161 112.263 49.0754 429.633
1593 1 89.5708 12.8278 1149 108.98 48.3446 462.896
1594 0 92.8089 13.0052 1207 107.066 48.9155 467.339
1595 0 94.6311 14.4456 1367 107.271 48.0805 459.026
1596 0 100.71 13.5537 1365 108.314 48.1341 458.344
1597 0 103.618 18.2979 1896 101.357 46.6746 462.575
1598 0 99.4545 10.7687 1071 114.33 46.7246 454.171
1599 0 108.625 12.695 1379 109.659 46.6584 455.716
1600 0 109.549 13.3183 1459 109.79 44.9513 451.532
1601 0 115.633 13.4131 1551 111.068 45.5564 451.464
1602 0 116.928 13.0422 1525 109.989 43.5252 456.032
1603 0 120.617 13.2154 1594 110.206 43.5916 449.737
1604 0 121.62 10.3766 1262 115.059 43.7702 442.247
1605 0 128.431 14.3968 1849 108.322 43.2234 442.123
1606 0 132.581 13.735 1821 109.449 43.1236 440.238
1607 0 135.623 12.5863 1707 111.177 42.6655 433.028
1608 0 142.619 13.5255 1929 109.863 42.5257 432.171
1609 0 144.631 16.4418 2378 105.333 42.4415 435.903
1610 0 147.534 12.0854 1783 110.999 42.4907 429.45
1611 0 154.391 13.6018 2100 109.148 42.3314 422.282
1612 1 224.659 11.6131 2609 114.011 41.555 395.221
1613 1 168.819 16.0942 2717 104.806 42.2068 419.719
1614 0 169.617 10.8951 1848 112.123 40.5135 412.918
1615 0 178.866 13.7309 2456 107.121 42.4556 403.567
1616 0 185.674 15.8719 2947 103.303 40.5738 411.423
1617 0 193.931 18.29 3547 100.765 42.3927 403.906
1618 0 194.743 15.1995 2960 102.927 41.3561 396.501
1619 0 202.936 18.4935 3753 99.5835 41.7559 395.814
1620 1 118.506 10.4974 1244 109.314 42.9486 429.341
1621 0 124.454 12.7436 1586 105.635 44.3531 436.689
1622 0 128.593 16.696 2147 102.029 44.1919 427.242
1623 0 131.608 13.3351 1755 103.985 46.0855 440.37
1624 0 133.384 11.8155 1576 107.504 46.5945 431.264
1625 0 140.402 12.4571 1749 106.219 46.8342 426.8
1626 0 146.439 13.8488 2028 102.189 47.0676 424.834
1627 1 261.912 16.1008 4217 104.541 47.42 370.584
1628 0 267.892 12.2363 3278 108.546 48.3005 371.423
1629 1 159.49 12.2327 1951 104.988 48.4972 416.408
1630 1 93.1725 12.0636 1124 100.339 50.5854 456.593
1631 0 97.5337 17.0505 1663 94.8912 48.7372 455.798
1632 0 96.336 13.5982 1310 99.5756 49.4718 452.929
1633 0 98.4185 13.6763 1346 100.323 49.8425 450.759
1634 0 103.554 12.5635 1301 101.477 49.9508 456.04
1635 0 105.432 16.3517 1724 98.4843 50.2285 452.66
1636 0 106.447 11.2638 1199 105.37 48.9358 452.477
1637 0 113.597 13.7856 1566 103.381 48.9693 448.155
1638 0 113.43 10.5087 1192 109.746 49.078 449.169
1639 0 118.673 10.9629 1301 105.978 48.7525 455.861
1640 0 121.548 16.4379 1998 99.4079 47.956 450.165
1641 0 125.835 12.5085 1574 108.013 46.2738 442.421
1642 1 75.324 12.7715 962 102.714 46.1798 476.242
1643 0 76.2616 9.97881 761 107.62 44.7608 473.966
1644 0 77.3333 11.9095 921 104.201 43.494 477.167
1645 0 81.2111 14.8502 1206 101.309 42.3723 474.265
1646 0 78.2924 9.79661 767 110.957 41.1851 467.399
1647 1 100.927 22.0457 2225 87.8265 40.6225 449.53
1648 0 101.356 25.0897 2543 87.4208 41.4632 454.769
1649 0 102.94 23.3048 2399 89.9487 41.0342 459.481
1650 0 102.68 23.2275 2385 91.0134 40.6369 456.266
1651 0 99.231 16.3961 1627 99.2963 40.3866 461.819
1652 0 99.3261 26.9013 2672 90.5509 39.9573 456.017
1653 0 101.33 22.2245 2252 94.7984 39.222 455.011
1654 0 102.286 17.6564 1806 101.014 39.0028 455.361
1655 0 103.256 13.7619 1421 105.376 39.2294 457.419
1656 0 107.324 15.0759 1618 104.244 39.1792 449.967
1657 0 109.407 15.4012 1685 105.539 40.0748 441.062
1658 0 114.287 13.8949 1588 107.068 40.9616 434.852
1659 0 116.268 15.8084 1838 103.892 40.2933 427.831
1660 0 120.679 16.0923 1942 100.693 41.8687 435.042
1661 0 122.572 15.5011 1900 103.291 42.8126 428.716
1662 0 131.734 20.6249 2717 96.0342 42.5156 436.754
1663 0 126.424 9.68959 1225 113.525 42.8629 425.211
1664 1 76.1791 15.1748 1156 99.404 44.5433 464.728
1665 0 80.4087 13.2573 1066 105.845 44.4878 457.23
1666 0 80.225 13.1879 1058 105.603 46.2155 447.492
1667 0 82.4647 11.896 981 109.253 45.5087 447.199
1668 0 89.188 15.5739 1389 103.763 45.91 453.166
1669 0 90.5974 14.4044 1305 105.622 45.8667 458.879
1670 0 92.2207 17.5557 1619 102.537 47.6411 458.056
1671 0 96.1586 15.4744 1488 106.163 47.3858 438.03
1672 0 97.2037 15.8739 1543 105.504 47.8438 434.185
1673 0 100.458 15.0312 1510 106.337 46.8788 436.095
1674 1 182.54 11.833 2160 112.046 49.4861 403.544
1675 1 105.163 12.6375 1329 109.366 48.8743 446.208
1676 0 105.277 11.313 1191 112.693 48.2561 446.32
1677 0 112.343 16.7701 1884 104.977 49.0393 445.679
1678 0 114.318 13.5324 1547 109.423 49.1176 445.871
1679 0 117.29 14.9202 1750 108.211 48.4371 453.122
1680 0 118.309 12.5773 1488 112.637 46.9913 447.51
1681 1 73.2874 14.8184 1086 105.45 47.1805 472.362
1682 0 74.2456 12.9166 959 107.754 46.8738 474.405
1683 0 76.1134 12.7179 968 109.544 47.3678 471.412
1684 0 78.2278 11.7989 923 110.752 46.6826 468.082
1685 0 83.1671 16.4368 1367 103.686 45.6218 469.983
1686 0 84.2198 13.6904 1153 108.389 45.3591 469.013
1687 0 88.2607 14.2759 1260 107.26 44.723 461.607
1688 0 86.3525 11.4183 986 112.358 43.9868 458.672
1689 0 94.1659 17.5754 1655 103.639 44.4677 455.648
1690 0 95.5972 16.0047 1530 103.912 42.3281 457.835
1691 0 97.1348 14.2071 1380 108.767 41.3312 452.997
1692 0 99.2739 17.2251 1710 104.965 41.5538 448.872
1693 0 99.3813 16.0996 1600 104.731 39.7969 458.212
1694 0 104.448 20.5939 2151 98.7731 39.6681 458.343
1695 0 105.108 14.3471 1508 109.159 39.6817 448.007
1696 0 108.186 15.7877 1708 107.422 39.2769 450.596
1697 0 111.315 14.1131 1571 110.477 39.9593 451.75
1698 0 113.594 14.4638 1643 110.178 39.496 441.444
1699 0 113.217 13.8583 1569 111.63 39.4525 442.546
1700 0 120.144 17.8453 2144 108.952 39.8237 440.683
1701 0 123.269 13.2069 1628 114.614 39.8047 442.566
1702 0 127.427 14.2983 1822 112.564 40.8913 433.036
1703 0 132.318 12.2659 1623 113.75 40.1824 437.407
1704 1 78.1572 9.12264 713 110.433 40.8976 467.209
1705 0 82.3362 14.963 1232 105.516 40.8555 465.255
1706 0 86.2571 14.3988 1242 108.92 42.347 458.67
1707 0 88.1882 13.732 1211 110.819 42.7308 455.77
1708 0 90.1307 11.9604 1078 113.964 43.474 455.415
1709 0 90.1307 12.0492 1086 154.332 44.4991 455.466
1710 0 97.149 15.502 1506 108.667 45.2191 457.107
1711 0 100.298 17.8569 1791 106.471 46.5427 450.949
1712 0 100.259 16.1781 1622 110.212 46.5432 447.755
1713 0 105.245 13.3973 1410 114.079 47.9865 451.066
1714 0 108.245 12.2316 1324 116.011 48.0597 448.198
1715 0 113.497 18.9345 2149 105.907 48.8097 446.055
1716 0 114.46 15.3679 1759 112.312 49.1927 443.375
1717 0 119.636 15.0122 1796 112.741 48.6888 444.124
1718 0 122.439 20.4755 2507 105.907 49.4081 444.927
1719 0 126.475 16.2403 2054 112.057 49.0248 446.264
1720 0 130.442 14.8572 1938 113.986 48.7002 444.423
1721 1 233.481 10.4762 2446 120.861 48.1026 410.019
1722 1 75.2207 17.5484 1320 108.275 47.878 473.455
1723 0 77.1946 11.9697 924 116.581 46.5552 475.798
1724 0 84.3062 14.0915 1188 113.405 47.2264 471.168
1725 0 84.3482 14.0845 1188 114.028 47.0421 469.191
1726 0 85.327 14.1221 1205 115.795 45.9245 468.651
1727 0 91.1901 15.9776 1457 111.465 45.2375 473.694
1728 0 93.5296 17.9408 1678 110.862 45.5435 465.434
1729 0 99.6472 17.2709 1721 110.764 44.5601 467.723
1730 0 99.1961 18.7306 1858 108.539 43.8052 471.279
1731 0 101.484 15.0368 1526 115.052 42.1835 465.044
1732 0 105.284 15.4629 1628 114.51 42.2088 462.744
1733 0 106.324 15.1236 1608 115.264 41.717 461.74
1734 0 111.185 18.4828 2055 109.072 40.9883 460.871
1735 0 111.302 14.8784 1656 113.341 39.7736 456.533
1736 0 113.289 14.4409 1636 114.129 40.7586 454.293
1737 0 115.23 11.9847 1381 119.445 41.3157 448.253
1738 0 120.212 14.15 1701 114.626 40.8859 448.59
1739 0 126.205 16.2276 2048 111.225 39.5449 450.663
1740 0 132.383 14.526 1923 113.296 39.5601 448.321
1741 0 137.335 16.1358 2216 111.815 40.4206 442.128
1742 1 77.1161 11.4373 882 117.454 39.9921 465.488
1743 0 79.2607 13.4241 1064 116.425 40.0648 461.117
1744 0 83.4098 17.6838 1475 107.223 39.7471 466.546
1745 0 83.1774 16.1462 1343 112.893 40.9233 457.051
1746 0 88.1084 15.1064 1331 112.697 40.5935 458.421
1747 0 90.2416 16.0015 1444 111.789 41.8345 456.028
1748 0 93.3357 13.5854 1268 115.666 42.1491 455.031
1749 0 95.4274 13.8011 1317 115.972 41.9165 453.665
1750 0 99.2754 15.0188 1491 112.995 42.6291 455.09
1751 0 101.208 15.1174 1530 114.215 43.7725 449.275
1752 0 105.185 15.2494 1604 113.27 43.6746 451.349
1753 0 105.436 11.8555 1250 119.48 44.0608 446.673
1754 0 110.293 16.5016 1820 112.977 45.0742 446.842
1755 0 113.427 15.6048 1770 114.268 45.3169 446.195
1756 0 116.199 15.0432 1748 114.846 46.6396 444.699
1757 0 122.632 13.7484 1686 114.914 46.3144 440.116
1758 0 127.182 18.4303 2344 108.608 47.2415 440.953
1759 0 132.663 16.8849 2240 110.494 48.1192 441.654
1760 0 139.483 15.6005 2176 112.56 48.7183 436.628
1761 0 143.381 15.0508 2158 113.241 48.4921 435.506
1762 1 80.1482 12.7888 1025 111.656 47.9502 468.945
1763 0 83.1756 13.7781 1146 111.235 47.5716 466.103
1764 0 86.1637 12.5227 1079 114.018 47.836 464.817
1765 0 86.3999 11.7014 1011 115.682 48.361 463.366
1766 0 95.2461 19.3499 1843 104.221 47.1188 461.895
1767 0 96.2641 14.5849 1404 110.888 47.4238 465.756
1768 0 101.165 16.8537 1705 107.159 46.0282 466.88
1769 0 104.676 14.5592 1524 112.745 46.6601 457.589
1770 0 108.494 18.9227 2053 106.689 45.3215 454.509
1771 0 111.424 13.7044 1527 114.906 44.2947 449.857
1772 0 116.328 16.7457 1948 110.31 43.4168 451.723
1773 0 119.173 18.8549 2247 107.458 42.6168 448.127
1774 0 124.51 18.3038 2279 107.14 42.3251 450.215
1775 0 129.353 15.2142 1968 112.016 41.5732 446.18
1776 0 132.333 15.597 2064 111.239 40.6953 444.827
1777 0 133.417 12.2623 1636 116.982 40.0966 443.454
1778 0 141.461 15.7075 2222 110.556 40.5765 434.272
1779 0 144.476 18.4875 2671 106.198 39.717 441.575
1780 0 148.322 12.0481 1787 116.625 39.6883 431.14
1781 0 152.222 15.7993 2405 110.5 40.6981 427.401
1782 0 157.261 16.4503 2587 110.637 40.3123 427.676
1783 0 162.357 13.7536 2233 114.973 39.9579 427.28
1784 0 167.379 14.1415 2367 114.458 40.4516 420.109
1785 1 79.0513 8.18455 647 122.159 39.4111 465.057
1786 0 86.1143 15.1659 1306 113.203 39.9587 462.068
1787 0 87.1635 12.9756 1131 118.027 40.0778 456.592
1788 0 91.357 16.8788 1542 111.71 40.1809 457.374
1789 0 94.3167 14.9708 1412 114.397 40.4016 453.927
1790 0 99.3691 16.7859 1668 111.837 41.5066 453.232
1791 0 100.596 13.1317 1321 118.849 41.5011 449.597
1792 0 105.203 16.6535 1752 115.938 42.3967 446.887
1793 0 107.256 11.2628 1208 123.018 42.8849 446.636
1794 0 111.333 11.3353 1262 122.365 44.0254 445.36
1795 0 116.271 14.1307 1643 117.483 44.2605 445.697
1796 0 121.378 15.6371 1898 116.123 46.0416 438.81
1797 0 126.5 13.502 1708 119.513 45.1651 440.751
1798 0 125.275 12.3089 1542 121.309 46.4948 443.37
1799 0 136.428 15.1069 2061 117.612 47.3527 434.951
1800 0 141.296 15.1879 2146 116.25 46.4497 432.232
1801 1 72.1768 11.4026 823 117.57 47.2479 469.674
1802 0 73.1481 13.9853 1023 117.211 46.8631 464.686
1803 0 75.3373 15.1054 1138 115.853 48.1019 465.135
1804 0 78.2915 12.6067 987 121.821 48.4954 465.296
1805 0 79.2697 16.6268 1318 115.662 48.6297 461.444
1806 0 82.2246 13.5726 1116 120.589 47.9686 466.47
1807 0 85.1077 13.336 1135 121.033 49.2934 465.256
1808 0 86.1255 12.4586 1073 123.958 47.7568 461.988
1809 0 89.1532 12.428 1108 123.546 48.8637 448.98
1810 0 98.4185 16.5924 1633 113.732 47.5732 454.126
1811 0 99.1971 17.1981 1706 114.943 47.575 450.505
1812 0 101.578 17.868 1815 114.3 46.8986 449.041
1813 0 105.201 16.6823 1755 115.642 47.4177 451.085
1814 0 106.345 16.437 1748 116.582 45.3684 453.661
1815 0 108.376 16.0091 1735 118.784 44.8991 450.645
1816 0 105.124 12.2902 1292 127.841 43.7833 446.756
1817 0 116.254 16.0166 1862 119.633 43.891 443.58
1818 0 118.273 17.7386 2098 117.068 43.1358 447.6
1819 0 125.29 19.5147 2445 112.791 41.8425 447.163
1820 0 126.383 17.3204 2189 117.341 42.1384 446.866
1821 0 130.142 15.8135 2058 120.347 42.4859 444.638
1822 0 132.53 14.3212 1898 124.097 42.0875 435.874
1823 0 136.532 13.843 1890 124.277 41.2519 432.91
1824 0 140.293 22.6597 3179 110.064 40.6801 432.519
1825 0 145.384 16.5424 2405 118.645 40.5143 434.286
1826 0 148.496 17.7918 2642 115.937 40.2074 435.814
1827 0 149.409 15.9227 2379 119.901 39.9403 430.458
1828 0 154.25 14.4635 2231 123.444 39.6378 421.777
1829 0 158.396 19.3691 3068 114.872 39.4625 419.703
1830 0 167.402 16.6546 2788 117.73 40.4813 424.292
1831 0 168.542 14.0558 2369 123.715 39.8143 414.902
1832 0 175.383 17.9208 3143 117.026 39.6386 411.894
1833 0 180.784 16.4893 2981 119.891 40.844 406.709
1834 0 184.467 16.5938 3061 121.045 40.9314 404.867
1835 0 189.731 14.6892 2787 123.849 41.6792 404.472
1836 1 36.3076 9.36443 340 103.218 43.0794 477.1
1837 0 36.3805 9.95039 362 101.177 41.9448 481.036
1838 0 37.2339 8.56745 319 102.636 44.6803 477.329
1839 0 37.308 8.33601 311 104.283 44.7556 478.019
1840 0 40.3473 8.9721 362 103 44.6602 479.387
1841 0 38.2853 10.9964 421 100.755 45.6983 475.356
1842 0 38.3367 9.15571 351 101.319 45.8718 481.028
1843 0 38.1462 8.15285 311 101.92 46.1125 479.106
1844 0 40.3732 11.9881 484 96.5124 46.7645 479.68
1845 0 38.1423 10.3035 393 99.1781 46.7099 481.214
1846 0 39.1289 7.23251 283 102.088 47.7279 482.979
1847 0 41.2402 8.51112 351 99.1709 47.5185 484.533
1848 0 43.1224 8.186 353 98.8187 47.0453 486.261
1849 0 42.0598 12.0305 506 95.3696 45.6423 482.565
1850 0 376.135 11.9186 4483 123.215 47.7687 346.66
1851 0 377.242 12.7107 4795 123.902 48.776 331.324
1852 0 375.903 10.4282 3920 129.26 47.9485 333.602
1853 0 383.645 29.483 11311 97.4363 46.5424 288.934
1854 0 382.295 24.9179 9526 104.065 46.4179 303.112
1855 1 151.528 8.2295 1247 119.244 45.8148 438.994
1856 1 41.3664 12.3288 510 98.498 45.0627 492.557
1857 0 43.508 11.2163 488 99.0041 43.9508 493.918
1858 0 36.4834 6.41387 234 110 42.6111 495.013
1859 0 40.5364 8.19017 332 105.864 41.3675 494.777
1860 0 42.4469 11.2611 478 101.613 40.4707 493.226
1861 0 42.2982 9.45667 400 104.992 40.64 490.828
1862 0 44.4537 12.2375 544 99.5515 40.068 491.928
1863 0 42.1912 10.9027 460 103.467 39.2609 490.835
1864 0 41.1302 10.8922 448 103.844 38.5804 489.949
1865 0 44.1994 9.00465 398 105.54 38.4045 489.482
1866 0 43.2099 13.5154 584 99.7432 38.4863 487.978
1867 0 45.3961 11.2124 509 101.841 37.9371 487.576
1868 0 45.4595 11.2408 511 100.611 38.1957 488.395
1869 0 47.5283 9.61533 457 104.225 38.221 483.002
1870 0 46.1171 10.43 481 102.748 38.6778 482.977
1871 0 44.4958 10.2931 458 103.88 38.7795 485.151
1872 0 44.3759 11.9885 532 102.72 38.2519 483.329
1873 0 47.7142 12.1976 582 98.9485 37.9485 483.923
1874 0 46.1933 9.4819 438 106.084 38.9817 483.208
1875 0 47.2718 11.5714 547 103.207 39.4625 479.386
1876 0 49.2602 15.7734 777 95.3488 39.1081 480.543
1877 0 46.2132 11.1656 516 103.961 39.5795 479.2
1878 0 46.1318 8.82255 407 107.966 40.742 481.199
1879 0 46.2515 12.3888 573 101.956 41.452 479.401
1880 0 51.2556 11.667 598 100.037 41.7508 475.848
1881 0 52.478 15.2254 799 96.3705 43.2228 475.091
1882 0 51.427 10.5586 543 105.401 44.2044 474.871
1883 0 52.2068 12.4505 650 101.829 44.4015 473.722
1884 0 52.2657 8.80119 460 106.302 45.4283 475.5
