time division length width area intensity CMx CMy
0 0 64.2915 14.3098 920 131.528 812.551 466.49
1 0 63.1695 14.6906 928 132.249 811.84 467.097
2 0 65.2594 15.7525 1028 121.708 811.562 467.65
3 1 33.1792 11.031 366 129.809 809.041 481.784
4 0 33.1214 12.3787 410 129.707 809.19 479.963
5 0 37.0405 11.2579 417 130.506 808.592 479.676
6 0 35.1484 10.7259 377 134.324 807.111 481.122
7 0 38.1021 12.8339 489 127.896 806.975 480.446
8 0 40.1019 13.0168 522 124.877 805.077 482.125
9 0 39.0701 13.8469 541 122.739 804.237 481.447
10 0 38.0563 12.7706 486 127.607 803.648 479.65
11 0 41.0325 13.3553 548 122.558 804.203 481.777
12 0 42.0513 16.5274 695 119.188 803.596 478.341
13 0 46.145 16.5999 766 113.483 803.845 480.175
14 0 46.0615 17.1727 791 118.405 803.075 476.54
15 0 47.0388 15.9655 751 117.614 803.425 478.503
16 0 47.1384 14.4044 679 123.794 802.691 472.725
17 0 49.1059 14.4382 709 124.202 803.673 470.08
18 0 51.083 13.2138 675 125.351 804.118 472.287
19 0 51.0872 15.2093 777 121.053 804.1 469.997
20 0 52.0694 14.5191 756 125.337 803.96 466.254
21 0 56.0667 16.516 926 118.486 804.016 468.935
22 0 59.1878 16.152 956 118.332 804.678 463.874
23 0 59.116 14.9706 885 125.836 805.597 462.58
24 0 62.1081 14.2494 885 125.884 806.095 462.779
25 0 63.0419 15.5928 983 122.982 807.469 460.194
26 0 65.186 17.6725 1152 118.453 807.251 459.128
27 0 72.5677 15.1445 1099 120.88 808.151 459.983
28 0 70.2967 20.7691 1460 113.039 809.318 452.695
29 0 72.106 15.0889 1088 122.526 809.883 453.335
30 0 75.1758 14.6457 1101 120.538 811.723 453.205
31 0 78.1555 17.1581 1341 118.043 810.837 451.827
32 0 80.2117 18.7753 1506 114.724 810.997 450.384
33 0 83.4076 19.3268 1612 107.177 813.145 455.573
34 0 86.2816 14.1861 1224 119.841 813.785 449.934
35 1 45.1136 12.7456 575 119.911 814.555 470.085
36 0 47.1042 14.1389 666 115.126 813.128 470.399
37 0 47.1523 14.0396 662 117.624 815.293 468.415
38 0 49.0891 14.4431 709 112.883 813.443 469.477
39 0 52.1668 13.2076 689 114.052 814.363 470.74
40 0 53.0989 14.8591 789 112.316 813.706 470.985
41 0 55.2001 15.942 880 112.19 813.741 469.222
42 0 55.2001 16.0326 885 131.976 813.741 469.224
43 0 59.0988 13.9089 822 111.533 814.316 471.304
44 0 59.0681 15.6938 927 110.463 813.287 468.917
45 0 64.2225 14.2318 914 125.237 813.216 471.604
46 0 64.1832 13.181 846 127.72 812.083 471.637
47 0 68.2423 16.1777 1104 124.688 810.504 471.407
48 0 69.0493 16.5968 1146 126.704 810.447 470.033
49 0 72.1743 16.2385 1172 123.959 809.19 467.691
50 0 76.1668 14.9671 1140 129.541 809.165 466.699
51 0 78.2445 15.0298 1176 129.981 808.56 467.005
52 0 79.1441 13.4059 1061 133.249 807.928 466.991
53 0 83.2264 15.1635 1262 130.108 806.822 464.777
54 0 82.0875 14.2409 1169 135.165 807.807 459.483
55 0 87.1749 14.6258 1275 133.762 807.007 459.712
56 0 90.1327 15.2775 1377 132.075 806.252 457.892
57 0 90.1327 15.3884 1387 148.203 805.251 458.073
58 1 52.0757 13.6532 711 130.65 806.63 476.506
59 0 55.2982 13.2192 731 129.766 804.811 476.951
60 0 55.0231 14.4848 797 128.646 805.565 470.744
61 0 57.1635 12.1931 697 133.95 804.814 471.841
62 0 60.1151 12.5759 756 131.128 804.694 471.581
63 0 62.0702 13.3075 826 131.955 803.731 464.708
64 0 66.2246 15.4172 1021 125.657 804.695 466.038
65 0 66.0603 14.956 988 128.58 803.99 461.601
66 0 67.1025 13.8445 929 130.33 804.743 462.574
67 0 73.1594 14.6119 1069 127.084 805.179 461.123
68 0 74.3732 17.7887 1323 120.027 805.952 460.105
69 0 77.1816 15.8846 1226 124.287 806.843 457.308
70 0 78.1569 13.8439 1082 130.401 808.095 451.261
71 0 82.1378 14.5487 1195 129.433 808.153 449.782
72 0 85.1314 14.1546 1205 129.201 808.981 449.97
73 0 89.1852 13.9933 1248 127.976 808.97 449.03
74 0 89.1852 13.9149 1241 155.96 809.948 448.993
75 1 47.0672 14.3837 677 117.536 809.804 471.858
76 0 47.0464 13.0722 615 120.224 810.102 472.413
77 0 47.0425 12.967 610 122.384 810.3 469.651
78 0 51.095 11.0187 563 122.126 810.648 474.439
79 0 52.0469 14.0066 729 118.502 812.191 472.321
80 0 55.1117 15.641 862 116.836 813.427 468.052
81 0 56.0417 14.1502 793 118.528 812.709 468.586
82 0 57.0425 9.34391 533 124.538 812.017 474.51
83 0 61.0771 13.1146 801 120.242 813.085 469.695
84 0 63.1222 12.8639 812 121.808 811.459 467.661
85 0 66.2238 12.2916 814 122.12 811.404 471.704
86 0 67.1696 13.3989 900 121.311 811.033 467.808
87 0 67.235 11.5714 778 125.326 810.932 472.244
88 0 71.0738 14.295 1016 120.424 810.935 467.424
89 0 74.1016 10.9309 810 125.021 810.111 469.819
90 0 77.1395 12.2635 946 122.704 809.158 468.916
91 0 79.1818 13.248 1049 121.84 808.292 467.052
92 0 81.3026 10.8361 881 125.984 808.262 466.245
93 0 83.3587 12.7761 1065 125.194 808.422 461.644
94 0 87.268 10.9318 954 126.217 806.346 466.775
95 0 92.2012 12.5812 1160 124.634 806.907 462.172
96 1 44.1582 7.13344 315 130.251 805.686 482.578
97 0 51.118 15.2979 782 114.99 805.886 483.903
98 0 53.1204 14.1942 754 117.192 804.39 480.809
99 0 52.2278 13.3645 698 119.712 804.381 480.64
100 0 56.0897 12.694 712 120.233 804.313 480.015
101 0 57.104 14.6925 839 120.298 804.367 474.77
102 0 57.0651 11.741 670 125.37 803.572 470.824
103 0 60.2035 13.3381 803 120.279 803.405 474.752
104 0 63.3289 13.6273 863 119.708 802.206 471.357
105 0 65.2439 14.8213 967 117.63 803.053 466.468
106 0 66.3225 11.8813 788 123.062 803.199 461.2
107 0 68.4467 12.7545 873 120.47 802.582 461.968
108 0 72.1456 13.1955 952 118.209 802.933 462.25
109 0 76.2325 14.1016 1075 116.674 804.012 459.994
110 0 78.1642 16.734 1308 112.826 804.051 457.968
111 0 79.1682 11.065 876 122.422 803.476 452.684
112 0 79.1682 11.0903 878 125.198 802.481 452.854
113 0 86.1836 11.0462 952 122.077 804.91 447.706
114 0 89.4077 15.0882 1349 116.556 806.548 450.406
115 0 94.4917 13.6732 1292 118.711 805.653 449.825
116 1 52.3483 13.3147 697 110.726 806.858 471.036
117 0 50.1561 11.0655 555 116.141 807.418 465.016
118 0 52.1642 13.0741 682 115.959 808.802 468.235
119 0 53.0318 11.8797 630 118.222 809.254 467.39
120 0 56.0693 14.3394 804 114.077 810.235 468.627
121 0 55.1505 12.2574 676 118.589 810.803 466.173
122 0 58.1521 14.4449 840 114.995 810.776 464.977
123 0 59.2365 12.2897 728 118.404 811.073 466.746
124 0 62.3258 14.36 895 116.073 811.067 465.33
125 0 66.2529 13.0409 864 115.006 810.525 470.537
126 0 64.2112 14.3277 920 116.139 811.612 465.591
127 0 70.2213 12.6885 891 119.19 811.338 466.523
128 0 72.2604 13.9357 1007 117.142 809.547 465.512
129 0 73.1859 12.844 940 119.403 811.826 466.903
130 0 74.565 16.6164 1239 117.07 810.248 460.659
131 0 79.1979 14.9499 1184 117.916 810.027 465.687
132 0 84.5077 18.377 1553 110.878 809.377 469.276
133 0 84.6895 12.7525 1080 122.541 808.504 464.119
134 1 44.413 12.2036 542 116.338 808.934 486.393
135 0 46.3399 13.9405 646 116.18 807.502 483.937
136 0 49.2896 12.8628 634 118.386 807.522 484.159
137 0 50.1413 13.9805 701 113.961 805.378 482.984
138 0 52.0697 14.5382 757 115.062 805.657 483.145
139 0 53.162 12.6594 673 117.938 804.404 481.489
140 0 55.2437 14.8071 818 114.929 804.535 478.215
141 0 57.0781 13.4728 769 116.364 802.289 476.307
142 0 58.207 13.1943 768 116.54 801.805 475.656
143 0 59.2001 13.0912 775 118.141 801.906 475.779
144 0 61.1554 13.1632 805 117.099 801.27 474.969
145 0 65.1136 16.0489 1045 113.3 801.295 471.33
146 0 64.0696 13.5166 866 118.468 800.85 470.573
147 0 67.1259 14.1078 947 118.86 800.614 466.119
148 0 71.3098 13.6026 970 118.424 800.937 466.6
149 0 73.1643 14.3649 1051 118.366 801.408 463.612
150 0 75.0763 13.7061 1029 120.052 801.292 461.912
151 0 78.1033 14.7241 1150 117.495 802.202 459.914
152 0 82.2281 14.2287 1170 118.241 802.309 458.109
153 0 79.389 12.8985 1024 121.946 804.022 454.889
154 0 84.381 14.3397 1210 118.254 803.701 454.174
155 0 88.2694 14.1045 1245 118.142 802.812 449.959
156 1 46.1241 11.7292 541 115.475 803.408 472.096
157 0 48.2008 12.3649 596 114.092 803.253 471.166
158 0 51.1296 11.598 593 115.334 804.047 469.809
159 0 51.2744 14.9587 767 113.342 804.76 469.682
160 0 55.1906 18.6445 1029 108.19 806.256 469.624
161 0 54.1758 11.6288 630 120.673 805.003 469.316
162 0 55.1862 13.2642 732 118.191 806.765 465.576
163 0 59.1613 11.7306 694 120.648 806.686 464.97
164 0 60.2304 13.6642 823 117.812 807.267 465.651
165 0 62.1921 12.172 757 120.97 808.194 465.235
166 0 62.1405 11.8602 737 122.256 809.673 465.218
167 0 68.3262 15.8943 1086 114.17 809.006 465.099
168 0 68.2497 14.359 980 118.562 808.762 463.371
169 0 71.0705 14.0002 995 118.54 809.687 466.014
170 0 73.1384 12.702 929 120.509 809.864 466.147
171 0 78.1107 14.1466 1105 117.782 810.413 466.061
172 0 77.183 12.0882 933 122.391 809.194 464.651
173 0 82.1065 14.6273 1201 117.716 808.744 465.055
174 0 83.2393 12.6142 1050 121.03 808.45 462.237
175 1 44.027 10.6071 467 116.045 807.615 486.94
176 0 45.1602 11.5367 521 117.015 805.912 484.929
177 0 51.1946 13.7319 703 112.808 806.778 483.686
178 0 51.1946 13.5952 696 133.635 807.79 483.632
179 0 50.1048 13.6314 683 113.502 805.177 481.9
180 0 52.0836 11.7311 611 116.576 804.91 483.974
181 0 52.0913 12.0174 626 118.078 804.184 481.211
182 0 56.0962 13.7799 773 115.212 804.204 482.75
183 0 59.064 12.969 766 115.517 803.127 483.738
184 0 59.0378 15.1428 894 113.147 802.751 483.078
185 0 61.2608 14.6423 897 116.392 801.373 477.6
186 0 63.0604 14.383 907 117.246 800.921 475.997
187 0 64.056 13.2228 847 119.721 801.413 473.877
188 0 68.2681 13.5642 926 118.032 799.941 473.131
189 0 70.0593 12.0184 842 121.469 800.441 470.824
190 0 72.1115 17.4868 1261 112.062 799.508 469.029
191 0 79.3425 14.2925 1134 113.42 799.667 468.829
192 0 78.1317 12.5301 979 119.013 800.257 464.594
193 0 82.1706 15.8207 1300 114.86 799.757 458.641
194 0 84.215 14.1661 1193 117.148 799.756 460.105
195 1 46.0623 11.745 541 113.913 799.074 476.88
196 0 45.0342 13.301 599 115.773 799.886 473.337
197 0 48.0969 12.8699 619 112.121 800.355 474.572
198 0 48.1878 11.6212 560 114.212 801.298 475.539
199 0 50.0353 11.4719 574 111.375 801.55 474.969
200 0 53.1009 13.1825 700 109.384 801.979 471.92
201 0 52.0852 12.3836 645 114.003 801.357 469.462
202 0 54.1177 13.1196 710 113.469 802.373 466.568
203 0 57.0966 13.5209 772 114.668 803.632 465.803
204 0 57.0595 12.3205 703 117.28 805.447 464.76
205 0 60.0641 12.2536 736 116.849 805.802 466.039
206 0 63.1535 15.0744 952 111.848 806.791 466.952
207 0 62.0701 11.5676 718 119.295 807.543 464.974
208 0 65.1961 13.4671 878 116.27 807.51 465.879
209 0 68.2404 11.7819 804 119.121 809.444 467.521
210 0 69.3229 11.973 830 118.984 809.345 463.817
211 0 71.086 13.1109 932 118.231 808.746 462.563
212 0 77.1734 12.8153 989 118.215 808.588 462.89
213 0 76.1789 14.7154 1121 115.949 809.396 461.725
214 0 80.1623 12.7117 1019 120.522 809.704 462.316
215 1 45.2207 11.9414 540 117.098 808.491 483.004
216 0 46.0552 12.6153 581 115.318 806.976 481.458
217 0 48.054 14.1091 678 111.195 807.606 481.103
218 0 48.0969 8.73237 420 121.131 807.681 481.114
219 0 52.0581 14.2149 740 112.503 807.427 483.201
220 0 49.0508 10.7847 529 120.499 806.684 482.654
221 0 53.2165 12.5901 670 117.352 805.707 484.86
222 0 54.1184 12.8792 697 118.181 805.966 481.743
223 0 57.0532 12.8301 732 118.833 804.997 481.495
224 0 57.2134 11.3959 652 121.636 802.672 480.161
225 0 57.1454 11.357 649 123.069 802.7 479.382
226 0 63.0701 13.81 871 117.232 800.381 479.654
227 0 63.0701 13.8259 872 136.022 798.383 479.632
228 0 63.2561 16.3779 1036 113.676 799.566 479.639
229 0 68.0965 12.8347 874 120.175 798.945 477.581
230 0 68.0965 12.7466 868 146.606 797.933 477.637
231 0 73.2254 13.001 952 119.264 798.072 474.249
232 0 74.2332 11.9892 890 123.428 798.647 466.889
233 0 79.1592 15.3741 1217 116.945 797.599 465.472
234 0 82.1958 16.7284 1375 114.271 798.231 464.631
235 0 83.167 12.8897 1072 121.142 797.561 463.453
236 0 87.3514 12.9248 1129 119.413 797.543 462.275
237 0 89.2332 15.0953 1347 117.163 798.083 454.811
238 0 91.2203 16.1696 1475 130.046 798.024 456.296
239 1 47.1537 10.5612 498 120.803 799.281 475.813
240 0 53.3818 16.204 865 109.39 798.283 474.242
241 0 51.0589 15.4136 787 111.366 799.094 469.931
242 0 53.0757 12.6989 674 116.199 799.355 469.941
243 0 55.1159 13.6803 754 113.687 798.781 470.718
244 0 55.0455 11.1362 613 118.866 800.436 468.171
245 0 55.0455 10.9546 603 132.348 802.438 468.151
246 0 60.0623 16.666 1001 108.825 800.78 465.553
247 0 64.1257 13.8946 891 112.458 800.663 463.554
248 0 61.093 12.129 741 117.466 801.563 461.05
249 0 65.1271 12.7597 831 115.821 802.692 461.999
250 0 68.1264 14.3116 975 111.201 803.223 464.873
251 0 68.2164 12.8708 878 113.907 804.73 464.531
252 0 72.1223 13.4078 967 113.914 805.878 460.754
253 0 76.1999 14.1076 1075 113.199 805.707 461.749
254 0 78.2144 17.2091 1346 109.636 806.627 454.527
255 0 80.2913 13.6378 1095 114.9 805.763 457.141
256 0 84.1847 12.3419 1039 117.022 805.848 456.781
257 0 87.1594 14.9037 1299 112.151 806.708 460.979
258 0 89.1425 15.1219 1348 112.827 807.543 454.973
259 0 89.1425 15.1219 1348 125.783 808.525 455.022
260 1 48.3058 10.2058 493 115.811 806.813 479.669
261 0 48.2076 9.54206 460 116.757 805.515 478.215
262 0 50.0797 10.1039 506 113.17 805.761 479.731
263 0 54.0697 15.48 837 105.308 805.687 486.25
264 0 54.1174 13.1381 711 108.564 803.952 484.937
265 0 57.1006 12.9596 740 109.557 804.765 481.612
266 0 56.075 11.2171 629 113.434 803.879 481.825
267 0 60.0815 11.2847 678 112.46 803.614 479.87
268 0 60.1202 12.1423 730 112.026 802.434 480.556
269 0 63.1352 12.8613 812 109.653 801.909 481.113
270 0 68.1372 13.0179 887 111.415 801.178 474.143
271 0 67.1434 13.9254 935 110.786 800.332 473.192
272 0 68.1026 14.5663 992 111.033 800.166 468.667
273 0 74.1065 12.7789 947 112.636 800.089 466.95
274 0 74.1272 13.0317 966 113.006 799.298 464.706
275 0 80.1499 16.1198 1292 105.329 798.825 473.265
276 0 82.1918 16.6318 1367 106.603 798.394 463.347
277 0 84.1963 15.2144 1281 110.377 798.446 459.431
278 0 87.1729 13.2725 1157 112.955 798.427 456.874
279 1 44.0761 13.4086 591 103.777 797.24 481.003
280 0 45.069 11.8929 536 106.515 797.547 476.791
281 0 47.2279 12.7679 603 107.036 797.504 474.922
282 0 51.1368 16.1723 827 98.3398 800.149 479.048
283 0 49.3494 10.1116 499 108.309 799.557 477.325
284 0 50.109 9.23986 463 111.577 800.778 473.287
285 0 52.0452 7.97383 415 111.564 800.819 473.836
286 0 50.0961 9.96085 499 112.194 801.435 466.651
287 0 57.1814 11.8745 679 110.343 801.122 465.417
288 0 56.0305 11.6187 651 112.192 802.35 466.215
289 0 61.0604 13.2819 811 108.979 803.515 465.041
290 0 61.0762 14.3591 877 108.158 803.784 462.933
291 0 62.0949 12.4004 770 112.714 804.196 460.404
292 0 67.077 12.8211 860 110.745 806.473 464.045
293 0 66.0698 11.3214 748 114.762 807.178 460.452
294 0 68.1278 12.9463 882 112.68 808.552 460.626
295 0 71.1276 10.6147 755 114.528 807.318 465.138
296 0 70.201 9.61525 675 118.434 809.736 460.988
297 0 75.1819 17.2515 1297 108.072 810.096 455.944
298 0 79.3183 17.6756 1402 104.79 809.163 466.144
299 0 78.1978 11.5988 907 115.862 809.338 460.04
300 0 83.1288 14.2309 1183 113.163 809.658 459.926
301 0 86.1158 15.3282 1320 110.69 809.183 461.798
302 1 46.0968 10.8684 501 112.571 809.968 481.289
303 0 46.0918 10.631 490 114.069 809.902 479.745
304 0 51.1069 11.0161 563 111.954 809.762 482.632
305 0 49.04 12.5204 614 110.72 808.44 482.142
306 0 51.1617 12.9589 663 113.136 808.198 480.508
307 0 52.1959 10.9012 569 115.67 806.547 481.555
308 0 51.1964 11.2313 575 135.579 805.567 481.75
309 0 57.0695 15.595 890 109.39 805.679 478.161
310 0 58.1419 15.0666 876 110.967 805.616 480.622
311 0 61.1348 14.3944 880 111.38 804.974 476.973
312 0 62.1822 11.7879 733 116.221 803.22 478.05
313 0 63.0846 13.1728 831 115.816 803.202 475.971
314 0 64.3227 11.8154 760 118.546 803.979 473.111
315 0 64.3227 11.8621 763 139.967 804.972 473.042
316 0 69.1744 11.9698 828 117.693 802.272 474.179
317 0 69.2483 11.0761 767 119.413 801.541 470.816
318 0 76.1738 15.3202 1167 111.964 800.86 466.711
319 0 77.172 14.1891 1095 113.807 800.979 465.899
320 0 79.2931 14.6167 1159 112.468 799.732 462.157
321 0 83.1945 14.9048 1240 112.162 800.806 459.252
322 0 86.087 12.5919 1084 114.91 799.672 463.724
323 1 44.069 11.4139 503 115.815 801.078 476.571
324 0 47.0473 13.5183 636 112.646 799.826 476.388
325 0 45.2065 11.3922 515 115.047 799.054 474.835
326 0 49.1132 12.7664 627 113.719 798.959 472.233
327 0 51.0848 12.4499 636 114.981 800.365 472.53
328 0 51.1208 12.089 618 118.248 800.642 467.115
329 0 54.1375 13.6504 739 115.548 801.801 468.16
330 0 55.1573 14.4133 795 114.894 801.323 465.907
331 0 58.224 13.4309 782 114.789 803.43 466.899
332 0 57.1422 12.7926 731 114.544 802.865 468.479
333 0 62.3209 15.709 979 111.082 803.223 462.349
334 0 63.199 11.8198 747 117.673 804.257 464.24
335 0 65.1114 15.6348 1018 112.967 805.457 460.855
336 0 64.166 10.4573 671 121.677 807.013 461.644
337 0 70.1565 13.9118 976 116.284 807.374 459.577
338 0 74.1095 15.1128 1120 113.132 807.948 461.948
339 0 72.0762 13.125 946 118.728 809.581 460.679
340 0 76.0931 15.2182 1158 115.899 809.914 455.209
341 0 76.2215 12.9885 990 120.805 810.299 454.566
342 0 82.1311 13.9777 1148 118.719 808.741 455.208
343 0 83.1498 13.638 1134 119.427 808.745 455.474
344 0 88.3466 13.3904 1183 117.626 810.784 461.812
345 1 45.0758 11.0702 499 117.559 810.91 479.513
346 0 46.1752 13.8603 640 113.98 810.88 478.7
347 0 49.1605 13.5678 667 114.157 810.457 480.609
348 0 48.1574 12.999 626 117.506 810.179 478.15
349 0 53.1423 14.5082 771 116.336 809.894 477.709
350 0 53.0839 15.24 809 115.792 808.957 479.559
351 0 54.1471 17.4894 947 112.434 807.397 478.125
352 0 55.0787 12.7454 702 120.94 808.348 479.625
353 0 59.1192 14.5469 860 117.872 807.157 476.278
354 0 59.2003 11.6216 688 121.233 806.724 478.096
355 0 61.1459 15.8146 967 114.339 806.212 477.098
356 0 64.2026 14.0804 904 116.685 805.632 477.535
357 0 64.2014 14.8907 956 117.204 804.844 475.068
358 0 64.4016 12.0339 775 123.364 805.141 474.583
359 0 67.0752 13.8501 929 121.694 803.42 469.491
360 0 71.1597 12.4228 884 122.355 802.017 469.241
361 0 73.1269 12.9911 950 122.323 802.81 466.169
362 0 75.1664 14.5278 1092 118.148 803.471 465.005
363 0 75.1664 14.5677 1095 134.119 803.484 465.172
364 0 76.2181 13.0546 995 121.928 802.266 458.075
365 0 80.134 14.2386 1141 119.826 802.631 456.04
366 0 83.3256 12.8652 1072 120.997 802.932 458.005
367 0 87.1087 14.3729 1252 119.343 802.416 455.192
368 0 87.3926 13.7769 1204 122.074 802.063 450.552
369 1 46.335 10.6615 494 117.82 802.178 476.01
370 0 48.3417 11.8945 575 132.045 803.2 473.873
371 0 50.0885 11.4198 572 118.393 802.97 472.663
372 0 51.1222 13.3406 682 117.664 802.327 467.384
373 0 53.171 12.4316 661 118.33 803.646 467.909
374 0 54.1441 17.7489 961 109.814 804.7 464.971
375 0 54.1898 12.3271 668 118.587 804.702 464.299
376 0 58.1699 13.9763 813 115.677 804.909 461.057
377 0 59.2454 14.0433 832 114.534 804.203 463.972
378 0 60.3176 13.0144 785 117.6 806.777 459.544
379 0 64.2205 15.8049 1015 112.284 807.587 460.578
380 0 61.1574 10.5793 647 122.108 807.733 458.349
381 0 68.1707 16.9281 1154 112.148 808.894 456.726
382 0 71.4842 19.7666 1413 106.626 810.186 461.099
383 0 69.4916 14.1312 982 135.365 810.098 455.689
384 0 73.3303 13.8415 1015 117.123 809.736 457.449
385 0 76.2243 16.1103 1228 114.448 810.353 455.555
386 0 78.2686 17.3505 1358 112.402 810.903 457.658
387 0 82.1754 14.5542 1196 117.21 811.604 457.844
388 0 84.2823 16.1125 1358 115.62 811.856 458.513
389 0 85.3406 15.526 1325 116.748 812.423 458.935
390 0 88.1945 15.8173 1395 117.009 812.052 458.538
391 0 89.1072 14.5555 1297 118.552 811.639 461.16
392 0 93.0995 16.4663 1533 116.408 811.107 457.628
393 0 94.181 15.0136 1414 120.178 810.151 452.625
394 0 99.3211 14.1964 1410 120.877 808.227 456.276
395 0 99.3211 14.1964 1410 145.753 807.24 456.298
396 1 55.1043 11.7232 646 119.057 809.159 479.961
397 0 56.0772 11.4842 644 119.986 807.989 480.899
398 0 57.119 13.4281 767 120.047 806.329 476.283
399 0 59.0897 11.5587 683 123.177 806.23 474.133
400 0 62.0696 13.8071 857 119.471 804.695 472.958
401 0 67.2122 12.4085 834 120.807 804.818 476.368
402 0 69.1124 12.8776 890 119.184 803.865 473.309
403 0 71.051 15.4678 1099 117.187 802.32 470
404 0 71.1312 15.1129 1075 117.856 802.48 469.885
405 0 77.2152 12.912 997 120.072 801.716 467.153
406 0 77.1347 13.3273 1028 121.553 802.211 461.803
407 0 77.2152 11.3838 879 125.454 800.764 460.564
408 0 86.2089 16.0424 1383 114.632 801.891 460.921
409 0 86.1856 14.0395 1210 118.229 800.45 459.276
410 0 94.3838 12.1419 1146 118.774 800.878 461.14
411 0 91.2042 20.1636 1839 109.805 800.62 455.608
412 0 94.1791 15.0564 1418 118.972 800.326 448.82
413 1 46.0439 9.94702 458 122.094 800.869 473.275
414 0 51.0515 12.2817 627 117.973 802.002 471.217
415 0 51.0365 12.3833 632 119.288 801.774 469.089
416 0 54.0708 12.4836 675 119.348 801.28 467.311
417 0 55.0373 15.3896 847 115.426 802.504 463.849
418 0 56.0353 11.2251 629 121.924 803.738 468.895
419 0 57.0978 13.6257 778 120.607 805.087 462.495
420 0 62.2582 13.4922 840 118.213 804.695 465.342
421 0 63.1936 12.9444 818 121.302 805.252 460.436
422 0 65.1162 14.2514 928 119.335 807.158 460.661
423 0 65.1162 14.3282 933 135.596 809.17 460.695
424 0 70.0646 12.9309 906 121.447 807.635 458.26
425 0 70.0646 12.9309 906 138.347 806.645 458.362
426 0 73.1141 13.9371 1019 121.742 809.215 454.177
427 0 79.16 14.5907 1155 119.13 810.899 458.543
428 0 82.2972 13.1961 1086 120.01 810.223 456.884
429 0 79.3893 12.1427 964 122.64 809.882 456.59
430 0 83.3959 13.5019 1126 120.771 810.437 454.25
431 0 87.2064 14.7696 1288 118.064 810.872 456.259
432 0 90.1678 12.9647 1169 118.501 811.287 463.05
433 0 93.5543 12.3565 1156 122.69 811.407 454.697
434 0 94.2464 12.8493 1211 121.684 811.738 457.735
435 0 99.2544 14.0447 1394 119.857 810.554 455.561
436 1 56.211 13.4493 756 118.221 809.944 475.728
437 0 57.2653 13.2192 757 119.493 810.02 474.939
438 0 57.1866 10.0198 573 125.475 808.822 474.974
439 0 61.088 12.7357 778 119.078 809.936 476.184
440 0 62.1583 12.3234 766 120.987 810.356 475.313
441 0 64.1509 12.72 816 119.358 808.913 475.237
442 0 68.1253 12.1981 831 120.302 807.667 474.451
443 0 67.093 11.2679 756 123.729 806.636 473.254
444 0 69.2056 11.7621 814 124.719 806.495 467.378
445 0 72.1035 12.3572 891 121.919 806.22 471.112
446 0 73.2097 12.4847 914 123.356 805.574 466.515
447 0 84.4222 14.2735 1205 117.591 805.155 465.61
448 0 82.2305 16.5997 1365 115.015 804.429 461.448
449 1 159.337 12.7905 2038 123.266 804.956 427.008
450 1 88.1928 13.3231 1175 120.701 804.883 456.826
451 0 90.1845 14.548 1312 120.217 803.507 457.172
452 1 47.0299 11.9286 561 117.301 802.499 481.062
453 0 47.1344 12.5598 592 118.069 802.059 476.015
454 0 48.1351 11.9871 577 117.669 801.276 475.331
455 0 51.0948 11.8016 603 117.345 801.32 475.532
456 0 50.0292 11.3933 570 119.06 801.337 473.142
457 0 54.0621 13.3365 721 115.692 802.401 472.867
458 0 54.0721 12.6498 684 117.618 802.006 472.387
459 0 57.1244 12.3415 705 117.935 802.321 472.095
460 0 58.1618 17.3825 1011 112.637 803.843 468.637
461 0 59.3377 13.1788 782 120.119 803.948 467.066
462 0 61.1378 12.8399 785 119.318 804.061 469.376
463 0 65.108 14.4376 940 117.366 804.693 465.94
464 0 67.2218 17.6282 1185 111.841 804.839 464.718
465 0 67.1815 13.0542 877 119.987 805.91 466.157
466 0 74.1216 14.9484 1108 115.705 807.029 466.349
467 0 74.1708 16.125 1196 116.069 806.734 462.788
468 0 74.1842 12.2128 906 123.369 806.852 463.541
469 0 79.1734 12.0369 953 123.967 807.39 460.965
470 0 83.2863 17.9021 1491 112.166 808.632 459.18
471 0 87.3395 17.472 1526 112.224 809.49 460.041
472 0 89.3769 17.9577 1605 112.553 809.28 458.301
473 1 44.1655 9.05684 400 123.288 808.96 483.15
474 0 46.1891 12.1457 561 119.686 808.055 484.879
475 0 47.2355 13.4009 633 119.355 808.769 481.983
476 0 51.0629 11.5152 588 121.185 807.548 484.629
477 0 53.1866 12.5032 665 120.487 807.01 484.364
478 0 56.1916 13.8811 780 116.995 806.795 485.828
479 0 56.0511 12.2745 688 122.231 806.51 483.438
480 0 57.1619 12.2809 702 122.761 805.038 485.312
481 0 57.1619 12.2109 698 147.887 804.046 485.102
482 0 61.1979 12.8763 788 121.591 804.225 483.921
483 0 64.2038 12.1021 777 121.378 803.864 485.185
484 0 66.2589 14.2924 947 117.681 801.57 482.331
485 0 69.2303 13.6212 943 118.628 801.24 481.812
486 0 75.1415 12.6029 947 118.026 801.18 481.776
487 0 71.147 10.654 758 122.408 800.22 478.778
488 0 71.147 10.6399 757 146.719 799.252 478.822
489 0 82.1652 11.0874 911 119.37 799.785 478.372
490 0 81.2406 13.38 1087 115.87 798.567 471.76
491 1 42.175 13.4203 566 113.228 799.207 488.686
492 0 44.0566 11.5079 507 112.728 799.036 489.191
493 0 47.0463 14.8152 697 106.76 798.45 490.181
494 0 46.2263 14.018 648 108.61 796.372 490.758
495 0 48.1195 13.3418 642 108.931 795.788 488.184
496 0 46.183 11.0647 511 112.658 796.337 485.16
497 0 50.3737 10.8191 545 111.503 795.635 483.325
498 0 51.0725 11.7089 598 112.761 795.107 479.468
499 0 54.2074 12.4153 673 117.608 796.116 476.56
500 0 56.194 14.8592 835 113.498 797.826 473.101
501 0 58.2788 11.3077 659 117.206 798.495 475.275
502 0 59.1441 15.4876 916 112.466 798.97 470.926
503 0 61.3993 11.3356 696 118.246 799.203 468.445
504 0 63.2614 13.3573 845 116.822 799.703 465.903
505 0 65.1184 14.8038 964 115.026 800.65 464.337
506 0 68.3413 12.5693 859 117.154 800.6 465.856
507 0 68.3413 12.5985 861 128.926 800.599 465.858
508 0 72.2027 11.6201 839 119.431 802.266 462.973
509 0 77.1842 11.492 887 116.972 802.78 461.977
510 0 77.1842 11.5309 890 132.86 803.766 462.125
511 0 81.1727 16.0522 1303 110.818 805.028 456.978
512 0 84.1788 12.3428 1039 115.771 805.026 450.557
513 0 89.307 13.6495 1219 112.699 805.884 454.738
514 1 48.0367 12.2198 587 112.733 805.949 474.92
515 0 51.1851 13.5586 694 110.31 806.563 477.2
516 0 50.1289 12.5476 629 113.576 807.17 475.184
517 0 50.1192 11.2532 564 115.112 807.002 477.869
518 0 52.2319 13.6507 713 111.941 808.038 477.272
519 0 54.4019 12.2974 669 112.641 807.565 479.904
520 0 54.4019 12.279 668 132.931 807.549 479.841
521 0 58.2594 14.9675 872 108.998 806.706 481.154
522 0 58.1882 9.86455 574 117.157 805 481.8
523 0 61.2923 12.057 739 113.032 805.054 479.242
524 0 63.4395 11.444 726 115.08 804.603 480.955
525 0 65.2056 13.2044 861 113.29 804.772 478.448
526 0 68.2409 14.8005 1010 109.999 804.501 479.02
527 0 71.2617 13.8223 985 111.348 803.432 478.775
528 0 70.3111 12.7149 894 114.956 802.407 476.147
529 0 76.1629 13.9832 1065 110.38 801.518 475.744
530 0 78.212 14.1666 1108 108.775 801.243 478.676
531 0 81.2448 14.524 1180 109.231 799.959 472.175
532 0 80.315 12.7374 1023 112.483 798.883 469.018
533 0 81.3266 13.3905 1089 123.477 797.878 470.081
534 0 90.261 14.3141 1292 109.749 798.765 465.55
535 0 91.2571 13.314 1215 110.881 797.492 465.272
536 1 48.1626 11.6688 562 110.733 796.783 483.635
537 0 50.1123 10.1971 511 113.301 796.886 483.008
538 0 52.0486 13.0263 678 108.931 797.32 479.878
539 0 56.194 11.1222 625 110.066 797.434 481.269
540 0 57.3441 12.9394 742 108.819 797.08 477.957
541 0 58.122 16.3105 948 103.671 796.594 476.632
542 0 59.1603 13.9114 823 107.753 796.896 473.784
543 0 63.2128 13.9529 882 107.214 797.231 473.429
544 0 63.1793 9.59175 606 114.784 798.536 465.094
545 0 67.2888 13.1077 882 109.254 798.74 467.836
546 0 68.2118 13.1649 898 109.07 799.798 469.276
547 0 68.149 12.3113 839 110.404 799.147 466.675
548 0 71.2119 16.0086 1140 105.557 800.616 459.847
549 0 70.3014 12.6313 888 111.809 800.929 462.155
550 0 76.2551 14.74 1124 106.56 801.62 460.242
551 0 79.433 16.2653 1292 104.776 803.262 464.092
552 0 85.4418 17.0291 1455 103.615 802.416 459.221
553 0 85.4418 17.0057 1453 126.312 802.445 459.064
554 0 88.1917 11.1802 986 112.546 803.907 456.046
555 0 92.1344 12.9268 1191 111.274 804.254 451.127
556 0 96.4481 12.9603 1250 111.541 805.115 456.445
557 1 53.2451 11.7194 624 109.304 805.361 479.769
558 0 53.2451 11.6443 620 132.839 805.366 479.766
559 0 55.1269 10.5575 582 114.149 807.127 479.569
560 0 56.181 12.2995 691 111.916 805.731 478.593
561 0 57.0832 11.3869 650 113.977 805.891 477.783
562 0 61.2134 13.5918 832 109.343 805.671 480.541
563 0 61.0894 13.4229 820 110.713 805.539 477.693
564 0 62.0947 12.497 776 113.893 805.292 477.79
565 0 66.1818 15.1552 1003 108.042 804.409 479.577
566 0 71.195 19.0041 1353 101.767 804.735 481.636
567 0 66.2091 12.2944 814 114.428 803.896 474.338
568 0 74.2054 14.123 1048 108.96 804.33 478.113
569 0 73.3236 9.35578 686 115.456 802.797 480.032
570 0 73.3236 9.36942 687 148.499 800.82 480.189
571 0 81.3176 12.4696 1014 111.937 802.158 475.151
572 0 83.142 16.4297 1366 105.887 800.97 475.802
573 0 87.3643 12.9458 1131 112.237 800.658 473.025
574 0 89.3696 16.5045 1475 107.262 800.318 469.881
575 0 92.1834 14.2 1309 110.348 800.228 470.178
576 0 95.6582 11.8965 1138 115.11 797.736 462.106
577 1 48.1176 11.5135 554 109.594 797.872 486.962
578 0 50.1262 14.0246 703 105.667 797.644 484.161
579 0 53.1802 12.3918 659 108.698 795.645 484.839
580 0 52.1841 10.3096 538 113.578 796.323 482.329
581 0 51.3839 9.9642 512 115.107 795.426 478.594
582 0 54.2886 11.8073 641 111.491 794.959 478.986
583 0 58.0329 13.837 803 107.391 795.102 476.355
584 0 58.0329 13.8198 802 133.14 795.085 476.373
585 0 60.2925 13.2023 796 109.912 796.117 474.627
586 0 63.1572 14.266 901 108.863 796.998 471.08
587 0 63.1748 14.9743 946 109.597 797.475 467.447
588 0 65.3352 13.3619 873 109.895 797.198 471.176
589 0 69.3713 11.4312 793 114.579 798.217 467.666
590 0 69.3152 14.4701 1003 112.253 798.56 463.906
591 0 73.2465 15.5502 1139 110.06 798.846 466.658
592 0 74.1892 13.4791 1000 113.595 800.958 462.718
593 0 81.9099 16.3106 1336 106.684 800.242 469.921
594 0 81.4543 18.4152 1500 108.125 802.421 462.757
595 0 82.3449 13.6378 1123 115.504 803.008 455.632
596 0 84.1917 14.1463 1191 116.066 802.669 453.417
597 0 86.2884 12.8407 1108 118.634 804.56 457.536
598 0 90.2414 15.0042 1354 115.252 804.764 454.517
599 0 92.5526 15.375 1423 114.429 805.519 453.997
600 0 97.2724 15.0094 1460 113.931 806.062 454.058
601 1 50.0875 14.0754 705 108.533 806.47 478.641
602 0 52.1749 12.3431 644 111.717 805.84 472.023
603 0 55.1916 12.7374 703 109.336 805.708 472.851
604 0 54.1551 13.3321 722 114.014 805.353 474.943
605 0 54.2698 11.6271 631 117.691 805.331 479.735
606 0 59.0831 11.9831 708 115.185 804.934 481.72
607 0 60.1453 16.4934 992 109.408 803.074 478.695
608 0 59.1313 12.9204 764 115.059 803.963 479.39
609 0 63.1234 15.9846 1009 106.305 803.451 485.881
610 0 65.1968 16.1051 1050 110.138 802.588 478.175
611 0 68.2406 13.511 922 113.081 802.487 480.274
612 0 69.1292 11.0518 764 118.101 803.004 476.102
613 0 73.2578 14.3329 1050 113.029 802.889 474.732
614 0 76.4124 17.3663 1327 108.014 802.104 475.526
615 0 76.4124 17.1962 1314 128.546 801.123 475.482
616 0 80.2149 13.3392 1070 112.897 800.914 474.609
617 0 86.4393 16.9483 1465 105.419 800.061 475.136
618 0 85.1383 11.6634 993 115.211 799.411 471.636
619 1 48.0277 10.7438 516 112.971 797.498 488.171
620 0 46.0589 12.1149 558 110.052 797.095 489.029
621 0 50.0583 13.1846 660 108.135 796.858 486.811
622 0 53.2017 11.5598 615 109.137 796.971 484.338
623 0 54.2249 12.2269 663 109.356 797.703 480.738
624 0 55.0939 12.27 676 109.216 797.475 479.078
625 0 55.1932 11.9218 658 110.809 797.166 476.45
626 0 58.1711 11.5349 671 111.133 796.975 474.855
627 0 62.2697 13.3131 829 107.569 797.212 474.02
628 0 64.2562 12.7303 818 107.993 797.98 473.339
629 0 68.3358 14.1946 970 106.092 797.125 473.447
630 0 67.2679 15.3416 1032 103.922 797.955 472.451
631 0 68.2233 11.6236 793 111.535 797.648 469.436
632 0 73.1078 14.4034 1053 107.623 799.477 467.343
633 0 72.1417 14.5408 1049 109.01 798.974 463.583
634 0 76.1977 12.1264 924 112.943 800.426 458.952
635 0 80.1909 14.9019 1195 107.346 799.257 462.339
636 0 81.3468 14.8131 1205 108.115 801.901 459.859
637 0 83.3122 12.9153 1076 110.364 800.774 457.046
638 0 87.516 16.1342 1412 105.517 801.517 455.255
639 0 88.2045 13.7861 1216 108.169 801.894 453.386
640 1 44.1275 10.7869 476 105.91 802.905 477.353
641 0 47.1359 20.5364 968 94.1952 803.016 478.037
642 0 49.166 12.8951 634 102.674 804.044 479.139
643 0 50.2984 12.1873 613 104.263 803.312 479.171
644 0 52.062 12.7348 663 106.983 804.504 477.422
645 0 53.2226 13.5093 719 106.178 803.794 475.37
646 0 56.2409 11.6641 656 107.66 803.396 478.363
647 0 58.0734 10.9172 634 108.727 803.915 479.514
648 0 59.2515 10.582 627 110.518 803.896 477.086
649 0 59.2515 10.6158 629 126.024 803.866 477.027
650 0 65.077 12.1087 788 106.698 802.477 478.236
651 0 64.0783 13.9829 896 105.069 803.526 475.343
652 0 64.0879 10.5792 678 109.68 802.969 475.286
653 0 69.1994 10.4481 723 108.757 803.675 476.387
654 0 73.1538 13.9022 1017 104.31 803.005 477.088
655 0 75.1171 13.5389 1017 106.102 801.151 476.203
656 0 75.3176 10.8208 815 109.829 801.482 479.855
657 0 81.3106 13.1717 1071 107.378 802.23 475.47
658 1 42.1203 10.6599 449 105.775 798.786 492.822
659 0 42.0595 13.0767 550 104.589 798.982 490.231
660 0 43.1256 13.5186 583 104.81 799.336 491.64
661 0 45.1613 11.8243 534 109.285 796.809 487.337
662 0 48.0675 13.7099 659 105.991 796.602 487.892
663 0 46.0542 12.4853 575 110.134 797.327 487.082
664 0 49.0944 13.0565 641 105.844 796.382 488.002
665 0 48.0619 12.5671 604 106.411 796.28 484.243
666 0 50.2434 13.2754 667 105.264 795.76 483.292
667 0 52.0973 18.7342 976 100.589 795.893 480.768
668 0 55.0571 15.8381 872 104.654 795.577 475.194
669 0 53.0982 11.394 605 113.387 795.641 475.593
670 0 59.0623 14.0699 831 107.738 797.085 475.792
671 0 60.0846 13.2646 797 109.223 796.844 474.015
672 0 60.1301 13.5706 816 109.51 796.936 471.604
673 0 63.0826 12.8403 810 110.604 797.612 469.11
674 0 61.0429 11.9588 730 113.284 797.097 469.011
675 0 65.0674 14.6464 953 107.064 798.758 465.591
676 0 69.0938 12.4179 858 110.678 798.921 468.842
677 0 71.1228 15.0444 1070 108.551 800.533 464.188
678 0 71.1228 15.1147 1075 124.992 801.532 464.108
679 0 76.2645 15.9576 1217 107.567 802.173 458.305
680 0 79.2976 13.1782 1045 111.098 803.444 459.731
681 0 80.3176 13.7205 1102 112.015 803.858 457.371
682 0 81.3151 12.6422 1028 112.371 803.949 456.333
683 1 44.0743 9.37053 413 111.288 802.659 481.579
684 0 44.1619 12.1145 535 109.007 804.626 480.964
685 0 48.1296 15.2713 735 105.95 804.955 480.88
686 0 49.073 13.7958 677 108.148 805.439 481.743
687 0 47.0502 12.0297 566 112.981 803.731 479.507
688 0 50.0714 12.622 632 109.223 804.479 483.82
689 0 50.0769 11.2827 565 114.083 804.74 480.703
690 0 52.1414 11.8716 619 112.553 804.509 481.233
691 0 57.1018 15.1834 867 107.024 803.947 479.747
692 0 57.1129 13.9198 795 110.374 804.496 480.911
693 0 59.0404 15.0067 886 108.734 803.657 478.721
694 0 61.0597 16.2955 995 106.203 804.33 479.352
695 0 61.0505 11.0237 673 115.334 803.34 479.364
696 0 65.1617 12.6915 827 111.485 804.212 479.351
697 0 68.2303 14.2898 975 109.43 803.413 477.696
698 0 70.0812 17.5939 1233 104.916 803.502 476.524
699 0 73.237 16.2896 1193 107.376 802.177 474.914
700 0 75.1628 16.6838 1254 106.176 801.962 467.382
701 0 78.1465 14.2425 1113 111.176 800.239 472.013
702 0 82.1541 13.0243 1070 112.573 799.958 471.339
703 0 85.3026 11.7816 1005 113.76 799.671 471.574
704 0 84.4083 14.2403 1202 112.324 799.726 464.26
705 0 88.2855 18.5874 1641 105.074 798.918 468.896
706 0 92.2438 14.169 1307 109.417 798.822 466.957
707 0 91.1926 12.6765 1156 113.377 798.76 462.779
708 0 96.1409 13.8755 1334 110.499 797.427 462.648
709 0 102.212 19.5966 2003 102.833 797.104 453.186
710 0 104.217 14.0284 1462 111.482 798.314 446.745
711 0 109.246 15.012 1640 111.288 797.206 448.57
712 1 57.1653 10.076 576 112.51 798.222 475.241
713 0 61.1173 14.9712 915 107.776 796.35 471.412
714 0 60.3868 12.6352 763 113.229 797.353 473.84
715 0 64.2441 12.2346 786 114.047 796.187 473.092
716 0 68.1928 17.1572 1170 106.731 798.474 469.073
717 0 68.1928 17.1866 1172 119.805 800.481 468.908
718 0 73.1454 13.357 977 112.034 797.791 468.348
719 0 81.7052 17.1593 1402 105.631 797.656 465.337
720 0 81.7052 17.196 1405 132.485 796.701 465.129
721 0 79.2606 12.8059 1015 114.076 800.175 463.892
722 0 86.2513 16.7186 1442 107.891 800.759 462.32
723 0 87.2012 16.7085 1457 107.909 801.455 457.748
724 0 90.2228 17.7893 1605 106.312 802.226 459.896
725 0 90.2228 17.756 1602 135.761 803.248 459.743
726 0 96.1842 17.82 1714 106.801 802.242 456.355
727 0 98.3332 16.3627 1609 109.689 804.461 456.73
728 0 104.18 17.8633 1861 107.504 804.746 453.203
729 0 105.33 15.4372 1626 111.675 805.809 452.392
730 0 108.2 13.1424 1422 114.366 805.911 454.146
731 0 112.213 15.9251 1787 109.479 806.402 456.881
732 1 58.145 12.5204 728 112.17 804.927 479.06
733 0 58.146 10.8348 630 115.276 805.035 478.906
734 0 61.0333 14.0088 855 110.794 805.25 478.542
735 0 64.116 13.0857 839 110.88 804.304 479.895
736 0 67.1177 13.2305 888 111.718 804.797 476.618
737 0 71.1411 15.5325 1105 108.002 803.566 477.145
738 0 69.0953 11.5782 800 115.182 803.758 477.54
739 0 73.106 15.6075 1141 109.37 803.41 476.33
740 0 78.1261 15.091 1179 108.85 803.56 477.271
741 0 80.1561 16.917 1356 104.758 801.659 477.006
742 0 82.1359 13.3803 1099 111.591 801.711 472.742
743 0 84.2516 13.8158 1164 110.894 800.733 470.716
744 0 87.1744 15.1765 1323 109.745 799.163 467.963
745 0 87.3104 12.152 1061 112.603 799.989 473.069
746 0 88.2299 12.4448 1098 115.83 800.57 459.27
747 0 92.1914 12.8211 1182 115.786 799.677 457.904
748 0 98.2871 16.523 1624 109.101 800.773 461.252
749 0 99.3259 14.5581 1446 114.232 799.9 453.804
750 0 101.223 13.5048 1367 116.137 799.99 449.45
751 1 158.423 12.7381 2018 119.857 799.243 420.061
752 1 106.166 12.1978 1295 118.104 799.232 444.66
753 0 113.606 15.3778 1747 112.156 798.936 446.448
754 1 58.1553 13.4811 784 110.68 801.057 475.165
755 0 64.478 18.1612 1171 103.1 800.218 471.505
756 0 64.1296 15.9209 1021 108.381 799.136 469.638
757 0 65.1438 15.7805 1028 109.481 800.889 466.848
758 0 69.4206 16.0039 1111 107.996 800.982 468.777
759 0 70.1422 16.7945 1178 107.915 800.54 462.445
760 0 70.1422 16.7945 1178 122.483 801.488 462.594
761 0 75.1275 19.7398 1483 105.107 801.817 462.442
762 0 77.1996 14.5597 1124 112.576 801.2 460.496
763 0 80.2756 14.8488 1192 112.953 803.244 456.737
764 0 84.567 15.7508 1332 106.785 802.626 461.169
765 0 87.2475 14.4875 1264 112.426 803.697 454.983
766 1 46.0324 11.7526 541 115.562 804.545 464.586
767 0 48.0507 9.30267 447 116.447 804.973 467.671
768 0 50.0364 13.0705 654 114.503 805.112 464.367
769 0 51.1192 12.5197 640 118.281 805.273 469.709
770 0 54.1375 14.0199 759 111.047 805.132 474.912
771 0 55.2759 15.685 867 109.057 805.668 473.858
772 0 55.214 13.8009 762 116.769 805.696 472.026
773 0 58.1791 12.049 701 118.783 806.016 472.593
774 0 61.2996 14.6983 901 112.566 806.255 480.59
775 0 63.1659 14.264 901 114.317 806.391 478.332
776 0 64.0278 12.9319 828 117.11 805.975 478.059
777 0 65.1727 13.119 855 118.152 805.096 474.504
778 0 67.1777 15.7046 1055 113.608 805.103 470.919
779 0 71.281 15.5722 1110 114.04 805.456 472.365
780 0 72.1719 14.3823 1038 114.885 806.708 475.547
781 0 76.2043 13.8575 1056 116.921 805.859 472.33
782 0 78.4916 16.6387 1306 112.64 805.656 473.442
783 0 82.2774 15.9825 1315 112.867 805.004 471.128
784 0 84.1996 12.0191 1012 119.434 804.621 472.234
785 1 45.1203 10.7269 484 118.488 803.665 488.665
786 0 47.1545 12.194 575 116.803 802.791 486.723
787 0 46.2337 11.7231 542 119.334 802.546 485.991
788 0 49.2389 12.2464 603 120.242 801.635 487.688
789 0 51.2613 11.6462 597 121.117 800.963 486.241
790 0 55.1513 13.0369 719 116.331 800.001 481.606
791 0 56.1765 13.7602 773 114.572 800.849 477.023
792 0 58.1348 13.6235 792 113.23 798.218 480.064
793 0 58.1288 13.6249 792 124.878 796.222 479.966
794 0 61.3158 12.0687 740 117.581 799.462 474.324
795 0 65.1532 20.0604 1307 104.85 797.235 473.348
796 0 67.1217 15.2708 1025 111.215 797.538 472.649
797 0 68.2145 17.401 1187 109.22 797.938 470.764
798 0 70.325 19.4668 1369 106.007 798.336 471.879
799 0 69.1488 13.5939 940 118.193 798.664 465.611
800 0 74.5299 15.3495 1144 113.766 798.254 465.259
801 0 76.6612 14.0097 1074 117.336 799.032 462.744
802 0 77.4393 13.3911 1037 120.118 798.755 459.655
803 0 79.4435 16.1121 1280 116.229 799.244 458.784
804 0 82.3406 16.2739 1340 115.689 799.334 458.035
805 0 89.6871 16.0001 1435 114.765 801.001 457.528
806 0 87.5303 14.4636 1266 119.957 801.3 453.331
807 0 90.3846 17.2706 1561 115.832 801.083 450.93
808 0 95.2494 13.4699 1283 120.296 803.689 454.309
809 0 94.4619 13.4234 1268 122.349 803.866 453.304
810 0 93.1557 14.4382 1345 122.691 804.088 447.994
811 1 55.1763 10.2218 564 125.348 804.888 472.326
812 0 54.2209 12.7257 690 122.561 804.684 469.857
813 0 56.286 13.0228 733 123.221 805.014 471.615
814 0 58.2906 12.3348 719 124.744 806.495 471.09
815 0 59.0887 11.762 695 126.488 805.987 471.627
816 0 63.0325 14.1197 890 121.631 806.442 471.645
817 0 66.1433 14.7407 975 120.126 805.874 471.955
818 0 68.1969 16.6137 1133 115.198 806.189 474.579
819 0 69.3034 12.236 848 125.624 806.389 471.505
820 0 73.5648 16.7607 1233 117.401 806.617 471.678
821 0 73.194 16.0805 1177 120.613 805.383 464.374
822 0 74.0982 15.0341 1114 123.335 806.254 463.003
823 0 79.2818 13.9502 1106 123.853 804.214 466.642
824 0 82.543 13.605 1123 124.188 805.711 465.508
825 0 81.4332 16.1728 1317 120.795 804.217 466.695
826 0 85.2769 14.4236 1230 123.568 804.181 466.619
827 0 82.1552 12.7929 1051 123.782 802.986 469.173
828 0 87.2433 11.1069 969 125.938 802.772 471.26
829 0 87.2352 12.5064 1091 127.521 802.189 464.442
830 0 89.1947 13.7564 1227 124.355 802.041 468.15
831 1 50.1338 11.0105 552 121.457 800.303 483.801
832 0 50.0994 9.84044 493 124.081 800.316 479.822
833 0 50.0368 9.43306 472 123.358 800.587 477.877
834 0 54.1286 9.47742 513 122.996 800.77 475.844
835 0 58.068 10.746 624 120.631 800.284 475.476
836 0 55.1088 11.2323 619 122.006 801.493 475.914
837 0 59.1505 11.3778 673 121.162 801.279 469.713
838 0 63.0766 10.7013 675 120.465 800.772 471.375
839 0 65.2098 14.6757 957 114.287 800.882 470.31
840 0 64.0835 10.892 698 119.516 800.193 469.804
841 0 70.1582 12.258 860 116.836 800.715 467.078
842 0 71.1609 12.4788 888 116.545 800.519 465.292
843 0 73.1381 11.5125 842 117.215 800.663 467.429
844 0 76.2036 13.4771 1027 113.775 800.219 462.538
845 0 78.0867 13.6003 1062 112.956 801.226 461.488
846 0 78.0867 13.5875 1061 134.661 802.212 461.646
847 0 82.2366 14.5312 1195 113.895 801.759 456.085
848 0 83.0998 12.8761 1070 116.864 802.413 454.504
849 0 85.2251 12.8601 1096 118.189 802.154 452.974
850 0 86.1033 11.7882 1015 120.34 804.039 452.832
851 0 89.1642 13.0882 1167 118.959 804.007 453.015
852 0 94.2715 15.1902 1432 116.368 805.915 447.681
853 0 96.4699 14.73 1421 116.311 805.06 447.917
854 0 99.3528 12.5814 1250 120.322 807.2 445.214
855 0 102.205 11.839 1210 120.855 806.033 446.94
856 0 107.245 14.8911 1597 116.547 806.907 443.281
857 0 110.437 12.197 1347 119.133 807.69 451.061
858 1 62.2259 10.1244 630 120.675 808.256 468.627
859 0 64.3645 12.4137 799 116.627 807.6 470.035
860 0 64.205 12.0707 775 118.434 808.419 470.879
861 0 70.3077 13.9956 984 114.944 807.776 467.922
862 0 70.0591 9.87737 692 122.811 807.123 468.217
863 0 74.0948 10.7835 799 121.385 807.941 467.093
864 0 77.1262 10.6968 825 120.753 808.145 468.971
865 0 77.1544 12.1963 941 119.018 807.38 469.891
866 0 77.1005 9.45519 729 125.49 807.588 466.287
867 0 83.1527 13.2888 1105 115.676 807.66 470.609
868 0 83.0835 9.42426 783 124.868 806.708 462.498
869 0 86.1156 11.6355 1002 120.658 805.857 464.032
870 0 85.1189 11.1491 949 121.74 805.966 466.202
871 0 92.2097 12.4824 1151 119.798 805.268 462.636
872 0 96.0767 12.4172 1193 119.31 803.825 461.478
873 0 97.22 11.3865 1107 120.869 803.175 462.146
874 0 101.257 10.4289 1056 122.005 802.847 453.31
875 0 105.452 13.2761 1400 115.197 802.603 460.124
876 0 102.408 8.51498 872 125.471 801.883 451.244
877 1 55.1168 10.4687 577 112.317 800.574 478.568
878 0 55.1168 10.5231 580 118.941 798.562 478.524
879 0 58.0497 10.715 622 113.719 799.921 475.444
880 0 57.1548 10.0779 576 121.172 801.398 469.042
881 0 65.1643 12.338 804 115.827 801.26 470.461
882 0 63.2017 11.7244 741 117.694 801.413 468.52
883 0 68.0493 12.3734 842 116.107 800.73 463.084
884 0 69.1974 12.4571 862 115.867 800.97 465.234
885 0 69.2358 12.4069 859 124.233 801.962 465.305
886 0 74.2087 12.5592 932 115.575 801.055 463.115
887 0 74.2472 13.0106 966 116.65 801.671 460.551
888 0 78.0458 11.0192 860 117.46 801.141 464.769
889 0 78.2082 9.89666 774 121.354 801.892 460.191
890 0 80.2339 10.9305 877 118.125 802.428 460.532
891 0 85.1791 15.1446 1290 111.686 803.331 452.806
892 0 79.1723 8.26046 654 124.472 804.638 447.214
893 0 91.1393 12.7497 1162 115.429 803.818 447.993
894 0 94.1149 11.0716 1042 116.356 804.156 451.077
895 0 97.1783 11.34 1102 115.933 805.005 449.083
896 0 101.184 12.1956 1234 115.575 805.891 446.688
897 0 101.228 11.9533 1210 114.927 805.457 448.829
898 0 108.285 11.9868 1298 115.841 806.002 442.904
899 0 108.195 14.5386 1573 113.875 806.131 444.522
900 1 58.0835 12.6714 736 113.957 805.852 471.397
901 0 62.1407 12.0211 747 115.656 805.796 468.699
902 0 63.1618 13.7267 867 112.021 808.255 472.095
903 0 62.2222 12.7446 793 114.552 808.458 469.636
904 0 63.1897 12.0589 762 117.152 808.094 469.581
905 0 68.2263 11.4325 780 117.597 808.005 469.718
906 0 70.2183 11.2649 791 117.367 807.484 472.258
907 0 73.2058 13.6874 1002 112.744 807.76 473.666
908 0 74.2774 12.1706 904 118.914 807.377 470.105
909 0 77.2284 13.2464 1023 114.428 806.646 474.966
910 0 79.2254 11.3221 897 120.789 806.363 471.555
911 0 79.2285 13.114 1039 117.763 806.709 471.489
912 0 82.2192 15.1911 1249 115.267 806.619 466.815
913 0 87.1372 12.7615 1112 118.297 805.594 468.61
914 0 89.3616 13.3279 1191 116.641 804.417 468.433
915 1 50.2332 10.4313 524 117.223 803.179 488.185
916 0 49.1176 7.91977 389 124.069 802.632 481.229
917 0 51.1929 11.1734 572 117.222 801.892 486.171
918 0 51.2137 12.5748 644 116.876 800.022 483.172
919 0 54.2551 13.2522 719 114.072 801.23 480.751
920 0 56.2028 13.3623 751 111.119 800.273 481.494
921 0 57.2178 14.3836 823 114.385 801.042 478.729
922 0 61.2394 11.8551 726 116.749 800.318 478.791
923 0 60.3361 13.9552 842 115.588 799.846 476.472
924 0 64.0573 12.7542 817 113.731 800.157 474.02
925 0 65.0491 13.7127 892 113.147 799.576 471.858
926 0 67.044 13.0959 878 115.51 798.664 472.666
927 0 69.3296 12.8084 888 117.346 799.689 468.051
928 0 71.1545 12.0442 857 117.811 800.077 468.629
929 0 69.2686 11.1739 774 120.968 800.665 464.326
930 0 77.2998 13.4282 1038 116.677 800.368 462.319
931 0 76.437 11.8398 905 119.077 801.94 462.04
932 0 78.1672 13.4199 1049 116.623 801.829 458.264
933 0 83.0275 12.7789 1061 117.113 802.125 458.04
934 0 84.3643 14.2714 1204 116.215 802.483 453.863
935 0 89.3033 13.4262 1199 115.495 803.46 456.681
936 0 91.1818 13.8185 1260 116.907 803.975 450.317
937 1 47.1888 10.0024 472 116.737 805.17 475.663
938 0 49.0897 9.37061 460 115.576 805.83 474.993
939 0 51.1972 14.0242 718 110.825 806.91 471.852
940 0 52.0865 11.1929 583 117.05 805.571 473.043
941 0 55.196 15.8164 873 109.804 805.974 473.456
942 0 53.2019 11.5597 615 120.504 807.437 471.052
943 0 57.2781 12.5179 717 117.7 807.407 470.199
944 0 60.5467 14.1709 858 114.606 807.915 472.534
945 0 59.4726 12.8462 764 118.141 807.23 471.02
946 0 59.2919 12.2951 729 120.036 807.435 469.594
947 0 62.5144 12.7651 798 118.024 808.059 468.842
948 0 64.2472 13.2924 854 116.761 807.623 470.637
949 0 68.4742 10.7924 739 120.977 808.014 467.804
950 0 71.4526 16.9903 1214 112.235 807.641 463.748
951 0 70.2851 12.9615 911 119.799 807.615 465.456
952 0 74.4523 13.6195 1014 118.435 807.043 468.678
953 0 80.7337 14.6655 1184 116.378 805.2 469.855
954 0 80.7337 14.5788 1177 138.297 804.171 469.726
955 0 79.3734 15.1688 1204 118.675 804.659 462.958
956 0 83.3453 12.1303 1011 123.755 804.472 461.037
957 0 82.2012 12.0071 987 124.703 804.176 461.007
958 0 89.2801 11.6711 1042 120.835 802.936 464.81
959 0 92.3234 13.561 1252 118.235 802.433 460.989
960 0 92.2542 13.0617 1205 117.917 801.594 459.947
961 0 97.207 14.3817 1398 116.077 801.885 454.767
962 0 97.3672 13.4337 1308 118.452 801.986 457.469
963 1 56.2134 8.0052 450 121.116 803.291 476.113
964 0 55.0677 11.6221 640 117.355 801.808 471.083
965 0 58.0867 9.22758 536 119.569 801.306 473.405
966 0 59.0897 9.56174 565 142.619 801.322 472.834
967 0 63.2614 13.9264 881 118.432 799.902 469.404
968 0 66.1639 14.3583 950 116.503 799.62 470.536
969 0 70.3597 17.2116 1211 111.996 800.137 467.443
970 0 69.3924 11.8169 820 122.991 799.987 464.417
971 0 75.2793 16.9901 1279 112.088 800.793 466.256
972 0 77.2006 13.6787 1056 118.889 800.406 454.357
973 0 79.2953 15.9656 1266 114.16 801.171 456.536
974 0 82.2688 19.0108 1564 108.959 801.616 456.233
975 0 88.644 15.3423 1360 111.46 801.562 458.607
976 0 88.5045 15.5924 1380 115.672 802.384 452.128
977 0 89.2897 13.2826 1186 120.033 802.545 454.963
978 0 93.4956 14.5782 1363 116.274 802.148 451.833
979 0 97.4064 11.2313 1094 121.827 803.654 447.981
980 0 97.4064 11.18 1089 153.547 805.67 447.952
981 1 55.2842 12.9512 716 112.189 804.827 469.918
982 0 54.3537 11.4068 620 113.495 804.921 468.94
983 0 58.2578 12.3589 720 111.862 805.194 454.819
984 0 58.2578 12.4104 723 131.189 805.185 454.851
985 0 60.1796 11.1666 672 116.263 806.51 463.153
986 0 61.1448 10.1726 622 114.611 806.814 472.051
987 0 67.4269 15.2165 1026 107.278 806.575 468.619
988 0 64.332 10.0417 646 116.376 807.808 468.991
989 0 68.2018 10.4543 713 119.734 807.415 468.842
990 0 71.3102 12.7612 910 113.687 808.148 468.6
991 0 68.3369 8.60443 588 124.949 808.209 466.109
992 0 76.3201 14.2033 1084 112.429 807.259 469.15
993 0 80.1568 13.3488 1070 114.167 807.963 467.909
994 0 81.2665 12.0714 981 116.422 807.622 468.294
995 0 85.302 13.036 1112 114.031 807.703 466.125
996 0 87.2576 15.46 1349 111.182 806.423 468.797
997 0 88.3393 11.1275 983 119.369 805.349 463.695
998 0 93.1831 13.1784 1228 116.651 805.745 462.656
999 0 96.3296 12.0835 1164 119.176 805.449 463.068
1000 0 98.5049 12.5171 1233 119.015 805.066 461.187
1001 0 101.255 13.9253 1410 113.199 803.386 458.95
1002 1 202.685 14.3375 2906 115.433 803.914 423.829
1003 0 202.685 14.3276 2904 136.275 803.919 423.709
1004 1 111.219 13.9365 1550 116.732 803.028 449.347
1005 0 118.644 13.688 1624 116.929 801.108 447.24
1006 0 120.261 16.2896 1959 110.203 801.791 448.676
1007 1 65.3042 11.3928 744 112.817 801.824 477.785
1008 0 67.1524 14.1916 953 108.217 801.661 472.774
1009 0 69.2865 11.3731 788 111.902 800.176 471.487
1010 0 72.4602 14.9461 1083 109.392 800.38 468.77
1011 0 72.3973 10.3043 746 115.038 800.47 472.142
1012 0 77.4543 15.209 1178 107.631 799.61 469.195
1013 0 75.4305 11.9978 905 115.688 800.424 457.234
1014 0 79.297 12.7117 1008 113.542 799.384 458.37
1015 0 83.3568 16.4834 1374 107.329 800.896 461.016
1016 0 83.3934 9.91685 827 118.324 802.247 458.514
1017 0 87.601 13.2533 1161 113.034 801.459 451.054
1018 0 89.5667 16.2226 1453 109.291 801.91 448.632
1019 0 92.5002 13.7297 1270 113.949 802.251 451.689
1020 0 95.615 16.5037 1578 108.44 803.449 450.359
1021 0 98.4975 14.2136 1400 113.389 804.026 442.669
1022 0 103.41 12.4553 1288 116.411 803.118 444.901
1023 0 102.252 12.9974 1329 118.292 803.916 440.908
1024 1 58.2878 12.4211 724 113.479 805.319 470.438
1025 0 59.151 11.1072 657 113.858 806.114 470.07
1026 0 61.3414 10.7758 661 114.413 807.005 466.452
1027 0 62.2943 10.017 624 115.683 806.729 466.03
1028 0 62.2943 10.1614 633 148.716 807.7 466.188
1029 0 68.2386 11.6356 794 115.558 807.366 463.218
1030 0 72.4513 13.2917 963 111.218 807.853 463.291
1031 0 73.3059 12.8639 943 111.918 806.837 460.38
1032 0 73.3059 12.9185 947 139.932 805.858 460.367
1033 0 79.2217 16.6874 1322 106.019 807.61 461.131
1034 0 79.195 10.7077 848 115.855 808.34 463.025
1035 0 81.2834 11.097 902 115.306 807.838 462.516
1036 0 87.2868 13.7478 1200 109.74 807.662 462.444
1037 0 88.275 15.2818 1349 108.738 806.7 464.698
1038 0 90.3605 12.3063 1112 114.358 807.73 462.093
1039 0 91.406 12.3515 1129 114.95 805.922 462.009
1040 1 49.2353 12.1051 596 109.128 803.878 485.31
1041 0 48.098 11.435 550 110.795 803.758 484.4
1042 0 52.0694 11.7727 613 108.46 803.56 487.752
1043 0 50.0969 9.98066 500 116.838 803.142 485.266
1044 0 52.0425 8.666 451 118.142 802.109 486.049
1045 0 55.0855 12.1266 668 113.403 801.292 482.955
1046 0 56.1516 12.2169 686 113.258 801.018 481.851
1047 0 55.189 9.82079 542 118.089 801.62 482.092
1048 0 59.1022 11.2855 667 116.831 800.249 477.175
1049 0 61.138 13.2324 809 111.921 799.387 477.576
1050 0 64.1498 11.442 734 114.755 799.262 475.046
1051 0 65.0706 13.1549 856 112.207 798.151 473.509
1052 0 65.0894 10.5086 684 117.361 799.618 472.468
1053 0 69.1789 12.9664 897 112.088 798.92 472.606
1054 0 72.2193 12.559 907 112.475 799.392 468.588
1055 0 72.1243 11.0642 798 115.709 799.48 468.674
1056 0 77.2484 15.8062 1221 104.82 799.288 473.952
1057 0 76.4231 13.6215 1041 111.639 798.617 461.105
1058 0 81.1649 17.4213 1414 104.911 798.319 464.981
1059 0 83.0958 14.3449 1192 110.439 799.295 460.196
1060 0 86.3787 13.9502 1205 110.76 799.456 459.864
1061 0 88.2827 14.1704 1251 109.866 800.373 459.084
1062 0 92.1162 11.5398 1063 113.655 800.749 455.438
1063 0 93.1018 16.9277 1576 106.293 801.737 451.969
1064 1 53.0905 12.9778 689 109.142 801.888 472.244
1065 0 51.3137 10.8353 556 114.674 802.602 467.989
1066 0 53.0788 11.7373 623 114.055 802.255 470.047
1067 0 61.4133 12.9288 794 110.761 804.12 470.725
1068 0 61.5849 17.8778 1101 104.095 804.443 471.572
1069 0 61.1363 13.4617 823 111.999 805.225 466.785
1070 0 65.2756 13.0064 849 111.093 805.823 467.72
1071 0 64.1002 12.6677 812 114.099 806.138 459.387
1072 0 69.3102 14.1826 983 110.514 806.62 462.003
1073 0 72.2762 13.8912 1004 109.022 806.664 468.996
1074 0 75.2002 14.7739 1111 108.776 807.818 461.752
1075 0 76.2297 13.7742 1050 110.629 808.117 465.138
1076 0 77.2127 10.8272 836 115.319 806.884 461.227
1077 0 79.1229 11.9687 947 113.473 806.932 464.116
1078 0 84.2279 11.8607 999 114.65 807.557 461.512
1079 0 87.1778 14.935 1302 109.07 807.064 462.527
1080 0 89.23 11.8122 1054 114.499 807.694 460.321
1081 1 48.2098 10.1432 489 107.147 805.693 488.853
1082 0 40.0728 6.43828 258 135.395 803.892 483.55
1083 0 51.0545 11.9284 609 106.777 804.115 484.278
1084 0 51.1389 13.6491 698 106.185 804.838 482.238
1085 0 52.1343 9.32207 486 113.926 803.228 484.761
1086 0 60.2769 13.5209 815 107.007 804.514 483.789
1087 0 58.2775 12.6807 739 109.479 802.733 483.261
1088 0 60.1806 11.8144 711 110.973 802.696 478.797
1089 0 62.2315 16.1976 1008 103.897 801.416 480.022
1090 0 65.1924 13.3758 872 107.114 801.35 477.651
1091 0 62.2131 11.6213 723 110.91 801.118 473.202
1092 0 69.2547 10.021 694 112.454 799.66 473.192
1093 0 69.2132 10.8794 753 112.315 798.886 470.965
1094 0 70.1768 9.97481 700 111.67 798.456 473.657
1095 0 75.378 14.6594 1105 103.968 798.108 475.576
1096 0 78.2513 12.4982 978 108.5 799.111 466.167
1097 0 78.3417 12.1774 954 109.745 798.958 466.844
1098 0 80.4605 12.851 1034 108.387 799.319 465.503
1099 0 84.2423 13.4968 1137 107.614 798.337 464.925
1100 0 88.3012 10.6567 941 112.677 798.708 462.791
1101 1 46.153 9.94518 459 109.972 798.017 472.152
1102 0 49.1114 11.9321 586 105.259 798.862 473.456
1103 0 50.4302 10.9062 550 111.198 800.336 477.129
1104 0 53.043 13.5362 718 105.471 798.302 474.238
1105 0 51.0408 9.24751 472 114.604 799.409 474.987
1106 0 53.31 9.86682 526 114.209 800.329 476.068
1107 0 57.2284 12.7734 731 109.732 801.83 474.372
1108 0 55.1967 12.8812 711 107.664 800.581 476.187
1109 0 57.1107 11.6265 664 112.703 802.392 470.184
1110 0 59.246 11.8151 700 113.333 803.18 467.007
1111 0 62.2137 10.046 625 114.883 803.278 468.563
1112 0 65.2002 15.5981 1017 107.078 803.4 467.266
1113 0 65.2106 10.2284 667 116.084 803.276 459.628
1114 0 71.2156 15.0108 1069 106.465 803.182 470.326
1115 0 73.2387 13.6949 1003 109.862 804.564 467.155
1116 0 75.2956 14.3966 1084 108.696 804.829 466.013
1117 0 76.194 12.7963 975 112.397 805.225 465.891
1118 0 76.2169 10.1815 776 117.189 804.348 464.849
1119 0 81.1688 10.2872 835 117.278 805.261 464.703
1120 0 84.4947 13.7642 1163 111.373 805.657 463.794
1121 0 85.2182 16.0998 1372 107.844 805.244 469.934
1122 0 85.2182 16.2172 1382 137.644 805.276 470.016
1123 0 91.3294 13.6867 1250 113.914 805.427 465.993
1124 0 96.3265 16.5064 1590 107.608 805.843 469.497
1125 1 52.3514 11.0981 581 114.898 805.043 483.281
1126 0 56.3621 10.1487 572 115.594 804.376 484.71
1127 0 55.1715 12.9415 714 107.739 803.665 484.465
1128 0 57.2265 10.572 605 114.007 804.233 484.102
1129 0 63.421 15.6573 993 104.538 802.45 485.918
1130 1 117.605 12.2529 1441 115.509 801.248 464.074
1131 1 65.3172 13.1359 858 112.929 799.642 482.453
1132 0 65.3084 13.0152 850 114.302 800.093 480.975
1133 0 67.1139 14.4381 969 113.141 798.857 474.897
1134 0 68.3214 13.4658 920 114.307 799.742 479.4
1135 0 68.1219 10.1876 694 119.945 797.367 477.385
1136 0 68.3077 9.66216 660 120.592 797.639 479.109
1137 0 75.1208 12.1138 910 117.762 796.644 471.503
1138 0 77.3591 10.0828 780 121.564 796.378 471.363
1139 0 81.3708 12.8547 1046 115.722 796.791 472.338
1140 0 80.2274 14.3343 1150 113.817 796.928 467.702
1141 0 83.39 13.203 1101 115.057 795.497 464.055
1142 0 84.2261 7.91916 667 123.642 796.973 464.444
1143 0 91.2784 13.9463 1273 113.614 797.39 459.731
1144 0 93.2242 11.2846 1052 118.454 797.994 454.884
1145 1 53.2979 11.2762 601 112.825 798.777 477.537
1146 0 52.2187 10.073 526 116.624 798.451 472.73
1147 0 56.0702 10.1123 567 119.529 796.541 473.526
1148 0 54.1153 10.4037 563 119.845 797.355 474.451
1149 0 55.0753 10.9668 604 118.836 796.27 473.861
1150 0 58.1026 10.6363 618 121.155 798.526 469.451
1151 0 60.167 11.4515 689 118.254 798.862 469.199
1152 0 63.1049 12.1068 764 117.406 799.35 467.048
1153 0 65.1298 12.2064 795 117.615 801.606 465.83
1154 0 71.1061 13.5994 967 112.576 801.756 468.665
1155 0 70.1053 11.5398 809 115.957 802.988 468.447
1156 0 72.4736 12.101 877 116.674 802.924 461.197
1157 0 75.2199 12.6695 953 114.669 803.484 464.096
1158 0 76.2757 11.1831 853 116.703 804.6 463.463
1159 0 80.3071 10.6217 853 119.075 803.882 460.791
1160 0 81.2717 11.4062 927 117.503 806.069 460.83
1161 0 84.3583 12.0439 1016 115.129 805.981 460.854
1162 0 88.2221 12.4005 1094 113.548 807.035 462.861
1163 0 93.2197 12.9694 1209 111.667 806.055 460.23
1164 0 95.3786 11.0192 1051 115.655 807.152 454.543
1165 0 93.2402 11.1325 1038 115.507 806.098 458.04
1166 1 54.345 9.49489 516 111.93 806.514 483.213
1167 0 54.1379 13.0408 706 106.669 805.871 480.023
1168 0 56.171 9.45329 531 113.064 805.493 477.944
1169 0 55.055 14.4219 794 105.797 804.952 480.227
1170 0 59.1739 14.4489 855 107.895 805.151 477.128
1171 0 59.093 11.6257 687 112.373 800.999 483.643
1172 0 62.0978 11.4819 713 113.899 801.414 480.429
1173 0 64.1636 10.2394 657 116.912 799.855 476.487
1174 0 64.1811 10.595 680 116.741 799.306 476.1
1175 0 66.1547 11.201 741 114.846 799.046 478.482
1176 0 68.1747 10.5904 722 117.482 799.512 473.823
1177 0 69.0216 12.7641 881 114.655 799.403 472.981
1178 0 70.062 9.91978 695 119.6 799.709 472.247
1179 0 74.0876 11.1355 825 117.411 800.579 468.93
1180 0 73.1643 11.7407 859 117.152 799.825 469.414
1181 0 77.2475 9.39836 726 120.862 798.729 469.186
1182 0 82.1562 15.714 1291 109.222 800.184 470.773
1183 0 82.0943 12.9729 1065 116.09 799.652 464.55
1184 0 87.2557 13.3516 1165 115.747 798.817 463.704
1185 0 91.1511 14.7557 1345 112.685 798.241 463.545
1186 0 92.2391 13.0313 1202 117.556 798.558 460.354
1187 0 97.2382 14.5828 1418 112.915 798.025 460.302
1188 1 54.1545 7.79252 422 118.145 798.867 479.194
1189 0 58.2594 12.1526 708 112.527 797.821 471.679
1190 0 53.3684 8.73177 466 116.788 798.487 460.635
1191 0 59.2108 12.3119 729 115.03 797.981 465.794
1192 0 61.237 11.7576 720 115.449 799.383 469.915
1193 0 63.3143 12.9513 820 112.665 799.848 471.482
1194 0 63.3228 10.9123 691 117.039 800.544 469.185
1195 0 65.2516 11.2794 736 116.048 801.389 467.364
1196 0 68.2985 11.0983 758 132.923 802.387 467.003
1197 0 71.1525 13.6046 968 112.08 801.979 462.729
1198 0 74.1953 19.7047 1462 102.914 803 464.442
1199 0 79.3703 12.2968 976 114.125 802.667 459.078
1200 0 79.2606 11.2036 888 116.893 803.917 463.172
1201 0 79.2606 11.1657 885 138.113 805.907 463.279
1202 0 81.3328 11.496 935 118.337 805.398 461.908
1203 0 87.2624 12.0327 1050 117.551 805.472 460.15
1204 0 90.3776 14.1517 1279 113.691 806.44 459.678
1205 0 94.6228 13.7493 1301 114.527 805.88 456.192
1206 0 94.594 13.9649 1321 116.779 806.431 451.63
1207 0 97.5525 13.0289 1271 119.678 807.459 451.456
1208 0 100.477 9.18615 923 121.619 806.84 459.081
1209 1 55.1764 14.7164 812 110.213 806.775 479.163
1210 0 57.095 21.2628 1214 100.484 805.7 475.871
1211 0 57.095 21.1052 1205 104.658 804.738 475.92
1212 0 59.0752 10.292 608 120.778 803.73 485.383
1213 0 64.1141 15.722 1008 112.338 803.53 483.824
1214 0 63.109 13.1518 830 117.755 802.696 482.917
1215 0 64.1587 12.8431 824 119.667 802.689 480.337
1216 0 70.293 13.0454 917 118.447 801.58 481.663
1217 0 67.245 11.1235 748 123.949 799.329 477.865
1218 0 74.1578 13.4713 999 117.54 799.945 475.969
1219 0 74.3518 12.1181 901 120.746 800.052 471.802
1220 0 77.2733 12.7987 989 118.691 798.662 474.432
1221 0 80.2322 13.3737 1073 118.35 799.255 469.286
1222 0 82.1497 13.3415 1096 118.352 797.886 471
1223 0 84.2423 15.04 1267 114.178 799.062 471.343
1224 0 84.1511 12.2399 1030 118.882 797.513 468.835
1225 0 88.1189 14.1854 1250 113.278 796.646 465.934
1226 0 92.2435 13.8004 1273 114.163 797.349 464.293
1227 0 91.2463 14.4006 1314 114.744 797.362 459.364
1228 0 97.2327 15.0258 1461 113.875 797.964 458.789
1229 0 99.2383 16.8584 1673 110.803 797.845 459.528
1230 0 101.269 14.9996 1519 113.774 798.334 454.618
1231 0 101.269 14.9009 1509 138.875 798.344 454.6
1232 1 58.3039 12.0918 705 115.618 798.624 473.482
1233 0 58.3039 12.109 706 138.861 799.639 473.429
1234 0 60.1523 13.1001 788 114.269 799.334 466.882
1235 0 62.246 13.3181 829 113.686 800.464 468.941
1236 0 62.246 13.3985 834 136.518 801.476 468.932
1237 0 69.1924 14.1923 982 113.502 800.986 459.02
1238 0 72.1383 15.2485 1100 110.532 802.137 460.705
1239 0 74.3649 14.7919 1100 112.003 802.435 459.31
1240 0 76.4128 14.9582 1143 111.138 803.094 461.255
1241 0 78.2023 16.2399 1270 109.243 804.239 461.977
1242 0 82.3275 17.1874 1415 106.679 804.415 462.84
1243 0 83.5269 12.9419 1081 114.38 804.837 459.265
1244 0 83.511 13.9024 1161 113.731 804.465 456.311
1245 0 89.5492 15.0643 1349 109.631 805.198 460.089
1246 0 90.5154 12.1747 1102 115.985 805.878 459.034
1247 0 96.6636 15.2695 1476 110.764 806.738 457.787
1248 1 52.5158 11.8441 622 110.698 806.315 480.883
1249 0 52.2517 13.5881 710 110.018 806.938 478.121
1250 0 55.2614 13.3004 735 112.095 806.061 476.83
1251 0 57.2868 14.3838 824 108.585 806.654 476.974
1252 0 57.2038 9.96436 570 119.414 805.923 455.73
1253 0 62.3084 12.8554 801 114.062 806.571 459.586
1254 0 64.3965 14.3331 923 112.024 805.768 461.96
1255 0 65.3522 15.5924 1019 110.323 806.188 465.226
1256 0 67.3157 12.7608 859 115.612 804.976 473.359
1257 0 67.3012 11.2479 757 119.84 805.04 475.42
1258 0 73.1859 13.9098 1018 115.221 803.562 467.956
1259 0 74.3685 15.7728 1173 113.371 803.038 468.15
1260 0 76.2629 12.5225 955 119.946 802.531 469.315
1261 0 79.2498 13.1483 1042 119.266 801.856 469.868
1262 0 81.2511 14.2152 1155 116.004 800.677 474.953
1263 0 85.2838 16.2868 1389 113.631 800.511 471.081
1264 1 47.0719 14.0424 661 113.396 799.121 490.425
1265 0 46.1423 11.3778 525 121.644 799.196 486.13
1266 0 47.0345 12.3739 582 118.581 797.902 484.962
1267 0 48.2619 12.7637 616 116.765 798.42 484.067
1268 0 52.1545 14.9939 782 112.852 798.529 483.393
1269 0 52.1139 17.8072 928 108.775 797.286 480.383
1270 0 55.1774 12.2333 675 117.622 797.785 483.459
1271 0 56.2409 13.9045 782 115.806 797.602 480.476
1272 0 56.1345 14.3049 803 116.096 798.75 477.301
1273 0 60.2535 14.522 875 113.703 798.517 477.279
1274 0 60.1674 15.274 919 113.973 798.8 472.986
1275 0 61.1512 14.7176 900 117.316 798.913 473.824
1276 0 63.2464 13.5818 859 117.268 799.532 471.657
1277 0 65.1845 15.0956 984 114.963 800.53 471.493
1278 0 66.514 14.2226 946 115.056 799.743 470.615
1279 0 69.2548 14.8726 1030 114.606 800.878 465.984
1280 0 67.3178 12.9089 869 120.012 801.433 463.736
1281 0 73.2609 13.4997 989 118.891 803.224 461.566
1282 0 76.3256 19.5216 1490 108.569 803.56 463.369
1283 0 76.3256 19.692 1503 132.656 804.548 463.339
1284 0 79.259 16.5029 1308 114.381 803.592 458.317
1285 0 82.4235 13.4913 1112 120.091 805.797 453.955
1286 0 84.4129 16.4667 1390 114.965 805.927 452.478
1287 0 86.387 15.3958 1330 116.619 806.9 456.705
1288 0 91.4197 17.8189 1629 112.562 807.671 454.458
1289 0 95.4191 17.0825 1630 113.107 807.618 456.275
1290 1 47.4116 11.9169 565 120.296 807.579 479.037
1291 0 51.1266 12.4201 635 119.11 807.813 477.953
1292 0 53.0505 18.1337 962 109.523 807.169 474.569
1293 0 57.1113 14.2179 812 114.222 807.877 475.68
1294 0 54.0189 13.4212 725 118.647 807.065 477.126
1295 0 57.1402 15.5757 890 114.633 806.209 477.713
1296 0 59.1288 14.3247 847 114.887 805.051 479.817
1297 0 61.2732 13.1705 807 118.342 805.43 475.118
1298 0 61.291 13.493 827 118.216 805.669 477.202
1299 0 66.4297 15.4298 1025 113.961 806.413 480.703
1300 0 68.0837 14.0269 955 116.879 804.954 476.572
1301 0 71.1582 12.7463 907 119.518 804.142 471.51
1302 0 71.1852 14.5395 1035 116.172 802.492 469.218
1303 0 76.1554 14.2735 1087 115.973 801.248 467.14
1304 0 78.1012 20.3198 1587 105.871 800.808 462.554
1305 0 80.2957 22.4047 1799 103.59 800.717 466.229
1306 0 84.2348 13.9372 1174 114.848 799.709 464.079
1307 0 84.1855 13.2683 1117 117.467 799.286 462.702
1308 0 91.3551 16.5289 1510 112.993 798.266 457.211
1309 0 91.2473 18.6964 1706 109.982 798.3 459.147
1310 0 98.0998 15.2804 1499 114.844 799.191 457.509
1311 0 101.126 17.9676 1817 112.168 798.196 446.896
1312 1 54.1204 12.6015 682 120.943 798.61 469.17
1313 0 55.0211 14.6126 804 116.678 797.05 467.424
1314 0 56.0955 13.2274 742 119.745 799.438 466.481
1315 0 60.0998 13.8104 830 119.687 797.783 464.334
1316 0 61.0947 12.9962 794 121.268 798.53 465.361
1317 0 64.0687 15.9985 1025 117.25 798.159 458.66
1318 0 66.0727 14.8624 982 119.155 798.889 458.808
1319 0 70.0331 13.2223 926 122.188 798.911 449.739
1320 0 70.0331 13.208 925 157.148 797.907 449.711
1321 0 75.2766 14.6128 1100 119.947 799.698 449.299
1322 0 75.1005 13.6351 1024 123.712 800.86 445.717
1323 0 76.1482 13.3687 1018 124.016 801.275 450.75
1324 0 81.1024 15.1413 1228 120.575 801.686 451.006
1325 0 84.1226 14.3124 1204 123.23 803.598 446.765
1326 1 45.1036 10.5978 478 124.209 802.992 465.483
1327 0 46.1108 13.0555 602 120.141 804.321 468.199
1328 0 48.1384 12.5472 604 123.151 805.116 465.161
1329 0 49.1878 12.1981 600 125.497 804.125 471.573
1330 0 54.3473 13.5977 739 122.457 805.064 475.47
1331 0 52.2619 11.1553 583 130.175 805.64 476.755
1332 0 56.1162 13.4186 753 124.911 807.157 478.259
1333 0 55.4393 14.0153 777 126.067 804.963 474.413
1334 0 60.2678 14.5517 877 121.795 806.758 478.902
1335 0 62.1512 14.7865 919 123.472 806.249 477.283
1336 0 66.0845 12.938 855 122.945 806.322 479.305
1337 0 65.166 11.5704 754 128.607 804.534 476.847
1338 0 69.0982 13.1697 910 125.113 804.725 475.403
1339 0 69.1027 12.2282 845 128.979 804.862 474.245
1340 0 74.2413 14.4798 1075 122.612 803.282 475.535
1341 0 77.0825 12.1299 935 125.775 802.692 478.024
1342 0 78.138 12.1452 949 128.087 803.11 472.21
1343 0 81.1707 14.1677 1150 123.201 801.629 474.41
1344 0 82.2779 12.2269 1006 127.4 801.942 470.973
1345 0 86.3339 12.3011 1062 126.683 799.96 468.431
1346 1 48.1735 13.0155 627 120.249 800.397 488.118
1347 0 49.1342 13.3105 654 119.109 799.038 489.209
1348 0 50.2445 10.2698 516 127.128 800.31 482.661
1349 0 53.2048 12.3673 658 121.698 798.901 483.974
1350 0 53.0709 10.7403 570 124.586 798.335 482.139
1351 0 54.1566 13.0917 709 119.772 797.834 478.738
1352 0 55.2313 12.2756 678 121.586 797.4 476.283
1353 0 57.0951 11.402 651 122.935 797.644 474.409
1354 0 63.2259 12.0678 763 119.959 796.98 474.902
1355 0 60.1625 9.92312 597 125.065 797.804 474.144
1356 0 64.111 14.7089 943 118.418 797.326 470.898
1357 0 64.3392 11.2373 723 126.892 798.531 464.769
1358 0 68.2231 12.8109 874 124.428 797.541 468.918
1359 0 68.2231 12.8402 876 135.24 796.56 468.911
1360 0 70.1131 11.239 788 129.793 798.492 461.32
1361 0 75.3648 13.3351 1005 124.94 799.139 459.521
1362 0 77.2568 10.8599 839 129.644 800.677 463.607
1363 0 80.2655 13.4927 1083 123.519 800.405 458.914
1364 0 81.2881 10.8011 878 129.999 801.424 454.074
1365 0 84.4142 13.6825 1155 125.66 802.021 452.232
1366 0 88.2748 13.4467 1187 126.728 803.521 453.691
1367 1 50.283 11.3557 571 125.18 804.303 472.776
1368 0 52.2779 10.6163 555 124.245 804.036 473.418
1369 0 52.1285 9.53413 497 128.551 804.799 474.71
1370 0 52.0786 10.0041 521 128.322 804.877 471.025
1371 0 55.2827 10.7086 592 127.586 805.267 469.542
1372 0 60.1806 12.9444 779 122.397 806.687 473.053
1373 0 58.2936 13.0718 762 126.453 806.634 470.487
1374 0 60.2212 11.7567 708 126.644 807.852 470.425
1375 0 62.1594 13.0149 809 123.088 806.981 470.232
1376 0 66.3445 13.5203 897 122.903 807.689 470.856
1377 0 66.1628 11.4868 760 128.388 806.421 466.557
1378 0 70.2186 15.6511 1099 119.127 805.851 469.829
1379 0 73.1578 13.5324 990 125.069 805.923 470.826
1380 0 73.3482 13.4564 987 125.943 807.01 471.34
1381 0 77.1138 12.9549 999 127.225 806.202 470.324
1382 0 81.2959 12.5222 1018 127.909 805.418 468.323
1383 0 82.2993 14.1435 1164 125.326 804.402 465.917
1384 0 84.2921 15.6717 1321 122.359 803.84 467.469
1385 0 89.2255 14.581 1301 123.956 803.151 467.895
1386 0 89.1956 13.2406 1181 128.094 802.136 467.366
1387 0 95.3025 18.3206 1746 117.784 799.973 461.636
1388 1 51.2054 10.8387 555 129.926 799.551 480.865
1389 0 53.0768 12.8681 683 124.376 798.852 482.151
1390 0 54.2964 12.1371 659 127.744 798.967 478.31
1391 0 57.1323 14.6677 838 122.696 798.745 477.279
1392 0 58.128 12.1628 707 128.604 798.748 480.645
1393 0 62.1405 13.212 821 125.743 798.727 474.789
1394 0 62.2989 17.4481 1087 118.517 798.449 478.137
1395 0 62.2251 12.4709 776 132.325 797.982 472.518
1396 0 62.2016 12.2987 765 133.044 798.573 472.373
1397 0 63.1792 11.4911 726 135.41 797.278 467.344
1398 0 66.217 11.3113 749 133.949 797.826 466.626
1399 0 70.3567 13.5168 951 128.318 797.5 466.774
1400 0 68.2524 13.7138 936 130.111 798.41 462.318
1401 0 72.308 15.3787 1112 126.13 799.022 462.037
1402 0 75.2458 14.7782 1112 126.72 798.947 457.831
1403 0 77.1751 12.7114 981 131.215 798.317 458.6
1404 0 79.3468 15.678 1244 126.24 798.27 455.752
1405 0 81.1444 12.0033 974 133.177 798.793 458.617
1406 0 80.1383 11.1183 891 152.714 799.906 457.084
1407 0 87.2227 12.6343 1102 131.266 800.861 447.438
1408 0 92.3194 15.3489 1417 125.002 801.946 447.451
1409 1 49.1063 10.1616 499 128.766 801.621 470.144
1410 0 52.213 11.319 591 126.792 802.357 469.425
1411 0 52.201 12.8925 673 125.572 803.756 464.416
1412 0 55.2634 12.178 673 126.053 802.814 463.756
1413 0 58.2212 11.7998 687 126.539 803.853 466.546
1414 0 58.2615 11.6544 679 123.9 804.383 470.988
1415 0 62.1831 13.7015 852 119.752 804.906 470.6
1416 0 61.2606 12.0469 738 126.947 806.392 468.066
1417 0 64.3259 11.9547 769 126.265 805.545 471.198
1418 0 66.2982 14.2839 947 120.42 805.153 463.699
1419 0 70.2661 16.3806 1151 116.44 805.159 461.763
1420 0 69.1266 15.9273 1101 118.248 806.066 465.543
1421 0 69.2494 11.9135 825 126.428 806.208 465.825
1422 0 72.2256 12.0594 871 127.032 806.119 467.246
1423 0 75.1267 15.1744 1140 119.456 805.592 470.09
1424 0 79.1804 16.4561 1303 116.879 806.318 466.889
1425 0 79.197 15.7203 1245 119.393 805.567 468.68
1426 0 81.0863 12.7642 1035 125.268 804.707 464.335
1427 0 80.0678 12.7892 1024 126.38 803.642 456.793
1428 0 87.0465 11.4307 995 126.791 804.04 459.183
1429 0 88.2293 12.0255 1061 126.91 802.274 463.754
1430 0 89.1183 13.2857 1184 124.041 802.103 461.184
1431 0 93.1996 13.6589 1273 123.189 800.209 459.08
1432 0 94.1554 13.4777 1269 123.203 799.71 458.812
1433 0 98.2392 10.8816 1069 128.034 799.008 454.771
1434 0 101.192 13.0742 1323 124.834 799.522 450.147
1435 0 109.151 14.7318 1608 120.17 798.681 450.155
1436 0 112.329 16.6208 1867 116.522 798.724 447.873
1437 0 114.165 13.6557 1559 123.647 797.573 442.105
1438 0 117.52 15.1464 1780 121.42 797.886 440.893
1439 1 64.0446 7.13565 457 122.586 797.232 471.521
1440 0 68.1461 14.3515 978 114.86 795.955 465.676
1441 0 71.1417 14.3797 1023 115.664 795.527 462.466
1442 0 64.2302 8.79648 565 125.812 797.113 464.262
1443 0 73.2411 11.9605 876 124.87 796.694 460.521
1444 0 76.3324 13.7425 1049 120.853 797.635 466.17
1445 0 79.1247 12.4234 983 124.698 798.006 458.018
1446 0 81.2204 14.5284 1180 120.731 798.877 455.195
1447 0 84.2459 13.9947 1179 121.93 799.398 457.138
1448 0 89.2021 13.4414 1199 122.376 800.523 452.976
1449 0 89.198 14.5631 1299 121.53 800.629 452.272
1450 0 93.2651 14.6464 1366 121.269 800.681 452.026
1451 0 96.431 13.056 1259 124.01 802.792 449.774
1452 0 98.2253 12.4815 1226 125.759 802.358 447.788
1453 0 101.201 14.1699 1434 122.491 803.153 446.66
1454 0 104.455 11.134 1163 128.749 803.168 438.936
1455 0 107.619 12.8973 1388 124.974 803.018 440.697
1456 0 109.279 13.104 1432 124.447 804.305 443.656
1457 0 115.238 12.4439 1434 125.128 804.834 439.831
1458 0 121.245 14.4584 1753 121.44 805.382 440.099
1459 1 67.2074 9.493 638 122.66 805.574 469.268
1460 0 72.1364 11.5614 834 120.39 806.13 465.922
1461 0 73.1463 13.7259 1004 115.396 805.526 467.584
1462 0 76.3099 10.3787 792 121.583 806.008 466.293
1463 0 82.2775 8.8238 726 124.096 806.97 471.417
1464 0 81.1303 11.1426 904 122.809 805.781 466.139
1465 0 83.211 13.5439 1127 119.538 805.073 461.542
1466 0 88.2698 13.2095 1166 119.232 804.384 464.643
1467 0 90.1588 11.7459 1059 120.179 805.554 462.637
1468 0 91.2696 11.4715 1047 122.201 804.497 460.153
1469 0 94.2766 10.151 957 124.588 803.334 461.839
1470 1 63.0739 10.4481 659 118.215 803.417 481.917
1471 0 63.118 7.87415 497 119.565 803.207 484.909
1472 0 60.1389 11.3238 681 119.053 801.536 474.836
1473 0 60.0736 6.17575 371 120.426 801.792 486.146
1474 0 60.2153 9.56568 576 121.089 800.774 476.354
1475 0 62.1343 12.0545 749 116.558 800.419 477.761
1476 0 62.1335 11.25 699 120.891 799.456 468.398
1477 0 61.1354 11.0411 675 119.659 798.049 467.671
1478 0 67.1751 11.6412 782 118.798 797.885 472.029
1479 0 67.3924 10.0605 678 121.742 797.382 472.493
1480 0 70.2128 11.5648 812 120.349 798.107 468.217
1481 0 73.2625 13.3356 977 115.809 796.939 469.26
1482 0 75.2163 11.9389 898 117.068 796.725 469.988
1483 0 77.2236 11.2789 871 119.704 796.823 464.792
1484 0 84.3337 13.3161 1123 115.437 797.126 463.056
1485 0 86.1464 12.5484 1081 117.303 796.154 458.442
1486 0 84.1521 10.3028 867 121.991 797.246 454.9
1487 0 92.2456 10.7756 994 121.223 797.067 454.403
1488 0 94.14 12.8532 1210 119.753 798.126 448.394
1489 0 101.183 16.1688 1636 112.926 797.2 447.351
1490 0 101.189 15.3772 1556 113.629 798.395 449.716
1491 0 100.231 13.449 1348 116.163 798.679 450.369
1492 0 109.198 12.1339 1325 120.835 799.655 446.885
1493 0 112.129 16.6058 1862 114.167 799.952 441.572
1494 0 114.362 15.0487 1721 117.813 800.798 439.539
1495 0 119.192 16.8468 2008 114.226 801.808 441.959
1496 0 124.56 14.2502 1775 120.069 803.093 432.854
1497 1 65.2261 10.2413 668 141.633 804.564 464.587
1498 0 71.2536 13.6835 975 109.93 805.02 467.49
1499 0 69.1771 12.721 880 113.998 804.181 462.348
1500 0 71.2861 15.8797 1132 109.275 805.907 459.809
1501 0 72.4091 14.1142 1022 113.379 806.108 464.164
1502 0 73.467 12.4954 918 116.728 806.363 460.901
1503 0 79.2884 15.5382 1232 111.541 806.729 462.989
1504 0 81.3346 16.2538 1322 110.899 807.09 461.641
1505 0 80.2348 11.6159 932 119.406 807.744 461.53
1506 0 84.5342 14.3256 1211 114.675 806.619 460.173
1507 0 88.4614 15.3513 1358 113.159 807.122 459.493
1508 0 89.4217 11.8092 1056 118.771 805.686 460.02
1509 0 92.254 14.5576 1343 113.821 805.222 465.027
1510 0 95.3398 15.429 1471 113.399 803.649 460.772
1511 0 97.1737 16.2904 1583 112.334 804.265 465.285
1512 0 101.244 15.4083 1560 114.221 804.046 462.804
1513 0 102.324 14.1707 1450 117.566 803.197 460.257
1514 0 104.31 13.5653 1415 118.119 802.217 462.505
1515 0 108.406 13.1912 1430 118.24 802.064 457.824
1516 0 112.333 14.1544 1590 117.947 800.984 453.987
1517 1 62.1282 9.65745 600 120.397 800.913 479.662
1518 0 61.211 6.27338 384 124.534 800.135 478.513
1519 0 63.1618 9.65773 610 118.669 800.008 476.634
1520 0 68.2079 11.8168 806 114.923 799.679 473.342
1521 0 69.1144 10.6345 735 119.644 800.078 473.026
1522 0 66.0745 10.4428 690 122.586 799.809 469.064
1523 0 74.3392 12.3353 917 119.179 799.017 465.826
1524 0 75.3608 11.7435 885 121.931 799.334 463.191
1525 0 81.1642 16.8547 1368 112.638 799.276 459.084
1526 0 83.1474 13.6625 1136 118.392 798.559 460.637
1527 0 86.3761 13.1402 1135 118.888 798.603 459.944
1528 0 88.4269 13.4009 1185 119.901 799.176 459.368
1529 0 87.2725 11.6302 1015 121.381 797.283 458.242
1530 0 90.1792 13.695 1235 118.224 797.335 453.721
1531 0 94.2412 9.95319 938 124.358 797.839 450.215
1532 0 98.2754 15.8534 1558 113.676 797.82 451.318
1533 0 101.171 14.7176 1489 115.241 799.031 447.957
1534 0 106.416 15.8623 1688 112.171 799.678 446.129
1535 0 105.488 14.5135 1531 116.475 800.786 434.144
1536 0 112.496 15.9917 1799 113.22 801.264 438.046
1537 1 64.3667 12.5065 805 116.778 801.729 460.13
1538 0 62.2435 12.7724 795 120.029 801.946 459.488
1539 0 64.2251 9.52899 612 121.039 802.794 461.763
1540 0 68.208 11.6262 793 120.367 803.217 466.453
1541 0 70.2228 13.685 961 118.896 804.587 460.656
1542 0 73.2158 13.6856 1002 119.063 804.284 461.091
1543 0 73.2018 13.0325 954 121.645 804.384 460.454
1544 0 75.4818 12.5461 947 121.471 804.921 460.635
1545 0 76.271 12.272 936 123.88 805.037 455.293
1546 0 82.2393 14.0565 1156 120.322 805.753 457.285
1547 0 84.2433 15.5621 1311 117.783 805.462 458.092
1548 0 88.3239 12.3636 1092 122.915 804.347 458.877
1549 0 91.3069 16.7676 1531 115.555 804.875 454.664
1550 0 92.2329 14.4417 1332 121.131 805.396 458.406
1551 0 97.1699 12.6582 1230 120.976 806.522 464.131
1552 0 97.2988 13.2067 1285 123.87 804.999 454.845
1553 0 104.38 13.7575 1436 121.442 805.168 459.117
1554 0 105.269 14.8572 1564 121.627 803.602 453.115
1555 0 111.254 14.3006 1591 122.246 804.69 452.433
1556 1 61.2027 12.3687 757 120.263 804.119 480.149
1557 0 62.1857 10.4526 650 124.12 802.723 475.685
1558 0 64.2381 13.6212 875 117.973 801.798 477.27
1559 0 66.0659 12.1999 806 121.016 799.217 476.957
1560 0 68.245 12.8508 877 119.65 799.182 475.463
1561 0 67.2138 14.0894 947 118.166 798.622 475.084
1562 0 73.1528 14.4355 1056 116.58 798.339 471.96
1563 0 73.3195 12.0295 882 122.536 799.613 467.662
1564 0 77.1566 11.3924 879 121.827 798.104 465.58
1565 0 76.2346 11.7007 892 121.148 797.339 467.954
1566 0 84.4001 13.0806 1104 118.636 797.275 464.819
1567 0 82.1312 12.5044 1027 118.361 796.112 459.883
1568 0 87.2328 14.8683 1297 113.547 797.437 464.301
1569 1 49.0938 10.1642 499 116.81 797.541 479.99
1570 0 50.1126 11.5739 580 123.979 797.438 478.388
1571 0 50.1058 11.4957 576 123.736 797.429 478.34
1572 0 52.1546 10.5647 551 119.951 797.697 473.187
1573 0 53.1337 11.631 618 117.236 796.888 471.489
1574 0 54.1594 10.6537 577 120.279 796.796 472.303
1575 0 56.1103 12.315 691 119.02 797.207 468.618
1576 0 59.1384 11.3463 671 118.869 799.35 469.401
1577 0 59.1384 11.211 663 126.35 801.357 469.36
1578 0 62.1308 9.31905 579 121.964 801.347 468.207
1579 0 65.0533 9.13097 594 122.729 802.12 466.396
1580 0 63.0393 10.6442 671 122.449 801.83 461.605
1581 0 66.1569 11.4727 759 119.891 802.325 464.452
1582 0 73.0861 12.3553 903 118.044 803.411 459.926
1583 0 71.2936 11.7402 837 121.295 804.251 459.855
1584 0 72.0378 9.80041 706 123.698 804.258 463.072
1585 0 73.1686 10.3323 756 122.582 805.686 461.372
1586 0 71.1801 6.94014 494 124.006 805.292 468.5
1587 0 66.1221 8.04573 532 124.308 804.15 462.874
1588 1 241.942 13.8959 3362 129.405 805.602 378.158
1589 1 176.504 8.75902 1546 130.235 805.86 417.139
1590 0 174.572 10.4943 1832 126.273 806.195 419.901
1591 1 49.0787 10.6564 523 119.585 804.39 471.973
1592 0 54.1362 12.9858 703 112.75 804.397 477.888
1593 0 53.1291 13.0814 695 114.822 804.016 475.296
1594 0 57.0857 14.1191 806 113.159 805.283 477.903
1595 0 58.0505 10.6976 621 118.356 803.071 479.754
1596 0 59.1071 11.9275 705 116.831 803.14 476.962
1597 0 60.1062 10.5147 632 119.907 801.661 477.291
1598 0 62.1258 10.5914 658 120.76 802.081 475.22
1599 0 64.1174 13.0074 834 114.94 801.839 480.306
1600 0 63.146 10.7054 676 121.151 800.358 475.976
1601 0 67.0816 13.7295 921 117.177 801.188 479.452
1602 0 66.2349 10.8402 718 123.636 799.146 474.45
1603 1 133.388 9.58104 1278 123.581 799.393 454.962
1604 0 137.439 11.6124 1596 123.159 799.937 442.759
1605 1 76.1573 12.9994 990 119.308 799.109 470.489
1606 0 78.2231 14.2285 1113 116.967 798.766 469.974
1607 0 80.3755 12.79 1028 122.838 798.769 465.24
1608 0 85.3042 14.1376 1206 120.308 798.677 463.732
1609 0 86.2553 10.4689 903 127.981 798.993 460.858
1610 0 88.3935 13.1231 1160 123.441 798.878 460.491
1611 0 93.7312 17.2301 1615 116.307 798.82 452.115
1612 0 97.4442 18.2977 1783 115.002 798.019 451.939
1613 0 97.2807 14.8436 1444 118.048 799.224 448.58
1614 0 100.254 12.6978 1273 121.795 797.426 447.917
1615 1 55.186 7.93679 438 125.242 799.486 469.929
1616 0 58.1505 13.5338 787 116.767 797.471 469.459
1617 0 59.0745 12.6958 750 116.66 799.047 465.359
1618 0 60.2285 13.2495 798 119.437 797.518 470.32
1619 0 61.1804 14.1549 866 120.261 798.217 467.38
1620 0 66.2841 13.0046 862 120.603 798.934 465.814
1621 0 66.2286 13.4836 893 120.918 800.221 464.941
1622 0 66.2286 13.4987 894 139.874 801.23 464.806
1623 0 70.1682 15.4771 1086 116.889 801.996 465.974
1624 0 71.2255 13.5204 963 121.803 802.596 461.869
1625 0 74.1698 14.9252 1107 119.137 802.859 460.085
1626 0 77.2298 14.9942 1158 116.363 803.038 463.525
1627 0 80.2017 13.4286 1077 120.316 803.834 460.816
1628 0 78.3083 11.94 935 123.624 804.574 458.474
1629 0 84.194 13.4333 1131 121.167 804.91 457.077
1630 0 87.1978 13.9453 1216 117.861 806.182 461.149
1631 0 91.2497 13.3699 1220 120.067 804.761 452.05
1632 0 92.1991 12.3537 1139 121.738 805.789 456.457
1633 0 91.2131 12.9696 1183 145.531 805.856 456.75
1634 0 97.2612 13.4894 1312 122.922 806.164 449.803
1635 0 99.2655 15.0002 1489 148.555 807.246 452.386
1636 1 54.3628 12.5637 683 119.337 805.508 476.706
1637 0 56.1406 14.3924 808 115.05 806.01 479.354
1638 0 57.2419 12.3336 706 119.871 806.004 477.848
1639 0 60.2361 12.9657 781 119.101 805.378 477.633
1640 0 60.0868 10.8843 654 124 805.106 476.708
1641 0 64.0732 12.6418 810 120.599 802.277 480.051
1642 0 65.0494 14.1585 921 118.256 802.618 479.407
1643 0 67.2911 14.8311 998 116.365 801.066 480.141
1644 0 69.1118 13.225 914 120.56 800.248 472.34
1645 0 72.1396 13.5293 976 119.102 799.711 476.622
1646 0 72.2383 12.7633 922 121.729 798.448 469.113
1647 0 73.1551 13.7789 1008 117.843 798.374 470.292
1648 0 78.0575 13.1185 1024 118.577 799.078 470.486
1649 0 81.1071 14.561 1181 116.873 798.135 469.392
1650 0 81.1484 15.0465 1221 115.652 797.709 469.948
1651 0 85.1169 14.7562 1256 116.857 797.314 464.098
1652 0 88.1107 14.5499 1282 116.693 797.261 464.19
1653 0 91.0895 13.9862 1274 117.159 796.583 460.086
1654 0 92.107 13.3106 1226 115.728 796.329 460.9
1655 0 92.1095 13.256 1221 116.598 796.465 457.367
1656 0 97.2149 12.6421 1229 116.856 796.489 456.625
1657 1 64.0653 9.06887 581 119.675 797.176 472.664
1658 0 64.1023 13.4473 862 109.117 797.624 477.296
1659 1 53.1933 9.58767 510 122.394 797.557 465.759
1660 0 61.1869 11.3423 694 117.929 799.334 466.212
1661 0 64.0908 12.3419 791 116.087 799.872 464.815
1662 0 68.171 10.7817 735 118.605 799.408 464.846
1663 0 70.112 15.9602 1119 110.12 799.479 463.641
1664 0 71.2317 14.5722 1038 112.868 801.495 462.192
1665 0 75.2238 17.5875 1323 107.417 801.463 463.005
1666 0 75.1647 12.426 934 116.794 802.632 458.512
1667 0 78.1857 17.6631 1381 108.128 802.545 460.122
1668 0 81.1162 14.0786 1142 113.513 802.733 459.637
1669 0 83.2814 16.5223 1376 111.626 803.054 457.682
1670 0 86.1288 11.8776 1023 118.544 804.804 456.573
1671 0 87.3361 12.6523 1105 115.567 803.854 458.259
1672 0 91.2033 13.1465 1199 115.727 804.14 452.7
1673 0 95.2634 13.7618 1311 115.563 803.691 448.188
1674 0 97.3586 14.8112 1442 113.277 805.812 451.95
1675 0 102.599 14.6493 1503 115.498 805.596 449.061
1676 1 54.164 12.4806 676 116.038 804.667 472.512
1677 0 58.2072 12.4899 727 114.655 805.658 476.667
1678 0 59.1143 12.349 730 116.57 805.733 476.829
1679 0 59.1143 12.3151 728 145.185 805.74 476.607
1680 0 62.1196 13.4579 836 116.086 803.413 478.267
1681 0 66.2196 13.7573 911 114.342 804.154 482.045
1682 0 65.1002 10.1075 658 122.766 803.699 479.406
1683 0 70.0615 14.5872 1022 115.789 804.251 474.322
1684 0 72.1787 14.6026 1054 116.808 803.398 472.762
1685 0 77.1683 12.8291 990 118.778 801.626 473.46
1686 0 74.0557 11.4913 851 123.395 801.139 468.405
1687 0 79.1214 11.6909 925 121.055 800.457 472.573
1688 0 83.1966 15.7579 1311 114.06 799.826 467.492
1689 0 85.3723 14.1849 1211 117.492 800.672 460.377
1690 0 88.12 14.9455 1317 115.727 798.607 462.236
1691 0 88.12 14.9228 1315 130.052 797.6 462.447
1692 0 91.4033 15.5465 1421 115.424 797.647 458.251
1693 0 96.4143 16.5121 1592 113.869 796.665 459.437
1694 0 97.0825 15.0594 1462 116.604 796.829 458.204
1695 0 99.1892 15.5561 1543 116.224 796.408 456.025
1696 0 102.198 14.2664 1458 118.123 795.816 454.002
1697 0 105.096 14.815 1557 118.382 796.408 453.888
1698 0 109.202 14.5052 1584 116.595 795.772 452.739
1699 0 113.349 14.7774 1675 117.297 796.069 448.814
1700 0 116.321 13.6175 1584 121.11 796.829 445.321
1701 1 64.1899 7.58686 487 123.916 796.692 463.612
1702 0 65.1434 12.5876 820 116.213 797.939 458.761
1703 0 70.2528 11.786 828 118.152 797.296 458.678
1704 0 74.2195 16.7746 1245 110.62 798.068 460.975
1705 0 72.2184 11.396 823 120.228 798.131 460.878
1706 0 76.1208 12.6115 960 117.901 799.359 457.461
1707 0 80.2468 14.929 1198 113.309 799.59 459.315
1708 0 81.3031 12.312 1001 118.483 800.3 454.693
1709 0 80.2466 9.04711 726 122.587 800.36 452.678
1710 0 84.1294 16.2726 1369 111.117 802.117 458.758
1711 0 86.2246 11.8644 1023 117.52 803.388 456.161
1712 0 92.178 14.8191 1366 111.551 803.253 456.424
1713 0 97.2014 15.257 1483 111.491 804.668 449.815
1714 0 97.2374 14.0789 1369 113.973 804.95 451.15
1715 0 100.151 11.7622 1178 116.489 806.003 446.696
1716 0 105.542 13.587 1434 113.5 806.177 451.087
1717 0 107.18 13.1834 1413 115.15 805.624 448.854
1718 0 108.32 14.3279 1552 113.674 806.334 451.753
1719 0 113.411 12.7236 1443 116.82 805.924 447.341
1720 0 118.336 13.1152 1552 115.395 805.548 450.128
1721 0 122.162 13.5558 1656 114.622 804.964 443.559
1722 0 124.175 12.8368 1594 115.759 805.012 448.008
1723 0 132.264 13.1479 1739 116.505 803.486 444.523
1724 0 137.297 15.6741 2152 112.702 804.072 437.746
1725 0 143.42 11.9509 1714 117.56 803.944 439.365
1726 1 83.3457 9.62257 802 119.13 802.711 470.309
1727 0 79.2835 11.6165 921 117.307 802.106 463.18
1728 0 87.2395 12.2766 1071 114.514 801.579 465.697
1729 0 87.1493 11.6467 1015 116.603 800.918 457.278
1730 0 96.1532 18.8137 1809 104.615 800.143 465.805
1731 0 95.2039 17.0686 1625 108.597 798.683 458.169
1732 0 95.2096 17.0991 1628 124.181 796.668 458.206
1733 0 101.331 19.0958 1935 105.511 798.403 463.274
1734 0 108.174 17.3331 1875 108.375 797.975 458.693
1735 0 108.356 15.4952 1679 110.974 796.443 453.783
1736 0 111.188 15.3974 1712 111.491 797.525 454.136
1737 0 112.255 16.8099 1887 111.632 798 452.801
1738 0 114.309 13.2273 1512 117.282 797.728 447.693
1739 0 119.181 13.9871 1667 116.172 796.516 450.403
1740 0 122.226 12.8533 1571 118.811 796.288 443.579
1741 0 127.454 14.8682 1895 116.042 797.326 441.325
1742 0 132.25 14.5633 1926 116.412 796.992 440.633
1743 1 75.1283 13.0444 980 120.035 796.999 463.035
1744 0 78.1809 13.2641 1037 118.027 797.325 462.747
1745 0 81.1766 14.0927 1144 116.74 797.895 460.559
1746 0 83.2949 14.5267 1210 118.595 797.749 453.581
1747 0 88.1134 13.8458 1220 118.498 799.148 455.342
1748 0 91.1457 16.15 1472 115.31 799.156 451.308
1749 0 97.771 15.1783 1484 116.144 798.792 451.914
1750 0 96.3251 14.8975 1435 117.447 799.72 450.84
1751 0 99.1902 16.2214 1609 115.985 800.538 446.255
1752 0 99.1811 17.4025 1726 114.206 800.815 449.535
1753 0 107.382 15.403 1654 116.425 800.742 447.729
1754 0 106.239 13.1496 1397 121.469 801.758 444.459
1755 0 111.485 17.2758 1926 114.82 801.869 443.765
1756 0 114.16 13.8578 1582 120.064 803.391 430.179
1757 0 119.199 17.7938 2121 113.037 803.16 426.549
1758 0 123.272 14.1881 1749 118.072 804.236 433.682
1759 1 64.1617 14.9778 961 112.348 804.56 468.505
1760 0 66.2951 13.3796 887 117.511 805.128 464.202
1761 0 69.2819 14.5348 1007 114.396 805.129 454.863
1762 0 72.1863 14.0608 1015 116.185 804.908 454.625
1763 0 73.1571 13.1224 960 118.473 804.782 455.29
1764 0 74.1221 9.92957 736 124.568 804.884 457.408
1765 0 79.1148 13.4362 1063 116.759 805.211 462.175
1766 0 79.199 13.7628 1090 117.719 804.143 457.661
1767 0 83.3388 13.6431 1137 118.04 804.405 454.228
1768 0 86.3045 13.8347 1194 118.381 803.082 451.863
1769 0 92.547 15.6137 1445 113.71 803.769 458.773
1770 0 94.2895 13.6813 1290 118.163 802.4 455.185
1771 0 94.1379 16.4015 1544 115.449 801.232 455.017
1772 0 102.204 13.9525 1426 118.697 800.545 452.071
1773 0 105.116 15.4211 1621 117.554 800.03 440.308
1774 0 109.141 15.4388 1685 117.566 799.725 433.467
1775 0 110.144 14.5082 1598 119.213 798.713 436.304
1776 0 114.139 18.3022 2089 111.936 797.764 443.136
1777 0 119.355 14.7375 1759 116.295 797.317 439.136
1778 0 124.333 14.1073 1754 117.178 797.868 433.409
1779 1 68.1813 12.8628 877 115.455 797.442 465.814
1780 0 73.2251 13.0693 957 114.794 797.063 466.968
1781 0 76.2548 14.2548 1087 111.973 798.042 467.224
1782 0 77.2504 16.4012 1267 111.298 797.626 455.703
1783 0 77.2504 16.4012 1267 139.203 797.626 455.703
1784 0 83.2306 14.9825 1247 111.856 797.383 458.855
1785 0 84.1259 14.0028 1178 113.433 796.677 457.569
1786 0 87.2746 18.6194 1625 105.989 796.881 456.078
1787 0 92.1728 17.1634 1582 108.367 797.042 442.204
1788 0 91.1373 13.0133 1186 115.6 796.798 441.319
1789 0 96.1865 15.8234 1522 109.602 796.879 447.562
1790 0 98.1718 14.2913 1403 113.378 798.13 442.73
1791 0 103.287 13.7384 1419 113.815 798.143 445.88
1792 0 104.356 13.3102 1389 117.275 799.163 439.844
1793 0 105.203 13.0604 1374 117.193 799.483 436.804
1794 0 112.237 16.5988 1863 110.38 800.518 435.017
1795 0 115.206 13.133 1513 116.417 800.568 433.444
1796 1 68.2193 15.4795 1056 110.958 802.169 460.808
1797 0 70.3128 11.6622 820 117.76 801.284 459.18
1798 0 71.2168 12.7077 905 115.998 802.593 457.877
1799 0 75.2178 13.8398 1041 114.846 803.337 453.43
1800 0 74.1436 14.1617 1050 114.337 802.511 452.285
1801 0 74.1436 14.1482 1049 144.502 801.516 452.315
1802 0 84.3536 18.9441 1598 105.506 803.428 454.838
1803 0 83.1546 14.0822 1171 113.851 804.541 456.89
1804 0 85.2763 14.7755 1260 115.733 804.629 451.64
1805 0 90.4217 13.4923 1220 116.479 804.777 456.697
1806 0 91.6176 14.0475 1287 116.534 804.073 456.488
1807 0 96.3657 14.7667 1423 115.185 805.271 453.981
1808 0 98.4013 14.1462 1392 116.75 803.499 455.48
1809 0 100.67 12.7446 1283 120.112 804.632 453.809
1810 0 104.278 14.2408 1485 117.794 803.231 454.457
1811 0 106.655 12.1982 1301 122.118 803.399 454.337
1812 0 111.809 13.0669 1461 121.207 802.901 453.194
1813 0 116.399 12.062 1404 122.135 803.145 450.91
1814 0 117.282 15.953 1871 116.855 801.4 451.694
1815 0 119.313 15.1283 1805 117.609 801.046 453.242
1816 0 126.372 14.6314 1849 119.239 799.859 450.786
1817 0 129.223 13.8211 1786 122.006 799.942 442.888
1818 0 129.223 13.8366 1788 147.033 799.94 443.028
1819 0 139.295 13.3817 1864 120.965 798.06 445.628
1820 1 82.4484 12.432 1025 119.337 798.484 466.975
1821 0 83.3506 13.8931 1158 115.794 798.887 468.707
1822 0 83.3506 12.0455 1004 137.559 799.771 466.357
1823 0 89.2228 12.8667 1148 119.724 797.646 459.314
1824 0 93.564 14.3752 1345 117.214 797.377 459.778
1825 0 92.3485 11.9655 1105 122.795 796.737 451.716
1826 0 99.4168 13.7904 1371 119.082 796.812 452.225
1827 0 101.347 15.8761 1609 115.927 796.595 452.827
1828 0 106.557 19.2572 2052 108.454 796.519 457.607
1829 0 107.381 15.9433 1712 116.79 796.232 448.077
1830 0 107.381 15.9805 1716 140.624 796.231 448.08
1831 0 113.464 15.2823 1734 119.841 796.517 441.072
1832 0 119.434 16.2265 1938 117.942 796.529 438.287
1833 0 124.45 20.7875 2587 111.244 797.474 439.194
1834 0 127.883 13.5045 1727 124.31 797.394 430.917
1835 1 73.3554 13.1551 965 119.148 797.973 458.804
1836 0 77.4673 13.0507 1011 120.769 798.896 457.896
1837 0 78.6738 16.6002 1306 116.064 798.724 457.544
1838 0 80.4001 15.4851 1245 118.223 801.147 452.7
1839 0 83.3019 13.133 1094 121.581 801.453 455.235
1840 0 87.7759 16.4282 1442 115.992 801.547 454.671
1841 0 89.5244 14.6887 1315 120.446 801.849 450.503
1842 0 93.4672 12.6676 1184 121.279 802.964 449.553
1843 0 95.6604 13.9661 1336 119.713 803.038 448.54
1844 0 97.1643 14.0175 1362 119.46 803.841 448.552
1845 0 100.425 13.6619 1372 119.715 803.874 447.898
1846 0 102.395 14.5515 1490 118.031 805.107 452.842
1847 0 107.334 13.8167 1483 121.699 805.394 444.962
1848 0 110.474 16.5741 1831 117.651 805.646 443.954
1849 0 112.386 11.9943 1348 126.836 804.454 443.01
1850 0 117.545 15.3473 1804 120.544 804.808 442.134
1851 0 121.543 13.3039 1617 123.84 805.727 444.507
1852 1 71.4589 13.0005 929 116.348 804.882 472.324
1853 0 71.7013 11.7711 844 120.615 803.743 469.876
1854 0 74.3145 13.4429 999 118.805 803.994 469.432
1855 0 76.5113 14.4031 1102 118.652 803.018 471.102
1856 0 76.6 14.6345 1121 118.607 803.025 468.529
1857 0 80.3858 11.4697 922 125.13 801.712 465.631
1858 0 84.5652 12.6175 1067 123.016 800.924 466.551
1859 0 86.462 12.3638 1069 123.862 799.847 461.572
1860 0 87.3188 13.1472 1148 124.111 798.583 460.823
1861 0 93.5209 13.3232 1246 122.357 799.05 462.197
1862 0 94.5536 15.5256 1468 119.612 798.662 458.355
1863 0 97.4942 13.9393 1359 121.316 797.671 459.975
1864 0 101.498 13.7343 1394 121.496 797.217 457.538
1865 0 104.632 14.6513 1533 120.189 797.115 454
1866 0 109.343 12.566 1374 123.913 796.99 449.055
1867 0 106.453 12.1932 1298 124.535 796.099 449.475
1868 0 112.43 15.1472 1703 119.723 796.515 443.205
1869 0 115.688 13.1733 1524 121.967 796.671 447.659
1870 0 120.52 15.209 1833 116.327 797.272 449.458
1871 0 121.517 15.035 1827 119.781 797.068 436.092
1872 0 125.639 14.9954 1884 120.231 796.771 435.592
1873 0 131.633 18.5592 2443 112.07 796.408 439.165
1874 0 134.614 13.2602 1785 122.466 797.58 434.634
1875 0 139.752 17.388 2430 115.256 797.886 430.245
1876 0 143.077 16.4946 2360 117.477 797.755 426.782
1877 0 146.562 14.151 2074 121.702 798.128 422.276
1878 0 153.834 13.9501 2146 122.274 799.278 418.888
1879 0 155.282 13.9746 2170 123.376 799.857 409.984
1880 1 92.0733 12.5226 1153 119.034 800.084 450.871
1881 0 91.6128 12.4764 1143 121.099 801.579 446.315
1882 0 95.5303 13.4512 1285 119.72 802.893 445.545
1883 0 97.7568 12.6232 1234 120.62 802.772 445.975
1884 0 102.657 13.5403 1390 118.675 803.95 442.947
1885 0 106.609 13.7324 1464 117.337 803.478 448.71
1886 0 106.609 13.9106 1483 133.258 802.468 448.912
1887 0 113.75 13.8989 1581 118.165 804.347 441.199
1888 0 116.576 15.7666 1838 115.472 804.113 439.155
1889 0 117.587 11.7445 1381 122.314 805.419 436.576
1890 0 121.609 13.4118 1631 120.356 805.527 435.616
1891 0 128.539 9.74027 1252 124.922 806.026 437.887
1892 0 132.546 18.9443 2511 110.642 804.89 436.233
1893 0 136.563 15.6777 2141 115.773 805.209 434.521
1894 0 142.535 16.5784 2363 115.478 803.755 428.399
1895 0 147.484 14.8491 2190 118.902 803.532 427.25
1896 1 80.3026 11.0831 890 120.636 803.557 462.083
1897 0 83.3223 12.2536 1021 118.626 803.414 461.587
1898 0 89.3475 13.6546 1220 114.286 803.476 468.561
1899 0 92.2814 16.4497 1518 110.881 803.462 463.345
1900 0 96.3644 14.4244 1390 113.111 802.194 466.478
1901 0 98.3799 13.3462 1313 116.986 800.808 461.331
1902 0 102.464 14.6198 1498 114.575 801.425 458.792
1903 0 104.368 12.7146 1327 116.788 799.546 447.738
1904 0 109.247 13.3642 1460 118.147 800.005 441.12
1905 0 110.427 13.0856 1445 119.462 798.144 433.28
1906 0 112.358 10.0127 1125 124.444 798.466 435.267
1907 0 116.191 13.9856 1625 120.196 798.525 428.652
1908 0 116.331 12.6449 1471 118.714 797.585 435.91
1909 0 117.331 13.1849 1547 139.059 796.58 434.842
1910 0 126.421 12.3318 1559 120.448 797.233 426.264
1911 0 131.371 13.8995 1826 118.433 796.349 422.197
1912 0 132.668 14.7738 1960 115.677 796.604 429.21
1913 0 137.278 11.9611 1642 121.211 795.856 421.66
1914 1 76.2526 10.9504 835 117.078 796.483 453.672
1915 0 76.248 7.82971 597 125.087 796.496 450.161
1916 0 83.2785 13.3288 1110 114.141 796.659 451.919
1917 0 83.1644 11.339 943 118.958 796.607 444.365
1918 0 86.2339 12.7792 1102 116.545 797.576 448.284
1919 0 90.3281 14.4363 1304 112.854 797.798 446.426
1920 0 92.2045 14.2618 1315 113.075 798.583 445.973
1921 0 99.276 12.984 1289 114.145 798.791 441.129
1922 0 95.3493 13.7809 1314 115.22 799.452 438.113
1923 0 95.3493 13.8648 1322 128.101 800.463 438.021
1924 0 104.335 14.7122 1535 114.077 801.251 439.012
1925 0 109.303 12.351 1350 118.736 802.633 433.359
1926 0 110.24 15.1487 1670 114.332 802.55 434.584
1927 0 112.355 11.2145 1260 121.829 802.556 430.468
1928 0 119.255 13.3495 1592 117.415 803.446 427.752
1929 0 117.283 9.4728 1111 123.891 804.662 426.215
1930 0 131.35 14.054 1846 114.819 805.069 424.958
1931 0 136.593 16.2527 2220 112.044 805.991 423.943
1932 0 136.439 14.4827 1976 115.715 807.098 416.606
1933 0 143.198 14.9374 2139 114.983 806.375 419.263
1934 0 149.491 12.6496 1891 119.179 806.438 415.17
1935 0 157.638 13.2138 2083 116.866 805.504 419.711
1936 1 85.1056 13.7711 1172 114.785 805.039 448.25
1937 0 87.3645 11.7553 1027 117.867 805.948 447.426
1938 0 93.3327 14.4751 1351 110.58 804.944 453.112
1939 0 95.2833 12.0168 1145 115.493 803.934 450.322
1940 0 96.3845 13.0623 1259 115.498 802.346 445.315
1941 0 101.546 12.6052 1280 114.551 802.788 452.027
1942 0 103.45 10.8168 1119 118.038 803.258 449.326
1943 0 104.374 11.5546 1206 118.284 802.448 445.704
1944 0 108.233 12.6302 1367 115.769 801.464 447.435
1945 0 117.574 13.5064 1588 113.242 800.079 444.181
1946 0 117.574 13.4723 1584 135.634 799.062 444.057
1947 0 123.387 9.11763 1125 119.445 798.698 443.189
1948 1 135.233 11.0402 1493 113.679 798.244 437.974
1949 1 68.163 7.92218 540 118.719 798.02 456.85
1950 0 76.1865 12.1544 926 109.982 796.92 455.835
1951 0 76.2841 10.0283 765 113.285 796.221 452.665
1952 0 80.1847 11.2241 900 110.453 797.098 456.394
1953 0 79.2151 15.6157 1237 129.34 798.061 462.049
1954 0 86.2561 15.2453 1315 104.614 797.122 452.94
1955 0 89.1062 11.4246 1018 110.026 796.833 448.746
1956 0 91.4671 12.6931 1161 108.332 796.29 444.461
1957 0 95.1633 16.7712 1596 101.715 795.683 448.788
1958 0 94.5664 11.1985 1059 110.263 797.057 444.929
1959 0 97.4242 14.4728 1410 105.191 796.793 447.252
1960 0 99.6055 12.0877 1204 109.286 797.272 444.623
1961 0 191.538 14.3627 2751 113.361 796.878 389.855
1962 1 107.324 8.93559 959 114.05 797.61 441.63
1963 0 109.128 9.16356 1000 115.457 798.276 434.224
1964 0 115.273 14.6609 1690 108.381 798.398 424.308
1965 0 117.58 11.6771 1373 113.229 799.473 423.216
1966 0 119.243 12.8645 1534 112.05 800.364 426.677
1967 0 126.193 13.1545 1660 112.206 801.596 420.355
1968 0 134.191 13.7118 1840 110.177 802.416 422.158
1969 0 137.206 12.4703 1711 111.551 802.579 419.274
1970 1 80.1085 14.2182 1139 108.795 803.368 442.847
1971 0 85.1303 12.9331 1101 110.151 803.915 443.369
1972 0 80.199 15.4366 1238 108.405 804.59 438.67
1973 0 85.1407 12.2268 1041 113.778 804.678 438.829
1974 0 91.396 13.6767 1250 110.312 804.093 443.65
1975 0 94.2123 14.4567 1362 108.695 804.568 442.142
1976 0 99.1014 14.248 1412 110.769 805.515 440.095
1977 0 102.152 12.08 1234 114.835 806.19 442.705
1978 0 104.128 13.589 1415 113.802 806.283 436.923
1979 0 112.221 14.0882 1581 111.314 805.473 438.98
1980 0 113.179 11.7159 1326 117.269 805.874 430.856
1981 0 113.313 12.664 1435 117.134 804.987 435.579
1982 0 120.097 12.032 1445 118.275 804.172 428.584
1983 0 118.211 12.8076 1514 118.546 803.408 424.844
1984 0 128.294 14.4044 1848 115.57 803.896 427.876
1985 0 133.207 14.3911 1917 115.141 801.694 431.379
1986 0 139.244 15.5914 2171 114.081 802.802 425.476
1987 0 144.309 13.3255 1923 117.829 799.919 421.334
1988 0 142.264 11.7809 1676 122.005 800.369 419.371
1989 1 85.0777 11.4131 971 118.556 798.783 451.209
1990 0 86.1686 12.8585 1108 115.349 798.863 456.689
1991 0 92.2994 11.6902 1079 117.276 798.07 447.438
1992 0 92.3174 13.5619 1252 114.4 797.763 445.731
1993 0 96.1266 13.4718 1295 115.475 797.125 439.281
1994 0 95.3683 12.09 1153 118.022 797.339 437.176
1995 0 100.162 11.761 1178 117.935 796.313 437.399
1996 0 100.162 11.8508 1187 131.085 795.308 437.368
1997 0 108.146 11.4012 1233 118.23 795.185 435.742
1998 0 110.403 11.6391 1285 118.321 795.988 436.468
1999 0 115.329 13.0929 1510 116.259 795.687 431.258
2000 0 115.431 12.5097 1444 119.828 795.18 428.483
2001 0 118.374 12.4605 1475 120.327 796.26 426.854
2002 0 125.195 12.7242 1593 119.442 796.213 425.664
2003 0 121.209 9.43001 1143 127.915 796.644 414.488
2004 0 132.33 13.1414 1739 120.045 797.785 416.979
2005 0 137.389 15.9693 2194 115.933 797.933 425.653
2006 0 145.329 18.207 2646 112.012 797.772 422.263
2007 0 146.352 13.4676 1971 120.626 798.762 417.71
2008 1 90.0593 11.1815 1007 112.486 798.758 446.274
2009 0 94.128 9.34897 880 113.444 799.917 446.965
2010 0 97.1971 12.9633 1260 107.329 801.321 448.543
2011 0 99.2781 10.9088 1083 113.165 801.56 443.512
2012 0 101.164 13.4534 1361 109.235 802.128 449.94
2013 0 105.416 15.3961 1623 107.803 801.864 445.763
2014 0 107.317 11.1911 1201 115.032 803.364 444.444
2015 0 112.463 14.3336 1612 110.965 803.509 439.511
2016 0 111.47 10.4782 1168 118.226 805.244 441.964
2017 0 115.206 13.159 1516 114.127 804.17 440.98
2018 0 116.305 13.3442 1552 116.037 805.301 433.43
2019 0 123.483 17.2412 2129 109.754 805.697 432.82
2020 0 127.254 12.031 1531 118.369 805.718 433.271
2021 0 130.515 12.8338 1675 117.298 805.886 438.017
2022 0 134.249 12.4992 1678 117.937 805.567 433.544
2023 0 140.372 14.2194 1996 115.718 804.593 424.169
2024 0 144.26 11.8328 1707 119.603 804.018 431.198
2025 1 88.2694 10.5246 929 115.581 803.444 454.466
2026 0 90.2033 12.1171 1093 111.627 803.427 463.32
2027 0 96.1261 14.5018 1394 107.392 800.526 465.396
2028 0 99.3492 13.0852 1300 105.388 801.714 461.719
2029 0 98.3053 15.0755 1482 109.904 802.696 458.299
2030 0 100.427 14.3189 1438 110.873 800.799 458.56
2031 0 98.3432 14.0325 1380 110.795 800.474 459.63
2032 0 97.3618 10.7023 1042 113.029 798.804 464.317
2033 1 16.0543 7.5992 122 102.787 796.598 497.303
2034 0 17.0105 5.11449 87 103.54 796.885 499.253
2035 0 19.0184 3.52291 67 107.642 795.582 498.075
2036 0 17.0104 2.52787 43 106.884 794.884 498.581
2037 0 14.0025 3.28512 46 103.652 796.283 501.022
2038 0 15.0135 3.99639 60 103.933 795.167 500.233
2039 0 12.0021 5.58237 67 99.1493 795.433 499.552
2040 0 12.0033 5.33186 64 102.531 794.297 497.328
2041 0 11.0261 4.08123 45 103 796.733 497.533
2042 0 9.00062 3.1109 28 103.429 796.5 497.464
2043 0 8.00161 6.62367 53 103.151 796.472 496.057
2044 1 152.519 10.32 1574 122.478 795.306 424.246
2045 0 154.526 11.7132 1810 129.077 794.321 420.518
2046 0 162.509 9.73486 1582 123.779 796.693 418.659
2047 0 165.533 13.2784 2198 115.755 798.292 413.47
2048 0 172.616 11.6733 2015 119.588 797.417 407.955
2049 0 178.867 12.7805 2286 117.018 798.228 404.997
2050 0 182.829 11.1306 2035 118.706 798.265 406.341
2051 0 180.653 8.13159 1469 128.566 799.819 391.111
2052 0 183.504 8.65377 1588 128.031 800.699 393.931
2053 1 16.007 8.37136 134 103.537 801.149 484.507
2054 0 17.0277 8.04571 137 104.015 802.263 483.956
2055 0 16.044 3.4904 56 109.589 806.268 484.286
2056 0 14.0069 6.28262 88 101.25 805.284 486.955
2057 0 12.001 5.83283 70 105.129 804.714 486.2
2058 1 216.797 10.7012 2320 122.915 803.778 404.619
2059 1 205.375 8.33598 1712 126.899 803.968 404.612
2060 0 205.519 8.00413 1645 126.351 804.298 413.985
2061 0 205.788 4.07701 839 131.671 804.294 423.3
2062 1 139.312 12.0521 1679 120.659 804.521 428.101
2063 0 142.428 11.3461 1616 121.863 804.33 426.415
2064 0 145.297 11.8653 1724 122.902 804.955 421.447
2065 0 149.35 10.78 1610 126.556 803.518 419.775
2066 0 150.262 8.51182 1279 131.475 804.353 410.112
2067 0 163.513 14.1334 2311 121.543 803.232 416.365
2068 0 162.317 10.7013 1737 130.062 803.532 405.118
2069 0 168.52 10.0463 1693 131.399 802.417 407.81
2070 0 176.262 15.3124 2699 122.576 802.737 411.944
2071 0 184.348 13.4853 2486 126.712 801.083 407.379
2072 0 189.329 13.9228 2636 126.374 800.49 411.447
2073 0 197.631 15.0786 2980 124.77 799.224 400.345
2074 0 199.805 13.2629 2650 128.577 798.586 396.46
2075 0 199.957 8.76687 1753 134.503 799.063 410.836
2076 0 199.961 8.79672 1759 131.727 799.073 411.445
2077 1 265.495 12.923 3431 132.37 796.927 359.716
2078 1 227.633 9.84917 2242 132.993 796.476 388.312
2079 0 237.679 9.74424 2316 133.339 796.079 395.693
2080 0 240.784 9.85947 2374 132.179 795.912 379.943
2081 0 250.422 14.8589 3721 125.686 795.987 388.524
2082 1 10.0055 4.69741 47 105.468 793.404 494.574
2083 0 5 4 20 105.1 793.75 497.4
2084 0 15.0131 5.12885 77 105.455 793.429 490.688
2085 0 10.0133 5.1931 52 104.923 792.846 493.019
2086 0 13.0318 4.29718 56 97.4464 794.446 490.411
2087 1 233.061 15.1934 3541 123.38 796.29 381.94
2088 0 238.476 13.255 3161 127.431 797.616 368.1
2089 0 237.479 12.957 3077 137.108 799.608 366.182
2090 0 236.716 10.5316 2493 131.687 797.407 379.822
2091 0 340.959 19.9526 6803 119.079 798.235 308.899
2092 0 350.036 20.9607 7337 117.977 799.435 307.868
2093 0 345.836 9.14017 3161 135.227 799.796 339.779
2094 1 69.1403 9.93632 687 112.39 799.006 448.62
2095 0 72.0663 9.6994 699 114.948 800.506 450.355
2096 0 75.2257 14.503 1091 107.944 799.872 453.014
2097 0 74.2692 8.59037 638 118.392 801.577 451.787
2098 0 79.4195 10.9167 867 114.548 801.405 453.856
2099 0 80.1278 11.7063 938 113.02 801.548 455.581
2100 0 82.3522 9.71438 800 115.339 802.624 457.136
2101 0 86.3475 11.3727 982 113.416 803.465 451.673
2102 0 89.1643 12.9648 1156 110.629 804.926 456.039
2103 0 89.3712 10.6074 948 111.978 805.46 457.4
2104 0 89.1761 9.96904 889 114.096 805.431 448.906
2105 0 92.2039 10.3683 956 113.734 805.793 448.627
2107 0 184.456 12.5287 2311 115.344 803.799 414.453
2108 0 184.474 7.89814 1457 125.253 803.266 396.373
2109 0 193.77 10.9047 2113 119.565 803.881 398.987
2110 1 117.304 24.6369 2890 95.6792 802.39 428.397
2111 1 14.0024 7.71294 108 99.9259 801.074 493.056
2112 0 14.0069 6.4254 90 102.189 800.478 497.8
2113 1 114.263 9.82819 1123 116.437 802.734 446.762
2114 1 154.311 21.0549 3249 96.0893 800.669 426.475
2115 0 152.34 27.176 4140 92.9188 799.994 432.078
2116 0 142.477 18.3258 2611 102.933 798.799 432.229
2117 0 148.754 21.5792 3210 99.4956 798.153 428.452
2118 0 144.515 15.2718 2207 109.232 798.306 433.811
2119 0 146.234 18.956 2772 105.808 797.08 423.496
2120 0 149.59 19.0186 2845 105.792 797.342 422.699
2121 0 151.422 11.8213 1790 116.26 797.155 425.95
2122 0 157.355 13.8985 2187 113.35 796.648 426.799
2123 1 88.2232 13.7266 1211 109.955 796.182 459.759
2124 0 92.2746 12.5387 1157 112.129 795.576 455.61
2125 0 93.2445 13.2233 1233 111.444 795.436 456.23
2126 0 97.3572 14.8114 1442 109.181 795.875 452.577
2127 0 99.3346 14.1642 1407 110.416 795.49 451.267
2128 0 100.267 12.4468 1248 112.785 796.374 452.139
2129 0 107.294 15.7418 1689 109.526 796.961 447.268
2130 0 107.253 15.5054 1663 110.954 796.982 443.081
2131 0 111.204 15.1433 1684 111.078 797.999 441.542
2132 0 112.308 9.5986 1078 118.104 797.462 441.579
2133 0 118.269 13.3086 1574 113.02 798.276 440.797
2134 0 118.253 10.5874 1252 117.464 798.259 436.454
2135 0 123.204 13.0678 1610 114.226 798.793 433.454
2136 0 124.269 11.1613 1387 115.636 799.154 436.848
2137 0 129.418 12.5948 1630 113.952 800.749 432.001
2138 0 133.634 9.57839 1280 118.175 801.591 425.341
2139 0 142.352 13.003 1851 112.614 802.15 424.352
2140 0 146.384 15.1587 2219 108.795 802.616 422.625
2141 0 151.423 14.0401 2126 110.202 802.556 420.312
2142 1 87.4655 7.92312 693 111.775 802.895 453.392
2143 0 89.3857 11.0868 991 108.773 802.937 450.644
2144 0 92.3514 13.6002 1256 105.044 804.459 447.572
2145 0 95.2434 14.8252 1412 104.822 805.638 448.404
2146 0 100.341 14.6699 1472 104.65 804.962 441.471
2147 0 103.186 9.13883 943 110.946 805.998 443.238
2148 0 102.415 12.5177 1282 106.944 805.104 449.957
2149 0 108.289 13.15 1424 105.796 804.864 444.039
2150 0 114.611 12.1803 1396 107.954 805.511 446.967
2151 0 114.368 13.2817 1519 107.169 804.461 450.028
2152 0 118.299 11.0736 1310 111.163 804.263 444.289
2153 0 126.306 16.6738 2106 103.629 804.051 445.097
2154 0 128.38 13.8105 1773 108.103 803.181 439.908
2155 0 134.648 12.0462 1622 109.86 802.24 440.253
2156 0 139.454 14.5854 2034 106.756 801.461 432.746
2157 0 141.381 14.613 2066 107.478 800.275 434.111
2158 0 143.322 12.4126 1779 111.132 798.721 434.772
2159 0 144.352 9.94097 1435 114.562 798.506 433.742
2160 1 156.252 11.219 1753 113.509 798.087 424.719
2161 1 89.4298 11.8081 1056 109.529 797.458 460.136
2162 0 94.2052 13.0248 1227 109.867 797.402 457.011
2163 0 100.291 13.3412 1338 108.932 797.15 456.531
2164 0 101.438 17.3506 1760 104.171 796.116 455.153
2165 0 103.258 11.9313 1232 111.962 795.733 454.79
2166 0 111.336 14.9009 1659 107.497 796.433 452.23
2167 0 110.18 13.9136 1533 109.988 796.933 449.427
2168 0 114.388 13.9874 1600 110.524 796.992 446.397
2169 0 116.33 12.2669 1427 113.708 796.436 444.622
2170 0 121.454 14.4746 1758 109.546 796.348 448.542
2171 0 122.263 14.1498 1730 112.238 796.155 438.427
2172 0 127.516 14.5942 1861 112.228 796.825 437.76
2173 0 128.378 13.8731 1781 114.161 797.55 435.526
2174 0 133.351 13.0408 1739 115.471 797.124 430.945
2175 0 135.428 18.3714 2488 108.748 798.801 426.209
2176 0 139.606 14.7057 2053 113.383 798.77 430.543
2177 0 142.474 14.8238 2112 114.654 799.05 414.786
2178 0 149.297 15.0104 2241 114.116 799.493 417.942
2179 0 152.377 15.5601 2371 113.016 799.379 418.148
2180 0 158.403 16.0477 2542 112.214 800.733 415.795
2181 1 93.192 15.1944 1416 111.189 801.761 446.713
2182 0 95.2378 14.343 1366 113.083 802.09 449.369
2183 0 100.374 17.1559 1722 111.406 802.79 448.144
2184 0 98.3193 12.378 1217 120.494 802.41 443.53
2185 0 105.349 13.0139 1371 118.627 803.356 445.466
2186 0 110.234 16.0658 1771 114.599 803.71 440.137
2187 0 115.379 18.2789 2109 109.574 803.273 441.69
2188 0 116.278 13.2527 1541 115.593 804.309 442.08
2189 0 119.291 15.2485 1819 114.192 805.477 438.82
2190 0 125.146 14.9985 1877 113.559 805.576 442.7
2191 0 125.252 14.1634 1774 116.824 804.775 436.809
2192 0 133.137 15.2625 2032 114.574 804.357 438.723
2193 0 138.42 15.3085 2119 114.667 805.306 435.989
2194 0 141.493 14.9618 2117 115.214 804.786 437.755
2195 0 148.43 14.0471 2085 116.368 803.952 434.055
2196 0 155.482 13.5385 2105 116.886 803.407 432.421
2197 0 159.479 14.284 2278 116.722 804.221 421.097
2198 1 86.2875 9.07431 783 121.301 804.176 460.985
2199 0 95.3739 12.8337 1224 116.08 802.754 455.655
2200 0 96.5024 14.6939 1418 113.578 800.633 453.47
2201 0 99.3607 12.2584 1218 117.432 800.476 455.633
2202 0 102.311 13.0583 1336 116.109 798.157 453.88
2203 0 102.311 13.0485 1335 127.234 796.173 453.764
2204 0 110.562 11.5953 1282 117.871 797.14 452.703
2205 0 112.796 13.9366 1572 115.926 797.467 447.02
2206 0 115.433 13.8521 1599 115.624 797.091 447.907
2207 0 116.569 12.3189 1436 117.964 796.669 446.659
2208 0 121.469 12.4971 1518 117.561 796.891 444.411
2209 0 124.769 14.3225 1787 116.074 796.126 432.434
2210 0 127.575 13.3804 1707 116.204 796.646 436.817
2211 0 134.561 14.8557 1999 113.733 795.831 431.547
2212 0 134.544 12.2265 1645 117.773 796.878 423.934
2213 0 143.867 13.9225 2003 113.406 795.99 431.537
2214 0 145.435 15.8078 2299 111.626 796.569 425.377
2215 0 149.651 12.4489 1863 117.293 796.594 417.649
2216 1 85.4027 12.5055 1068 110.487 797.326 453.425
2217 0 94.4322 12.231 1155 108.403 797.965 457.442
2218 0 92.557 16.0658 1487 106.029 797.909 449.605
2219 0 95.5008 12.1465 1160 112.288 798.322 447.109
2220 0 98.5533 13.0995 1291 110.447 798.836 443.375
2221 0 103.38 15.0802 1559 107.004 799.563 445.496
2222 0 107.579 14.1664 1524 108.48 799.641 444.339
2223 0 108.664 12.6905 1379 111.787 800.214 436.529
2224 0 109.745 15.1624 1664 107.451 799.725 441.7
2225 0 111.433 9.74576 1086 115.336 802.313 438.702
2226 0 115.341 11.7391 1354 114.632 802.879 428.007
2227 0 120.686 11.6998 1412 114.516 802.825 428.56
2228 0 121.509 11.9415 1451 114.635 802.125 427.931
2229 0 121.509 12.0403 1463 121.621 801.104 427.981
2230 0 121.517 12.0477 1464 121.12 800.092 427.96
2231 1 143.526 13.7467 1973 110.986 804.248 426.334
2232 0 143.678 11.9782 1721 113.822 804.031 427.149
2233 0 147.496 12.5224 1847 111.182 804.686 429.12
2234 0 156.501 12.8753 2015 108.986 804.67 429.043
2235 1 88.2996 10.0906 891 110.883 805.068 462.368
2236 0 91.2881 10.4614 955 111.637 804.086 452.208
2237 0 94.375 13.245 1250 106.616 804.64 462.191
2238 0 99.2654 13.5092 1341 107.884 802.251 454.85
2239 0 104.319 15.6538 1633 104.644 802.323 451.636
2240 0 106.345 12.2526 1303 110.561 801.85 449.635
2241 0 110.41 12.3449 1363 110.591 801.604 449.602
2242 0 112.318 10.1231 1137 114.531 800.24 452.325
2243 0 108.621 10.6702 1159 115.969 800.509 443.213
2244 0 114.639 9.63897 1105 116.072 798.795 454.232
2245 0 117.296 10.4607 1227 118.266 798.837 439.301
2246 1 129.394 14.3206 1853 110.786 798.127 435.552
2247 0 131.359 11.4724 1507 115.184 797.842 440.348
2248 0 133.254 14.3936 1918 111.935 797.567 429.939
2249 0 141.455 12.8097 1812 113.597 797.331 431.06
2250 0 142.485 16.2894 2321 108.516 796.436 429.131
2251 0 146.357 12.8316 1878 113.784 796.973 426.375
2252 0 150.417 14.4465 2173 110.48 795.785 433.159
2253 0 155.624 12.5109 1947 115.084 797.051 424.069
2254 0 160.458 13.9725 2242 114.015 796.802 413.614
2255 0 165.44 15.6432 2588 111.477 795.301 415.658
2256 0 170.279 14.1532 2410 114.295 797.294 410.46
2257 0 173.382 13.8999 2410 115.427 796.386 403.683
2258 0 177.524 11.9421 2120 119.47 796.856 401.821
2259 0 181.466 13.6941 2485 116.078 797.648 405.587
2260 0 192.155 16.5699 3184 111.368 797.852 401.098
2261 0 192.36 13.823 2659 116.147 798.959 402.229
2262 0 199.522 16.9756 3387 111.957 799.156 398.702
2263 0 204.65 16.9656 3472 112.411 799.647 397.236
2264 0 208.402 13.8002 2876 118.491 800.278 391.191
2265 0 215.306 12.9165 2781 120.049 800.396 387.383
2266 0 222.506 12.0536 2682 122.901 800.996 371.754
2267 1 294.603 10.6313 3132 125.267 800.805 360.426
2268 0 297.497 10.6959 3182 122.858 801.938 368.722
2269 0 294.379 11.4376 3367 123.994 803.5 352.304
2270 1 64.2742 10.253 659 102.499 802.344 466.886
2271 0 62.1026 11.5776 719 104.562 803.16 467.673
2272 0 61.0968 7.39809 452 110.471 802.602 462.493
2273 0 66.4634 10.7578 715 105.877 802.961 464.041
2274 0 68.092 12.9237 880 101.234 804.019 471.691
2275 0 72.0967 13.038 940 103.396 804.346 466.518
2276 0 72.1609 11.9455 862 104.445 803.276 469.488
2277 0 75.1483 10.9384 822 107.001 802.945 467.629
2278 0 76.2502 10.7147 817 108.114 804.071 465.537
2279 0 77.2751 9.05854 700 112.007 803.083 464.619
2280 0 83.0743 15.2273 1265 102.974 804.1 462.937
2281 0 86.0958 14.0076 1206 104.689 801.928 461.587
2282 0 86.2081 11.275 972 109.418 801.809 466.55
2283 0 90.1737 12.3872 1117 112.021 801.808 468.531
2284 0 91.2091 11.9506 1090 114.41 801.81 463.158
2285 0 96.1832 12.445 1197 111.442 798.687 465.845
2286 0 103.6 14.9904 1553 107.83 798.217 464.327
2287 0 105.192 15.0392 1582 109.402 797.927 458.501
2288 0 105.499 11.8579 1251 115.666 798.019 458.493
2289 0 108.407 12.4808 1353 114.132 797.482 455.743
2290 0 112.251 15.6257 1754 108.147 796.848 457.336
2291 0 113.157 15.6508 1771 110.675 795.411 447.958
2292 0 119.373 13.8893 1658 112.416 795.754 447.645
2293 1 70.2797 12.0376 846 109.202 795.021 471.221
2294 0 67.2005 7.14281 480 116.365 796.04 462.9
2295 0 72.2286 9.34533 675 111.311 794.49 465.311
2296 0 70.143 7.5845 532 118.263 795.004 458.256
2297 0 76.2959 11.1146 848 113.579 795.741 445.38
2298 0 79.141 12.7368 1008 110.153 795.467 447.904
2299 0 79.1746 11.241 890 112.819 795.478 450.627
2300 0 79.1576 10.4222 825 114.31 795.265 455.895
2301 1 91.1238 17.2732 1574 101.403 796.198 447.531
2302 0 92.3145 18.7403 1730 100.401 796.238 447.784
2303 0 94.2503 23.1405 2181 96.0944 795.953 443.546
2304 0 94.3041 14.6759 1384 107.733 797.458 446.692
2305 0 92.1627 11.3386 1045 113.635 797.122 448.095
2306 0 94.3059 12.1519 1146 114.824 798.301 441.23
2307 0 95.094 10.4528 994 116.815 798.671 449.109
2308 0 99.1963 13.942 1383 112.666 799.79 446.077
2309 0 100.104 16.2532 1627 110.626 799.214 440.681
2310 0 104.223 14.5746 1519 112.618 800.465 442.377
2311 0 105.229 12.5631 1322 116.384 802.375 444.507
2312 0 111.239 15.9926 1779 111.279 802.278 443.106
2313 0 110.364 12.4407 1373 118.146 802.452 436.138
2314 0 116.368 14.2393 1657 115.112 803.567 438.974
2315 0 121.329 15.4126 1870 114.484 803.438 436.997
2316 0 120.297 12.6021 1516 120.558 804.619 427.727
2317 0 126.241 12.2306 1544 120.694 804.381 431.617
2318 0 130.104 13.2586 1725 121.227 804.678 422.533
2319 1 76.2252 13.4339 1024 111.483 803.039 456.496
2320 0 77.1737 15.3679 1186 110.936 802.008 464.897
2321 0 81.0893 15.1685 1230 109.836 802.102 464.38
2322 0 84.2164 17.0038 1432 107.983 802.036 460.652
2323 0 86.1947 11.1376 960 118.486 802.54 460.688
2324 0 90.1322 15.5882 1405 109.986 802.284 463.068
2325 0 93.336 15.771 1472 110.909 802.122 459.54
2326 0 92.1147 11.4857 1058 118.378 801.316 461.092
2327 0 92.1147 11.4423 1054 135.18 800.31 461.255
2328 0 103.196 13.2466 1367 116.184 800.798 453.763
2329 0 107.299 16.6731 1789 110.681 799.912 453.117
2330 0 106.18 13.1663 1398 116.853 798.912 454.587
2331 0 110.245 13.5607 1495 116.565 799.165 453.977
2332 0 114.177 13.5579 1548 116.792 797.988 447.749
2333 0 114.197 11.9005 1359 120.909 798.02 445.692
2334 0 118.158 12.3902 1464 120.849 796.349 438.798
2335 0 119.231 12.5302 1494 121.861 796.23 432.602
2336 0 124.198 13.6637 1697 119.919 795.437 435.156
2337 0 130.154 13.2075 1719 119.874 796.052 434.505
2338 0 131.452 12.7956 1682 122.116 795.182 425.33
2339 0 138.113 12.4391 1718 122.937 794.775 420.879
2340 1 213.287 9.70053 2069 127.865 795.322 399.45
2341 1 147.362 12.7713 1882 120.625 796.979 423.705
2342 0 152.51 15.2122 2320 116.226 796.221 423.537
2343 0 155.3 12.389 1924 121.793 795.92 414.867
2344 1 84.1043 10.6772 898 116.32 797.129 453.729
2345 0 86.1554 10.8293 933 118.806 797.959 447.372
2346 0 91.1841 13.9059 1268 114.92 797.662 445.552
2347 0 94.18 16.2667 1532 110.349 798.776 448.247
2348 0 97.3059 15.4667 1505 111.421 799.946 447.69
2349 0 97.1455 13.5055 1312 115.992 799.386 441.814
2350 0 99.2517 14.2063 1410 114.582 800.945 443.036
2351 0 106.3 17.2249 1831 108.328 801.663 444.327
2352 0 105.226 15.6616 1648 112.673 802.059 436.777
2353 0 111.3 15.4537 1720 112.067 802.523 439.833
2354 0 111.158 13.4853 1499 115.948 803.812 436.692
2355 0 111.158 13.5573 1507 145.163 805.811 436.418
2356 0 117.241 15.6088 1830 112.816 804.542 439.745
2357 0 121.17 13.7162 1662 115.286 803.981 437.062
2358 0 129.224 13.8828 1794 113.718 805.164 437.809
2359 0 132.248 16.7791 2219 110.244 804.481 433.832
2360 0 138.289 16.9862 2349 110.301 805.753 427.788
2361 1 76.2063 11.049 842 119.127 804.517 458.615
2362 0 81.1857 14.5223 1179 113.522 805.065 461.896
2363 0 86.2018 16.125 1390 112.202 803.322 459.102
2364 0 86.1829 13.6918 1180 116.213 803.679 456.342
2365 0 89.1765 15.06 1343 114.235 801.819 456.67
2366 0 94.1728 14.1336 1331 117.434 801.441 449.149
2367 0 99.2392 15.8909 1577 112.417 801.446 447.516
2368 0 99.1689 13.0384 1293 118.268 800.981 445.855
2369 0 106.16 19.0278 2020 106.953 799.385 451.879
2370 0 110.181 18.1701 2002 109.209 797.995 444.014
2371 0 114.327 20.0128 2288 106.826 797.686 450.26
2372 0 115.205 15.3466 1768 115.182 796.465 446.049
2373 0 117.274 15.1099 1772 118.13 796.864 442.232
2374 1 66.1139 12.6146 834 119.592 795.636 468.416
2375 0 71.1888 11.5608 823 120.668 794.748 465.635
2376 0 71.1231 12.5416 892 120.674 794.532 463.117
2377 0 75.1271 14.2558 1071 117.518 795.155 461.089
2378 0 76.2214 14.0905 1074 118.154 795.115 463.983
2379 0 82.0879 14.7281 1209 115.973 793.605 458.11
2380 0 82.1994 13.151 1081 119.542 794.278 457.218
2381 0 85.2009 14.6829 1251 116.842 794.38 454.364
2382 0 88.2439 16.9417 1495 113.769 794.796 452.95
2383 0 91.192 16.701 1523 114.078 794.326 451.437
2384 0 93.1957 17.5545 1636 113.438 794.993 447.769
2385 0 95.172 14.4685 1377 120.078 796.135 441.583
2386 0 98.1663 14.6282 1436 118.923 796.531 445.226
2387 0 100.148 16.4756 1650 116.966 797.139 441.108
2388 0 104.306 16.9405 1767 115.869 796.766 441.719
2389 0 105.322 16.4543 1733 117.526 797.626 441.191
2390 0 104.319 14.9062 1555 147.505 798.52 438.349
2391 0 113.375 14.2272 1613 121.451 798.82 436.443
2392 0 113.39 15.6363 1773 120.536 798.264 427.914
2393 0 116.193 13.9509 1621 123.904 799.39 426.023
2394 0 122.349 20.9155 2559 111.639 799.82 428.444
2395 0 126.167 15.4398 1948 120.599 800.866 428.547
2396 1 72.0964 12.303 887 119.834 800.309 451.789
2397 0 72.0964 12.7607 920 140.204 800.265 452.46
2398 0 79.1421 12.1933 965 120.65 802.574 455.419
2399 0 79.1421 12.2185 967 145.797 804.594 455.455
2400 0 87.137 17.0536 1486 112.705 802.573 460.713
2401 0 87.3194 11.7614 1027 123.059 801.256 458.63
2402 0 91.2689 13.6301 1244 118.403 801.289 463.041
2403 0 95.2979 15.142 1443 118.008 800.475 457.834
2404 0 99.2776 13.4975 1340 121.125 800.995 457.129
2405 0 103.116 13.4024 1382 121.815 800.296 455.707
2406 0 101.201 11.5711 1171 128.39 799.994 450.679
2407 0 107.201 14.3843 1542 122.241 800.075 453.35
2408 0 111.548 12.4341 1387 124.855 800.019 453.486
2409 0 115.236 13.3292 1536 123.47 799.284 448.284
2410 0 120.39 13.5476 1631 123.175 798.166 447.167
2411 0 124.4 13.4807 1677 123.506 797.98 447.05
2412 0 129.319 13.8262 1788 125.818 796.643 435.747
2413 0 129.319 13.803 1785 136.987 794.663 435.505
2414 1 79.2675 10.6475 844 120.84 796.774 463.998
2415 0 78.1398 11.3131 884 119.932 795.669 458.287
2416 0 81.118 14.4727 1174 114.693 794.734 458.846
2417 0 85.1714 12.5394 1068 116.957 794.366 455.929
2418 0 90.1119 12.9062 1163 115.63 794.12 457.332
2419 0 89.3262 13.0869 1169 116.182 794.676 450.162
2420 0 94.5983 12.7804 1209 116.309 794.887 453.032
2421 0 95.2855 10.1589 968 121.332 794.161 448.685
2422 0 96.2737 10.8233 1042 120.923 794.96 440.988
2423 0 103.146 12.6035 1300 117.038 794.947 438.182
2424 0 101.256 12.6807 1284 117.038 794.862 445.92
2425 0 105.272 13.1089 1380 116.917 794.935 432.278
2426 0 100.26 14.223 1426 117.264 795.378 434.196
2427 0 106.19 14.1539 1503 117.094 795.019 434.001
2428 0 111.116 12.9954 1444 119.278 796.008 429.229
2429 0 121.13 15.6938 1901 113.338 796.217 433.004
2430 0 120.283 11.3815 1369 122.034 797.15 424.881
2431 0 119.378 13.4279 1603 119.405 797.758 418.324
2432 0 128.272 14.1107 1810 118.201 798.538 415.332
2433 0 128.274 14.1806 1819 114.52 798.537 415.386
2434 0 138.46 13.1374 1819 119.881 799.914 420.171
2435 1 87.184 11.3209 987 117.488 799.453 450.035
2436 0 87.2193 10.9379 954 118.609 801.733 445.102
2437 0 93.1985 15.4402 1439 110.509 801.582 450.243
2438 0 92.1753 8.82015 813 123.358 801.456 447.1
2439 0 99.1614 13.3419 1323 115.559 801.246 451.41
2440 0 100.253 9.486 951 121.295 802.02 454.527
2441 0 103.233 11.4208 1179 120.66 801.819 442.917
2442 0 108.202 12.5413 1357 118.312 802.632 448.137
2443 0 113.168 11.2665 1275 121.009 800.554 445.813
2444 0 115.121 10.0416 1156 121.21 801.884 458.3
2445 0 121.284 14.264 1730 116.083 800.234 451.465
2446 0 123.197 11.8428 1459 121.826 801.358 452.624
2447 0 126.286 13.0181 1644 122.204 800.206 443.042
2448 0 132.313 12.4024 1641 123.148 799.245 443.133
2449 0 136.216 13.5887 1851 121.09 798.553 444.405
2450 0 143.361 13.3718 1917 123.472 798.86 433.72
2451 0 148.43 11.3589 1686 129.125 798.563 434.966
2452 1 86.3485 10.3881 897 125.2 797.724 463.894
2453 0 91.2728 12.5119 1142 121.085 797.241 465.285
2454 0 94.5286 12.6205 1193 121.947 796.48 463.039
2455 0 96.3764 14.4226 1390 122.132 796.122 456.842
2456 0 99.5716 13.6886 1363 123.071 795.09 455.022
2457 0 101.598 14.3605 1459 121.671 795.084 454.226
2458 0 105.336 11.7339 1236 128.136 795.304 447.043
2459 0 107.701 13.6396 1469 122.243 794.558 454.107
2460 0 113.543 14.6376 1662 122.222 795.115 446.396
2461 0 115.53 13.9098 1607 124.201 794.797 442.796
2462 0 117.498 13.1236 1542 123.754 794.204 447.211
2463 0 119.347 10.8423 1294 130.408 795.267 440.849
2464 0 122.489 10.3193 1264 129.75 794.851 439.428
2465 0 123.515 11.5533 1427 126.961 794.533 438.899
2466 0 131.585 12.7598 1679 126.239 794.572 430.8
2467 0 135.411 12.5617 1701 126.1 794.984 437.235
2468 0 139.463 13.9392 1944 122.538 795.377 430.897
2469 0 141.7 11.362 1610 127.557 796.384 425.357
2470 0 146.546 13.0744 1916 125.341 795.522 420.111
2471 0 151.491 13.3275 2019 124.382 796.017 419.612
2472 0 155.734 14.4734 2254 122.547 796.245 419.957
2473 0 160.519 13.88 2228 124.996 796.508 411.433
2474 0 164.474 14.9081 2452 123.331 797.334 405.292
2475 0 168.829 15.6727 2646 122.75 798.582 410.078
2476 0 173.537 15.7545 2734 121.771 797.92 415.79
2477 0 177.596 13.7447 2441 129.535 800.169 398.766
2478 0 187.777 15.7793 2963 124.634 799.578 403.8
2479 0 187.777 13.793 2590 151.522 798.528 406.851
2480 0 187.795 13.7437 2581 151.131 797.519 406.827
2481 1 201.641 15.5028 3126 125.751 801.947 395.846
2482 0 204.69 16.2441 3325 142.178 807.05 395.361
2483 0 202.768 15.7224 3188 143.618 810.961 396.806
2484 0 204.526 10.4926 2146 131.42 801.026 409.381
2485 0 209.945 11.0124 2312 123.581 801.626 426.028
2486 1 171.487 10.1524 1741 127.889 801.318 427.265
2487 0 179.529 13.1622 2363 126.713 800.792 408.491
2488 0 189.611 11.4287 2167 127.729 800.371 417.433
2489 0 195.472 13.6336 2665 125.092 800.216 407.849
2490 0 199.405 11.2384 2241 129.942 800.736 402.77
2491 0 209.677 12.8197 2688 128.355 799.048 395.397
2492 1 17.0038 8.17463 139 96.7914 796.763 502.748
2493 0 14.0028 4.28484 60 100.517 797.05 503.2
2494 0 21.0179 2.23619 47 103.957 795.638 498.617
2495 0 13.039 4.52488 59 103.203 796.576 496.763
2496 0 13.039 4.60158 60 98.6833 797.65 496.733
2497 0 16.0318 5.80097 93 100.849 795.731 497.419
2498 0 17.0194 8.93097 152 97.4276 794.625 495.941
2499 0 17.0194 8.81345 150 94.8533 793.58 495.913
2500 0 9.00192 5.3322 48 100.188 794.646 498.062
2501 0 13.0096 4.68885 61 100.377 795.262 487.377
2502 0 14.04 3.77492 53 99.6981 795.736 488.302
2503 0 10.0023 3.19927 32 103.094 795.875 487.844
2504 1 234.495 14.1794 3325 121.804 794.249 376.878
2505 0 242.332 16.7993 4071 117.344 794.422 370.46
2506 0 248.597 12.8722 3200 126.819 794.482 360.362
2507 0 255.568 18.3122 4680 117.489 794.774 361.267
2508 0 257.734 12.5983 3247 128.467 795.108 359.414
2509 0 257.514 9.46743 2438 128.822 795.364 383.308
2510 0 261.584 11.6291 3042 126.186 796.045 381.185
2511 1 82.1971 8.35796 687 117.654 795.898 450.505
2512 0 83.2544 10.9544 912 112.564 796.455 452.831
2513 0 86.129 14.0255 1208 111.05 796.848 454.001
2514 0 89.2239 12.3958 1106 115.072 797.433 453.105
2515 0 90.3226 10.8279 978 117.658 798.558 449.775
2516 0 90.3226 10.8057 976 137.458 799.583 449.612
2517 0 94.1973 14.4272 1359 113.829 800.648 443.772
2518 0 99.3147 12.2036 1212 116.592 800.321 446.476
2519 0 100.206 9.16111 918 116.914 800.273 448.873
2520 0 100.206 9.28086 930 128.284 800.274 448.794
2521 0 108.13 13.8536 1498 110.35 801.692 447.117
2522 0 113.182 14.2426 1612 108.607 800.742 448.884
2523 0 112.19 10.2237 1147 116.921 801.692 442.738
2524 0 121.212 11.9955 1454 111.132 800.56 442.994
2525 0 118.263 8.60796 1018 119.01 802.18 436.228
2526 0 125.287 11.8528 1485 113.457 801.818 444.386
2527 0 137.449 19.018 2614 101.366 802.016 434.224
2528 0 138.29 12.8281 1774 111.331 801.013 431.058
2529 0 138.373 10.9559 1516 114.923 799.801 435.11
2530 0 145.192 13.8299 2008 111.412 800.965 432.057
2531 0 149.432 13.1096 1959 112.573 800.154 432.486
2532 0 155.293 16.5493 2570 107.761 800.121 435.302
2533 0 157.379 11.8694 1868 115.144 798.654 431.087
2534 0 167.51 11.8023 1977 114.686 798.004 435.41
2535 0 164.166 12.7493 2093 115.685 797.461 424.088
2536 0 173.326 14.9198 2586 111.815 797.115 421.218
2537 0 176.452 14.0775 2484 111.902 796.341 427.136
2538 0 181.192 14.8295 2687 111.795 795.745 425.103
2539 0 189.357 13.9472 2641 114.116 794.747 418.593
2540 0 196.435 14.6817 2884 112.208 794.085 421.134
2541 0 201.348 13.6679 2752 116.516 795.02 404.504
2542 0 205.588 14.529 2987 115.678 794.636 400.161
2543 0 211.496 14.4683 3060 116.564 795.473 398.387
2544 0 338.555 27.1891 9205 97.6801 793.785 330.723
2545 0 335.976 32.5291 10929 94.193 793.785 311.349
2546 1 279.638 11.5793 3238 118.945 795.068 383.256
2547 1 234.406 13.9075 3260 115.763 795.133 395.911
2548 0 239.46 14.1903 3398 117.172 794.87 375.076
2549 0 246.503 12.8518 3168 119.024 795.58 379.188
2550 0 254.458 18.1405 4616 109.668 794.922 379.919
2551 1 69.1515 6.00131 415 104.896 796.337 467.619
2552 0 73.4156 12.259 900 101.021 797.038 464.192
2553 0 71.0929 6.82206 485 108.175 797.988 461.581
2554 0 76.3159 11.3083 863 101.615 795.023 463.093
2555 0 76.1276 10.5218 801 101.174 796.755 467.381
2556 0 79.1261 10.3 815 104.141 796.252 456.758
2557 0 82.2882 10.7306 883 103.018 797.24 461.358
2558 0 85.1539 12.4011 1056 101.765 798.037 456.653
2559 0 87.2563 12.0908 1055 103.1 799.587 455.246
2560 0 84.3194 9.61819 811 125.737 801.599 453.445
2561 0 90.0979 13.0414 1175 102.622 799.736 455.993
2562 0 94.2062 8.86354 835 106.61 801.115 460.716
2563 0 100.305 12.8808 1292 101.97 801.952 457.772
2564 0 95.3411 6.81762 650 112.603 802.163 451.931
2565 0 104.164 11.3571 1183 105.301 801.283 454.292
2566 0 106.272 11.1412 1184 106.212 801.997 450.024
2567 0 110.286 9.74741 1075 107.605 801.269 435.152
2568 0 111.579 10.8353 1209 107.76 802.285 447.596
2569 0 115.214 8.96596 1033 110.314 800.855 448.178
2570 0 115.234 10.7347 1237 107.669 800.331 451.826
2571 0 123.169 10.7982 1330 109.418 799.706 441.655
2572 0 128.22 10.482 1344 110.529 800.121 439.103
2573 0 131.215 8.0326 1054 115.134 799.557 430.535
2574 0 136.173 10.3325 1407 111.886 799.756 424.692
2575 0 142.284 14.7521 2099 104.272 798.896 431.648
2576 0 149.364 13.6646 2041 107.027 798.703 427.328
2577 0 150.214 12.4556 1871 110.638 797.393 413.918
2578 0 151.298 10.3174 1561 113.783 797.189 410.721
2579 0 159.673 11.9244 1904 110.757 796.441 414.194
2580 1 77.234 11.3551 877 100.298 794.926 457.591
2581 0 81.1144 9.34483 758 106.85 794.802 443.022
2582 0 83.4744 12.974 1083 103.58 794.922 450.905
2583 0 88.7764 15.387 1366 99.1574 794.187 454.69
2584 0 89.342 17.8415 1594 97.5928 792.922 446.891
2585 0 88.2432 16.7718 1480 98.3804 794.245 449.924
2586 0 90.2715 13.0828 1181 102.092 792.309 448.431
2587 0 90.1581 14.8739 1341 100.791 792.861 447.066
2588 0 91.2829 12.0943 1104 105.573 793.371 444.838
2589 0 95.1934 18.9824 1807 96.301 794.393 440.573
2590 0 98.1919 11.1007 1090 107.15 794.18 439.635
2591 0 99.3216 17.9619 1784 98.1637 795.039 442.654
2592 0 104.269 13.4939 1407 103.643 795.866 449.614
2593 0 101.227 14.5316 1471 102.929 796.664 448.665
2594 0 106.221 17.6047 1870 98.392 796.624 450.36
2595 0 110.34 14.3465 1583 103.513 797.793 440.923
2596 0 110.239 16.5005 1819 100.857 797.678 443.517
2597 0 113.541 13.9157 1580 104.291 798.732 441.43
2598 0 117.511 14.237 1673 101.23 800.011 436.423
2599 0 120.272 14.1263 1699 101.677 799.573 433.863
2600 0 123.368 15.166 1871 101.413 799.722 434.147
2601 0 124.202 12.3186 1530 106.674 800.323 425.575
2602 1 15.0057 9.46308 142 86.3944 800.092 487.768
2603 0 12.0415 5.81322 70 88.6571 800.657 492.114
2604 0 15.0155 2.86371 43 90.7209 801.256 493.186
2605 0 18.0433 7.03864 127 88.3858 800.968 490.945
2606 0 18.0676 7.41658 134 84.8582 801.09 494.873
2607 1 151.248 12.0861 1828 107.034 800.444 422.543
2608 0 152.294 14.4457 2200 105.129 801.01 417.048
2609 0 162.362 13.4268 2180 106.332 801.004 420.002
2610 0 169.323 14.7233 2493 105.05 800.475 415.216
2611 0 179.573 12.0954 2172 107.878 799.87 430.63
2612 1 105.206 13.1647 1385 101.105 800.297 458.79
2613 0 111.398 14.8028 1649 98.5258 801.075 455.441
2614 0 117.269 14.8462 1741 98.9569 799.316 455.102
2615 0 119.522 12.8261 1533 102.385 798.498 450.087
2616 0 121.401 10.7495 1305 105.755 798.116 441.566
2617 0 126.395 14.3361 1812 101.267 797.889 447.953
2618 0 128.345 13.791 1770 101.477 796.859 436.478
2619 0 135.417 18.2105 2466 95.2165 796.346 446.541
2620 0 130.3 8.95627 1167 109.203 795.776 435.29
2621 0 143.843 16.7822 2414 98.1272 795.49 434.743
2622 0 143.428 14.509 2081 101.437 795.366 427.317
2623 0 149.388 13.803 2062 101.794 795.109 435.627
2624 0 151.45 12.6774 1920 105.671 795.203 419.019
2625 0 155.368 12.6731 1969 105.978 794.288 420.67
2626 0 162.434 15.9572 2592 101.228 794.474 425.014
2627 0 163.421 12.7707 2087 106.881 794.429 417.569
2628 0 169.334 13.0393 2208 107.469 795.279 402.318
2629 0 176.371 15.4561 2726 102.905 794.588 413.913
2630 1 190.475 11.802 2248 107.468 795.649 406.651
2631 0 186.279 10.8386 2019 109.128 795.46 406.686
2632 0 193.403 16.282 3149 102.816 796.06 400.711
2633 0 198.282 13.6624 2709 107.257 795.706 391.302
2634 0 198.262 14.5565 2886 108.292 796.21 382.678
2635 1 216.508 10.9696 2375 108.05 796.418 405.413
2636 0 221.393 16.5453 3663 102.501 797.54 398.115
2637 0 221.416 14.5202 3215 108.174 797.549 383.699
2638 0 331.04 20.8706 6909 101.788 798.923 317.287
2639 0 328.733 13.19 4336 112.083 798.147 325.013
2640 0 329.621 8.88598 2929 112.833 800.299 362.68
2641 0 331.993 9.59056 3184 113.152 800.302 351.197
2642 0 341.275 26.3278 8985 90.6071 800.781 310.543
2643 1 318.738 12.2954 3919 104.385 802.88 342.22
2644 0 350.333 31.7298 11116 86.9108 801.801 305.384
2645 1 313.023 9.69259 3034 103.515 801.243 379.961
2646 1 289.978 18.2462 5291 94.4984 801.1 381.809
2647 1 90.2272 12.801 1155 95.8398 801.123 464.804
2648 0 94.6726 12.7703 1209 94.9917 801.201 466.5
2649 0 93.2832 11.7492 1096 98.2108 800.562 457.802
2650 0 95.2493 13.3649 1273 96.7486 799.313 460.949
2651 0 99.2904 18.6524 1852 91.4034 797.978 464.401
2652 0 103.365 16.5336 1709 93.3177 798.69 465.566
2653 0 105.476 15.0081 1583 95.7606 797.219 462.243
2654 0 105.44 11.5516 1218 100.688 795.663 453.089
2655 0 108.394 9.47473 1027 101.857 795.148 457.807
2656 0 113.276 15.1754 1719 95.8441 794.872 455.937
2657 0 114.48 15.8892 1819 96.3288 794.329 448.655
2661 1 134.328 20.2787 2724 91.0316 793.306 424.365
2662 0 134.485 11.4287 1537 100.601 793.069 410.709
2663 0 139.345 14.5466 2027 96.997 792.648 417.047
2664 1 86.1657 13.2999 1146 98.7967 793.676 434.675
2665 0 91.3339 12.9525 1183 97.7371 794.336 433.117
2666 0 89.2011 13.3519 1191 138.905 795.308 432.865
2667 0 95.3526 14.3782 1371 98.6098 793.775 425.265
2668 0 97.5735 14.0099 1367 99.1331 794.334 429.073
2669 0 99.3302 12.9266 1284 100.705 794.247 430.716
2670 0 101.137 15.6323 1581 98.5591 794.93 431.509
2671 0 104.239 18.4192 1920 94.0885 793.81 440.003
2672 0 104.166 10.2049 1063 104.842 794.674 431.682
2673 0 110.704 16.2234 1796 98.6353 795.326 439.08
2674 0 113.305 15.8599 1797 98.1213 796.827 443.969
2675 0 115.32 22.3292 2575 91.1922 796.611 452.224
2676 0 120.332 16.2965 1961 98.1219 797.53 437.72
2677 0 122.483 12.81 1569 101.418 797.797 439.518
2678 0 127.436 14.266 1818 99.967 797.504 436.889
2679 0 130.265 11.4075 1486 101.076 798.516 431.796
2680 0 137.37 14.9159 2049 99.4109 798.78 421.343
2681 0 141.501 18.9256 2678 96.4156 799.446 426.941
2682 0 143.623 17.6225 2531 96.5235 800.054 436.951
2683 0 149.492 17.3655 2596 97.178 799.768 435.574
2684 1 87.264 17.7736 1551 95.0864 800.665 463.777
2685 0 87.4911 10.5268 921 102.469 799.255 462.346
2686 0 89.259 11.4834 1025 102.14 799.053 456.374
2687 0 94.3202 13.7298 1295 98.7421 799.133 462.543
2688 0 97.4719 17.1331 1670 96.3048 800.164 456.802
2689 0 98.3331 14.4 1416 99.0975 799.643 458.604
2690 0 103.26 13.8001 1425 98.5256 799.201 462.824
2691 0 106.41 16.6526 1772 94.627 798.73 466.915
2692 0 107.219 18.6815 2003 94.6176 799.696 459.291
2693 0 109.426 12.6752 1387 100.963 798.162 457.869
2694 0 113.417 20.7287 2351 93.1484 797.725 460.106
2695 0 117.39 15.342 1801 99.156 797.123 454.957
2696 0 115.505 8.70096 1005 107.955 795.492 443.889
2697 0 123.501 14.9634 1848 99.1456 795.574 450.162
2698 0 127.348 16.2154 2065 97.6906 795.01 446.18
2699 0 133.266 11.2932 1505 99.8419 794.25 451.247
2700 0 135.367 19.0075 2573 92.2565 794.508 447.797
2701 0 137.554 13.8709 1908 102.422 794.34 442.089
2702 0 146.447 13.9368 2041 89.7349 793.372 428.736
2703 0 151.684 9.19673 1395 92.2961 793.006 441.348
2704 0 155.612 16.8817 2627 86.2166 793.015 437.577
2705 1 92.4522 12.4713 1153 87.3452 792.56 459.699
2706 0 98.9896 18.4868 1830 82.1787 793.157 462.267
2707 0 100.485 12.5591 1262 87.6846 792.356 457.632
2708 0 99.4509 7.20959 717 91.8703 791.979 460.342
2709 0 106.524 14.4005 1534 86.5085 793.064 456.015
2710 0 104.353 12.7165 1327 89.2931 792.831 442.482
2711 0 113.522 18.6571 2118 83.118 793.771 459.28
2712 0 112.519 14.051 1581 89.0342 794.225 444.013
2713 0 111.3 12.6954 1413 91.0778 794.229 440.649
2714 0 112.446 10.156 1142 92.2898 794.398 450.363
2715 0 119.498 16.2429 1941 87.1324 795.736 446.483
2716 0 125.461 22.5169 2825 83.0605 795.456 448.02
2717 0 129.697 20.517 2661 85.5528 795.197 437.065
2718 0 130.563 16.697 2180 89.1335 795.854 428.59
2719 0 137.315 15.672 2152 88.7941 796.617 439.102
2720 0 137.834 11.0785 1527 94.3281 797.208 432.929
2721 1 257.889 30.8466 7955 82.6573 796.266 391.851
2722 0 262.125 13.9209 3649 94.8238 797.908 380.907
2723 1 210.624 13.0565 2750 94.9349 798.459 403.288
2724 0 219.613 13.8699 3046 95.5305 798.864 384.823
2725 1 90.1244 16.4217 1480 88.6723 799.317 446.831
2726 0 96.338 13.2347 1275 92.3718 798.669 443.409
2727 0 97.744 14.1901 1387 89.5876 798.57 452.482
2728 0 100.441 13.0226 1308 91.828 799.878 443.114
2729 0 100.417 14.3103 1437 90.8309 800.374 454.896
2730 0 106.377 14.8434 1579 91.0823 800.212 450.531
2731 0 107.372 13.9608 1499 91.9059 799.55 454.248
2732 0 111.524 18.4445 2057 89.6009 799.826 440.241
2733 0 114.321 12.9022 1475 94.7919 799.772 440.605
2734 0 117.344 21.4412 2516 87.5704 799.095 446.01
2735 0 116.753 10.792 1260 94.3214 799.407 456.831
2736 0 123.486 13.5967 1679 95.1715 798.299 440.214
2737 0 122.482 15.5534 1905 93.8604 798.888 436.279
2738 1 134.475 16.2558 2186 92.0302 797.508 441.594
2739 0 137.431 18.1546 2495 90.3423 797.862 441.898
2740 0 139.7 14.9964 2095 94.1723 796.461 438.351
2741 0 142.841 13.6375 1948 96.3907 795.822 432.543
2742 0 147.666 15.0881 2228 94.7971 795.525 429.756
2743 0 150.831 13.9692 2107 95.8073 794.77 420.217
2744 0 150.831 13.9361 2102 145.952 795.764 420.227
2745 0 161.626 21.8591 3533 88.799 793.272 422.648
2746 1 247.594 22.8277 5652 89.0635 792.768 398.383
2747 1 168.668 17.3418 2925 91.8848 793.852 423.051
2748 0 177.744 20.1582 3583 88.4904 792.411 428.802
2749 0 176.597 14.2528 2517 95.9488 793.728 412.055
2750 1 192.968 16.9354 3268 92.6916 792.303 405.328
2751 0 189.564 12.0698 2288 97.9965 793.14 395.889
2752 0 201.2 20.0994 4044 90.1377 793.004 401.79
2753 0 208.519 27.7001 5776 85.5727 793.027 395.896
2754 0 213.63 22.5764 4823 95.7402 794.688 392.355
2755 0 217.837 16.393 3571 101.158 794.532 393.53
2756 0 221.597 9.8467 2182 106.646 795.42 398.846
2757 0 230.091 12.5516 2888 103.839 795.965 384.229
2758 1 297.922 11.7682 3506 106.749 796.371 350.645
2759 1 60.1906 15.1519 912 91.8936 796.477 468.89
2760 0 65.7069 16.9084 1111 90.8524 797.307 461.747
2761 0 65.7069 17.1215 1125 114.412 799.34 461.893
2762 0 66.3046 9.5921 636 98.728 797.395 459.764
2763 0 70.8285 14.4575 1024 93.123 799.405 464.39
2764 0 72.505 11.8888 862 96.0916 799.978 462.491
2765 0 69.2722 10.235 709 97.5811 799.467 459.732
2766 0 77.4369 15.0833 1168 91.0351 799.332 465.7
2767 0 80.5791 14.5695 1174 92.8066 801.29 460.442
2768 0 79.3144 10.3386 820 96.7695 800.218 461.739
2769 0 81.3406 12.6997 1033 94.7415 801.949 461.069
2770 0 82.2287 16.065 1321 92.3785 801.316 454.048
2771 0 83.4575 12.1858 1017 95.9489 801.104 457.939
2772 0 88.2315 15.6633 1382 92.1534 801.674 460.596
2773 0 86.2953 15.4354 1332 93.8709 801.028 450.544
2774 0 93.4186 12.5992 1177 96.4044 801.584 457.772
2775 0 92.3132 11.3743 1050 98.7114 800.344 456.934
2776 0 97.3716 20.1702 1964 88.4048 800.476 469.811
2777 0 100.334 13.1661 1321 96.4936 800.871 460.332
2778 0 100.311 9.79952 983 100.972 800.18 460.52
2779 0 102.357 14.723 1507 95.8885 799.062 451.108
2780 0 106.518 15.7908 1682 95.5809 799.741 444.325
2781 0 109.932 20.9947 2308 91.6204 799.394 437.672
2782 0 112.557 13.7708 1550 98.4361 799.725 440.461
2783 0 113.434 16.0622 1822 96.0445 798.493 439.615
2784 0 115.579 12.2427 1415 99.8071 797.519 437.062
2785 0 123.656 14.605 1806 96.8666 797.466 432.302
2788 0 239.053 11.5916 2771 100.496 795.471 393.027
2789 0 241.063 10.6362 2564 102.254 795.185 397.156
2790 0 243.162 17.0339 4142 96.205 795.487 397.843
2791 1 141.495 24.7783 3506 88.3691 795.214 435.489
2792 0 155.626 18.448 2871 92.7955 795.533 428.28
2793 0 156.477 12.5449 1963 96.9042 795.065 431.081
2794 1 89.2954 13.5393 1209 94.2117 794.962 453.147
2795 0 95.8681 18.7236 1795 88.341 795.369 450.229
2796 0 99.2713 22.8465 2268 85.6737 795.002 440.144
2797 0 300.804 17.6892 5321 95.6687 795.104 352.97
2798 1 179.647 14.1611 2544 97.6317 796.21 401.053
2799 0 185.974 12.6577 2354 99.0858 796.489 393.112
2800 0 196.729 17.2928 3402 93.3054 797.284 403.908
2801 1 108.273 12.3207 1334 93.922 797.558 443.696
2802 0 110.38 13.7344 1516 94.0165 797.186 431.338
2803 1 215.409 20.1059 4331 91.7123 797.123 393.318
2804 1 116.234 21.1126 2454 88.1838 798.623 435.242
2805 0 116.317 14.0135 1630 96.508 798.91 420.322
2806 0 122.373 22.4477 2747 89.1165 799.169 430.952
2807 0 129.729 12.3565 1603 96.5677 799.551 429.837
2808 0 132.421 15.6168 2068 94.8361 799.987 413.588
2809 0 140.481 28.4238 3993 85.3095 800.944 429.197
2810 0 138.589 13.4787 1868 97.5471 800.867 421.375
2811 0 147.342 23.7949 3506 87.2239 801.12 434.647
2812 1 86.7539 17.152 1488 90.5262 801.662 455.377
2813 0 86.1921 15.0594 1298 93.3089 802.337 454.431
2814 0 93.3008 20.6644 1928 89.6857 802.318 449.921
2815 0 92.3545 30.8269 2847 83.7011 801.086 455.016
2816 0 97.2802 14.9465 1454 96.3968 801.837 449.501
2817 0 94.3221 9.6796 913 102.927 802.45 450.554
2818 0 104.455 17.7494 1854 94.1775 801.736 450.703
2819 0 100.495 9.84126 989 103.87 801.428 448.557
2820 1 190.651 15.5887 2972 100.98 800.977 409.594
2821 0 196.941 22.4788 4427 94.098 801.109 410.937
2822 0 203.59 19.7504 4021 98.6232 800.842 400.328
2823 1 118.444 18.5488 2197 96.183 799.757 440.613
2824 0 119.397 15.93 1902 98.7119 799.209 443.256
2825 0 124.428 15.2538 1898 99.5227 798.098 440.572
2826 0 131.324 16.2499 2134 98.1738 798.028 441.138
2827 0 134.619 17.4789 2353 95.9949 797.972 444.699
2828 0 135.267 15.1921 2055 100.151 796.978 433.292
2829 1 147.454 13.1092 1933 101.465 796.521 430.977
2830 0 145.527 13.7019 1994 102.004 796.306 428.894
2831 0 152.563 17.9532 2739 98.418 796.072 423.196
2832 0 159.271 17.5048 2788 98.9846 794.736 420.943
2833 0 162.388 12.0699 1960 103.641 794.626 419.104
2834 0 160.483 10.6865 1715 105.912 794.408 416.493
2835 0 160.538 11.9411 1917 107.061 794.451 395.573
2836 0 180.251 24.6712 4447 92.5453 794.285 419.043
2837 0 185.482 20.7244 3844 97.0192 794.332 408.306
2838 0 190.919 18.3324 3500 99.054 795.419 407.401
2839 0 195.53 17.0153 3327 102.693 795.127 390.958
2840 0 203.46 31.5541 6420 91.0467 795.184 396.262
2841 0 205.576 16.9037 3475 103.75 797.004 385.63
2842 0 215.84 17.5593 3790 102.23 796.144 390.369
2843 0 218.79 19.0183 4161 101.962 795.628 384.696
2844 1 163.813 16.8241 2756 100.308 797.28 413.858
2845 0 166.391 15.2592 2539 103.959 797.682 398.351
2846 0 170.406 18.9899 3236 100.784 799.037 399.341
2847 0 174.506 15.5639 2716 104.844 798.382 395.531
2848 0 180.487 14.2947 2580 106.631 800.214 393.241
2849 0 190.812 15.4079 2940 105.403 800.026 392.672
2850 0 193.39 12.7359 2463 109.939 800.648 381.784
2851 1 218.569 12.376 2705 106.414 800.628 399.877
2852 0 216.508 12.2767 2658 109.443 800.988 388.333
2853 0 220.464 17.5766 3875 102.599 801.166 394.885
2854 0 221.452 13.2579 2936 112.003 802.256 368.763
2855 1 246.578 13.663 3369 105.929 802.933 397.972
2856 0 253.835 18.8823 4793 101.952 803.459 394.249
2857 0 254.76 16.9454 4317 105.93 802.452 380.729
2858 0 263.778 22.0489 5816 101.134 803.365 382.743
2859 0 267.985 13.7284 3679 113.46 803.078 357.313
2860 0 278.752 15.3828 4288 110.693 803.215 362.974
2861 0 214.733 15 3221 108.37 803.62 401.754
2862 0 217.727 12.6443 2753 113.657 803.35 382.008
2863 0 228.774 16.2693 3722 108.156 803.585 390.39
2864 0 237.727 13.4987 3209 111.63 802.562 393.056
2865 0 247.995 14.5245 3602 111.023 802.268 384.348
2866 1 260.166 16.0551 4177 108.512 802.133 374.381
2867 0 264.625 15.1195 4001 110.432 802.708 376.033
2868 0 274.648 15.427 4237 111.354 801.479 364.776
2869 0 283.181 15.6366 4428 110.168 799.941 364.678
2870 0 292.204 15.7459 4601 110.481 799.127 352.773
2871 0 304.206 24.1415 7344 102.308 799.923 349.85
2872 1 239.118 15.8373 3787 106.867 798.764 393.461
2873 0 243.887 14.2033 3464 108.648 798.67 392.568
2874 0 248.754 15.5937 3879 109.547 797.148 375.586
2875 0 258.932 15.4867 4010 109.974 797.211 380.306
2876 0 266.058 16.331 4345 108.615 796.743 378.627
2877 0 273.235 16.4547 4496 110.296 796.707 359.656
2878 0 273.814 11.4421 3133 112.769 795.847 383.533
2879 1 229.838 10.5117 2416 111.551 795.524 405.436
2880 0 227.488 13.9831 3181 111.487 795.222 386.399
2881 0 233.577 11.4352 2671 116.903 796.074 350.633
2882 0 244.239 15.665 3826 109.117 795.93 357.896
2883 0 248.982 12.2378 3047 114.185 797.321 346.365
2884 0 255.018 12.0541 3074 114.001 796.636 350.116
2885 0 260.942 11.9413 3116 115.619 796.944 332.813
2887 0 362.007 22.4692 8134 104.469 797.499 286.034
2892 0 340.117 15.7711 5364 110.497 800.298 334.098
2893 0 351.195 29.6388 10409 97.7232 800.101 302.804
2894 0 361.361 29.3612 10610 97.6106 801.226 318.777
2895 0 291.023 16.6035 4832 105.722 801.965 364.356
2896 0 291.087 14.0886 4101 111.949 802.507 339.089
2897 0 302.043 18.7357 5659 105.647 802.879 342.733
2898 0 309.754 13.6657 4233 111.869 803.61 332.242
2899 0 328.645 26.2137 8615 97.1785 804.036 302.377
2900 0 332.84 22.8188 7595 100.924 805.06 308.851
2901 0 344.199 25.5172 8783 97.9661 804.841 316.105
2902 0 354.414 24.5984 8718 99.1433 804.443 317.853
2903 0 372.249 30.9524 11522 94.0203 804.221 320.02
2904 0 377.703 30.8179 11640 94.2397 803.485 298.207
2908 0 381.068 23.4263 8927 94.4122 802.342 293.875
2911 0 384.976 32.9865 12699 89.4154 800.957 305.034
2912 0 183.186 22.0705 4043 89.6888 800.727 410.615
2913 0 187.902 29.6432 5570 85.2953 800.291 406.98
2914 0 177.496 35.0149 6215 84.6668 799.941 417.354
2915 0 179.639 25.0391 4498 90.9464 797.885 414.73
2916 0 176.411 15.787 2785 99.3181 798.372 426.217
2917 0 178.698 12.1714 2175 105.052 797.69 411.296
2918 0 183.473 18.2207 3343 95.5501 796.833 431.895
2919 0 187.534 16.4771 3090 97.5288 796.322 427.744
2920 0 192.693 14.562 2806 103.04 796.895 406.766
2921 0 197.639 14.3899 2844 103.348 796.414 403.616
2923 0 381.737 22.1409 8452 90.5634 795.154 321.843
2924 0 215.836 25.0329 5403 93.1949 795.596 392.931
2925 0 230.433 26.1725 6031 92.7886 796.271 370.522
2926 0 231.997 22.4227 5202 96.57 796.55 388.281
2927 0 235.316 23.0456 5423 96.7634 797.065 377.141
2928 0 244.918 26.6987 6539 94.2381 797.112 381.244
2929 0 242.546 28.6256 6943 94.3342 797.55 369.027
2930 0 252.596 25.7685 6509 96.8361 797.613 351.838
2931 0 261.241 22.7376 5940 99.2303 798.444 345.738
2932 0 269.932 21.9425 5923 100.294 798.11 346.601
2933 0 274.124 26.2108 7185 97.6913 798.377 340.576
2934 0 287.312 32.101 9223 93.4037 798.262 348.366
2935 1 214.038 9.05449 1938 107.574 801.21 408.332
2936 0 215.562 10.2384 2207 111.513 800.357 372.715
2937 0 224.86 13.8397 3112 105.515 800.155 387.89
2938 0 231.627 11.5055 2665 108.143 801.437 380.562
2939 1 89.3788 10.2485 916 95.9421 802.306 451.346
2940 0 90.3043 8.48243 766 98.9178 803.35 448.714
2941 0 88.3615 7.77488 687 98.2853 802.255 448.964
2942 0 91.4518 4.50511 412 98.699 801.488 460.891
2943 0 94.3777 6.23028 588 98.7908 802.424 452.585
2944 0 96.1489 9.13167 878 97.2005 803.5 448.792
2945 1 286.753 13.1472 3770 105.204 804.093 358.169
2946 0 383.039 27.6551 10593 96.9544 803.257 287.948
2948 0 377.218 38.617 14567 90.1154 801.779 303.878
2951 1 293.061 13.905 4075 101.401 802.028 374.353
2952 1 120.423 13.2948 1601 95.5278 801.239 448.482
2953 0 122.373 12.7397 1559 96.5285 801.463 433.808
2954 0 126.535 10.0367 1270 98.8496 800.43 450.893
2955 0 131.38 15.4742 2033 95.818 800.042 441.604
2956 0 135.387 13.6793 1852 98.3191 798.6 440.384
2957 0 140.384 11.3403 1592 103.096 798.024 431.825
2958 0 146.455 16.6809 2443 97.4102 797.714 437.257
2959 0 146.482 14.7526 2161 101.231 797.484 428.052
2960 0 148.592 13.6078 2022 101.905 795.602 435.61
2961 0 150.485 12.9182 1944 104.591 795.968 430.067
2962 0 154.379 11.9576 1846 107.572 795.434 422.544
2963 0 156.468 13.8111 2161 105.736 795.982 422.008
2967 0 177.018 18.4162 3260 98.2018 796.09 391.668
2968 1 102.497 12.0589 1236 99.4426 795.923 444.811
2969 0 105.483 10.4377 1101 103.064 795.758 446.039
2970 0 105.583 8.1263 858 105.803 796.214 445.171
2971 0 108.524 9.13166 991 107.834 796.4 430.266
2972 0 114.811 13.7269 1576 100.848 798.239 439.132
2973 0 118.716 17.4113 2067 96.6309 798.305 436.235
2974 0 119.565 8.41381 1006 107.185 797.423 429.856
2975 0 124.444 13.4679 1676 102.696 798.011 425.143
2976 0 126.766 13.5131 1713 101.736 799.445 433.572
2977 0 130.952 15.1201 1980 97.6278 800.954 441.859
2978 0 130.497 13.0271 1700 104.1 799.271 426.573
2979 0 135.867 12.8435 1745 104.415 800.188 426.554
2980 0 138.828 14.4063 2000 102.181 800.91 429.158
2981 0 138.512 10.9666 1519 108.155 801.501 423.272
2982 0 147.788 17.0446 2519 99.634 802.926 425.268
2983 0 152.523 12.8571 1961 98.4034 801.974 442.197
2984 0 153.753 16.1558 2484 100.967 803.02 420.108
2985 0 153.753 15.9802 2457 128.463 804.981 419.954
2986 0 161.681 12.3453 1996 105.819 803.207 416.13
2987 0 169.089 14.0814 2381 104.11 803.053 417.345
2988 0 168.587 13.9097 2345 105.914 803.143 414.921
2989 0 173.583 13.037 2263 106.756 803.156 412.539
2990 0 183.713 13.6898 2515 104.363 802.999 410.454
2991 0 188.874 17.8479 3371 100.263 803.075 402.306
2992 0 194.748 14.1773 2761 105.108 802.449 399.782
2993 0 201.853 20.0244 4042 98.1336 803.018 400.987
2994 0 202.859 15.1731 3078 102.802 801.93 406.15
2995 0 212.942 14.4359 3074 103.701 801.83 396.122
2996 0 213.858 12.326 2636 106.154 800.118 392.743
2997 1 161.629 11.7058 1892 106.775 799.977 422.161
2998 0 167.648 12.9855 2177 106.049 799.911 411.112
2999 0 171.857 16.153 2776 100.263 799.657 429.13
3000 0 176.694 15.4901 2737 101.619 798.768 420.552
3001 0 181.597 15.7712 2864 101.147 798.572 415.762
3002 1 192.875 8.67918 1674 106.386 797.302 423.702
3003 0 194.558 13.3636 2600 103.207 796.765 406.529
3004 0 196.539 13.3154 2617 102.526 797.223 411.386
3005 0 207.974 16.2472 3379 100.465 795.188 399.029
3006 0 207.856 14.8372 3084 101.738 795.359 394.186
3007 0 217.908 14.2445 3104 101.551 795.556 397.446
3008 0 224.556 14.0054 3145 102.51 795.737 388.688
3009 0 232.313 18.1738 4222 98.063 795.21 394.208
3010 0 233.895 12.1636 2845 106.128 795.151 375.241
3011 0 245.967 16.9617 4172 99.786 794.818 380.846
3012 0 248.15 14.3099 3551 103.878 795.255 354.872
3013 0 258.073 13.6008 3510 103.16 795.58 376.04
3014 0 263.641 16.5718 4369 101.067 795.313 361.525
3015 0 275.24 20.7855 5721 95.354 795.302 381.93
3016 0 280.97 18.785 5278 98.0407 795.94 376.018
3017 0 293.436 17.1826 5042 101.734 797.82 366.71
3018 0 297.162 24.7003 7340 94.8719 796.99 366.952
3019 0 304.095 13.5122 4109 106.852 797.848 347.748
3020 0 311.942 17.0544 5320 102.908 797.862 342.777
3021 0 318.749 14.0832 4489 107.982 798.728 330.644
3022 0 334.148 29.7264 9933 92.3691 798.192 343.764
3023 0 343.035 22.7557 7806 97.9368 798.917 338.998
3024 0 354.07 25.3311 8969 95.256 799.51 322.722
3025 0 369.941 25.8609 9567 94.94 800.609 295.186
3030 0 382.069 32.9548 12591 91.141 802.488 302.953
3031 0 379.567 40.0483 15201 87.1732 801.695 309.744
3035 0 376.949 18.1112 6827 105.142 802.295 296.553
3037 0 381.846 39.5971 15120 87.8919 800.531 309.385
3039 0 379.017 21.5399 8164 101.424 800.601 296.376
