time division length width area intensity CMx CMy
0 0 57.3594 12.9883 745 132.246 660.992 471.847
1 0 57.4093 15.6769 900 127.841 660.298 471.241
2 0 59.5669 12.8259 764 125.986 659.743 470.143
3 0 60.2575 12.2806 740 132.807 658.038 468.124
4 0 62.3283 13.7979 860 130.464 657.846 470.556
5 0 67.4448 18.8006 1268 118.295 657.483 467.949
6 0 64.3608 12.2435 788 135.522 655.884 467.898
7 0 68.3818 14.5507 995 127.663 655.787 467.995
8 0 72.3558 14.9262 1080 124.72 653.557 471.917
9 0 72.1309 12.713 917 130.93 652.848 466.109
10 1 41.1677 11.5382 475 129.602 651.457 478.56
11 0 42.2423 11.6234 491 126.401 651.782 479.572
12 0 41.1056 11.069 455 131.286 651.31 477.798
13 0 43.0589 11.0314 475 128.274 651.623 475.392
14 0 45.1763 12.5508 567 129.005 650.69 470.57
15 0 45.1302 14.3806 649 123.089 651.502 471.834
16 0 47.3435 12.6733 600 127.725 650.935 471.4
17 0 49.2719 15.4246 760 122.707 651.917 467.747
18 0 51.2822 13.143 674 126.488 652.493 467.761
19 0 53.2105 12.9486 689 126.446 652.418 464.004
20 0 54.3217 13.4937 733 124.258 652.297 463.744
21 0 55.4151 13.3357 739 125.433 652.176 461.179
22 0 56.1144 13.8467 777 120.323 652.743 462.031
23 0 60.3218 14.3066 863 121.469 653.615 463.71
24 0 54.1896 11.5336 625 129.458 654.219 460.51
25 0 62.1254 16.0321 996 118.453 655.878 457.493
26 0 62.0958 15.3473 953 119.325 655.798 457.186
27 0 65.1623 13.0137 848 123.508 656.953 456.9
28 0 71.1107 15.4126 1096 116.838 657.87 455.187
29 0 69.0899 16.3555 1130 117.799 658.466 450.442
30 0 76.4452 15.3443 1173 114.895 660.464 453.186
31 0 73.08 11.8911 869 124.503 659.348 451.048
32 0 76.1694 14.7041 1120 117.15 659.465 452.85
33 0 77.24 14.1248 1091 113.824 662.093 452.276
34 0 80.1742 13.9571 1119 117.165 662.401 451.283
35 0 81.3198 17.4373 1418 113.683 663.7 453.216
36 0 84.3399 18.0342 1521 111.73 662.325 450.822
37 0 84.3457 17.8432 1505 136.554 661.327 450.763
38 0 85.2414 13.6436 1163 115.155 662.524 451.963
39 0 91.2067 13.9354 1271 113.523 663.312 452.914
40 0 100.249 10.8829 1091 117.671 662.755 453.203
41 0 101.305 12.3193 1248 117.442 662.782 449.19
42 0 101.305 12.2798 1244 141.759 662.772 449.089
43 0 104.187 16.2017 1688 109.852 663.323 447.252
44 1 56.1999 12.1531 683 111.796 662.366 471.564
45 0 59.185 12.8918 763 122.997 662.477 471.944
46 0 60.3598 12.6077 761 124.03 661.196 470.13
47 0 63.1609 10.6553 673 128.019 659.663 470.624
48 0 67.2358 16.2265 1091 118.863 659.206 470.066
49 0 68.1491 13.9547 951 119.411 657.881 468.381
50 0 69.0911 13.5763 938 124.167 657.789 465.612
51 0 71.2248 14.0962 1004 123.471 656.874 464.739
52 0 77.2262 14.477 1118 121.401 656.403 465.034
53 0 76.1286 14.0946 1073 123.406 655.308 458.829
54 0 80.1043 16.1539 1294 119.645 656.339 458.225
55 0 81.3135 13.2696 1079 124.672 655.521 458.614
56 0 86.1178 13.8531 1193 123.385 654.797 458.07
57 0 85.1177 17.4347 1484 134.632 653.902 455.106
58 0 87.2568 12.9044 1126 126.683 655.037 453.918
59 0 90.3442 13.349 1206 126.998 653.491 451.085
60 0 98.1546 14.3243 1406 123.206 654.601 449.965
61 0 95.2187 13.6213 1297 126.959 654.113 447.413
62 0 104.166 14.2464 1484 124.976 653.951 444.964
63 0 106.237 17.1409 1821 120.059 652.959 442.98
64 0 108.251 13.5703 1469 126.709 653.849 438.184
65 0 114.241 17.3756 1985 119.589 653.236 435.346
66 0 119.43 16.0512 1917 119.588 653.798 438.686
67 0 121.268 13.6062 1650 123.178 654.009 434.842
68 1 68.104 12.7746 870 121.475 654.826 457.623
69 0 74.1519 19.46 1443 110.674 655.96 454.058
70 0 73.2409 15.251 1117 117.316 656.98 455.155
71 0 77.1414 13.041 1006 121.288 656.912 453.694
72 0 80.3434 15.7076 1262 116.422 657.717 453.057
73 0 81.404 15.8346 1289 116.44 657.642 450.355
74 0 81.404 15.982 1301 138.321 656.677 450.349
75 0 87.4171 15.6834 1371 116.929 658.829 446.323
76 0 90.2365 15.7475 1421 117.773 659.402 443.213
77 0 94.1985 15.4886 1459 117.402 659.548 446.388
78 0 96.4104 13.3181 1284 121.026 659.995 448.372
79 0 98.282 14.0819 1384 120.809 661.261 443.887
80 0 103.479 15.5587 1610 117.04 662.624 445.768
81 1 55.1489 8.68558 479 118.238 662.747 472.866
82 0 58.2934 13.432 783 114.98 661.22 465.349
83 0 60.1518 12.7178 765 112.485 662.625 473.065
84 0 62.2539 13.3967 834 113.022 661.022 468.086
85 0 63.0836 11.9999 757 116.108 660.978 466.361
86 0 66.2026 11.631 770 116.23 660.652 467.931
87 0 69.1912 12.4727 863 115.706 660.679 469.548
88 0 70.1761 12.3261 865 116.865 660.523 466.157
89 0 73.1705 11.7397 859 118.225 659.875 466.12
90 0 75.3258 12.9836 978 116.174 658.71 463.308
91 0 79.1181 13.423 1062 115.405 657.923 465.934
92 0 80.1218 15.5388 1245 112.979 657.351 463.088
93 0 83.2999 13.7695 1147 116.509 657.277 465.228
94 0 85.1966 10.1295 863 120.038 655.236 466.699
95 0 90.3396 13.881 1254 114.872 655.51 464.788
96 0 91.1623 14.1506 1290 115.582 654.658 460.033
97 0 92.2428 11.2963 1042 119.171 654.991 461.386
98 0 97.1913 15.0734 1465 114.631 653.715 456.752
99 1 53.0616 11.5338 612 112.239 653.443 481.129
100 0 53.1186 10.5048 558 119.17 653.346 473.095
101 0 60.1323 13.3539 803 113.004 653.245 474.936
102 0 58.1802 12.4097 722 113.157 651.758 472.522
103 0 61.184 11.6697 714 113.305 652.014 473.346
104 0 63.1659 15.1981 960 109.614 650.862 470.238
105 0 60.2325 10.6753 643 116.104 651.893 469.087
106 0 65.1854 12.3954 808 111.166 652.114 470.467
107 0 71.1009 12.4049 882 111.882 651.353 463.838
108 0 71.189 12.9233 920 110.901 651.821 465.093
109 0 75.0875 14.7428 1107 109.36 652.702 461.602
110 0 78.3201 13.1767 1032 112.463 653.049 458.764
111 0 80.101 11.2483 901 115.131 652.533 456.738
112 0 80.101 11.2733 903 137.571 652.532 456.987
113 0 83.1773 11.5296 959 115.26 653.872 452.22
114 0 87.2474 12.3671 1079 114.218 655.637 450.975
115 0 88.2876 11.7344 1036 116.569 654.57 446.017
116 0 90.1065 10.6097 956 117.21 655.83 450.14
117 1 48.0763 9.77612 470 114.651 655.998 468.838
118 0 51.1722 11.1389 570 115.054 656.846 469.696
119 0 52.2844 10.2516 536 116.752 657.675 469.862
120 0 50.1196 12.6098 632 108.528 658.968 471.94
121 0 50.1175 12.331 618 109.741 659.562 472.867
122 0 53.214 12.1585 647 111.195 659.45 467.957
123 0 56.3237 12.0908 681 111.549 659.882 468.902
124 0 59.1834 8.38072 496 116.673 660.371 470.94
125 0 61.1045 11.1776 683 113.51 660 469.319
126 0 60.1392 11.7062 704 113.553 660.722 467.79
127 0 64.2517 11.8285 760 115.036 660.84 468.916
128 0 66.1471 12.2454 810 114.301 658.889 470.185
129 0 70.3083 13.5261 951 113.238 660.983 464.021
130 0 71.1283 12.7938 910 115.627 659.143 470.793
131 0 73.0956 12.7504 932 117.94 659.092 471.349
132 0 76.2824 14.0006 1068 116.82 658.402 466.934
133 1 157.368 14.1134 2221 118.847 657.49 431.054
134 0 157.423 13.2509 2086 121.196 658.124 430.168
135 0 156.478 10.3976 1627 126.39 656.592 435.202
136 0 158.309 8.02227 1270 124.917 656.546 457.664
137 1 90.226 11.9478 1078 124.417 655.062 465.22
138 1 43.068 10.8201 466 123.131 656.137 487.642
139 0 46.1142 16.5025 761 111.092 653.986 485.197
140 0 46.0798 12.1311 559 117.807 653.893 485.436
141 0 47.1384 12.3042 580 118.531 651.767 481.881
142 0 51.0892 15.15 774 112.855 651.235 482.375
143 0 51.0513 11.1848 571 122.394 651.105 480.259
144 0 54.1479 13.814 748 119.779 650.587 477.992
145 0 54.204 12.1024 656 121.514 650.133 480.043
146 0 55.1893 12.7742 705 123.357 649.789 475.84
147 0 56.2055 14.3046 804 123.127 649.192 471.679
148 0 58.1763 13.0122 757 125.229 649.992 473.782
149 0 61.1722 13.7481 841 126.51 650.048 468.738
150 0 65.1051 13.9928 911 125.631 649.942 468.181
151 0 67.1418 12.3172 827 127.156 650.661 468.919
152 0 69.2957 14.6907 1018 124.864 650.571 462.839
153 0 70.3776 11.1683 786 130.939 652.107 461.824
154 0 74.1775 14.6271 1085 124.37 651.794 458.511
155 0 77.1189 17.3369 1337 117.396 651.162 458.856
156 0 79.243 14.9161 1182 122.883 652.212 455.278
157 0 82.3298 16.6161 1368 119.608 653.052 450.962
158 1 42.1217 11.8229 498 122.892 653.906 472.89
159 0 43.0851 12.9743 559 121.957 654.29 471.615
160 0 47.035 13.3092 626 120.345 655.669 471.526
161 0 45.064 11.295 509 125.982 654.348 473.191
162 0 48.0899 10.6675 513 127.4 656.216 469.918
163 0 48.1527 12.6057 607 123.323 656.119 469.568
164 0 53.2578 14.4768 771 118.021 656.861 470.929
165 0 51.3084 12.1618 624 124.202 657.835 472.077
166 0 56.3701 17.0835 963 114.513 659.205 467.303
167 0 57.3093 13.3835 767 121.876 658.074 468.641
168 0 58.0695 15.0165 872 121.023 657.97 467.768
169 0 60.1323 15.2996 920 120.015 658.633 467.872
170 0 66.3762 13.529 898 120.516 659.072 469.596
171 0 65.1667 16.0358 1045 116.972 659.434 470.366
172 0 65.2169 12.3434 805 124.286 658.287 470.867
173 0 67.288 13.1821 887 122.508 657.918 472.269
174 0 69.1039 13.8487 957 122.129 657.711 471.201
175 0 71.1479 14.4488 1028 122.443 657.118 468.091
176 0 76.2104 14.4206 1099 120.487 655.728 470.334
177 0 77.329 14.9103 1153 122.47 655.364 467.503
178 0 77.329 14.8845 1151 144.844 655.362 467.544
179 0 81.193 12.4765 1013 123.929 654.022 468.56
180 0 84.1509 14.6641 1234 121.464 653.93 464.485
181 0 89.2061 17.8351 1591 114.279 653.091 467.447
182 0 91.1308 15.8783 1447 119.623 653.326 458.317
183 0 94.1927 15.8399 1492 119.641 652.273 460.11
184 0 97.1802 13.4287 1305 123.749 651.924 459.313
185 1 55.2472 12.0549 666 117.661 650.796 482.875
186 0 54.1953 13.4329 728 116.72 650.122 481.592
187 0 55.1753 11.6719 644 121.467 650.616 478.357
188 0 56.1546 12.4834 701 118.879 648.963 477.287
189 0 58.1821 15.039 875 115.144 649.107 474.867
190 0 61.2161 14.898 912 115.343 648.3 474.091
191 0 66.3496 13.7906 915 113.555 648.513 472.487
192 0 66.2156 18.5606 1229 109.011 649.033 469.116
193 0 68.0504 11.7413 799 118.543 648.569 469.533
194 0 68.0845 12.9545 882 118.236 648.612 464.859
195 0 73.1645 13.3535 977 117.541 648.785 461.381
196 0 76.1405 13.1993 1005 116.68 649.773 461.024
197 0 80.2385 16.0646 1289 112.475 650.218 457.96
198 0 81.1694 12.0242 976 120.055 651.119 456.708
199 0 85.1066 15.322 1304 111.757 651.602 458.405
200 0 86.0527 13.2709 1142 113.906 652.224 458.504
201 0 92.2441 14.8085 1366 112.106 651.594 456.463
202 0 91.1681 12.0656 1100 120.467 652.624 448.125
203 0 94.2595 13.7705 1298 116.743 653.296 450.008
204 1 51.0225 14.9346 762 111.316 654.82 470.298
205 0 54.2074 11.8434 642 114.805 655.282 472.224
206 0 53.2195 12.8712 685 113.785 655.364 471.793
207 0 56.3601 12.7395 718 113.571 656.018 470.302
208 0 54.2103 10.2195 554 119.597 655.76 468.451
209 0 60.227 12.8016 771 112.274 658.035 472.91
210 0 64.2016 14.2208 913 108.894 658.077 472.51
211 0 65.3071 12.0354 786 113.41 657.248 470.774
212 0 67.231 13.9519 938 110.986 656.877 470.707
213 0 66.1502 12.7588 844 115.064 657.789 469.171
214 0 69.2011 14.942 1034 111.392 657.84 471.26
215 0 71.4323 11.8014 843 116.543 657.02 473.302
216 0 72.064 10.7543 775 119.855 656.421 472.215
217 0 75.2148 11.9657 900 118.269 656.676 470.412
218 0 79.1257 12.398 981 116.101 656.7 471.192
219 0 83.321 17.2466 1437 109.133 656.334 467.491
220 0 82.2832 13.3077 1095 115.462 655.988 467.967
221 0 86.2214 14.3816 1240 113.658 654.506 469.555
222 0 87.2639 13.442 1173 115.771 655.059 467.361
223 0 89.3859 12.9774 1160 118.199 654.623 464.38
224 0 94.4198 17.2527 1629 110.084 652.519 461.721
225 0 93.3139 13.5778 1267 116.985 652.35 460.848
226 0 99.2753 17.3558 1723 109.367 649.827 464.364
227 0 96.2873 12.7743 1230 142.113 646.959 457.446
228 0 99.5084 10.3308 1028 123.034 648.568 453.132
229 0 106.408 12.2923 1308 118.668 648.123 461.067
230 0 106.408 12.1983 1298 149.664 648.079 461.012
231 0 115.403 15.6495 1806 113.728 647.251 453.532
232 0 117.348 12.3223 1446 118.79 647.826 455.14
233 0 115.512 11.41 1318 121.421 646.539 450.145
234 1 126.265 14.3587 1813 117.537 647.313 440.071
235 0 132.296 15.7525 2084 113.737 646.61 432.655
236 0 136.357 17.4322 2377 111.526 646.855 427.769
237 0 140.437 14.2626 2003 115.581 647.272 430.574
238 0 140.437 14.2341 1999 142.649 648.286 430.669
239 0 148.671 14.0983 2096 115.107 648.303 428.141
240 0 156.459 15.4801 2422 113.62 647.284 423.036
241 0 159.272 12.3939 1974 117.169 648.065 425.488
242 0 164.677 14.7076 2422 114.56 648.308 417.206
243 0 169.509 16.9194 2868 109.933 648.051 421.075
244 1 91.369 18.0149 1646 106.413 649.586 450.821
245 0 91.369 18.0039 1645 136.019 650.578 450.65
246 0 95.413 24.8813 2374 97.249 649.766 455.452
247 0 93.4094 12.0545 1126 114.947 649.516 449.546
248 0 100.613 11.9468 1202 115.758 650.691 448.351
249 0 99.4977 9.76907 972 120.558 651.878 445.991
250 0 107.608 14.3856 1548 113.826 652.071 442.902
251 0 111.356 15.0418 1675 113.712 653.745 438.643
252 0 117.325 18.6406 2187 108.386 655.142 431.719
253 0 122.521 12.757 1563 117.763 654.8 436.869
254 0 122.689 14.5653 1787 116.212 655.767 431.01
255 1 248.918 15.0009 3734 114.294 654.684 394.228
256 1 187.775 12.8292 2409 120.932 655.287 405.637
257 0 186.393 12.5648 2342 121.834 655.511 398.511
258 0 196.516 15.3677 3020 116.53 656.411 404.781
259 0 197.518 16.0087 3162 140.805 657.404 403.687
260 0 200.589 10.2448 2055 124.117 656.262 411.311
261 1 85.3475 11.1075 948 118.509 654.548 459.167
262 0 91.1862 12.8419 1171 114.225 655.27 456.383
263 0 95.2271 13.2945 1266 116.576 654.989 460.916
264 0 97.3671 18.3224 1784 107.484 653.585 462.819
265 0 100.429 12.3271 1238 116.597 654.212 455.854
266 0 106.542 13.0278 1388 113.029 653.267 460.821
267 0 106.445 14.834 1579 113.208 653.24 453.397
268 0 112.442 13.9983 1574 114.714 651.987 451.88
269 0 116.706 10.7193 1251 118.496 651.217 451.283
270 0 119.694 15.665 1875 112.821 650.226 440.875
271 0 124.784 14.1926 1771 114.209 649.225 444.314
272 0 129.657 18.2019 2360 108.573 648.95 439.23
273 0 137.397 19.673 2703 105.266 648.912 444.864
274 0 135.48 13.0573 1769 117.527 648.401 429.998
275 0 145.836 16.1689 2358 111.19 648.001 434.865
276 1 154.683 9.42575 1458 120.208 647.467 434.392
277 1 67.4041 10.6522 718 114.904 647.104 470.451
278 0 68.1123 14.1091 961 111.094 645.795 466.307
279 0 71.2507 8.96833 639 117.415 644.856 468.8
280 0 71.1983 11.6295 828 114.982 645.188 464.558
281 0 79.2399 14.2226 1127 109.047 645.603 462.26
282 0 77.1327 12.0571 930 114.396 647.284 457.334
283 0 79.1366 11.9414 945 115.023 646.934 458.095
284 0 83.2559 11.5427 961 113.702 649.847 454.671
285 0 85.3283 12.9734 1107 110.852 649.907 450.109
286 0 89.4055 10.8606 971 113.568 650.232 451.631
287 0 92.42 12.4648 1152 111.907 650.26 443.42
288 0 92.3192 10.8537 1002 116.154 651.779 450.6
289 0 97.2031 10.8844 1058 114.051 652.483 449.086
290 0 101.464 16.5675 1681 108.206 652.601 447.89
291 1 50.5112 11.3242 572 111.706 652.274 467.652
292 0 55.5015 13.0988 727 107.95 654.443 467.243
293 0 53.3283 12.1136 646 109.873 654.87 469.418
294 0 55.4687 12.9442 718 109.617 656.508 468.163
295 0 57.4224 15.3424 881 106.602 655.355 465.005
296 0 62.3445 14.1151 880 106.935 657.784 467.29
297 0 61.3206 9.49111 582 113.581 657.586 469.515
298 0 62.3936 10.4498 652 113.764 657.202 465.676
299 0 65.2679 11.7362 766 109.345 656.997 470.205
300 0 66.1947 11.8741 786 112.198 657.893 465.973
301 0 68.6016 10.4662 718 113.755 657.571 467.223
302 0 71.3886 13.7697 983 110.107 657.79 465.397
303 0 76.4341 12.3898 947 110.71 657.818 464.901
304 0 77.2345 13.9446 1077 108.639 657.305 466.398
305 0 79.2085 11.8927 942 112.303 656.449 467.959
306 0 80.5241 11.7356 945 113.309 656.288 466.185
307 0 87.5982 9.16686 803 117.162 655.711 465.2
308 0 87.6063 10.707 938 129.929 654.629 462.659
309 1 44.6352 12.815 572 108.811 655.012 479.047
310 0 46.3586 12.3602 573 110.639 654.618 481.024
311 0 48.5969 14.6717 713 106.743 653.921 478.804
312 0 48.2639 10.5048 507 115.533 651.85 481.619
313 0 53.2845 13.4185 715 109.473 651.462 481.129
314 0 53.2791 12.7442 679 111.95 652.261 479.2
315 0 53.2791 12.7442 679 125.054 653.264 479.25
316 0 51.2817 7.13705 366 118.503 650.093 482.863
317 0 58.4058 14.1938 829 109.546 649.989 475.45
318 0 65.8684 18.1878 1198 101.413 649.136 473.721
319 0 59.2157 11.0106 652 115.39 649.535 472.526
320 0 63.3895 12.999 824 111.818 648.533 469.493
321 0 69.2876 13.1481 911 108.787 649.371 469.234
322 0 66.3149 14.4764 960 109.216 648.599 465.386
323 0 68.2392 13.5113 922 111.033 648.851 462.733
324 0 71.2438 12.9274 921 111.343 647.945 462.074
325 0 74.162 13.511 1002 109.808 648.909 463.912
326 0 74.4141 12.753 949 112.96 648.875 458.55
327 0 76.39 12.4231 949 113.836 649.681 458.435
328 0 78.5302 15.3571 1206 107.254 649.763 460.848
329 0 83.4203 13.1143 1094 112.431 650.907 454.054
330 0 81.3181 13.5763 1104 113.631 650.419 447.784
331 0 91.3069 12.9782 1185 110.44 652.564 447.924
332 0 91.4962 12.5688 1150 112.59 652.003 446.217
333 0 95.2957 13.8936 1324 110.53 652.165 447.398
334 1 52.1443 13.7887 719 108.515 653.53 467.049
335 0 53.2023 16.9353 901 104.037 654.31 468.481
336 0 57.2181 12.1815 697 112.415 656.059 465.439
337 0 57.2094 13.3545 764 111.475 656.312 464.018
338 0 59.2348 15.6665 928 107.78 656.652 466.282
339 0 65.2711 13.9725 912 109.225 658.644 464.877
340 0 65.4032 17.1551 1122 104.536 658.609 466.459
341 0 65.1864 12.656 825 113.143 659.24 462.875
342 0 67.1133 19.251 1292 104.377 657.941 462.755
343 0 68.1388 13.223 901 113.555 657.911 462.998
344 0 70.3942 12.7283 896 113.806 659.663 464.048
345 0 77.3866 13.2969 1029 110.892 660.267 466.533
346 0 75.1874 15.335 1153 111.341 660.044 462.11
347 0 76.329 13.2715 1013 114.981 659.588 463.506
348 0 80.1164 14.8534 1190 112.7 659.366 462.297
349 0 81.3681 14.207 1156 113.853 658.606 462.208
350 0 84.2692 12.4719 1051 117.85 657.215 458.48
351 0 93.5091 17.8485 1669 107.493 656.082 461.243
352 0 92.3441 15.5939 1440 113.714 656.9 457.925
353 0 97.1321 13.9089 1351 115.87 655.743 458.014
354 0 99.174 12.3016 1220 117.682 655.645 458.122
355 1 54.0933 12.2381 662 112.946 655.026 479.571
356 0 62.3153 12.87 802 109.91 654.565 479.984
357 0 59.3919 14.2444 846 105.991 654.376 483.435
358 0 58.1165 11.9759 696 116.075 653.935 474.464
359 0 62.2616 15.2582 950 109.947 652.839 473.331
360 0 61.2521 10.8568 665 118.152 651.702 469.935
361 0 66.1928 16.6937 1105 106.774 652.375 472.555
362 0 67.141 13.911 934 112.919 652.568 466.369
363 0 67.141 13.911 934 136.953 652.573 466.336
364 0 72.2216 15.314 1106 108.854 650.8 465.579
365 0 73.1529 14.1074 1032 111.448 651.067 464.343
366 0 76.1765 14.4664 1102 110.395 651.545 463.473
367 0 79.3974 12.3178 978 114.79 651.379 458.649
368 0 84.1585 13.5934 1144 111.854 651.021 456.731
369 0 86.1098 15.3176 1319 110.193 651.381 453.271
370 0 86.1098 15.2364 1312 148.425 652.382 453.2
371 0 91.188 17.8971 1632 105.655 652.134 454.335
372 0 93.2964 17.6856 1650 106.845 651.552 445.515
373 1 51.2403 11.4754 588 108.321 653.345 469.653
374 0 48.3249 10.6777 516 113.859 653.291 463.186
375 0 51.1901 13.5378 693 107.877 653.708 464.27
376 0 51.1648 10.9255 559 108.791 654.406 466.88
377 0 54.112 11.2544 609 108.99 653.468 463.703
378 0 56.2296 12.8936 725 106.505 656.014 463.789
379 0 56.1583 12.0908 679 109.242 656.717 462.845
380 0 58.2432 10.0269 584 111.435 657.267 462.817
381 0 61.3886 11.0933 681 112.972 657.413 458.001
382 0 64.4332 11.7796 759 109.887 659.212 463.057
383 0 64.4332 11.7331 756 140.515 660.19 462.939
384 0 69.2158 15.6178 1081 105.079 658.34 457.315
385 0 69.343 11.6811 810 112.463 659.78 458.885
386 0 70.2728 9.66235 679 113.247 660.255 463.349
387 0 69.1853 13.4277 929 111.395 660.572 457.8
388 0 75.1331 12.764 959 110.961 660.565 461.796
389 0 77.0983 14.2934 1102 108.908 660.779 462.701
390 0 79.2166 9.87167 782 116.812 660.497 461.299
391 0 81.2774 14.5797 1185 109.156 660.192 459.754
392 0 83.2073 13.5445 1127 111.412 659.741 454.949
393 0 86.2446 11.8036 1018 112.652 659.591 462.623
394 0 90.1688 13.2973 1199 111.506 657.539 456.198
395 0 90.1688 13.3306 1202 129.775 656.546 456.213
396 0 96.3178 12.1888 1174 114.07 658.818 452.963
397 1 51.0976 7.12363 364 120.195 657.912 470.244
398 0 54.1292 10.6782 578 113.718 656.279 471.967
399 0 58.1518 11.9343 694 111.817 654.003 469.566
400 0 59.4448 12.0616 717 111.043 653.015 475.986
401 0 59.2243 12.4949 740 110.741 652.969 475.468
402 0 61.2851 14.457 886 108.78 652.164 469.055
403 0 62.3958 11.4912 717 112.978 650.52 471.661
404 0 65.3424 13.5287 884 109.959 650.759 470.031
405 0 68.1876 12.6416 862 109.439 649.788 470.536
406 0 70.3179 12.3297 867 111.61 650.42 464.138
407 0 74.2105 13.0305 967 109.059 648.832 465.939
408 0 75.3144 12.7466 960 110.777 649.807 462.543
409 0 75.2322 14.4087 1084 109.013 648.492 460.601
410 0 76.4059 13.3759 1022 111.571 648.975 455.46
411 0 82.2283 13.7179 1128 109.063 648.512 458.857
412 0 90.9856 14.7935 1346 106.097 647.848 458.751
413 0 86.3744 14.9234 1289 108.939 649.657 452.731
414 0 90.3414 16.4487 1486 105.412 650.873 454.756
415 0 90.3068 13.0555 1179 112.684 650.485 449.343
416 1 53.1429 13.5107 718 109.294 649.582 468.79
417 0 57.3178 16.5568 949 103.182 650.666 470.111
418 0 58.1565 14.375 836 111.017 652.311 460.173
419 0 61.3896 13.0804 803 113.239 653.426 461.347
420 0 61.3924 16.8262 1033 109.21 653.575 460.11
421 0 61.223 12.2013 747 118.625 653.997 456.217
422 0 64.3485 14.8877 958 112.769 655.75 459.276
423 0 62.2551 14.0229 873 145.769 656.677 460.117
424 0 70.4204 18.205 1282 105.298 655.874 463.413
425 0 70.4204 18.2902 1288 129.423 655.911 463.415
426 0 73.1916 18.6633 1366 106.243 657.529 462.169
427 0 73.2013 12.9642 949 117.616 659.517 456.497
428 0 78.1432 15.7531 1231 111.754 658.643 456.246
429 0 76.1057 12.4826 950 119.431 658.499 452.186
430 0 84.1816 21.7506 1831 104.133 658.9 457.881
431 0 82.2509 14.8691 1223 116.944 659.535 454.284
432 0 91.7114 16.6392 1526 112.299 659.858 457.218
433 0 90.2297 14.4188 1301 118.94 660.046 455.444
434 0 92.1496 20.6838 1906 107.323 660.315 460.757
435 0 94.2139 14.2442 1342 119.82 658.64 454.778
436 0 98.1587 14.0589 1380 120.669 657.967 452.464
437 0 101.123 21.004 2124 109.921 658.04 454.189
438 0 106.299 16.7735 1783 115.371 656.773 454.948
439 0 108.337 12.9042 1398 123.154 657.796 452.61
440 1 59.1287 14.6968 869 115.954 657.656 475.951
441 0 60.2934 14.9104 899 116.083 656.838 473.088
442 0 61.2399 14.1574 867 117.448 655.544 472.339
443 0 63.065 12.4158 783 120.427 654.073 474.101
444 0 63.3472 13.1655 834 121.031 654.505 470.409
445 0 67.1376 12.9585 870 120.345 654.483 469.766
446 0 72.2125 17.4346 1259 112.436 653.593 467.333
447 0 72.1622 12.0423 869 122.403 653.151 468.208
448 0 76.1222 13.2813 1011 118.779 652.518 464.758
449 0 77.1993 14.4172 1113 117.486 653.245 467.558
450 0 79.2351 13.0876 1037 120.607 653.087 463.816
451 0 81.2899 12.4862 1015 123.739 651.983 463.147
452 0 84.1853 14.7888 1245 120.359 651.406 460.9
453 0 87.1279 14.2434 1241 121.213 651.151 459.276
454 0 91.2404 14.3577 1310 121.7 650.273 456.482
455 0 95.3197 15.3483 1463 118.664 650.839 455.427
456 0 97.1494 16.1504 1569 116.926 650.525 455.389
457 0 99.2791 14.5247 1442 120.407 652.049 451.167
458 1 49.037 9.97207 489 124.241 652.155 474.436
459 0 52.0466 13.7761 717 117.444 651.919 471.524
460 0 56.1299 14.021 787 115.849 652.395 470.947
461 0 57.0817 13.1566 751 117.943 652.642 469.72
462 0 57.1402 14.0882 805 118.666 652.627 468.834
463 0 58.2977 14.6318 853 116.57 653.659 466.634
464 0 62.2047 14.1468 880 115.04 653.227 467.034
465 0 64.1527 13.4367 862 115.942 654.748 468.537
466 0 66.1311 12.1879 806 117.708 655.676 468.919
467 0 65.2199 10.1963 665 121.881 655.753 468.722
468 0 73.27 16.1185 1181 112.091 656.022 464.815
469 0 74.2586 11.9447 887 118.179 656.113 465.658
470 0 78.3243 17.2999 1355 106.827 656.894 468.751
471 0 80.3478 15.7067 1262 109.269 657.498 463.391
472 0 81.5159 13.0527 1064 111.563 657.311 470.366
473 0 81.2497 10.6708 867 120.4 657.002 460.022
474 0 86.4005 12.662 1094 116.815 655.953 465.22
475 0 89.3429 11.7525 1050 119.575 656.862 461.397
476 0 90.2643 13.682 1235 115.369 656.155 464.717
477 0 94.5161 16.0925 1521 110.643 655.44 465.569
478 0 95.0796 10.8015 1027 115.999 655.599 464.817
479 1 53.1026 12.2216 649 109.414 655.616 485.27
480 0 54.1276 13.228 716 110.598 654.043 484.31
481 0 54.1276 13.1911 714 121.682 653.045 484.321
482 0 58.2566 10.9516 638 113.56 652.741 489.326
483 0 60.2085 12.8719 775 112.185 653.172 481.218
484 0 63.3846 11.4539 726 113.967 650.796 483.634
485 0 66.1755 9.97349 660 116.57 650.402 482.255
486 0 66.1683 9.83855 651 116.84 650.155 482.023
487 0 69.0766 10.6548 736 114.433 649.582 479.484
488 0 69.0766 10.6693 737 134.592 649.602 479.532
489 0 72.2276 9.207 665 119.113 647.841 471.792
490 0 78.178 13.4693 1053 110.283 646.483 473.393
491 0 80.3768 10.712 861 114.718 646.669 474.402
492 0 82.3547 12.4704 1027 113.31 646.942 471.101
493 0 85.3697 14.3376 1224 109.864 646.811 466.892
494 0 88.2439 13.1681 1162 108.866 645.608 472.963
495 0 90.2975 12.3038 1111 110.572 645.179 461.006
496 0 93.3701 11.524 1076 111.29 645.208 467.194
497 0 94.2394 9.52892 898 115.629 645.045 456.993
498 1 51.1034 15.087 771 103.498 645.479 481.497
499 0 52.0875 13.5349 705 105.065 644.489 478.515
500 0 52.21 8.86803 463 111.216 647.117 478.447
501 0 56.1791 13.813 776 105.336 647.776 474.36
502 0 58.1509 11.4702 667 108.871 647.868 471.73
503 0 59.0789 10.0713 595 110.691 648.212 472.244
504 0 62.2396 15.0547 937 108.233 648.158 469.043
505 0 65.2887 12.1767 795 113.034 648.926 469.17
506 0 63.1076 12.0112 758 115.173 648.905 464.689
507 0 67.4026 13.2784 895 113.476 650.43 464.488
508 0 69.2635 11.8966 824 114.239 650.711 466.566
509 0 75.369 15.7094 1184 107.954 651.475 461.71
510 0 75.369 15.7492 1187 125.744 651.484 461.8
511 0 78.2048 11.5978 907 114.226 653.59 461.352
512 0 82.3708 13.5242 1114 111.684 653.615 458.419
513 0 83.1888 13.7639 1145 111.397 654.631 457.769
514 0 88.2702 14.8068 1307 109.626 655.147 457.889
515 0 90.2162 12.7028 1146 113.373 655.369 457.952
516 0 92.1553 14.8445 1368 110.627 656.157 457.655
517 0 95.29 13.5061 1287 112.953 655.724 458.499
518 0 102.418 14.8704 1523 109.81 657.428 460.32
519 1 51.1569 9.89115 506 112.854 656.927 482.901
520 0 51.1569 9.75431 499 126.056 656.926 482.994
521 0 58.329 12.4981 729 108.281 655.717 486.185
522 0 57.2616 12.993 744 110.976 654.109 481.854
523 0 59.193 11.2007 663 114.431 653.538 481.528
524 0 61.2786 12.4513 763 113.514 653.62 481.405
525 0 63.1477 14.7274 930 110.398 653.722 481.687
526 0 64.2012 11.1057 713 114.769 653.46 485.178
527 0 65.1129 13.8068 899 111.425 652.39 483.095
528 0 66.3271 11.6845 775 117.874 651.502 478.941
529 0 67.0992 12.1611 816 117.347 650.864 479.129
530 0 73.1365 14.4798 1059 111.758 650.901 478.868
531 0 73.2175 15.4881 1134 110.613 649.466 476.917
532 0 76.2286 11.7935 899 117.131 648.235 472.683
533 0 79.2798 14.4047 1142 113.89 646.585 469.929
534 0 83.4644 17.5764 1467 108.656 647.972 470.51
535 0 88.3878 14.9455 1321 112.785 646.745 465.438
536 0 86.5021 17.3175 1498 111.644 646.526 460.676
537 0 89.4268 12.5466 1122 119.061 646.549 460.34
538 0 92.5395 15.5609 1440 114.285 646.849 457.359
539 0 93.5623 13.0288 1219 118.148 646.833 459.13
540 1 52.3344 14.2927 748 110.043 646.066 473.791
541 0 52.5 13.3524 701 115.053 645.225 473.668
542 0 55.6276 12.4399 692 116.449 645.325 471.538
543 0 56.271 13.0796 736 117.689 645.598 474.284
544 0 57.3514 14.9778 859 114.811 646.764 473.487
545 0 63.6022 13.9932 890 114.662 647.258 472.94
546 0 61.2784 17.0207 1043 113.12 648.331 469.274
547 0 61.4311 16.8644 1036 112.364 647.929 469.433
548 0 62.4114 14.9812 935 117.077 649.199 464.475
549 0 64.5348 16.3633 1056 114.879 649.831 463.513
550 0 66.4228 13.0076 864 120.41 650.109 463.072
551 0 69.2244 14.7058 1018 118.281 651.454 461.252
552 0 72.1825 15.059 1087 116.266 651.132 461.83
553 0 72.1825 15.0452 1086 135.163 651.136 461.826
554 0 75.4006 9.92035 748 126.687 652.265 459.838
555 0 79.6529 12.6047 1004 122.741 652.7 458.657
556 0 81.3506 15.0214 1222 118.872 654.076 458.984
557 0 85.3953 13.6073 1162 119.971 655.096 459.863
558 0 86.3061 13.8113 1192 118.838 655.316 457.676
559 1 49.1383 10.2975 506 115.634 655.628 483.277
560 0 46.1479 11.2898 521 113.965 654.831 484.572
561 0 53.1473 15.0337 799 109.22 655.354 482.104
562 0 54.0831 14.2743 772 114.171 654.836 481.477
563 0 50.1077 9.26005 464 119.153 655.08 485.356
564 0 53.2995 11.8388 631 115.873 654.114 484.108
565 0 54.1017 8.07737 437 120.881 653.446 485.67
566 0 57.2802 10.0558 576 117.958 653.346 485.384
567 0 57.2518 10.3228 591 118.584 652.433 482.459
568 0 59.0523 9.95728 588 118.468 652.932 485.531
569 0 64.1904 13.3821 859 112.851 651.537 485.638
570 0 64.1904 13.3353 856 128.515 650.533 485.808
571 0 67.1537 14.0275 942 114.967 650.505 478.76
572 0 70.1962 13.4338 943 115.945 649.486 480.44
573 0 72.1621 12.7906 923 118.19 649.016 475.764
574 0 76.5498 13.5467 1037 118.694 648.803 475.049
575 0 79.5918 13.7451 1094 118.684 648.979 469.76
576 0 80.4085 20.085 1615 107.637 647.061 471.775
577 0 83.387 13.8391 1154 118.167 647.252 467.972
578 0 84.2347 9.30732 784 125.071 647.894 468.36
579 0 87.2153 10.7091 934 122.277 646.06 465.956
580 1 51.7997 13.9383 722 107.346 647.337 488.046
581 0 48.127 12.9241 622 112.378 645.873 485.86
582 0 51.5833 13.3958 691 112.767 645.582 482.753
583 0 52.1479 13.4617 702 116.09 645.074 479.219
584 0 52.1479 13.5001 704 129.79 645.081 479.254
585 0 54.1613 11.6873 633 121.55 645.815 475.782
586 0 55.1887 13.1368 725 120.131 646.382 474.455
587 0 58.1725 14.4398 840 118.315 646.837 475.16
588 0 63.2439 13.8828 878 118.128 646.739 473.524
589 0 61.1632 12.1642 744 124.37 647.618 469.844
590 0 64.3644 12.9264 832 123.077 647.768 470.575
591 0 66.2732 13.8216 916 120.7 648.133 470.988
592 0 72.2154 15.8138 1142 114.232 650.2 473.508
593 0 67.3157 12.5974 848 125.699 649.061 463.851
594 0 73.3253 14.2243 1043 122.35 651.267 465.833
595 0 73.2383 15.3198 1122 120.755 651.857 463.174
596 0 77.2422 15.911 1229 120.08 651.51 463.284
597 0 79.2697 13.2964 1054 124.182 653.572 465.11
598 0 81.3475 14.5671 1185 122.257 653.8 462.311
599 0 91.0595 17.0877 1556 113.335 654.805 465.511
600 0 89.4486 17.3731 1554 114.32 655.425 463.941
601 0 89.2726 13.1059 1170 122.755 655.555 460.936
602 0 94.3023 14.9837 1413 118.831 654.68 455.1
603 0 94.2888 12.8859 1215 123.613 654.452 454.253
604 0 100.283 15.2768 1532 117.96 654.911 463.859
605 1 55.1004 10.8166 596 120.253 655.153 483.362
606 0 56.0949 15.0459 844 115.268 654.889 483.527
607 0 57.3071 13.2619 760 118.67 652.493 483.395
608 0 58.1435 13.0539 759 120.254 653.161 482.029
609 0 60.0981 12.3964 745 121.872 653.047 481.034
610 0 64.2163 12.4579 800 119.952 651.774 482.984
611 0 67.3165 12.4041 835 119.529 651.874 481.206
612 0 69.3123 12.2633 850 119.252 652.021 479.269
613 0 71.2376 13.9674 995 116.92 651.838 478.44
614 0 72.1907 12.1622 878 119.383 651.21 480.657
615 0 74.2116 10.9821 815 120.402 649.92 479.494
616 0 78.3446 14.7426 1155 116.278 649.696 471.737
617 0 81.3804 15.0528 1225 115.38 648.598 471.395
618 0 85.2317 15.1352 1290 115.576 649.043 468.429
619 0 87.5511 15.7736 1381 115.652 647.727 467.038
620 0 90.3637 13.6006 1229 119.384 647.28 466.675
621 0 95.394 13.9107 1327 117.123 647.052 465.272
622 0 97.4469 15.9471 1554 113.739 647.219 461.149
623 0 100.248 13.1274 1316 117.714 646.65 458.67
624 1 55.374 10.8535 601 117.576 646.191 480.8
625 0 58.1598 14.3054 832 113.316 646.137 476.5
626 0 59.1317 14.2563 843 113.969 645.872 475.019
627 0 61.2574 14.2677 874 113.788 646.606 472.722
628 0 60.1211 12.1588 731 117.594 647.617 470.947
629 0 64.3099 13.8548 891 113.175 646.511 473.258
630 0 69.4696 14.841 1031 110.908 647.468 467.903
631 0 71.3002 16.115 1149 108.591 647.07 468.89
632 0 71.1032 15.8643 1128 110.332 648.968 464.831
633 0 73.237 13.5724 994 113.941 648.47 460.813
634 0 77.3045 12.0174 929 114.915 649.792 463.075
635 0 77.3012 13.5703 1049 113.591 648.556 458.583
636 0 83.4032 13.0451 1088 112.304 651.103 460.547
637 0 85.2598 16.784 1431 105.493 649.805 462.35
638 0 88.2814 14.9975 1324 109.442 650.406 449.691
639 0 90.5567 14.3115 1296 108.956 650.778 455.398
640 0 95.3735 16.189 1544 106.383 652.207 454.547
641 0 98.3369 16.3621 1609 106.786 652.29 450.515
642 0 102.189 15.4322 1577 107.438 653.415 453.637
643 1 55.2697 13.6422 754 107.576 652.56 473.318
644 0 53.2675 10.2877 548 113.363 653.19 473.245
645 0 60.2358 14.4598 871 106.17 652.467 472.04
646 0 58.394 14.522 848 107.04 653.574 475.538
647 0 62.1599 12.4196 772 108.273 651.782 475.355
648 0 64.1614 11.7828 756 109.802 651.905 474.128
649 0 64.1614 11.8296 759 127.472 652.872 474.13
650 0 71.2249 13.8856 989 105.546 651.203 473.862
651 0 75.6745 16.6635 1261 100.918 651.993 464.125
652 0 73.2704 12.8838 944 109.265 652.159 472.209
653 0 76.3761 14.7035 1123 107.09 653.057 468.14
654 0 79.2137 12.9271 1024 108.725 651.657 471.683
655 0 80.2452 13.4961 1083 109.469 649.862 470.755
656 0 84.4127 14.5594 1229 107.513 649.766 469.759
657 0 85.3812 10.4238 890 113.113 649.962 472.433
658 0 89.1942 12.456 1111 110.009 647.695 463.711
659 0 91.3906 13.4587 1230 108.605 648.626 466.527
660 0 95.2105 13.1813 1255 109.952 648.067 463.794
661 1 50.0539 9.68955 485 113.447 647.553 480.064
662 0 52.1811 12.8974 673 106.565 647.074 484.321
663 0 54.2274 14.6974 797 104.664 648.062 483.478
664 0 54.277 9.52522 517 113.13 646.733 485.596
665 0 55.2363 18.5385 1024 102.114 646.095 477.582
666 0 58.1271 14.4511 840 106.804 645.631 476.981
667 0 60.3337 12.1325 732 110.978 645.676 473.799
668 0 61.2282 13.1802 807 109.031 645.741 474.818
669 0 65.2019 14.6621 956 108.101 645.949 473.543
670 0 63.1512 13.8556 875 111.989 646.998 464.771
671 0 67.1294 12.0067 806 113.277 646.552 471.086
672 0 66.2108 13.2305 876 114.441 646.699 465.302
673 0 70.1487 11.0052 772 117.455 647.222 465.633
674 0 70.1933 12.1379 852 118.083 646.663 460.271
675 0 77.1656 15.7713 1217 110.726 648.343 463.769
676 0 77.1362 14.3512 1107 114.529 648.457 459.539
677 0 78.2087 13.6686 1069 116.714 649.67 460.326
678 0 78.2087 13.7069 1072 147.7 651.664 460.342
679 0 82.1527 14.5461 1195 116.102 650.785 459.795
680 0 84.2755 12.7439 1074 120.053 652.046 454.764
681 0 89.3408 18.8827 1687 110.847 652.24 449.197
682 0 90.2528 15.4012 1390 115.787 652.722 449.975
683 0 94.2095 16.4633 1551 113.333 652.577 454.702
684 0 97.2184 14.3594 1396 116.537 653.754 456.009
685 0 100.436 16.9759 1705 112.492 653.974 456.805
686 0 104.289 15.4378 1610 117.103 654.632 451.283
687 0 105.154 12.7623 1342 121.069 653.267 454.536
688 1 59.0483 14.0224 828 112.506 654.647 476.106
689 0 61.1432 12.0046 734 115.971 654.609 476.274
690 0 61.2682 12.0128 736 116.412 654.124 473.198
691 0 66.2807 16.234 1076 107.299 653.373 475.672
692 0 64.1138 10.3878 666 116.453 654.11 476.643
693 0 66.0632 12.4275 821 115.199 653.407 474.141
694 0 70.0988 16.919 1186 105.411 653.943 475.562
695 0 71.1582 13.1116 933 111.752 652.772 472.659
696 0 73.2512 15.4946 1135 107.745 653.702 473.648
697 0 76.1782 12.7464 971 111.653 652.896 474.418
698 0 80.376 15.2906 1229 107.436 652.854 473.574
699 0 78.0911 11.6531 910 113.511 651.297 466.702
700 0 82.1695 14.2875 1174 108.448 650.319 469.554
701 0 85.1469 20.0477 1707 100.524 648.68 469.958
702 0 81.1795 10.9018 885 115.501 648.692 464.296
703 0 88.2317 15.3006 1350 107.313 648.324 461.198
704 0 88.253 13.5973 1200 109.431 647.919 460.562
705 0 91.247 13.8744 1266 109.023 647.71 457.457
706 0 93.1691 13.3306 1242 108.375 647.795 459.01
707 0 95.3951 13.4074 1279 106.544 647.98 463.562
708 0 99.2728 15.7244 1561 104.73 646.863 452.431
709 0 103.469 14.9997 1552 104.472 646.188 448.808
710 0 104.279 15.0557 1570 103.558 647.547 451.162
711 0 106.299 13.6126 1447 105.544 645.475 447.953
712 0 110.131 14.4827 1595 104.426 646.701 445.143
713 0 112.163 14.1669 1589 105.223 645.072 447.415
714 0 112.245 10.5217 1181 111.833 646.721 441.184
715 0 119.207 12.558 1497 107.905 645.429 441.005
716 0 120.283 10.9492 1317 110.553 647.408 439.441
717 0 120.283 11.0406 1328 123.414 648.395 439.334
718 0 131.303 16.3819 2151 105.39 646.929 428.619
719 0 131.503 10.9731 1443 114.306 646.802 422.65
720 0 131.503 10.9731 1443 132.572 646.802 422.65
721 1 144.726 12.9002 1867 111.351 649.259 424.485
722 0 143.353 15.6816 2248 109.019 649.736 418.464
723 0 147.512 12.0872 1783 112.579 650.502 422.215
724 0 154.3 21.2961 3286 102.421 651.297 412.157
725 0 154.3 21.2961 3286 113.615 651.297 412.157
726 0 161.307 12.4669 2011 115.761 651.016 410.98
727 0 168.491 16.8377 2837 110.092 653.171 417.006
728 0 171.327 15.2399 2611 114.029 653.253 417.107
729 0 178.366 20.7606 3703 107.779 654.342 402.272
730 0 179.428 12.2835 2204 120.915 653.858 406.128
731 0 188.539 16.0444 3025 116.319 654.561 404.743
732 0 192.686 14.22 2740 120.281 654.076 401.207
733 0 202.542 18.7961 3807 113.292 654.649 393.984
734 0 207.564 13.9282 2891 121.942 654.56 394.295
735 0 215.872 15.9585 3445 118.898 653.77 395.086
736 0 214.342 12.8859 2762 126.125 653.869 381.76
737 1 54.1822 10.114 548 108.641 653.232 482.369
738 0 56.3422 9.56653 539 109.252 654.076 482.98
739 0 56.1487 12.8943 724 106.921 652.42 481.674
740 0 57.2188 8.89569 509 109.79 652.919 483.279
741 0 61.435 11.6709 717 105.798 650.678 478.225
742 0 57.2907 9.9318 569 109.714 651.181 478.279
743 0 62.2324 8.51647 530 110.111 650.374 481.672
744 0 65.2793 10.7078 699 108.196 648.619 477.994
745 0 65.4286 10.1026 661 109.136 648.545 474.737
746 0 65.1783 7.82469 510 113.492 649.496 475.782
747 0 68.1378 8.6736 591 113.284 648.543 474.271
748 0 72.2325 10.4524 755 110.881 649.501 473.931
749 0 72.2208 9.76173 705 113.416 648.223 466.33
750 0 75.1398 10.8997 819 112.603 648.328 466.346
751 0 78.1771 10.7193 838 112.792 647.297 466.555
752 0 79.3768 12.2328 971 110.322 647.224 465.861
753 0 81.2166 8.61892 700 115.074 647.013 466.124
754 0 88.5847 15.0703 1335 106.327 648.971 462.052
755 0 86.2919 13.5354 1168 110.581 648.215 461.289
756 0 94.3321 16.1239 1521 106.173 648.114 460.759
757 0 93.3304 11.0682 1033 116.274 649.18 452.484
758 0 97.2254 10.9231 1062 116.098 649.115 447.309
759 0 98.3737 11.6901 1150 116.321 649.599 447.387
760 0 102.343 12.7513 1305 114.276 649.21 445.014
761 0 105.337 12.797 1348 112.8 651.428 441.541
762 0 109.373 10.4505 1143 115.668 650.416 445.564
763 0 112.568 10.6247 1196 117.785 652.158 446.079
764 1 60.1598 12.1177 729 111.129 651.373 468.676
765 0 65.4613 13.0459 854 110.827 652.139 461.324
766 0 68.4483 17.4146 1192 103.073 652.946 464.876
767 0 74.5703 19.5252 1456 98.7115 653.397 465.356
768 0 71.5083 12.2224 874 111.37 653.693 464.979
769 0 73.2452 10.2259 749 116.689 653.862 465.554
770 0 71.277 11.1396 794 116.997 654.38 461.343
771 0 74.2855 12.6 936 114.219 654.99 460.156
772 0 75.1292 13.6432 1025 112.175 654.86 464.04
773 0 80.1565 13.2117 1059 113.954 655.208 460.734
774 0 79.3093 10.3014 817 119.588 655.411 464.678
775 0 83.2998 13.0252 1085 113.948 655.912 466.949
776 0 85.2209 12.2388 1043 116.802 655.274 462.233
777 0 86.2592 11.3495 979 119.131 654.325 456.768
778 0 89.18 14.8015 1320 113.683 654.489 461.335
779 0 92.2657 13.3202 1229 114.967 653.889 459.804
780 0 95.454 13.8391 1321 113.664 655.25 460.232
781 0 95.4705 12.4855 1192 116.893 654.591 460.841
782 0 98.3729 12.9304 1272 116.594 654.272 459.256
783 1 54.2022 14.6673 795 108.752 653.904 483.216
784 0 52.3441 11.3671 595 114.472 653.687 483.718
785 0 52.2316 10.9129 570 115.826 652.535 480.442
786 0 57.2801 12.3603 708 114.709 651.677 478.965
787 0 59.1261 12.5664 743 115.573 651.376 478.48
788 0 60.0916 9.36903 563 121.204 649.957 475.378
789 0 65.2846 13.1884 861 113.751 649.116 475.535
790 0 68.1032 13.3621 910 112.657 647.97 472.458
791 0 68.4036 16.3149 1116 109.143 648.284 468.952
792 0 72.5483 15.8515 1150 107.87 646.35 470.284
793 0 72.5483 16.0169 1162 123.425 645.349 470.196
794 1 81.4311 10.2541 835 116.16 647.886 469.113
795 0 79.4669 13.729 1091 113.027 645.737 458.029
796 0 85.6544 14.6052 1251 110.006 646.633 462.364
797 0 85.4234 16.6582 1423 108.337 647.264 460.204
798 0 83.1623 13.5518 1127 115.713 647.52 458.073
799 0 88.5122 18.393 1628 108.735 648.093 455.086
800 0 90.5098 12.1865 1103 118.436 647.497 452.479
801 0 95.5641 16.073 1536 112.479 648.41 450.038
802 0 102.008 15.2733 1558 111.228 647.762 451.876
803 0 102.601 13.3624 1371 116.47 648.194 446.498
804 0 103.427 12.6175 1305 117.622 648.356 445.352
805 0 110.506 15.1846 1678 112.412 649.952 437.893
806 1 60.5643 11.2938 684 112.231 649.727 465.887
807 0 61.3424 14.7859 907 106.977 649.551 466.868
808 0 65.1812 13.286 866 109.408 651.746 466.171
809 0 66.1818 16.3187 1080 105.791 652.238 464.86
810 0 70.4403 11.1726 787 112.236 652.216 463.93
811 0 72.2921 13.4178 970 112.057 653.514 460.352
812 0 76.4106 14.5268 1110 109.528 653.368 460.868
813 0 76.4808 14.1212 1080 111.023 653.692 462.827
814 0 80.6307 17.2887 1394 105.017 655.287 463.24
815 0 80.365 13.5382 1088 111.426 654.724 461.535
816 0 80.2479 12.748 1023 115.29 655.544 454.777
817 0 85.2422 11.9307 1017 115.559 654.824 458.868
818 0 87.6903 9.93268 871 118.837 655.193 457.65
819 0 90.4498 14.2952 1293 111.496 655.301 463.579
820 0 92.5601 10.5121 973 120.028 655.812 458.764
821 0 94.332 12.3182 1162 116.579 654.446 458.843
822 0 100.517 14.6741 1475 112.397 655.24 456.807
823 0 101.454 12.9122 1310 115.618 653.332 458.324
824 0 99.5006 8.56276 852 122.518 654.607 458.653
825 1 57.3433 13.9685 801 107.994 652.539 479.89
826 0 55.1315 11.4272 630 115.651 653.754 479.032
827 0 56.1586 12.6962 713 114.164 652.829 479.694
828 0 59.203 10.3711 614 117.818 652.857 480.111
829 0 61.2137 11.2066 686 117.446 651.964 477.458
830 0 62.3219 14.393 897 111.239 651.677 477.962
831 0 61.2832 10.4923 643 118.19 651.042 474.826
832 0 67.3938 14.0072 944 111.062 650.945 474.577
833 0 66.1647 11.3958 754 117.338 649.983 467.603
834 0 75.5351 16.3235 1233 104.873 649.766 474.386
835 0 73.2225 12.7829 936 113.017 649.636 469.124
836 0 74.1542 12.7842 948 113.741 649.973 468.277
837 0 77.2483 11.832 914 116.3 649.73 460.349
838 0 81.1569 13.0858 1062 112.581 649.327 464.535
839 0 81.1614 11.1506 905 115.6 649.87 467.514
840 0 85.1568 15.0781 1284 110.678 648.667 461.991
841 0 87.116 13.2237 1152 113.847 649.299 457.302
842 0 90.3063 12.5462 1133 113.954 648.879 456.208
843 0 99.1987 7.57066 751 117.668 648.67 466.744
844 1 48.2382 10.9664 529 114.709 647.599 471.779
845 0 55.3105 10.2151 565 116.257 648.938 469.591
846 0 55.3244 10.7909 597 116.178 649.492 469.482
847 0 58.2327 13.1885 768 112.426 649.733 466.016
848 0 59.2399 12.863 762 113.268 650.14 467.01
849 0 63.3659 13.9981 887 109.964 649.616 469.464
850 0 62.2747 14.0185 873 112.608 651.786 463.628
851 0 64.2922 12.7232 818 114.891 651.726 464.759
852 0 66.1058 13.7053 906 113.796 653.969 463.552
853 0 68.2738 12.816 875 113.593 652.896 462.861
854 0 69.4175 10.2424 711 120.693 655.37 463.432
855 0 73.3068 13.4367 985 114.89 654.506 460.323
856 0 75.1894 17.6089 1324 109.465 655.658 459.346
857 0 76.3107 12.9733 990 118.695 656.267 458.497
858 0 79.2456 12.884 1021 119.007 656.748 459.694
859 0 80.5105 12.7437 1026 120.46 656.885 460.777
860 0 84.6178 12.4678 1055 120.896 657.155 459.837
861 1 48.167 9.82 473 119.072 655.795 480.013
862 0 50.1957 12.3517 620 116.779 655.205 479.982
863 0 51.0506 13.4376 686 115.233 655.117 479.178
864 0 53.3116 12.774 681 118.424 655.546 480.198
865 0 53.3565 12.0885 645 119.929 654.705 480.524
866 0 56.3297 11.1309 627 120.435 654.939 478.18
867 0 55.2421 11.2595 622 121.476 655.23 479.932
868 0 61.2791 15.0949 925 113.159 653.992 479.081
869 0 58.1599 13.4973 785 117.964 652.805 477.934
870 0 61.1642 11.7062 716 120.99 652.038 476.75
871 0 64.1026 12.4488 798 119.382 651.727 475.612
872 0 66.1038 16.3833 1083 112.468 650.375 472.402
873 0 66.0627 13.7748 910 118.274 649.989 474.004
874 0 70.2523 16.1703 1136 112.936 649.614 472.32
875 0 71.2338 15.5123 1105 114.994 649.547 471.408
876 0 73.2369 16.7675 1228 112.985 649.649 469.606
877 0 77.2688 16.3844 1266 114.285 648.412 465.716
878 0 77.2704 16.3711 1265 133.221 646.388 465.74
879 0 83.3841 13.6477 1138 118.656 649.084 466.866
880 0 82.4049 13.2031 1088 121.028 649.483 465.785
881 0 82.2862 14.2551 1173 120.126 649.265 463.619
882 0 88.5309 12.5267 1109 122.913 649.107 462.959
883 0 92.3801 13.1305 1213 121.43 648.55 459.036
884 1 52.1258 13.5825 708 117.068 649.578 476.277
885 0 52.1258 13.7168 715 136.345 649.557 476.266
886 0 53.1362 13.8324 735 116.399 647.849 472.22
887 0 54.0972 15.2318 824 114.544 648.434 474.051
888 0 57.0554 15.1607 865 115.542 648.442 471.276
889 0 56.0701 13.9112 780 120.205 649.15 467.704
890 0 55.1246 12.8981 711 122.855 649.75 466.79
891 0 58.0552 13.1082 761 122.112 649.76 466.139
892 0 59.2001 11.9932 710 124.148 651.358 465.854
893 0 64.0525 16.3147 1045 115.255 651.241 463.136
894 0 66.165 14.9626 990 116.974 651.705 460.118
895 0 67.0692 14.1496 949 118.987 652.969 459.293
896 0 68.0389 14.0361 955 120.444 653.456 458.873
897 0 72.1592 16.6299 1200 114.662 653.456 459.12
898 0 77.2824 14.1559 1094 117.524 653.852 462.04
899 0 77.2978 13.338 1031 120.462 654.846 459.672
900 0 78.1243 13.9905 1093 118.893 655.571 463.227
901 0 80.2064 14.2507 1143 119.736 655.372 461.338
902 0 87.2294 18.8583 1645 110.633 656.525 462.194
903 0 86.1241 14.154 1219 121.103 657.19 457.336
904 1 45.1738 10.2714 464 121.524 657.278 481.731
905 0 45.1595 10.0533 454 123.496 656.987 481.813
906 0 43.0628 10.0783 434 124.26 655.477 475.253
907 0 49.254 12.3848 610 117.228 656.312 481.485
908 0 49.2481 11.635 573 122.838 655.754 479.686
909 0 51.3006 11.5788 594 122.49 655.38 481.69
910 0 50.1678 11.4217 573 125.627 654.71 480.656
911 0 56.2967 13.3578 752 118.855 655.049 483.464
912 0 54.1175 11.9185 645 123.51 654.518 480.281
913 0 60.2134 16.1758 974 113.95 653.853 481.431
914 0 60.2376 16.2191 977 113.486 652.507 482.476
915 0 62.1132 14.0711 874 118.223 651.868 478.705
916 0 63.0675 13.7313 866 117.935 651.087 478.204
917 0 64.499 15.1785 979 116.111 650.422 475.561
918 0 68.1669 12.4547 849 119.902 649.052 476.809
919 0 73.3963 24.2519 1780 99.5843 648.949 481.722
920 0 76.8468 16.3182 1254 111.098 649.146 476.955
921 0 74.1786 13.845 1027 118.672 649.888 472.473
922 0 78.1559 14.9829 1171 115.684 649.33 473.244
923 0 82.5015 15.5391 1282 114.645 648.572 467.841
924 0 82.5218 13.2207 1091 118.121 648.945 466.332
925 1 46.4418 12.2734 570 116.502 648.537 482.616
926 0 46.167 11.5234 532 117.617 647.494 482.825
927 0 46.1292 12.6601 584 117.426 648.656 479.8
928 0 50.2107 14.5387 730 113.322 649.559 471.775
929 0 48.1561 12.3141 593 118.275 649.292 476.02
930 0 50.3339 10.8873 548 120.717 649.215 476.755
931 0 52.1378 11.1052 579 119.827 651.197 473.922
932 0 56.2595 14.0776 792 114.081 650.947 470.799
933 0 56.2296 12.1466 683 117.004 651.328 467.87
934 0 61.2316 13.1795 807 116.126 651.312 468.063
935 0 61.3486 15.6809 962 112.474 652.358 463.476
936 0 63.3264 12.7435 807 118.424 652.596 462.566
937 0 66.5387 12.6844 844 117.767 654.618 466.231
938 0 68.2572 15.0167 1025 111.837 654.749 467.782
939 0 72.2044 14.1958 1025 114.706 655.401 461.19
940 0 71.347 13.3713 954 117.35 655.233 457.941
941 0 73.2739 11.4229 837 120.683 655.806 456.596
942 0 79.5904 14.2354 1133 115.09 656.372 457.011
943 1 41.2947 12.7377 526 113.26 656.536 472.173
944 0 46.4275 12.1264 563 112.24 656.604 473.597
945 0 43.1131 11.9917 517 114.103 656.083 473.325
946 0 48.3469 11.8518 573 112.152 656.136 479.222
947 0 50.1895 13.2697 666 110.5 656.578 478.342
948 0 50.088 10.1422 508 115.663 655.88 475.404
949 0 51.4043 10.7773 554 116.088 656.141 477.782
950 0 55.3504 14.1282 782 109.831 656.451 475.731
951 0 58.5305 10.9857 643 113.467 656.31 475.487
952 0 60.269 14.568 878 109.145 656.46 478.128
953 0 63.4371 15.2592 968 108.084 654.691 474.923
954 0 63.4371 15.1489 961 121.826 653.683 474.835
955 0 66.202 15.0146 994 110.365 653.854 480.114
956 0 67.164 15.8418 1064 109.43 653.186 475.808
957 0 68.3875 11.0254 754 117.186 652.683 473.517
958 0 72.9356 12.8195 935 111.62 651.956 473.617
959 0 75.4441 16.8734 1273 105.504 651.363 473.503
960 0 77.5671 13.8848 1077 108.876 650.52 469.347
961 0 78.6177 14.6405 1151 108.23 650.742 468.606
962 0 82.7296 13.1875 1091 109.72 650.841 472.715
963 0 83.4458 14.2607 1190 108.655 652.058 471.404
964 0 86.5886 16.2724 1409 107.371 650.537 463.782
965 0 91.6377 17.1982 1576 105.387 650.337 461.807
966 0 91.6377 17.1982 1576 123.841 650.277 461.961
967 0 93.5551 13.1046 1226 114.114 649.654 458.854
968 1 56.1215 13.5955 763 104.74 649.868 481.474
969 0 52.2501 12.0191 628 111.615 649.567 476.438
970 0 55.156 12.1655 671 110.659 649.201 480.881
971 0 56.2034 14.0739 791 108.951 650.029 474.401
972 0 55.1246 12.7348 702 112.184 648.982 471.556
973 0 60.36 16.8986 1020 103.11 649.886 474.826
974 0 60.3396 11.1867 675 112.193 650.413 472.679
975 0 62.4856 13.9552 872 105.885 650.728 469.763
976 0 69.702 18.0339 1257 102.424 651.313 469.41
977 0 68.3206 16.7007 1141 104.38 651.606 470.203
978 0 68.2405 12.4999 853 112.231 651.097 461.513
979 0 70.507 11.474 809 112.957 652.701 464.967
980 0 70.507 11.474 809 143.058 652.677 464.92
981 0 76.3625 12.9907 992 110.307 654.975 458.174
982 0 81.5179 13.4449 1096 108.051 654.987 455.746
983 0 85.8403 20.841 1789 96.7619 655.197 465.508
984 0 80.3133 13.161 1057 141.43 653.636 456.108
985 0 82.6132 12.6614 1046 111.728 655.833 459.364
986 1 50.4491 12.131 612 107.222 656.407 474.194
987 0 50.236 13.6755 687 105.707 655.868 472.917
988 0 50.3899 11.0538 557 110.366 657.386 475.052
989 0 51.335 12.3502 634 112.773 657.041 476.872
990 0 50.2913 11.155 561 115.018 657.283 474.262
991 0 55.3692 13.5635 751 112.503 657.417 475.746
992 0 57.1497 14.8557 849 108.207 656.569 478.773
993 0 57.2242 15.0636 862 108.781 657.162 478.362
994 0 59.4522 13.9944 832 112.593 656.663 476.135
995 0 60.428 13.1562 795 113.067 656.909 479.484
996 0 63.104 14.3731 907 110.603 655.676 482.699
997 0 66.2502 13.8415 917 111.706 654.353 478.713
998 0 67.1394 14.4326 969 113.334 654.506 476.864
999 0 70.187 14.1764 995 114.266 654.479 476.048
1000 0 71.2866 14.2243 1014 115.109 653.508 472.558
1001 0 73.286 15.3372 1124 112.737 651.851 473.568
1002 0 75.4229 13.0995 988 116.352 652.317 475.511
1003 0 75.4229 13.0332 983 152.73 653.335 475.405
1004 0 79.2147 15.2371 1207 114.952 651.496 469.95
1005 0 83.2499 14.4144 1200 118.048 649.479 467.808
1006 0 82.3989 14.7939 1219 118.45 650.185 468.496
1007 0 86.1043 16.2361 1398 116.333 650.039 464.946
1008 0 88.272 14.6932 1297 119.52 649.861 460.187
1009 0 91.2974 15.6193 1426 116.766 648.621 459.443
1010 0 95.3851 14.7612 1408 117.686 649.155 452.536
1011 0 94.3029 11.5903 1093 124.407 649.387 454.599
1012 0 97.1473 15.3684 1493 118.506 648.441 450.643
1013 0 101.151 12.427 1257 120.871 649.349 456.698
1014 0 104.359 13.2619 1384 121.395 648.326 448.789
1015 0 108.267 13.2173 1431 121.862 649.936 448.072
1016 0 109.087 11.6971 1276 124.726 650.616 432.32
1017 1 60.1961 12.5756 757 119.984 650.308 459.592
1018 0 60.3726 11.2634 680 123.443 650.862 462.849
1019 0 63.1535 12.6359 798 120.8 650.977 463.851
1020 0 61.0414 12.9093 788 119.902 651.751 456.251
1021 0 66.0923 11.6201 768 121.534 652.142 454.124
1022 0 70.0484 14.8611 1041 116.495 651.528 456.835
1023 0 74.1314 13.9887 1037 118.924 652.24 460.918
1024 0 76.3415 15.6403 1194 117.343 654.18 459.564
1025 0 77.2379 15.0833 1165 117.678 654.573 454.688
1026 0 81.3261 15.5178 1262 116.202 654.432 455.082
1027 0 84.4054 15.1886 1282 118.006 655.415 454.821
1028 0 84.4054 15.082 1273 140.521 656.399 454.801
1029 0 87.2793 11.7554 1026 125.254 656.073 454.761
1030 0 89.1213 14.5644 1298 118.874 656.772 457.13
1031 0 91.3694 12.9037 1179 123.284 655.567 451.344
1032 0 91.3694 12.9912 1187 146.813 654.554 451.311
1033 0 101.376 14.9246 1513 118.143 656.442 456.861
1034 0 103.308 14.8391 1533 119.022 657.348 456.112
1035 0 105.299 13.4664 1418 123.522 656.704 449.176
1036 1 58.2369 13.5481 789 118.456 656.738 476.319
1037 0 59.407 12.9278 768 121.271 655.79 476.12
1038 0 61.1459 13.5577 829 119.355 656.911 476.288
1039 0 63.1974 11.2188 709 125.137 655.367 477.553
1040 0 65.1392 11.3603 740 125.7 654.732 475.572
1041 0 69.155 13.7951 954 120.452 654.363 475.1
1042 0 69.1044 13.4724 931 122.02 653.914 475.781
1043 0 70.2227 11.2357 789 126.003 653.726 474.105
1044 0 75.2573 14.0983 1061 120.175 652.545 472.084
1045 0 78.5198 15.3592 1206 117.202 651.438 469.794
1046 0 80.4942 13.1065 1055 120.484 651.415 470.112
1047 0 81.4653 15.6263 1273 117.588 651.466 464.927
1048 0 84.7079 12.3483 1046 124.609 649.943 464.792
1049 0 84.5688 12.6406 1069 125.138 649.414 461.652
1050 0 86.4642 12.8377 1110 123.266 649.25 464.341
1051 0 88.4888 11.3913 1008 126.712 647.824 458.908
1052 0 92.5508 13.3656 1237 122.808 648.816 459.023
1053 0 92.7074 13.2352 1227 124.104 648.235 455.573
1054 0 95.6153 11.609 1110 127.124 648.557 453.985
1055 0 100.406 13.545 1360 122.755 648.789 456.164
1056 0 102.599 13.197 1354 123.888 648.809 452.601
1057 0 104.509 12.3435 1290 125.116 647.996 447.41
1058 0 109.353 16.5519 1810 118.044 647.93 444.234
1059 0 110.62 12.5203 1385 125.664 648.946 442.582
1060 0 116.572 15.3039 1784 120.234 649.261 442.468
1061 1 62.3343 8.77526 547 125.901 650.15 469.106
1062 0 67.1447 13.3443 896 117.203 650.621 468.209
1063 0 67.4012 13.1155 884 119.307 650.974 464.982
1064 0 70.6308 14.9227 1054 117.106 651.273 460.686
1065 0 75.2986 12.9086 972 120.964 652.439 463.885
1066 0 74.3616 14.6043 1086 120.747 651.99 458.808
1067 0 80.5451 15.929 1283 116.012 652.851 462.178
1068 0 81.4731 12.9122 1052 123.288 652.965 460.368
1069 0 82.185 14.078 1157 120.838 653.763 458.672
1070 0 84.4154 10.8748 918 124.81 654.72 460.429
1071 0 87.1041 12.1234 1056 123.49 655.075 456.671
1072 0 94.237 17.0315 1605 114.112 655.796 456.236
1073 0 92.1773 12.3024 1134 123.578 655.87 453.086
1074 0 97.2603 13.4484 1308 121.339 656.878 452.836
1075 0 99.3522 13.6484 1356 121.453 657.42 453.044
1076 0 102.204 14.3047 1462 119.972 656.079 450.225
1077 1 57.1515 12.1432 694 114.461 656.024 479.661
1078 0 56.1024 11.5147 646 117.492 656.447 478.543
1079 0 59.2846 9.46284 561 119.478 655.82 482.326
1080 0 63.264 12.5664 795 115.32 656.873 479.942
1081 0 61.1122 12.8943 788 115.888 654.793 479.164
1082 0 61.1122 13.0252 796 122.028 652.819 479.173
1083 0 70.3422 10.8043 760 118.075 653.338 474.599
1084 0 71.138 12.792 910 115.046 653.614 474.647
1085 0 72.1165 13.187 951 114.346 652.161 474.39
1086 0 76.1676 13.444 1024 113.816 652.801 475.924
1087 0 75.1361 9.88873 743 121.035 651.604 468.54
1088 0 84.2927 12.3617 1042 114.405 651.898 474.329
1089 0 83.3029 13.8411 1153 114.885 650.543 467.198
1090 0 87.2855 11.6629 1018 117.197 650.428 464.915
1091 0 90.1866 13.8601 1250 112.938 649.957 466.017
1092 0 93.2428 12.9125 1204 114.548 649.123 461.285
1093 0 95.3561 14.3462 1368 112.474 648.194 463.342
1094 1 49.1253 6.92107 340 115.968 648.403 487.788
1095 0 53.1349 16.2417 863 104.563 647.928 483.329
1096 0 54.0611 12.3564 668 112.238 648.051 479.675
1097 0 57.3075 11.796 676 112.972 647.978 478.543
1098 0 57.338 15.1034 866 109.421 648.404 476.986
1099 0 56.2532 12.4615 701 115.251 647.194 474.439
1100 0 60.3522 14.2165 858 111.807 647.876 474.013
1101 0 61.3638 14.194 871 112.17 648.178 473.437
1102 0 62.1349 12.2314 760 115.934 648.934 471.225
1103 0 62.2254 9.16024 570 121.293 649.29 472.296
1104 0 66.1356 11.3555 751 116.378 648.899 471.035
1105 0 69.4197 10.1412 704 119.023 649.95 470.05
1106 0 69.2819 11.3883 789 116.951 649.916 467.15
1107 0 74.2254 10.8723 807 117.797 651.249 465.033
1108 0 79.1504 13.1522 1041 114.325 649.89 460.658
1109 0 81.3354 14.889 1211 109.72 651.775 459.15
1110 0 80.2636 12.4589 1000 114.061 652.554 458.017
1111 1 43.0859 11.0941 478 114.462 653.172 476.274
1112 0 46.1232 12.7051 586 111.191 653.319 477.988
1113 0 47.191 12.4388 587 113.187 653.039 474.155
1114 0 44.2085 11.4458 506 116 652.47 476.144
1115 0 48.0667 14.0222 674 108.668 654.441 476.681
1116 0 49.0692 12.2276 600 112.08 654.53 476.625
1117 0 49.1077 10.6093 521 114.474 655.144 478.735
1118 0 51.1172 9.39019 480 117.183 653.423 472.692
1119 0 52.1456 12.5034 652 113.305 654.514 475.193
1120 0 56.445 13.3758 755 109.442 655.191 479.298
1121 0 58.1614 12.6716 737 112.335 654.56 479.099
1122 0 58.1614 12.6888 738 133.405 654.574 479.178
1123 0 61.1659 14.5015 887 110.399 654.189 479.559
1124 0 61.151 14.0799 861 112.606 654.372 477.657
1125 0 69.3572 15.6292 1084 108.343 653.769 478.932
1126 0 68.1165 17.382 1184 109.122 652.944 477.391
1127 0 69.1079 11.3156 782 117.07 652.044 475.873
1128 0 72.1193 14.3235 1033 112.782 652.941 480.419
1129 0 75.1721 12.2253 919 115.794 651.432 475.376
1130 0 79.2105 14.9475 1184 111.97 650.19 473.91
1131 0 78.2941 12.7085 995 117.492 649.29 472.514
1132 1 42.0553 8.25104 347 119.85 650.331 492.706
1133 0 43.0731 11.0278 475 118.486 648.998 490.701
1134 0 45.1374 12.6281 570 112.767 650.016 493.863
1135 0 43.0436 10.8495 467 118.218 648.019 489.863
1136 0 47.1093 11.0382 520 118.669 648.165 486.765
1137 0 49.3071 12.1889 601 116.238 645.945 484.2
1138 0 52.2951 13.5003 706 112.514 645.647 486.399
1139 0 51.2952 11.775 604 119.002 645.588 481.692
1140 0 51.2879 11.6207 596 117.701 646.047 485.901
1141 0 53.2482 12.3572 658 117.793 644.45 480.804
1142 0 56.3221 12.8369 723 116.682 646.066 480.346
1143 0 55.3004 10.886 602 122.953 645.734 477.349
1144 0 56.348 13.2569 747 119.305 646.384 476.015
1145 0 58.1808 11.4471 666 120.545 646.691 477.18
1146 0 60.2868 12.7557 769 117.462 646.85 475.622
1147 0 61.2237 12.2338 749 120.112 646.881 472.455
1148 0 66.1117 20.1326 1331 107.272 647.444 465.654
1149 0 67.1892 16.5949 1115 109.538 646.797 473.247
1150 0 68.1687 12.3077 839 122.225 648.477 464.522
1151 0 70.0674 12.3453 865 119.629 649.175 466.19
1152 0 71.2556 11.6763 832 121.201 649.505 466.644
1153 0 74.2086 12.6266 937 121.533 651.799 462.762
1154 0 78.2847 14.9965 1174 116.825 651.477 463.583
1155 0 80.4221 15.7544 1267 116.431 652.825 460.029
1156 0 83.4632 17.5886 1468 113.42 652.145 454.288
1157 0 88.4369 17.6849 1564 112.785 652.762 458.092
1158 0 89.3106 13.8282 1235 120.499 654.096 460.679
1159 0 90.2307 17.7988 1606 114.54 653.581 458.351
1160 0 96.3361 16.0584 1547 116.794 655.897 454.187
1161 0 98.4879 16.3066 1606 116.242 655.531 450.027
1162 0 98.4554 15.2049 1497 119.122 656.134 454.259
1163 1 53.1809 11.0566 588 120.129 654.575 481.145
1164 0 55.1249 13.6962 755 117.069 655.677 478.899
1165 0 57.1522 12.1955 697 119.435 654.518 479.828
1166 0 58.1289 13.5905 790 117.872 654.401 481.201
1167 0 62.1112 12.6547 786 120.174 653.625 478.076
1168 0 64.1101 14.0852 903 117.716 653.517 475.281
1169 0 65.1492 14.2442 928 117.524 652.75 474.371
1170 0 69.096 13.5898 939 117.283 652.81 476.805
1171 0 72.176 14.4369 1042 115.514 651.418 475.388
1172 0 74.1414 12.8134 950 118.716 651.69 474.802
1173 0 76.1289 11.139 848 122.162 649.768 471.127
1174 0 79.297 15.65 1241 114.396 649.247 470.965
1175 0 82.1351 14.5492 1195 116.331 649.095 467.689
1176 0 87.1087 13.4544 1172 116.435 649.319 470.204
1177 0 86.2186 14.8344 1279 114.368 648.362 468.682
1178 0 86.3829 14.5631 1258 117.082 647.206 461.643
1179 0 91.3145 14.6527 1338 114.672 648.096 465.971
1180 0 93.4744 16.4216 1535 112.529 647.829 459.466
1181 0 97.3912 16.6442 1621 111.87 646.685 460.015
1182 0 97.329 13.367 1301 116.998 647.59 456.052
1183 0 100.404 10.2685 1031 121.805 647.163 459.654
1184 1 53.151 11.3074 601 117.968 646.91 480.691
1185 0 58.1861 11.4976 669 115.697 646.263 479.747
1186 0 55.1627 11.8558 654 118.407 646.668 475.161
1187 0 58.0706 11.4688 666 118.111 645.533 469.628
1188 0 59.3374 12.2857 729 115.436 646.111 469.94
1189 0 64.2251 13.3281 856 113.235 646.537 468.037
1190 0 63.2715 12.0749 764 115.668 646.199 467.501
1191 0 67.1944 15.6858 1054 110.971 645.902 464.55
1192 0 68.3602 14.3651 982 113.081 647.366 465.605
1193 0 67.2208 10.7705 724 120.721 648.385 462.993
1194 0 72.1066 13.8268 997 115.482 648.856 463.56
1195 0 76.4092 14.1082 1078 114.674 649.834 460.968
1196 0 76.4092 14.1213 1079 142.02 649.826 460.942
1197 0 78.3651 14.7132 1153 115.636 650.795 455.367
1198 0 83.486 10.7443 897 120.725 651.876 460.598
1199 0 85.2318 16.7661 1429 112.522 651.85 453.108
1200 0 87.4491 12.0527 1054 120.091 653.152 458.424
1201 0 91.245 13.2829 1212 117.051 653.621 452.012
1202 0 93.283 14.8151 1382 115.033 654.451 455.223
1203 1 53.3837 14.274 762 113.601 654.476 475.786
1204 0 54.3109 12.5573 682 117.56 655.304 475.721
1205 0 57.5392 13.695 788 111.519 653.952 476.449
1206 0 58.209 11.7508 684 115.801 654.766 476.911
1207 0 57.2121 10.6271 608 121.36 655.952 472.688
1208 0 61.1927 11.7498 719 118.032 654.928 477.216
1209 0 67.3611 16.6713 1123 110.427 654.787 473.249
1210 0 67.2656 13.5879 914 115.47 653.535 476.044
1211 0 66.2653 13.778 913 130.646 652.55 476.147
1212 0 70.0674 13.173 923 117.566 652.727 474.132
1213 0 75.3448 12.6751 955 116.494 652.395 476.692
1214 0 74.2946 11.0371 820 121.143 651.544 472.079
1215 0 78.4069 11.8229 927 118.886 651.805 474.683
1216 0 82.2307 15.0674 1239 114.232 650.374 471.374
1217 0 86.2992 14.9016 1286 113.096 648.037 470.337
1218 0 88.2916 12.4474 1099 115.559 648.524 469.593
1219 0 93.2946 15.7029 1465 109.479 648.065 468.612
1220 0 91.2379 12.8346 1171 115.874 647.173 464.21
1221 1 52.2613 11.366 594 114.887 647.325 482.473
1222 0 54.0837 12.0554 652 115.558 645.675 482.147
1223 0 54.2584 15.0944 819 109.579 648.567 480.037
1224 0 56.3366 12.7093 716 113.33 646.912 478.289
1225 0 56.1185 12.8656 722 113.014 645.758 476.87
1226 0 60.2842 15.3606 926 109.044 646.198 475.783
1227 0 64.2741 12.6489 813 112.867 646.689 476.025
1228 0 63.124 12.8953 814 115.622 646.964 466.705
1229 0 64.1092 12.4007 795 115.813 646.727 468.463
1230 0 68.0963 13.0697 890 113.285 647.197 467.237
1231 0 68.0963 13.0257 887 135.409 647.168 467.228
1232 0 72.1823 13.4105 968 113.671 648.123 466.394
1233 0 73.1899 13.1166 960 134.143 649.156 466.339
1234 0 76.3022 10.9826 838 116.901 648.178 464.876
1235 0 82.4103 17.7526 1463 103.388 649.412 468.759
1236 0 83.1323 14.1581 1177 112.102 650.694 459.239
1237 0 83.1541 10.4745 871 116.972 650.184 457.498
1238 0 85.1208 13.24 1127 113.404 651.449 456.236
1239 0 88.3028 12.9214 1141 112.922 651.715 451.23
1240 0 91.1291 13.4973 1230 112.237 652.463 453.42
1241 0 96.0889 15.9644 1534 108.959 653.624 451.888
1242 0 97.2772 12.7882 1244 113.447 653.805 450.502
1243 0 99.131 10.8241 1073 119.502 654.226 447.856
1244 0 105.168 15.2803 1607 112.201 654.124 446.037
1245 1 52.0867 10.4057 542 114.144 655.203 473.963
1246 0 55.1437 12.6578 698 109.768 655.572 474.67
1247 0 57.1859 11.244 643 111.493 655.986 476.199
1248 0 56.1942 13.5245 760 109.991 655.538 471.895
1249 0 59.147 11.9364 706 111.374 656.034 475.004
1250 0 61.2139 11.2066 686 113.69 654.589 471.122
1251 0 65.1652 13.366 871 109.093 655.764 475.608
1252 0 69.3501 12.9344 897 109.439 654.521 473.794
1253 0 67.207 12.5136 841 111.747 655.093 472.021
1254 0 69.2948 12.3819 858 112.586 654.158 472.957
1255 0 75.23 12.947 974 111.159 654.802 471.371
1256 0 76.3232 13.9538 1065 110.899 653.798 473.008
1257 0 79.3634 14.0367 1114 110.998 653.234 474.91
1258 0 82.3505 13.2968 1095 111.999 651.796 470.932
1259 0 85.4367 13.6241 1164 111.754 651.288 471.312
1260 0 87.1731 13.1577 1147 113.563 650.86 471.406
1261 0 88.1606 11.0707 976 117.803 650.042 466.698
1262 0 95.341 15.4183 1470 109.654 649.343 463.574
1263 0 96.6472 12.8509 1242 114.566 648.835 461.333
1264 0 100.423 11.4217 1147 115.163 648.461 464.382
1265 1 54.2128 12.783 693 106.788 649.042 485.166
1266 0 54.1292 12.8766 697 107.277 647.739 481.877
1267 0 57.2732 13.584 778 107.553 647.212 480.021
1268 0 56.1454 10.2056 573 111.089 647.394 481.902
1269 0 58.2407 10.4394 608 109.91 646.192 480
1270 0 61.2566 11.509 705 110.051 647.001 478.214
1271 0 63.152 14.5364 918 106.24 646.639 474.515
1272 0 64.2699 11.125 715 112.815 647.613 468.709
1273 0 67.4372 13.153 887 108.501 647.592 469.434
1274 0 70.3216 15.1731 1067 105.431 647.831 468.027
1275 0 69.1223 11.9498 826 114.332 647.881 464.66
1276 0 72.2053 11.772 850 111.138 648.736 467.749
1277 0 76.2744 19.6527 1499 99.4483 649.362 469.005
1278 0 77.1841 13.4095 1035 109.081 648.664 458.211
1279 0 81.3472 14.6041 1188 106.987 649.935 459.359
1280 0 83.2625 15.8775 1322 106.131 650.29 457.297
1281 0 83.2039 11.8865 989 114.324 652.199 456.253
1282 0 87.303 16.5057 1441 105.709 652.799 457.439
1283 0 88.3396 16.3347 1443 120.649 652.823 457.629
1284 0 89.2278 13.5832 1212 110.835 652.769 456.475
1285 0 93.3084 12.9677 1210 112.98 654.593 450.198
1286 0 96.4535 12.068 1164 115.051 655.139 447.625
1287 0 100.44 13.7296 1379 111.761 655.627 450.616
1288 0 99.5642 10.797 1075 118.513 656.702 453.813
1289 1 55.2768 10.4022 575 116.833 656.374 474.737
1290 0 58.3816 14.6964 858 109.956 656.423 476.245
1291 0 59.3733 13.8278 821 112.056 656.47 475.906
1292 0 61.297 15.0578 923 111.296 655.797 473.98
1293 0 65.396 15.8725 1038 108.787 656.921 475.871
1294 0 66.3206 11.0976 736 117.398 656.038 476.264
1295 0 66.1318 13.4429 889 115.982 654.991 472.528
1296 0 70.2368 13.5114 949 113.81 654.011 476.803
1297 0 75.3421 17.3873 1310 108.302 654.307 472.944
1298 0 73.236 13.5726 994 116.457 654.387 474.112
1299 0 79.298 13.3799 1061 115.516 655.491 477.97
1300 0 84.373 17.553 1481 108.244 653.596 474.699
1301 0 84.1928 13.4334 1131 116.584 652.355 470.898
1302 0 87.302 13.9287 1216 114.856 650.735 468.114
1303 0 90.2584 15.4778 1397 112.395 649.547 468.613
1304 1 48.0921 13.7653 662 113.181 649.69 489.11
1305 0 51.1036 14.3434 733 112.03 649.664 488.422
1306 0 51.1136 12.0124 614 117.389 649.031 485.919
1307 0 54.0769 12.9445 700 115.607 647.769 484.894
1308 0 57.207 10.8378 620 119.76 646.739 483.121
1309 0 60.4054 13.7074 828 115.676 646.639 475.941
1310 0 62.2387 13.2554 825 116.488 647.765 469.069
1311 0 64.1525 14.6994 943 115.513 646.893 460.378
1312 0 66.1332 15.6654 1036 115.327 647.318 461.444
1313 0 68.3638 16.8803 1154 109.651 645.953 468.519
1314 0 70.1635 11.2167 787 119.578 648.342 469.357
1315 0 71.4068 14.7045 1050 116.814 646.437 457.725
1316 0 74.161 13.1201 973 118.807 647.408 461.423
1317 0 78.1247 14.9633 1169 115.377 646.963 459.917
1318 0 82.2079 18.9276 1556 108.206 647.531 460.114
1319 0 83.3479 14.4095 1201 116.559 648.119 458.308
1320 0 83.3479 14.3495 1196 148.979 648.1 458.385
1321 0 90.2334 14.9058 1345 116.828 649.008 453.697
1322 0 90.3916 13.2203 1195 119.871 649.894 448.434
1323 0 91.2155 15.4141 1406 115.405 650.559 451.41
1324 1 49.1591 13.2427 651 113.404 651.02 473.387
1325 0 52.1071 11.438 596 119.002 652.726 470.122
1326 0 55.2279 13.5077 746 116.296 652.109 470.83
1327 0 57.1355 14.6319 836 116.397 653.38 471.011
1328 0 59.0929 11.8796 702 121.123 654.544 468.661
1329 0 61.1447 14.3103 875 116.2 653.823 468.154
1330 0 63.1477 14.7274 930 115.684 654.409 465.889
1331 0 63.1227 11.5014 726 122.391 654.337 464.034
1332 0 64.2243 12.0204 772 122.295 655.727 463.528
1333 0 67.0812 14.7881 992 116.814 653.794 469.145
1334 0 70.2914 14.3972 1012 117.724 655.397 470.696
1335 0 71.2206 15.0799 1074 116.304 654.806 472.734
1336 0 75.1066 13.0348 979 119.963 655.289 469.579
1337 0 76.0658 13.2648 1009 120.839 653.68 469.737
1338 0 78.181 12.0362 941 122.481 653.614 468.249
1339 0 83.1303 12.9195 1074 120.339 653.825 469.835
1340 0 85.2611 10.8138 922 124.419 651.762 462.527
1341 0 91.3137 14.6637 1339 117.274 651.562 462.749
1342 0 92.3238 11.6546 1076 123.573 651.659 460.017
1343 0 95.442 11.934 1139 122.467 650.364 462.898
1344 1 54.1279 13.0062 704 116.185 650.371 481.273
1345 0 53.2043 11.5968 617 120.008 648.258 480.758
1346 0 53.1761 11.3773 605 121.532 648.458 480.102
1347 0 57.3707 11.905 683 120.07 647.104 477.81
1348 0 61.2753 13.3006 815 116.707 648.294 475.034
1349 0 61.105 16.7581 1024 111.282 647.203 471.277
1350 0 63.2799 11.8047 747 120.906 646.511 467.403
1351 0 62.2025 12.0896 752 122.078 646.184 467.88
1352 0 68.2325 12.985 886 118.21 646.328 475.8
1353 0 68.2272 11.7109 799 123.493 646.742 468.85
1354 0 70.1978 15.1429 1063 116.946 646.043 468.148
1355 0 73.2221 12.4826 914 121.769 646.784 468.168
1356 0 75.3245 13.714 1033 120.511 646.436 459.439
1357 0 77.2742 11.3104 874 123.898 647.11 463.932
1358 0 83.4011 13.525 1128 118.948 646.508 460.328
1359 0 83.4011 13.561 1131 147.224 646.504 460.325
1360 0 87.4831 12.1281 1061 118.931 646.968 462.923
1361 0 89.4702 13.4235 1201 118.973 647.917 456.065
1362 0 93.4574 13.4714 1259 119.341 649.188 449.385
1363 0 98.4127 16.2377 1598 113.64 649.128 449.166
1364 0 101.336 12.424 1259 119.667 650.291 446.301
1365 0 103.427 15.2668 1579 116.431 650.872 438.934
1366 0 107.286 13.4967 1448 118.772 652.324 438.988
1367 0 110.25 12.9614 1429 117.491 653.075 444.292
1368 0 113.351 14.4948 1643 115.833 652.884 440.017
1369 0 117.157 17.2845 2025 114.461 653.509 430.421
1370 0 120.453 14.0553 1693 119.555 654.181 435.887
1371 0 125.242 13.2064 1654 120.393 654.362 432.55
1372 0 130.316 12.1474 1583 121.312 654.92 434.475
1373 1 71.2833 11.9804 854 117.883 654.803 458.986
1374 0 75.2656 13.7912 1038 112.447 655.778 464.607
1375 0 75.2994 13.5061 1017 111.948 654.666 462.986
1376 0 81.3657 14.8097 1205 110.827 655.817 463.88
1377 0 81.2841 12.4132 1009 115.887 654.858 461.135
1378 0 86.1625 13.6718 1178 112.981 654.684 462.211
1379 0 87.196 11.2849 984 117.065 654.071 455.653
1380 0 91.4294 12.1077 1107 113.616 655.269 463.588
1381 0 95.4324 15.0263 1434 109.54 654.626 460.785
1382 0 98.4516 12.4731 1228 113.663 654.472 458.634
1383 0 99.3532 13.2557 1317 112.688 653.283 455.917
1384 0 102.622 12.3171 1264 113.554 652.691 456.654
1385 0 106.331 12.9783 1380 112.659 652.131 456.126
1386 0 110.677 13.2006 1461 112.477 651.038 452.686
1387 0 114.774 13.4874 1548 112.475 648.992 447.755
1388 0 117.504 12.8847 1514 112.624 649.485 450.421
1389 0 118.352 14.5667 1724 110.846 648.565 449.572
1390 0 123.467 12.1895 1505 114.036 648.405 444.878
1391 0 126.383 13.736 1736 112.767 648.259 439.304
1392 0 130.409 15.551 2028 107.994 648.209 437.895
1393 0 138.694 12.2933 1705 113.551 648.479 438.451
1394 0 140.347 11.2293 1576 114.759 647.9 442.38
1395 0 148.851 13.6512 2032 113.389 647.262 422.236
1396 1 75.6948 12.7618 966 108.262 647.511 467.471
1397 0 77.5462 11.6576 904 110.935 646.016 461.309
1398 0 81.5894 12.1094 988 111.175 647.097 457.877
1399 0 81.5164 13.6169 1110 112.367 646.772 455.237
1400 0 87.3976 11.8539 1036 114.432 647.273 453.118
1401 0 91.7224 14.0424 1288 110.424 647.943 455.14
1402 0 94.8008 14.2193 1348 110.205 648.09 450.539
1403 0 95.5664 11.3429 1084 115.768 647.14 442.501
1404 0 99.5025 13.5172 1345 110.718 647.112 449.124
1405 0 101.474 12.2298 1241 113.625 648.091 442.608
1406 0 101.505 12.2358 1242 132.133 649.131 442.368
1407 0 107.548 12.1806 1310 112.396 650.232 444.829
1408 0 111.658 15.834 1768 108.955 651.204 433.986
1409 0 115.784 13.5339 1567 112.828 651.133 439.982
1410 1 60.2369 12.4508 750 109.615 651.572 465.152
1411 0 60.048 10.3917 624 111.498 653.18 465.994
1412 0 63.2315 9.58384 606 113.158 652.186 463.856
1413 0 64.0762 13.3903 858 108.678 653.563 464.586
1414 0 65.1265 11.8385 771 110.185 654.058 465.026
1415 0 69.236 11.2514 779 111.33 654.879 462.294
1416 0 71.091 12.9552 921 109.167 656.198 466.816
1417 0 74.1978 13.2484 983 109.366 655.488 468.541
1418 0 75.2549 14.5107 1092 108.107 655.537 466.353
1419 0 78.1439 10.4039 813 114.474 655.459 464.932
1420 0 80.2202 11.8673 952 111.054 656.166 472.321
1421 0 81.1726 12.418 1008 113.564 656.07 464.462
1422 0 83.1523 10.5589 878 114.901 655.641 471.867
1423 0 87.3193 12.1623 1062 113.758 654.603 468.963
1424 0 90.2175 13.279 1198 113.125 655.317 462.287
1425 0 94.2109 12.9391 1219 113.438 654.464 465.646
1426 0 96.2314 13.6962 1318 112.586 653.791 464.314
1427 0 100.226 11.4741 1150 117.13 652.81 457.934
1428 0 104.349 16.0039 1670 109.328 652.968 463.434
1429 0 106.396 16.8521 1793 109.19 651.554 456.874
1430 1 58.1064 9.84401 572 112.455 650.797 484.096
1431 0 59.2304 11.1092 658 110.538 648.819 481.801
1432 0 62.2985 15.3776 958 106.56 648.507 477.882
1433 0 62.2986 13.8687 864 109.688 648.016 476.991
1434 0 65.5695 11.3772 746 112.512 648.134 477.194
1435 0 67.2219 12.0645 811 112.403 647.485 472.539
1436 0 71.239 15.0339 1071 107.918 647.834 470.58
1437 0 72.3897 11.1756 809 113.489 646.481 470.984
1438 0 74.2942 12.612 937 112.139 646.658 469.661
1439 0 75.4136 13.4724 1016 110.667 646.4 463.806
1440 0 77.2789 12.3708 956 112.753 645.077 465.444
1441 0 80.6477 9.94449 802 117.613 644.393 457.762
1442 0 85.3973 10.9488 935 116.08 645.873 458.329
1443 0 87.2814 11.377 993 115.3 645.616 457.834
1444 0 91.3049 12.1571 1110 115.167 646.68 454.485
1445 0 94.3714 13.0018 1227 112.505 646.65 456.059
1446 1 51.1256 11.638 595 109.126 647.894 472.106
1447 0 51.084 13.1352 671 108.359 648.18 470.34
1448 0 55.0626 11.9319 657 109.721 649.091 468.481
1449 0 57.2317 12.9648 742 111.322 648.881 468.143
1450 0 60.5097 11.5684 700 113.444 649.179 469.751
1451 0 61.2211 13.6391 835 111.077 650.865 464.837
1452 0 62.1792 12.4961 777 114.13 650.723 467.718
1453 0 63.1609 12.9669 819 112.897 651.967 468.618
1454 0 65.2446 11.3266 739 116.476 651.762 467.694
1455 0 72.2175 16.6026 1199 106.923 651.613 463.912
1456 0 73.3668 13.7119 1006 111.805 652.977 460.822
1457 0 70.4283 13.1481 926 115.1 653.71 462.2
1458 0 74.149 13.4729 999 115.026 654.289 465.326
1459 0 73.3247 11.9878 879 118.944 654.319 463.016
1460 0 79.2756 14.683 1164 113.588 654.968 463.483
1461 0 80.3023 13.2997 1068 115.983 654.636 465.984
1462 0 84.2741 12.9577 1092 117.186 655.236 462.788
1463 0 86.4325 11.2111 969 120.321 654.916 464.31
1464 0 89.4865 12.1247 1085 119.303 654.358 460.533
1465 0 93.3646 13.3134 1243 116.626 654.131 462.846
1466 0 97.4626 14.1182 1376 115.162 653.36 461.776
1467 0 97.2928 12.7039 1236 117.188 654.227 462.505
1468 1 56.4501 10.9832 620 114.311 652.85 479.689
1469 0 57.3516 12.9901 745 110.752 651.752 482.918
1470 0 60.1959 13.2567 798 112.494 651.322 480.486
1471 0 58.0696 10.7285 623 114.053 651.955 485.204
1472 0 61.2527 12.8974 790 113.619 649.584 480.34
1473 0 63.2948 12.7025 804 115.658 648.794 477.991
1474 0 64.3068 10.8076 695 119.614 648.167 475.6
1475 0 66.3846 11.8853 789 116.839 647.568 474.781
1476 0 68.4364 11.0468 756 118.726 647.274 475.079
1477 0 69.1302 12.99 898 116.182 646.615 471.918
1478 0 74.2566 10.9351 812 117.913 646.531 474.121
1479 0 73.2051 11.2014 820 119.221 645.238 468.907
1480 0 76.6044 12.2317 937 115.497 646.104 473.604
1481 0 79.4278 12.653 1005 115.106 644.756 469.031
1482 0 82.3229 15.4878 1275 110.838 644.996 465.24
1483 0 87.3486 11.7346 1025 115.788 645.104 462.563
1484 0 86.2671 10.7921 931 116.088 645.365 463.26
1485 0 90.4579 10.8227 979 116.077 644.377 458.156
1486 0 95.4386 11.5153 1099 115.458 645.48 457.459
1487 0 99.5497 12.0543 1200 117.287 645.561 451.252
1488 0 97.2882 8.63414 840 122.335 646.124 453.482
1489 0 102.483 11.5727 1186 117.968 647.284 449.786
1490 0 104.725 9.58702 1004 120.893 648.18 449.405
1491 0 108.489 9.69686 1052 118.842 648.716 451.603
1492 0 114.414 10.5757 1210 119.931 649.264 440.94
1493 1 63.2583 11.951 756 109.52 649.07 467.253
1494 0 60.2026 6.99305 421 116.454 649.834 467.506
1495 0 68.1885 12.0548 822 110.024 650.159 463.304
1496 0 68.079 10.4438 711 113.143 650.88 461.006
1497 0 74.2457 12.6337 938 111.358 652.332 461.975
1498 0 78.2269 11.0064 861 113.272 652.677 460.913
1499 0 78.2376 10.3786 812 115.122 651.53 458.105
1500 0 78.2928 10.4735 820 113.98 653.73 464.441
1501 0 82.3194 12.9496 1066 113.107 653.296 460.025
1502 0 83.2335 10.6207 884 116.937 653.589 460.798
1503 0 84.4841 12.0614 1019 115.486 653.766 459.833
1504 0 86.209 9.98736 861 119.533 654.078 459.287
1505 0 93.364 11.9854 1119 115.589 654.955 460.254
1506 0 95.5403 12.78 1221 115.692 654.525 460.855
1507 0 97.4165 13.9504 1359 113.79 655.225 457.673
1508 0 98.4876 9.22959 909 120.176 654.315 464.118
1509 0 101.582 12.7483 1295 115.229 654.734 462.784
1510 0 103.442 10.7693 1114 119.348 653.044 461.442
1511 1 56.2229 11.5078 647 115.079 653.408 482.34
1512 0 59.2042 13.749 814 111.204 652.98 485.345
1513 0 61.2242 10.6657 653 117.435 652.208 482.507
1514 0 60.4033 11.804 713 120.872 650.844 477.764
1515 0 63.3213 11.6864 740 119.75 650.109 477.947
1516 0 67.1617 13.0431 876 118.345 649.283 478.696
1517 0 68.1848 13.7421 937 117.116 649.192 476.768
1518 0 71.1591 11.0176 784 119.932 648.889 478.606
1519 0 72.4223 12.8137 928 118.898 648.484 473.389
1520 0 72.1743 15.2824 1103 115.849 648.06 471.532
1521 0 70.2505 11.5586 812 122.796 647.494 469.654
1522 0 77.1931 12.2809 948 120.507 647.608 468.576
1523 0 77.3257 14.4066 1114 117.989 646.819 466.555
1524 0 80.2483 11.3273 909 123.75 647.316 466.945
1525 0 83.1418 13.1703 1095 120.366 647.96 462.184
1526 0 86.2312 12.7564 1100 120.883 647.226 463.511
1527 0 91.1489 14.0978 1285 118.45 647.394 455.824
1528 0 91.1831 11.9649 1091 123.137 647.761 455.126
1529 1 52.2539 10.5447 551 117.991 647.43 476.274
1530 0 55.2204 11.9702 661 117.032 647.231 472.888
1531 0 57.1167 10.89 622 117.457 648.116 474.453
1532 0 58.1927 15.3628 894 111.062 647.483 470.122
1533 0 59.1405 12.4957 739 115.632 648.265 467.625
1534 0 59.1414 11.7177 693 118.315 648.55 466.924
1535 0 64.1752 13.7748 884 113.488 649.559 465.24
1536 0 65.1478 11.5737 754 117.099 650.224 462.899
1537 0 66.0918 12.2405 809 114.41 650.947 465.18
1538 0 70.246 14.9475 1050 111.053 650.841 465.767
1539 0 71.2513 12.1401 865 118.532 651.638 459.645
1540 0 73.3089 12.5496 920 117.605 652.227 460.058
1541 0 76.1484 13.3292 1015 114.393 654.045 463.419
1542 0 80.1751 13.8447 1110 115.016 653.565 458.341
1543 0 84.3981 13.8629 1170 115.138 653.544 458.338
1544 0 83.2914 13.867 1155 115.869 654.152 452.778
1545 1 47.2659 9.54177 451 115.441 654.588 476.175
1546 0 44.0925 5.85134 258 120.977 654.868 479.76
1547 0 48.078 12.0013 577 110.664 654.317 477.381
1548 0 50.2997 9.62232 484 112.51 653.649 477.942
1549 0 54.2666 15.6634 850 103.507 654.541 481.064
1550 0 55.2051 12.8249 708 108.996 654.353 478.928
1551 0 54.2988 10.6448 578 113.886 654.751 477.213
1552 0 56.2787 16.4361 925 105.496 654.036 478.186
1553 0 63.811 11.5341 736 110.245 654.401 481.035
1554 0 62.3105 15.7758 983 105.901 652.304 474.405
1555 0 61.2588 12.4554 763 113.197 652.949 474.704
1556 0 67.2354 12.9991 874 110.11 652.031 473.723
1557 0 68.3904 12.297 841 109.471 651.138 482.347
1558 0 70.2638 10.2898 723 115.676 650.378 474.137
1559 0 70.1309 11.9206 836 114.203 648.737 470.316
1560 0 74.1098 12.3061 912 112.284 648.923 471.753
1561 0 73.1052 10.1361 741 116.582 647.765 464.169
1562 0 77.189 12.2686 947 113.857 646.997 465.112
1563 0 78.1518 11.58 905 115.993 649.22 465.485
1564 0 84.3319 15.4271 1301 108.952 647.548 463.703
1565 0 87.2941 15.0182 1311 108.954 646.809 460.497
1566 0 89.3601 11.4145 1020 114.666 646.676 458.251
1567 1 51.4812 8.00292 412 113.371 645.864 476.752
1568 0 50.2197 12.1068 608 109.24 646.199 477.696
1569 0 50.0472 9.01149 451 112.197 647.466 470.018
1570 0 49.0696 9.17065 450 120.667 647.442 471.658
1571 0 49.0585 9.98807 490 118.914 647.467 470.788
1572 0 58.2028 14.2777 831 108.676 646.333 468.562
1573 0 56.1452 11.7374 659 112.417 644.853 470.558
1574 0 59.0321 15.9913 944 105.018 645.442 468.339
1575 0 63.1201 13.5615 856 108.534 644.728 467.27
1576 0 65.1295 11.9915 781 111.33 646.33 465.073
1577 0 65.1295 12.0376 784 122.843 647.31 465.208
1578 0 68.1463 12.5759 857 111.503 648.251 458.648
1579 0 69.2799 10.2339 709 116.028 649.035 455.825
1580 0 70.1691 9.90464 695 116.567 648.633 458.001
1581 0 73.1056 11.7091 856 113.902 649.567 457.15
1582 0 76.495 14.9422 1143 109.357 650.818 455.865
1583 0 80.252 9.75676 783 118.709 651.761 452.936
1584 0 80.496 12.659 1019 114.458 651.642 453.021
1585 0 82.8438 12.2278 1013 114.453 653.446 453.561
1586 0 83.3342 12.4079 1034 114.719 653.646 457.545
1587 0 85.6947 10.9225 936 118.911 654.124 451.455
1588 0 90.8229 11.627 1056 116.878 654.276 456.166
1589 0 94.5512 11.4647 1084 117.493 654.251 454.597
1590 0 95.4528 13.4621 1285 116.497 655.268 451.419
1591 0 97.5363 10.4884 1023 123.112 654.654 446.513
1592 1 56.3387 10.2771 579 118.247 654.124 473.774
1593 0 58.4656 12.5886 736 115.357 653.465 473.454
1594 0 59.3289 11.3604 674 118.905 654.291 475.837
1595 0 62.1429 12.1655 756 118.398 653.48 475.519
1596 0 66.2397 14.6438 970 114.553 652.99 475.155
1597 0 66.3767 11.3594 754 120.607 651.716 476.674
1598 0 66.2908 12.596 835 120.604 652.025 473.326
1599 0 68.2548 11.6475 795 121.784 651.682 473.926
1600 0 72.2149 13.9445 1007 117.443 650.153 471.806
1601 0 74.2662 12.7514 947 121.749 650.989 471.145
1602 0 73.2284 11.1159 814 126.654 648.876 468.457
1603 0 79.3032 12.6729 1005 121.497 648.968 469.766
1604 0 80.3498 17.0878 1373 114.877 649.523 467.307
1605 0 82.4835 14.6575 1209 119.703 649.026 461.942
1606 0 86.3554 16.2236 1401 116.982 648.874 459.93
1607 0 87.2398 14.3054 1248 120.727 648.322 458.016
1608 0 88.4427 14.6536 1296 121.759 648.228 458.216
1609 0 94.2149 13.6496 1286 123.042 648.102 456.522
1610 0 101.734 15.0097 1527 118.582 647.642 456.535
1611 0 103.457 16.6639 1724 117.718 647.126 446.32
1612 0 105.63 16.1886 1710 118.663 646.258 450.392
1613 1 55.3944 11.3369 628 122.495 647.033 473.656
1614 0 59.4358 10.9866 653 122.153 645.311 471.55
1615 0 60.3802 15.2202 919 114.382 647.178 471.622
1616 0 63.2465 13.3446 844 116.121 645.434 467.224
1617 0 63.4532 13.1278 833 118.327 647.603 464.882
1618 0 66.586 14.838 988 115.544 646.279 462.912
1619 0 67.2478 13.7402 924 118.508 646.917 462.976
1620 0 70.3987 13.8213 973 118.809 647.531 459.839
1621 0 71.2713 13.9607 995 119.04 648.254 460.094
1622 0 71.2713 13.8906 990 138.601 649.259 460.06
1623 0 78.356 12.3666 969 122.612 650.151 458.923
1624 0 80.4646 17.6102 1417 113.363 650.97 458.18
1625 0 82.438 14.8111 1221 119.219 650.98 455.812
1626 0 83.458 16.679 1392 115.806 651.468 455.245
1627 0 86.2195 13.0713 1127 123.894 651.849 454.071
1628 0 90.5286 14.2055 1286 121.545 652.765 451.26
1629 0 94.6561 14.4523 1368 120.231 652.806 453.711
1630 0 95.6725 16.9328 1620 117.452 654.297 450.916
1631 0 98.5158 12.6173 1243 126.352 652.973 448.212
1632 0 98.2409 13.4771 1324 126.431 653.871 449.338
1633 0 98.2409 13.4364 1320 151.534 655.882 449.352
1634 0 108.505 17.0591 1851 117.848 654.492 451.729
1635 0 107.43 17.0715 1834 139.32 652.48 451.635
1636 1 164.517 12.2115 2009 128.099 653.693 431.632
1637 1 119.41 15.4844 1849 122.71 653.86 444.484
1638 1 63.2157 9.30149 588 128.415 653.974 472.359
1639 0 67.3672 10.2127 688 121.917 652.759 478.523
1640 0 71.1911 9.63604 686 125.618 652.803 472.946
1641 0 74.2679 13.559 1007 120.591 651.515 473.562
1642 0 78.8613 16.51 1302 115.146 651.757 473.324
1643 0 79.4463 14.878 1182 120.063 650.317 469.148
1644 0 79.5068 11.9738 952 124.681 649.149 471.651
1645 0 83.4755 13.0577 1090 124.71 648.614 462.859
1646 0 86.4401 15.4211 1333 122.39 647.368 449.238
1647 0 88.4813 15.3366 1357 121.245 647.444 443.769
1648 0 91.7102 12.6594 1161 126.449 648.126 447.795
1649 0 92.4522 13.8883 1284 125.847 647.06 446.868
1650 0 98.3818 15.4602 1521 122.39 646.815 443.703
1651 0 105.522 20.0148 2112 113.625 646.482 437.878
1652 0 103.439 17.6335 1824 120.156 646.536 440.252
1653 0 104.562 13.8004 1443 129.224 645.75 438.342
1654 0 107.436 15.1439 1627 126.728 645.441 438.527
1655 0 110.412 11.5295 1273 133.973 645.724 437.24
1656 0 116.429 17.1436 1996 119.504 645.399 441.72
1657 1 62.5113 10.942 684 130.333 645.93 453.174
1658 0 64.3193 14.5524 936 125.446 647.015 444.217
1659 0 67.4421 12.811 864 126.727 645.748 452.374
1660 0 70.2256 14.7667 1037 122.661 647.411 453.797
1661 0 69.4399 13.0617 907 126.335 648.041 453.89
1662 0 75.5753 14.3698 1086 124.474 647.843 450.06
1663 0 77.4702 15.1929 1177 123.298 647.912 448.688
1664 0 78.526 15.8419 1244 122.019 650.209 450.817
1665 0 81.5128 14.1695 1155 125.748 650.181 449.061
1666 0 84.433 12.9215 1091 127.108 651.151 450.063
1667 0 88.5608 19.2184 1702 115.4 651.217 444.392
1668 0 91.5609 18.4686 1691 116.143 651.671 445.188
1669 0 93.2906 15.5535 1451 123.112 651.556 446.839
1670 0 94.5241 18.2282 1723 118.724 653.285 451.606
1671 0 96.5147 17.9765 1735 120.104 652.775 448.41
1672 0 101.632 13.913 1414 126.204 653.088 446.692
1673 0 104.501 14.2965 1494 124.616 652.492 443.693
1674 0 108.209 13.2614 1435 123.71 654.403 452.141
1675 0 109.469 13.0722 1431 126.864 654.327 444.258
1676 1 61.081 11.935 729 122.676 653.691 471.451
1677 0 62.1412 11.8601 737 122.174 653.384 472.289
1678 0 67.1529 15.0701 1012 115.683 653.66 472.689
1679 0 67.1529 15.1446 1017 130.736 652.661 472.721
1680 0 67.2836 11.3995 767 123.737 651.462 471.167
1681 0 73.2344 14.597 1069 117.037 652.076 470.935
1682 0 73.2031 12.035 881 123.083 651.995 467.846
1683 0 78.2372 13.1395 1028 120.139 652.408 468.665
1684 0 81.2605 11.3093 919 121.455 651.533 471.271
1685 0 82.1357 11.9558 982 123.178 650.478 466.373
1686 0 84.2355 12.7856 1077 122.233 650.243 464.967
1687 0 87.2879 12.602 1100 122.149 649.684 463.505
1688 0 93.1857 14.8413 1383 117.03 648.84 461.427
1689 0 93.1496 12.8396 1196 122.299 649.435 461.024
1690 0 100.126 9.50802 952 125.988 647.614 464.477
1691 0 100.12 9.99802 1001 138.115 646.671 466.751
1692 0 98.1477 11.228 1102 125.691 646.643 452.63
1693 0 104.392 17.9419 1873 110.84 646.117 459.314
1694 0 108.215 14.0276 1518 119.134 645.995 454.452
1695 0 111.297 14.8971 1658 117.446 645.63 452.921
1696 0 114.356 11.5342 1319 122.72 644.925 451.105
1697 0 119.634 16.074 1923 114.899 645.782 449.522
1698 0 123.179 12.8756 1586 119.69 645.316 439.385
1699 0 129.278 15.6949 2029 115.316 645.614 436.635
1700 0 134.243 16.5297 2219 113.034 645.904 443.161
1701 0 135.18 14.6989 1987 117.05 645.862 431.06
1702 1 77.1118 11.8789 916 117.245 647.305 456.099
1703 0 84.3645 17.8393 1505 107.7 646.468 458.958
1704 0 81.1272 13.4234 1089 116.21 647.357 454.788
1705 0 84.1501 13.4522 1132 115.706 647.246 455.693
1706 0 88.2151 14.3059 1262 113.783 648.46 455.576
1707 0 91.2466 15.0471 1373 113.535 648.907 450.219
1708 0 92.243 10.1363 935 122.162 649.48 450.647
1709 0 99.2494 14.7205 1461 114.193 649.189 447.02
1710 0 100.263 14.9507 1499 114.805 650.993 445.452
1711 0 102.414 14.5097 1486 115.186 652.292 447.146
1712 0 104.234 12.683 1322 118.108 651.846 447.488
1713 0 109.191 17.6022 1922 109.022 652.637 450.358
1714 1 59.1141 11.2494 665 115.197 652.947 462.737
1715 0 59.2216 11.6849 692 114.592 654.457 463.275
1716 0 62.22 13.5005 840 111.756 654.17 466.242
1717 0 65.0601 15.893 1034 107.827 654.131 470.602
1718 0 70.2397 15.6037 1096 107.731 655.097 468.758
1719 0 66.1612 10.3837 687 117.665 654.435 470.833
1720 0 71.2189 13.1566 937 113.569 654.027 468.366
1721 0 73.3519 12.5968 924 113.221 653.676 471.57
1722 0 74.281 13.9336 1035 113.959 653.352 465.898
1723 0 78.4253 14.2301 1116 113.263 652.075 470.946
1724 0 78.2346 10.3023 806 120.407 652.553 466.419
1725 0 81.3506 11.4689 933 118.894 652.443 467.702
1726 0 83.3394 10.6672 889 121.567 651.172 465.613
1727 0 89.1502 13.6287 1215 115.101 650.809 470.772
1728 0 86.4191 11.7104 1012 119.896 650.82 463.026
1729 0 90.312 11.9143 1076 118.24 650.018 467.27
1730 0 93.3897 12.4425 1162 118.572 649.342 461.484
1731 0 96.2178 9.9254 955 121.694 647.49 456.024
1732 0 101.423 12.6895 1287 117.159 647.73 456.06
1733 0 105.64 13.6312 1440 114.472 647.416 460.374
1734 0 107.648 14.7054 1583 113.255 646.639 455.376
1735 0 110.245 16.7808 1850 109.971 645.479 451.741
1736 0 111.181 11.9355 1327 116.261 646.277 454.983
1737 0 117.204 15.4518 1811 113.905 646.878 447.81
1738 0 121.22 13.3394 1617 117.573 646.234 435.347
1739 0 125.347 16.9369 2123 112.872 645.207 435.095
1740 0 125.405 13.9548 1750 118.418 645.162 429.875
1741 0 132.579 17.9666 2382 109.98 645.987 435.93
1742 0 132.28 15.1497 2004 115.569 645.915 422.632
1743 0 138.42 13.0328 1804 120.574 645.912 419.263
1744 1 72.1774 11.0699 799 118.283 645.616 450.434
1745 0 79.3104 11.8143 937 116.374 646.458 452.792
1746 0 83.1478 11.9666 995 115.324 645.765 452.279
1747 0 84.3118 14.5768 1229 111.109 647.128 455.537
1748 0 85.2408 14.7816 1260 111.785 647.546 452.037
1749 0 88.252 12.385 1093 115.364 647.379 451.329
1750 0 94.3046 15.556 1467 109.015 647.942 454.14
1751 0 93.3836 11.9507 1116 114.687 648.937 451.91
1752 0 99.2039 14.5357 1442 110.775 649.162 445.564
1753 0 99.3355 14.1641 1407 111.829 650.497 450.792
1754 0 107.395 17.6451 1895 107.072 651.54 444.953
1755 0 109.392 12.67 1386 114.747 651.59 437.903
1756 0 113.246 16.8483 1908 107.857 652.954 441.39
1757 0 115.239 22.0065 2536 101.822 652.484 442.024
1758 0 121.156 11.415 1383 112.881 653.279 436.87
1759 0 129.43 13.9072 1800 109.147 653.614 437.146
1760 1 72.2061 16.0097 1156 105.149 654.382 463.343
1761 0 74.3565 11.1355 828 112.69 653.569 459.184
1762 0 73.1481 10.6906 782 112.769 653.708 463.503
1763 0 76.18 10.4358 795 112.987 653.279 462.742
1764 0 82.1573 11.2589 925 110.971 653.568 465.811
1765 0 85.1118 11.2088 954 111.734 653.856 458.251
1766 0 87.161 14.4216 1257 107.53 652.948 462.214
1767 0 92.2253 12.5562 1158 109.763 653.025 463.155
1768 0 93.1326 10.7374 1000 112.876 651.655 461.225
1769 0 94.2529 11.9678 1128 112.004 652.287 460.946
1770 0 93.3341 8.48564 792 115.186 650.986 457.968
1771 0 102.274 12.8577 1315 108.823 649.835 462.241
1772 0 102.224 10.3499 1058 114.219 649.149 456.11
1773 0 106.281 11.1309 1183 114.194 648.781 459.05
1774 0 109.344 12.7853 1398 113.053 648.706 449.197
1775 0 115.412 12.0351 1389 113.33 647.267 450.838
1776 0 120.286 12.1959 1467 113.412 646.324 449.274
1777 0 122.255 11.157 1364 115.464 645.701 442.493
1778 1 74.134 11.115 824 109.765 646.507 472.252
1779 0 75.0973 9.28129 697 109.841 645.492 471.621
1780 0 79.108 11.8951 941 108.12 645.15 465.407
1781 0 80.2 12.5436 1006 106.54 646.197 467.223
1782 0 85.1571 14.5966 1243 104.969 645.796 461.834
1783 0 84.1565 11.538 971 110.123 645.428 459.621
1784 0 90.3084 13.4982 1219 106.57 645.862 460.549
1785 0 90.1953 12.2623 1106 113.418 644.942 452.806
1786 0 92.2105 11.7774 1086 113.708 645.893 455.04
1787 0 95.4736 13.1659 1257 112.424 645.837 451.821
1788 0 97.1696 12.6686 1231 113.806 645.886 450.999
1789 0 102.299 13.4117 1372 111.738 645.794 451.542
1790 0 103.294 10.6201 1097 118.068 646.868 443.344
1791 0 109.184 15.625 1706 109.747 646.864 446.038
1792 1 61.1273 9.25936 566 116.818 648.267 466.357
1793 0 63.1999 9.28799 587 116.012 647.671 460.634
1794 0 66.1876 11.271 746 113.135 648.688 460.3
1795 0 67.2029 12.8417 863 112.784 648.469 463.739
1796 0 70.1819 14.5764 1023 111.192 651.2 463.17
1797 0 72.0409 12.9371 932 113.806 650.649 462.344
1798 0 74.1761 11.6075 861 114.966 651.128 462.725
1799 0 74.1108 12.2384 907 115.439 652.138 461.861
1800 0 78.3019 14.3036 1120 110.767 651.021 463.659
1801 0 78.3019 14.4824 1134 137.055 649.991 463.638
1802 0 84.2356 13.8421 1166 114.349 651.377 457.431
1803 0 88.5511 13.4612 1192 116.086 652.596 454.903
1804 0 90.6167 13.684 1240 115.757 652.976 457.038
1805 0 91.5452 13.0318 1193 117.028 652.966 454.488
1806 0 98.4431 15.928 1568 110.198 652.844 459.201
1807 1 57.2844 13.529 775 109.956 654.121 474.338
1808 0 57.1398 12.2507 700 112.097 652.446 476.876
1809 0 57.2686 12.2755 703 115.273 653.408 472.905
1810 0 61.1495 14.4073 881 110.665 650.968 477.633
1811 0 60.0801 10.9354 657 119.134 651.052 475.245
1812 0 63.1769 11.5549 730 118.96 650.812 478.277
1813 0 65.2622 13.4381 877 115.518 651.16 475.49
1814 0 66.1037 11.9963 793 119.588 649.721 476.786
1815 0 71.1783 12.7988 911 118.503 649.374 476.654
1816 0 70.1351 12.7468 894 121.221 648.219 472.972
1817 0 75.1116 14.2854 1073 117.959 648.376 471.663
1818 0 75.1116 14.2588 1071 146.26 648.372 471.8
1819 0 78.1424 13.501 1055 121.111 646.292 465.813
1820 0 81.1322 15.3453 1245 118.119 646.357 467.613
1821 0 82.1834 15.4289 1268 118.505 646.654 455.053
1822 0 86.7859 16.6271 1443 114.999 646.682 459.204
1823 0 90.3626 17.3966 1572 114.884 645.662 452.892
1824 0 89.4077 16.8218 1504 116.278 645.38 454.053
1825 0 87.4107 12.4012 1084 127.399 645.058 448.185
1826 0 93.4111 19.5587 1827 113.796 645.163 450.055
1827 0 96.5057 15.8436 1529 119.736 644.91 452.719
1828 0 98.399 14.7766 1454 122.166 644.713 451.573
1829 0 102.56 16.2442 1666 119.969 644.65 447.883
1830 0 102.56 16.1564 1657 149.22 644.642 447.978
1831 0 108.459 17.9423 1946 116.292 645.086 445.756
1832 1 55.4356 8.47831 470 123.289 644.972 473.866
1833 0 60.4058 11.6545 704 120.92 646.08 468.024
1834 0 61.2606 12.0142 736 120.841 646.231 465.943
1835 0 61.458 10.739 660 126.868 646.427 461.323
1836 0 66.2659 15.8603 1051 115.592 648.075 465.006
1837 0 67.1842 15.4054 1035 119.236 647.555 460.092
1838 0 68.2422 13.8917 948 123.409 649.483 459.349
1839 0 71.2435 11.6783 832 126.282 649.833 461.642
1840 0 74.4369 14.2806 1063 120.85 649.853 462.716
1841 0 71.3273 12.0291 858 128.279 650.319 457.177
1842 0 77.2683 12.476 964 123.618 651.511 456.999
1843 0 80.394 13.4836 1084 122.137 651.766 453.844
1844 0 82.33 12.9479 1066 122.83 652.576 454.413
1845 0 85.293 13.8933 1185 122.105 652.476 451.959
1846 0 89.5465 14.0932 1262 121.485 653.761 453.525
1847 0 91.4138 13.5209 1236 122.727 654.151 456.344
1848 0 93.344 13.6056 1270 124.078 654.007 454.095
1849 0 93.2283 12.9682 1209 126.188 653.103 451.45
1850 0 98.2572 13.3018 1307 122.935 653.502 457.367
1851 0 101.414 15.0965 1531 121.251 654.362 450.577
1852 0 107.242 11.8238 1268 128.419 653.484 450.338
1853 0 109.29 16.3052 1782 120.942 652.561 450.395
1854 0 114.35 15.3477 1755 122.198 652.607 453.421
1855 0 120.848 19.6031 2369 113.052 651.816 456.107
1856 1 69.2103 12.5848 871 121.172 651.651 474.418
1857 0 71.1638 12.2534 872 122.6 650.515 473.025
1858 0 71.0897 12.1396 863 123.422 649.504 472.207
1859 0 77.0985 14.449 1114 118.313 648.314 470.189
1860 0 80.0928 14.6954 1177 118.575 647.376 470.915
1861 0 77.1046 12.8527 991 124.187 647.489 467.281
1862 0 81.2892 13.1998 1073 123.243 646.989 465.902
1863 0 85.2838 13.6368 1163 120.278 645.326 460.687
1864 0 89.2072 15.5144 1384 117.126 645.059 457.41
1865 0 91.2052 15.2842 1394 117.785 645.137 449.63
1866 0 93.2276 14.3734 1340 120.116 645.105 440.437
1867 0 97.1699 13.3272 1295 120.257 643.598 441.84
1868 0 103.249 11.9323 1232 122.15 644.166 446.678
1869 0 98.2038 12.8508 1262 121.502 643.906 451.052
1870 0 108.42 13.9642 1514 117.41 644.752 447.974
1871 0 108.309 13.7847 1493 119.269 644.947 436.492
1872 0 112.329 12.4723 1401 120.623 644.694 428.926
1873 0 114.263 13.7402 1570 119.161 644.332 421.216
1874 0 120.439 12.6122 1519 120.384 645.46 429.041
1875 0 124.144 15.2082 1888 116.243 645.936 431.285
1876 1 69.4649 11.4734 797 117.994 645.435 460.447
1877 0 74.0884 13.9428 1033 112.091 645.712 460.655
1878 0 71.2456 12.0008 855 118.146 647.12 460.757
1879 0 76.2941 15.2568 1164 112.922 647.29 452.036
1880 0 82.3967 14.7215 1213 113.261 647.169 451.172
1881 0 80.2168 11.6933 938 120.824 648.691 450.726
1882 0 83.2053 12.1146 1008 120.867 650.111 449.337
1883 0 88.2612 13.3921 1182 115.563 649.72 455.113
1884 0 89.2541 16.9852 1516 112.897 651.046 448.651
1885 0 92.1923 14.4806 1335 116.266 650.548 450.519
1886 0 92.1923 14.4806 1335 146.608 649.563 450.381
1887 0 96.3011 13.0424 1256 118.262 651.647 449.221
1888 0 101.189 18.1937 1841 109.014 651.559 449.543
1889 0 102.291 14.5662 1490 115.525 653.17 443.23
1890 0 106.239 12.7825 1358 118.291 653.235 438.144
1891 0 108.197 13.4015 1450 118.392 653.684 441.991
1892 1 63.0837 14.7265 929 113.372 652.418 470.122
1893 0 68.2071 12.6233 861 116.287 652.833 470.969
1894 0 69.2779 12.3705 857 118.875 651.836 469.359
1895 0 70.2388 16.088 1130 112.579 651.425 467.566
1896 0 73.2694 12.5564 920 119.6 651.308 472.075
1897 0 73.3843 9.934 729 122.978 652.025 472.641
1898 0 79.5086 12.9294 1028 118.663 651.535 471.602
1899 0 84.5215 15.6883 1326 114.098 651.37 466.201
1900 0 85.4338 13.2032 1128 118.627 650.215 465.999
1901 0 89.431 14.3239 1281 116.746 648.992 465.244
1902 0 91.3831 16.0533 1467 114.725 649.734 463.744
1903 0 94.5505 12.6493 1196 120.298 648.337 464.412
1904 0 96.4489 15.1065 1457 117.962 648.46 462.441
1905 0 99.609 13.6333 1358 119.549 647.007 462.211
1906 0 101.628 13.5101 1373 120.964 647.233 456.516
1907 0 104.495 15.1873 1587 118.109 647.233 458.661
1908 1 57.2298 7.28642 417 124.365 646.091 475.698
1909 0 62.3606 13.1012 817 113.931 644.627 475.956
1910 0 62.2471 10.6832 665 117.752 645.716 476.877
1911 0 65.0575 11.3899 741 117.563 644.335 471.951
1912 0 66.1583 12.2283 809 114.082 644.471 474.24
1913 0 69.247 11.7984 817 116.592 643.714 471.214
1914 0 70.4027 14.2324 1002 112.882 644.448 468.386
1915 0 72.1427 14 1010 113.9 643.982 464.124
1916 0 73.3615 11.9272 875 118.438 644.769 460.143
1917 0 73.2338 10.5825 775 121.477 644.712 456.65
1918 0 77.5487 13.0757 1014 117.185 645.767 457.475
1919 0 79.4321 11.9851 952 117.606 645.931 455.299
1920 0 83.4467 12.523 1045 116.512 646.671 453.358
1921 0 85.3918 12.0503 1029 118.137 646.939 450.864
1922 0 87.3907 13.125 1147 116.847 647.581 451.181
1923 0 86.2546 12.6254 1089 132.548 647.61 450.419
1924 1 50.1883 12.1542 610 114.998 649.352 468.343
1925 0 55.2966 9.29533 514 119.64 650.665 467.516
1926 0 54.4083 7.93997 432 121.743 650.653 467.558
1927 0 56.1222 10.3346 580 116.538 650.321 469.597
1928 0 58.2509 12.3088 717 114.48 651.07 467.625
1929 0 58.1615 11.4509 666 115.959 653.24 458.368
1930 0 61.1546 12.0351 736 115.59 653.848 444.936
1931 0 61.1344 10.7141 655 118.489 654.576 450.423
1932 0 66.193 12.0254 796 115.443 655.583 457.08
1933 0 67.1504 15.1451 1017 112.149 653.723 464.988
1934 0 70.1802 13.0379 915 116.454 654.125 461.513
1935 0 71.1406 14.8298 1055 113.703 653.417 460.65
1936 0 72.2825 13.1567 951 118.052 652.865 459.213
1937 0 78.344 14.3725 1126 113.679 653.79 463.067
1938 0 80.3254 13.9059 1117 114.577 652.843 465.899
1939 0 82.6451 15.2338 1259 113.156 652.108 466.742
1940 0 84.216 12.4204 1046 119.467 650.617 461.881
1941 0 88.4713 16.2878 1441 112.414 650.967 463.693
1942 0 92.6044 16.0144 1483 110.577 651.148 470.162
1943 0 96.3356 17.7193 1707 109.384 650.581 465.864
1944 0 98.4582 16.3521 1610 112.829 649.659 462.329
1945 0 101.525 15.4346 1567 114.391 648.246 457.204
1946 0 101.525 15.4051 1564 139.338 645.235 457.058
1947 0 110.401 16.6575 1839 111.591 646.68 457.772
1948 0 115.479 17.579 2030 108.585 646.425 448.466
1949 1 62.1845 12.7524 793 111.349 645.523 477.769
1950 0 62.091 12.0468 748 114.076 644.377 472.738
1951 0 65.2604 12.1513 793 112.608 645.473 472.863
1952 0 64.1757 11.8425 760 114.421 645.926 464.75
1953 0 64.1757 11.8113 758 133.693 646.905 464.735
1954 0 72.2577 14.1438 1022 110.019 646.174 462.483
1955 0 75.13 13.6164 1023 110.002 646.04 464.539
1956 0 76.1846 12.9816 989 111.811 645.627 458.836
1957 0 81.2141 22.9763 1866 97.1056 644.98 463.159
1958 0 81.093 14.6252 1186 109.777 646.101 452.947
1959 0 82.1605 10.8933 895 115.966 645.877 446.953
1960 0 81.3144 15.2986 1244 109.653 646.458 450.379
1961 0 84.1861 14.1354 1190 113.205 646.129 440.807
1962 0 90.2303 16.2362 1465 109.119 646.957 443.138
1963 0 91.1426 13.6599 1245 115.08 647.71 434.945
1964 0 92.4439 16.3883 1515 111.529 647.289 438.174
1965 0 95.5596 16.4609 1573 111.211 648.315 443.526
1966 0 101.57 21.7191 2206 103.321 648.842 447.822
1967 0 101.531 14.5965 1482 114.095 650.121 444.431
1968 0 106.531 22.8854 2438 102.02 650.414 430.421
1969 0 106.561 13.0536 1391 116.973 651.275 439.85
1970 0 110.627 13.1072 1450 116.307 651.892 442.709
1971 0 115.495 14.3642 1659 115.273 652.435 437.729
1972 1 66.5123 10.5544 702 116.158 653.359 464.501
1973 0 66.3348 12.256 813 115.432 653.636 459.754
1974 0 70.5304 11.1441 786 115.394 653.145 457.989
1975 0 72.3075 10.2756 743 116.458 653.429 455.978
1976 0 76.2371 14.245 1086 109.994 654.369 458.509
1977 0 79.3821 13.4413 1067 113.571 654.979 457.301
1978 0 81.4173 13.7563 1120 112.977 655.121 462.15
1979 0 88.2501 13.3824 1181 112.672 654.373 458.367
1980 0 86.4618 11.5542 999 116.592 654.867 458.162
1981 0 92.3482 13.8931 1283 113.236 654.085 456.04
1982 0 94.3615 19.4783 1838 104.711 653.335 457.332
1983 0 98.5041 13.7659 1356 113.463 652.422 459.377
1984 0 97.2611 14.898 1449 114.146 653.147 454.776
1985 0 104.233 13.2972 1386 115.188 650.827 458.323
1986 0 105.221 12.5736 1323 119.588 652.146 439.468
1987 0 111.285 14.9346 1662 116.339 649.059 424.226
1988 0 113.298 13.416 1520 120.415 649.691 427.072
1989 0 116.179 15.0974 1754 117.355 648.113 430.713
1990 0 119.194 15.1015 1800 116.782 648.504 434.717
1991 1 66.1206 11.0556 731 117.639 647.372 466.644
1992 0 66.264 13.7782 913 115.609 646.384 461.071
1993 0 70.1903 14.7456 1035 111.276 646.371 469.079
1994 0 71.4234 16.1012 1150 109.286 646.222 467.365
1995 0 70.2013 14.7148 1033 112.777 645.452 469.732
1996 0 75.34 17.5737 1324 107.141 645.22 467.316
1997 0 77.3999 13.6047 1053 114.849 644.684 458.629
1998 0 77.1467 17.875 1379 107.467 645.288 464.421
1999 0 79.2754 14.6199 1159 115.205 645.024 457.558
2000 0 83.2738 14.1821 1181 117.436 644.45 453.14
2001 0 84.1544 16.0657 1352 115.979 645.506 450.328
2002 0 87.2017 14.5066 1265 118.043 645.116 449.314
2003 0 88.1294 12.754 1124 121.908 645.535 453.776
2004 0 92.2773 15.3559 1417 117.906 646.521 452.622
2005 0 95.4187 13.8547 1322 120.587 646.921 451.258
2006 0 99.3291 15.5644 1546 117.73 646.774 450.545
2007 0 98.2158 12.4827 1226 125.564 647.382 442.919
2008 0 105.231 14.4159 1517 121.236 647.785 443.648
2009 0 105.49 15.1104 1594 121.134 648.817 443.246
2010 0 108.228 13.2128 1430 124.064 650.018 442.857
2011 0 111.387 15.6033 1738 121.144 650.263 439.284
2012 0 118.289 14.38 1701 123.219 651.089 435.73
2013 0 120.422 16.085 1937 115.872 650.745 444.178
2014 0 122.412 13.7977 1689 121.574 652.248 432.438
2015 1 69.3751 12.4684 865 118.136 651.525 465.31
2016 0 71.5531 11.0827 793 122.856 653.084 461.647
2017 0 68.1921 10.881 742 124.918 652.228 456.387
2018 0 75.3255 13.2757 1000 117.827 652.842 463.75
2019 0 81.2631 12.1827 990 119.346 653.252 461.535
2020 0 81.1842 9.54619 775 124.843 653.797 452.796
2021 0 83.2922 13.0024 1083 117.232 653.802 461.963
2022 0 83.3442 9.85072 821 123.784 653.719 456.122
2023 0 87.3395 11.1748 976 122.054 652.475 458.48
2024 0 93.3393 14.3027 1335 115.782 651.852 459.624
2025 0 94.2446 9.98466 941 124.659 651.292 457.582
2026 0 98.3772 13.3771 1316 118.676 651.89 452.005
2027 0 101.153 13.1781 1333 119.343 650.218 452.098
2028 0 103.836 11.0752 1150 123.067 651.031 451.417
2029 0 106.224 11.8523 1259 121.512 651.031 456.916
2030 0 110.333 12.0544 1330 117.832 649.132 461.508
2031 0 117.511 12.8924 1515 116.263 649.096 457.296
2032 0 119.31 12.4214 1482 119.773 647.886 446.847
2033 1 52.1026 9.40451 490 111.231 646.259 478.298
2034 0 52.0761 8.52598 444 112.581 645.932 477.221
2035 0 54.2251 9.20238 499 113.178 645.631 476.1
2036 0 56.2991 9.52058 536 111.534 645.371 477.06
2037 0 59.2937 11.1816 663 112.522 645.864 473.664
2038 0 59.3166 11.6325 690 112.148 645.006 475.255
2039 0 61.2128 11.5826 709 112.386 645.828 476.628
2040 0 64.3383 13.1182 844 109.781 644.536 475.275
2041 0 66.2097 11.237 744 113.149 645.718 472.86
2042 0 70.2811 12.3362 867 111.582 645.273 471.013
2043 0 69.2038 12.7594 883 113.655 644.864 464.136
2044 0 72.2718 11.9272 862 113.878 644.327 470.131
2045 0 72.2718 11.9964 867 126.541 642.346 470.173
2046 0 78.3259 12.2948 963 114.739 645.168 465.724
2047 0 78.2956 12.0696 945 116.656 646.384 462.449
2048 0 82.4211 15.2995 1261 110.987 645.991 459.799
2049 0 80.2534 14.1676 1137 114.426 646.132 460.288
2050 0 82.212 11.4095 938 121.686 646.577 452.32
2051 1 204.81 12.4945 2559 128.436 647.889 393.806
2052 0 210.457 12.1925 2566 128.918 648.857 395.498
2053 1 85.1794 10.5307 897 125.647 648.414 453.362
2054 0 92.1771 16.5985 1530 113.273 648.986 453.155
2055 0 92.3151 15.1113 1395 116.411 652.32 442.048
2056 0 102.372 12.1322 1242 118.461 651.63 450.181
2057 0 100.479 14.5603 1463 116.47 652.61 444.41
2058 0 99.3102 13.3018 1321 121.566 652.721 443.534
2059 1 54.2125 11.7501 637 119.542 652.922 468.174
2060 0 58.128 13.952 811 115.523 653.147 466.671
2061 0 60.4136 11.5371 697 118.407 653.119 467.638
2062 0 61.2092 16.174 990 109.685 653.277 469.628
2063 0 59.1202 10.7747 637 120.366 652.7 468.851
2064 0 65.1545 13.1533 857 115.336 653.491 471.259
2065 0 65.1908 10.8451 707 119.922 652.037 469.392
2066 0 69.1271 12.9761 897 116.025 652.876 471.356
2067 0 69.1894 10.1461 702 120.493 651.298 471.882
2068 0 70.0978 11.0274 773 120.564 651.572 466.828
2069 0 76.0992 15.0462 1145 112.471 650.426 468.666
2070 0 80.5209 15.4246 1242 111.365 650.717 470.105
2071 0 78.1959 12.7244 995 116.824 648.96 467.859
2072 0 83.128 15.0371 1250 113.327 647.682 459.362
2073 0 85.1332 12.0635 1027 118.822 647.181 459.94
2074 0 88.2329 16.5245 1458 111.334 647.086 464.257
2075 0 91.3518 14.2088 1298 114.25 647.425 466.018
2076 0 91.3518 14.3511 1311 131.943 647.404 465.947
2077 0 94.1869 15.1932 1431 115.02 645.245 459.122
2078 0 94.5721 11.441 1082 121.508 644.487 458.775
2079 0 100.253 14.6529 1469 116.939 644.358 453.873
2080 0 101.31 11.7362 1189 121.313 643.94 452.636
2081 0 107.233 15.3683 1648 115.768 644.257 450.518
2082 0 109.313 13.8868 1518 119.196 644.292 445.509
2083 0 113.452 16.1742 1835 114.839 644.982 447.178
2084 0 111.199 12.3653 1375 122.176 644.547 444.897
2085 0 118.562 14.7939 1754 117.679 644.156 440.957
2086 0 120.663 13.7408 1658 120.109 644.79 439.543
2087 0 121.222 14.3951 1745 119.281 644.752 437.773
2088 0 130.302 17.1601 2236 113.565 645.853 434.324
2089 0 129.181 12.5948 1627 121.381 644.916 432.681
2090 1 77.2183 11.4869 887 117.28 645.67 459.302
2091 0 80.1934 11.3102 907 117.636 646.964 459.882
2092 0 85.3475 15.7357 1343 110.461 648.037 461.304
2093 0 84.2619 12.0576 1016 120.753 648.225 449.357
2094 0 86.3618 11.9266 1030 119.783 647.879 452.574
2095 0 95.2994 10.2204 974 119.708 650.041 453.408
2096 0 95.2631 14.9166 1421 115.344 648.987 446.369
2097 0 96.2163 12.9604 1247 117.977 650.972 449.162
2098 1 177.561 13.3307 2367 122.678 651.16 406.423
2099 1 102.408 14.0809 1442 118.408 650.974 443.495
2100 0 104.582 13.0616 1366 120.372 651.572 442.33
2101 0 106.356 12.2889 1307 121.916 652.482 442.002
2102 0 114.45 13.8139 1581 118.95 652.646 443.468
2103 0 112.509 14.8255 1668 118.264 653.207 444.05
2104 0 121.451 13.3469 1621 119.35 652.933 440.854
2105 0 128.469 11.3024 1452 123.309 653.344 430.379
2106 0 127.331 14.7097 1873 117.663 653.368 435.335
2107 0 134.415 16.4937 2217 114.77 652.409 439.005
2108 0 139.411 15.214 2121 117.395 651.78 433.8
2109 0 146.656 20.1014 2948 109.953 652.502 435.211
2110 0 150.36 14.718 2213 117.743 651.196 429.454
2111 1 81.2974 9.79121 796 120.163 651.258 462.843
2112 0 84.1228 12.8027 1077 116.903 650.455 465.565
2113 0 90.6519 12.2005 1106 116.593 650.831 463.279
2114 0 90.5972 11.0158 998 119.184 649.531 462.396
2115 0 95.5486 14.3592 1372 114.469 648.819 459.97
2116 0 100.402 13.5654 1362 116.222 647.725 455.949
2117 0 99.3833 12.9499 1287 117.061 647.583 457.218
2118 0 103.558 13.181 1365 117.499 647.106 454.714
2119 0 107.429 13.8416 1487 117.019 646.104 450.036
2120 0 113.323 14.9043 1689 115.409 646.288 446.496
2121 0 115.384 11.4574 1322 120.901 645.682 447.76
2122 0 118.477 16.5265 1958 112.248 645.287 447.572
2123 0 121.313 12.4554 1511 119.128 645.167 444.808
2124 0 126.241 16.0487 2026 113.722 644.679 442.196
2125 0 130.203 15.3913 2004 114.328 644.567 441.008
2126 0 133.432 14.2244 1898 114.48 645.184 441.616
2127 0 134.5 13.554 1823 116.989 644.217 431.51
2128 0 141.371 12.9729 1834 117.365 645.075 429.9
2129 0 145.337 12.5502 1824 118.178 645.075 430.458
2130 0 153.335 14.0737 2158 115.277 645.179 429.089
2131 0 154.389 13.5825 2097 117.616 646.284 413.345
2132 1 92.5654 19.8562 1838 99.2622 646.516 459.398
2133 0 92.2673 12.2145 1127 113.589 646.431 448.42
2134 0 94.4459 17.555 1658 105.825 646.665 448.71
2135 0 96.2104 12.8157 1233 113.303 647.758 445.616
2136 0 98.2078 14.5915 1433 109.168 648.272 449.743
2137 0 100.348 11.1811 1122 115.58 648.888 443.215
2138 0 107.481 14.7561 1586 108.574 649.985 448.356
2139 0 112.496 16.3117 1835 106.141 650.635 447.708
2140 0 112.349 13.1732 1480 112.26 650.597 441.651
2141 0 117.355 19.556 2295 104.661 651.279 425.996
2142 0 121.293 13.5539 1644 114.543 652.183 422.798
2143 0 118.372 10.957 1297 119.586 650.951 426.12
2144 1 70.2231 9.29893 653 115.571 653.017 464.605
2145 0 74.1994 13.3829 993 110.237 653.854 463.113
2146 0 78.1108 13.5193 1056 107.44 653.115 460.598
2147 0 77.1674 10.5355 813 114.594 654.218 462.438
2148 0 81.2278 13.099 1064 110.293 653.709 466.83
2149 0 83.1936 12.6933 1056 111.446 653.232 465.788
2150 0 86.2513 11.8955 1026 114.528 653.373 464.295
2151 0 91.3479 12.7534 1165 113.324 652.577 463.421
2152 0 96.324 14.472 1394 110.877 652.512 462.981
2153 0 96.2393 13.0716 1258 114.31 651.993 460.808
2154 0 99.3223 14.0351 1394 113.246 651.299 457.743
2155 0 104.409 15.401 1608 111.615 651.964 456.243
2156 0 107.454 14.8808 1599 112.468 651.023 455.775
2157 0 115.246 12.4776 1438 116.14 649.923 453.096
2158 1 62.1394 11.5547 718 113.297 648.052 476.313
2159 0 66.1063 12.5102 827 111.521 648.364 477.144
2160 0 67.1006 11.9969 805 111.32 647.683 476.198
2161 0 67.2953 13.9237 937 110.409 646.634 475.392
2162 0 71.3942 12.0458 860 111.621 646.22 476.617
2163 0 72.1303 13.129 947 111.843 645.299 469.306
2164 0 74.2047 11.2527 835 114.195 645.298 470.984
2165 0 77.3019 10.9312 845 114.691 645.109 468.587
2166 0 78.3242 13.2143 1035 112.198 645.585 465.802
2167 0 83.4526 12.8456 1072 111.136 645.538 465.047
2168 0 80.1664 11.4512 918 115.666 645.59 459.369
2169 0 83.1732 10.5803 880 115.018 644.466 451.726
2170 0 86.1963 14.9658 1290 109.057 644.674 449.408
2171 0 91.2708 11.8001 1077 112.939 644.298 450.441
2172 0 93.2876 13.5709 1266 111.929 645.318 452.094
2173 0 92.3028 11.5923 1070 115.774 646.101 448.541
2174 0 93.0967 10.9993 1024 116.373 645.525 446.682
2175 0 94.3697 11.4973 1085 115.371 647.153 447.63
2176 0 103.295 14.5215 1500 109.444 647.255 445.27
2177 1 156.526 12.3494 1933 118.14 647.52 421.06
2178 1 108.263 16.5708 1794 107.132 647.951 443.746
2179 0 108.339 16.716 1811 108.303 647.753 438.459
2180 0 114.383 17.2316 1971 106.622 648.912 440.938
2181 0 113.193 11.7498 1330 114.73 650.224 445.418
2182 0 118.244 12.4319 1470 115.129 650.499 437.431
2183 0 120.249 14.3619 1727 113.159 651.417 430.257
2184 0 125.203 12.2042 1528 116.581 651.173 428.538
2185 0 134.295 14.3192 1923 111.612 652.266 438.178
2186 0 134.284 12.1235 1628 116.607 652.311 430.657
2187 1 80.097 9.92547 795 113.982 652.109 464.325
2188 0 81.1341 11.9432 969 112.36 653.066 458.504
2189 0 85.139 10.3595 882 115.398 654.346 458.291
2190 0 89.1495 14.8851 1327 108.526 654.657 460.411
2191 0 90.0913 10.4561 942 116.811 653.583 452.127
2192 0 96.1544 12.2823 1181 113.443 653.461 456.793
2193 0 101.281 12.9244 1309 112.472 654.51 456.02
2194 0 102.204 13.1209 1341 111.617 652.727 442.884
2195 0 109.427 12.7299 1393 112.85 651.667 441.458
2196 0 107.413 9.82189 1055 117.1 651.328 439.621
2197 0 112.317 12.4736 1401 114.046 652.101 430.996
2198 0 115.313 13.3029 1534 114.373 651.94 431.808
2199 0 119.242 13.1162 1564 115.429 650.577 426.263
2200 0 124.47 13.2562 1650 115.051 648.999 423.248
2201 0 129.335 13.1596 1702 114.697 649.026 424.641
2202 1 76.2096 10.9304 833 112.42 646.351 452.595
2203 0 81.2216 12.2258 993 110.047 646.331 454.318
2204 0 80.1803 12.0104 963 112.073 645.05 454.155
2205 0 81.2672 11.6775 949 114.047 645.274 454.616
2206 0 87.1597 14.4906 1263 108.809 645.085 451.219
2207 0 90.15 10.8375 977 114.319 644.539 450.811
2208 0 93.2446 10.6601 994 113.695 644.57 451.343
2209 0 91.2636 7.2318 660 119.379 643.527 449.991
2210 0 96.2418 12.8738 1239 112.702 644.425 440.569
2211 0 101.185 16.8504 1705 106.836 643.742 436.67
2212 0 105.18 13.4056 1410 110.452 644.543 441.795
2213 0 106.211 17.164 1823 105.273 643.761 444.544
2214 0 110.245 12.2182 1347 112.938 644.453 439.595
2215 0 116.454 14.7783 1721 109.267 644.601 436.725
2216 0 111.234 13.8267 1538 111.052 645.392 436.722
2217 0 117.487 13.2014 1551 111.527 646.052 439.859
2218 0 119.312 12.748 1521 114.63 647.143 436.547
2219 1 67.1472 9.63554 647 116.652 647.971 466.498
2220 0 70.1284 11.6501 817 114.924 648.382 458.264
2221 0 74.309 13.7803 1024 109.927 647.708 454.397
2222 0 78.2066 16.7761 1312 104.989 649.768 454.659
2223 0 76.1477 13.0405 993 111.04 649.002 458.52
2224 0 82.5236 18.4069 1519 101.917 648.558 456.49
2225 0 79.1721 10.0035 792 114.52 651.338 456.774
2226 0 82.1893 8.66293 712 116.791 651.386 454.625
2227 0 84.1063 12.615 1061 110.719 651.843 455.772
2228 0 88.2316 10.6084 936 113.236 651.084 452.623
2229 0 89.2224 14.4807 1292 126.132 650.071 448.233
2230 0 99.3077 14.1681 1407 105.91 653.326 452.535
2231 0 98.2959 12.7879 1257 109.382 653.508 451.691
2232 0 103.289 13.4768 1392 107.781 653.109 453.404
2233 0 105.285 11.1127 1170 111.793 653.615 450.09
2234 0 110.295 15.4677 1706 105.926 653.742 451.976
2235 0 114.373 14.3828 1645 108.004 653.816 449.872
2236 0 120.965 13.8305 1673 106.479 652.778 458.339
2237 0 116.498 11.013 1283 112.96 653.138 453.762
2238 0 123.269 10.0998 1245 113.058 650.805 456.709
2239 0 126.336 11.0816 1400 114.9 650.861 445.494
2240 1 71.1394 11.8219 841 110.237 650.642 472.786
2241 0 75.0848 13.0785 982 107.115 649.841 461.448
2242 0 76.111 10.9183 831 112.028 648.202 455.958
2243 0 84.416 10.7326 906 114.026 649.371 467.329
2244 0 80.1769 10.8011 866 115.588 647.707 465.912
2245 0 86.4808 12.2802 1062 112.794 647.572 466.826
2246 0 88.2333 13.997 1235 109.625 647.348 469.284
2247 0 98.4674 16.6349 1638 104.825 647.208 466.622
2248 0 93.3202 12.0446 1124 115.663 646.601 457.342
2249 0 98.2337 16.5625 1627 107.89 646.409 459.947
2250 0 100.322 17.4737 1753 105.826 645.771 461.459
2251 0 100.317 13.4275 1347 114.451 645.834 452.199
2252 0 105.248 13.321 1402 115.157 644.723 443.523
2253 0 109.236 13.7866 1506 114.169 646.048 447.584
2254 0 111.378 16.2509 1810 110.928 645.277 436.836
2255 1 199.426 7.68203 1532 125.425 643.93 417.523
2256 0 201.44 12.0482 2427 119.212 646.076 413.206
2257 1 179.334 13.9962 2510 115.912 644.912 415.37
2258 0 184.664 12.1518 2244 118.483 645.627 416.993
2259 1 72.1176 11.8695 856 112.916 646.721 455.071
2260 0 73.3954 12.8073 940 108.297 645.361 446.881
2261 0 73.3408 12.3942 909 107.541 646.559 443.928
2262 0 78.1876 15.8593 1240 102.842 646.715 456.029
2263 0 77.1155 12.8897 994 107.061 646.818 453.668
2264 0 81.1488 8.25644 670 120.139 648.769 448.179
2265 0 84.3044 12.787 1078 111.287 649.161 454.778
2266 0 85.2039 13.8139 1177 111.426 649.616 450.686
2267 0 89.3038 12.7318 1137 113.062 649.44 447.551
2268 0 94.2598 14.6828 1384 109.103 651.04 448.197
2269 0 96.2466 13.0186 1253 113.314 653.118 441.796
2270 0 95.1662 12.4729 1187 114.377 652.914 443.357
2271 0 101.259 14.6555 1484 110.764 653.375 443.378
2272 0 101.265 14.704 1489 109.533 653.205 439.687
2273 0 105.309 13.4271 1414 110.796 652.794 442.332
2274 0 109.217 11.2528 1229 114.529 653.709 441.306
2275 0 116.485 13.2979 1549 110.691 653.767 441.688
2276 1 58.1478 6.41469 373 116.483 652.727 464.37
2277 0 64.4042 10.2322 659 109.554 651.954 461.684
2278 0 65.3635 10.4799 685 108.793 653.161 467.063
2279 0 69.1745 11.218 776 108.014 653.089 474.174
2280 0 74.1623 11.8928 882 106.764 653.874 472.569
2281 0 73.2536 8.62757 632 112.783 650.821 468.693
2282 0 75.424 13.0993 988 106.795 650.743 465.521
2283 0 78.2186 13.6157 1065 106.745 650.77 465.333
2284 0 84.3987 8.31766 702 113.952 650.697 463.615
2285 0 83.219 11.9083 991 109.349 648.315 459.816
2286 0 89.2318 11.1956 999 109.867 647.746 461.873
2287 0 97.4893 13.0681 1274 106.439 647.243 462.841
2288 0 98.331 13.2003 1298 107.93 647.234 454.795
2289 0 101.313 12.5256 1269 108.122 646.691 456.961
2290 0 101.26 13.8456 1402 106.08 646.836 457.723
2291 0 103.467 12.4775 1291 108.991 645.064 453.4
2292 0 105.415 10.748 1133 110.877 644.908 454.658
2293 0 111.443 10.7948 1203 110.433 644.717 453.029
2294 0 115.304 14.2407 1642 106.929 645.533 448.815
2295 0 116.53 14.2624 1662 107.47 644.024 443.798
2296 0 121.449 13.9647 1696 108.515 645.054 439.838
2297 0 123.288 11.1284 1372 112.459 645.621 438.044
2298 0 130.507 14.0299 1831 106.824 645.427 441.489
2299 0 132.7 14.0543 1865 108.341 645.343 432.698
2300 1 78.2988 13.474 1055 102.979 645.086 459.541
2301 0 79.6067 12.2854 978 106.457 645.62 454.725
2302 0 80.7692 11.5267 931 106.62 645.107 451.489
2303 0 82.4366 21.0101 1732 93.7737 645.531 459.262
2304 0 84.4208 12.8878 1088 105.409 646.095 452.509
2305 0 86.2031 13.7582 1186 103.997 645.616 451.397
2306 0 91.3006 16.024 1463 101.377 646.647 449.822
2307 0 92.3411 13.6451 1260 105.478 647.247 445.021
2308 0 93.4012 15.4709 1445 103.766 648.515 448.305
2309 0 96.3282 12.0525 1161 108.516 647.443 446.823
2310 0 98.2851 11.2428 1105 110.074 648.477 441.37
2311 0 99.294 11.0984 1102 110.337 649.352 441.857
2312 0 105.284 12.11 1275 108.429 649.66 444.265
2313 0 108.257 11.6482 1261 107.393 650.866 446.913
2314 0 108.39 11.3294 1228 106.062 651.145 442.79
2315 0 108.446 11.4343 1240 107.903 650.965 432.402
2316 0 115.285 11.2504 1297 106.682 652.411 439.122
2317 0 120.474 14.8912 1794 102.115 652.21 435.373
2318 0 124.473 13.3041 1656 103.678 652.55 438.661
2319 1 72.4144 8.67231 628 106.646 651.129 465.696
2320 0 73.1662 11.1664 817 102.443 651.22 468.649
2321 0 75.3658 9.5534 720 105.774 651.297 465.344
2322 0 76.2789 13.0705 997 102.787 650.928 465.477
2323 0 75.3008 14.223 1071 101.659 651.43 465.641
2324 0 85.4795 13.3365 1140 102.254 650.648 461.711
2325 0 85.3442 12.9359 1104 102.843 650.572 465.242
2326 0 86.5642 13.0192 1127 104.138 649.505 462.97
2327 0 93.4231 13.3693 1249 103.838 649.512 454.239
2328 0 97.376 15.014 1462 101.358 648.993 461.299
2329 0 99.2314 10.5914 1051 108.267 647.949 452.4
2330 0 102.404 12.646 1295 106.402 646.734 449.156
2331 0 109.716 14.4555 1586 103.294 647.154 454.329
2332 0 109.397 13.8578 1516 105.643 645.991 450.599
2333 1 65.305 11.1324 727 103.746 646.032 475.187
2334 0 65.177 11.3844 742 103.127 644.639 471.876
2335 0 69.155 9.645 667 106.975 644.032 468.592
2336 0 68.1392 10.7721 734 106.689 643.811 467.763
2337 0 73.1796 10.3308 756 106.442 644.528 466.253
2338 0 73.1836 10.9314 800 107.628 644.308 462.085
2339 0 74.2276 12.1249 900 107.82 643.948 456.647
2340 1 144.542 13.0412 1885 108.337 644.269 424.821
2341 0 151.493 16.278 2466 101.4 646.013 436.526
2342 1 84.3155 13.5562 1143 104.779 645.321 454.886
2343 0 84.2788 10.6551 898 109.822 644.92 448.737
2344 0 89.2776 11.9851 1070 107.657 646.308 452.864
2345 0 92.522 18.3416 1697 98.9605 647.193 456.156
2346 0 93.1138 13.4137 1249 107.216 646.017 451.03
2347 0 96.5717 13.5236 1306 107.113 646.849 450.682
2348 0 99.3456 13.4883 1340 108.053 648.609 447.128
2349 0 101.599 13.9174 1414 107.164 648.617 447.772
2350 0 100.444 14.0974 1416 108.719 650.104 444.523
2351 0 106.381 12.3142 1310 112.26 650.63 437.502
2352 0 109.339 13.8469 1514 109.766 650.441 430.271
2353 0 115.703 15.9201 1842 103.277 650.963 442.713
2354 0 117.309 14.1592 1661 106.424 652.209 441.158
2355 0 120.504 22.0326 2655 97.2316 652.255 428.947
2356 0 126.179 13.5997 1716 110.199 653.422 423.853
2357 0 128.356 12.5744 1614 111.307 652.781 418.275
2358 0 134.296 15.3244 2058 107.677 653.88 420.031
2359 0 137.35 10.7972 1483 113.581 652.79 433.134
2360 1 83.4776 12.8178 1070 106.613 653.414 460.177
2361 0 81.1771 12.2941 998 111.639 652.88 449.506
2362 0 86.3575 13.6757 1181 107.191 652.989 455.825
2363 0 87.2394 12.6319 1102 110.81 651.088 454.073
2364 0 91.1849 13.7852 1257 108.986 651.595 453.105
2365 0 97.2662 16.0076 1557 105.687 649.986 455.272
2366 0 98.4297 13.0144 1281 111.917 649.532 459.116
2367 0 100.117 12.0359 1205 110.809 650.462 464.67
2368 0 106.254 12.9877 1380 109.441 649.967 460.667
2369 0 110.194 13.9482 1537 108.579 648.129 460.272
2370 0 112.197 13.5565 1521 108.776 647.042 458.472
2371 0 116.304 12.1492 1413 112.236 646.391 452.054
2372 0 119.214 11.7352 1399 111.377 645.287 455.492
2373 0 127.552 14.1825 1809 108.379 645.573 450.714
2374 1 70.1631 10.2048 716 112.247 644.686 474.913
2375 0 72.2032 10.8859 786 110.761 643.808 471.441
2376 0 74.3141 10.8728 808 111.278 643.86 471.677
2377 0 78.0511 12.8634 1004 108.232 645.143 469.126
2378 0 80.1271 15.2383 1221 106.097 644.948 462.341
2379 0 80.4518 13.5982 1094 107.73 643.537 466.123
2380 0 84.2605 13.0666 1101 108.239 644.314 464.007
2381 0 85.1679 12.5634 1070 109.812 644.238 458.969
2382 0 95.654 17.3751 1662 101.795 644.725 456.529
2383 0 94.4972 18.4873 1747 100.039 644.489 461.629
2384 0 95.1511 12.8217 1220 110.384 644.72 448.83
2385 0 99.1875 13.0863 1298 107.659 645.519 457.203
2386 0 99.2629 14.376 1427 106.722 645.836 454.566
2387 1 189.265 12.464 2359 112.992 646.443 419.312
2388 0 194.556 12.0942 2353 115.978 645.602 400.566
2389 0 201.44 12.7581 2570 114.551 646.614 400.404
2390 0 201.44 12.634 2545 145.314 647.618 400.24
2391 1 117.427 9.41013 1105 113.842 647.58 447.603
2392 0 117.401 13.0067 1527 111.413 646.959 435.049
2393 1 69.2351 12.9414 896 106.385 648.528 463.775
2394 0 71.1388 12.1734 866 108.346 649.408 461.781
2395 0 74.176 11.0952 823 107.109 649.431 463.807
2396 0 76.23 13.8791 1058 105.112 648.992 459.146
2397 0 76.23 13.9053 1060 129.185 648.006 459.208
2398 0 83.3982 12.6501 1055 107.568 650.938 460.984
2399 0 83.3982 12.5542 1047 139.168 654.939 460.867
2400 0 88.3038 12.6835 1120 109 651.229 454.405
2401 0 89.3098 9.74137 870 113.545 649.963 457.393
2402 0 95.2558 14.2878 1361 106.015 650.221 457.253
2403 0 95.3837 13.1784 1257 108.894 649.224 455.075
2404 0 100.321 15.1613 1521 106.022 650.004 454.404
2405 0 98.3631 10.5222 1035 114.034 649.562 451.89
2406 0 107.318 14.1169 1515 107.698 649.463 455.186
2407 0 113.723 14.0869 1602 106.961 649.411 454.527
2408 0 115.494 10.5893 1223 112.512 649.092 443.352
2409 1 67.2148 12.0658 811 103.999 648.327 476.481
2410 0 70.1429 13.2016 926 102.9 647.321 476.064
2411 0 74.5226 19.4975 1453 94.3152 646.632 467.874
2412 0 75.1535 13.2795 998 102.378 645.092 471.628
2413 0 75.1535 13.3061 1000 124.458 643.076 471.704
2414 0 84.4184 16.7144 1411 96.9631 644.64 472.561
2415 0 85.4015 13.8522 1183 102.179 644.971 465.658
2416 0 87.2656 14.2324 1242 102.163 644.275 461.759
2417 0 91.2317 13.6575 1246 102.662 643.901 459.982
2418 0 94.2974 16.0026 1509 99.2598 643.931 465.636
2419 0 97.3738 14.6241 1424 101.804 643.229 461.238
2420 0 98.3358 14.3793 1414 102.423 643.614 460.018
2421 0 96.4245 10.8582 1047 108.998 642.377 454.564
2422 0 103.372 13.7562 1422 104.476 643.361 453.223
2423 0 107.353 12.0537 1294 106.956 643.59 453.538
2424 0 109.31 12.8351 1403 105.376 643.53 454.645
2425 0 111.121 13.1118 1457 106.585 643.632 447.737
2426 0 114.353 13.4059 1533 106.416 644.143 447.358
2427 0 117.168 13.7409 1610 107.24 643.737 443.429
2428 0 121.271 14.2738 1731 105.091 644.558 446.146
2429 0 123.391 13.4288 1657 108.001 644.678 439.288
2430 0 127.131 13.3013 1691 108.295 645.682 437.962
2431 0 134.244 15.4197 2070 103.77 646.081 440.838
2432 0 140.381 14.7314 2068 105.851 647.375 429.044
2433 0 140.381 14.7314 2068 137.693 647.367 429.105
2434 0 146.277 13.3036 1946 109.518 649.077 430.236
2435 0 149.306 11.962 1786 113.155 649.128 421.39
2436 0 155.413 11.3118 1758 113.426 650.515 429.241
2437 0 160.368 12.7706 2048 112.412 650.965 422.538
2438 0 165.247 15.5222 2565 109.895 650.994 414.048
2439 0 172.36 15.7925 2722 112.046 650.474 409.963
2440 0 175.392 12.6459 2218 116.992 651.373 415.287
2441 0 181.383 11.4729 2081 118.62 650.962 407.546
2442 0 191.246 12.1467 2323 115.333 651.938 408.623
2443 0 191.423 11.728 2245 118.38 649.791 403.36
2444 1 204.335 11.1484 2278 119.273 651.367 408.8
2445 0 209.27 12.0944 2531 117.885 649.565 403.355
2446 0 218.378 13.1927 2881 116.308 650.671 403.521
2447 0 226.511 14.6615 3321 114.817 649.475 398.097
2448 0 234.384 12.872 3017 117.075 648.578 401.828
2449 0 242.418 12.429 3013 120.192 647.806 387.065
2450 0 252.48 17.9301 4527 110.796 648.426 385.622
2451 0 260.509 12.0111 3129 119.924 647.473 394.784
2452 0 270.387 12.5487 3393 120.363 646.376 378.083
2453 1 283.406 15.5396 4404 116.603 646.064 369.036
2454 0 289.494 13.983 4048 119.913 645.058 360.381
2455 1 319.511 11.2359 3590 121.901 644.387 375.088
2456 0 312.732 17.8747 5590 113.534 643.227 334.278
2457 0 323.827 19.3066 6252 112.055 643.443 346.862
2458 0 334.839 17.05 5709 117.407 644.046 322.608
2459 1 172.455 14.485 2498 115.004 643.388 422.37
2460 1 69.3947 9.79902 680 114.382 644.04 461.575
2461 0 72.1481 14.8306 1070 106.886 644.846 464.617
2462 0 71.096 11.2946 803 114.72 644.668 455.105
2463 0 73.1812 12.9132 945 112.828 645.315 455.812
2464 0 75.2322 11.6041 873 115.12 644.106 460.235
2465 0 77.2537 8.97044 693 120.188 643.942 451.733
2466 1 212.695 17.8894 3805 113.108 643.802 399.546
2467 0 208.784 10.6426 2222 125.052 644.22 395.858
2468 1 85.1362 12.4037 1056 114.092 644.733 452.147
2469 0 87.1694 11.2998 985 118.101 645.639 452.906
2470 0 93.2529 14.4017 1343 111.31 644.819 448.92
2471 0 91.2923 12.3559 1128 116.751 645.282 442.495
2472 1 55.1263 10.3036 568 115.129 646.606 463.176
2473 0 58.0825 11.3459 659 113.388 646.744 454.91
2474 0 58.105 16.212 942 104.237 647.018 454.163
2475 0 60.2102 12.0744 727 113.188 646.224 455.569
2476 0 63.2895 13.9676 884 110.096 646.079 455.807
2477 0 66.3041 12.5935 835 112.02 647.77 461.198
2478 0 61.4771 9.30428 572 121.395 647.614 454.325
2479 0 65.2618 13.3769 873 113.478 649.09 459.442
2480 0 66.2879 14.9801 993 110.031 649.744 466.786
2481 0 68.1568 12.2071 832 115.883 650.679 462.362
2482 0 68.1568 12.1631 829 136.411 651.651 462.404
2483 0 73.34 12.7897 938 115.306 650.607 467.431
2484 0 75.3075 11.0215 830 117.186 649.792 469.035
2485 0 77.1852 13.3057 1027 114.638 650.523 468.293
2486 0 80.1815 13.4445 1078 115.146 649.716 466.182
2487 0 82.1904 18.9681 1559 103.647 649.369 475.942
2488 0 80.1978 11.9455 958 118.383 648.788 471.013
2489 0 87.1343 9.9272 865 120.994 648.86 466.52
2490 0 92.2691 15.8016 1458 109.869 649.564 467.664
2491 0 92.2649 12.3557 1140 117.013 647.731 465.057
2492 1 54.1158 14.3211 775 108.063 647.085 478.686
2493 0 53.0716 11.9461 634 110.861 647.328 473.153
2494 0 53.1738 9.23387 491 117.169 645.383 469.876
2495 0 55.2083 9.83547 543 116.867 645.829 468.473
2496 0 55.2083 9.85358 544 129.362 646.82 468.474
2497 0 62.1666 10.8418 674 117.772 644.714 475.272
2498 0 63.202 13.6546 863 113.906 643.685 475.542
2499 0 63.202 13.6546 863 126.833 642.685 475.542
2500 0 68.3052 12.9566 885 113.986 643.227 476.513
2501 0 71.0927 16.8794 1200 108.98 643.307 469.604
2502 0 71.259 15.6892 1118 111.836 643.276 469.831
2503 0 73.2201 16.2797 1192 111.088 643.248 471.027
2504 0 77.1098 14.7841 1140 112.142 643.376 472.164
2505 0 78.1626 15.2886 1195 113.182 643.377 466.362
2506 0 80.1534 12.2266 980 119.616 643.529 464.292
2507 0 80.1974 14.5641 1168 116.116 643.841 464.02
2508 0 84.0963 13.1397 1105 118.959 644.319 460.883
2509 0 85.3238 15.0251 1282 115.598 644.595 458.941
2510 0 84.2968 11.0918 935 126.038 645.015 455.347
2511 0 90.2442 14.3832 1298 118.812 645.313 454.44
2512 0 94.2523 20.0844 1893 107.543 645.869 455.145
2513 0 95.1339 13.0763 1244 121.41 646.4 449.474
2514 0 101.187 13.2428 1340 120.444 647.055 447.679
2515 0 101.347 14.2875 1448 118.72 648.375 445.559
2516 0 101.347 14.3566 1455 143.343 649.372 445.665
2517 1 62.176 11.5479 718 118.354 650.511 470.368
2518 0 62.051 9.87898 613 122.791 649.532 466.3
2519 0 67.275 12.1888 820 119.726 649.626 463.791
2520 0 67.275 12.1888 820 136.577 649.626 463.791
2521 0 69.1794 12.9085 893 117.755 651.045 470.13
2522 0 75.2165 14.1325 1063 115.836 649.933 465.732
2523 0 75.1916 10.5597 794 121.868 650.593 464.205
2524 0 79.1982 12.7276 1008 116.888 650.296 466.884
2525 0 79.1194 10.996 870 119.903 650.928 467.009
2526 0 82.2666 11.013 906 120.051 651.224 466.087
2527 0 86.2373 14.1354 1219 114.419 651.257 463.991
2528 0 89.5329 14.7767 1323 112.977 650.082 460.819
2529 0 90.1724 11.1564 1006 119.093 649.019 461.082
2530 0 95.3088 12.5382 1195 115.258 650.266 463.861
2531 0 100.254 10.5233 1055 118.29 648.736 459.601
2532 0 105.193 13.8603 1458 111.464 648.85 458.087
2533 0 105.321 10.4348 1099 115.715 647.376 459.545
2534 0 109.236 10.6558 1164 115.003 646.852 458.091
2535 1 60.1547 10.3068 620 109.46 645.416 482.506
2536 0 68.1348 10.8168 737 107.294 645.491 479.095
2537 0 66.1674 11.879 786 107.375 644.239 473.295
2538 0 71.0966 12.9964 924 105.045 643.168 472.291
2539 0 69.1825 10.1904 705 111.491 643.523 470.956
2540 0 76.3158 11.5966 885 107.88 643.04 468.721
2541 1 144.382 11.6012 1675 109.944 643.662 441.731
2542 0 149.524 10.2325 1530 112.52 643.177 436.465
2543 0 153.371 13.5749 2082 107.844 643.961 436.407
2544 1 87.142 11.246 980 108 641.986 456.57
2545 0 89.2841 11.8162 1055 108.818 642.372 459.359
2546 0 89.2493 12.8404 1146 108.198 643.449 454.346
2547 0 94.1864 10.7553 1013 110.223 643.916 455.879
2548 0 98.1977 11.9657 1175 109.057 643.669 454.455
2549 0 100.378 15.3918 1545 104.817 644.491 451.118
2550 0 103.533 11.5036 1191 109.742 643.895 448.828
2551 0 107.167 11.5054 1233 110.667 644.894 442.631
2552 1 62.1444 12.2135 759 107.078 645.19 465.82
2553 0 61.1002 11.2766 689 108.322 645.427 459.377
2554 0 68.2285 14.3488 979 103.656 645.907 453.557
2555 0 66.2385 11.5643 766 109.322 647.555 456.294
2556 0 68.1832 11.5131 785 108.549 646.754 464.818
2557 0 72.2662 11.9696 865 107.529 647.926 465.26
2558 0 75.3117 14.6192 1101 103.944 648.52 461.703
2559 0 77.5713 12.2726 952 107.997 649.624 457.988
2560 0 77.5713 12.2597 951 127.965 651.646 458.014
2561 0 80.3246 13.0097 1045 106.754 649.677 459.748
2562 0 84.2297 15.4102 1298 103.316 651.23 460.522
2563 0 85.5026 13.9879 1196 106.432 651.694 458.511
2564 0 93.1886 12.0616 1124 107.611 652.039 462.287
2565 0 93.3973 11.6813 1091 110.855 650.957 454.266
2566 0 97.4199 14.032 1367 106.712 651.738 457.922
2567 0 100.613 14.2824 1437 108.022 650.718 456.145
2568 1 56.2165 10.6019 596 107.322 651.812 482.671
2569 0 57.188 12.1879 697 106.423 650.71 481.255
2570 0 60.187 14.106 849 103.809 649.948 479.539
2571 0 61.5196 9.7855 602 111.39 649.022 475.497
2572 0 66.2754 12.4179 823 107.011 649.541 477.665
2573 0 72.3917 12.6258 914 106.12 648.574 478.751
2574 0 70.2432 13.7807 968 104.694 648.623 479.645
2575 0 69.5112 11.9693 832 108.431 647.225 475.864
2576 0 75.3031 16.4668 1240 101.158 647.165 473.756
2577 0 76.4216 12.9544 990 106.763 646.27 470.377
2578 0 78.4112 13.6333 1069 105.649 645.932 468.541
2579 1 153.507 14.8137 2274 107.053 645.434 432.33
2580 0 155.572 11.1588 1736 108.631 644.536 446.804
2581 0 164.64 14.3221 2358 107.52 644.972 428.978
2582 0 172.605 12.5199 2161 109.892 644.594 425.249
2583 1 92.1534 12.2296 1127 106.547 643.868 462.689
2584 0 97.4712 16.1894 1578 100.835 642.34 460.338
2585 0 100.253 15.7701 1581 100.799 644.385 457.291
2586 0 101.332 14.4376 1463 102.95 642.576 455.029
2587 0 105.316 18.4492 1943 98.2815 643.044 447.633
2588 0 108.343 18.0538 1956 98.8579 643.54 453.133
2589 0 114.109 17.3518 1980 97.7096 643.878 452.788
2590 0 113.373 13.3806 1517 104.933 643.791 445.97
2591 0 117.306 14.5773 1710 104.006 644.67 442.615
2592 1 68.124 14.0773 959 99.0292 644.866 468.055
2593 0 71.2344 12.2272 871 100.583 643.692 465.834
2594 0 75.114 14.3915 1081 99.3562 645.333 459.133
2595 0 76.2698 19.2081 1465 94.8102 645.921 462.835
2596 0 77.2297 11.2004 865 102.476 646.277 467.185
2597 0 81.1369 13.3478 1083 102.363 647.172 458.912
2598 0 83.2425 14.3436 1194 99.1901 649.008 456.03
2599 0 86.1266 12.7371 1097 101.977 648.613 453.352
2600 0 87.1186 13.0971 1141 102.887 649.018 452.158
2601 0 88.1583 12.3414 1088 104.858 649.203 454.65
2602 0 94.3542 18.8651 1780 94.0893 648.992 462.593
2603 0 101.485 20.0129 2031 92.9483 649.647 461.392
2604 0 103.307 17.3851 1796 98.0356 650.538 450.332
2605 0 104.296 18.7543 1956 96.2265 650.511 446.145
2606 0 107.201 12.7611 1368 102.904 649.828 446.872
2607 0 111.341 12.7806 1423 104.623 649.123 448.299
2608 1 64.2039 10.7937 693 104.576 649.512 467.753
2609 0 66.1721 8.71969 577 106.263 649.905 473.969
2610 0 71.2 10.4775 746 103.456 649.278 473.932
2611 0 77.2862 13.1459 1016 101.255 648.57 472.864
2612 0 80.3858 16.3586 1315 97.0616 648.176 467.113
2613 0 83.2517 13.8015 1149 98.7467 649.551 473.925
2614 0 85.1705 11.342 966 103.07 648.495 472.014
2615 0 87.2982 9.27854 810 106.702 647.365 465.884
2616 0 93.1612 13.4283 1251 101.981 646.687 461.782
2617 0 95.1951 14.6751 1397 100.073 646.488 461.889
2618 0 97.1819 15.7437 1530 98.7144 645.335 462.033
2619 0 101.273 13.2711 1344 102.003 644.805 458.599
2620 0 106.282 15.8917 1689 98.6015 643.941 453.712
2621 0 108.206 14.0103 1516 101.16 643.856 451.046
2622 0 112.156 13.6595 1532 101.289 643.462 446.903
2623 0 119.133 11.995 1429 103.089 643.613 452.037
2624 0 122.427 14.1962 1738 100.529 643.475 447.157
2625 1 65.1518 14.4125 939 96.1832 642.939 474.738
2626 0 68.2485 12.9234 882 97.9138 642.859 471.357
2627 0 70.1078 10.1986 715 102.916 642.73 462.655
2628 0 69.2415 9.18524 636 104.984 643.498 461.558
2629 0 76.1474 14.8659 1132 96.2836 643.25 467.477
2630 0 76.1614 10.4515 796 102.457 643.96 464.41
2631 0 78.1845 13.7623 1076 99.9136 643.336 456.406
2632 0 77.1468 14.0122 1081 99.7308 644.145 457.975
2633 0 83.1279 12.7514 1060 101.582 643.848 452.161
2634 0 87.2712 14.2773 1246 100.369 644.681 454.435
2635 0 88.4113 14.2516 1260 100.837 644.832 450.538
2636 0 92.2445 16.5647 1528 98.1283 646.616 446.924
2637 0 95.0779 15.3243 1457 100.386 646.379 443.572
2638 0 99.3121 19.8868 1975 95.2238 647.666 439.498
2639 0 103.234 14.7335 1521 100.171 646.899 448.2
2640 0 104.204 12.1492 1266 103.608 648.713 445.265
2641 0 107.538 10.9077 1173 105.439 648.233 436.7
2642 1 74.3642 20.5879 1531 86.8537 649.365 468.415
2643 0 78.1771 14.416 1127 95.126 650.606 460.024
2644 0 84.1963 13.6229 1147 95.2459 650.255 461.078
2645 0 86.5408 18.1648 1572 91.5662 649.321 463.115
2646 0 84.2409 17.7467 1495 93.1773 649.342 455.294
2647 0 87.1039 13.834 1205 98.9245 648.517 454.807
2648 0 89.3303 21.135 1888 91.0551 648.878 458.282
2649 0 91.4029 15.7107 1436 97.0487 648.804 457.819
2650 0 86.3128 9.97535 861 104.216 647.441 457.835
2651 0 96.1315 16.7375 1609 96.6433 646.3 455.526
2652 0 100.8 17.5199 1766 96.7826 647.174 458.059
2653 0 104.516 22.7238 2375 90.9777 645.791 458.789
2654 0 105.785 16.3728 1732 97.612 644.256 446.281
2655 1 114.329 8.3356 953 105.99 643.738 451.066
2656 0 119.51 12.0743 1443 101.537 643.31 453.563
2657 0 118.451 18.2439 2161 96.6192 643.091 445.829
2659 1 73.5934 11.5907 853 99.3998 643.022 472.499
2660 0 71.1891 21.5482 1534 91.1349 642.117 472.088
2661 0 70.339 13.9325 980 101.49 642.417 463.379
2662 0 72.2039 11.3013 816 104.159 642.038 464.038
2663 0 73.4164 13.7027 1006 101.837 641.679 456.232
2664 0 80.2678 11.6111 932 102.249 641.714 462.811
2665 0 81.3209 18.2487 1484 97.502 642.192 452.08
2666 0 81.3209 18.2733 1486 126.935 642.216 452.001
2667 0 88.1588 17.4912 1542 97.5914 641.941 456.289
2668 0 88.2726 12.8919 1138 104.902 642.539 450.105
2669 0 94.4336 16.7949 1586 99.466 642.558 452.277
2670 0 95.4211 18.4341 1759 99.2109 643.619 442.201
2671 0 98.5615 17.3293 1708 98.4204 642.557 449.207
2672 0 100.254 15.0119 1505 102.797 643.055 437.9
2673 0 103.329 16.5394 1709 101.637 643.848 441.08
2674 0 108.32 16.5897 1797 101.187 645.514 439.92
2675 0 110.609 16.0476 1775 102.397 645.932 444.303
2676 0 115.381 18.7293 2161 98.3734 646.448 449.561
2677 0 117.764 21.3902 2519 95.7249 646.623 449.018
2678 0 119.435 14.6104 1745 105.517 646.659 432.366
2679 0 129.313 20.4001 2638 96.8488 647.921 440.594
2680 0 135.46 17.3778 2354 97.6916 647.657 437.691
2681 1 72.3432 11.1966 810 105.009 647.968 456.726
2682 0 76.3321 12.4194 948 101.18 648.621 459.35
2683 0 81.3605 17.1459 1395 97.3699 648.379 452.042
2684 0 83.4661 15.4554 1290 98.8535 649.465 456.19
2685 0 86.2609 17.1688 1481 97.0912 648.216 456.506
2686 0 85.2081 14.3648 1224 100.192 647.775 456.35
2687 0 93.2745 21.292 1986 93.2744 647.877 454.399
2688 0 93.2373 12.5701 1172 102.285 648.784 452.048
2689 0 96.2148 16.1202 1551 98.5571 648.535 454.571
2690 0 101.332 18.2766 1852 94.5232 648.435 456.601
2691 0 103.208 19.6884 2032 95.8784 647.768 446.282
2692 0 110.646 19.5488 2163 94.3643 648.586 452.374
2693 0 108.387 13.0643 1416 103.705 646.825 449.237
2694 0 111.327 10.4736 1166 106.391 646.265 451.508
2695 0 114.886 14.6232 1680 98.2339 645.653 462.067
2696 0 116.405 17.3617 2021 97.4295 644.138 441.289
2697 0 123.584 22.7295 2809 91.1502 643.926 454.888
2698 0 127.343 9.72961 1239 102.212 642.99 457.994
2699 0 130.466 13.789 1799 98.6404 642.627 444.845
2700 0 135.516 13.6073 1844 99.7419 643.022 441.783
2701 1 74.4083 16.8933 1257 99.6396 642.535 468.456
2702 0 81.7083 18.4437 1507 85.4824 641.894 474.407
2703 0 84.9794 21.8877 1860 81.5575 640.917 474.432
2704 0 88.0057 19.1692 1687 83.5442 640.868 469.073
2705 0 86.4423 13.7548 1189 89.0025 640.453 466.588
2706 0 85.66 16.4604 1410 87.5135 641 465.732
2707 0 86.4057 15.0222 1298 90.1857 640.269 458.122
2708 0 98.0146 12.039 1180 90.0992 639.81 465.343
2709 0 91.3364 12.6893 1159 93.1881 641.258 448.684
2710 0 92.1815 18.3551 1692 88.2435 641.054 454.438
2711 0 101.947 18.2251 1858 88.091 641.859 449.105
2712 0 103.304 14.4428 1492 91.8613 642.202 444.381
2713 0 106.281 14.8474 1578 91.8257 642.332 444.835
2714 0 109.296 32.3342 3534 81.3662 642.559 439.208
2715 1 65.223 20.5909 1343 84.8578 643.609 471.7
2716 0 70.373 13.4427 946 91.8372 644.706 461.941
2717 0 66.2352 8.95294 593 98.4334 644.364 461.221
2718 0 77.8227 12.6056 981 92.1346 644.417 468.822
2719 0 73.1982 15.1643 1110 92.1297 645.342 459.272
2720 0 78.2831 13.9494 1092 92.2711 645.746 462.933
2721 0 76.3177 20.9126 1596 87.2093 645.64 461.093
2722 0 79.4208 12.2134 970 94.1371 645.867 459.288
2723 0 82.411 16.9274 1395 91.2387 646.44 457.519
2724 0 90.2867 21.9966 1986 83.8288 645.705 466.197
2725 0 92.2632 23.1078 2132 86.0807 647.241 455.219
2726 0 94.2063 17.0265 1604 89.2263 646.84 459.75
2727 0 93.5226 17.2579 1614 92.2813 647.293 455.006
2728 0 96.1669 12.8631 1237 96.5877 647.771 456.123
2729 0 101.273 19.7683 2002 90.1244 648.605 454.108
2730 0 105.339 24.6064 2592 85.2346 648.133 464.95
2731 0 111.313 18.8567 2099 90.2087 647.507 458.842
2732 0 106.383 9.76656 1039 101.855 647.537 450.358
2733 0 116.727 18.0078 2102 91.4876 647.898 455.995
2734 0 119.367 15.5236 1853 94.1284 647.415 451.681
2735 1 70.3923 23.8378 1678 84.8552 646.896 475.893
2736 0 70.488 12.4276 876 94.1632 646.398 478.559
2737 0 69.1434 14.3181 990 93.8879 647.088 477.337
2738 0 73.4313 12.0385 884 95.9027 645.503 475.137
2739 0 82.4685 12.6836 1046 92.544 645.949 477.654
2740 0 78.2771 14.3465 1123 93.8486 644.87 471.409
2741 0 79.2748 11.4538 908 97.5121 644.141 468.257
2742 0 86.3764 16.2081 1400 91.5643 643.986 467.838
2743 0 85.2412 15.0631 1284 92.986 643.367 465.136
2744 0 89.2973 26.115 2332 84.2817 642.485 468.38
2745 0 94.5786 20.0468 1896 88.27 641.396 461.353
2746 0 94.1807 19.144 1803 89.6972 641.083 458.143
2747 0 95.3944 14.4663 1380 94.0877 641.797 457.589
2748 0 99.5058 12.6224 1256 96.6083 640.164 454.371
2749 0 102.276 15.5363 1589 94.1177 641.627 455.149
2750 0 104.302 17.9384 1871 92.799 640.742 451.16
2751 0 111.013 17.2143 1911 93.5683 641.414 446.176
2752 0 108.55 23.1599 2514 88.5183 641.312 454.311
2753 0 112.385 21.3017 2394 89.254 641.178 455.054
2754 0 116.237 22.8155 2652 96.6614 643.053 445.393
2755 0 123.788 17.1826 2127 98.5938 642.781 454.658
2756 0 125.547 16.4958 2071 102.366 643.805 437.816
2757 1 74.4025 12.4861 929 103.882 643.667 465.488
2758 0 74.2268 10.1176 751 107.272 644.214 458.099
2759 0 79.2019 14.0274 1111 102.115 644.63 460.215
2760 0 82.2494 19.1612 1576 96.0768 645.657 455.803
2761 0 83.2344 17.9854 1497 95.7816 645.551 459.488
2762 1 152.748 18.7237 2860 97.1797 646.416 431.651
2763 1 91.1514 15.5456 1417 99.7622 647.601 455.957
2764 0 95.3033 12.5074 1192 103.778 648.284 449.606
2765 0 96.414 10.4549 1008 106.843 647.751 446.172
2766 0 100.379 16.1288 1619 100.872 647.505 447.637
2767 0 101.209 12.3506 1250 105.542 649.175 447.992
2768 0 109.921 17.8311 1960 97.6 648.35 447.985
2769 0 109.419 12.9503 1417 102.131 649.637 454.236
2770 0 113.646 21.8309 2481 94.865 649.595 444.306
2771 0 115.322 19.3805 2235 96.0631 649.238 441.777
2772 0 118.361 13.011 1540 103.232 649.868 441.007
2773 0 125.443 25.1748 3158 91.272 649.181 442.956
2774 1 68.2756 11.644 795 99.7006 649.028 468.358
2775 0 69.2582 11.0456 765 102.174 648.269 469.214
2776 0 73.4887 16.9278 1244 96.1664 648.748 469.591
2777 0 74.3638 12.4523 926 99.3812 648.482 476.44
2778 0 76.3877 12.2533 936 102.808 648.318 467.61
2779 0 77.0688 10.3933 801 105.693 647.449 467.397
2780 0 83.6933 15.4493 1293 97.4733 648.269 468.814
2781 0 82.3238 11.9892 987 103.291 648.24 463.308
2782 0 94.4486 11.7948 1114 100 647.845 472.431
2783 0 88.4889 18.6012 1646 93.3919 646.946 467.809
2784 0 95.7104 11.9318 1142 100.774 645.649 460.492
2785 0 95.6781 12.239 1171 100.387 645.55 458.88
2786 0 96.3941 13.2581 1278 99.9202 644.926 456.584
2787 0 99.2311 13.1511 1305 99.9264 644.917 454.339
2788 0 101.443 11.0012 1116 101.746 643.863 453.401
2789 0 105.516 18.9735 2002 93.3002 643.31 456.947
2790 0 110.43 15.5936 1722 96.5197 643.908 451.98
2791 0 110.567 17.2475 1907 96.0393 643.742 445.244
2792 0 113.378 12.9303 1466 100.067 643.654 437.911
2793 0 118.828 12.3708 1470 98.832 643.001 442.941
2794 0 129.317 15.8989 2056 94.3954 642.609 445.027
2795 0 128.344 15.061 1933 96.3776 643.531 433.563
2796 0 133.485 11.4545 1529 99.7789 643.212 432.542
2797 0 139.47 18.8642 2631 93.2661 643.381 427.975
2798 0 143.355 15.4163 2210 94.7538 644.196 435.696
2799 0 148.775 12.5895 1873 98.6343 644.664 420.359
2800 0 153.393 15.3266 2351 94.1574 645.347 425.224
2801 0 160.572 14.5791 2341 95.4233 645.78 420.542
2802 1 91.3795 12.7819 1168 93.8116 645.082 446.895
2803 0 94.3464 19.439 1834 87.8986 645.586 445.682
2804 0 100.476 19.7559 1985 86.8766 646.718 447.924
2805 0 101.461 21.4171 2173 85.9839 647.078 451.267
2806 0 108.63 25.2877 2747 85.1645 647.178 439.416
2807 1 191.108 18.6282 3560 91.464 647.946 406.718
2808 1 106.689 12.4662 1330 95.0579 648.544 444.884
2809 0 111.826 11.4196 1277 97.1128 650.888 438.309
2810 0 113.445 21.3056 2417 90.2284 649.864 428.154
2811 0 118.543 25.7544 3053 85.9155 649.536 443.084
2812 0 121.78 17.4248 2122 94.3638 650.083 427.951
2813 0 126.609 13.4271 1700 96.8559 650.999 440.958
2814 0 132.679 18.85 2501 92.8053 650.897 432.927
2815 0 132.452 19.5542 2590 92.7108 649.783 434.41
2816 0 140.657 25.3738 3569 89.4534 649.854 426.379
2817 0 145.582 13.422 1954 99.3531 650.771 425.337
2818 1 85.3994 25.4569 2174 85.0782 649.965 465.732
2819 0 86.2474 15.386 1327 94.2909 650.067 456.534
2820 0 88.4237 17.2239 1523 93.4097 649.465 459.228
2821 0 89.43 9.42637 843 102.31 649.14 455.722
2822 0 99.6398 25.4517 2536 86.1908 648.696 464.814
2823 0 99.44 14.7124 1463 96.2502 648.17 459.433
2824 0 100.389 12.1627 1221 100.159 647.535 451.292
2825 0 104.479 13.4382 1404 98.7051 646.778 454.845
2826 0 110.72 16.4379 1820 95.3731 646.188 456.35
2827 0 115.317 18.9477 2185 93.4435 646.654 454.52
2828 0 114.39 15.5084 1774 97.7086 645.687 449.21
2829 0 119.897 25.1465 3015 88.942 644.924 448.415
2830 0 117.355 13.1652 1545 100.998 645.021 438.47
2831 0 123.46 14.4095 1779 99.9337 644.408 438.721
2832 0 127.312 15.2303 1939 98.0794 643.198 444.2
2833 0 130.431 25.9064 3379 89.4809 642.824 443.796
2834 0 132.541 11.0683 1467 103.845 643.363 427.093
2835 0 143.373 27.1042 3886 88.992 643.132 434.876
2836 0 145.457 17.3384 2522 97.5884 643.476 425.877
2837 0 152.694 21.6904 3312 93.8409 643.32 426.28
2838 0 156.666 12.415 1945 102.228 644.34 428.25
2839 1 87.3349 15.5035 1354 95.9601 644.079 446.633
2840 0 93.1886 15.1199 1409 94.6189 644.027 454.443
2841 0 95.6228 14.3376 1371 97.0314 645.196 451.627
2842 0 92.1707 13.6594 1259 99.4678 644.501 447.568
2843 0 99.2448 16.5752 1645 96.0036 643.994 446.692
2844 0 103.01 15.5033 1597 97.3995 645.699 447.527
2845 0 100.426 18.6606 1874 95.8399 646.119 445.219
2846 0 105.248 10.2234 1076 105.161 647.765 441.846
2847 0 108.625 14.5362 1579 100.901 647.053 437.837
2848 0 108.481 13.2097 1433 102.229 648.925 442.233
2849 0 113.476 17.3164 1965 98.7669 648.584 434.529
2850 0 119.472 18.1717 2171 97.8425 649.65 431.722
2851 0 121.448 19.2017 2332 97.4996 649.715 429.628
2852 0 129.444 16.9804 2198 99.4868 649.945 433.788
2853 0 131.318 17.9869 2362 98.3243 650.083 436.189
2854 0 135.588 20.1714 2735 95.9653 651.369 434.325
2855 0 141.295 15.3367 2167 101.298 652.216 433.585
2856 0 144.404 16.7862 2424 100.652 652.908 429.083
2857 1 83.6048 17.7861 1487 95.8272 651.678 458.151
2858 0 84.3491 13.7405 1159 102.703 652.665 453.252
2859 0 86.2526 12.9387 1116 102.061 652.754 457.134
2860 0 92.2893 16.5891 1531 98.179 652.811 452.395
2861 0 92.3438 16.8176 1553 98.9871 652.457 458.18
2862 0 94.4143 12.9218 1220 102.584 651.818 465.085
2863 0 96.6373 12.9867 1255 104.687 652.304 456.538
2864 0 102.411 16.8147 1722 99.302 651.275 462.755
2865 1 196.627 14.7284 2896 107.47 650.979 410.898
2866 0 201.531 17.243 3475 104.755 650.764 406.505
2867 0 207.393 16.529 3428 106.321 651.549 401.994
2868 0 214.592 16.0304 3440 108.792 650.061 408.23
2869 1 127.483 12.2056 1556 104.976 648.357 459.253
2870 0 123.597 12.4113 1534 107.129 647.72 447.776
2871 0 123.293 13.6585 1684 104.998 648.315 449.107
2872 0 129.205 15.6882 2027 102.074 647.426 446.539
2873 0 135.515 15.5333 2105 101.962 647.23 444.32
2874 0 135.407 18.6549 2526 100.829 646.077 434.489
2875 1 83.2896 12.4625 1038 101.225 645.618 469.368
2876 0 82.2464 9.43507 776 103.93 644.943 469.284
2877 0 85.3599 14.7845 1262 100.12 645.418 458.812
2878 0 90.3575 17.9952 1626 97.3881 644.677 452.113
2879 0 91.2924 14.3166 1307 102.581 644.154 454.282
2880 0 95.3349 14.234 1357 102.702 644.041 455.436
2881 0 99.5085 15.1846 1511 101.382 644.602 451.946
2882 0 99.2277 14.5322 1442 102.297 644.264 452.051
2883 0 100.925 17.0919 1725 99.6139 645.731 451.11
2884 0 102.218 14.6746 1500 102.489 644.887 450.253
2885 0 106.226 13.0665 1388 104.921 645.288 444.659
2886 0 112.802 19.4943 2199 97.4729 645.568 445.001
2887 0 110.212 19.5896 2159 98.3043 645.631 436.657
2888 0 115.354 13.3502 1540 104.595 646.123 437.49
2889 0 118.265 14.1885 1678 103.743 647.902 437.302
2890 0 120.263 13.6201 1638 104.584 649.153 427.557
2891 0 127.768 24.6071 3144 92.9008 648.932 438.706
2892 0 128.439 17.0197 2186 100.433 649.236 433.898
2893 0 134.389 17.6726 2375 98.7082 649.54 437.729
2894 1 78.2004 13.849 1083 99.5632 650.568 456.081
2895 0 82.1274 11.7987 969 100.398 650.801 458.68
2896 0 83.3889 13.7069 1143 100.504 650.633 457.271
2897 0 84.5661 12.1444 1027 104.049 651.173 451.823
2898 0 90.2753 20.1495 1819 93.1468 651.76 463.93
2899 0 88.5323 11.1146 984 105.109 652.472 455.241
2900 0 98.4943 14.5186 1430 100.113 653.408 455.089
2901 0 97.3319 15.3495 1494 100.475 653.24 451.966
2902 0 97.6335 9.21815 900 108.24 652.84 452.418
2903 0 101.332 16.293 1651 100.232 653.213 448.213
2904 0 108.55 18.1299 1968 96.6418 651.77 453.337
2905 0 108.622 14.1315 1535 103.157 651.208 445.741
2906 0 112.605 13.1522 1481 103.14 650.817 451.172
2907 0 113.506 11.4619 1301 107.011 651.021 444.053
2908 0 120.542 13.4642 1623 103.778 651.277 452.397
2909 0 120.376 12.328 1484 106.641 650.543 440.898
2910 0 125.445 14.5801 1829 102.677 649.553 450.127
2911 0 131.54 12.27 1614 104.105 650.118 451.193
2912 0 130.66 13.4012 1751 104.295 649.227 442.381
2913 1 77.1034 13.5532 1045 96.5588 647.923 475.731
2914 0 80.3246 12.2129 981 102.475 646.853 470.157
2915 0 81.391 12.6181 1027 103.618 646.361 461.516
2916 0 86.3325 15.9036 1373 100.107 647.318 463.129
2917 0 88.2408 21.94 1936 93.7918 646.828 465.499
2918 0 89.5617 14.7831 1324 101.039 645.619 462.479
2919 0 93.3027 16.9984 1586 98.5473 645.581 462.554
2920 0 96.621 19.5299 1887 95.8241 645.943 461.754
2921 0 101.509 16.6192 1687 99.6758 645.298 450.107
2922 0 101.328 14.7541 1495 101.827 644.967 456.082
2923 0 104.471 11.5056 1202 106.011 644.264 449.088
2924 0 107.689 13.3439 1437 104.076 644.77 449.782
2925 0 108.418 15.4311 1673 102.62 645.499 445.803
2926 0 113.426 13.8328 1569 105.226 645.157 441.646
2927 0 114.549 15.6439 1792 103.061 645.788 443.128
2928 0 120.525 16.7767 2022 101.526 645.724 441.184
2929 0 125.856 19.1012 2404 98.9172 646.361 437.773
2930 0 126.546 13.4891 1707 106.22 646.371 437.408
2931 0 130.615 15.1973 1985 102.295 647.449 435.129
2932 0 135.651 18.12 2458 98.5948 646.817 427.97
2933 0 137.473 13.4645 1851 104.165 646.846 427.361
2934 0 146.665 17.4138 2554 98.5482 647.744 429.029
2935 0 151.754 14.0754 2136 103.603 650.058 419.57
2936 1 84.2042 18.942 1595 94.2382 649.614 458.644
2937 0 84.3362 13.5292 1141 99.4207 648.876 457.666
2938 0 87.6117 15.5345 1361 98.8406 650.141 446.875
2939 0 91.214 14.3838 1312 99.6052 650.486 454.43
2940 0 94.4336 17.4091 1644 97.0724 651.647 446.075
2941 0 98.333 13.2916 1307 100.286 651.164 453.912
2942 0 102.427 18.1885 1863 93.6667 650.738 460.718
2943 0 101.479 12.17 1235 104.147 651.517 444.967
2944 0 108.291 22.1902 2403 93.0687 652.266 451.567
2945 0 109.409 14.0483 1537 101.596 652.778 450.507
2946 0 115.388 16.9602 1957 98.444 652.549 443.316
2947 0 115.65 22.0406 2549 94.6183 651.628 445.426
2948 0 121.656 16.333 1987 98.6739 651.928 451.108
2949 0 122.57 16.1459 1979 99.948 651.934 444.61
2950 0 128.302 13.6787 1755 102.421 651.726 436.382
2951 0 132.495 18.295 2424 96.7933 650.84 435.059
2952 1 74.2255 11.1956 831 101.911 649.996 470.486
2953 0 76.2084 9.06724 691 103.405 649.747 471.01
2954 0 84.0591 14.359 1207 96.3413 649.88 475.036
2955 0 81.2468 13.8344 1124 100.367 648.875 462.23
2956 0 88.6779 23.9519 2124 89.3696 648.061 470.675
2957 0 89.2773 17.4064 1554 96.509 647.162 464.73
2958 0 95.4224 15.751 1503 98.7465 647.365 460.72
2959 0 92.6206 12.4162 1150 104.151 646.61 456.473
2960 0 94.2611 14.2477 1343 101.838 645.17 459.771
2961 0 102.283 17.2756 1767 98.9378 645.598 456.072
2962 0 102.452 14.8459 1521 102.396 645.02 451.627
2963 0 109.894 16.789 1845 99.7534 645.484 444.711
2964 0 109.639 15.3777 1686 102.146 644.596 449.394
2965 0 113.468 16.5773 1881 100.815 644.594 448.685
2966 0 113.458 15.7327 1785 103.001 645.118 442.208
2967 0 116.359 14.567 1695 104.57 644.718 441.676
2968 0 123.301 14.193 1750 104.519 644.585 438.836
2969 0 124.39 13.3612 1662 105.581 643.974 443.986
2970 0 128.514 18.6284 2394 101.088 644.681 434.898
2971 0 137.468 21.3941 2941 97.9779 644.981 425.776
2972 0 141.593 19.6973 2789 99.1269 646.364 434.62
2973 0 142.452 13.8784 1977 106.581 646.235 428.702
2974 0 150.731 17.2161 2595 103.726 646.224 424.856
2975 0 156.441 24.8465 3887 96.1253 646.396 424.166
2976 0 161.375 18.4972 2985 103.245 647.747 422.217
2977 0 164.297 15.2955 2513 108.528 649.119 412.779
2978 0 173.667 15.8982 2761 105.418 647.736 425.151
2979 1 101.665 13.7511 1398 107.731 648.517 449.73
2980 0 103.211 14.8046 1528 108.16 649.165 443.382
2981 0 106.24 15.7756 1676 107.362 650.115 446.778
2982 0 110.493 16.0101 1769 108.083 651.432 444.364
2983 0 112.46 16.3258 1836 106.8 650.425 446.196
2984 0 118.663 17.714 2102 104.689 651.639 445.311
2985 0 120.408 15.0987 1818 108.413 651.647 443.226
2986 0 129.94 18.3623 2386 103.019 652.018 446.402
2987 0 128.966 15.8646 2046 108.891 651.669 440.997
2988 0 133.226 14.1564 1886 111.709 651.757 434.492
2989 0 140.583 19.6183 2758 102.686 652.074 443.781
2990 0 142.199 17.1801 2443 106.375 651.686 440.838
2991 0 151.859 16.4495 2498 106.804 651.523 439.716
2992 0 161.322 20.3072 3276 101.773 651.428 437.429
2993 0 163.598 27.1397 4440 96.3196 651.999 428.205
2994 0 165.433 12.023 1989 113.247 650.876 432.934
2995 0 170.395 16.1742 2756 108.281 650.931 432.561
2996 0 178.353 16.3216 2911 108.702 649.269 423.656
2997 0 184.563 27.1561 5012 98.5451 649.156 430.938
2998 0 190.465 17.1895 3274 111.692 649.153 419.055
2999 0 197.886 17.8335 3529 110.364 648.735 425.26
3000 0 205.041 24.5219 5028 102.869 648.06 413.871
3001 0 207.653 15.9015 3302 114.356 647.468 408.884
3002 1 161.646 16.8207 2719 110.596 646.255 441.615
3003 0 167.694 15.9636 2677 113.67 645.694 427.596
3004 0 176.83 17.4235 3081 109.254 646.106 433.144
3005 0 180.457 15.3997 2779 112.218 643.909 425.084
3006 0 183.479 13.6582 2506 112.256 644.056 425.174
3007 0 184.444 15.9994 2951 109.342 644.304 425.822
3008 1 200.516 21.5194 4315 102.612 644.735 417.905
3009 0 207.699 18.0646 3752 106.579 644.106 421.011
3010 0 216.342 15.7343 3404 111.299 643.891 406.154
3011 0 227.833 16.7623 3819 109.741 643.548 397.069
3012 1 166.297 18.5632 3087 107.053 644.106 434.018
3013 0 170.597 17.8256 3041 109.018 644.228 422.416
3014 0 178.849 19.866 3553 105.432 644.315 427.874
3015 0 187.092 16.8152 3146 109.453 644.33 417.893
3016 0 188.726 18.9428 3575 108.85 645.048 410.835
3017 0 195.777 16.9427 3317 112.68 646.74 413.64
3018 0 202.48 17.4437 3532 111.894 645.691 406.822
3019 0 208.545 17.8522 3723 112.223 647.115 391.25
3020 0 219.414 17.729 3890 110.687 647.163 406.005
3021 0 228.789 26.8238 6137 100.347 647.255 410.041
3022 0 233.85 20.4319 4778 107.212 648.467 404.937
3023 0 240.985 17.7065 4267 111.4 648.268 390.97
3024 0 249.869 19.4542 4861 109.494 649.088 378.956
3025 0 258.751 18.5082 4789 111.006 650.113 373.357
3026 1 204.309 17.7427 3625 110.816 650.71 411.845
3027 0 209.437 15.7422 3297 114.361 651.578 402.071
3028 0 217.12 16.0924 3494 112.951 650.713 404.52
3029 0 226.903 15.8879 3605 114.271 651.719 396.652
3030 0 234.77 19.4063 4556 109.831 651.974 390.427
3031 1 247.203 15.9909 3953 113.628 651.582 397.643
3032 0 251.573 18.0584 4543 113.107 650.928 382.83
3033 0 262.79 17.9116 4707 113.109 650.833 384.2
3034 1 66.3444 14.9523 992 112.262 651.794 475.925
3035 0 66.3879 14.4906 962 113.519 650.995 474.029
3036 0 71.3612 17.3063 1235 108.134 650.612 475.429
3037 0 70.1594 13.6119 955 114.117 649.938 474.776
3038 0 76.4012 15.9945 1222 109.52 650.469 478.194
3039 0 78.3512 14.6264 1146 112.334 649.674 473.589
3040 0 87.5395 13.4454 1177 110.777 649.283 478.839
3041 0 86.1652 16.5032 1422 106.894 648.149 475.033
3042 0 82.2717 12.9085 1062 114.542 646.79 469.298
3043 0 89.3518 15.3103 1368 111.501 646.967 470.999
3044 0 92.272 17.8928 1651 109 645.843 466.391
3045 0 95.3757 18.9776 1810 107.298 645.882 462.608
3046 0 98.6487 15.2764 1507 111.033 644.835 468.196
3047 0 105.719 18.9842 2007 103.877 645.778 468.071
3048 0 107.341 14.3189 1537 111.718 644.208 464.001
3049 0 109.623 16.8669 1849 109.419 643.459 457.432
3050 0 110.387 15.654 1728 111.733 643.517 457.602
3051 0 118.847 19.8574 2360 104.078 643.945 456.595
3052 0 119.497 26.1429 3124 97.4491 643.845 458.357
3053 0 126.624 20.3911 2582 103.43 643.495 445.571
3054 0 124.446 18.6507 2321 106.297 643.389 445.807
3055 0 246.457 15.6498 3857 107.048 642.926 392.514
3056 0 247.833 14.4412 3579 108.993 643.212 397.924
3057 0 250.6 17.4781 4380 105.318 644.024 394
3058 0 248.381 14.2684 3544 110.238 643.662 393.601
3059 1 153.412 20.383 3127 102.375 644.273 430.404
3060 0 154.597 17.8981 2767 107.561 644.99 433.102
3061 0 158.449 16.9455 2685 108.831 645.191 429.937
3062 0 163.611 15.708 2570 109.989 646.026 429.342
3063 0 171.836 21.6602 3722 102.557 645.444 420.096
3064 0 174.457 14.1582 2470 112.114 646.528 423.864
3065 0 180.598 19.4741 3517 108.346 647.182 415.542
3066 0 185.527 22.5681 4187 104.639 648.55 420.148
3067 0 189.78 18.0051 3417 112.771 647.3 407.806
3068 1 262.64 16.159 4244 114.385 649.024 380.145
3069 1 202.968 18.195 3693 112.681 648.434 406.62
3070 0 206.248 14.9335 3080 119.546 649.902 398.797
3071 0 215.7 19.2304 4148 112.002 650.044 405.271
3072 0 223.716 16.6998 3736 116.726 650.87 398.058
3073 0 228.535 15.188 3471 119.845 649.688 392.812
3074 0 238.495 18.7258 4466 114.328 650.419 392.315
3075 0 244.377 15.3697 3756 120.066 649.296 398.357
3076 0 247.484 18.2234 4510 115.347 649.458 399.934
3077 1 264.656 19.2589 5097 113.589 650.677 388.772
3078 0 270.926 21.4228 5804 109.674 651.084 394.98
3079 1 215.778 16.2575 3508 117.727 649.688 416.452
3080 0 219.696 14.4427 3173 121.256 648.998 415.662
3081 0 226.537 15.7855 3576 123.742 648.458 402.021
3082 0 235.498 14.5776 3433 124.492 648.694 400.394
3083 0 240.98 16.1508 3892 122.689 648.387 391.882
3084 0 250.555 17.3455 4346 117.165 647.413 406.838
3085 0 255.662 14.2297 3638 123.802 646.95 382.896
3086 1 267.843 15.7144 4209 119.826 646.159 398.018
3087 0 275.883 16.2098 4472 120.281 645.892 385.643
3088 0 286.755 14.1131 4047 124.472 646.121 371.148
3089 1 52.0837 5.29916 276 115.855 646.264 481.268
3090 0 56.2798 6.9652 392 108.36 645.324 486.444
3091 0 54.1087 8.98192 486 104.34 645.115 486.961
3092 0 52.213 11.7787 615 103.153 643.971 482.463
3093 0 56.4802 9.614 543 103.571 642.906 487.131
3094 0 56.1705 7.72647 434 104.818 643.542 485.721
3095 0 54.1279 7.59312 411 104.949 643.156 487.523
3096 0 55.2484 12.9597 716 97.0042 643.098 488.908
3097 0 56.1783 11.1431 626 105.021 643.82 481.313
3098 0 57.1999 7.69232 440 108.123 643.168 483.17
3099 0 57.2064 8.81021 504 134.952 644.139 481.802
3100 0 61.2797 15.6822 961 98.3746 644.38 484.412
3101 0 59.2027 12.0096 711 105.833 643.857 478.402
3102 0 58.1139 9.22327 536 109.166 643.384 480.812
3103 0 59.1992 10.7603 637 109.846 643.422 474.746
3104 0 59.107 10.4049 615 109.046 644.454 479.889
3105 0 63.7494 12.1727 776 103.776 645.986 481.175
3106 0 62.105 14.4111 895 105.907 646.397 477.533
3107 0 59.174 10.7649 637 114.152 646.025 474.377
3108 0 60.087 10.5846 636 114.017 646.421 476.678
3109 0 64.2908 13.1745 847 111.85 647.741 474.61
3110 0 62.1398 12.7776 794 111.702 647.063 477.666
3111 0 63.3732 15.6533 992 103.414 647.733 482.71
3112 0 61.2292 11.8408 725 115.15 649.054 474.177
3113 0 62.1721 12.2402 761 113.046 648.979 478.737
3114 0 64.2987 14.4949 932 108.701 649.166 480.28
3115 0 65.2805 14.8896 972 109.034 648.103 479.941
3116 0 63.0708 13.0013 820 115.255 649.504 476.157
3117 0 63.1009 11.4895 725 117.069 648.559 476.199
3118 0 62.177 12.1588 756 115.107 649.34 480.55
3119 0 65.2842 12.6524 826 113.808 648.369 480.487
3120 0 64.1075 12.479 800 115.094 648.922 480.281
3121 0 66.1959 12.7349 843 113.278 649.212 482.376
3122 0 63.2836 11.0455 699 116.153 648.187 483.804
3123 0 66.1495 13.0008 860 114.485 647.691 481.174
3124 0 66.2149 14.468 958 112.055 646.996 483.2
3125 0 63.3238 13.0283 825 114.112 647.688 484.504
3126 0 64.277 10.3614 666 118.665 646.114 483.773
3127 0 65.0949 13.4573 876 114.776 646.365 482.963
3128 0 66.2184 10.8429 718 117.44 645.032 485.553
3129 0 67.1138 14.7809 992 111.444 644.215 482.588
3130 0 66.1924 12.645 837 114.258 643.54 482.397
3131 0 67.1115 14.5728 978 110.974 643.248 480.706
3132 0 67.2141 14.4761 973 109.359 643.774 483.889
3133 0 67.3132 12.7464 858 112.562 642.842 484.169
3134 0 66.1288 14.502 959 109.582 641.785 484.559
3135 0 71.1458 14.5757 1037 108.555 642.646 482.11
3136 0 69.1685 14.6309 1012 109.111 642.478 481.852
3137 0 69.1716 14.2399 985 108.428 642.766 483.341
3138 0 69.3028 15.2231 1055 107.725 641.808 477.798
3139 0 68.0492 13.6519 929 110.536 642.842 478.476
3140 0 69.3257 14.4391 1001 109.318 643.154 477.213
3141 0 65.1861 11.6743 761 113.752 643.131 474.384
3142 0 71.4387 14.5159 1037 107.604 644.137 475.629
3143 0 70.1782 13.9644 980 108.291 643.061 474.95
3144 0 69.313 12.8259 889 108.991 644.543 478.565
3145 0 72.0896 14.9259 1076 106.891 643.757 472.046
3146 0 72.0896 14.7872 1066 136.508 642.773 471.977
3147 0 68.0664 13.4428 915 109.492 644.337 473.4
3148 0 70.2275 17.8563 1254 103.514 645.131 475.373
3149 0 71.1258 14.6501 1042 107.913 645.84 473.15
3150 0 69.3267 12.5781 872 111.453 646.071 471.68
3151 0 71.2073 14.8018 1054 108.766 645.496 468.589
3152 0 70.1539 11.2895 792 109.92 646.663 476.684
3153 0 71.249 14.6528 1044 107.987 647.29 471.569
3154 0 72.207 14.5415 1050 106.341 647.85 474.438
3155 1 87.4375 16.5604 1448 112.975 648.305 398.986
