time division length width area intensity CMx CMy
0 0 44.1384 15.1342 668 117.588 283.493 358.016
1 0 45.09 14.4821 653 117.695 282.536 362.27
2 0 47.0528 26.4809 1246 96.821 281.675 363.404
3 0 48.1296 15.9985 770 114.53 280.594 357.145
4 0 47.1443 17.7964 839 113.734 280.068 360.567
5 0 48.0936 14.347 690 119.645 279.687 356.175
6 0 51.1481 14.1159 722 119.814 278.152 357.95
7 0 52.4057 15.5899 817 115.879 277.896 359.209
8 0 52.4057 15.5708 816 152.054 278.908 359.087
9 0 54.1665 15.1939 823 116.604 274.966 356.575
10 0 56.1191 13.2041 741 120.375 274.267 354.181
11 0 58.1124 17.1736 998 111.927 274.746 356.547
12 0 59.0863 15.215 899 117.677 274.073 353.087
13 0 63.2023 17.5627 1110 110.925 274.321 349.477
14 0 64.1821 15.8144 1015 116.675 272.999 348.904
15 0 66.295 15.6271 1036 113.78 273.771 352.382
16 0 68.1925 15.4856 1056 115.308 273.321 346.673
17 0 70.2476 14.2354 1000 118.148 273.995 342.757
18 0 75.2745 20.5249 1545 107.689 273.931 345.697
19 0 76.1875 15.4619 1178 114.777 274.587 341.359
20 0 80.1154 16.3514 1310 111.21 274.117 344.14
21 0 84.3774 15.6084 1317 113.743 274.108 338.778
22 0 83.0995 15.6559 1301 110.421 274.541 340.454
23 0 87.2516 15.014 1310 116.253 275.592 336.373
24 0 89.2093 16.0297 1430 115.609 276.026 329.14
25 0 95.3473 14.8719 1418 113.294 277.446 332.323
26 1 51.1823 13.9501 714 114.23 277.319 346.818
27 0 54.2259 15.9333 864 110.441 278.153 350.045
28 0 59.278 16.9034 1002 107.522 279.011 348.619
29 0 60.3 14.1294 852 111.082 279.658 349.095
30 0 62.1893 13.4589 837 110.812 281.597 347.59
31 0 70.5054 16.6228 1172 105.353 280.496 349.491
32 0 67.1228 25.6098 1719 97.8988 280.343 348.913
33 0 68.2385 11.1667 762 109.067 282.861 348.915
34 0 73.2548 16.1901 1186 105.425 283.624 349.146
35 0 76.3466 17.7611 1356 104.46 284.479 351.306
36 0 79.4305 17.8647 1419 105.567 283.467 345.075
37 0 79.159 17.2943 1369 106.38 285.221 349.299
38 0 83.2611 17.6433 1469 103.146 283.683 348.671
39 0 88.2182 19.6558 1734 100.257 284.323 350.579
40 0 94.2958 19.1313 1804 100.783 283.612 350.055
41 0 90.5854 12.9933 1177 111.567 283.995 346.002
42 0 96.1212 15.907 1529 105.969 283.933 348.17
43 0 98.4039 13.9629 1374 108.689 284.467 346.493
44 1 50.1604 12.6594 635 106.57 283.231 369.813
45 0 50.1365 12.9048 647 120.815 283.329 368.117
46 0 52.2488 13.7802 720 117.221 281.949 370.364
47 0 55.1045 14.2275 784 118.832 280.497 368.83
48 0 57.0834 18.3416 1047 113.401 280.194 372.135
49 0 56.1506 12.8583 722 119.496 278.932 370.179
50 0 59.108 14.9387 883 120.981 278.955 364.165
51 0 62.0685 14.2423 884 121.096 278.109 364.865
52 0 63.2371 13.2201 836 121.373 277.58 367.695
53 0 66.107 15.9438 1054 118.764 276.373 364.546
54 0 71.2004 15.3791 1095 116.658 277.083 367.889
55 0 74.5338 15.5097 1156 116.851 276.516 364.471
56 0 75.2655 16.4086 1235 117.399 275.857 360.48
57 0 75.2655 16.4219 1236 142.783 275.828 360.39
58 0 79.1907 16.4161 1300 119.347 276.098 356.769
59 1 45.0808 11.6014 523 120.881 273.648 375.671
60 0 47.072 11.5355 543 121.989 274.978 373.063
61 0 48.1123 12.2838 591 119.794 274.399 375.481
62 0 48.0556 12.5688 604 121.624 274.311 375
63 0 50.0749 13.0604 654 120.055 273.309 374.425
64 0 54.0813 16.4197 888 113.657 274.343 374.973
65 0 58.1825 17.9092 1042 110.854 273.705 374.155
66 0 58.2698 20.0275 1167 110.908 274.223 367.929
67 0 59.1484 11.0738 655 123.084 274.855 373.73
68 0 63.2862 14.3949 911 118.402 275.673 372.098
69 0 63.1433 14.9976 947 119.372 276.962 372.505
70 0 69.2736 15.8646 1099 116.789 277.956 373.207
71 0 68.2609 15.0892 1030 120.26 278.157 372.728
72 0 71.2019 15.1681 1080 120.376 278.86 374.072
73 0 71.2054 13.7068 976 121.434 279.172 377.836
74 0 72.2162 15.4674 1117 151.1 280.122 375.59
75 1 41.2111 14.1952 585 119.074 280.79 390.723
76 0 42.2191 11.4166 482 123.658 281.477 394.734
77 0 42.3453 12.587 533 118.82 281.664 396.916
78 0 47.0855 13.9534 657 117.895 282.105 399.601
79 0 44.0923 13.313 587 123.261 283.235 398.516
80 0 49.1652 13.7699 677 120.777 284.477 401.102
81 0 54.1808 16.9064 916 112.928 283.63 403.566
82 0 52.0944 16.1054 839 117.083 282.867 405.479
83 0 53.1052 14.8008 786 120.388 283.676 406.335
84 0 53.0827 14.4303 766 121.497 282.376 408.872
85 0 55.2347 15.3889 850 121.314 282.339 409.476
86 0 56.1497 13.3394 749 125.857 281.756 410.389
87 0 59.1782 13.8058 817 125.01 281.798 414.182
88 0 62.1591 16.3291 1015 120.047 281.586 415.723
89 0 64.1416 15.4502 991 119.915 281.001 421.272
90 0 67.4527 17.5382 1183 116.889 279.981 421.014
91 0 68.1634 16.3724 1116 121.088 279.149 419.837
92 0 70.0951 14.7514 1034 125.294 278.62 421.526
93 0 71.166 15.3866 1095 125.733 278.624 424.814
94 0 73.2386 15.074 1104 126.784 276.727 424.883
95 0 78.2158 18.2828 1430 118.165 276.976 433.032
96 0 79.3069 13.0127 1032 129.051 276.087 431.508
97 0 83.4183 13.8938 1159 127.362 276.236 429.346
98 1 44.2723 10.6839 473 124.197 274.795 454.309
99 0 45.1122 13.4775 608 118.141 274.39 453.472
100 0 44.1902 11.9257 527 121.471 274.753 455.404
101 0 49.0336 14.3983 706 117.506 274.244 461.85
102 0 49.0404 13.0505 640 120.261 273.661 461.359
103 0 53.153 12.21 649 120.934 273.47 463.864
104 0 53.0768 14.3377 761 116.251 272.378 467.213
105 0 53.161 12.622 671 120.45 273.446 465.638
106 0 55.1002 15.7531 868 115.342 273.726 466.844
107 0 56.2481 12.0537 678 119.988 273.347 469.088
108 0 59.1902 13.2454 784 118.047 273.81 467.792
109 0 61.3664 15.9371 978 114.136 274.765 463.922
110 0 64.2507 13.494 867 116.982 274.908 465.698
111 0 63.1359 12.3068 777 119.876 274.301 463.39
112 0 63.1359 12.4177 784 146.923 273.311 463.355
113 0 66.2075 12.627 836 119.421 275.349 459.105
114 0 70.2981 12.5466 882 118.291 276.786 454.714
115 0 71.178 14.0493 1000 115.147 276.047 457.968
116 0 75.201 13.2179 994 120.442 277.082 448.682
117 0 77.0331 12.9035 994 121.365 277.93 452.123
118 0 79.1737 12.4663 987 121.27 279.526 455.528
119 0 83.2251 16.1129 1341 115.18 279.928 456.647
120 0 83.1102 16.8571 1401 115.755 280.677 452.283
121 0 87.3102 13.0225 1137 121.154 280.953 457.115
122 0 86.2143 12.179 1050 122.005 281.313 459.752
123 0 90.1926 11.0985 1001 124.615 282.025 455.831
124 0 94.5237 12.8857 1218 122.536 282.421 450.79
125 0 99.1829 13.5911 1348 119.168 282.007 456.214
126 0 103.345 13.4598 1391 118.708 282.757 451.663
127 1 55.1147 13.0092 717 112.16 282.523 473.619
128 0 60.0966 15.3752 924 112.304 280.345 468.133
129 0 62.1382 13.8884 863 113.378 282.439 473.187
130 0 62.1146 13.942 866 116.147 280.299 469.783
131 0 65.1276 14.4332 940 114.733 280.396 473.89
132 0 67.1658 12.6999 853 116.94 279.954 476.12
133 0 68.1176 13.5941 926 117.382 278.811 472.248
134 0 71.1965 9.7898 697 121.189 279.432 476.32
135 0 72.2699 11.7338 848 119.522 277.812 472.913
136 0 76.1672 13.7986 1051 116.102 277.812 469.975
137 0 79.165 14.6277 1158 112.92 276.31 473.228
138 0 81.356 13.3733 1088 114.97 276.874 467.799
139 0 82.2275 11.3466 933 116.692 274.902 466.315
140 0 88.5314 19.3039 1709 105.338 275.156 465.404
141 0 88.2521 8.9063 786 118.251 272.92 464.162
142 1 45.1058 13.5016 609 108.552 272.787 483.209
143 0 45.1327 11.7431 530 112.623 272.702 482.396
144 0 45.174 9.51875 430 110.928 271.951 486.695
145 0 49.0551 12.3942 608 108.735 271.599 481.844
146 0 50.1004 13.2334 663 108.799 271.379 478.588
147 0 53.0615 11.9484 634 114.506 270.655 473.349
148 0 57.0368 14.2364 812 109.839 270.982 467.287
149 0 57.1689 13.6613 781 111.376 271.522 472.254
150 0 59.2701 15.1341 897 109.506 271.203 471.495
151 0 59.1845 14.0746 833 112.256 271.99 468.026
152 0 64.1339 14.9843 961 109.668 272.1 466.524
153 0 64.1606 12.5466 805 113.636 273.533 468.185
154 0 67.1714 14.4853 973 109.892 273.129 464.803
155 0 68.2244 12.8253 875 111.704 272.192 463.046
156 1 148.764 14.0491 2090 110.538 273.247 433.162
157 1 72.2245 14.3026 1033 110.85 273.989 458.747
158 0 77.2229 15.6301 1207 107.85 274.907 459.622
159 0 79.1487 18.5095 1465 103.689 275.222 459.384
160 0 81.2105 20.8101 1690 100.988 276.627 461.672
161 0 86.5196 15.9386 1379 106.513 275.515 460.992
162 1 179.526 14.6219 2625 112.871 277.087 412.461
163 1 88.1882 13.5165 1192 112.193 277.088 454.867
164 0 93.2639 14.9254 1392 109.134 277.698 455.791
165 0 94.332 13.4737 1271 112.947 278.736 451.3
166 0 97.3668 12.0575 1174 114.045 280.375 453.107
167 0 98.3883 13.8329 1361 111.478 279.556 454.769
168 0 101.19 15.9502 1614 108.597 279.325 454.683
169 1 54.1184 11.327 613 108.666 279.99 479.442
170 0 57.3674 13.5094 775 112.134 280.512 462.474
171 0 59.2203 14.7078 871 110.464 280.598 466.402
172 0 61.0441 13.8588 846 109.882 279.876 471.953
173 0 61.0784 12.443 760 111.586 279.176 474.505
174 0 65.0823 13.5828 884 110.352 279.164 475.77
175 0 66.1823 13.2966 880 112.339 278.56 476.33
176 0 68.1119 17.4859 1191 107.794 277.154 476.067
177 0 68.0954 14.3181 975 115.264 276.923 475.177
178 0 68.0954 14.2153 968 151.279 276.906 475.114
179 0 74.1549 14.5911 1082 113.804 276.044 475.706
180 0 78.1032 20.5113 1602 105.765 275.401 471.68
181 0 82.0757 17.6666 1450 108.988 275.15 468.528
182 0 84.1436 18.3615 1545 108.874 275.188 467.405
183 0 87.1557 14.2274 1240 115.327 273.994 469.487
184 1 46.2168 11.7706 544 112.178 273.379 489.445
185 0 47.06 12.0059 565 110.239 271.747 489.09
186 0 49.0401 21.3295 1046 101.471 271.27 482.92
187 0 51.0348 13.0695 667 110.201 271.874 485.93
188 0 53.3553 13.7568 734 107.51 270.556 487.215
189 0 59.3316 17.1746 1019 107.935 269.969 467.719
190 0 57.2257 13.8574 793 116.895 269.375 461.639
191 0 59.2658 18.358 1088 107.292 269.239 464.45
192 0 62.3341 14.9356 931 111.751 270.186 466.726
193 0 60.1239 13.0896 787 113.924 269.732 467.703
194 0 64.1975 17.4773 1122 108.676 270.157 467.52
195 0 64.1665 12.5455 805 115.735 270.043 468.658
196 0 67.0884 14.0859 945 112.922 270.877 467.789
197 0 69.177 13.2269 915 113.679 271.38 466.774
198 0 70.2847 13.5165 950 112.933 272.351 468.379
199 0 71.1829 11.7584 837 114.65 272.497 465.713
200 1 37.1471 14.8329 551 105.348 273.615 479.838
201 0 39.0615 16.6916 652 102.037 272.679 481.394
202 0 43.0443 12.8008 551 108.946 273.889 475.441
203 0 42.0944 13.2084 556 108.309 274.158 476.376
204 0 44.0338 12.7856 563 106.817 275.666 478.012
205 0 43.0298 13.3861 576 108.3 276.137 475.267
206 0 43.0463 12.4517 536 108.938 276.922 477.931
207 0 43.0325 12.3395 531 109.851 277.855 477.942
208 0 42.0852 12.5697 529 111.575 277.694 478.839
209 0 46.0432 13.3136 613 109.325 279.762 481.569
210 0 46.1203 14.3538 662 106.582 279.776 482.542
211 0 51.0875 12.5275 640 111.072 278.914 476.9
212 0 51.174 9.84875 504 116.002 278.772 477.72
213 0 55.1472 13.2554 731 116.315 279.334 466.252
214 0 57.0997 14.3433 819 115.128 279.507 467.764
215 0 58.1282 12.9885 755 117.993 278.98 471.238
216 0 61.234 14.2568 873 115.805 278.603 476.781
217 0 63.2132 12.798 809 116.494 278.504 477.593
218 0 64.0681 12.5804 806 117.027 278.437 477.433
219 0 68.1272 13.7097 934 114.736 278.266 477.643
220 0 68.1142 14.4317 983 113.672 277.62 475.921
221 1 36.1593 15.1275 547 107.06 276.559 496.097
222 0 41.2014 14.0772 580 108.526 277.198 492.417
223 0 42.137 12.0322 507 113.235 276.176 490.884
224 0 42.1516 12.8584 542 112.166 273.386 488.48
225 0 42.0497 10.9394 460 113.928 273.654 493.243
226 0 44.0988 14.4221 636 109.503 271.245 489.211
227 0 44.0988 14.3541 633 132.248 268.163 489.115
228 0 45.136 14.7997 668 107.31 269.841 488.641
229 1 92.0677 13.6747 1259 115.464 269.583 468.588
230 0 95.2817 17.506 1668 111.924 268.008 462.703
231 1 49.1619 10.9434 538 113.985 268.712 485.535
232 0 54.071 12.687 686 111.708 268.95 481.978
233 0 56.0517 19.8567 1113 104.819 267.581 477.174
234 0 56.2926 14.4779 815 112.652 268.406 476.455
235 0 57.1327 12.0421 688 113.137 267.65 477.254
236 0 59.1275 11.7712 696 114.947 268.349 473.963
237 0 62.2593 12.1749 758 114.092 268.753 471.067
238 0 65.0637 15.6462 1018 108.177 268.824 472.537
239 0 67.2186 16.0521 1079 108.51 269.849 469.976
240 0 69.204 19.2908 1335 104.988 269.067 467.357
241 0 72.4289 13.8205 1001 110.45 270.348 469.776
242 1 38.0493 14.2972 544 109.09 270.175 480.217
243 0 38.0386 11.3569 432 111.748 269.958 480.697
244 0 39.0719 14.742 576 106.858 271.7 480.535
245 0 39.033 12.0155 469 111.904 271.642 478.156
246 0 43.0606 16.3723 705 103.372 272.075 477.434
247 0 42.0791 16.5878 698 104.436 271.681 475.14
248 0 42.0725 13.3817 563 108.538 272.679 477.636
249 0 45.1453 15.8378 715 102.855 273.54 480.049
250 0 45.2811 13.8689 628 105.637 273.906 479.438
251 0 52.1752 18.6487 973 99.7328 275.684 476.34
252 0 50.1071 14.3892 721 107.559 276.836 472.136
253 0 51.0921 11.0193 563 113.456 276.68 470.037
254 0 54.0364 15.1195 817 107.377 277.554 471.554
255 0 54.2376 15.469 839 106.266 276.309 475.197
256 0 55.2714 15.7948 873 105.174 276.84 476.045
257 0 55.0478 18.493 1018 104.674 276.847 467.727
258 0 55.1097 12.466 687 112.41 277.926 471.601
259 0 55.1097 12.4479 686 133.722 278.94 471.593
260 0 62.1151 15.9864 993 107.011 277.896 477.865
261 0 62.1278 14.3736 893 110.75 276.527 476.644
262 0 66.2294 16.3824 1085 107.393 277.205 478.678
263 0 66.3018 13.333 884 114.27 277.143 476.456
264 0 69.1759 12.9959 899 113.39 275.637 478.543
265 0 74.1044 17.0705 1265 106.413 276.251 478.543
266 0 77.1642 17.9746 1387 106.267 275.446 470.11
267 0 79.3341 15.8192 1255 110.116 275.059 469.461
268 0 79.0927 13.9583 1104 113.582 273.963 472.611
269 1 39.2928 11.6561 458 112.618 273.166 491.164
270 0 41.0786 13.6811 562 112.374 272.1 486.993
271 0 42.2002 14.9525 631 109.886 271.1 487.672
272 0 42.1284 17.3992 733 101.546 270.583 493.307
273 0 45.1042 14.3224 646 108.017 270.865 488.37
274 0 44.0544 9.78335 431 113.696 269.907 488.336
275 0 47.0864 14.1017 664 109.498 269.664 485.402
276 0 56.2744 19.6004 1103 102.038 269.324 471.318
277 0 54.2401 13.938 756 112.649 269.406 472.451
278 0 58.1252 14.3311 833 111.116 269.723 474.312
279 0 60.48 17.4934 1058 107.084 268.615 473.417
280 0 59.0361 12.4839 737 115.183 268.748 473.033
281 0 61.1102 12.6657 774 115.441 268.798 472.083
282 0 62.0849 12.1608 755 118.718 270.183 468.477
283 0 63.1403 13.6521 862 116.469 269.838 470.983
284 0 68.1409 14.0004 954 114.219 271.384 469.773
285 0 68.1875 13.9175 949 113.477 271.31 468.918
286 1 37.0825 12.8093 475 108.983 272.24 477.722
287 0 38.0257 13.8591 527 108.237 271.918 477.75
288 0 37.0338 12.9611 480 113.819 272.979 474.873
289 0 40.0744 13.0507 523 111.66 273.874 475.055
290 0 39.0184 11.4561 447 114.412 274.038 477.163
291 0 42.1642 14.3487 605 109.412 274.312 479.23
292 0 40.09 11.6987 469 112.957 276.38 480.467
293 0 41.1682 11.0765 456 115.596 277.307 477.318
294 0 48.0662 11.9835 576 113.569 278.503 476.49
295 0 47.0698 12.2372 576 114.2 277.014 476.481
296 0 49.1682 12.9759 638 112.967 279.85 476.534
297 0 50.1025 13.3327 668 114.054 279.63 476.111
298 0 53.1835 14.3089 761 111.878 278.984 474.88
299 0 52.1868 13.1642 687 113.015 278.897 477.364
300 0 61.0466 18.576 1134 105.012 279.587 474.028
301 0 60.1021 14.6418 880 110.998 279.734 473.495
302 0 60.1048 11.4966 691 117.016 279.783 474.968
303 0 62.1446 16.7995 1044 109.324 279.851 475.953
304 0 62.2603 14.9855 933 115.905 279.774 472.268
305 1 33.0419 11.8032 390 114.936 278.808 492.341
306 0 36.0643 16.1378 582 108.414 278.749 492.024
307 0 35.0598 11.9795 420 114.612 276.788 489.626
308 0 37.0456 16.5202 612 107.175 276.417 491.337
309 0 39.0707 11.7479 459 111.658 277.242 493.248
310 0 41.0464 13.2777 545 112.925 276.952 486.782
311 0 42.0556 16.3831 689 110.244 276.476 486.215
312 0 39.0551 12.2647 479 114.077 274.259 490.117
313 0 42.0435 12.8439 540 113 273.689 491.009
314 0 39.0818 11.0026 430 118.935 274.216 489.951
315 0 39.0818 10.9258 427 135.241 275.244 490.061
316 0 39.1084 12.785 500 118.196 272.786 487.498
317 0 44.1268 10.7644 475 119.017 271.669 487.602
318 0 45.1145 11.1937 505 118.964 271.018 484.22
319 0 50.1086 14.1493 709 113.87 271.518 482.006
320 0 60.1763 22.1349 1332 99.1937 270.448 474.188
321 0 58.1571 17.0916 994 106.168 271.66 476.898
322 0 59.0928 18.2256 1077 107.048 271.038 471.176
323 0 58.05 13.7812 800 115.27 271.354 471.208
324 0 59.2296 12.6288 748 117.631 270.108 473.075
325 0 65.1352 17.3792 1132 110.038 270.344 470.443
326 0 65.1081 14.8215 965 115.989 270.274 465.059
327 0 66.1491 12.0183 795 119.265 271.306 469.594
328 0 67.0852 13.6692 917 119.469 271.274 464.198
329 0 74.3886 17.4355 1297 112.626 272.542 464.84
330 0 73.1484 13.8076 1010 119.911 272.075 461.658
331 1 37.137 13.1405 488 117.588 273.867 476.547
332 0 40.0161 11.1455 446 118.455 273.509 475.704
333 0 42.0584 16.2869 685 111.842 273.674 471.99
334 0 44.1722 14.2624 630 116.821 274.738 474.735
335 0 39.0347 11.477 448 122.054 275.761 474.96
336 0 44.1488 13.681 604 116.51 277.387 475.699
337 0 44.1777 11.3179 500 119.604 277.71 476.656
338 0 48.1022 15.7997 760 113.759 278.501 473.089
339 0 48.0803 12.5831 605 119.231 280.078 474.666
340 0 52.0975 12.6494 659 118.36 280.428 472.021
341 0 62.1785 19.058 1185 108.338 280.586 467.905
342 0 61.1682 17.1985 1052 112.297 279.125 465.976
343 0 60.0737 17.9446 1078 112.506 279.509 470.036
344 0 62.0659 13.9529 866 118.173 281.456 473.373
345 0 62.0808 12.5482 779 122.208 281.721 472.014
346 0 67.2494 14.5429 978 118.427 281.819 469.167
347 0 70.0726 13.8428 970 119.576 281.857 469.889
348 0 71.2514 12.4629 888 122.925 281.554 466.953
349 0 77.2745 13.0056 1005 117.822 280.948 471.86
350 0 77.0872 12.7388 982 118.819 279.501 471.763
351 0 79.193 14.7235 1166 116.347 278.071 467.079
352 1 43.1107 11.1341 480 114.533 278.702 489.55
353 0 45.0911 13.0624 589 114.572 277.355 484.693
354 0 45.0883 12.2648 553 115.369 277.029 487.629
355 0 43.145 10.3604 447 121.3 276.351 485.763
356 0 45.042 12.9657 584 117.142 276.079 484.457
357 0 46.045 11.7059 539 119.544 275.447 485.045
358 0 47.0436 13.8595 652 114.974 275.724 487.495
359 0 52.0418 13.9695 727 115.011 274.245 480.656
360 0 52.2189 14.1137 737 116.6 273.134 476.661
361 0 62.1365 23.3679 1452 101.291 273.199 477.851
362 0 61.1781 17.8495 1092 110.866 273.898 471.145
363 0 61.1781 17.8495 1092 131.563 273.929 471.003
364 0 64.1183 17.998 1154 110.166 271.943 471.481
365 0 64.2741 14.7804 950 116.087 272.189 466.983
366 0 68.1076 21.9065 1492 105.428 272.308 467.166
367 0 70.1713 18.9821 1332 109.055 272.098 467.761
368 0 71.1605 16.7087 1189 112.521 271.706 465.357
369 0 76.2155 14.3409 1093 115.878 272.272 461.403
370 0 80.1034 16.616 1331 112.808 271.473 457.044
371 1 39.159 16.267 637 106.689 273.273 478.358
372 0 40.0788 13.6731 548 111.693 273.005 474.046
373 0 42.0194 8.63886 363 116.813 274.025 476.105
374 0 43.0163 11.8095 508 112.943 275.222 473.711
375 0 42.1234 15.3122 645 106.057 274.867 475.439
376 0 42.1099 11.9212 502 110.321 274.98 475.094
377 0 41.1456 11.4715 472 113.023 274.585 472.712
378 0 44.123 13.6663 603 109.949 277.189 473.214
379 0 47.0552 16.1087 758 106.339 278.186 471.528
380 0 55.0374 19.2233 1058 100.781 278.153 460.418
381 0 57.4311 18.8051 1080 103.025 279.118 462.097
382 0 56.183 16.5175 928 108.375 280.369 466.514
383 0 56.1528 13.3386 749 113.865 280.507 467.842
384 0 59.0684 15.5752 920 111.674 279.942 464.779
385 0 59.0688 19.0117 1123 108.403 280.26 463.895
386 0 59.1998 13.3446 790 116.849 281.153 466.471
387 0 65.3843 13.7036 896 115.179 281.987 469.91
388 0 64.1442 14.7324 945 114.954 282.314 470.595
389 0 66.1653 13.5872 899 117.01 282.528 469.091
390 0 68.1815 11.8801 810 119.815 282.044 469.958
391 0 70.3964 10.6113 747 121.147 281.655 469.485
392 0 73.2784 12.7323 933 117.587 281.424 464.661
393 0 75.3101 14.0884 1061 118.19 280.769 462.698
394 0 77.2948 15.098 1167 116.476 278.979 464.566
395 0 77.2813 15.1395 1170 139.531 276.966 464.745
396 1 47.0383 11.8839 559 113.818 279.429 487.776
397 0 48.2787 13.8777 670 111.699 278.109 486.21
398 0 47.0986 11.6139 547 116.697 276.987 485.15
399 0 51.095 13.3477 682 112.66 276.478 483.381
400 0 52.0493 13.0261 678 110.987 275.307 483.622
401 0 52.0775 12.7886 666 112.647 275.456 479.875
402 0 57.1804 13.9034 795 108.17 274.419 479.088
403 0 59.1224 13.785 815 107.076 272.811 481.429
404 0 61.0566 13.987 854 113.375 273.102 468.225
405 0 60.1125 13.8407 832 114.215 272.469 467.52
406 0 64.0936 16.1639 1036 107.644 272.51 468.165
407 0 66.2837 11.8279 784 111.194 270.974 473.865
408 0 69.0694 17.3883 1201 104.711 271.873 471.182
409 0 71.1517 11.9744 852 112.414 270.759 467.092
410 0 73.0804 11.9868 876 112.201 271.123 467.132
411 0 75.1449 13.0149 978 111.936 270.949 463.666
412 0 78.1031 14.2504 1113 111.473 270.547 459.472
413 0 81.1425 13.6303 1106 112.325 271.829 458.618
414 0 84.1909 14.384 1211 112.977 272.99 448.269
415 0 85.151 12.0844 1029 114.919 272.637 452.404
416 0 90.5224 13.8198 1251 112.277 272.165 449.336
417 0 91.2477 12.7455 1163 113.883 273.439 451.206
418 0 94.2572 13.8133 1302 111.812 274.454 452.287
419 0 102.093 14.3007 1460 112.013 276.077 443.253
420 0 102.142 15.1946 1552 109.797 275.464 447.896
421 0 104.101 14.0824 1466 113.736 275.788 437.272
422 1 61.5502 12.4939 769 108.143 277.771 461.378
423 0 61.5502 12.4939 769 134.467 279.753 461.336
424 0 61.1415 13.8368 846 108.026 278.431 459.472
425 0 61.1415 13.7877 843 139.206 277.412 459.435
426 0 67.1529 12.3152 827 110.983 279.551 460.988
427 0 69.2383 14.2984 990 108.823 281.263 459.766
428 1 135.317 13.2726 1796 113.155 280.337 429.463
429 0 142.272 12.9118 1837 113.989 279.894 423.274
430 1 75.1088 13.1942 991 110.971 280.449 456.576
431 0 77.1446 13.533 1044 108.93 281.78 461.071
432 0 81.147 14.0609 1141 109.351 282.084 459.466
433 0 80.3878 11.7804 947 114.936 282.05 458.884
434 0 83.3037 12.5325 1044 114.84 282.248 456.508
435 0 88.2438 14.0746 1242 111.981 280.849 458.638
436 0 91.2801 12.6534 1155 116.667 280.019 452.665
437 0 96.1875 16.052 1544 111.38 279.983 452.892
438 0 96.453 12.6694 1222 117.799 278.785 447.723
439 0 101.222 13.4358 1360 114.731 279.516 452.609
440 0 101.246 11.6646 1181 118.462 279.848 452.03
441 0 105.283 13.1075 1380 114.337 279.485 450.719
442 0 109.306 17.1354 1873 109.098 278.035 450.77
443 0 110.123 11.5144 1268 119.283 276.972 441.455
444 0 114.118 12.3293 1407 118.287 276.581 444.257
445 0 115.422 9.4956 1096 121.139 276.709 447.294
446 0 123.318 14.3856 1774 114.315 275.564 435.256
447 0 127.377 17.3893 2215 107.133 275.047 448.272
448 0 132.246 13.1421 1738 113.989 274.602 436.093
449 0 133.269 12.4335 1657 114.071 275.217 439.274
450 0 144.382 16.8373 2431 109.094 274.736 430.127
451 0 150.409 13.6561 2054 115.898 273.451 424.652
452 0 152.553 14.0082 2137 116.835 273.079 417.626
453 0 159.607 13.9592 2228 116.596 272.772 415.807
454 0 165.582 18.0273 2985 111.202 271.844 406.969
455 0 165.341 15.4892 2561 115.087 271.92 415.46
456 0 162.31 11.6875 1897 121.473 271.54 413.483
457 1 180.586 12.1051 2186 120.091 272.746 406.858
458 0 189.561 24.1717 4582 101.927 272.26 418.864
459 0 195.329 12.8911 2518 118.731 272.83 410.482
460 0 202.468 12.9848 2629 119.921 273.15 399.608
461 0 211.57 16.0325 3392 115.8 273.438 393.954
462 0 216.729 15.0834 3269 116.947 273.779 393.424
463 0 222.5 15.1056 3361 117.783 274.979 392.448
464 0 231.521 17.4196 4033 115.381 274.883 378.949
465 1 306.421 18.5855 5695 112.963 276.202 361.806
466 1 278.015 11.931 3317 118.541 277.348 400.807
467 0 278.791 12.2314 3410 118.767 277.293 398.109
468 0 278.679 12.893 3593 118.637 277.208 386.32
469 0 280.039 15.1229 4235 117.253 277.337 366.08
470 1 290.785 16.9163 4919 113.248 278.053 373.6
471 1 274.507 9.36951 2572 120.785 278.427 397.037
472 1 234.597 12.9669 3042 120.617 278.419 385.764
473 1 56.0753 11.6094 651 108.189 277.849 478.355
474 0 57.1728 12.5759 719 103.665 277.932 479.805
475 0 58.0925 10.5866 615 106.402 278.807 483.07
476 0 60.0761 12.3843 744 105.324 277.957 481.499
477 0 61.0935 13.0947 800 106.512 277.27 479.514
478 0 65.0487 14.0203 912 108.136 278.786 477.742
479 0 66.1678 9.86885 653 117.334 278.289 474.674
480 0 71.2618 17.9479 1279 103.286 276.654 481.92
481 0 71.2618 17.9619 1280 118.527 276.665 481.938
482 0 74.3901 14.1685 1054 111.188 275.526 479.426
483 0 77.2288 14.0362 1084 111.103 275.607 478.536
484 0 77.3383 10.4088 805 118.065 273.073 476.42
485 0 80.2544 12.4853 1002 113.663 273.023 477.267
486 1 44.2693 13.1242 581 101.775 271.9 500.067
487 0 41.0856 11.0014 452 105.962 271.259 498.9
488 0 44.1033 11.3824 502 107.402 271.052 494.813
489 0 45.0723 12.0917 545 106.429 270.763 494.099
490 0 43.2082 12.1042 523 104.836 269.08 495.698
491 0 45.1081 11.6387 525 107.674 269.28 488.895
492 0 45.0267 7.50666 338 112.482 269.976 496.216
493 0 48.1698 14.2205 685 104.391 269.533 488.407
494 0 52.2581 15.2129 795 102.571 267.799 487.948
495 0 51.0608 8.36258 427 113.642 267.667 488.101
496 0 58.1512 16.1819 941 102.885 267.825 480.943
497 0 60.4744 12.865 778 107.005 267.472 478.595
498 0 59.246 11.6464 690 110.609 267.13 479.325
499 0 62.469 10.5973 662 112.218 267.1 479.178
500 0 64.3475 11.4224 735 112.037 268.895 476.211
501 0 64.675 14.1322 914 108.475 269.585 468.98
502 0 64.3302 11.9695 770 112.494 270.182 471.26
503 0 67.3519 13.8823 935 110.025 270.406 467.04
504 0 71.3779 12.9592 925 112.029 270.761 466.817
505 0 72.3483 14.5822 1055 110.814 271.699 465.81
506 0 76.2555 13.3105 1015 111.344 271.977 463.633
507 0 79.7826 17.5728 1402 105.083 273.023 453.272
508 0 79.1595 15.4119 1220 106.797 273.709 459.066
509 0 82.3619 14.5334 1197 106.863 273.1 462.422
510 0 81.4034 11.7071 953 112.643 273.969 457.882
511 0 88.1883 14.8886 1313 106.326 275.19 456.486
512 1 49.0833 14.9746 735 101.28 275.137 476.914
513 0 47.1674 11.0458 521 107.173 276.766 474.322
514 0 50.055 12.1466 608 106.872 277.919 473.561
515 0 52.1924 12.8946 673 105.571 278.163 475.294
516 0 54.1392 11.7844 638 106.672 278.776 475.197
517 0 54.1229 14.7812 800 103.371 278.249 472.921
518 0 56.1002 12.549 704 107.578 277.876 475.702
519 0 61.183 15.5435 951 102.248 277.625 477.067
520 0 58.0774 11.8807 690 110.736 276.977 475.788
521 0 61.2301 13.5717 831 107.628 277.397 474.74
522 0 62.169 14.2515 886 108.619 275.922 480.605
523 0 67.2309 19.6636 1322 99.8238 275.163 483.545
524 0 66.2661 13.7778 913 107.909 275.461 480.089
525 0 68.2229 13.9836 954 108.555 275.542 479.746
526 0 70.2382 11.6034 815 113.425 274.805 480.853
527 0 76.3245 16.2595 1241 106.127 273.738 478.044
528 0 76.145 18.0183 1372 104.442 272.386 480.093
529 0 78.2025 13.7847 1078 111.669 271.796 475.991
530 0 83.1961 17.6691 1470 103.307 271.726 471.997
531 0 86.2967 15.6205 1348 107.079 270.273 472.159
532 0 86.1625 16.4805 1420 104.775 269.646 470.82
533 0 89.2508 13.0867 1168 109.372 268.034 469.42
534 0 90.2146 13.9445 1258 109.939 269.551 469.724
535 0 93.4228 14.5575 1360 109.931 268.231 465.524
536 0 95.2743 11.0418 1052 115.106 268.422 466.369
537 0 99.3122 14.6105 1451 107.861 267.924 463.671
538 1 59.7294 18.8182 1124 100.347 268.798 482.702
539 0 59.2892 14.8594 881 106.992 268.906 469.633
540 0 55.2464 13.7928 762 112.551 268.215 467.745
541 0 61.1072 13.2063 807 112.036 267.419 466.304
542 0 61.3727 13.3936 822 111.243 267.757 471.745
543 0 63.1365 13.6213 860 109.794 267.838 474.79
544 0 68.304 14.8161 1012 106.88 269.183 472.616
545 0 65.0849 12.8755 838 110.185 269.263 469.076
546 0 70.1729 11.5144 808 107.413 270.416 477.387
547 0 69.291 14.1721 982 107.85 269.908 465.732
548 0 73.1902 15.166 1110 105.331 271.099 468.181
549 0 81.549 14.8254 1209 104.979 271.634 465.214
550 0 79.3113 16.9207 1342 104.725 271.963 457.6
551 0 81.1688 17.0263 1382 103.88 273.517 462.504
552 0 86.103 17.4791 1505 103.3 272.527 459.069
553 0 86.103 17.5487 1511 131.562 272.569 458.944
554 0 89.3096 12.6862 1133 110.944 274.348 459.8
555 0 96.1288 14.543 1398 107.189 274.473 459.788
556 0 94.1943 13.3023 1253 110.463 276.035 458.279
557 0 96.3347 13.1832 1270 108.383 276.786 459.045
558 0 99.1862 11.1709 1108 111.496 276.637 458.268
559 1 55.13 12.5884 694 105.643 276.827 480.16
560 0 56.2601 14.0952 793 103.999 277.358 480.57
561 0 60.1357 13.8188 831 107.224 277.78 472.93
562 0 62.1744 14.1216 878 107.491 277.393 472.998
563 0 64.0674 14.6564 939 106.67 276.95 477.109
564 0 67.0938 13.9357 935 107.978 276.154 479.54
565 0 67.0366 14.9918 1005 107.036 275.229 480.349
566 0 68.1766 13.0837 892 110.73 275.176 479.068
567 0 67.1547 11.0044 739 115.187 274.372 473.697
568 0 76.3007 14.6394 1117 107.281 274.602 478.439
569 0 77.1171 13.2396 1021 108.95 273.121 480.333
570 0 77.1171 13.2396 1021 140.201 271.146 480.43
571 0 82.1578 11.5266 947 113.234 272.43 470.834
572 0 84.267 12.7096 1071 111.096 270.937 476.923
573 0 85.1507 14.4332 1229 109.862 270.701 472.109
574 1 47.0778 10.7906 508 110.043 269.754 491.443
575 0 48.152 13.8312 666 106.114 269.758 490.045
576 0 49.0991 14.8068 727 104.895 267.576 488.702
577 0 48.0445 11.5518 555 106.948 267.935 490.768
578 0 55.3456 15.6291 865 104.386 267.918 463.244
579 0 53.0721 13.4534 714 107.597 266.049 468.008
580 0 57.1571 13.2792 759 106.702 267.109 471.966
581 0 56.0585 14.36 805 106.723 266.08 471.037
582 0 59.2745 14.2894 847 104.23 266.087 478.327
583 0 59.0877 12.6761 749 108.136 265.933 475.515
584 0 59.0877 12.5745 743 135.939 265.906 475.47
585 0 63.0309 10.9629 691 110.576 266.813 476.728
586 0 64.0783 13.9673 895 108.58 267.426 472.675
587 0 67.1582 11.6144 780 112.123 267.671 470.426
588 0 71.0895 14.7842 1051 107.82 267.787 467.775
589 0 72.2134 13.5986 982 110.485 268.894 465.73
590 0 74.0855 15.4821 1147 108.203 269.041 463.289
591 0 80.1105 17.9377 1437 104.209 269.072 459.552
592 0 79.0974 14.2735 1129 110.209 270.902 459.058
593 0 82.1399 13.7692 1131 108.666 270.174 468.553
594 0 83.0965 10.4818 871 117.231 272.184 463.328
595 1 45.1055 9.55537 431 114.473 272.68 483.135
596 0 47.0785 13.5943 640 108.609 272.367 479.639
597 0 52.2858 14.2869 747 105.704 275.222 480.835
598 0 49.1412 12.5556 617 111.185 275.387 478.37
599 0 48.0187 11.2456 540 110.219 275.831 480.004
600 0 51.042 10.2857 525 111.41 276.474 479.895
601 0 58.0835 20.0917 1167 96.3779 276.685 472.941
602 0 60.0982 15.4081 926 102.325 275.984 473.708
603 0 61.0956 17.3335 1059 102.626 275.46 478.08
604 0 61.1279 15.9829 977 106.195 275.899 477.156
605 0 60.095 12.8463 772 112.193 276.99 475.869
606 0 64.328 13.6643 879 110.229 276.685 475.827
607 0 71.2992 15.3859 1097 104.834 274.144 484.609
608 0 68.1642 11.3549 774 114.15 275.068 479.216
609 0 70.3134 13.2549 932 110.249 274.886 481.689
610 0 74.3898 13.6712 1017 111.014 273.645 476.267
611 0 75.2398 13.3573 1005 112.309 273.618 466.512
612 0 79.21 12.8014 1014 111.393 274.045 471.713
613 0 83.2405 10.6679 888 112.99 273.432 477.791
614 0 87.2186 13.6553 1191 110.022 272.39 474.975
615 1 43.0973 13.7828 594 103.231 271.397 496.741
616 0 45.1243 11.7232 529 107.694 271.459 491.07
617 0 47.0331 9.27007 436 107.156 269.892 494.943
618 0 49.0268 10.994 539 107.197 269.866 491.649
619 0 50.0809 13.0589 654 103.931 268.572 491.502
620 0 50.0498 12.8872 645 105.867 268.047 488.417
621 0 47.1335 10.9264 515 109.707 267.765 488.765
622 0 58.0808 18.767 1090 96.1761 268.488 477.318
623 0 59.2499 19.865 1177 95.0484 267.823 473.049
624 0 62.2592 14.9215 929 100.521 267.864 480.089
625 0 58.0459 14.0923 818 106.34 267.423 473.756
626 0 62.1854 14.698 914 107.687 267.032 474.361
627 0 62.0681 11.5035 714 109.112 267.599 476.689
628 0 66.6643 14.9705 998 106.244 268.775 476.205
629 0 67.2016 12.8568 864 111.213 267.749 472.759
630 0 67.1863 17.9352 1205 103.885 268.583 469.097
631 0 74.5819 17.0551 1272 102.862 267.983 473.011
632 0 75.3567 15.1679 1143 108.126 270.333 464.939
633 1 40.1998 9.95031 400 111.995 269.61 475.938
634 0 42.2067 14.3579 606 105.378 271.409 478.084
635 0 42.0255 15.0623 633 106.076 269.436 477.118
636 0 42.0506 11.8904 500 104.906 272.496 480.384
637 0 43.138 10.8721 469 105.665 271.034 481.126
638 0 45.0849 11.2676 508 104.768 271.797 479.411
639 0 48.0534 9.23972 444 106.167 272.311 483.482
640 0 49.1564 16.0305 788 99.8706 273.98 479.371
641 0 51.2228 10.2298 524 105.399 274.019 481.939
642 0 51.1 11.272 576 106.998 275.151 480.217
643 0 51.0362 6.7795 346 113.506 274.824 481.931
644 0 57.0913 12.5939 719 105.338 275.413 479.718
645 0 60.1355 18.2754 1099 97.5842 274.857 479.128
646 0 61.2196 12.643 774 112.351 275.194 473.363
647 0 63.2225 12.3374 780 113.686 275.444 473.103
648 0 67.2266 12.7628 858 113.224 275.699 475.097
649 0 67.2266 14.0272 943 135.922 275.682 476.249
650 0 73.2004 14.2349 1042 108.969 274.594 478.174
651 0 71.2905 11.4742 818 114.403 275.457 476
652 0 75.1469 14.0126 1053 110.758 275.069 475.299
653 0 80.1728 14.2442 1142 109.785 275.366 475.495
654 0 81.1377 14.5432 1180 109.939 274.8 471.909
655 0 84.1113 14.4333 1214 109.933 272.624 474.273
656 0 88.3267 14.3558 1268 110.556 272.83 474.671
657 0 91.3476 13.3884 1223 110.882 272.855 475.894
658 0 93.2955 11.0938 1035 112.262 270.419 475.4
659 1 47.1013 10.5942 499 111.02 270.89 492.226
660 0 48.1025 13.7623 662 107.367 270.133 493.252
661 0 50.1061 11.8748 595 111.324 268.768 485.926
662 0 54.0725 15.0354 813 112.218 268.005 481.963
663 0 57.1425 16.3276 933 110.181 268.952 479.453
664 0 62.4865 19.9403 1246 102.984 267.871 478.072
665 0 59.2339 18.2666 1082 107.459 267.551 477.421
666 0 61.175 16.4937 1009 108.805 267.094 480.268
667 0 64.3115 14.9118 959 111.466 267.275 475.839
668 0 66.4823 15.8388 1053 111.426 267.258 471.382
669 0 69.1389 15.2881 1057 112.01 267.78 470.833
670 0 70.1444 12.8877 904 114.482 269.08 474.305
671 0 74.4259 15.4785 1152 110.247 268.508 473.637
672 0 76.2628 14.6205 1115 111.921 268.541 469.168
673 0 77.1923 14.4703 1117 113.293 269.149 466.732
674 0 82.2724 14.4763 1191 114.553 268.981 457.735
675 0 82.4487 13.5721 1119 119.424 270.377 455.891
676 0 86.2641 16.6466 1436 111.765 270.436 459.175
677 0 87.1846 15.5188 1353 113.132 271.291 462.806
678 0 87.1846 15.5303 1354 140.826 272.296 462.712
679 1 46.0295 11.8185 544 109.912 272.235 482.116
680 0 45.1783 11.4214 516 113.364 273.545 477.961
681 0 49.1742 16.4517 809 103.146 274.106 482.602
682 1 63.8227 17.0315 1087 98.3533 273.997 468.583
683 0 63.2133 15.0443 951 102.175 273.858 473.984
684 0 58.2253 12.778 744 110.246 275.203 467.472
685 0 58.1601 12.9126 751 113.28 275.277 467.273
686 0 58.1737 12.6174 734 116.473 276.139 468.127
687 0 61.126 14.9364 913 113.107 274.752 468.919
688 0 62.1755 12.5291 779 116.347 275.899 473.565
689 0 65.209 17.4822 1140 105.622 275.995 479.882
690 0 68.3133 13.9504 953 111.065 276.038 478.506
691 0 68.1262 14.4144 982 111.156 275.366 478.009
692 0 72.2094 18.114 1308 106.22 275.982 477.219
693 0 74.2057 14.918 1107 111.169 274.88 474.332
694 0 75.1341 14.1614 1064 110.376 275.494 469.236
695 0 79.386 15.1286 1201 110.151 274.843 472.431
696 0 83.1765 11.8182 983 111.989 275.163 475.518
697 0 86.1224 16.3604 1409 106.633 274.264 473.891
698 0 88.1388 12.5824 1109 111.311 274.053 476.49
699 0 90.2165 14.044 1267 110.284 273.047 471.826
700 0 93.1802 14.81 1380 109.506 272.489 468.204
701 0 95.208 15.1248 1440 107.583 271.097 470.865
702 1 51.0477 11.4795 586 109.751 271.118 484.933
703 0 54.1771 12.6253 684 107.839 270.895 484.503
704 0 57.2013 20.9611 1199 98.3661 270.192 485.012
705 0 57.1711 11.1945 640 112.691 269.381 479.059
706 0 63.1932 16.9797 1073 102.788 269.589 473.187
707 0 68.2554 19.808 1352 99.2271 269.026 473.361
708 0 64.2649 14.5025 932 108.073 268.18 473.502
709 0 68.0815 13.6307 928 107.905 267.517 474.018
710 0 71.2056 13.7208 977 108.83 268.915 473.374
711 0 73.3967 14.4148 1058 109.095 267.413 469.652
712 0 73.2201 12.4283 910 112.633 268.556 469.415
713 0 77.3164 13.0244 1007 111.096 267.037 469.689
714 0 80.2733 12.0588 968 113.363 268.624 463.299
715 0 86.446 14.5987 1262 107.956 266.663 457.952
716 1 40.0344 9.79158 392 109.778 269.061 484.926
717 0 41.0171 9.84955 404 108.569 268.111 483.131
718 0 41.0342 11.8925 488 105.555 268.631 483.297
719 0 42.2352 13.4248 567 105.383 268.557 481.862
720 0 45.0619 11.695 527 108.057 270.526 478.894
721 0 47.0384 12.4579 586 106.334 270.945 479.024
722 0 48.0618 10.112 486 109.051 271.374 479.671
723 0 58.1192 13.5756 789 104.529 272.01 470.371
724 0 59.4755 15.8216 941 102.305 272.748 473.816
725 0 61.4825 15.4678 951 116.304 272.715 473.768
726 0 57.137 12.0412 688 110.775 272.993 472.112
727 0 58.2081 11.9056 693 111.722 275.276 471.949
728 0 62.1227 13.3446 829 109.889 275.56 473.175
729 0 66.1737 13.6308 902 109.259 276.573 473.436
730 0 65.2035 10.5823 690 114.454 276.194 471.694
731 0 69.1985 14.061 973 109.52 276.588 474.485
732 0 72.3077 11.0915 802 113.161 276.188 474.317
733 0 75.1616 13.93 1047 109.726 276.953 472.116
734 0 77.1542 13.7128 1058 108.321 276.714 471.497
735 1 40.0629 11.3322 454 103 275.262 495.405
736 0 42.1483 9.49029 400 109.14 275.328 492.43
737 0 42.0758 9.24522 389 109.928 273.877 494.555
738 0 45.0462 12.0099 541 104.935 274.135 495.56
739 0 45.0956 15.4782 698 102.163 273.521 494.42
740 0 42.1436 10.9625 462 110.006 273.381 494.794
741 0 49.1934 7.84658 386 111.194 271.824 494.876
742 0 50.0628 12.5642 629 105.725 272.269 491.561
743 0 50.3125 10.6932 538 107.909 271.063 492.024
744 0 53.162 11.1922 595 112.131 269.63 485.864
745 0 54.3684 13.7212 746 110.346 270.102 480.847
746 0 55.2359 12.4376 687 111.853 270.502 483.996
747 0 56.5029 14.8134 837 108.701 269.853 483.891
748 0 61.3121 17.4843 1072 105.446 271.097 479.017
749 0 63.2134 15.2816 966 108.473 269.899 477.638
750 0 65.0944 14.164 922 109.563 270.126 478.97
751 0 65.1954 11.9947 782 108.572 268.761 477.05
752 0 66.1253 13.5954 899 105.655 268.743 478.229
753 0 69.1577 12.5944 871 108.008 268.595 470.972
754 0 71.3204 12.6051 899 108.398 270.425 473.007
755 0 75.4171 9.87839 745 111.391 270.012 469.423
756 0 82.2529 16.8262 1384 101.444 269.665 468.633
757 0 86.3282 20.5842 1777 98.5402 270.852 460.326
758 0 83.2981 12.0531 1004 111.534 271.2 462.348
759 1 42.2583 11.477 485 110.443 271.779 480.953
760 0 45.1614 13.0421 589 108.447 271.379 480.728
761 0 48.0562 12.4229 597 109.42 272.675 480.474
762 0 48.0881 15.2221 732 104.369 271.713 477.704
763 0 49.0866 12.6715 622 106.664 273.854 479.527
764 1 68.2911 14.16 967 95.9659 272.927 469.609
765 0 67.5125 24.2029 1634 88.6787 272.926 461.064
766 0 69.9591 17.11 1197 95.5581 274.409 471.489
767 0 66.2985 27.2103 1804 89.2334 274.089 461.089
768 0 66.1968 17.2818 1144 99.6713 274.79 466.781
769 0 67.0913 17.8861 1200 100.79 275.228 466.488
770 0 66.1213 16.0009 1058 104.041 275.997 465.483
771 0 66.2879 12.0535 799 115.632 276.841 469.936
772 0 68.1465 15.6721 1068 111.34 277.169 468.575
773 0 72.1873 14.6425 1057 112.994 277.643 467.877
774 0 77.3967 14.626 1132 111.456 277.818 474.324
775 0 76.176 12.2611 934 116.515 277.885 471.384
776 0 78.1785 13.5331 1058 111.704 276.84 470.71
777 0 81.2112 14.0252 1139 111.627 276.147 469.758
778 0 84.3584 15.612 1317 110.746 276.096 464.689
779 0 87.2304 10.9939 959 115.96 275.937 469.01
780 0 92.4591 14.4605 1337 111.036 277.37 464.178
781 1 48.0857 11.5211 554 109.751 275.681 491.464
782 0 48.1238 9.20543 443 112.815 275.257 493.183
783 0 50.0809 14.5165 727 106.253 274.662 488.772
784 0 53.1592 13.9016 739 111.862 275.108 484.744
785 0 53.1229 12.9699 689 107.023 273.2 487.408
786 0 51.1346 12.5355 641 110.676 272.53 484.259
787 0 60.0352 16.2238 974 103.229 273.084 478.742
788 0 59.1804 12.3352 730 114.4 273.393 480.722
789 0 62.1684 11.8066 734 114.911 272.647 479.851
790 0 65.1379 12.3123 802 112.237 271.551 475.691
791 0 66.2184 12.3531 818 112.451 271.621 474.974
792 0 65.1912 11.4893 749 114.744 269.697 471.031
793 0 71.3293 17.9029 1277 104.789 270.287 471.524
794 0 75.3158 14.2201 1071 109.079 270.932 471.467
795 0 76.2774 17.8428 1361 103.901 268.729 467.291
796 0 80.2288 15.5306 1246 104.335 268.544 463.089
797 0 83.1563 16.3908 1363 106.864 269.051 463.933
798 0 81.1659 9.24033 750 113.489 269.359 465.504
799 0 85.2388 13.6675 1165 109.195 270.013 459.821
800 0 89.1723 13.2777 1184 108.593 269.219 459.865
801 0 91.2453 12.176 1111 108.875 270.057 462.806
802 0 90.246 10.4381 942 110.99 269.429 465.014
803 0 97.3399 12.369 1204 111.635 269.888 457.291
804 1 53.2431 15.0442 801 106.966 270.632 475.549
805 0 60.1858 16.6152 1000 102.829 271.873 469.521
806 0 60.2943 15.3414 925 106.751 272.468 468.906
807 0 61.3595 17.1123 1050 104.668 272.085 468.425
808 0 59.2347 16.3586 969 107.037 274.559 469.569
809 0 61.1849 14.922 913 110.468 274.898 468.1
810 0 69.3686 15.3384 1064 107.218 275.766 469.073
811 0 66.4267 15.3553 1020 110.682 276.555 465.43
812 0 68.2082 15.0129 1024 109.627 275.984 466.927
813 0 69.1158 13.2676 917 114.48 276.347 466.794
814 0 69.2665 13.3975 928 114.259 278.015 467.952
815 0 73.1716 14.7325 1078 111.604 277.27 469.173
816 0 73.1411 16.2289 1187 110.944 277.618 469.369
817 0 76.161 12.6443 963 116.339 277.069 467.388
818 0 79.092 12.3021 973 116.619 277.424 467.8
819 0 83.1738 16.2671 1353 110.154 278.112 463.624
820 0 86.1838 12.8795 1110 115.05 277.711 470.626
821 0 87.0839 15.0774 1313 112.779 276.064 469.623
822 0 89.1751 13.4006 1195 116.415 276.834 466.203
823 1 49.0682 12.0445 591 110.046 275.193 490.905
824 0 49.0894 14.9319 733 109.795 276.666 485.266
825 0 53.1109 13.4812 716 110.034 275.071 487.334
826 0 51.082 12.4506 636 114.25 275.154 484.418
827 0 55.1851 16.0913 888 107.934 274.313 483.83
828 0 60.3288 19.2611 1162 105.374 274.479 479.223
829 0 63.2411 15.4172 975 110.785 273.322 478.909
830 0 63.2541 22.0855 1397 102.477 273.133 479.227
831 0 62.133 14.1954 882 114.975 272.23 477.086
832 0 63.0989 10.6658 673 120.813 272.232 477.712
833 0 64.1472 13.3443 856 118.2 271.449 474.626
834 0 66.2086 13.0195 862 118.549 270.871 473.082
835 0 69.1437 13.9709 966 115.496 270.86 475.912
836 0 71.1612 13.4062 954 117.419 271.154 473.596
837 0 75.1637 19.5573 1470 107.508 270.713 470.611
838 0 77.3145 13.3998 1036 117.03 270.859 467.184
839 0 81.2944 13.5926 1105 116.148 271.155 466.416
840 0 83.193 17.5976 1464 110.654 270.406 464.292
841 0 83.2355 14.3088 1191 116.264 270.696 463.235
842 0 88.1096 14.1074 1243 116.127 270.538 460.31
843 0 92.416 14.6728 1356 115.133 270.805 459.645
844 0 96.3603 14.8401 1430 114.761 270.391 452.104
845 1 46.1377 9.71006 448 120.185 272.125 473.612
846 0 52.1644 23.0042 1200 99.2692 271.981 469.697
847 0 53.4774 14.7165 787 110.136 270.942 463.114
848 0 53.2141 12.7222 677 114.089 271.542 462.523
849 0 55.136 17.3208 955 108.768 271.246 456.815
850 0 57.12 15.4587 883 112.571 273.146 455.852
851 0 58.0564 13.1252 762 115.995 273.018 462.802
852 0 63.0611 15.4295 973 109.883 275.343 466.598
853 0 62.1493 13.5641 843 114.363 274.644 461.507
854 0 64.2194 14.4816 930 111.947 276.962 467.291
855 0 63.2367 13.5997 860 113.32 275.764 468.883
856 0 70.1007 15.2638 1070 109.704 276.678 469.203
857 0 69.1571 11.3799 787 117.64 277.512 465.332
858 0 73.2122 14.3965 1054 112.684 278.189 466.048
859 0 76.179 12.9695 988 114.832 278.613 467.396
860 0 78.1375 12.606 985 115.172 278.741 463.506
861 0 81.083 14.1953 1151 113.602 278.665 465.195
862 0 84.2964 14.793 1247 112.866 278.202 466.698
863 1 44.0448 11.6245 512 111.689 277.695 489.305
864 0 44.0314 11.946 526 111.559 277.395 488.656
865 0 45.0266 11.6153 523 114.35 276.598 484.293
866 0 47.0851 11.9358 562 112.196 276.996 486.121
867 0 46.0847 9.09196 419 115.721 277.033 489.422
868 0 49.0711 10.1078 496 114.679 276.246 486.829
869 0 49.1327 12.1508 597 114.146 274.98 484.714
870 0 54.2828 14.9034 809 114.525 275.087 473.169
871 0 58.3588 14.0167 818 115.449 273.993 473.652
872 0 57.1208 12.5699 718 120.731 272.795 469.94
873 0 58.0874 15.0119 872 116.46 272.28 474.433
874 0 60.2658 16.842 1015 113.545 272.884 477.087
875 0 61.0646 12.8389 784 119.63 272.73 478.412
876 0 64.0651 12.8931 826 119.529 272.559 479.467
877 0 65.1357 17.3331 1129 110.273 271.173 480.064
878 0 67.3847 12.8813 868 121.671 271.899 473.366
879 0 69.2922 13.5513 939 120.921 271.184 471.822
880 0 72.4167 14.8999 1079 118.351 271.653 470.725
881 0 73.3127 15.0042 1100 119.438 271.413 468.592
882 0 75.3724 14.4748 1091 117.56 271.372 460.876
883 0 76.1681 11.9473 910 122.482 270.399 456.256
884 1 43.0565 10.3353 445 120.198 271.658 476.775
885 0 44.0399 8.99184 396 119.79 271.503 480.414
886 0 46.0677 11.9172 549 118.098 271.57 476.805
887 0 48.0943 12.2676 590 117.668 272.773 478.173
888 0 50.0879 12.518 627 115.962 272.226 477.364
889 0 49.088 9.94132 488 123.664 273.277 471.387
890 0 53.118 11.1638 593 120.413 273.772 470.503
891 0 62.1295 22.4048 1392 98.6573 273.662 466.288
892 0 63.2063 18.2735 1155 105.6 275.316 464.102
893 0 64.0945 16.5225 1059 109.267 275.18 463.584
894 0 61.1808 13.3539 817 116.148 275.799 464.261
895 0 62.1047 12.1247 753 116.712 276.93 466.406
896 0 65.1442 13.5392 882 114.615 275.732 464.511
897 0 67.2636 12.1016 814 117.009 276.226 463.033
898 0 68.2083 11.4649 782 118.394 276.577 459.964
899 0 71.2105 14.394 1025 114.098 277.091 461.746
900 0 72.1816 10.6952 772 118.218 277.895 466.165
901 0 76.0567 15.1071 1149 112.839 277.662 461.347
902 0 80.3627 12.9911 1044 115.17 279.032 460.317
903 0 83.4253 14.504 1210 114.046 279.041 459.388
904 0 85.2514 14.4866 1235 114.558 278.423 462.084
905 0 88.3969 15.0345 1329 112.873 278.18 464.73
906 0 90.3889 13.4751 1218 116.549 277.739 461.838
907 0 95.2361 15.6138 1487 110.52 277.732 469.311
908 0 96.3199 13.6213 1312 112.363 277.567 464.696
909 1 51.4043 16.6718 857 105.982 277.541 481.879
910 0 50.2399 10.3703 521 119.488 276.985 466.154
911 0 52.2983 10.5931 554 118.072 277.085 471.475
912 0 57.2751 9.9345 569 117.638 276.448 475.895
913 0 56.2823 16.5416 931 108.643 275.982 472.981
914 0 58.2104 13.6058 792 111.975 275.119 476.03
915 0 61.1622 12.6058 771 113.379 274.943 478.987
916 0 61.1924 13.6782 837 110.321 273.983 482.449
917 0 67.1142 13.7676 924 109.374 271.983 480.826
918 0 67.0639 15.0752 1011 108.081 270.369 480.532
919 0 70.0946 14.2664 1000 109.397 271.559 476.093
920 0 71.0889 13.5605 964 111.536 270.633 472.669
921 0 75.0675 17.1845 1290 103.647 271.619 471.606
922 0 78.2284 13.2944 1040 108.056 271.203 476.122
923 1 43.0577 13.2845 572 107.108 270.708 489.614
924 0 44.1393 11.9848 529 109.295 271.043 487.068
925 0 45.0799 13.5093 609 107.2 270.736 484.969
926 0 46.0238 12.3632 569 110.907 270.014 483.779
927 0 45.1124 9.4874 428 118.119 271.283 481.857
928 0 45.0797 11.4464 516 117.428 272.279 479.754
929 0 49.181 13.4198 660 112.355 272.638 479.185
930 0 50.0976 13.5336 678 112.965 272.246 477.195
931 0 57.3388 16.0973 923 103.913 273.755 473.763
932 0 56.1374 15.1771 852 106.189 273.589 471.358
933 0 63.1892 21.0321 1329 96.8141 273.521 467.159
934 0 63.1831 16.8716 1066 104.188 273.981 467.77
935 0 63.2471 16.5541 1047 105.667 274.005 462.462
936 0 63.1075 15.0378 949 111.014 274.479 466.879
937 0 63.2492 13.8816 878 114.694 276.351 468.871
938 0 64.2488 13.5722 872 115.409 276.322 469.013
939 0 65.1718 15.4054 1004 112.098 276.424 467.404
940 0 66.348 11.9521 793 118.076 276.585 466.691
941 0 71.2904 13.8308 986 115.654 277.437 466.187
942 0 72.4897 10.9257 792 120.332 278.14 469.516
943 0 76.1439 16.0223 1220 112.216 278.512 464.702
944 0 78.2205 12.9378 1012 115.942 278.488 466.683
945 0 82.2282 13.9247 1145 112.579 277.953 457.697
946 1 43.0426 11.3841 490 110.414 278.392 485.424
947 0 43.1083 12.2714 529 109.792 278.943 485.44
948 0 45.043 14.6749 661 106.445 278.638 483.49
949 0 45.0475 12.8531 579 108.1 279.067 488.301
950 1 95.2838 12.426 1184 116.688 278.723 464.976
951 0 97.7152 14.7674 1443 113.646 278.295 463.036
952 0 104.574 15.0228 1571 111.36 278.078 464.358
953 1 51.0467 9.97125 509 113.332 276.124 488.878
954 0 53.0487 12.743 676 112.395 276.269 483.714
955 0 57.0489 12.3753 706 112.909 275.045 483.881
956 0 57.1471 11.1642 638 116.337 274.586 482.563
957 0 58.1562 12.3633 719 112.633 274.423 484.937
958 0 62.2119 14.7078 915 106.787 273.374 481.403
959 0 64.3039 13.0474 839 109.448 272.681 482.747
960 0 65.1774 13.0874 853 109.226 271.907 476.59
961 0 66.0742 16.7539 1107 104.51 272.168 477.815
962 0 69.1403 15.8229 1094 105.776 272.129 480.054
963 0 71.1529 11.918 848 111.853 273.43 476.84
964 0 73.3007 14.3928 1055 107.933 271.878 475.402
965 0 75.2608 13.1543 990 110.749 271.528 474.336
966 0 81.2886 16.2384 1320 107.849 271.146 462.643
967 0 82.3001 17.4119 1433 105.103 271.242 471.057
968 0 83.3875 12.1361 1012 114.901 271.111 466.324
969 0 88.1989 13.9004 1226 113.274 271.486 463.431
970 0 90.4196 14.4659 1308 112.505 270.802 464.241
971 0 94.3093 11.0169 1039 116.991 271.523 462.212
972 1 46.1284 10.6225 490 112.704 270.965 483.578
973 0 47.0768 8.07192 380 115.963 271.266 479.042
974 0 49.1645 18.4279 906 99.0541 271.939 481.39
975 0 51.1923 13.5372 693 107.745 272.228 477.794
976 0 54.1376 15.4237 835 111.295 272.553 472.721
977 0 57.1424 17.6226 1007 107.632 272.738 472.704
978 0 53.0867 13.1106 696 115.647 272.48 473.425
979 0 58.1058 15.0243 873 110.794 274.163 473.104
980 0 56.0948 13.0315 731 139.711 275.144 470.97
981 0 60.1205 19.4942 1172 104.903 276.452 470.19
982 0 64.2788 18.8398 1211 103.094 276.609 472.1
983 0 62.2671 15.5941 971 111.604 276.331 466.744
984 0 66.4244 14.7386 979 111.466 277.213 468.743
985 1 208.567 13.5688 2830 112.735 277.198 410.233
986 1 294.97 19.1545 5650 105.444 278.187 375.159
987 1 71.1199 15.284 1087 111.092 277.249 470.309
988 0 71.3061 12.3271 879 112.687 278.8 469.448
989 0 77.2403 13.7364 1061 116.924 278.445 464.238
990 0 81.3368 16.4993 1342 111.323 279.187 465.986
991 0 80.3145 12.8495 1032 118.172 279.16 471.6
992 0 82.2201 15.3247 1260 110.818 278.709 474.263
993 0 88.3367 13.9127 1229 113.525 278.937 470.959
994 0 89.1928 12.8598 1147 115.826 278.598 474.281
995 0 91.2235 14.3603 1310 114.563 279.007 471.411
996 0 95.1808 14.5092 1381 116.573 277.463 467.852
997 0 107.69 25.4156 2737 98.2009 276.41 453.777
998 1 53.1504 14.5624 774 111.256 276.448 491.637
999 0 60.0698 20.9922 1261 101.069 276.122 482.477
1000 0 62.196 26.2235 1631 95.6953 275.31 483.311
1001 0 62.0974 23.1411 1437 98.6708 273.408 485.06
1002 0 66.1144 14.5657 963 110.829 273.848 486.675
1003 0 66.1144 14.3993 952 135.007 273.871 486.632
1004 0 62.0392 14.8616 922 114.649 272.743 483.179
1005 0 65.22 16.176 1055 112.792 270.703 480.751
1006 0 63.1754 11.7451 742 121.612 271.278 482.16
1007 0 66.1554 14.2694 944 118.034 270.806 477.68
1008 0 67.1613 13.6537 917 118.851 270.64 478.354
1009 0 68.1111 11.9951 817 121.791 269.459 475.472
1010 0 71.1717 13.8679 987 117.686 269.875 476.042
1011 0 75.2696 19.7424 1486 107.673 270.221 475.098
1012 0 76.2766 17.9085 1366 111.137 269.477 470.978
1013 0 81.1578 16.2893 1322 112.531 270.104 465.79
1014 0 82.1187 17.1824 1411 111.799 269.262 465.697
1015 0 86.124 14.9668 1289 114.003 270.82 467.17
1016 0 84.092 13.4733 1133 118.763 271.89 460.149
1017 0 86.1652 14.5766 1256 114.229 271.449 460.583
1018 0 91.165 16.1575 1473 111.918 272.399 458.978
1019 0 91.1447 15.7222 1433 115.784 272.453 457.346
1020 1 51.203 13.4758 690 115.971 273.317 476.987
1021 0 52.0424 10.184 530 118.862 273.747 476.762
1022 0 56.0953 17.0246 955 110.165 273.624 472.035
1023 0 58.0841 13.6526 793 115.492 273.995 470.917
1024 0 68.3716 25.7856 1763 96.215 274.726 468.408
1025 0 65.2423 14.929 974 111.253 275.9 468.591
1026 0 65.2303 14.3645 937 113.615 275.893 467.717
1027 0 65.1853 11.7971 769 119.521 276.577 469.161
1028 0 70.0764 14.2987 1002 114.997 275.464 466.613
1029 0 75.2002 14.4814 1089 114.195 277.18 467.395
1030 0 74.1023 11.4032 845 119.624 277.976 468.766
1031 0 77.1578 20.5812 1588 105.087 276.719 470.178
1032 0 77.1578 20.659 1594 131.228 275.706 470.122
1033 0 87.0566 16.9775 1478 110.408 277.468 466.768
1034 0 86.0989 14.495 1248 116.942 278.147 461.713
1035 1 46.0765 13.5644 625 116.875 277.69 485.872
1036 0 48.0852 15.0358 723 116.382 277.613 483.615
1037 0 48.4555 12.5476 608 122.038 276.648 487.117
1038 0 46.0503 12.5515 578 125.334 277.517 486.888
1039 0 53.1858 14.3835 765 118.987 275.512 490.105
1040 0 53.2144 13.7933 734 123.402 274.782 485.966
1041 0 60.1837 14.7548 888 117.652 274.788 482.384
1042 0 65.762 18.202 1197 110.271 274.408 480.239
1043 0 64.0755 17.3857 1114 114.544 274.353 481.859
1044 0 61.2651 13.4987 827 123.807 273.1 484.539
1045 0 63.1218 13.8463 874 124.858 272.054 479.934
1046 0 65.2219 14.3817 938 123.455 271.767 481.078
1047 0 69.3018 14.8481 1029 122.907 271.8 477.584
1048 0 69.4296 15.1088 1049 123.971 270.673 476.853
1049 0 71.2027 14.859 1058 124.365 269.861 475.645
1050 0 75.0935 13.7695 1034 126.081 269.844 474.843
1051 0 75.1939 15.5731 1171 123.965 268.62 470.187
1052 0 82.11 16.6971 1371 118.809 269.379 470.222
1053 0 81.3499 18.2791 1487 116.77 268.845 472.182
1054 0 82.2658 15.3891 1266 124.162 269.445 465.455
1055 0 85.1502 14.6212 1245 125.1 269.573 466.842
1056 0 85.287 12.3583 1054 129.938 269.676 464.869
1057 0 90.1865 14.5255 1310 125.109 268.975 459.486
1058 0 95.3055 19.768 1884 115.255 268.866 457.6
1059 0 96.1594 15.4743 1488 123.425 269.874 457.825
1060 0 97.2313 13.6479 1327 127.45 270.14 454.775
1061 0 103.238 16.7864 1733 120.869 271.361 452.345
1062 0 105.338 17.2492 1817 119.001 271.708 451.361
1063 0 108.369 16.0655 1741 120.631 272.654 450.311
1064 0 117.363 20.6113 2419 111.458 272.905 438.173
1065 1 58.0541 10.318 599 131.043 273.477 466.048
1066 0 63.1603 14.4869 915 120.08 273.175 472.141
1067 0 66.2552 14.2027 941 120.467 274.251 470.396
1068 0 70.1838 14.1201 991 121.557 274.708 466.283
1069 0 70.1937 12.9499 909 125.216 275.799 463.114
1070 0 73.0716 14.4516 1056 121.598 276.753 462.768
1071 0 76.1242 10.8376 825 126.916 276.983 462.773
1072 0 79.1834 14.0812 1115 121.217 277.633 462.279
1073 0 84.425 13.3965 1131 120.322 277.494 464.918
1074 0 86.2155 12.3644 1066 121.378 278.66 462.105
1075 0 86.2155 9.17468 791 126.92 278.852 458.738
1076 1 47.0311 12.0346 566 108.823 277.576 482.345
1077 0 50.2021 12.3899 622 107.76 277.207 483.667
1078 0 51.0446 11.3626 580 109.879 277.919 484.953
1079 0 53.026 10.5986 562 109.783 277.352 486.119
1080 0 52.0362 9.93538 517 112.787 278.311 481.905
1081 0 55.3106 13.3248 737 106.476 276.512 485.737
1082 0 57.3162 14.1321 810 116.99 274.437 484.421
1083 0 60.1346 10.4432 628 110.822 275.018 484.081
1084 0 62.1905 11.6095 722 109.697 275.54 484.681
1085 0 62.0519 13.0052 807 108.613 273.9 482.041
1086 0 64.3027 12.0368 774 108.823 274.659 486.302
1087 0 64.3608 11.7307 755 112.06 273.981 484.26
1088 0 71.4636 10.6068 758 112.404 273.922 483.028
1089 0 71.147 8.64407 615 119.107 272.701 478.966
1090 0 69.1192 8.42023 582 117.11 272.574 481.66
1091 1 47.0733 10.2394 482 105.73 271.768 490.915
1092 0 44.0654 7.17116 316 110.358 270.946 490.601
1093 0 45.0712 10.2061 460 107.111 270.08 489.002
1094 1 90.3509 9.12 824 115.286 270.004 469.015
1095 0 92.3568 10.0913 932 114.271 269.805 468.523
1096 0 88.325 7.61959 673 118.785 270.345 465.465
1097 0 90.181 10.1795 918 115.612 269.966 463.531
1098 0 92.481 10.5211 973 116.292 270.477 460.52
1099 0 93.3688 10.4532 976 117.105 269.349 459.444
1100 0 97.3459 11.2794 1098 116.689 269.811 455.741
1101 0 102.239 10.6907 1093 115.978 269.96 457.189
1102 0 100.494 9.74191 979 117.739 270.857 453.436
1103 0 107.346 10.9552 1176 116.281 270.969 448.699
1104 1 53.2089 9.96075 530 107.898 270.57 478.336
1105 0 57.0911 11.5254 658 105.076 271.272 475.445
1106 0 58.1903 14.2292 828 100.169 271.542 480.918
1107 1 121.556 13.3354 1621 113.462 273.292 443.627
1108 0 123.356 12.7922 1578 115.761 271.769 432.053
1109 0 128.771 9.45866 1218 119.887 273.681 441.036
1110 0 134.892 12.7139 1715 117.02 274.068 430.779
1111 0 138.911 11.2734 1566 116.902 274.149 434.485
1112 0 139.977 10.5017 1470 118.649 274.219 434.778
1113 0 136.69 8.77898 1200 120.519 274.13 435.076
1114 0 140.478 6.80534 956 118.389 274.334 451.203
1115 1 115.803 12.7371 1475 112.047 275.694 444.001
1116 0 121.527 13.1823 1602 110.746 275.907 445.089
1117 0 122.587 12.2689 1504 113.972 276.293 440.272
1118 0 129.064 10.4909 1354 116.419 275.544 441.121
1119 0 135.879 9.49377 1290 121.787 276.106 438.143
1120 1 45.2461 10.5423 477 107.901 276.979 486.973
1121 0 46.0705 8.98622 414 111.585 276.483 489.198
1122 0 46.0705 8.96452 413 115.939 275.54 488.985
1123 0 49.1363 10.827 532 109.265 275.786 486.579
1124 1 98.2859 10.7035 1052 114.42 277.008 462.525
1125 0 101.425 9.32705 946 117.246 276.088 457.692
1126 1 54.1004 13.1237 710 107.603 274.623 485.303
1127 0 58.0965 11.3088 657 108.632 274.003 484.219
1128 0 57.1277 7.77207 444 113.396 274.559 490.236
1129 0 59.1802 11.6593 690 109.467 273.4 484.883
1130 0 60.1766 9.85434 593 112.673 272.118 483.595
1131 0 65.2315 12.8159 836 107.85 271.049 483.921
1132 0 69.1875 11.635 805 107.799 271.342 487.089
1133 0 69.2711 13.1079 908 109.615 270.091 480.308
1134 0 70.0603 12.1752 853 111.528 271.111 480.748
1135 0 73.5314 11.7773 866 111.699 268.985 476.144
1136 1 39.0841 11.7695 460 112.533 269.263 493.107
1137 0 42.1239 12.392 522 111.464 268.18 491.245
1138 0 42.1034 10.0229 422 118.355 267.851 489.841
1139 0 44.0951 12.0421 531 114.36 267.93 492.045
1140 0 44.1657 13.4494 594 115.217 268.35 486.396
1141 0 46.2311 12.524 579 116.914 267.19 484.054
1142 0 45.0925 8.84849 399 117.238 267.872 489.777
1143 0 45.0829 9.82635 443 118.33 267.736 487.199
1144 0 45.2374 8.3117 376 122.162 268.33 487.548
1145 0 48.0916 11.7276 564 116.129 268.402 485.761
1146 0 46.1741 10.1572 469 116.635 268.401 487.917
1147 0 51.0342 12.8933 658 115.252 268.556 480.277
1148 0 56.0832 12.7846 717 113.699 269.4 479.856
1149 0 53.1473 11.8538 630 118.195 268.238 474.817
1150 0 53.2779 11.1491 594 122.345 270.163 476.18
1151 0 56.274 12.1193 682 117.114 270.39 476.235
1152 0 63.0528 20.2529 1277 104.138 270.874 468.164
1153 0 59.1846 12.0302 712 120.001 273.131 472.801
1154 0 63.1114 14.007 884 116.816 272.895 471.391
1155 0 64.0939 13.4646 863 118.692 274.152 470.52
1156 0 67.2478 14.335 964 117.666 273.554 470.092
1157 0 68.0616 16.0002 1089 116.945 273.894 468.935
1158 0 70.1187 14.5468 1020 120.308 274.929 469.872
1159 0 71.1361 17.2346 1226 115.642 274.253 473.188
1160 0 75.1868 18.5006 1391 115.354 276.543 470.137
1161 0 73.0978 14.2549 1042 125.679 276.312 467.632
1162 0 79.1853 15.3185 1213 121.946 276.69 471.913
1163 0 87.2604 17.9921 1570 115.318 275.704 460.659
1164 0 86.1578 20.9615 1806 111.394 276.615 465.869
1165 0 88.2738 18.0801 1596 117.132 275.794 465.203
1166 0 89.1059 13.3773 1192 127.91 275.143 466.466
1167 1 50.0625 11.4856 575 128.083 274.567 487.965
1168 0 50.0686 12.7225 637 126.653 274.879 488.766
1169 0 49.1405 13.2884 653 127.083 274.931 489.219
1170 0 52.0296 13.1656 685 124.94 273.98 487.212
1171 0 55.3159 14.6251 809 121.633 272.76 477.765
1172 0 55.2096 12.8601 710 125.235 272.594 482.342
1173 0 59.1653 13.6905 810 125.086 271.035 479.447
1174 0 57.2827 13.7563 788 126.536 270.533 477.453
1175 0 61.1795 12.9782 794 126.433 270.608 476.821
1176 0 65.0671 15.4149 1003 119.98 270.729 483.319
1177 0 66.235 12.7425 844 122.313 270.066 482.461
1178 0 69.128 12.8313 887 126.462 268.391 479.346
1179 0 71.0864 14.2643 1014 124.567 269.39 477.421
1180 0 72.0856 15.1487 1092 121.031 268.778 476.449
1181 0 76.1752 15.7269 1198 119.715 268.071 475.379
1182 0 76.1773 13.5211 1030 124.531 268.99 475.737
1183 0 80.1717 13.758 1103 124.085 268.555 471.709
1184 0 83.2109 14.1568 1178 122.394 268.168 471.25
1185 0 83.1744 12.4678 1037 126.863 267.721 468.683
1186 0 86.5641 12.303 1065 126.61 268.15 466.162
1187 1 48.0442 13.8622 666 116.462 268.317 483.71
1188 0 49.1291 13.1897 648 116.877 268.813 481.562
1189 0 48.1521 12.772 615 117.626 269.166 481.933
1190 0 53.041 13.367 709 120.251 270.039 459.33
1191 0 54.1202 15.0406 814 118.398 270.256 456.639
1192 0 56.1594 11.1468 626 125.11 271.799 458.204
1193 0 57.1499 12.7384 728 122.618 272.201 458.705
1194 0 57.2026 11.8701 679 125.906 272.915 458.895
1195 0 61.2144 16.0746 984 115.576 273.679 464.806
1196 0 61.0999 14.8936 910 120.19 273.708 462.355
1197 0 63.0457 17.0828 1077 115.587 274.059 465.999
1198 0 64.1955 12.8981 828 123.293 274.324 469.586
1199 0 68.2889 13.7797 941 122.627 274.181 467.849
1200 0 67.1598 11.8821 798 126.406 275.505 470.33
1201 0 73.1447 12.4548 911 124.841 275.923 468.289
1202 0 75.1971 13.817 1039 121.19 277.342 468.169
1203 0 78.1617 13.2162 1033 123.269 277.052 465.767
1204 0 79.2484 13.6407 1081 122.41 277.856 463.78
1205 0 82.1406 12.3934 1018 123.343 276.876 464.837
1206 1 45.24 9.88064 447 121.613 277.002 485.208
1207 0 45.1295 8.92985 403 122.134 277.829 487.097
1208 0 46.0885 12.476 575 114.501 276.438 489.177
1209 0 51.1503 11.1241 569 116.699 276.729 488.48
1210 0 49.3375 13.134 648 121.011 276.441 486.369
1211 0 50.1973 9.98062 501 127.357 276.335 486.457
1212 0 55.2139 9.79825 541 124.466 275.466 486.381
1213 0 58.2327 12.1753 709 118.863 275.914 484.79
1214 0 58.1732 13.2535 771 117.992 275.001 484.233
1215 0 62.2163 17.7928 1107 109.736 274.852 483.404
1216 0 62.1425 12.9541 805 118.504 273.599 484.234
1217 0 64.2224 12.6436 812 117.289 271.175 484.15
1218 0 66.1989 11.8431 784 116.189 271.462 484.566
1219 0 68.2731 13.1677 899 115.747 271.463 478.706
1220 0 66.2088 10.2403 678 120.891 270.229 475.944
1221 0 70.1611 11.0032 772 117.56 270.071 481.585
1222 0 72.1322 9.69054 699 121.082 268.973 476.887
1223 0 82.3541 17.7769 1464 103.565 270.342 467.654
1224 0 81.2642 15.7757 1282 107.575 268.634 467.913
1225 0 82.2102 13.1006 1077 111.955 267.543 468.423
1226 0 82.1583 12.1351 997 114.851 268.01 467.967
1227 0 87.2077 11.4095 995 115.863 268.24 467.29
1228 0 90.1411 12.6579 1141 112.971 268.379 468.578
1229 0 90.1535 9.2398 833 118.227 267.944 468.268
1230 0 94.1312 8.78561 827 120.092 268.437 461.996
1231 1 51.1083 9.97881 510 113.094 267.139 479.365
1232 0 53.0349 12.5955 668 112.159 268.617 478.117
1233 0 53.105 9.09519 483 119.849 269.197 475.526
1234 0 57.0608 11.7068 668 115.166 268.343 476.189
1235 0 63.2505 23.2409 1470 96.5558 269.141 466.831
1236 0 61.1677 12.9807 794 112.219 271.106 466.263
1237 0 61.0798 13.8507 846 111.1 270.543 469.745
1238 0 64.0819 10.6894 685 116.165 271.537 466.712
1239 0 64.0612 11.9573 766 114.599 272.077 466.299
1240 0 67.048 13.1995 885 113.086 272.593 462.296
1241 0 71.1414 12.8758 916 112.017 273.934 467.195
1242 0 71.1732 10.341 736 115.72 273.947 467.592
1243 0 74.1145 13.1823 977 111.589 274.602 458.974
1244 0 79.2889 11.0356 875 114.561 274.494 462.653
1245 0 81.2464 13.7114 1114 107.758 275.382 466.965
1246 0 85.2093 10.5622 900 112.398 275.707 458.837
1247 0 88.3443 11.4212 1009 112.857 277.348 462.187
1248 0 88.3069 9.58023 846 114.706 276.923 462.258
1249 0 95.3218 10.9629 1045 111.722 277.236 462.558
1250 0 94.3999 11.6843 1103 112.615 276.895 466.958
1251 0 96.5158 10.6718 1030 116.026 277.49 460.632
1252 0 105.612 15.074 1592 106.604 276.199 462.72
1253 0 110.594 18.1383 2006 102.675 276.986 451.541
1254 1 53.0502 12.5919 668 104.124 275.778 489.054
1255 0 55.1278 7.18331 396 112.04 276.22 489.078
1256 0 58.079 11.0195 640 107.664 275.236 487.184
1257 0 57.2366 8.68325 497 111.445 274.889 492.827
1258 0 63.0998 12.2029 770 106.182 273.491 485.397
1259 0 63.2654 13.2932 841 107.553 272.816 484.074
1260 0 63.1563 10.4661 661 113.071 272.345 484.425
1261 0 66.2674 14.1699 939 106.682 271.885 481.972
1262 0 70.2995 11.7213 824 108.539 270.772 481.757
1263 0 72.2272 13.0145 940 107.189 270.443 479.747
1264 0 72.293 14.5104 1049 105.368 269.951 476.675
1265 0 76.114 14.8067 1127 105.378 269.956 476.137
1266 0 79.2406 11.4462 907 109.993 269.05 475.251
1267 0 81.1795 15.7306 1277 103.564 268.725 472.071
1268 0 83.404 13.8003 1151 106.17 268.799 469.043
1269 0 85.2049 13.802 1176 106.303 267.698 469.526
1270 0 88.2517 11.5239 1017 108.549 268.124 469.676
1271 0 90.1888 10.5002 947 111.282 267.957 468.167
1272 0 93.2971 10.2361 955 112.414 269.024 465.271
1273 0 97.2262 13.6589 1328 107.663 268.968 459.345
1274 0 96.4629 11.1442 1075 110.567 269.684 459.965
1275 1 52.2721 9.20185 481 113.067 268.938 471.938
1276 0 56.3427 14.3053 806 101.259 269.471 468.976
1277 0 56.2598 13.6154 766 104.196 270.443 471.514
1278 0 59.146 12.7819 756 103.185 269.606 471.409
1279 0 60.2465 12.731 767 105.649 270.617 463.806
1280 0 59.3244 13.8897 824 106.089 271.271 463.937
1281 0 61.0864 14.2094 868 112.101 272.721 468.35
1282 0 64.0509 13.4424 861 111.374 273.196 472.635
1283 0 64.0509 13.4581 862 138.474 274.179 472.755
1284 0 67.1802 14.4388 970 110.087 272.982 469.542
1285 0 69.0854 12.101 836 115.154 275.528 464.955
1286 0 71.0942 14.0518 999 111.099 275.537 469.854
1287 0 74.3264 14.9476 1111 108.56 276.663 469.798
1288 0 79.1764 16.4317 1301 107.661 278.179 464.578
1289 0 78.2044 13.2218 1034 111.923 277.729 464.555
1290 0 81.167 11.8891 965 115.564 278.617 466.122
1291 0 83.1717 12.0714 1004 115.131 278.752 462.481
1292 0 87.1656 14.134 1232 112.232 278.154 465.576
1293 1 45.1176 14.0522 634 107.765 278.614 489.013
1294 0 46.1246 11.1654 515 111.781 277.464 489.736
1295 0 47.1738 13.7152 647 107.878 276.583 488.431
1296 0 47.0883 9.98125 470 112.287 275.198 490.417
1297 0 50.1461 12.1246 608 109.37 275.712 487.781
1298 0 48.0493 10.8014 519 113.383 275.996 487.503
1299 0 61.3178 11.7584 721 106.286 276.804 495.025
1300 0 55.0306 13.5379 745 108.152 275.169 487.867
1301 0 57.137 13.9139 795 107.326 274.131 489.796
1302 0 59.1438 17.6012 1041 101.893 272.265 489.036
1303 0 61.2538 15.0195 920 106.224 271.347 484.884
1304 0 63.048 13.6721 862 108.564 270.926 482.385
1305 0 65.1788 13.9769 911 108.037 270.66 484.319
1306 0 66.2158 18.6209 1233 100.781 269.853 485.245
1307 0 67.1444 13.121 881 110.622 269.41 480.259
1308 0 72.1968 13.0615 943 114.182 268.65 473.462
1309 0 77.2676 13.4468 1039 110.86 268.577 475.024
1310 0 83.3628 19.925 1661 101.87 269.461 471.821
1311 0 81.2309 12.8769 1046 113.574 268.514 468.549
1312 0 84.4284 12.6261 1066 115.876 269.099 467.644
1313 1 47.3027 10.5914 501 111.473 267.144 484.567
1314 0 48.0902 14.5976 702 106.298 269.114 484.521
1315 0 49.0586 13.3106 653 108.93 267.43 483.706
1316 0 48.1405 14.3746 692 106.85 268.64 483.847
1317 0 48.1863 10.1896 491 114.338 268.297 479.495
1318 0 50.0521 14.1852 710 107.987 268.958 479.249
1319 0 52.0635 11.4476 596 113.834 268.891 474.997
1320 0 57.22 14.6278 837 107.656 271.503 476.25
1321 0 56.1635 14.1551 795 110.528 270.036 472.886
1322 0 58.1232 14.5553 846 110.05 270.978 472.585
1323 0 59.129 11.8893 703 113.249 271.61 470.868
1324 0 61.2339 12.0032 735 114.252 272.054 469.222
1325 0 64.1271 14.6584 940 111.01 273.97 466.019
1326 0 66.2436 13.6617 905 117.766 273.703 467.081
1327 0 66.1843 16.8318 1114 111.153 274.877 471.445
1328 0 70.315 14.4066 1013 116.245 275.824 466.76
1329 0 70.2377 14.3228 1006 116.72 275.092 467.879
1330 0 74.1422 12.2198 906 119.7 275.704 468.076
1331 0 76.2443 12.2501 934 118.667 275.972 466.688
1332 0 80.4023 15.5468 1250 116.569 277.708 459.868
1333 0 83.1782 13.2366 1101 117.457 275.431 464.772
1334 0 83.206 13.088 1089 119.068 277.197 464.638
1335 1 41.0347 9.57726 393 120.817 275.878 490.013
1336 0 44.1288 11.3531 501 117.341 276.467 488.976
1337 0 46.0642 10.7459 495 118.929 274.851 484.952
1338 0 47.0998 12.6964 598 114.236 275.381 486.498
1339 0 48.1507 12.3986 597 115.39 275.673 485.898
1340 0 49.1531 11.393 560 116.818 274.168 487.112
1341 0 56.2007 13.861 779 108.027 273.77 481.153
1342 0 56.0601 12.3796 694 112.308 273.784 483.344
1343 0 56.0694 11.5036 645 114.495 272.344 482.629
1344 0 58.1349 11.4905 668 115.79 272.476 484.102
1345 0 59.0563 12.4796 737 118.271 270.065 479.255
1346 0 60.1229 11.9256 717 116.537 271.047 481.148
1347 0 62.0854 10.2117 634 122.599 270.132 473.771
1348 0 64.1402 13.1899 846 117.194 271.309 477.283
1349 0 65.1024 9.99963 651 122.025 270.098 471.902
1350 0 70.1636 13.2975 933 116.518 269.706 473.023
1351 0 73.1866 14.6885 1075 112.499 269.233 475.546
1352 0 76.2302 14.1676 1080 115.669 268.154 468.106
1353 0 80.3271 19.3957 1558 107.264 268.347 466.305
1354 0 81.2791 15.9943 1300 111.46 267.763 464.232
1355 0 83.165 12.6375 1051 116.758 268.382 463.909
1356 0 85.2084 13.6489 1163 115.276 268.22 462.346
1357 0 90.1642 8.83943 797 122.166 269.31 469.552
1358 0 88.2891 10.8394 957 123.14 268.449 459.81
1359 0 89.3217 12.1807 1088 144.517 267.516 461.805
1360 0 95.1525 10.0365 955 120.921 269.041 460.78
1361 0 94.1918 9.84162 927 113.989 269.558 462.554
1362 1 61.9833 14.2942 886 104.631 270.927 470.687
1363 0 59.0895 14.5373 859 106.828 270.809 470.79
1364 0 59.1491 14.1507 837 109.038 271.904 467.986
1365 0 57.0685 13.2648 757 112.478 272.428 471.647
1366 0 59.0953 11.7607 695 115.314 273.742 467.797
1367 0 63.1607 14.851 938 109.947 274.514 470.096
1368 0 66.0693 14.4394 954 114.084 273.72 466.734
1369 0 65.0504 12.1752 792 120.902 274.508 465.357
1370 0 70.0919 12.9972 911 119.067 275.169 466.451
1371 0 72.0918 11.9154 859 120.357 275.288 467.136
1372 0 76.1825 12.9426 986 118.941 275.984 465.076
1373 0 81.1204 14.423 1170 114.639 276.372 463.031
1374 0 82.1482 12.7574 1048 116.951 277.449 460.545
1375 0 83.2485 12.5408 1044 118.577 276.164 462.758
1376 0 88.2799 12.3358 1089 115.726 277.441 466.213
1377 0 88.3433 8.98766 794 121.353 276.792 467.865
1378 0 90.2553 10.1379 915 122.07 276.757 462.881
1379 1 45.1895 8.09922 366 116.847 275.866 490.568
1380 0 48.0623 11.6099 558 112.588 276.995 488.26
1381 0 48.0338 10.1179 486 113.986 276.233 490.621
1382 0 50.0363 11.5316 577 114.073 276.296 486.262
1383 0 59.1677 13.7237 812 105.365 274.847 482.187
1384 0 58.187 11.5146 670 110.431 274.404 480.79
1385 0 60.0865 14.9784 900 105.893 273.758 481.094
1386 0 61.0926 13.9951 855 112.754 272.03 478.883
1387 0 62.0459 12.4585 773 115.422 269.928 479.508
1388 0 66.0754 13.2425 875 110.861 271.103 479.965
1389 0 66.0456 10.0537 664 119.264 269.822 480.155
1390 0 69.1221 11.0384 763 117.625 269.503 478.062
1391 0 69.1116 10.4179 720 119.376 269.442 474.101
1392 0 77.2454 11.0168 851 116.361 269.427 474.911
1393 1 39.1191 9.02373 353 116.159 270.453 491.365
1394 0 40.0687 13.1275 526 107.129 269.8 488.27
1395 0 40.0542 10.3859 416 114.901 269.238 487.57
1396 0 41.125 10.772 443 113.379 269.792 488.646
1397 0 42.0514 11.0341 464 112.56 268.058 488.472
1398 0 41.038 10.5512 433 113.748 268.568 486.947
1399 0 42.1011 10.1422 427 117.049 268.206 482.152
1400 0 46.1759 10.2001 471 116.299 268.826 482.732
1401 0 46.08 9.87414 455 115.69 269.237 484.323
1402 0 55.0578 16.9821 935 103.302 269.339 470.318
1403 0 53.1348 11.9884 637 115.165 268.717 473.352
1404 0 54.1981 13.1923 715 115.815 268.531 472.622
1405 0 52.1531 12.6551 660 118.279 269.212 473.408
1406 0 56.0566 13.0047 729 116.126 270.119 470.963
1407 0 57.0831 12.3329 704 117.984 271.327 470.22
1408 0 58.0839 11.6556 677 119.898 272.526 470.941
1409 0 62.1671 13.5442 842 117.209 272.298 470.475
1410 0 62.1152 13.6843 850 118.773 273.079 469.024
1411 0 63.1508 11.9397 754 124.044 274.33 466.834
1412 0 66.2344 12.184 807 123.047 273.662 466.537
1413 0 72.2107 14.707 1062 118.189 274.786 468.436
1414 0 76.3743 16.1049 1230 116.782 276.162 463.52
1415 0 77.2425 14.9788 1157 120.575 276.82 464.369
1416 0 79.345 14.3928 1142 123.607 277.715 465.72
1417 0 81.1885 12.9698 1053 124.435 276.829 467.365
1418 0 83.1665 13.3347 1109 124.103 276.967 464.864
1419 0 88.2103 14.7715 1303 123.384 276.919 465.438
1420 1 47.0843 12.6582 596 121.544 276.441 487.144
1421 0 48.0114 12.7678 613 121.047 276.013 487.884
1422 0 47.071 13.1079 617 124.185 275.697 484.7
1423 0 50.2782 11.5159 579 128.44 275.87 480.739
1424 0 50.1427 12.6439 634 128.161 276.435 482.785
1425 0 50.107 12.9124 647 124.212 276.247 485.294
1426 0 51.0886 13.4668 688 122.791 274.741 488.243
1427 0 52.1018 15.0283 783 121.876 273.939 485.447
1428 0 58.2352 12.7758 744 123.375 274.469 486.77
1429 0 59.1555 12.1544 719 128.789 273.424 484.719
1430 0 61.1434 13.4602 823 124.9 273.1 483.35
1431 0 62.2639 12.3988 772 127.464 271.052 480.689
1432 0 65.115 15.5264 1011 118.915 270.326 480.685
1433 0 67.0991 13.6067 913 122.805 269.702 479.959
1434 0 66.2056 12.2195 809 126.782 270.293 477.415
1435 0 68.1389 12.3865 844 127.025 269.185 477.733
1436 0 73.2736 12.3783 907 125.291 269.164 475.678
1437 0 82.3927 17.4166 1435 114.901 268.474 466.753
1438 0 81.1269 16.6776 1353 117.506 268.961 465.802
1439 0 81.1436 13.6794 1110 121.406 268.46 466.168
1440 0 84.1384 10.7204 902 125.823 266.212 468.683
1441 1 130.228 13.7989 1797 124.368 265.858 441.096
1442 0 131.39 11.5382 1516 129.149 267.282 439.429
1443 1 93.245 14.8641 1386 118.012 267.613 462.244
1444 1 51.1696 12.3511 632 121.565 268.641 482.396
1445 0 52.4157 11.5805 607 123.562 268.135 462.97
1446 0 53.2137 12.4404 662 119.915 269.159 463.707
1447 0 56.0942 12.996 729 122.582 268.324 459.853
1448 0 57.119 12.9729 741 122.026 269.502 462.405
1449 0 58.0844 12.9983 755 121.023 269.554 467.385
1450 0 60.108 12.8103 770 122.1 269.653 466.847
1451 0 62.08 13.4182 833 121.568 272.068 466.838
1452 0 64.0731 16.4968 1057 115.279 271.943 465.598
1453 0 67.1609 14.4876 973 118.23 273.154 466.846
1454 0 70.1191 13.6767 959 119.023 273.266 467.356
1455 0 71.2981 15.4001 1098 118.217 274.036 462.24
1456 0 75.1159 14.7905 1111 117.537 275.086 465.909
1457 0 75.2821 13.5889 1023 117.008 274.744 464.684
1458 0 76.1777 12.8253 977 118.984 275.501 465.019
1459 0 80.335 11.813 949 118.977 275.759 467.102
1460 0 83.2379 13.2392 1102 118.024 276.8 460.183
1461 0 84.4771 14.3826 1215 115.867 276.465 463.415
1462 0 84.2019 11.6149 978 119.866 277.154 466.566
1463 0 88.3259 14.4239 1274 116.378 276.887 465.137
1464 0 91.472 13.5014 1235 118.67 276.589 463.542
1465 1 50.1733 11.6596 585 115.819 276.026 487.773
1466 0 50.2896 13.303 669 113.082 275.253 487.547
1467 0 51.0907 12.4876 638 113.387 275.934 476.27
1468 0 53.1901 11.0735 589 115.711 274.301 479.323
1469 0 55.3515 10.4243 577 115.419 272.64 483.21
1470 0 56.1545 12.9642 728 115.775 274.505 481.497
1471 0 60.1533 14.9618 900 114.26 273.954 475.88
1472 0 62.2163 14.4174 897 113.563 272.167 481.631
1473 0 63.3267 13.8646 878 115.699 271.572 480.502
1474 0 66.1079 13.9772 924 114.456 270.604 481.488
1475 0 66.2375 11.8664 786 119.784 270.075 477.667
1476 0 69.279 12.76 884 118.347 270.128 479.587
1477 0 71.2674 11.1411 794 120.563 269.21 479.341
1478 0 76.1901 13.2826 1012 116.635 269.283 476.618
1479 0 78.256 14.3248 1121 114.032 267.735 476.054
1480 0 77.2272 13.3891 1034 117.544 268.541 472.195
1481 0 82.1985 15.8154 1300 113.989 267.636 466.06
1482 0 84.2728 12.9342 1090 118.075 267.491 466.146
1483 0 86.1108 13.5871 1170 117.527 267.532 464.971
1484 0 94.3512 11.8705 1120 120.683 267.913 458.292
1485 1 47.067 9.96453 469 116.896 266.264 481.478
1486 0 49.2421 11.1896 551 115.396 267.276 480.711
1487 0 51.0426 13.9687 713 110.4 267.532 480.316
1488 0 52.1012 9.28961 484 118.775 268.421 476.996
1489 0 55.1202 12.373 682 111.814 268.27 479.76
1490 0 57.092 12.6112 720 113.297 269.389 470.299
1491 0 59.0877 12.1345 717 112.699 269.752 472.948
1492 0 60.0957 11.6647 701 115.974 270.632 469.136
1493 0 60.3987 12.583 760 115.542 270.687 467.322
1494 0 65.1499 12.6478 824 114.606 271.65 467.282
1495 0 69.3502 13.8572 961 118.388 271.81 465.071
1496 0 71.1371 13.0312 927 120.157 272.528 462.935
1497 0 71.1794 12.3491 879 122.341 274.142 464.042
1498 0 74.6641 12.362 923 121.159 274.524 463.454
1499 0 78.1188 11.1881 874 122.304 273.816 462.736
1500 0 82.3371 12.2666 1010 115.939 276.349 464.426
1501 0 86.3112 16.1277 1392 111.505 276.08 460.241
1502 0 86.2777 13.5725 1171 116.582 276.447 462.235
1503 0 85.2025 13.1804 1123 116.538 275.996 465.228
1504 0 90.2204 12.4473 1123 117.28 276.31 463.236
1505 0 94.3311 11.8519 1118 117.86 276.987 461.672
1506 0 96.1775 12.6329 1215 116.138 275.838 465.647
1507 1 54.3651 14.0163 762 114.451 277.13 479.097
1508 0 55.0306 11.2119 617 120.669 277.327 468.07
1509 0 58.1903 15.7758 918 113.336 278.039 469.447
1510 0 58.0376 9.95906 578 123.531 276.244 471.853
1511 0 61.1247 12.7772 781 119.549 276.113 473.886
1512 0 61.1591 12.3939 758 120.431 275.693 476.889
1513 0 62.1143 10.2875 639 124.077 274.797 480.879
1514 0 67.0669 12.6143 846 120.417 273.688 479.099
1515 0 68.1678 13.0707 891 118.576 272.905 480.215
1516 0 71.0689 13.1 931 117.9 271.681 480.048
1517 0 75.2114 12.9635 975 117.766 271.586 475.729
1518 0 76.1923 13.9778 1065 116.759 270.974 472.718
1519 0 80.2834 17.4258 1399 110.446 270.825 472.858
1520 1 43.0767 9.88934 426 116.836 269.768 489.845
1521 0 46.0448 10.0554 463 116.438 268.978 489.035
1522 0 47.1553 12.5967 594 112.911 268.99 486.724
1523 0 48.0937 9.83496 473 117.334 268.465 486.345
1524 0 51.0543 11.5171 588 116.221 268.039 485.575
1525 0 48.1315 10.4713 504 118.804 268.621 483.825
1526 0 49.096 14.2985 702 113.135 267.926 482.165
1527 0 54.1842 12.236 663 114.065 268.166 481.167
1528 0 55.163 10.3874 573 118.473 268.846 480.084
1529 0 57.0851 13.8565 791 112.79 268.442 474.377
1530 0 60.0724 13.4005 805 117.815 269.749 471.878
1531 0 61.117 14.2023 868 116.575 269.915 470.809
1532 0 63.0899 12.7754 806 116.536 269.301 470.047
1533 0 64.198 11.8384 760 117.439 269.325 466.841
1534 0 68.1911 15.0753 1028 111.467 269.819 470.939
1535 0 70.1412 13.9433 978 113.393 270.812 466.541
1536 0 71.2342 12.4659 888 114.938 271.658 467.673
1537 0 74.1452 11.7202 869 115.667 272.429 464.688
1538 0 78.3227 13.189 1033 113.561 272.304 462.076
1539 0 80.5413 13.7942 1111 112.653 273.487 462.439
1540 1 44.2354 9.85636 436 116.968 274.55 478.406
1541 0 45.1133 14.2308 642 111.861 276.072 479.53
1542 0 45.2229 15.3683 695 110.724 275.894 479.027
1543 0 45.0345 11.6133 523 111.004 274.931 482.199
1544 0 47.2267 14.568 688 105.731 275.734 482.096
1545 0 48.13 14.3985 693 105.074 275.475 484.625
1546 0 49.0818 14.4657 710 106.949 276.255 482.615
1547 0 52.0337 12.5688 654 107.989 275.87 481.933
1548 0 57.1239 18.1535 1037 98.6606 275.303 473.389
1549 0 60.1357 18.9239 1138 97.1722 275.649 476.644
1550 0 58.2403 16.638 969 102.423 275.878 477.608
1551 0 56.1072 9.39274 527 113.717 276.397 480.581
1552 0 63.3443 12.7241 806 112.475 276.824 479.34
1553 0 61.2518 13.6976 839 108.782 276.223 484.211
1554 0 61.0848 11.1157 679 112.848 273.832 480.778
1555 0 66.1317 12.8683 851 109.321 274.626 481.523
1556 0 68.2179 11.3313 773 111.515 273.814 481.497
1557 0 71.251 12.3226 878 109.547 272.272 481.158
1558 0 74.2798 11.6586 866 109.589 272.344 478.378
1559 1 40.1446 11.06 444 110.318 271.083 491.025
1560 0 43.0245 11.1797 481 109.565 271.416 486.374
1561 0 42.0544 10.106 425 112.209 270.659 489.174
1562 0 38.0059 5.60439 213 117.357 269.535 488.944
1563 0 45.0846 10.0921 455 108.798 270.343 491.571
1564 0 45.0971 11.1981 505 106.907 268.727 489.493
1565 0 49.083 11.5722 568 106.859 268.315 485.725
1566 0 43.143 8.13574 351 114.501 267.781 483.877
1567 0 49.1863 11.121 547 108.358 266.62 481.152
1568 1 98.3199 12.9475 1273 107.908 268.71 463.518
1569 1 117.263 5.88422 690 113.399 269.161 470.548
1570 1 58.1152 12.8194 745 107.385 269.262 474.569
1571 0 58.1138 12.8885 749 118.146 270.284 474.595
1572 0 59.1571 9.73678 576 114.128 268.559 469.075
1573 0 64.2077 14.7023 944 105.901 267.486 468.16
1574 0 67.1454 10.4996 705 106.111 268.772 473.98
1575 0 64.1655 12.3742 794 108.364 268.354 466.79
1576 0 69.2333 9.77853 677 110.821 269.939 469.604
1577 0 69.2333 9.76408 676 131.578 270.985 469.778
1578 0 73.2176 11.7321 859 109.045 272.231 467.726
1579 0 80.3332 14.527 1167 105.511 272.737 461.108
1580 0 81.5509 13.8196 1127 107.103 272.335 455.746
1581 1 45.1569 12.5119 565 108.287 272.973 475.46
1582 0 44.2693 12.8531 569 109.283 274.22 474.429
1583 0 46.0934 9.89297 456 114.502 275.022 478.013
1584 0 51.1168 16.7264 855 102.735 274.17 475.241
1585 0 45.1253 10.1052 456 107.476 275.208 480.811
1586 0 48.1396 11.4251 550 105.093 275.04 479.964
1587 0 55.1848 9.67658 534 106.974 275.504 479.129
1588 0 53.1774 8.19897 436 111.037 275.562 476.323
1589 0 55.0365 12.4463 685 106.337 275.673 474.677
1590 0 58.1632 11.7428 683 106.915 276.48 476.644
1591 0 57.1869 9.9848 571 112.116 275.685 472.851
1592 0 60.0682 10.7877 648 110.103 275.776 474.826
1593 0 60.1733 9.65545 581 111.312 274.957 477.461
1594 0 64.1031 11.4035 731 110.021 275.468 478.094
1595 0 64.1195 11.5409 740 111.177 274.534 477.599
1596 0 69.3127 11.5275 799 110.826 274.661 475.18
1597 0 70.3557 11.7546 827 112.34 273.503 473.395
1598 0 76.2084 10.8781 829 110.545 273.767 480.502
1599 0 77.2325 12.922 998 108.889 273.297 474.815
1600 0 79.0594 13.5594 1072 109.098 271.196 472.393
1601 0 86.1734 14.0531 1211 108.718 272.068 478.718
1602 1 41.0417 7.72385 317 115.685 269.256 493.066
1603 0 41.1061 9.2687 381 112.444 269.619 492.071
1604 0 46.0469 8.46963 390 112.785 270.146 492.2
1605 0 48.1125 13.7594 662 106.042 269.55 486.341
1606 0 48.0554 10.3006 495 111.325 269.4 483.436
1607 0 50.1471 21.1378 1060 95.7047 270.05 481.919
1608 1 103.382 11.0754 1145 112.562 269.578 463.952
1609 1 62.0431 7.75267 481 107.819 269.516 488.977
1610 0 61.1334 15.8506 969 99.451 269.418 476.507
1611 0 59.3287 12.9954 771 104.742 269.158 479.34
1612 0 60.064 13.3524 802 105.02 268.401 473.657
1613 0 62.038 10.8159 671 108.016 269.018 476.522
1614 0 64.1801 11.3431 728 108.527 267.602 472.775
1615 0 61.2774 11.0971 680 110.424 268.674 472.947
1616 0 66.2275 11.3699 753 108.907 266.833 471.968
1617 0 69.1606 14.4446 999 105.86 268.84 465.869
1618 0 71.3593 11.6593 832 108.516 267.838 469.779
1619 0 74.2813 12.7084 944 108.757 268.606 464.706
1620 0 79.2037 12.2722 972 108.086 269.262 462.053
1621 0 77.2372 11.3287 875 111.21 270.686 457.558
1622 0 78.1407 9.34213 730 114.568 270.271 460.273
1623 0 82.0544 13.9176 1142 109.689 271.914 456.665
1624 1 129.563 11.8707 1538 116.01 272.834 439.045
1625 0 137.366 11.2692 1548 115.156 272.773 438.846
1626 1 93.342 15.0736 1407 100.942 273.4 463.227
1627 0 93.1537 10.9496 1020 113.132 275.005 457.414
1628 0 97.4506 13.0733 1274 106.478 275.513 460.838
1629 0 99.2819 14.7157 1461 105.789 275.395 453.33
1630 1 62.238 22.7835 1418 89.0099 276.194 472.816
1631 0 58.0414 14.6792 852 99.4061 275.075 473.144
1632 0 58.1351 12.0581 701 103.906 275.909 472.023
1633 0 58.1351 12.0753 702 121.64 276.92 472.003
1634 0 58.1307 14.2954 831 104.13 276.339 475.568
1635 0 63.0751 12.2077 770 105.2 277.057 477.525
1636 0 63.066 12.0984 763 106.598 275.465 477.19
1637 0 63.2857 10.9977 696 108.098 275.537 474.307
1638 0 67.0909 13.4892 905 104.657 275.325 479.794
1639 0 67.3327 10.2179 688 110.916 274.794 475.312
1640 0 72.1877 11.9272 861 107.738 274.753 475.822
1641 0 77.1586 14.5544 1123 105.992 273.323 473.753
1642 0 80.2555 14.5037 1164 105.319 273.735 474.491
1643 0 79.1967 12.3995 982 108.898 271.844 475.151
1644 0 86.348 10.6198 917 108.807 270.797 478.841
1645 0 87.2544 13.3288 1163 108.237 270.171 470.794
1646 0 90.3022 13.6985 1237 107.314 268.848 466.057
1647 0 90.2198 13.6777 1234 103.626 269.028 472.449
1648 0 87.1335 13.1293 1144 108.195 269.471 466.949
1649 0 89.3716 12.1963 1090 109.672 268.551 466.109
1650 1 49.1217 12.9474 636 106.075 268.159 483.739
1651 0 51.0605 14.473 739 103.065 267.667 485.71
1652 0 53.0423 12.556 666 105.348 267.728 486.89
1653 0 59.1628 11.4261 676 106.078 267.206 475.547
1654 0 57.2009 12.6571 724 106.358 267.126 474.659
1655 0 63.0843 15.5031 978 104.837 266.553 473.6
1656 0 63.1713 16.7323 1057 103.972 266.602 472.442
1657 0 63.0814 14.8538 937 106.656 266.91 467.637
1658 0 63.09 12.3316 778 111.51 267.819 471.513
1659 0 65.1303 15.3078 997 107.798 266.913 464.904
1660 0 65.1378 10.0249 653 115.704 268.55 465.185
1661 0 68.0891 12.3808 843 110.928 269.528 466.091
1662 0 73.3872 11.269 827 111.428 269.098 467.701
1663 0 76.1293 16.1699 1231 105.503 269.448 462.257
1664 0 79.2357 14.4884 1148 108.022 271.9 460.416
1665 0 77.1833 11.4792 886 113.781 271.703 460.045
1666 0 83.1772 14.3308 1192 108.36 272.796 454.858
1667 0 84.3494 14.6415 1235 107.569 272.84 459.058
1668 0 88.1995 12.0636 1064 111.039 272.925 458.593
1669 0 88.0861 13.4073 1181 111.743 272.986 453.301
1670 0 92.2306 13.3253 1229 110.795 274.668 454.553
1671 0 94.3051 12.9579 1222 109.818 274.75 455.949
1672 1 50.0757 12.6608 634 105.543 274.774 479.576
1673 0 51.0389 13.7542 702 105.081 273.97 477.312
1674 0 60.1109 15.1387 910 99.156 276.662 468.274
1675 0 63.8252 16.3572 1044 97.9262 276.139 465.96
1676 0 61.1837 13.2552 811 105.753 275.386 474.956
1677 0 62.0682 15.0319 933 106.501 275.521 477.825
1678 0 62.367 10.7429 670 113.233 275.612 478.845
1679 0 62.367 10.6306 663 134.581 275.588 478.846
1680 0 74.4188 12.6043 938 107.468 273.74 480.769
1681 0 69.0975 13.5316 935 109.52 274.306 480.187
1682 0 73.0629 16.0957 1176 106.665 274.195 477.117
1683 0 76.1124 13.6509 1039 109.779 274.36 479.987
1684 0 78.1806 11.6013 907 113.924 273.519 477.806
1685 0 83.242 14.3197 1192 112.775 273.507 470.795
1686 0 84.1204 11.5549 972 115.499 272.568 474.011
1687 0 87.1918 14.9211 1301 110.058 271.304 475.286
1688 0 88.1798 12.7353 1123 113.893 270.453 470.851
1689 0 94.1327 12.9604 1220 113.539 270.82 468.55
1690 1 49.0158 10.4252 511 115.225 268.288 489.078
1691 0 51.0967 14.0126 716 111.641 267.172 487.64
1692 0 52.071 14.7875 770 113.456 267.597 481.753
1693 0 54.3178 15.1884 825 112.514 268.039 482.165
1694 0 55.0409 11.5369 635 113.605 267.575 481.299
1695 0 56.0638 14.0197 786 110.52 267.103 476.672
1696 0 60.1478 14.1817 853 114.035 266.13 476.701
1697 0 63.3052 12.0685 764 117.709 267.623 476.059
1698 0 65.1922 17.6862 1153 108.364 267.084 473.519
1699 0 68.1423 14.2643 972 113.185 266.605 471.079
1700 0 69.1452 12.2351 846 118.837 266.522 471.939
1701 0 73.1938 15.5068 1135 112.318 266.337 470.042
1702 0 75.1092 11.9426 897 117.693 267.348 465.339
1703 0 77.0916 14.1779 1093 113.229 266.78 466.042
1704 0 79.2471 13.1866 1045 115.025 267.629 464.014
1705 0 82.164 12.9984 1068 115.769 267.584 455.328
1706 0 85.1707 15.5335 1323 112.154 268.797 457.982
1707 0 89.2891 13.7531 1228 113.038 269.318 457.823
1708 0 90.2126 11.6946 1055 116.068 270.538 454.639
1709 0 95.1971 11.3344 1079 115.034 270.47 455.283
1710 0 99.4483 11.4532 1139 116.127 272.128 449.861
1711 0 103.328 12.7458 1317 112.427 273.44 450.221
1712 0 101.161 14.818 1499 110.037 273.996 451.447
1713 0 107.233 12.5988 1351 113.256 275.368 448.398
1714 1 58.1169 14.2988 831 103.529 275.129 476.012
1715 0 59.1807 12.4196 735 107.088 276.039 472.558
1716 0 60.1888 10.4006 626 113.046 276.478 473.067
1717 0 62.1854 12.7361 792 107.936 275.72 474.696
1718 0 64.1952 10.4681 672 111.68 276.674 476.094
1719 0 68.1517 11.8412 807 110.496 276.331 473.999
1720 0 69.0692 9.55564 660 113.973 276.067 475.509
1721 0 73.2324 14.256 1044 106.461 275.194 473.734
1722 0 73.2872 13.0446 956 109.952 275.269 473.786
1723 0 79.2362 13.7437 1089 108.931 273.804 472.982
1724 0 82.5469 15.7971 1304 106.202 274.341 467.357
1725 0 82.2117 12.0421 990 113.167 273.997 468.451
1726 0 86.2428 12.43 1072 112.01 272.799 470.64
1727 0 90.3444 13.7585 1243 110.066 272.344 470.848
1728 0 90.3892 13.121 1186 110.551 272.724 472.237
1729 0 92.3679 12.5152 1156 114.139 271.499 462.356
1730 0 98.3712 10.7044 1053 112.679 270.94 471.809
1731 1 58.1492 9.37243 545 109.646 269.358 487.132
1732 0 57.2219 11.5515 661 108.623 269.762 482.201
1733 0 55.1655 11.9278 658 109.275 269.286 482.596
1734 0 60.1534 13.2993 800 105.424 268.326 479.444
1735 0 57.2153 15.2931 875 102.706 266.961 480.491
1736 0 62.1074 19.2731 1197 97.4077 267.877 478.003
1737 0 61.1201 16.0013 978 104.045 268.655 477.325
1738 0 64.1757 14.3356 920 105.895 268.213 475.514
1739 0 63.2488 12.5062 791 111.9 267.707 477.191
1740 0 67.2307 13.1636 885 111.707 267.585 474.288
1741 0 67.2695 12.6655 852 113.214 268.333 470.662
1742 0 70.2246 14.3112 1005 110.789 267.886 470.888
1743 0 71.2171 11.6264 828 117.092 267.99 464.971
1744 0 78.1851 14.6447 1145 110.741 267.652 460.934
1745 0 78.3205 12.6021 987 115.503 268.099 460.709
1746 0 80.1603 12.5 1002 114.819 268.458 459.885
1747 0 83.1206 12.921 1074 115.054 269.863 457.604
1748 0 85.3047 12.9887 1108 115.541 270.023 457.01
1749 0 90.208 13.3691 1206 115.578 269.552 455.625
1750 0 98.1153 14.4728 1420 113.669 270.463 453.965
1751 0 96.1951 14.2003 1366 114.624 271.544 445.928
1752 0 98.3484 17.9972 1770 109.245 271.297 446.001
1753 0 101.162 14.3236 1449 110.393 271.189 448.4
1754 0 111.297 14.9419 1663 111.679 272.491 439.56
1755 1 57.1035 12.2409 699 113.79 271.94 469.249
1756 0 63.105 12.8041 808 115.6 274.52 462.942
1757 0 64.187 13.1958 847 114.628 273.646 460.277
1758 0 63.2847 12.6413 800 116.839 275.158 462.119
1759 0 64.3956 13.1841 849 116.498 275.357 462.024
1760 0 67.1143 11.9051 799 115.967 275.111 465.287
1761 0 67.2158 13.5682 912 113.737 275.136 469
1762 0 72.1059 14.8809 1073 110.954 275.112 466.906
1763 0 75.0937 16.4861 1238 107.682 274.552 471.252
1764 0 77.0907 13.8538 1068 111.701 274.734 470.386
1765 0 83.1506 14.1671 1178 110.696 275.334 468.135
1766 0 84.3357 11.5847 977 114.645 274.036 469.328
1767 0 86.2513 11.71 1010 113.551 274.236 474.669
1768 0 84.1455 14.3799 1210 112.081 273.332 470.119
1769 0 86.3224 11.2949 975 115.116 274.239 475.367
1770 0 90.3938 10.6755 965 118.349 273.09 467.881
1771 1 65.1197 9.61306 626 118.141 271.866 479.435
1772 0 66.1399 10.0847 667 115.322 271.007 481.414
1773 0 57.1526 9.16843 524 119.954 269.395 472.233
1774 0 61.2482 10.9391 670 114.71 269.378 474.952
1775 0 63.1736 11.3972 720 116.017 268.742 474.438
1776 0 66.2858 17.8017 1180 104.49 267.49 474.571
1777 0 69.2812 14.8525 1029 108.708 267.157 476.324
1778 0 67.1342 12.9889 872 112.055 267.648 476.875
1779 0 71.0543 15.4389 1097 107.751 267.111 471.14
1780 0 72.0717 14.333 1033 109.768 266.533 469.362
1781 0 75.0396 16.8311 1263 105.481 267.529 472.051
1782 0 76.0707 12.8302 976 113.533 267.17 468.19
1783 0 80.175 13.4331 1077 111.9 266.952 465.633
1784 0 84.211 17.5393 1477 105.455 267.496 462.634
1785 0 84.1182 15.0146 1263 109.489 266.272 461.32
1786 0 89.1577 18.1588 1619 105.104 266.933 458.17
1787 0 89.1991 17.3096 1544 105.891 266.791 463.563
1788 0 91.2339 13.3393 1217 113.287 266.74 458.843
1789 0 95.1384 15.5142 1476 110.007 266.712 451.83
1790 0 100.295 15.3049 1535 110.49 268.027 451.792
1791 0 104.254 15.2224 1587 110.707 267.987 448.273
1792 0 112.289 22.2995 2504 100.974 268.676 434.116
1793 0 114.398 16.7573 1917 109.027 268.838 437.744
1794 0 114.345 14.4912 1657 113.098 270.148 436.337
1795 1 66.0484 11.5219 761 112.331 269.92 462.807
1796 0 68.1941 13.3003 907 108.999 271.793 462.211
1797 0 68.0781 13.6608 930 109.313 270.804 464.194
1798 0 71.1163 18.6033 1323 98.4694 272.077 470.949
1799 0 69.1667 13.4747 932 109.516 273.141 463.931
1800 0 75.0914 14.1028 1059 106.378 272.297 464.89
1801 0 79.1484 12.6219 999 109.211 272.838 462.028
1802 0 77.1722 11.2346 867 112.536 272.715 458.866
1803 0 82.1152 12.0197 987 110.707 273.839 457.033
1804 1 162.544 14.7468 2397 117.544 274.381 418.473
1805 0 168.623 13.9898 2359 118.557 274.537 417.287
1806 1 88.2353 12.0247 1061 109.74 273.799 467.86
1807 0 92.2639 8.35646 771 116.13 275.424 464.656
1808 0 99.5316 14.2066 1414 109.341 274.32 459.888
1809 0 100.307 12.9103 1295 110.013 275.573 461.513
1810 1 57.1095 12.082 690 109.017 274.288 478.696
1811 0 62.1876 12.0764 751 108.646 275.136 477.955
1812 0 64.2554 11.7189 753 110.576 274.514 479.43
1813 0 65.148 20.6299 1344 96.2448 274.535 483.78
1814 0 64.3254 10.3225 664 113.364 272.447 478.306
1815 0 64.2141 10.3871 667 114.783 272.174 475.408
1816 0 68.2026 12.4189 847 111.318 270.767 478.19
1817 0 70.2831 14.9823 1053 107.482 270.293 476.143
1818 0 72.2038 11.8138 853 112.372 269.53 473.322
1819 0 73.244 6.8538 502 118.99 268.462 471.982
1820 0 76.3465 11.6312 888 112.602 268.42 471.264
1821 0 77.2997 13.6611 1056 108.945 268.564 468.464
1822 0 80.2064 8.66514 695 114.751 268.355 470.866
1823 0 86.3354 15.5093 1339 105.515 267.651 460.99
1824 0 86.428 12.253 1059 110.691 267.105 463.585
1825 0 87.1737 12.6873 1106 108.893 266.794 464.779
1826 0 89.2851 10.5953 946 111.751 266.636 461.279
1827 0 94.213 11.007 1037 110.05 266.472 458.249
1828 0 98.3612 15.0974 1485 104.677 266.238 451.958
1829 0 108.281 12.8924 1396 102.154 266.231 433.042
1830 0 110.26 19.463 2146 96.4063 266.302 440.811
1831 0 109.218 16.5999 1813 99.487 266.164 436.543
1832 0 114.204 12.1362 1386 104.576 266.22 446.223
1833 1 62.1699 11.8868 739 105.34 267.054 467.165
1834 0 64.3436 8.34582 537 114.285 267.929 464.646
1835 0 62.2251 13.1458 818 108.653 267.889 464.617
1836 0 65.3133 11.3453 741 112.094 268.992 465.206
1837 0 69.2741 13.2373 917 110.721 269.136 460.711
1838 0 70.2665 13.4061 942 110.893 271.128 460.377
1839 0 72.2972 13.1955 954 111.741 271.253 461.486
1840 0 77.5122 14.63 1134 109.876 271.031 459.999
1841 0 80.3124 13.1486 1056 111.902 271.557 460.004
1842 0 80.2283 13.4367 1078 106.661 272.68 458.324
1843 0 83.3168 12.9026 1075 108.603 272.593 458.2
1844 0 81.3764 9.0321 735 116.343 273.307 457.529
1845 0 89.1803 13.254 1182 108.764 273.342 456.384
1846 0 93.2483 12.086 1127 111.093 274.528 455.73
1847 0 93.3314 15.3646 1434 106.175 274.907 458.958
1848 0 97.415 14.0635 1370 109.904 275.407 450.196
1849 1 52.0545 10.5659 550 112.627 275.058 477.689
1850 0 54.1171 11.9001 644 111.91 275.525 475.95
1851 0 60.2301 11.0244 664 108.911 276.696 480.532
1852 0 58.1523 13.9117 809 107.995 275.852 481.481
1853 0 63.2075 11.1537 705 111.19 273.704 481.706
1854 0 62.173 14.2506 886 109.453 274.105 481.597
1855 0 63.0904 11.6658 736 115.613 274.133 476.262
1856 0 65.1646 12.1385 791 115.101 273.882 479.35
1857 0 66.1578 12.5911 833 115.438 272.543 477.501
1858 0 69.1538 11.4383 791 117.397 271.539 476.889
1859 0 71.146 13.5496 964 113.541 270.495 474.758
1860 0 74.2094 13.9605 1036 112.32 269.481 476.411
1861 0 75.0852 13.9308 1046 110.583 269.076 476.055
1862 0 78.134 14.7183 1150 109.75 268.73 471.269
1863 0 83.0728 13.5544 1126 113.468 268.894 464.108
1864 0 81.196 10.7394 872 114.279 267.156 470.709
1865 0 79.1286 13.7877 1091 111.638 266.569 467.016
1866 0 80.0854 11.6376 932 112.955 266.565 469.352
1867 0 88.238 14.7442 1301 107.012 265.551 467.053
1868 0 93.5028 11.9248 1115 109.548 265.625 465.754
1869 0 92.1711 12.0862 1114 111.836 265.902 461.175
1870 0 93.2263 15.0065 1399 107.436 266.655 460.259
1871 1 67.2825 8.56092 576 111.234 265.472 477.01
1872 0 69.1527 11.236 777 111.623 265.507 472.187
1873 0 69.3815 9.78647 679 111.795 264.822 472.053
1874 0 60.1256 9.82942 591 110.301 267.088 465.491
1875 0 61.2704 11.7512 720 109.153 267.711 467.031
1876 0 63.1265 13.0373 823 111.214 266.343 466.767
1877 0 64.0974 12.6214 809 112.13 266.755 463.1
1878 0 68.128 14.1205 962 109.441 267.991 465.394
1879 0 70.2778 12.536 881 111.983 268.759 461.362
1880 0 73.3167 14.5942 1070 109.321 269.619 462.405
1881 0 76.4079 16.9092 1292 105.848 271.217 461.676
1882 0 77.2066 12.3435 953 114.831 272.535 458.043
1883 0 77.3739 15.0955 1168 110.08 272.308 459.048
1884 0 85.244 17.4675 1489 104.162 273.642 449.434
1885 0 88.6635 22.2301 1971 98.3683 273.008 453.51
1886 0 87.3611 17.7768 1553 101.897 271.927 464.472
1887 0 89.4233 17.1432 1533 106.069 273.886 456.057
1888 0 94.2643 15.4353 1455 107.836 273.63 455.964
1889 0 95.3647 14.1038 1345 110.251 275.088 455.472
1890 0 98.4946 16.3359 1609 107.369 275.273 449.403
1891 0 103.204 15.203 1569 108.06 275.765 448.271
1892 0 113.288 17.6894 2004 103.302 274.677 442.243
1893 0 114.381 17.4854 2000 104.57 275.29 443.512
1894 1 62.1716 10.6801 664 114.604 272.928 474.024
1895 0 63.1621 13.3783 845 109.831 272.8 476.014
1896 0 64.1679 10.9089 700 112.649 273.41 475.237
1897 0 67.3327 13.8566 933 109.86 273.165 474.278
1898 0 67.3183 11.7947 794 112.848 273.817 475.134
1899 0 69.6929 12.4259 866 108.692 273.997 481.487
1900 0 72.6228 13.398 973 108.053 272.633 478.761
1901 0 74.32 13.6572 1015 109.489 271.531 473.204
1902 0 79.8827 14.3335 1145 107.25 272.163 474.182
1903 0 79.709 11.7051 933 113.443 270.687 469.317
1904 0 85.5288 14.1356 1209 106.921 270.849 474.115
1905 0 84.5574 11.7672 995 112.663 269.399 471.42
1906 0 87.3726 10.5067 918 115.678 270.019 469.4
1907 0 87.4592 10.8508 949 116.767 269.925 466.227
1908 0 93.4256 12.4591 1164 111.97 268.9 463.895
1909 0 93.4384 10.927 1021 110.34 267.446 467.395
1910 0 100.497 14.7069 1478 107.203 268.518 438.005
1911 0 105.227 13.7037 1442 107.305 267.433 438.924
1912 0 104.254 12.9684 1352 108.734 267.853 443.709
1913 0 108.532 15.9216 1728 104.277 266.646 441.784
1914 1 59.1288 12.9717 767 107.047 267.562 463.475
1915 0 62.0459 12.8292 796 105.79 267.344 467.959
1916 0 66.1508 9.47834 627 110.888 267.327 470.815
1917 0 65.2403 13.8871 906 106.142 267.323 467.01
1918 0 69.1796 11.8098 817 109.295 268.239 463.376
1919 0 72.487 9.61551 697 112.23 268.198 463.22
1920 0 72.2817 9.21395 666 114.243 269.045 456.077
1921 0 75.2785 11.6368 876 108.675 269.226 459.22
1922 0 79.2929 13.4564 1067 106.37 269.828 459.557
1923 0 79.422 14.8951 1183 106.404 270.128 451.593
1924 0 82.3322 12.8261 1056 111.363 270.777 453.121
1925 0 86.3827 12.9771 1121 110.336 272.57 451.706
1926 0 89.2592 14.1946 1267 108.921 272.668 446.323
1927 0 92.4153 14.5214 1342 107.614 272.713 450.977
1928 0 97.3923 14.919 1453 108.359 273.27 452.159
1929 0 99.3589 15.0968 1500 109.651 274.303 444.09
1930 0 101.559 12.2195 1241 114.915 274.654 444.61
1931 1 53.2947 10.0385 535 111.8 275.912 473.082
1932 0 57.3022 10.7849 618 109.084 276.837 466.673
1933 0 59.3063 11.82 701 111.645 276.78 461.839
1934 0 61.2486 12.7023 778 110.875 276.788 470.302
1935 0 67.1018 14.9921 1006 106.7 277.113 470.125
1936 0 70.1632 13.1408 922 109.164 276.201 473.183
1937 0 70.2887 10.0443 706 110.776 276.378 473.106
1938 0 73.135 9.6944 709 112.382 275.59 471.33
1939 0 71.1685 10.9599 780 111.069 274.724 471.324
1940 0 71.2624 7.97055 568 115.403 272.669 472.116
1941 0 74.2114 12.5722 933 109.164 273.065 472.757
1942 0 81.248 7.5448 613 117.659 273.17 468.222
1943 0 85.2181 12.9785 1106 107.769 272.643 473.448
1944 0 87.2029 13.3138 1161 109.572 271.661 470.118
1945 0 86.386 11.5528 998 110.025 270.206 472.899
1946 0 92.2642 15.1088 1394 108.369 269.786 468.911
1947 0 91.2053 10.8766 992 119.375 268.723 459.135
1948 0 98.3109 16.7733 1649 107.247 268.451 461.485
1949 0 105.599 14.2331 1503 108.564 268.329 451.925
1950 0 112.426 19.9509 2243 99.8123 267.249 442.01
1951 0 109.261 16.813 1837 105.013 266.572 446.184
1952 0 113.176 17.4595 1976 104.347 267.237 448.612
1953 0 113.176 17.4948 1980 127.651 267.241 448.707
1954 0 118.328 13.8935 1644 108.745 267.802 440.267
1955 1 181.278 13.8406 2509 112.574 267.653 419.436
1956 0 183.502 10.801 1982 117.311 267.095 416.453
1957 0 192.254 13.685 2631 112.039 266.442 410.369
1958 1 72.2572 12.3448 892 105.999 268.673 466.362
1959 0 74.1564 10.2756 762 105.955 268.005 464.911
1960 0 76.1879 11.8917 906 103.809 268.515 465.061
1961 0 79.6411 12.4935 995 104.456 267.882 463.573
1962 0 80.073 8.61714 690 112.201 268.788 457.339
1963 0 84.4537 11.8171 998 108.397 269.423 452.755
1964 0 85.3231 12.189 1040 108.767 269.303 449.95
1965 0 91.4261 13.5957 1243 106.033 270.286 450.625
1966 0 96.7741 18.352 1776 98.2393 270.826 456.069
1967 0 93.3506 10.948 1022 110.661 272.504 448.015
1968 0 102.494 11.5324 1182 106.363 273.28 452.876
1969 0 99.5549 13.8316 1377 106.329 273.799 448.566
1970 0 105.227 13.9984 1473 108.162 274.353 430.468
1971 0 108.236 14.413 1560 106.582 274.69 428.945
1972 1 168.576 8.8506 1492 114.292 275.433 416.232
1973 1 114.349 12.9603 1482 106.578 275.344 431.48
1974 0 121.254 15.0263 1822 104.451 274.559 432.349
1975 0 123.339 11.213 1383 110.101 275.115 433.566
1976 0 127.257 12.9659 1650 109.172 275.694 433.588
1977 0 127.597 14.6791 1873 107.79 276.184 442.017
1978 0 134.464 12.0255 1617 111.532 276.437 442.496
1979 0 134.723 10.4808 1412 114.762 275.402 435.363
1980 0 144.621 12.7229 1840 112.026 275.757 431.103
1981 1 78.4863 11.2758 885 111.211 275.216 464.063
1982 0 83.5914 11.3289 947 110.829 274.512 463.409
1983 0 84.3471 14.2862 1205 106.554 273.321 468.483
1984 0 90.3967 13.5293 1223 108.805 273.985 465.533
1985 0 90.121 11.418 1029 109.835 271.492 470.306
1986 0 96.466 21.3858 2063 98.9801 272.073 465.199
1987 0 102.804 16.974 1745 101.176 270.061 451.976
1988 0 103.47 14.3519 1485 105.316 270.865 448.273
1989 0 102.365 21.8434 2236 97.4897 268.453 450.53
1990 0 106.744 15.6449 1670 104.764 269.105 453.246
1991 0 107.469 14.8787 1599 107.443 268.135 445.054
1992 0 114.611 20.0418 2297 100.332 267.64 447.089
1993 0 113.351 14.0273 1590 108.506 267.021 455.056
1994 0 117.493 13.5838 1596 105.222 268.249 446.036
1995 0 121.414 14.7595 1792 102.55 267.109 446.675
1996 0 127.249 13.3518 1699 104.01 266.853 444.53
1997 1 69.1619 15.4709 1070 100.85 266.216 470.436
1998 0 70.1708 13.5526 951 106.107 266.71 469.93
1999 0 72.158 14.9256 1077 104.548 266.154 464.837
2000 0 72.2623 12.8836 931 109.675 266.895 463.019
2001 0 75.273 13.9758 1052 105.079 267.515 463.167
2002 0 78.5264 16.1474 1268 100.36 267.158 469.791
2003 0 77.2745 12.6303 976 107.697 267.424 463.855
2004 0 81.2189 10.6133 862 111.738 268.152 456.732
2005 0 83.3883 14.1387 1179 106.663 268.652 459.402
2006 0 85.351 13.2863 1134 108.026 268.535 456.612
2007 0 89.3348 12.3244 1101 109.359 269.401 456.014
2008 0 92.3332 11.1769 1032 110.934 269.95 455.636
2009 0 95.3273 17.7599 1693 102.795 271.043 450.82
2010 0 100.268 14.2918 1433 105.305 272.344 446.306
2011 1 226.492 9.2012 2084 112.741 272.715 416.605
2012 1 115.375 22.2579 2568 94.7597 273.306 430.925
2013 1 64.1054 11.6527 747 109.317 273.06 466.138
2014 0 63.2054 12.8312 811 109.836 274.143 464.465
2015 0 65.256 12.9796 847 109.774 273.92 464.783
2016 0 67.175 15.1247 1016 107.021 275.225 464.789
2017 0 69.2165 13.8551 959 108.681 274.368 465.958
2018 0 70.2276 13.0718 918 110.639 275.069 466.015
2019 0 73.2862 12.5535 920 112.173 275.377 462.876
2020 0 75.2454 11.8944 895 113.419 275.346 465.187
2021 0 78.4378 16.3697 1284 105.292 275.893 470.247
2022 0 85.2322 13.7859 1175 109.206 275.594 464.897
2023 0 85.1662 17.0255 1450 102.24 274.919 471.336
2024 0 88.2152 13.3764 1180 108.354 274.502 468.469
2025 0 90.2705 12.8946 1164 110.393 273.086 466.72
2026 0 92.2139 11.3432 1046 112.066 273.529 464.828
2027 1 51.1201 14.8865 761 99.7989 272.143 491.51
2028 0 53.2654 14.2306 758 104.135 273.175 488.187
2029 0 54.2003 13.5977 737 103.954 273.589 485.208
2030 0 54.102 12.4949 676 105.555 272.062 485.8
2031 0 57.1076 13.2382 756 109.385 271.381 473.556
2032 0 57.2069 12.3586 707 111.447 270.117 473.105
2033 0 62.2128 14.7879 920 105.114 270.014 480.593
2034 0 60.2585 12.9608 781 108.052 269.691 480.068
2035 0 63.1583 10.1016 638 112.735 268.701 477.02
2036 0 63.1369 10.7861 681 111.142 268.109 478.539
2037 0 67.2899 14.5639 980 106.936 268.34 475.722
2038 0 69.2107 12.4403 861 110.267 267.736 474.024
2039 0 71.2685 12.9931 926 109.911 268.315 474.178
2040 0 72.2699 17.2271 1245 103.507 267.131 475.738
2041 0 74.3742 10.8505 807 113.906 268.395 465.808
2042 0 83.3182 18.3033 1525 104.23 267.815 462.257
2043 0 82.2426 14.0073 1152 111.307 267.805 463.794
2044 0 82.2087 13.4657 1107 110.645 266.836 461.997
2045 0 85.2932 12.627 1077 110.786 267.826 463.683
2046 0 84.1511 11.1585 939 113.505 268.355 464.948
2047 0 88.2125 12.844 1133 112.783 269.121 457.796
2048 0 92.2365 12.7932 1180 111.065 268.598 459.573
2049 0 96.4042 16.6694 1607 106.892 268.979 453.965
2050 0 105.329 14.0986 1485 109.74 269.277 435.04
2051 1 61.2789 14.5074 889 107.895 269.675 449.516
2052 0 61.1666 14.9755 916 108.967 270.683 450.665
2053 0 62.3338 16.187 1009 109.846 269.668 449.651
2054 0 65.3064 14.5162 948 112.117 269.982 451.819
2055 0 68.3238 12.5139 855 115.215 272.653 453.412
2056 0 64.2973 10.607 682 122.362 272.012 451.048
2057 0 67.5844 15.7729 1066 111.922 273.371 457.325
2058 0 72.2334 11.9058 860 117.215 273.384 462.185
2059 0 73.0476 14.3194 1046 114.971 273.956 461.407
2060 0 75.213 11.6602 877 117.753 274.556 464.493
2061 0 77.2609 12.7102 982 117.396 274.47 462.447
2062 0 80.5152 13.8111 1112 115.827 274.563 462.277
2063 0 82.3431 15.1804 1250 112.951 274.367 463.191
2064 0 84.1137 17.2505 1451 108.147 275.537 462.677
2065 0 83.1662 13.8878 1155 114.948 274.365 459.338
2066 0 87.1841 12.9152 1126 115.464 275.22 465.727
2067 0 86.1309 13.2937 1145 115.3 273.821 463.641
2068 0 94.2863 14.1802 1337 113.067 273.918 463.395
2069 1 53.2134 10.5237 560 115.355 273.243 482.545
2070 0 56.1362 10.2073 573 112.967 272.558 472.637
2071 0 57.3212 14.8985 854 111.562 270.851 472.965
2072 0 58.2831 10.7407 626 118.045 270.11 476.304
2073 0 62.189 11.7545 731 113.077 268.699 475.921
2074 0 60.1319 12.0236 723 115.004 268.878 476.708
2075 0 65.1743 13.4409 876 110.524 269.097 480.09
2076 0 63.1063 13.2158 834 112.941 267.438 478.147
2077 0 67.3016 12.0799 813 115.535 267.017 474.629
2078 0 69.1662 12.4772 863 113.582 266.425 475.46
2079 0 68.3458 11.5589 790 117.33 265.889 471.405
2080 0 76.3575 14.5893 1114 108.561 265.733 476.459
2081 0 75.1893 13.2865 999 112.523 265.89 474.529
2082 0 77.1289 12.8616 992 114.944 266.086 466.062
2083 0 79.2315 12.3436 978 114.615 266.516 470.261
2084 0 79.1563 13.0628 1034 115.305 266.318 464.156
2085 0 83.2899 13.2069 1100 114.738 265.928 462.943
2086 0 86.182 14.0865 1214 113.504 266.604 463.31
2087 0 87.1687 11.8047 1029 117.894 266.338 460.58
2088 0 90.2618 12.4194 1121 115.052 267.745 462.252
2089 0 91.2832 12.6529 1155 116.382 266.785 455.371
2090 0 94.3268 12.4143 1171 116.255 267.175 456.348
2091 0 96.1631 13.1963 1269 115.833 268.348 456.188
2092 0 100.183 15.1823 1521 113.011 269.738 455.462
2093 1 113.691 21.1449 2404 101.726 270.089 435.578
2094 1 56.3092 10.9751 618 117.492 269.456 458.762
2095 0 60.3614 13.7008 827 109.248 271.109 459.123
2096 0 60.4185 12.5955 761 112.735 270.154 458.264
2097 0 62.1683 12.8361 798 114.312 271.841 459.407
2098 0 61.1282 10.8624 664 118.373 271.989 462.673
2099 0 62.3692 12.8589 802 115.406 272.344 463.453
2100 0 68.2012 12.8444 876 114.693 272.876 466.86
2101 0 66.1649 9.94485 658 118.122 273.816 471.299
2102 0 70.1581 13.6121 955 114.423 274.061 467.569
2103 0 71.1271 11.9645 851 117.565 274.508 464.841
2104 0 75.2543 11.0824 834 118.347 274.436 462.983
2105 0 82.4373 13.3556 1101 112.791 274.767 460.894
2106 0 83.4074 13.1044 1093 113.658 274.846 466.372
2107 0 83.1242 12.1144 1007 115.95 273.944 466.722
2108 0 85.3592 12.2541 1046 117.737 273.355 462.097
2109 0 89.1974 15.0117 1339 111.839 273.909 466.824
2110 1 11.0019 7.27146 80 102.862 271.538 502.6
2111 0 10.0012 2.19973 22 107.5 272.5 507.136
2112 1 99.2119 13.1839 1308 116.297 272.221 459.769
2113 1 111.348 16.7043 1860 107.878 272.608 456.312
2114 0 117.406 18.9427 2224 105.124 271.679 453.441
2115 0 116.412 16.1495 1880 110.646 270.537 452.261
2116 0 117.617 16.6218 1955 110.339 269.419 444.185
2117 0 119.254 13.4084 1599 116.296 269.332 450.559
2118 0 121.405 10.848 1317 120.718 268.781 445.875
2119 1 183.42 9.45916 1735 125.117 267.632 424.216
2120 1 130.327 13.3894 1745 118.383 267.893 439.554
2121 0 135.3 21.3821 2893 106.282 267.652 433.044
2122 0 141.479 14.8856 2106 115.22 266.453 439.062
2123 0 144.54 12.5086 1808 120.747 266.307 431.757
2124 0 149.295 14.622 2183 117.645 265.824 423.701
2125 0 155.269 14.6069 2268 116.366 265.584 431.837
2126 0 157.317 17.7603 2794 112.224 266.334 423.133
2127 0 166.656 14.2269 2371 117.061 265.313 421.702
2128 0 167.793 14.6013 2450 117.152 266.298 411.672
2129 0 174.543 14.0366 2450 118.891 266.203 413.785
2130 0 178.786 15.3256 2740 117.111 266.353 407.477
2131 0 184.57 16.0265 2958 115.767 267.36 409.993
2132 0 188.622 15.2103 2869 116.421 267.324 413.008
2133 0 191.439 13.5814 2600 121.105 268.005 401.41
2134 0 193.424 12.4648 2411 123.991 267.93 395.934
2135 0 203.609 15.0534 3065 119.093 268.381 393.667
2136 0 210.423 15.7873 3322 117.731 268.905 395.772
2137 0 217.527 19.2804 4194 111.023 270.58 398.219
2138 0 223.513 16.4644 3680 114.736 271.377 398.61
2139 0 231.83 19.0657 4420 112.993 271.949 372.434
2140 0 237.75 18.2924 4349 114.348 272.301 377.896
2141 0 246.775 15.8768 3918 118.483 272.422 374.357
2142 0 256.708 13.3537 3428 121.54 273.139 382.802
2143 0 264.569 20.1309 5326 111.131 273.134 373.873
2144 1 202.76 14.6627 2973 118.489 273.717 403.26
2145 0 210.801 17.4003 3668 113.649 274.917 403.664
2146 0 216.543 15.475 3351 118.883 274.273 393.58
2147 0 227.474 21.0442 4787 109.966 275.715 393.631
2148 0 233.562 15.9401 3723 117.957 274.813 392.691
2149 1 297.546 13.5778 4040 120.932 274.297 371.499
2150 0 303.621 13.8594 4208 121.981 274.889 368.39
2151 0 303.493 9.64107 2926 127.763 273.644 383.054
2152 1 72.0839 13.6785 986 110.216 273.278 477.953
2153 0 72.0222 12.9405 932 112.945 272.655 476.113
2154 0 75.0839 12.8656 966 113.427 271.966 474.6
2155 0 80.2616 13.0947 1051 112.469 273.18 474.679
2156 0 78.2849 16.3378 1279 108.942 272.137 474.318
2157 0 83.2251 15.2358 1268 110.547 271.073 471.106
2158 0 88.2442 15.4004 1359 108.126 269.258 470.954
2159 0 86.1981 10.5803 912 118.022 269.083 464.065
2160 0 89.1894 12.4791 1113 114.406 268.519 458.184
2161 0 96.1782 11.7178 1127 114.128 267.768 466.086
2162 0 98.1973 12.8924 1266 113.155 267.539 463.258
2163 0 101.139 13.4072 1356 111.038 266.853 455.801
2164 0 103.23 13.8913 1434 110.828 266.469 459.038
2165 0 105.313 14.6515 1543 109.724 266.472 453.048
2166 0 109.237 13.1731 1439 111.792 266.961 451.801
2167 0 108.096 10.9255 1181 115.71 267.226 445.129
2168 0 115.67 12.3196 1425 112.658 267.102 447.225
2169 0 120.606 17.1053 2063 104.09 266.431 432.975
2170 0 124.292 17.3623 2158 104.168 266.253 434.067
2171 0 123.173 14.8896 1834 108.556 266.131 435.339
2172 0 127.279 13.2229 1683 111.679 267.08 436.627
2173 0 129.37 16.3098 2110 107.267 267.839 438.705
2174 0 133.368 14.9436 1993 108.723 267.268 433.036
2175 0 136.519 14.1372 1930 109.954 268.88 429.123
2176 0 139.359 14.3371 1998 109.377 268.844 430.981
2177 0 141.518 13.977 1978 109.867 268.931 430.638
2178 0 143.318 12.106 1735 113.696 269.395 423.045
2179 0 148.385 11.8947 1765 113.615 269.305 423.707
2180 0 153.405 13.8392 2123 110.608 270.471 418.287
2181 0 158.606 15.5606 2468 107.905 271.854 421.413
2182 0 157.431 11.7067 1843 115.203 272.058 412.215
2183 0 376.852 17.4021 6558 113.65 272.817 292.345
2184 0 292.675 12.191 3568 112.637 272.642 374.083
2185 0 296.904 10.2323 3038 118.021 273.656 358.126
2186 0 291.157 17.4305 5075 106.953 273.872 343.776
2187 0 285.92 18.2778 5226 107.513 273.596 359.164
2188 0 292.907 22.6898 6646 101.715 274.348 346.616
2189 0 299.936 18.9707 5690 106.598 276.056 344.208
2190 0 304.924 14.1051 4301 114.3 276.229 334.325
2191 1 208.386 15.0394 3134 110.711 275.245 396.366
2192 0 217.418 14.0835 3062 111.224 274.87 389.693
2193 0 225.367 16.5818 3737 106.359 275.773 403.273
2194 1 171.367 13.7483 2356 111.657 274.824 415.313
2195 0 175.538 13.6096 2389 111.765 273.576 418.153
2196 0 182.467 13.0763 2386 111.656 272.904 416.632
2197 0 191.508 13.4094 2568 111.788 273.501 413.174
2198 0 194.453 16.1633 3143 108.682 273.639 406.584
2199 0 203.905 11.8192 2410 114.149 272.013 415.023
2200 0 207.392 12.3438 2560 115.688 270.368 391.258
2201 0 221.569 14.3567 3181 112.162 270.236 401.077
2202 0 229.54 13.0566 2997 114.171 267.752 398.081
2203 0 235.614 14.9567 3524 110.99 268.283 395.563
2204 0 244.594 14.751 3608 113.319 266.931 378.955
2205 0 250.683 21.0425 5275 104.078 267.353 385.496
2206 0 256.476 15.7364 4036 112.329 266.802 383.55
2207 0 264.642 14.0945 3730 115.47 266.47 372.746
2208 0 273.503 15.6708 4286 113.619 266.756 370.734
2209 0 279.557 15.9538 4460 113.266 265.888 363.477
2210 0 288.013 13.423 3866 118.288 266.653 355.947
2211 1 40.1195 6.43079 258 98.8915 266.422 485.318
2212 0 41.1105 7.41903 305 96.9869 267.669 483.164
2213 0 40.1498 11.0088 442 93.0023 266.69 481.33
2214 0 39.1804 10.5154 412 93.7961 267.109 484.595
2215 0 43.0403 8.64307 372 97.0349 267.183 482.532
2216 0 40.228 9.52074 383 95.7023 267.953 481.436
2217 0 39.2211 8.49032 333 96.4985 268.526 481.901
2218 0 41.3001 11.138 460 93.7891 268.861 478.791
2219 0 41.3772 9.66716 400 96.9825 268.66 475.7
2220 0 44.3423 9.11094 404 97.1163 268.812 477.666
2221 0 44.0883 11.114 490 96.0816 269.845 475.202
2222 0 46.1057 8.63235 398 100.121 269.535 473.43
2223 0 43.1378 10.7562 464 98.3297 270.075 471.416
2224 0 47.072 8.75256 412 100.495 269.017 472.864
2225 0 48.1378 9.34815 450 97.1867 271.249 473.333
2226 0 40.1473 8.76772 352 101.693 271.239 478.474
2227 0 43.1896 14.3321 619 95.4685 271.645 481.603
2228 0 40.1835 11.1737 449 102.882 270.695 481.403
2229 0 39.1933 11.7112 459 102.183 273.251 483.397
