time division length width area intensity CMx CMy
0 0 60.037 15.1573 910 130.411 207.543 472.663
1 0 61.168 16.7735 1026 127.933 206.615 473.292
2 0 63.1464 17.0873 1079 120.514 205.754 470.713
3 0 65.1325 20.1896 1315 118.363 204.811 468.887
4 0 66.1202 15.3206 1013 130.634 204.074 469.885
5 0 69.1036 16.0339 1108 127.787 203.776 468.044
6 0 70.0745 14.1278 990 133.224 202.325 468.4
7 0 75.1636 17.442 1311 122.551 202.15 470.2
8 0 74.1432 14.499 1075 132.268 200.172 466.115
9 0 77.1039 15.0576 1161 128.575 199.257 465.51
10 0 82.117 16.3547 1343 125.02 198.607 463.004
11 0 82.1827 14.7841 1215 127.826 199.13 461.801
12 0 83.2246 13.2293 1101 132.266 198.523 461.054
13 0 87.2343 13.8019 1204 126.596 198.934 458.145
14 0 90.1379 15.321 1381 125.862 197.723 458.683
15 0 94.2109 14.043 1323 127.085 198.413 453.741
16 1 48.076 15.4963 745 118.902 197.683 474.82
17 0 52.1849 16.2691 849 116.269 198.492 472.402
18 0 53.0858 16.2567 863 116.465 199.027 472.656
19 0 52.1601 12.5958 657 124.868 198.994 469.419
20 0 56.1336 15.4097 865 118.469 198.861 468.077
21 0 57.0661 13.6333 778 122.621 198.79 464.857
22 0 60.0251 15.7267 944 115.198 199.324 464.168
23 0 62.1852 15.3252 953 120.818 200.134 461.162
24 0 63.1066 13.5485 855 122.501 200.622 461.692
25 0 68.278 15.6126 1066 116.171 202.218 459.478
26 0 70.1312 14.7723 1036 119.04 201.933 455.204
27 0 70.1338 12.3336 865 122.591 202.91 458.044
28 0 72.1836 15.6961 1133 117.154 203.924 454.576
29 0 76.2556 14.7268 1123 118.204 204.658 453.244
30 0 77.1756 17.0779 1318 113.362 206.459 449.55
31 0 78.1544 16.1731 1264 116.139 205.445 452.849
32 0 84.1984 11.6273 979 119.623 205.54 454.741
33 0 86.121 14.619 1259 111.125 207.975 451.793
34 0 86.2881 15.4135 1330 115.111 208.562 446.766
35 0 92.2775 14.2938 1319 115.707 209.655 452.454
36 0 96.2194 14.3422 1380 115.291 208.212 445.843
37 1 177.406 12.8237 2275 118.411 210.462 419.516
38 0 180.622 12.3463 2230 113.962 208.643 424.801
39 0 179.492 12.5632 2255 114.419 209.142 423.403
40 1 111.297 7.61928 848 115.295 208.652 462.267
41 0 116.396 13.0416 1518 110.477 208.489 455.188
42 1 61.1159 14.1698 866 108.239 208.748 470.442
43 0 59.0749 11.5616 683 111.921 209.356 470.665
44 0 64.0882 12.6544 811 106.308 208.42 477.137
45 0 69.1487 13.2757 918 119.504 208.449 471.379
46 0 69.1178 12.674 876 121.639 207.368 468.452
47 0 71.2067 12.3022 876 125.236 205.797 467.11
48 0 74.3155 11.4243 849 125.571 205.461 471.106
49 0 81.2227 16.4855 1339 112.779 204.131 469.305
50 0 83.1501 16.2477 1351 116.027 203.975 466.598
51 0 85.2737 12.5947 1074 122.95 203.331 462.517
52 0 87.4039 13.7637 1203 121.068 202.771 463.272
53 0 92.1732 13.7459 1267 120.752 201.599 457.264
54 0 95.2217 13.1378 1251 121.413 202.612 454.42
55 1 49.0487 10.9075 535 115.093 201.733 482.101
56 0 51.0857 12.4888 638 114.31 200.845 478.6
57 0 51.0857 12.4301 635 131.384 199.857 478.759
58 0 58.115 14.196 825 113.952 200.722 473.456
59 0 58.1947 13.3517 777 117.403 198.84 470.049
60 0 59.2766 12.0284 713 119.94 200.188 467.313
61 0 66.2044 13.7755 912 115.375 199.782 469.157
62 0 65.0534 13.7426 894 116.648 199.661 467.983
63 0 67.1996 16.4138 1103 113.199 198.707 463.942
64 0 69.2137 13.0176 901 118.779 199.445 463.022
65 0 70.113 11.6669 818 119.914 198.573 462.062
66 0 74.122 15.407 1142 114.517 199.361 457.729
67 0 80.2356 13.5227 1085 115.56 199.609 459.973
68 0 81.5187 17.0022 1386 110.818 200.395 456.588
69 0 84.1184 13.4929 1135 117.711 201.544 450.948
70 0 81.2481 12.0741 981 119.899 202.413 454.785
71 0 88.2964 15.6292 1380 115.158 202.744 449.544
72 0 93.0884 18.1333 1688 109.533 203.366 453.546
73 0 96.2303 15.7643 1517 113.615 203.56 445.08
74 0 96.2303 15.6084 1502 132.336 203.594 445.074
75 1 54.0772 14.4978 784 107.852 204.624 468.466
76 0 53.1298 15.3022 813 112.424 205.347 468.979
77 0 55.2187 11.2824 623 116.963 205.151 468.376
78 0 55.0671 9.80621 540 120.28 205.687 466.602
79 0 56.2467 13.0674 735 114.743 207.137 469.401
80 0 61.1655 11.5915 709 116.913 208.329 469.539
81 0 63.0881 16.1362 1018 110.32 208.006 466.322
82 0 62.3107 12.9352 806 115.542 207.048 469.404
83 0 68.2329 13.8789 947 114.442 208.156 468.251
84 0 71.1266 16.4636 1171 110.38 206.482 468.331
85 0 73.3648 17.0927 1254 110.74 206.399 468.377
86 0 72.1435 12.6831 915 119.13 206.083 467.637
87 0 75.3803 15.3223 1155 116.252 206.235 467.495
88 0 77.301 14.644 1132 118.333 205.969 465.489
89 0 79.1379 14.2031 1124 119.756 205.343 467.786
90 0 84.3079 16.2618 1371 116.069 204.369 465.978
91 0 87.4737 12.8496 1124 121.634 203.428 465.735
92 0 89.2152 13.899 1240 121.082 203.068 464.004
93 0 92.1589 13.6612 1259 122.817 202.953 462.056
94 0 94.2566 13.5906 1281 123.42 201.052 462.906
95 0 100.236 14.017 1405 122.856 201.315 460.588
96 0 99.3491 12.7731 1269 126.342 200.412 456.641
97 0 101.373 14.6587 1486 120.531 200.698 458.911
98 0 106.274 13.3147 1415 123.848 199.374 455.695
99 0 110.589 15.2727 1689 120.869 198.729 454
100 0 111.458 14.7859 1648 121.91 198.516 455.382
101 1 65.0576 14.295 930 120.566 198.432 471.482
102 0 66.1303 16.8909 1117 115.96 197.535 470.495
103 0 66.1705 14.3266 948 122.482 197.754 468.215
104 0 68.1285 11.8893 810 126.602 196.849 467.267
105 0 73.1615 14.5295 1063 121.248 197.828 466.272
106 0 74.1655 11.8788 881 127.519 197.888 462.061
107 0 77.2228 15.8502 1224 118.252 197.6 461.855
108 0 80.2686 15.0246 1206 121.148 198.133 456.924
109 0 85.0927 15.2069 1294 121.794 199.082 455.038
110 0 88.2208 13.7496 1213 120.425 199.359 460.112
111 0 91.2733 14.6593 1338 121.01 198.821 452.354
112 0 93.1952 15.9987 1491 118.587 199.616 449.357
113 1 49.2049 14.714 724 113.478 200.019 470.276
114 0 52.1131 10.9377 570 119.358 201.668 468.933
115 0 53.161 16.3278 868 111.72 200.74 471.706
116 0 55.1138 11.1587 615 121.811 202.111 469.302
117 0 56.1322 15.3388 861 115.719 202.253 466.314
118 0 58.1068 12.3565 718 121.737 203.669 467.362
119 0 59.2492 11.9495 708 122.956 204.184 467.468
120 0 60.0995 13.3279 801 121.13 204.747 468.383
121 0 63.1693 13.3767 845 120.34 205.091 465.999
122 0 65.0749 15.6742 1020 116.402 205.221 466.614
123 0 65.2726 13.7117 895 120.526 205.592 466.857
124 0 71.2132 13.9441 993 118.495 205.721 465.94
125 0 72.0855 12.4158 895 120.636 205.425 467.295
126 0 72.2084 13.9734 1009 119.447 206.406 462.713
127 0 76.1591 13.0516 994 119.43 206.26 465.617
128 0 78.2737 11.3448 888 122.508 204.42 463.482
129 0 81.1148 11.6255 943 120.599 206.557 466.628
130 0 85.1312 12.0167 1023 119.389 204.834 464.674
131 0 87.4999 12.9714 1135 118.472 204.716 464.682
132 0 89.164 13.4696 1201 118.735 204.341 460.998
133 0 90.2205 10.962 989 122.287 203.366 459.761
134 0 94.2502 13.1989 1244 118.536 204.05 460.526
135 0 97.137 15.751 1530 113.73 202.607 462.875
136 0 98.2244 10.6185 1043 122.643 202.167 460.98
137 0 102.155 13.3718 1366 118.185 200.575 454.331
138 0 106.219 15.7693 1675 113.602 201.153 451.808
139 0 113.151 13.7339 1554 114.345 199.106 454.929
140 0 114.21 12.2669 1401 116.168 199.106 456.693
141 1 60.2374 11.7037 705 113.974 197.348 474.753
142 0 64.1271 16.8883 1083 104.144 197.09 477.307
143 0 64.0751 12.6414 810 112.83 196.991 474.627
144 0 65.1404 13.4632 877 112.57 196.538 471.181
145 0 67.0658 11.6006 778 115.243 195.952 471.889
146 0 69.0681 14.9128 1030 110.822 195.838 468.851
147 0 70.1989 14.2737 1002 112.355 195.369 467.132
148 0 74.1131 10.9427 811 116.404 195.634 465.79
149 0 77.1488 14.2193 1097 111.823 195.428 464.645
150 0 76.3224 13.4954 1030 113.019 195.536 463.801
151 0 82.1095 14.0057 1150 111.358 196.339 461.62
152 0 79.0857 11.1145 879 117.284 196.364 457.456
153 0 86.3065 12.7221 1098 113.88 198.217 454.851
154 0 87.2917 10.6998 934 116.274 197.749 452.988
155 1 48.027 12.8886 619 107.935 197.095 474.265
156 0 51.0338 12.4231 634 108.453 198.096 474.634
157 0 50.0698 12.6024 631 110.04 198.924 472.204
158 0 50.0587 7.81083 391 112.404 199.744 472.601
159 0 52.0481 12.4116 646 108.46 200.579 472.017
160 0 51.1853 11.8198 605 109.998 201.99 474.545
161 0 55.1019 10.7982 595 113.508 200.499 471.741
162 0 60.1109 12.1442 730 111.292 202.256 469.096
163 0 59.1363 12.5642 743 111.97 202.236 467.985
164 0 58.0852 9.70988 564 117.401 203.03 468.633
165 0 60.1588 10.838 652 116.468 203.998 466.178
166 0 62.0795 10.8087 671 115.212 205.507 468.39
167 0 65.0864 12.276 799 113.516 204.637 468.448
168 0 68.1644 12.0444 821 111.004 203.596 470.431
169 0 73.1777 14.2393 1042 107.94 204.609 470.567
170 1 142.653 13.9359 1988 117.511 204.99 434.418
171 0 147.322 11.8448 1745 120.972 205.317 433.092
172 0 156.303 13.0259 2036 118.65 204.127 428.984
173 0 156.513 12.3887 1939 120.67 203.732 432.999
174 1 42.0391 13.202 555 110.486 203.923 486.995
175 0 45.0389 11.7232 528 110.828 203.436 484.259
176 0 40.1278 9.49467 381 109.929 201.512 484.942
177 0 42.2434 14.3218 605 107.134 201.112 485.362
178 0 41.2474 10.7158 442 113.914 200.758 480.061
179 0 45.114 9.68657 437 112.238 199.961 483.963
180 0 48.1508 11.9001 573 111.558 199.551 481.026
181 0 48.1525 10.6121 511 112.061 198.753 484.487
182 0 49.0849 11.3477 557 113.163 198.406 479.221
183 0 51.192 11.4666 587 111.971 197.349 478.431
184 0 50.1358 11.5287 578 112.931 197.272 477.701
185 0 53.0921 12.8268 681 111.925 195.893 471.878
186 0 56.0801 12.1968 684 111.162 195.364 479.016
187 0 57.1181 12.4829 713 112.719 195.641 471.93
188 0 56.0827 12.8203 719 113.139 194.395 473.473
189 0 63.1776 14.1189 892 109.194 194.66 470.788
190 0 62.1098 15.376 955 108.181 193.871 470.699
191 1 131.391 15.0847 1982 109.783 194.135 435.001
192 0 132.211 12.7978 1692 112.582 194.796 444.011
193 1 75.3006 12.4036 934 114.102 193.99 463.713
194 0 71.3201 13.2501 945 115.946 194.129 460.046
195 0 75.0581 16.294 1223 110.563 194.337 460.327
196 0 78.2931 12.7342 997 116.244 195.21 459.607
197 0 80.2191 12.8523 1031 114.799 195.891 457.892
198 1 40.0372 10.4902 420 115.731 196.874 473.25
199 0 43.0777 13.1855 568 108.856 196.627 473.91
200 0 44.0467 13.3268 587 109.864 197.434 471.409
201 0 49.0612 16.7546 822 106.825 196.856 469.908
202 0 50.1735 16.1241 809 107.933 197.247 471.179
203 0 48.203 14.1692 683 109.558 197.697 473.776
204 0 56.1228 13.1141 736 113.235 200.253 469.745
205 0 54.0796 13.4247 726 114.358 200.649 466.934
206 0 54.07 13.649 738 113.492 201.671 470.226
207 0 57.059 16.0535 916 110.82 201.959 467.849
208 0 58.0811 12.4137 721 117.459 201.373 467.223
209 0 58.059 13.0901 760 117.458 203.55 469.449
210 0 60.2538 13.1942 795 116.204 203.444 469.828
211 0 64.0783 15.1065 968 112.452 202.901 467.91
212 0 65.1466 13.7229 894 113.575 202.591 470.794
213 0 71.1801 13.7819 981 115.272 204.125 467.928
214 0 72.1153 16.5291 1192 114.531 203.097 469.685
215 0 73.1443 14.7243 1077 118.197 202.667 472.67
216 0 76.1427 13.9606 1063 120.808 202.122 472.614
217 0 78.1356 13.1054 1024 122.136 202.347 473.771
218 0 81.0953 15.3646 1246 118.18 202.283 467.127
219 1 42.0294 10.9209 459 122.218 202.22 487.479
220 0 44.169 12.4975 552 115.737 201.801 491.574
221 0 48.1317 13.8578 667 114.219 200.772 490.328
222 0 47.1415 13.6822 645 112.357 201.026 492.178
223 0 49.0747 15.6496 768 112.201 199.845 486.905
224 0 48.0632 14.2521 685 114.057 197.45 487.561
225 0 52.1321 11.1831 583 116.75 197.518 491.329
226 0 54.0761 14.7385 797 113.408 195.32 484.703
227 0 54.0761 14.8309 802 130.468 193.294 484.662
228 0 56.1325 12.328 692 120.915 193.637 481.046
229 0 62.1522 17.1032 1063 111.786 193.833 484.977
230 0 62.1286 16.3854 1018 114.51 192.453 481.266
231 0 62.0819 15.0607 935 115.237 193.409 483.713
232 0 64.1135 12.9302 829 119.508 193.133 477.679
233 0 66.1548 13.3475 883 119.393 191.788 472.884
234 0 71.1342 14.6624 1043 116.792 193.321 474.008
235 0 73.2291 16.0182 1173 115.018 192.523 472.488
236 0 75.1768 15.6032 1173 116.345 192.367 465.874
237 0 73.2409 13.0392 955 119.861 193.192 469.161
238 0 80.5663 15.6021 1257 116.27 192.574 462.757
239 0 85.2919 14.3976 1228 116.55 193.814 463.789
240 1 43.0569 11.6125 500 117.862 192.396 481.106
241 0 43.1495 12.167 525 119.84 193.688 480.794
242 0 49.1254 15.1449 744 113.417 194.785 477.761
243 0 46.0749 13.847 638 111.964 194.224 478.281
244 0 43.1401 10.3848 448 119.243 195.621 477.496
245 0 48.0335 12.9909 624 114.09 196.018 476.463
246 0 48.2058 10.3307 498 116.496 196.295 476.418
247 0 47.055 8.84072 416 121.774 195.82 474.024
248 0 52.0647 10.679 556 119.315 196.856 474.439
249 0 54.2812 12.5089 679 118.795 198.133 472.906
250 0 56.0383 14.6328 820 117.479 198.388 469.466
251 0 59.0741 14.2702 843 117.588 199.766 469.694
252 0 60.2489 14.0418 846 116.148 201.194 474.498
253 0 62.1727 13.8968 864 119.332 200.513 467.534
254 0 63.1074 12.962 818 123.059 201.795 465.878
255 0 65.3845 14.04 918 121.387 200.768 466.773
256 0 69.2172 16.4988 1142 117.017 200.991 469.171
257 0 71.3544 13.7903 984 122.46 201.163 468.348
258 0 72.3864 15.7074 1137 120.807 202.291 466.105
259 0 72.3864 15.6107 1130 144.608 203.273 466.119
260 0 78.4099 15.0364 1179 121.576 202.233 469.117
261 0 81.1643 14.2058 1153 122.392 200.442 470.434
262 0 83.3137 13.7912 1149 121.628 201.768 462.988
263 0 84.2694 12.8398 1082 124.335 201.129 470.396
264 0 88.1525 14.7812 1303 119.988 199.645 465.588
265 0 92.4543 12.3412 1141 120.755 200.443 468.542
266 0 94.3642 12.0067 1133 121.823 199.711 464.118
267 0 97.3804 14.4793 1410 116.313 199.432 466.177
268 1 55.0627 13.0397 718 115.34 197.836 486.361
269 0 58.277 15.1689 884 112.764 197.04 481.442
270 0 59.1843 10.8306 641 121.351 195.735 479.679
271 0 63.2204 14.3625 908 115.463 195.178 480.631
272 0 64.0825 13.6699 876 114.503 194.821 481.815
273 0 65.2433 13.3807 873 115.485 194.995 475.367
274 0 67.2178 12.0355 809 117.095 194.022 474.665
275 0 70.1254 13.0338 914 116.444 193.721 472.765
276 0 70.1187 13.4344 942 112.658 193.328 476.582
277 0 78.1516 13.6274 1065 115.459 193.259 468.8
278 0 76.1594 11.5678 881 120.22 193.314 463.582
279 0 85.2039 12.5464 1069 116.487 192.999 465.003
280 0 85.5965 14.0076 1199 114.891 192.992 463.532
281 0 85.4227 14.317 1223 115.559 193.031 461.102
282 0 88.3836 13.9392 1232 117.795 194.666 454.01
283 0 90.3362 12.9848 1173 117.552 194.211 460.023
284 1 45.0883 7.74036 349 118.57 196.186 472.553
285 0 50.2071 11.6717 586 110.193 196.196 473.056
286 0 49.0468 12.0089 589 112.531 196.168 472.289
287 0 52.0343 14.3367 746 107.783 195.831 472.37
288 0 53.0908 13.6182 723 114.454 196.432 468.687
289 0 55.1098 14.1173 778 112.685 197.419 473.324
290 0 56.1188 13.0794 734 117.054 197.647 468.351
291 0 56.1367 13.6096 764 117.314 198.251 467.554
292 0 61.1414 13.3461 816 116.099 200.363 467.832
293 0 62.0807 11.7911 732 118.15 200.738 468.538
294 0 67.1777 13.7992 927 116.447 202.464 466.562
295 0 65.1137 10.1515 661 123.817 201.198 463.932
296 0 69.0518 12.3675 854 120.523 203.461 465.464
297 0 72.0564 13.9058 1002 118.652 203.754 466.092
298 0 74.0745 17.2934 1281 114.162 202.794 460.102
299 0 76.1398 14.0137 1067 119.721 203.111 461.357
300 0 77.128 14.1712 1093 120.004 203.733 467.085
301 0 79.1655 13.8192 1094 122.628 203.488 466.494
302 0 81.0937 14.7114 1193 123.213 203.647 462.21
303 0 85.1721 16.6252 1416 119.043 204.006 464.216
304 0 88.2192 14.532 1282 122.844 203.37 463.084
305 0 89.249 13.4679 1202 125.54 203.27 466.466
306 0 93.2595 18.1858 1696 117.711 203.054 465.535
307 0 99.3885 18.3623 1825 117.135 201.877 464.362
308 0 97.3332 14.8562 1446 125.429 201.226 460.561
309 0 101.22 14.6711 1485 125.607 201.284 462.085
310 0 105.244 14.9938 1578 125.782 200.725 458.554
311 0 107.203 14.4119 1545 128.408 200.557 454.587
312 0 112.308 14.5048 1629 126.536 198.278 453.494
313 0 117.415 20.006 2349 117.676 197.884 448.396
314 0 122.557 15.2745 1872 125.532 198.666 448.325
315 0 122.557 15.3398 1880 150.968 198.673 448.275
316 1 64.1037 16.1301 1034 119.754 197.439 477.908
317 0 65.1084 14.76 961 122.106 196.617 474.975
318 0 67.1061 12.4728 837 126.06 195.735 471.817
319 0 68.0677 15.4552 1052 121.767 196.372 471.969
320 0 66.112 12.3427 816 127.55 194.43 470.876
321 0 76.2164 13.2255 1008 120.472 195.372 470.251
322 0 76.1379 13.0027 990 124.88 195.407 464.604
323 0 78.3691 14.4317 1131 121.019 195.113 465.215
324 0 82.3756 14.9437 1231 119.558 193.851 462.128
325 0 87.1245 14.5654 1269 119.716 194.201 460.559
326 0 91.1777 16.3198 1488 117.6 194.258 456.331
327 1 48.0758 13.7075 659 118.422 195.215 476.819
328 0 50.18 12.6146 633 120.761 195.049 472.278
329 0 50.0798 13.758 689 120.896 197.16 473.202
330 0 47.317 9.9964 473 121.433 195.892 472.725
331 0 53.1288 17.6176 936 109.619 197.463 473.041
332 0 56.1591 16.6313 934 110.481 197.042 472.572
333 0 57.1544 12.2125 698 121.358 197.034 466.202
334 0 59.1782 15.9856 946 114.926 198.42 465.923
335 0 62.2013 12.9579 806 118.377 199.749 467.091
336 0 62.0718 13.9355 865 118.906 201.169 462.467
337 0 64.0647 12.0503 772 120.447 201.863 464.078
338 0 68.1972 14.4727 987 117.703 202.471 460.363
339 0 71.1659 16.0189 1140 115.057 204.022 461.781
340 0 73.0846 12.985 949 119.359 204.808 462.75
341 0 75.1305 12.0856 908 120.441 205.131 463.488
342 0 75.1779 15.9754 1201 115.42 203.137 455.644
343 0 81.0993 14.0075 1136 118.061 203.894 457.598
344 0 82.134 13.4049 1101 118.114 206.067 462.042
345 0 86.1874 12.4844 1076 120.894 206.071 459.864
346 1 49.0555 14.5346 713 110.279 205.849 480.895
347 0 50.0344 9.99313 500 118.508 205.754 482.106
348 0 49.0598 12.7192 624 116.724 205.463 480.663
349 0 51.1265 14.4935 741 107.935 204.63 483.216
350 0 55.1736 12.2885 678 113.056 203.681 480.195
351 0 53.2042 11.2961 601 115.797 201.699 481.92
352 0 55.1526 11.6042 640 118.277 203.05 479.364
353 0 58.1373 12.4705 725 114.975 201.837 479.666
354 0 61.153 15.4203 943 110.626 201.544 477.882
355 0 63.1298 16.9492 1070 108.981 201.007 476.419
356 0 65.2391 12.5538 819 117.331 200.46 474.596
357 0 64.2441 10.9426 703 118.724 199.762 477.327
358 0 69.2035 14.8403 1027 113.251 200.093 472.002
359 0 70.1957 14.1462 993 115.327 198.714 470.162
360 0 76.3688 15.0716 1151 113.566 197.619 464.408
361 0 78.316 14.7352 1154 115.371 198.566 461.685
362 0 79.3079 12.1552 964 119.459 198.529 462.27
363 0 83.3767 20.9771 1749 104.445 197.238 465.63
364 1 43.1635 11.746 507 111.986 197.114 477.935
365 0 44.0872 12.6341 557 111.684 196.709 480.689
366 0 46.4446 11.3038 525 112.354 197.81 473.427
367 0 47.0835 12.6796 597 110.144 196.765 478.575
368 0 48.0623 15.4175 741 109.737 196.404 473.109
369 0 49.094 14.2787 701 110.17 196.959 473.96
370 0 52.0436 13.3542 695 113.506 195.94 471.856
371 0 54.1645 15.9699 865 110.214 197.629 469.736
372 0 57.0771 13.5256 772 113.878 197.254 466.668
373 0 59.0585 14.3078 845 112.054 198.322 465.514
374 0 60.1846 14.0069 843 113.66 199.604 463.625
375 0 63.1922 11.9635 756 116.29 199.501 463.315
376 0 63.2046 14.0654 889 114.011 199.578 459.897
377 0 65.0895 14.964 974 111.011 199.551 464.589
378 0 65.0905 11.8758 773 117.454 201.978 461.078
379 0 69.2886 12.4696 864 115.58 202.85 460.959
380 0 73.1608 15.4864 1133 110.876 203.249 450.92
381 0 76.2659 16.3376 1246 110.424 203.738 451.245
382 0 79.5384 17.7273 1410 108.257 204.83 455.633
383 0 81.2643 13.4992 1097 115.268 205.341 455.5
384 0 83.2283 16.8573 1403 110.848 204.47 449.373
385 0 86.2093 14.2908 1232 114.218 205.038 455.967
386 1 48.2193 14.1022 680 108.981 205.434 468.134
387 0 46.1828 12.6238 583 112.595 206.204 473.705
388 0 48.1065 14.946 719 107.659 206.163 479.122
389 0 46.0933 9.41568 434 114.297 206.452 478.032
390 0 49.0787 9.98397 490 114.194 206.131 480.149
391 0 55.091 15.5742 858 108.267 206.133 477.037
392 0 55.1193 14.2056 783 111.107 205.4 477.458
393 0 55.0775 12.9817 715 115.937 205.231 474.709
394 0 55.0775 13.0543 719 137.9 204.213 474.67
395 0 60.0797 14.4974 871 114.631 203.688 474.71
396 0 64.1222 13.0064 834 110.662 204.329 484.219
397 0 65.0928 13.6574 889 115.274 202.875 477.555
398 0 66.1196 15.0939 998 112.062 201.339 478.039
399 0 69.0897 14.8358 1025 113.137 201.197 476.311
400 0 72.2115 13.502 975 116.855 199.48 474.045
401 0 74.1066 12.8733 954 118.02 199.518 471.698
402 0 76.123 13.2286 1007 117.824 198.728 468.015
403 0 79.1428 13.9874 1107 117.976 197.375 466.379
404 1 42.0318 12.1337 510 111.922 198.106 487.32
405 0 44.0665 11.4146 503 114.445 196.946 484.775
406 0 47.0382 12.2879 578 114.445 197.427 481.744
407 0 49.0863 14.9125 732 110.489 195.594 480.652
408 0 48.0488 10.9056 524 111.748 197.038 482.227
409 0 49.0443 10.5007 515 112.21 195.596 478.138
410 0 52.0714 13.2318 689 110.983 195.213 472.353
411 0 55.1064 12.612 695 112.98 195.212 470.817
412 0 56.1394 15.5684 874 107.709 194.515 473.141
413 0 57.0973 14.2038 811 110.47 196.191 471.967
414 0 60.1402 12.288 739 112.888 197.606 470.188
415 0 61.1597 12.1976 746 114.379 196.871 465.412
416 0 63.1382 14.2069 897 110.57 196.938 464.313
417 0 68.1859 13.9325 950 110.046 198.311 465.057
418 0 68.238 12.2659 837 113.975 199.761 463.159
419 0 71.2148 12.3008 876 115.2 200.753 458.515
420 0 69.1065 15.7149 1086 111.75 200.413 456.692
421 0 75.2451 12.9709 976 115.415 200.446 454.181
422 0 78.2096 12.7222 995 115.403 202.318 454.982
423 0 79.2081 14.4051 1141 133.909 204.256 453.105
424 0 82.2535 13.6529 1123 115.322 203.167 449.051
425 0 82.2535 13.6529 1123 137.017 203.166 449.033
426 0 81.1552 9.80837 796 120.58 204.343 454.369
427 0 86.1921 10.7318 925 116.995 205.914 458.105
428 0 93.2638 14.8182 1382 109.6 204.883 454.108
429 0 96.4519 9.61101 927 117.321 204.787 452.423
430 0 101.21 11.3527 1149 116.566 205.162 448.654
431 0 107.161 16.0039 1715 109.543 205.673 449.061
432 0 111.352 12.4649 1388 113.401 206.129 452.997
433 0 109.493 13.4072 1468 116.506 205.997 448.42
434 0 113.252 14.4898 1641 115.48 206.252 443.722
435 0 115.354 12.7954 1476 116.884 205.505 451.802
436 0 118.434 10.6895 1266 120.209 204.847 453.79
437 0 127.23 13.6525 1737 116.991 204.796 441.18
438 0 132.856 14.241 1892 115.39 203.512 442.071
439 0 133.492 13.027 1739 116.141 204.457 448.55
440 0 136.573 12.8795 1759 119.61 204.844 438.347
441 0 143.446 13.9077 1995 117.217 203.462 435.872
442 0 149.651 14.193 2124 116.879 201.989 434.427
443 0 152.765 15.3242 2341 114.205 200.802 440.903
444 0 156.509 14.095 2206 118.816 200.629 432.59
445 1 91.5578 13.1283 1202 115.017 200.285 466.692
446 0 89.4117 8.63421 772 123.588 199.693 460.952
447 1 48.1174 12.6981 611 112.43 198.794 481.34
448 0 52.4076 12.6127 661 109.144 199.233 480.697
449 0 54.1647 15.0098 813 108.139 199.604 477.643
450 0 55.2066 11.1037 613 115.843 199.445 476.072
451 0 58.3039 15.505 904 109.71 197.653 476.171
452 0 61.1441 13.0838 800 115.509 196.629 477.615
453 0 55.0597 12.4592 686 119.058 196.259 475.112
454 0 61.0932 13.3239 814 118.012 195.55 471.335
455 0 63.0463 13.498 851 117.422 196.146 471.484
456 0 67.1271 13.7202 921 116.37 195.801 470.615
457 0 66.1469 14.241 942 117.286 197.293 469.064
458 0 66.1054 13.2062 873 118.213 196.978 468.586
459 0 71.1163 13.949 992 117.522 197.534 465.87
460 0 72.123 13.4215 968 118.501 198.041 465.472
461 0 79.1529 15.729 1245 111.449 197.639 467.201
462 0 79.2677 14.9115 1182 117.161 197.552 459.527
463 0 79.2284 17.6957 1402 113.12 198.404 459.649
464 0 84.1902 20.9644 1765 106.705 198.308 456.514
465 0 84.1073 17.5609 1477 109.471 199.991 466.519
466 1 166.517 10.4674 1743 124.813 201.45 429.761
467 0 174.5 12.4699 2176 123.626 201.601 418.275
468 0 184.678 11.2466 2077 124.593 201.851 421.468
469 0 190.194 12.7712 2429 121.215 201.904 422.447
470 1 99.3962 14.7289 1464 117.158 202.327 455.589
471 1 52.1457 12.1966 636 111.857 203.325 480.223
472 0 53.134 9.20314 489 119.106 203.323 480.99
473 0 55.1471 11.8592 654 117.364 203.408 481.329
474 0 56.1186 13.6497 766 115.992 202.501 479.679
475 0 59.1904 13.9719 827 116.409 203.12 481.172
476 0 64.3409 17.0654 1098 107.995 202.268 484.117
477 0 61.1009 12.864 786 117.247 201.659 481.795
478 0 64.2715 9.53767 613 119.86 201.759 484.922
479 0 68.2095 13.5612 925 114.786 201.115 483.014
480 0 71.19 14.7071 1047 112.754 200.217 482.876
481 0 71.19 14.5666 1037 128.907 199.206 482.914
482 0 73.2077 14.8072 1084 114.18 199.126 480.646
483 0 77.1639 14.359 1108 114.026 199.061 479.889
484 0 75.1134 11.2497 845 119.74 196.466 478.8
485 0 79.4063 10.1503 806 124.167 195.743 469.449
486 0 86.235 13.3472 1151 115.637 196.056 476.299
487 0 89.2049 14.2145 1268 113.197 195.38 472.493
488 0 92.3356 13.1477 1214 115.166 194.723 469.796
489 1 47.2471 8.80477 416 115.611 195.012 491.709
490 0 52.1431 10.5479 550 109.327 192.636 489.891
491 0 53.0421 11.2741 598 108.985 192.973 488.127
492 0 55.0787 12.1644 670 112.187 193.358 489.096
493 0 54.1681 12.7197 689 112.466 193.039 485.215
494 0 55.1359 11.0092 607 115.486 191.384 482.435
495 0 57.2195 11.3073 647 112.558 190.767 485.003
496 0 60.1838 11.8138 711 111.914 191.561 477.896
497 0 61.1143 10.0304 613 114.878 191.147 477.131
498 0 65.1435 12.9407 843 109.546 190.734 477.688
499 0 65.2261 13.7368 896 111.325 190.215 472.071
500 0 68.3853 13.8334 946 110.443 192.207 472.19
501 0 75.3478 10.7767 812 112.048 193.05 473.053
502 0 75.2533 13.7801 1037 109.925 193.289 467.307
503 0 76.2231 13.6573 1041 111.207 193.392 464.463
504 0 78.3532 20.8543 1634 100.791 194.511 462.566
505 0 81.1979 11.7491 954 116.286 194.733 459.771
506 0 84.2107 12.825 1080 113.736 195.07 460.775
507 0 82.2835 9.55234 786 119.599 196.412 459.517
508 0 91.1894 13.0278 1188 112.37 196.668 459.075
509 0 93.3536 14.6754 1370 109.477 197.503 453.342
510 1 49.0275 13.8698 680 108.343 197.569 475.779
511 0 52.1228 13.4874 703 107.781 198.4 472.481
512 0 51.0768 11.2184 573 111.723 198.845 476.576
513 0 53.0545 11.8746 630 110.868 200.079 475.175
514 0 55.1078 12.6298 696 109.386 200.621 474.737
515 0 59.4869 12.3893 737 107.872 200.522 477.674
516 0 61.3183 15.9985 981 103.502 201.831 478.351
517 0 59.123 11.6368 688 112.391 201.467 476.045
518 0 58.1309 11.6805 679 112.613 202.47 477.763
519 0 65.1586 14.0734 917 106.58 202.411 478.191
520 0 65.0914 17.2527 1123 102.588 201.861 480.902
521 0 66.1183 12.6138 834 109.885 201.338 481.308
522 0 69.22 14.7212 1019 108.211 199.748 475.57
523 0 71.1572 12.4373 885 111.86 199.253 476.715
524 0 75.2104 12.8706 968 110.463 199.824 478.125
525 0 78.1115 15.0938 1179 108.314 199.589 471.666
526 0 81.1222 13.1407 1066 110.721 199.289 475.326
527 0 82.3986 11.5536 952 111.896 198.549 477.203
528 0 84.2158 12.0049 1011 112.217 197.58 470.576
529 0 90.2561 13.0296 1176 109.166 196.524 471.767
530 0 92.1617 15.3209 1412 105.771 196.193 468.405
531 0 97.4158 14.9257 1454 104.607 194.827 464.158
532 1 48.1084 16.5044 794 99.1222 193.908 487.903
533 0 51.0881 14.8958 761 102.668 192.047 484.816
534 0 53.1298 10.8037 574 112.057 193.883 486.317
535 0 57.1736 14.2723 816 106.814 192.626 484.877
536 0 58.0442 13.6275 791 107.21 192.53 482.708
537 0 59.1228 14.0048 828 108.621 191.442 482.132
538 0 59.1834 11.9121 705 112.031 191.545 479.976
539 0 62.1159 15.3423 953 106.504 191.779 476.687
540 0 64.197 13.6611 877 107.908 190.853 478.052
541 0 66.1501 13.2275 875 110.242 190.451 470.425
542 0 70.2627 14.2323 1000 107.443 191.328 474.102
543 0 71.2319 12.7611 909 110.982 191.712 469.165
544 1 141.272 12.5927 1779 114.07 193.359 439.257
545 0 147.414 15.4395 2276 109.702 193.172 436.766
546 1 79.2799 14.2911 1133 109.754 194.433 457.829
547 0 80.0883 12.9482 1037 109.937 193.378 461.58
548 0 84.1997 13.7887 1161 109.012 194.588 458.365
549 1 40.0849 13.4964 541 107.139 195.118 480.952
550 0 43.0611 11.3792 490 108.41 195.504 479.729
551 0 46.0767 16.2989 751 101.45 197.144 478.403
552 0 43.0789 12.7441 549 106.423 196.222 480.958
553 0 45.0451 12.0546 543 109.772 197.669 479.409
554 0 49.1006 13.0956 643 108.092 197.964 477.37
555 0 51.2756 13.2031 677 111.162 197.668 477.037
556 0 54.1899 14.5599 789 108.022 199.243 476.914
557 0 54.1297 14.5761 789 108.785 200.038 477.911
558 0 56.1642 11.5198 647 114.031 199.601 476.819
559 0 60.1093 10.8469 652 113.353 200.253 482.265
560 0 60.1714 14.4587 870 109.299 199.647 477.346
561 0 64.0915 13.3715 857 110.275 200.293 476.841
562 0 66.3044 15.3836 1020 107.904 199.756 476.705
563 0 64.2169 10.7604 691 114.838 199.307 481.178
564 0 67.1921 13.1265 882 110.345 198.889 481.65
565 0 72.1047 10.6512 768 111.82 197.988 482.626
566 0 72.062 12.7113 916 110.066 198.418 478.62
567 0 78.2002 14.2199 1112 107.496 197.659 476.447
568 0 76.6625 9.7701 749 114.308 198.033 481.407
569 0 78.1782 13.3669 1045 110.835 196.644 476.5
570 0 78.1782 13.4053 1048 121.613 195.662 476.328
571 1 45.1033 10.997 496 113.514 195.595 492.071
572 0 48.1681 13.0584 629 110.261 195.304 489.351
573 0 51.0755 14.0968 720 108.868 194.957 488.465
574 0 51.126 13.5547 693 111.662 194.179 485.102
575 0 53.093 13.2974 706 109.771 194.965 487.865
576 0 52.1251 11.2806 588 115.906 193.16 484.915
577 0 54.178 12.2005 661 114.348 192.971 481.958
578 0 56.0428 12.0979 678 114.035 194.05 481.842
579 0 59.053 11.532 681 113.863 191.708 481.824
580 0 62.0668 13.3888 831 112.521 192.898 480.887
581 0 62.1493 13.8698 862 110.633 192.061 480.411
582 0 66.2056 13.3977 887 111.019 191.688 471.779
583 0 66.16 10.5048 695 114.492 191.78 473.676
584 0 70.0552 17.215 1206 106.547 192.143 473.91
585 0 73.2681 11.8878 871 112.551 192.299 476.719
586 0 73.3581 12.6366 927 114.991 193.031 468.934
587 0 78.1471 15.0102 1173 110.847 192.484 468.087
588 0 79.1162 14.3207 1133 113.661 192.937 463.054
589 0 84.1801 16.4409 1384 109.337 193.905 466.911
590 1 44.0336 10.8099 476 115.971 194.279 481.597
591 0 50.1756 13.0143 653 109.582 193.824 481.423
592 0 46.0554 12.2027 562 111.518 195.375 482.237
593 0 47.045 11.6697 549 110.787 194.987 482.408
594 0 47.0495 13.3264 627 110.998 197.003 479.793
595 0 51.0513 13.6529 697 109.954 197.93 478.379
596 0 51.0567 13.5536 692 112.172 197.413 477.715
597 0 55.0693 13.5829 748 112.364 199.707 479.009
598 0 55.105 16.7317 922 108.707 199.906 475.47
599 0 58.0717 11.2275 652 116.101 200.433 475.446
600 0 63.34 18.9612 1201 101.563 201.226 480.616
601 0 61.0708 13.427 820 112.633 201.448 476.863
602 0 64.079 14.8723 953 111.058 200.592 472.489
603 0 66.2098 15.617 1034 109.835 199.868 473.925
604 0 67.1536 14.6381 983 111.052 200.303 477.138
605 0 71.1485 15.5309 1105 109.984 200.498 477.94
606 0 74.0979 17.9627 1331 106.05 200.125 476.956
607 0 75.2083 14.7191 1107 113.276 197.964 475.778
608 0 77.2668 17.3554 1341 108.585 198.676 472.62
609 0 79.2261 12.9377 1025 114.84 198.481 473.261
610 0 80.2111 14.4244 1157 113.366 197.974 474.698
611 0 85.2877 14.3749 1226 113.889 197.838 474.446
612 0 89.4892 15.812 1415 110.686 198.511 471.822
613 0 91.2663 12.721 1161 114.798 198.152 474.645
614 0 94.1234 17.9552 1690 108.901 196.873 466.515
615 0 102.308 11.4947 1176 113.758 196.273 472.385
616 1 49.1844 13.1342 646 110.882 195.952 488.161
617 0 51.0839 12.3131 629 110.121 193.552 486.24
618 0 51.0806 11.9615 611 111.592 194.133 484.249
619 0 50.0252 9.13539 457 117.339 192.304 482.239
620 0 55.0719 15.2891 842 110.381 191.726 482.667
621 0 58.0936 11.5848 673 112.569 192.305 485.259
622 0 56.1892 11.6748 656 114.02 192.415 481.291
623 0 64.225 14.7139 945 108.287 191.969 479.913
624 0 65.1044 13.9007 905 109.726 191.277 477.613
625 0 68.0789 15.5261 1057 108.132 190.884 473.168
626 0 70.2946 15.1505 1065 109.265 192.014 474.542
627 0 70.0664 13.9582 978 111.908 192.345 468.566
628 0 72.1929 12.4389 898 113.599 193.167 471.49
629 0 76.1158 15.1742 1155 109.19 191.989 471.165
630 0 77.3189 15.1968 1175 109.226 192.721 462.92
631 0 82.1025 14.1287 1160 110.948 192.67 465.513
632 0 88.2822 13.0264 1150 110.982 194.536 466.777
633 0 84.2201 15.4714 1303 110.215 194.08 458.899
634 0 90.1847 14.4038 1299 110.507 195.345 458.374
635 0 94.5304 18.5972 1758 104.648 193.98 453.15
636 0 96.4911 16.5507 1597 106.525 196.439 457.368
637 0 100.507 14.0786 1415 109.29 195.285 454.872
638 0 106.516 20.5227 2186 99.4652 195.833 454.799
639 1 52.0481 13.9294 725 104.24 197.029 473.713
640 0 58.1422 12.7102 739 105.322 198.321 474.356
641 0 60.1909 11.0648 666 110.017 197.683 472.023
642 0 63.0764 14.0465 886 103.836 199.479 477.192
643 0 67.3706 15.8378 1067 102.64 199.183 475.157
644 0 67.2588 16.771 1128 99.9025 200.012 477.172
645 0 72.2113 15.2054 1098 102.628 199.512 475.429
646 1 132.691 13.3317 1769 109.158 199.598 448.465
647 0 133.436 13.0474 1741 109.2 199.133 446.414
648 0 130.402 8.05205 1050 108.92 199.382 467.434
649 0 130.402 8.04438 1049 138.938 199.395 467.317
650 0 133.56 6.43906 860 109.71 198.593 470.447
651 1 173.526 15.5712 2702 104.403 199.05 438.44
652 0 167.9 12.1203 2035 108.196 198.546 437.573
653 1 88.4188 11.7848 1042 106.036 199.485 472.679
654 0 95.3407 14.5793 1390 102.322 198.995 469.664
655 0 95.45 12.8759 1229 105.733 196.968 467.883
656 0 96.1239 11.0378 1061 109.399 197.176 463.516
657 0 100.281 12.3254 1236 107.728 197.608 465.793
658 0 103.336 11.1191 1149 108.437 195.182 462.446
659 0 106.246 11.351 1206 109.485 195.637 461.849
660 0 108.488 13.0614 1417 108.387 194.601 459.147
661 0 114.609 15.1734 1739 103.844 193.358 460.395
662 1 221.832 14.538 3225 111.607 192.835 403.108
663 1 126.366 12.3688 1563 107.94 193.322 458.724
664 0 127.463 14.4041 1836 105.825 192.166 449.562
665 0 129.359 13.5128 1748 107.621 191.968 443.493
666 0 135.708 15.3565 2084 104.273 191.328 448.921
667 0 133.668 8.73056 1167 113.727 191.54 446.071
668 0 142.577 12.0707 1721 109.291 191.566 440.086
669 0 150.441 12.8822 1938 108.294 191.69 440.116
670 0 149.635 16.0657 2404 106.229 193.097 435.454
671 0 157.87 15.6458 2470 107.159 192.653 431.854
672 0 156.697 14.3079 2242 105.105 192.31 447.141
673 1 172.834 13.2208 2285 111.155 193.211 422.459
674 0 173.783 14.7195 2558 110.668 193.034 421.227
675 0 180.266 18.3174 3302 106.806 194.251 409.071
676 1 49.3401 8.39074 414 113.568 193.725 473.604
677 0 52.1157 12.5298 653 107.286 195.551 475.508
678 0 54.2251 11.5629 627 109.789 195.876 476.458
679 0 53.1565 9.29331 494 113.611 196.771 474.263
680 0 58.0669 9.97126 579 113.351 199.031 472.945
681 0 60.1313 15.8653 954 106.426 199.006 470.487
682 0 63.2055 11.961 756 109.399 199.324 472.958
683 0 61.0852 10.1334 619 113.344 199.231 474.265
684 0 65.1406 13.4171 874 109.273 200.654 469.255
685 0 67.0811 14.0427 942 109.682 200.671 471.335
686 0 72.3923 15.1121 1094 107.348 201.323 472.779
687 0 71.1806 12.6158 898 112.492 200.055 472.274
688 0 77.1446 20.7662 1602 98.7803 200.293 475.579
689 0 77.1507 12.5469 968 112.784 201.293 473.035
690 0 80.0981 14.6321 1172 109.954 200.827 471.432
691 0 85.1543 18.2492 1554 103.421 199.84 471.728
692 0 88.0911 12.453 1097 112.511 200.098 471.879
693 0 91.1465 15.7658 1437 108.086 199.3 469.759
694 1 43.1016 12.2501 528 108.896 199.206 488.443
695 0 45.0262 12.8592 579 107.826 198.135 492.119
696 0 47.0676 12.4289 585 109.032 199.356 490.72
697 0 48.3725 18.8537 912 104.03 198.316 492.961
698 0 52.17 13.1301 685 112.628 198.301 491.975
699 0 50.1814 13.6704 686 113.436 197.227 490.214
700 0 53.1447 15.0344 799 105.029 196.479 491.814
701 0 54.0282 14.5665 787 107.269 195.299 488.629
702 0 56.148 14.9605 840 111.464 195.049 485.636
703 0 57.0565 14.8274 846 110.407 195.015 484.966
704 0 60.1855 13.7907 830 109.26 194.624 485.875
705 0 61.0722 14.0326 857 108.471 193.658 484.761
706 0 64.1584 20.1221 1291 100.441 193.338 481.21
707 0 66.1479 15.9642 1056 106.088 193.649 477.824
708 0 65.0862 19.2207 1251 100.441 191.713 484.272
709 0 69.3218 12.2761 851 109.123 191.675 479.183
710 0 69.125 11.038 763 111.14 193.122 478.896
711 0 74.213 14.9435 1109 108.341 191.653 471.717
712 0 76.303 13.1843 1006 111.485 192.548 468.302
713 0 81.1422 14.0001 1136 110.237 190.318 464.852
714 0 82.1207 15.5503 1277 105.457 192.256 472.771
715 0 83.1667 17.1102 1423 105.875 191.072 466.075
716 1 178.881 12.198 2182 114.551 192.988 420.898
717 1 90.3548 13.5909 1228 109.51 191.849 459.517
718 1 45.2569 13.1472 595 104.637 192.235 478.849
719 0 48.1779 14.9446 720 101.786 192.107 479.533
720 0 49.165 11.5733 569 106.592 194.402 479.854
721 0 51.1651 11.5704 592 106.666 195.181 479.76
722 0 52.2433 13.8008 721 107.222 195.749 478.684
723 0 56.1134 12.6886 712 107.612 196.469 477.584
724 0 60.1174 16.6341 1000 100.904 197.049 478.341
725 0 59.07 13.7125 810 106.354 197.072 475.93
726 0 59.2532 10.0416 595 110.765 196.956 474.476
727 0 60.0605 15.5177 932 105.688 199.499 473.866
728 0 65.1365 13.6483 889 108.382 199.704 474.573
729 0 64.2868 11.3087 727 112.758 200.878 473.393
730 0 68.2484 14.2714 974 109.863 200.47 471.004
731 0 73.1286 13.1002 958 112.32 201.04 472.565
732 0 73.1902 14.5375 1064 110.501 200.664 472.514
733 0 77.138 18.1882 1403 106.64 201.118 471.639
734 1 86.1478 10.749 926 116.896 200.686 471.281
735 0 82.5687 16.5559 1367 108.311 200.377 469.161
736 0 84.2241 13.9628 1176 114.144 200.205 465.899
737 0 89.2458 15.8215 1412 110.067 199.171 465.717
738 0 92.6123 16.704 1547 108.984 199.383 464.492
739 0 97.535 17.4809 1705 106.233 198.684 469.908
740 1 47.1072 11.633 548 110.23 198.473 489.307
741 0 51.0939 11.7822 602 108.281 196.331 489.86
742 0 52.0538 14.1776 738 106.214 197.104 486.673
743 0 53.099 12.9569 688 108.775 196.315 485.606
744 0 56.296 9.45004 532 114.682 193.647 489.891
745 0 57.0964 12.4176 709 111.934 193.759 487.426
746 0 59.1641 11.916 705 114.495 194.529 482.284
747 0 61.1823 11.5556 707 116.334 193.54 480.023
748 0 63.404 16.3712 1038 109.093 194.643 480.456
749 0 66.1676 13.9948 926 113.702 193.96 477.476
750 0 68.2337 16.7659 1144 107.217 193.779 482.677
751 0 70.2302 11.3626 798 118.926 193.05 473.386
752 0 72.2207 15.2034 1098 112.798 192.954 470.754
753 1 39.3155 11.9292 469 109.49 192.416 486.606
754 0 39.2033 9.41248 369 112.875 194.496 491.035
755 0 39.0785 7.47213 292 115.75 193.483 488.161
756 0 43.0672 10.2398 441 112.02 193.424 486.916
757 0 46.0801 12.2613 565 106.117 196.074 480.048
758 0 44.0965 12.0645 532 107.218 195.686 485.028
759 0 45.0362 9.52567 429 110.233 196.366 486.538
760 0 47.0346 15.5205 730 103.127 195.696 483.893
761 0 50.1073 12.9722 650 109.423 196.892 480.431
762 0 48.1849 11.9955 578 113.493 195.9 476.737
763 0 51.2342 15.9659 818 109.57 197.697 476.512
764 0 52.2895 13.9607 730 107.601 197.507 478.778
765 0 55.2106 13.1315 725 115.956 198.552 475.829
766 0 58.2184 13.7929 803 112.564 199.025 473.98
767 0 59.0983 11.6416 688 117.467 199.545 473.581
768 0 59.2194 11.8373 701 117.91 199.866 475.475
769 0 64.1797 12.9636 832 120.013 199.981 471.024
770 0 67.1579 17.3621 1166 110.922 200.603 469.629
771 0 66.1398 13.0935 866 118.92 201.447 470.309
772 0 68.113 13.4042 913 118.001 201.319 472.527
773 0 72.4897 13.7123 994 118.11 201.738 468.716
774 0 74.0844 12.3238 913 121.512 201.645 471.893
775 0 78.3548 14.6385 1147 116.656 200.812 469.223
776 0 80.1406 14.5869 1169 117.341 201.403 470.883
777 1 41.1406 13.2716 546 111.725 201.112 491.663
778 0 43.527 12.1304 528 117.977 199.396 486.451
779 0 40.0425 12.6366 506 112.421 200.126 492.156
780 0 43.0216 11.4826 494 111.632 201.318 494.98
781 0 45.0355 10.5694 476 113.941 200.725 493.447
782 0 48.0978 12.5993 606 110.216 200.404 490.53
783 0 46.1528 12.957 598 110.064 199.756 494.316
784 0 47.0422 11.0539 520 114.208 199.315 492.319
785 0 49.056 10.7428 527 114.943 198.342 489.019
786 0 51.1092 13.9114 711 112.145 197.428 489.243
787 0 53.0794 12.4342 660 115.239 197.177 488.502
788 0 57.2281 17.6836 1012 110.332 196.029 484.362
789 0 58.1915 14.5382 846 117.221 195.571 484.08
790 0 58.1982 13.6602 795 116.653 194.431 480.457
791 0 60.2213 13.5334 815 116.577 194.867 479.032
792 0 63.3235 13.8495 877 114.141 192.888 479.577
793 0 64.367 15.6913 1010 111.948 193.793 478.373
794 0 64.2305 12.6731 814 118.307 194.617 471.699
795 0 69.1993 13.4828 933 116.424 192.548 469.057
796 0 70.3273 12.7262 895 117.295 193.257 469.56
797 0 73.5174 15.3161 1126 113.611 193.319 468.634
798 0 75.5535 11.6871 883 120.114 193.258 467.897
799 0 79.3652 13.671 1085 118.212 194.015 464.992
800 0 79.398 12.5444 996 119.579 193.564 463.892
801 1 42.1027 13.3958 564 111.809 194.413 482.718
802 0 38.0458 8.93659 340 116.109 193.906 484.476
803 0 40.0619 12.7303 510 112.227 194.504 479.729
804 0 44.0982 13.2205 583 109.708 195.118 478.827
805 0 44.0281 10.4706 461 114.985 196.317 477.033
806 0 45.1046 12.726 574 112.321 196.683 475.92
807 0 48.0672 12.4617 599 112.519 196.628 474.621
808 0 48.1653 11.9173 574 112.997 198.901 475.237
809 0 55.114 11.6304 641 113.594 199.105 475.769
810 0 54.0979 15.6014 844 110.089 199.288 474.425
811 0 55.2148 15.0684 832 112.624 200.347 474.356
812 0 55.3628 12.8245 710 115.748 199.832 474.98
813 0 59.0924 14.6719 867 115.143 200.116 474.57
814 0 61.1373 13.9195 851 115.516 202.02 473.127
815 0 64.2181 15.0425 966 113.62 201.147 471.437
816 0 64.1964 11.8231 759 119.565 201.752 473.02
817 0 66.2871 13.7131 909 115.558 201.179 470.541
818 0 67.3362 11.2124 755 118.726 201.307 473.095
819 1 38.1882 12.0194 459 114.865 201.488 486.806
820 0 41.1013 12.9923 534 113.2 201.448 489.436
821 0 40.1385 12.5814 505 116.453 199.962 488.271
822 0 42.2605 12.5413 530 115.538 200.887 488.019
823 0 43.0694 10.9591 472 119.352 199.964 489.733
824 0 44.0244 14.0604 619 115.372 201.696 486.359
825 0 47.0534 14.4304 679 113.511 199.89 488.929
826 0 45.0273 13.614 613 116.909 199.992 487.377
827 0 47.0537 11.4337 538 118.716 198.844 489.877
828 0 50.1187 16.3612 820 111.707 198.865 486.35
830 0 50.0798 12.7796 640 116.383 197.919 489.652
831 0 53.1558 17.5145 931 109.363 197.624 487.954
832 0 54.1022 14.2693 772 114.409 196.672 482.96
833 0 50.2892 12.8855 648 120.511 196.802 481.255
834 0 57.272 11.4017 653 120.346 196.067 482.476
835 0 61.1334 13.2006 807 114.529 194.986 480.343
836 0 63.2275 13.9654 883 113.814 195.972 476.772
837 0 65.2972 13.385 874 115.175 195.832 471.791
838 0 67.2582 12.9501 871 116.963 195.544 471.144
839 0 70.3378 10.8334 762 119.217 195.361 472.508
840 0 74.1416 8.49725 630 121.867 194.335 471.533
841 0 77.1611 17.0423 1315 108.241 195.096 468.308
842 0 76.4215 12.7844 977 115.775 195.021 461.91
843 0 80.245 12.8731 1033 113.887 195.108 469.852
844 0 74.2875 6.421 477 118.998 194.765 472.828
845 1 42.0875 10.5732 445 112.564 196.481 480.625
846 0 45.1409 11.2315 507 113.651 196.365 476.596
847 0 46.2379 13.7117 634 110.227 195.125 471.08
848 0 48.1958 12.4285 599 113.346 196.042 472.631
849 0 47.2024 11.6519 550 116.475 196.951 474.636
850 0 51.0633 11.7109 598 114.916 198.848 475.416
851 0 49.1342 13.2494 651 115.041 198.575 472.564
852 0 55.0577 12.95 713 113.003 200.475 474.008
853 0 54.1546 10.7101 580 115.469 199.46 474.126
854 0 56.0846 19.1675 1075 102.606 201.283 475.14
855 0 59.0807 18.5001 1093 103.917 200.598 472.1
856 0 60.1046 12.9441 778 111.45 201.595 473.684
857 0 62.0573 13.3264 827 110.586 202.154 473.489
858 0 63.1684 20.3108 1283 101.202 202.772 474.553
859 0 66.1365 11.7635 778 115.865 203.014 472.234
860 0 67.2695 12.3087 828 113.743 203.145 474.678
861 0 69.1085 13.4716 931 114.242 202.871 469.119
862 0 74.2637 13.5463 1006 112.107 202.156 474.173
863 0 77.3929 18.0378 1396 105.926 201.999 466.693
864 0 78.2427 14.6084 1143 111.965 202.004 466.503
865 0 83.4946 12.5158 1045 113.767 200.698 470.189
866 0 85.2566 13.1251 1119 113.691 201.335 462.318
867 0 88.3083 12.932 1142 113.318 201.3 466.745
868 1 47.1234 12.202 575 112.557 199.885 488.642
869 0 49.168 12.2031 600 112.94 198.615 487.018
870 0 50.1585 11.7428 589 113.608 198.647 488.154
871 0 55.1888 11.8683 655 114.576 198.365 484.87
872 0 55.1548 17.2424 951 106.668 197.142 482.267
873 0 54.1011 11.7558 636 115.813 196.439 481.34
874 0 60.3469 14.9303 901 108.543 196.423 481.108
875 0 59.205 13.3435 790 112.696 196.195 481.027
876 0 61.2251 14.9612 916 109.131 196.391 478.761
877 0 64.142 13.2519 850 110.936 194.74 475.259
878 0 67.0613 12.6899 851 111.765 195.402 473.088
879 0 67.1059 13.9332 935 111.479 194.795 470.323
880 0 70.1399 12.7887 897 113.409 195.333 469.381
881 0 71.2407 12.563 895 113.524 195.158 468.873
882 0 76.1828 15.6728 1194 108.568 195.233 467.582
883 0 79.1938 12.4631 987 112.066 194.458 464.662
884 0 80.2497 15.0032 1204 109.218 194.911 463.056
885 0 81.1327 13.0897 1062 112.945 194.638 464.014
886 0 90.4433 14.5837 1319 108.701 195.203 463.822
887 0 90.214 13.9446 1258 112.354 195.956 458.622
888 0 93.2057 16.3617 1525 109.736 195.424 450.329
889 0 97.4885 15.8685 1547 109.992 196.037 450.354
890 0 100.22 16.4339 1647 107.14 197.211 457.261
891 1 52.087 10.732 559 113.767 197.589 476.705
892 0 53.0966 14.0687 747 108.487 198.096 476.78
893 0 56.0887 13.6213 764 112.493 197.55 472.213
894 0 59.0463 15.4963 915 109.954 198.08 470.613
895 0 58.1644 11.6738 679 117.267 199.452 470.259
896 0 61.0343 13.091 799 115.946 200.091 469.611
897 0 62.1085 13.1544 817 114.076 200.465 471.919
898 0 65.1525 12.9082 841 114.794 200.658 465.891
899 0 67.1914 13.9899 940 114.366 201.19 464.573
900 0 70.1163 13.5061 947 115.678 201.799 467.239
901 0 69.1063 12.025 831 119.876 201.545 466.049
902 0 74.1534 13.108 972 117.284 202.553 467.628
903 0 77.1088 11.9701 923 119.104 202.967 467.221
904 0 81.2792 17.5814 1429 110.128 202.6 466.171
905 0 83.1984 13.2935 1106 119.274 202.326 465.988
906 0 84.3056 11.8735 1001 122.999 202.238 465.473
907 0 85.1354 12.7209 1083 122.739 202.055 465.116
908 0 90.3671 13.6443 1233 121.003 201.379 459.046
909 0 96.1641 14.1945 1365 116.683 200.226 461.415
910 0 100.224 14.2581 1429 117.141 199.763 462.305
911 1 53.1967 9.1171 485 122.32 199.697 483.571
912 0 57.1311 11.4474 654 119.115 201.396 485.72
913 0 56.0641 12.3609 693 117.123 200.789 484.329
914 0 56.081 12.4106 696 110.092 199.182 478.836
915 0 55.2174 9.16377 506 118.253 198.01 476.895
916 0 61.236 11.2189 687 113.098 197.023 477.713
917 0 62.0946 11.1926 695 112.724 196.201 479.089
918 0 64.1401 10.6174 681 114.004 194.624 476.883
919 0 66.166 10.8817 720 114.265 196.464 469.578
920 0 66.2242 11.4611 759 113.335 195.542 470.244
921 0 67.1261 10.2792 690 116.978 195.842 470.228
922 0 70.1285 12.5341 879 111.666 195.354 474.199
923 1 141.347 11.4329 1616 121.143 194.882 432.746
924 0 151.391 11.6321 1761 119.559 195.228 427.097
925 0 158.59 12.4472 1974 120.414 194.475 421.219
926 0 164.469 12.44 2046 118.337 194.351 432.732
927 0 168.471 12.9755 2186 119.583 195.296 423.755
928 0 174.494 15.8057 2758 114.761 195.773 417.033
929 1 155.429 7.28306 1132 121.894 196.297 448.308
930 1 47.0736 11.3227 533 110.734 196.25 479.341
931 0 50.0891 12.0984 606 109.871 197.67 476.784
932 0 54.1852 9.48599 514 106.558 197.521 479.839
933 0 51.0815 11.2565 575 110.263 198.014 473.904
934 0 54.1486 12.8166 694 111.434 197.343 473.196
935 0 57.2162 13.4403 769 109.217 198.585 471.399
936 0 59.3534 12.5519 745 111.365 198.906 470.34
937 0 59.2518 12.9447 767 112.386 200.718 472.838
938 0 61.1114 12.5018 764 112.106 200.529 470.327
939 0 63.1992 13.3071 841 110.195 201.024 469.076
940 0 64.0751 11.7831 755 112.155 201.22 467.758
941 0 71.4297 17.7657 1269 101.407 201.636 468.031
942 0 68.2008 10.8796 742 113.426 202.204 465.806
943 0 70.1864 14.4187 1012 106.671 202.875 470.808
944 0 73.1844 13.7461 1006 107.86 202.913 466.645
945 0 78.2262 14.3302 1121 108.896 202.936 466.521
946 0 78.1476 13.6025 1063 108.624 202.555 463.513
947 0 80.1649 12.8485 1030 109.635 203.039 465.557
948 0 82.138 12.6981 1043 109.704 202.695 465.192
949 0 86.4173 12.7521 1102 112.175 203.155 460.946
950 0 90.4093 13.5495 1225 111.123 202.724 457.996
951 0 95.4647 15.1679 1448 105.599 202.433 457.112
952 0 95.207 11.5118 1096 109.618 201.65 461.266
953 0 101.39 13.8969 1409 104.975 199.93 465.409
954 1 47.1192 13.8797 654 100.365 200.442 491.144
955 0 53.3336 13.4062 715 107.218 199.38 489.566
956 0 51.171 10.0643 515 113.662 199.01 488.439
957 0 52.0816 10.8292 564 108.129 198.798 490.128
958 0 55.1514 11.2599 621 103.53 197.444 489.614
959 0 59.2535 10.4635 620 103.624 196.8 489.018
960 0 62.1908 16.2403 1010 98.7317 196.352 483.453
961 0 63.2343 14.7705 934 100.134 196.435 484.058
962 0 63.2579 11.9669 757 105.91 196.122 480.568
963 0 67.1917 11.6086 780 106.044 197.464 482.749
964 0 67.1759 10.6586 716 107.292 196.032 479.589
965 0 67.2376 10.1877 685 108.8 195.66 479.204
966 0 72.3508 13.4345 972 102.836 195.606 477.636
967 0 73.2147 13.0438 955 106.568 195.077 472.807
968 0 73.1827 8.88188 650 111.535 195.354 474.106
969 0 80.2991 13.9728 1122 106.422 195.279 464.717
970 0 81.6771 11.4965 939 110.709 194.667 464.99
971 1 38.0642 10.745 409 107.878 196.587 484.875
972 0 43.5252 11.1889 487 107.092 194.947 477.507
973 0 45.1807 12.3061 556 103.261 195.793 476.268
974 0 47.3282 11.9379 565 102.582 196.133 477.869
975 0 49.1367 13.5337 665 98.1038 196.436 481.281
976 0 46.134 13.3091 614 104.502 197.353 477.433
977 0 47.1317 10.8632 512 107.062 197.416 480.678
978 0 47.1455 11.0085 519 107.25 197.368 478.382
979 0 52.0691 10.4861 546 108.035 198.57 478.02
980 0 52.0691 10.4284 543 134.006 200.558 478.053
981 0 57.226 10.6245 608 111.757 200.24 474.15
982 0 58.5205 13.1749 771 108.76 200.728 470.241
983 0 62.2743 11.8026 735 110.763 200.517 473.314
984 0 61.3726 9.74377 598 113.875 201.455 472.211
985 0 67.2635 12.5923 847 108.406 201.769 468.832
986 0 73.503 13.3328 980 105.58 202.372 472.165
987 0 71.3863 12.2573 875 108.735 201.702 472.625
988 0 75.3594 15.2868 1152 104.638 203.123 468.512
989 0 75.4268 11.6669 880 114.58 202.368 472
990 0 82.6687 13.7537 1137 110.106 203.253 471.697
991 0 81.4005 12.8623 1047 115.094 203.525 466.196
992 0 82.3798 13.7291 1131 111.221 202.559 472.115
993 0 87.4016 9.95405 870 113.744 203.078 474.415
994 0 89.3132 11.5436 1031 114.507 202.907 469.372
995 1 49.2278 13.2039 650 109.834 203.072 487.603
996 0 49.2256 11.234 553 115.257 201.844 488.897
997 0 52.1046 12.1486 633 107.592 200.13 490.569
998 0 53.2248 14.2791 760 111.745 200.237 488.329
999 0 56.1338 21.4131 1202 100.916 199.774 491.477
1000 0 55.0567 11.3883 627 120.049 199.603 486.569
1001 0 57.0762 12.3694 706 118.387 198.04 484.455
1002 0 58.14 11.7303 682 118.443 197.752 488.543
1003 0 62.2226 14.191 883 113.626 197.479 485.008
1004 0 64.2827 14.4051 926 115.562 197.018 481.478
1005 0 64.1314 13.6439 875 118.779 195.042 477.727
1006 0 66.2785 11.3159 750 121.448 196.059 478.652
1007 0 69.2773 12.0963 838 120.798 195.881 477.495
1008 0 70.2019 9.67211 679 125.292 195.414 477.012
1009 0 72.232 10.8262 782 122.417 194.529 475.166
1010 0 76.2956 13.6181 1039 117.228 195.21 472.585
1011 0 77.5647 15.3291 1189 116.775 195.229 467.578
1012 0 80.2689 13.2181 1061 120.539 194.278 466.054
1013 0 80.0728 12.5885 1008 121.213 195.237 465.745
1014 0 78.3773 12.0443 944 120.861 193.679 465.85
1015 0 89.2551 14.8787 1328 115.463 195.635 461.352
1016 0 91.2998 12.1468 1109 120.17 196.124 462.74
1017 0 90.2375 11.6581 1052 118.671 195.923 464.232
1018 0 98.2206 15.8419 1556 114.303 196.306 453.409
1019 0 97.4306 13.4557 1311 122.394 196.825 448.404
1020 1 52.1477 10.988 573 114.497 197.785 477.225
1021 0 51.1153 13.8902 710 110.968 198.354 473.099
1022 0 55.2822 11.794 652 117.638 197.939 474.39
1023 0 55.2449 11.0236 609 121.663 198.547 473.299
1024 0 59.2314 14.2661 845 116.089 199.849 471.671
1025 0 56.2681 10.6632 600 121.938 200.042 469.837
1026 0 61.1261 13.0223 796 115.191 200.181 473.149
1027 0 65.1948 13.0072 848 115.7 202.066 470.657
1028 0 67.308 14.2331 958 113.751 200.807 466.957
1029 0 66.1504 14.5426 962 114.598 202.686 466.445
1030 0 71.0958 13.6295 969 115.509 203.354 463.991
1031 0 71.2476 14.4707 1031 113.823 202.037 467.247
1032 0 75.1434 12.0703 907 116.105 202.731 469.454
1033 0 83.528 13.6242 1138 112.781 202.633 470.892
1034 0 80.5053 11.7259 944 119.239 203.747 463.856
1035 0 83.5769 11.1753 934 118.44 203.101 469.054
1036 0 87.1059 12.9038 1124 115.222 202.954 468.456
1037 0 92.1589 15.1695 1398 112.294 202.095 467.431
1038 0 93.2078 15.8249 1475 113.119 202.952 465.096
1039 0 93.2194 9.86919 920 123.846 200.677 467.411
1040 0 101.189 13.2524 1341 116.802 200.037 465.833
1041 0 107.254 13.0904 1404 118.164 200.175 462.282
1042 0 111.822 13.745 1537 113.731 199.697 467.771
1043 0 110.401 12.6267 1394 117.894 199.647 464.319
1044 0 113.168 9.63171 1090 121.932 198.572 462.351
1045 0 119.506 13.0955 1565 117.076 197.654 456.569
1046 0 121.551 12.6531 1538 117.709 197.279 457.504
1047 1 69.2091 12.7151 880 113.961 197.207 478.781
1048 0 70.2471 13.2247 929 114.72 195.944 476.08
1049 0 72.4354 11.4861 832 117.093 195.326 475.915
1050 0 74.288 11.59 861 115.676 194.906 477.276
1051 0 76.1787 11.4861 875 115.813 193.699 473.144
1052 0 79.387 12.3572 981 115.424 194.419 469.166
1053 0 80.2906 12.928 1038 112.328 194.017 473.65
1054 0 84.5612 13.706 1159 112.956 194.757 464.728
1055 0 87.5985 10.0915 884 117.833 194.868 464.854
1056 0 90.4363 14.8945 1347 109.261 194.747 465.875
1057 0 94.4802 16.8501 1592 104.693 194.249 461.122
1058 1 171.584 12.711 2181 117.584 193.925 422.445
1059 1 100.289 13.1819 1322 112.154 194.808 458.512
1060 1 50.2417 9.35477 470 113.485 194.579 475.334
1061 0 54.5497 10.1925 556 113.068 195.399 473.273
1062 0 58.1992 14.0895 820 104.072 196.051 477.052
1063 0 57.0656 15.526 886 104.333 197.246 474.676
1064 0 58.0951 13.4435 781 106.871 197.474 475.508
1065 0 61.0682 16.8664 1030 104.557 198.321 470.591
1066 0 63.1126 13.5631 856 110.751 198.257 470.384
1067 0 65.2379 12.3854 808 113.161 198.949 468.843
1068 0 65.324 12.1701 795 113.589 199.233 469.836
1069 0 68.4814 12.9816 889 113.622 199.688 464.746
1070 0 70.6418 12.3298 871 114.801 200.566 463.653
1071 0 74.7962 13.3563 999 113.745 200.855 464.177
1072 0 83.7043 10.8955 912 116.933 201.776 462.85
1073 0 79.7565 14.4565 1153 112.99 201.779 459.271
1074 0 82.5018 14.63 1207 112.162 202.752 458.387
1075 0 84.6305 12.6196 1068 115.805 203.192 457.267
1076 0 88.4969 14.7689 1307 110.746 201.95 460.029
1077 0 89.2652 12.6813 1132 114.965 201.819 459.703
1078 0 87.4886 9.86414 863 121.012 202.512 460.127
1079 1 61.312 10.7157 657 110.983 202.053 483.096
1080 0 53.2654 8.84252 471 115.257 202.389 480.308
1081 0 54.3631 13.2075 718 111.805 200.811 475.468
1082 0 54.3631 13.1523 715 122.225 198.814 475.445
1083 0 59.2785 12.7871 758 110.146 199.574 478.908
1084 0 63.2271 11.5299 729 111.134 200.115 480.447
1085 0 62.1934 14.262 887 108.134 198.267 479.411
1086 0 64.0824 12.4527 798 109.964 199.138 481.574
1087 0 66.1871 13.0237 862 108.252 197.854 480.842
1088 0 72.1714 13.1077 946 108.035 197.588 477.261
1089 0 73.2236 13.2881 973 109.653 196.091 474.433
1090 0 73.1991 10.3007 754 114.159 196.357 474.5
1091 0 77.2729 13.1223 1014 108.552 195.966 476.212
1092 0 81.1712 13.6255 1106 108.788 194.897 470.16
1093 0 83.4424 13.734 1146 110.353 193.953 464.283
1094 0 83.5239 13.0262 1088 111.983 193.64 460.012
1095 0 85.389 11.6877 998 111.515 193.683 471.98
1096 0 89.2556 13.2092 1179 110.993 194.27 463.827
1097 0 90.2694 15.5091 1400 109.093 193.839 456.309
1098 0 96.4871 16.4789 1590 108.314 194.013 458.556
1099 0 100.489 14.9569 1503 111.522 192.951 455.878
1100 0 103.727 14.2586 1479 113.859 193.682 452.407
1101 0 105.592 16.5637 1749 110.691 193.951 448.081
1102 0 109.485 13.3443 1461 115.26 194.841 450.869
1103 1 58.3839 10.5509 616 114.74 195.297 476.377
1104 0 62.1409 12.4878 776 111.812 194.68 474.228
1105 0 63.0813 13.015 821 111.442 195.603 473.505
1106 0 61.1139 9.78501 598 115.895 195.92 473.151
1107 0 66.1708 17.1375 1134 105.279 197.071 470.492
1108 0 69.1954 16.3595 1132 106.356 195.685 467.817
1109 0 70.2268 13.6558 959 112.234 197.251 466.024
1110 0 73.1736 13.7071 1003 111.207 198.559 467.361
1111 0 75.3559 12.8988 972 112.51 198.299 466.15
1112 0 78.2534 13.239 1036 112.961 198.572 462.754
1113 0 81.0968 15.4507 1253 108.598 197.506 458.675
1114 0 83.4023 14.9277 1245 108.48 197.769 463.186
1115 0 87.5023 13.4054 1173 112.452 199.725 458.178
1116 0 83.3196 12.026 1002 116.898 200.347 454.913
1117 0 92.1514 13.1523 1212 111.852 200.654 460.493
1118 0 98.1593 14.0078 1375 109.161 199.913 461.375
1119 0 96.1997 11.8296 1138 114.564 200.919 457.58
1120 1 53.0785 10.4751 556 107.847 201.363 485.311
1121 0 52.1816 11.1534 582 112.206 200.338 482.022
1122 0 57.2213 13.8934 795 105.221 200.482 485.419
1123 0 58.126 11.802 686 112.652 199.488 482.701
1124 0 57.2161 10.5215 602 115.543 200.867 482.982
1125 0 60.0887 12.7145 764 112.283 199.175 480.202
1126 0 61.1653 11.2646 689 115.961 198.097 483.671
1127 0 66.1912 14.8962 986 105.965 197.21 483.136
1128 0 68.1021 15.3593 1046 105.957 197.533 481.649
1129 0 70.1191 14.1901 995 108.746 195.959 480.577
1130 0 72.0867 13.0399 940 111.848 195.553 479.731
1131 0 71.144 11.0059 783 116.962 194.395 476.267
1132 0 75.136 11.8319 889 115.666 194.804 476.63
1133 0 78.1469 13.3083 1040 114.413 193.712 474.103
1134 0 84.123 16.7849 1412 106.003 195.329 478.07
1135 0 83.2642 14.1477 1178 108.289 193.191 476.374
1136 0 84.3129 13.3787 1128 112.494 193.424 471.492
1137 0 85.2059 16.0552 1368 109.232 192.1 465.713
1138 0 89.2706 13.207 1179 112.661 191.906 470.097
1139 0 90.2559 11.1129 1003 115.817 192.113 471.904
1140 1 48.2017 10.6428 513 111.754 192.099 488.193
1141 0 49.408 9.81622 485 112.08 189.573 485.342
1142 0 51.2262 11.9861 614 108.07 192.803 483.616
1143 0 52.1666 12.6134 658 109.714 192.67 484.152
1144 0 50.0961 10.8192 542 116.489 193.149 481.566
1145 0 54.1487 12.7612 691 112.789 193.431 480.886
1146 0 55.1092 12.8654 709 112.924 193.865 474.384
1147 0 57.0684 11.0569 631 117.624 193.769 474.144
1148 0 58.0797 11.1571 648 116.534 194.497 474.525
1149 0 62.155 11.0048 684 116.146 193.098 473.244
1150 0 62.0866 14.2704 886 112.441 195.579 464.069
1151 0 65.0959 12.6275 822 113.582 196.015 464.882
1152 0 68.0937 12.2625 835 112.907 195.849 469.872
1153 0 68.1355 11.1249 758 116.55 198.201 466.579
1154 0 69.2162 14.0718 974 111.155 197.701 468.127
1155 0 74.2329 13.4711 1000 111.071 199.403 466.244
1156 0 77.1011 14.7598 1138 109.185 199.047 463.139
1157 0 79.1488 13.8347 1095 113.146 198.997 460.483
1158 0 83.2384 11.5932 965 115.462 200.205 461.824
1159 0 83.0692 11.7613 977 115.043 199.972 462.208
1160 0 87.1716 12.5729 1096 113.937 201.913 460.704
1161 0 89.2532 14.6101 1304 111.59 201.878 461.819
1162 0 91.3072 15.1686 1385 110.75 202.57 460.058
1163 0 97.1166 13.4169 1303 112.769 201.131 458.871
1164 1 148.346 10.0037 1484 121.658 201.728 434.131
1165 1 101.271 9.11418 923 118.71 200.068 461.833
1166 0 103.302 11.1517 1152 117.903 199.429 456.431
1167 0 106.25 9.96708 1059 116.436 199.38 463.457
1168 0 106.276 8.52496 906 118.558 199.198 467.309
1169 0 109.306 10.338 1130 116.67 198.681 462.919
1170 0 118.234 10.42 1232 115.705 198.742 458.162
1171 1 188.607 14.4162 2719 116.052 197.452 421.085
1172 0 191.589 16.0761 3080 113.573 197.712 425.721
1173 0 198.896 12.2828 2443 121.311 195.849 416.565
1174 0 201.547 8.68283 1750 128.207 195.259 413.378
1175 0 214.504 14.0977 3024 118.054 195.219 408.605
1176 1 224.704 12.3496 2775 120.744 195.487 399.933
1177 0 226.841 13.1414 2981 119.642 194.468 409.185
1178 0 228.209 13.5709 3097 120.181 193.437 403.894
1179 0 237.578 12.9305 3072 121.874 194.353 397.243
1180 0 230.497 6.32114 1457 125.199 193.098 425.084
1181 0 234.683 6.69413 1571 129.384 192.728 411.544
1182 1 179.604 9.04767 1625 120.085 193.803 446.127
1183 1 90.2715 16.5058 1490 110.383 193.565 466.464
1184 0 91.2394 11.3986 1040 120.825 193.086 462.201
1185 1 50.058 10.8274 542 116.223 192.293 485.518
1186 0 50.1554 10.7865 541 119.723 193.192 480.244
1187 0 53.11 11.9375 634 115.692 192.883 477.331
1188 0 56.1354 16.5493 929 104.685 193.09 476.372
1189 0 54.2891 12.986 705 113.505 193.786 479.403
1190 0 52.1492 9.30025 485 119.394 193.433 476.852
1191 0 59.1383 11.0757 655 118.475 193.493 473.539
1192 0 62.0504 14.182 880 112.095 195.084 472.072
1193 0 63.1311 12.1493 767 116.158 195.907 471.338
1194 0 66.0867 13.8606 916 112.791 196.296 470.862
1195 0 66.1781 10.7437 711 120.366 197.221 466.349
1196 0 71.1783 13.2344 942 114.176 197.16 468.797
1197 0 75.2453 14.3265 1078 112.466 197.696 465.397
1198 0 75.139 14.0273 1054 112.991 198.648 465.799
1199 0 77.2049 14.1442 1092 113.948 198.678 461.933
1200 0 76.1747 13.1671 1003 117.223 200.005 461.726
1201 0 87.1462 11.2569 981 118.542 200.36 461.129
1202 0 90.1351 11.3496 1023 117.696 201.394 463.445
1203 0 88.2799 14.1369 1248 115.104 201.415 457.852
1204 0 90.221 13.9879 1262 114.017 201.905 462.485
1205 0 95.1155 13.2576 1261 113.425 200.92 463.582
1206 0 97.1328 13.4146 1303 115.297 201.759 455.867
1207 0 101.163 12.554 1270 118.259 202.792 456.986
1208 0 104.16 15.4762 1612 112.051 201.318 460.933
1209 0 107.216 12.6194 1353 118.453 201.504 457.577
1210 1 61.0718 15.0151 917 109.92 201.019 481.145
1211 0 58.1333 12.6605 736 116.59 201.083 481.924
1212 0 61.279 17.3143 1061 107.231 199.904 484.737
1213 0 61.0591 15.5259 948 110.79 198.41 483.366
1214 0 64.1106 12.1665 780 115.174 197.115 484.831
1215 0 65.0645 12.3877 806 116.68 197.53 482.84
1216 0 68.0675 12.752 868 116.177 196.069 479.629
1217 0 70.1319 14.3729 1008 111.541 194.126 479.565
1218 0 69.1139 10.3452 715 116.684 194.597 480.639
1219 0 72.1487 11.8644 856 114.759 194.708 474.206
1220 0 76.2273 12.5546 957 114.049 193.574 473.359
1221 0 79.1009 13.0972 1036 114.332 193.292 466.947
1222 0 85.2095 13.4844 1149 112.704 191.896 468.993
1223 0 84.1618 13.2839 1118 109.86 193.693 470.88
1224 0 88.1699 12.7935 1128 110.199 191.962 468.046
1225 0 89.1145 8.02338 715 117.048 191.12 460.656
1226 0 97.2595 8.26654 804 115.541 191.956 469.082
1227 1 49.0442 14.0893 691 106.962 193.022 483.631
1228 0 50.0711 12.2825 615 110.48 193.769 482.511
1229 0 54.1228 13.34 722 108.331 193.729 480.724
1230 0 55.059 17.7264 976 102.585 193.653 477.214
1231 0 57.1995 11.2239 642 113.215 193.421 478.743
1232 0 59.0475 12.6339 746 110.536 194.794 477.554
1233 0 61.1653 12.8668 787 109.794 195.662 473.762
1234 0 64.1789 13.1196 842 108.895 194.779 474.436
1235 0 61.0494 12.9076 788 111.657 195.815 470.522
1236 1 124.457 15.1217 1882 106.908 197.259 445.302
1237 0 134.357 12.37 1662 109.244 196.671 437.14
1238 0 135.349 9.63433 1304 113.544 197.777 440.607
1239 0 137.399 11.7686 1617 111.751 198.095 440.458
1240 1 77.2039 11.8906 918 112.105 198.783 463.329
1241 0 73.1116 11.079 810 114.989 199.879 460.204
1242 0 78.1606 12.5383 980 111.909 200.061 458.872
1243 0 82.1928 12.6775 1042 110.165 200.34 462.29
1244 1 42.0365 11.9896 504 110.417 199.738 478.256
1245 0 46.1226 14.6132 674 104.22 199.27 479.631
1246 0 49.0995 12.2812 603 105.247 200.018 483.426
1247 0 48.1208 13.8194 665 106.952 201.066 480.272
1248 0 51.1232 11.9124 609 107.074 200.916 483.612
1249 0 53.0663 14.0202 744 104.427 201.224 483.371
1250 0 55.1408 14.1456 780 106.683 200.377 481.468
1251 0 58.1835 11.1887 651 111.293 201.06 481.842
1252 0 57.1998 13.7413 786 107.584 199.833 480.316
1253 0 56.0386 12.4022 695 111.413 200.639 482.8
1254 0 59.1761 14.1104 835 109.317 199.986 484.486
1255 0 63.1634 13.4255 848 109.045 200.633 482.693
1256 0 63.1821 12.2345 773 112.102 199.536 484.216
1257 0 66.1538 11.9419 790 111.343 198.496 486.767
1258 0 66.1538 12.0023 794 138.923 197.487 486.748
1259 0 69.2175 12.179 843 114.167 197.497 482.442
1260 0 70.1529 14.0835 988 112.353 197.14 476.816
1261 0 70.3777 11.3957 802 115.915 196.893 481.611
1262 0 78.1392 15.8179 1236 106.536 194.944 477.067
1263 0 79.1682 12.2019 966 113.893 194.111 471.331
1264 0 87.1143 11.594 1010 114.5 194.184 470.877
1265 0 86.1507 11.5147 992 114.979 194.601 473.9
1266 0 85.1686 11.9762 1020 115.304 193.337 469.078
1267 0 87.1684 12.0915 1054 114.03 192.88 467.378
1268 0 87.2111 11.6384 1015 115.73 193.137 464.825
1269 0 89.2613 12.7155 1135 113.398 191.781 462.474
1270 0 97.5883 15.9445 1556 105.656 192.065 464.535
1271 0 96.3354 13.6295 1313 112.171 192.117 458.925
1272 0 97.4147 13.1705 1283 113.255 193.355 455.477
1273 0 98.2891 11.0185 1083 116.544 193.364 454.212
1274 0 102.177 11.3529 1160 114.486 193.517 456.378
1275 0 106.163 12.2171 1297 116.075 193.816 451.533
1276 0 110.343 12.4339 1372 113.666 194.336 444.336
1277 0 112.51 9.81242 1104 118.63 195.542 447.498
1278 1 62.1582 11.1007 690 112.407 194.609 472.013
1279 0 66.3499 14.3632 953 107.339 195.647 469.057
1280 0 67.1788 14.5879 980 108.493 195.858 465.753
1281 0 71.1715 14.1068 1004 109.172 197.944 467.005
1282 0 71.1715 14.1068 1004 128.222 199.977 467.117
1283 1 139.623 12.899 1801 112.504 198.147 433.499
1284 0 143.642 17.7316 2547 106.44 198.491 433.534
1285 1 79.5033 13.7353 1092 112.098 199.914 456.51
1286 0 81.3862 13.6264 1109 112.427 200.234 457.778
1287 0 84.3203 13.935 1175 111.516 201.542 461.227
1288 0 87.1621 12.6775 1105 113.696 202.427 460.896
1289 0 89.3158 15.2045 1358 110.259 202.161 460.11
1290 0 91.4904 13.3347 1220 112.556 202.145 458.976
1291 0 97.4631 15.1544 1477 107.544 202.217 461.227
1292 0 98.2357 12.6023 1238 112.742 202.171 454.583
1293 1 51.0848 10.8447 554 110.57 202.475 483.352
1294 0 55.1485 11.1517 615 111.416 202.233 482.498
1295 0 57.1708 13.2585 758 108.165 201.376 482.063
1296 0 58.0358 12.32 715 109.864 199.478 483.515
1297 0 63.2651 11.9813 758 108.722 200.603 482.148
1298 0 63.1583 12.6508 799 109.202 200.232 483.478
1299 0 65.1482 12.5713 819 109.121 201.115 487.347
1300 0 67.2757 14.2399 958 108.614 199.706 479.481
1301 0 70.1293 12.5768 882 110.241 198.731 480.729
1302 0 74.3174 11.72 871 112.033 196.627 477.302
1303 0 73.2163 11.9099 872 112.841 195.919 476.011
1304 0 78.1945 12.0213 940 112.213 195.451 476.024
1305 0 80.3053 12.1536 976 111.666 195.224 478.615
1306 0 86.1738 16.4435 1417 103.634 194.274 473.293
1307 0 86.2818 11.3234 977 112.694 193.846 470.262
1308 0 95.3299 12.6613 1207 111.8 192.462 461.286
1309 0 99.407 17.7352 1763 104.581 192.876 465.012
1310 1 53.0508 11.4042 605 108.226 193.835 488.007
1311 0 51.0819 11.7654 601 110.245 192.78 483.253
1312 0 54.1698 11.9624 648 112.123 192.806 481.063
1313 0 56.2238 15.1537 852 104.428 191.347 478.248
1314 0 61.5676 12.0518 742 110.92 193.594 480.084
1315 0 60.2325 9.74558 587 117.595 191.971 475.865
1316 0 61.383 13.8312 849 110.36 193.728 476.333
1317 0 62.1026 11.3039 702 115.265 192.47 473.916
1318 0 61.2002 13.0065 796 115.015 193.319 470.378
1319 0 70.134 13.2461 929 111.803 193.452 468.269
1320 0 71.1341 13.6925 974 110.726 196.181 472.056
1321 0 71.3654 15.0493 1074 108.716 194.71 469.574
1322 0 73.2063 12.9907 951 114.425 195.512 462.537
1323 0 77.1587 12.7529 984 113.085 196.221 464.124
1324 0 77.0995 11.4917 886 114.769 196.886 466.441
1325 0 82.2885 12.0308 990 113.705 198.145 463.66
1326 0 83.2582 14.5571 1212 111.668 197.926 457.9
1327 0 84.4835 13.044 1102 114.982 199.559 459.047
1328 0 92.3308 11.8595 1095 113.8 200.082 456.889
1329 0 91.3042 13.5153 1234 113.123 199.474 453.9
1330 1 48.1167 13.3426 642 108.679 200.48 480.193
1331 0 51.0807 15.3874 786 104.575 200.912 484.144
1332 0 53.0823 11.8118 627 113.399 202.096 481.077
1333 0 52.2295 17.1934 898 105.924 199.617 481.54
1334 0 54.2248 11.7843 639 113.404 201.294 481.099
1335 0 56.1888 12.9919 730 111.644 200.951 483.122
1336 0 56.2756 13.0963 737 112.408 201.487 483.763
1337 0 59.1102 17.1375 1013 105.117 200.137 485.154
1338 0 64.1614 12.2036 783 112.644 200.198 484.904
1339 0 64.316 13.7757 886 111.59 200.086 481.328
1340 0 66.2324 13.2412 877 112.881 198.486 480.855
1341 0 67.2452 17.5923 1183 106.295 198.09 480.713
1342 0 67.2958 11.338 763 116.121 198.655 486.084
1343 0 71.3615 14.0272 1001 112.723 197.007 481.288
1344 0 76.3344 19.3098 1474 102.393 196.917 482.813
1345 0 78.2135 12.9645 1014 113.708 194.245 477.767
1346 0 77.1168 11.2297 866 116.679 194.871 479.408
1347 0 84.3705 12.8955 1088 114.908 193.458 470.693
1348 0 84.4691 12.6318 1067 113.153 194.565 460.815
1349 0 87.3971 11.2246 981 115.116 193.18 458.916
1350 1 47.119 11.5452 544 108.548 192.987 482.421
1351 0 46.1603 12.4782 576 105.951 192.903 488.142
1352 0 49.0831 12.0204 590 107.773 192.829 484.441
1353 0 49.1471 12.8594 632 106.153 192.924 485.989
1354 0 50.2072 13.4244 674 106.693 192.297 482.623
1355 0 54.1828 13.5098 732 109.78 192.84 483.933
1356 0 56.0824 13.2662 744 110.718 192.262 477.145
1357 0 57.2366 15.8814 909 107.398 193.446 476.788
1358 0 59.1482 13.8128 817 110.782 192.504 476.919
1359 0 59.1482 13.948 825 132.161 191.555 476.874
1360 0 62.1129 13.9424 866 106.521 193.528 476.505
1361 0 63.3462 13.0552 827 110.339 194.357 471.843
1362 0 64.211 18.8597 1211 101.841 195.363 476.001
1363 0 68.0376 13.9776 951 110.484 195.204 468.333
1364 0 70.0873 13.0694 916 112.139 195.695 467.687
1365 0 71.5015 16.685 1193 108.641 196.093 461.692
1366 0 75.6337 12.706 961 114.706 197.546 463.639
1367 0 76.5037 16.6789 1276 108.358 198.361 464.426
1368 0 80.5403 14.5145 1169 112.541 198.207 459.061
1369 0 81.4327 13.2256 1077 115.864 199.065 458.824
1370 0 84.3549 12.7556 1076 117.771 199.751 457.052
1371 1 128.454 12.3857 1591 117.126 199.999 439.549
1372 0 132.622 11.6346 1543 118.896 200.688 438.368
1373 1 93.1415 12.1106 1128 117.519 200.735 457.475
1374 0 97.1148 12.3153 1196 115.285 201.941 459.064
1375 1 52.3403 14.2911 748 108.833 201.001 479.882
1376 0 53.142 13.511 718 111.103 202.049 481.143
1377 0 53.064 12.2305 649 116.077 200.986 478.45
1378 0 55.1281 10.6661 588 118.223 200.359 482.245
1379 0 59.262 13.2125 783 114.844 199.701 482.418
1380 0 61.413 12.5055 768 117.628 200.484 478.493
1381 0 64.2837 11.1692 718 118.462 199.928 478.343
1382 0 65.0893 12.5059 814 116.636 199.902 477.036
1383 0 66.4301 12.8857 856 114.812 198.932 477.758
1384 0 68.2744 9.62294 657 120.598 198.492 477.782
1385 0 74.5207 13.4057 999 113.07 197.733 478.735
1386 0 73.3741 11.2846 828 118.663 196.719 474.879
1387 0 78.2782 14.2824 1118 114.023 194.719 470.109
1388 0 81.2442 14.4256 1172 113.517 195.212 473.842
1389 0 82.3852 12.9028 1063 116.8 194.512 468.611
1390 0 82.2891 11.3381 933 119.608 194.583 467.658
1391 0 89.3669 13.9313 1245 114.506 194.353 465.651
1392 0 89.3551 13.5415 1210 114.403 194.421 468.888
1393 0 95.5296 12.7186 1215 116.959 194.378 466.2
1394 0 99.2803 12.8021 1271 118.128 194.098 462.371
1395 0 103.231 15.5089 1601 114.484 193.295 458.949
1396 1 54.0862 11.3892 616 119.615 193.976 480.214
1397 0 57.053 11.5331 658 119.002 192.271 479.322
1398 0 59.2677 14.4767 858 112.951 192.318 476.047
1399 0 59.1507 16.1621 956 112.147 192.209 474.432
1400 0 61.1018 11.62 710 121.444 192.901 469.782
1401 0 63.1187 13.3083 840 118.663 193.387 471.981
1402 0 67.2348 13.8916 934 117.532 193.413 467.616
1403 0 69.3294 14.7268 1021 118.217 192.512 463.232
1404 0 73.4597 13.8035 1014 120.09 192.238 463.974
1405 0 74.6158 13.8577 1034 120.548 193.084 464.003
1406 0 75.3443 13.6839 1031 122.103 194.083 461.205
1407 0 81.461 16.4987 1344 114.925 195.347 460.689
1408 0 82.2249 14.9225 1227 118.407 196.345 460.775
1409 0 84.4337 15.1954 1283 118.648 196.131 457.235
1410 0 88.6027 13.7016 1214 120.687 196.851 457.185
1411 0 92.4646 18.5044 1711 113.075 197.962 454.959
1412 1 48.1747 10.5034 506 120.34 196.982 474.706
1413 0 52.2615 13.8534 724 114.204 198.53 474.956
1414 0 52.0723 13.3276 694 114.367 199.369 475.695
1415 0 54.1336 12.4137 672 117.183 200.107 474.737
1416 0 56.0363 13.8125 774 116.457 201.443 476.641
1417 0 55.0665 11.8766 654 122.83 200.266 478.728
1418 0 58.1948 12.7503 742 120.822 200.136 477.287
1419 0 59.1096 13.0266 770 119.655 200.251 477.848
1420 0 65.2132 16.0857 1049 112.813 201.057 476.947
1421 0 64.1929 17.1826 1103 113.07 200.786 476.961
1422 0 65.1667 12.3069 802 121.695 200.288 479.623
1423 0 64.258 12.0141 772 121.977 199.105 480.361
1424 0 69.5829 13.6384 949 121.268 199.714 474.784
1425 0 70.3393 13.9609 982 121.803 199.023 473.003
1426 1 143.284 15.4449 2213 121.933 198.933 441.51
1427 0 152.594 14.7516 2251 122.254 197.963 440.701
1428 0 151.593 14.1432 2144 153.548 196.951 442.278
1429 0 154.905 13.9118 2155 124.376 196.589 442.978
1430 0 150.485 10.6655 1605 130.217 196.461 441.137
1431 0 152.637 11.8124 1803 126.938 194.339 442.982
1432 1 90.5246 13.9962 1267 122.357 193.627 464.32
1433 0 92.2872 13.0354 1203 124.447 192.753 462.763
1434 0 96.3043 16.7282 1611 118.265 193.409 459.84
1435 0 97.3306 13.2332 1288 124.117 192.484 462.033
1436 0 101.375 13.6621 1385 123.756 192.825 459.913
1437 0 103.25 14.3536 1482 122.542 191.54 457.754
1438 1 58.1284 11.7671 684 121.285 191.396 480.694
1439 0 61.1535 13.7359 840 118.204 191.526 473.131
1440 0 64.0988 13.292 852 118.653 190.708 474.083
1441 0 67.201 15.9075 1069 113.167 190.509 473.576
1442 0 68.1701 13.4516 917 118.381 191.712 469.563
1443 0 72.0892 12.5261 903 120.248 191.392 467.231
1444 0 73.238 15.634 1145 115.624 192.441 467.309
1445 0 75.3106 12.1895 918 122.175 192.272 463.164
1446 0 78.1305 14.8214 1158 116.896 192.965 462.287
1447 0 79.3136 10.7043 849 126.022 193.494 456.49
1448 0 82.1082 13.6162 1118 118.451 195.603 447.535
1449 0 85.3658 13.612 1162 119.193 195.528 447.19
1450 0 88.0673 13.8076 1216 121.092 195.071 450.16
1451 0 92.3212 13.5938 1255 121.167 196.845 450.414
1452 0 96.1807 16.1051 1549 114.935 197.367 447.296
1453 0 105.19 11.4744 1207 120.26 198.273 449.036
1454 0 104.263 14.9237 1556 116.02 198.605 443.231
1455 0 106.308 14.063 1495 119.593 198.29 437.967
1456 0 108.36 11.7478 1273 123.564 199.467 437.404
1457 0 114.37 12.4508 1424 120.555 199.979 436.39
1458 1 63.2355 10.5637 668 117.223 200.259 463.385
1459 0 66.1475 12.2 807 113.031 199.299 469.204
1460 0 65.0493 9.99242 650 118.749 200.482 468.566
1461 0 70.1169 13.1922 925 113.301 200.401 467.072
1462 0 73.0872 12.5877 920 112.402 200.509 469.502
1463 0 77.3256 15.0403 1163 109.028 200.381 469.414
1464 0 77.1314 14.6633 1131 110.274 199.837 468.476
1465 0 80.4135 13.4555 1082 113.108 199.626 467.375
1466 0 82.2465 11.3561 934 116.011 198.683 466.315
1467 0 84.3471 9.89957 835 118.619 199.651 466.75
1468 0 89.4045 18.008 1610 105.222 198.683 469.191
1469 0 91.44 13.0249 1191 114.123 197.448 463.526
1470 0 90.4302 12.6064 1140 116.246 197.529 465.882
1471 0 97.3236 13.0184 1267 114.728 197.667 462.836
1472 1 52.3426 11.291 591 111.124 196.21 478.758
1473 0 56.2715 9.66742 544 108.68 195.333 487.531
1474 0 58.1256 11.1483 648 109.804 194.258 479.707
1475 0 58.1127 7.84683 456 112.621 193.283 483.088
1476 0 58.0913 10.4835 609 112.897 195.34 479.511
1477 0 58.1846 11.326 659 111.065 194.414 481.85
1478 0 64.1521 12.4548 799 108.824 194.596 475.392
1479 0 63.1343 10.2638 648 110.688 192.591 475.454
1480 0 67.2504 16.5204 1111 102.533 193.44 474.248
1481 0 64.0773 8.1308 521 114.804 192.2 474.866
1482 0 67.186 11.9817 805 108.591 191.234 475.078
1483 0 72.1296 11.2852 814 108.785 191.377 467.396
1484 0 73.2779 13.2509 971 105.771 191.916 469.941
1485 0 75.1451 14.4254 1084 104.481 190.974 463.5
1486 0 76.1172 12.218 930 108.54 191.975 465.059
1487 0 76.2219 10.3776 791 111.149 192.091 468.456
1488 0 82.122 12.1283 996 109.876 193.331 462.757
1489 0 82.2485 11.0883 912 112.51 193.196 460.2
1490 0 85.1922 12.1725 1037 110.814 194.324 459.789
1491 0 92.5312 15.4651 1431 105.314 194.089 451.167
1492 0 92.2922 13.1539 1214 109.637 195.086 454.325
1493 0 96.5862 10.4777 1012 112.973 194.85 449.387
1494 0 99.6707 9.90261 987 113.845 195.689 450.057
1495 1 57.1804 8.25458 472 113.138 196.773 471.191
1496 0 58.1856 10.7243 624 110.41 197.353 470.78
1497 0 58.092 10.8449 630 109.319 198.733 468.602
1498 0 59.1453 10.1614 601 110.684 199.231 469.99
1499 0 59.0653 10.5476 623 111.329 198.427 466.597
1500 0 62.1708 9.63475 599 112.716 200.424 467.437
1501 0 64.0552 12.2238 783 109.86 200.716 471.091
1502 1 117.393 8.8421 1038 118.051 201.127 454.518
1503 0 126.367 12.6695 1601 114.476 201.242 441.697
1504 0 127.316 14.1067 1796 112.55 201.527 443.682
1505 0 128.685 11.2523 1448 117.693 202.266 443.542
1506 0 129.331 10.5698 1367 120.519 201.388 440.839
1507 0 136.609 12.2101 1668 117.458 201.793 437.448
1508 0 141.603 12.422 1759 117.222 200.728 439.333
1509 1 82.3665 11.5095 948 112.313 200.917 462.174
1510 0 82.2926 11.0946 913 115.302 199.404 456.391
1511 0 85.1894 10.8816 927 115.599 200.235 468.179
1512 0 87.3367 11.1522 974 115.379 199.802 470.427
1513 0 91.1777 12.5031 1140 114.692 198.748 465.88
1514 1 52.1882 9.79149 511 113.904 196.295 483.029
1515 0 52.2204 11.6047 606 111.394 196.03 480.328
1516 0 54.1385 10.5101 569 114.292 194.025 486.009
1517 0 54.1034 11.2932 611 113.563 194.846 484.29
1518 0 56.145 10.8647 610 114.366 194.372 484.959
1519 0 54.126 10.6603 577 115.804 193.997 485.442
1520 0 59.1705 13.2499 784 113.278 194.293 477.55
1521 0 60.3001 13.2504 799 114.282 193.544 478.788
1522 0 59.1621 9.88809 585 120.713 193.321 478.791
1523 0 63.369 12.2457 776 114.414 192.293 476.524
1524 0 65.3253 10.9146 713 118.77 192.331 477.494
1525 0 68.0627 12.2975 837 115.611 192.43 474.87
1526 0 69.2354 12.0748 836 116.883 191.573 471.988
1527 0 69.0477 12.4696 861 114.244 192.05 469.897
1528 0 71.1357 11.9209 848 115.478 192.285 474.916
1529 0 74.1263 12.0335 892 114.419 191.916 470.71
1530 0 75.1186 11.2223 843 115.778 191.842 470.958
1531 0 76.2883 11.876 906 116.788 192.658 465.439
1532 0 80.1995 14.7382 1182 112.42 192.432 463.565
1533 0 80.3359 11.7756 946 114.776 193.632 466.327
1534 0 84.1645 12.2142 1028 115.418 194.11 460.781
1535 0 88.1105 13.8803 1223 111.942 195.076 460.95
1536 0 88.2695 12.2466 1081 113.025 195.685 459.68
1537 0 96.1173 12.3495 1187 111.002 196.5 457.572
1538 0 96.1455 14.3532 1380 109.604 196.38 459.324
1539 0 104.265 13.1588 1372 112.974 197.431 454.536
1540 1 57.1005 10.7705 615 120.296 198.455 472.797
1541 0 59.0809 16.0966 951 112.012 200.345 472.274
1542 0 61.1702 12.9965 795 117.727 200.296 471.081
1543 0 62.0929 10.6775 663 122.544 200.208 472.674
1544 0 62.169 13.222 822 116.212 200.482 473.112
1545 0 63.0621 11.8296 746 119.684 200.369 474.054
1546 0 69.0737 14.1009 974 113.567 201.872 473.991
1547 0 70.2274 14.0401 986 115.39 201.566 470.657
1548 0 72.0974 15.5762 1123 111.845 199.661 470.518
1549 0 73.245 11.7414 860 117.276 199.573 475.028
1550 0 75.1151 12.847 965 115.788 200.047 474.174
1551 0 75.099 12.4502 935 115.875 199.898 475.299
1552 0 79.1134 13.5881 1075 113.825 198.725 468.172
1553 0 80.1179 13.218 1059 115.337 199.158 474.211
1554 0 83.1031 16.7743 1394 108.228 197.617 477.119
1555 0 86.3584 13.8029 1192 115.17 198.669 467.624
1556 0 90.1687 11.6448 1050 116.53 197.707 474.934
1557 0 100.169 16.592 1662 105.594 196.832 459.303
1558 1 53.2719 14.6419 780 110.005 196.897 483.742
1559 0 52.2464 11.5415 603 113.012 195.274 485.391
1560 0 53.1389 14.6221 777 110.115 194.659 484.539
1561 0 54.1477 13.02 705 114.186 193.56 484.757
1562 0 55.1656 12.2903 678 113.836 193.289 486.499
1563 0 58.0565 11.196 650 115.92 195.288 485.618
1564 0 58.032 13.3202 773 113.128 193.814 481.279
1565 0 57.1096 9.9633 569 117.091 193.105 481.81
1566 0 61.2457 10.1558 622 118.074 192.868 477.093
1567 0 62.0364 10.9774 681 115.765 191.844 475.856
1568 0 67.0932 11.1934 751 115.924 193.052 475.611
1569 0 69.0908 17.2816 1194 106.018 193.545 472.256
1570 0 71.0719 15.1959 1080 108.568 193.265 471.672
1571 0 71.0719 15.2944 1087 135.42 194.241 471.676
1572 0 78.156 16.5566 1294 107.284 192.696 464.425
1573 0 77.1384 11.2525 868 118.233 192.448 464.877
1574 0 80.1816 13.8436 1110 113.41 193.183 463.74
1575 0 82.2021 11.8489 974 115.156 192.518 463.069
1576 0 89.2336 14.9944 1338 110.51 193.628 458.194
1577 0 89.2608 15.9645 1425 111.095 194.728 454.06
1578 0 90.3127 15.0588 1360 112.857 195.297 450.638
1579 0 94.1489 12.7564 1201 116.112 196.02 451.939
1580 0 97.1356 11.0361 1072 118.504 196.062 452.37
1581 0 99.4366 10.0466 999 121.066 196.472 447.37
1582 0 104.369 13.1265 1370 114.417 197.5 449.394
1583 0 108.228 15.0331 1627 113.122 198.414 443.021
1584 0 111.193 14.6053 1624 113.855 198.448 448.323
1585 0 112.282 14.0182 1574 111.547 199.809 454.274
1586 0 117.323 10.9697 1287 117.228 199.708 451.988
1587 1 66.314 14.1448 938 110.69 200.28 471.867
1588 0 67.1526 13.2534 890 112.954 200.412 470.973
1589 0 67.1134 13.0376 875 114.519 200.471 470.456
1590 0 70.1204 14.8602 1042 111.06 201.215 470.27
1591 0 72.1276 13.7395 991 112.045 200.448 471.268
1592 0 77.4679 16.4713 1276 106.923 199.874 474.381
1593 0 78.2055 15.6767 1226 110.796 199.428 468.723
1594 0 86.6552 12.6132 1093 114.226 200.122 471.362
1595 0 85.1069 13.5712 1155 113.919 199.457 467.046
1596 0 85.1004 12.5264 1066 115.235 199.288 469.591
1597 0 86.2218 11.2153 967 119.035 197.9 469.247
1598 0 96.227 12.0444 1159 116.142 198.078 471.443
1599 0 92.1636 11.9787 1104 117.568 198.081 462.832
1600 0 102.297 13.5096 1382 112.944 196.461 466.748
1601 0 101.305 14.2144 1440 116.873 196.831 462.862
1602 0 104.235 13.4983 1407 118.749 194.562 458.168
1603 1 55.1289 12.3166 679 115.046 194.944 485.458
1604 0 56.0558 11.6491 653 115.25 195.259 483.66
1605 0 58.0875 11.345 659 116.662 195.033 481.675
1606 0 63.0655 10.4336 658 115.225 194.687 483.213
1607 0 64.2541 13.1665 846 113.056 194.098 478.47
1608 0 66.0962 13.5257 894 113.824 193.504 476.715
1609 0 67.224 13.4624 905 115.406 193.196 472.491
1610 0 74.2072 15.8879 1179 108.775 193.102 473.779
1611 0 73.2169 13.9039 1018 113.057 193.517 475.007
1612 0 76.1815 15.6731 1194 110.291 192.706 472.851
1613 0 77.2964 12.9113 998 115.616 192.918 470.432
1614 0 79.2638 12.881 1021 118.586 191.72 447.546
1615 0 83.5007 14.4909 1210 115.675 193.597 456.545
1616 0 81.2652 12.0347 978 118.407 191.463 461.426
1617 0 85.2948 13.0606 1114 116.384 193.56 457.798
1618 0 91.2891 13.6818 1249 113.171 192.568 458.865
1619 0 96.21 19.2184 1849 106.492 193.141 454.929
1620 1 51.3516 12.7357 654 115.48 194.443 469.005
1621 0 56.2638 12.3703 696 114.922 195.72 469.365
1622 0 55.1036 13.3385 735 115.955 195.615 467.287
1623 0 57.0608 14.0377 801 115.16 196.704 472.191
1624 0 60.1235 14.2207 855 113.665 197.516 471.729
1625 0 60.1503 13.5161 813 116.107 197.506 467.531
1626 0 64.2345 12.9525 832 114.823 198.03 468.466
1627 0 64.194 14.1135 906 114.257 198.231 468.337
1628 0 67.1716 13.6069 914 114.603 199.432 467.119
1629 0 72.2306 14.6475 1058 111.322 199.38 465.131
1630 0 74.151 14.0254 1040 112.426 200.831 467.223
1631 0 75.4516 15.7717 1190 110.644 199.347 467.724
1632 0 78.2451 14.1223 1105 114.368 200.133 467.452
1633 0 78.2451 14.199 1111 139.796 201.152 467.494
1634 0 82.563 15.3216 1265 113.334 201.524 464.85
1635 0 87.0988 14.8337 1292 112.074 202.097 470.315
1636 0 86.3955 13.797 1192 116.826 200.773 465.544
1637 0 90.3564 14.974 1353 115.391 200.88 462.142
1638 0 94.3584 15.0914 1424 114.107 200.812 465.978
1639 0 96.2301 14.2159 1368 116.526 199.691 463.303
1640 0 99.2048 13.4873 1338 118.044 199.446 460.818
1641 0 107.269 16.8921 1812 109.237 197.544 469.224
1642 0 107.339 17.5333 1882 111.11 198.072 462.131
1643 0 107.185 13.3321 1429 117.873 196.276 455.915
1644 1 62.0781 10.7445 667 113.595 195.367 486.357
1645 0 63.0918 11.4753 724 113.388 195.115 485.11
1646 0 64.0656 13.3925 858 111.478 193.547 480.015
1647 0 67.1403 13.4792 905 111.514 192.988 478.528
1648 0 68.2642 14.0191 957 112.001 193.346 477.78
1649 0 71.1499 12.2839 874 111.426 192.628 479.325
1650 0 75.1921 13.0067 978 110.925 192.538 474.16
1651 0 76.2257 14.562 1110 109.865 192.264 472.075
1652 0 75.1274 11.2476 845 114.58 192.598 473.111
1653 0 80.3827 11.3457 912 113.714 191.69 468.318
1654 0 83.1048 10.938 909 113.756 191.421 468.944
1655 0 87.4279 11.9413 1044 112.084 191.703 466.446
1656 0 90.2672 13.0058 1174 111.257 191.518 461.106
1657 0 93.268 12.5767 1173 111.742 192.047 461.714
1658 0 99.4009 17.1025 1700 104.717 193.018 457.625
1659 0 103.533 12.4501 1289 112.034 192.14 450.368
1660 1 54.1485 9.51089 515 112.249 193.887 472.163
1661 0 56.0844 14.7456 827 103.911 194.264 475.658
1662 0 59.0724 11.4097 674 110.318 194.007 473.602
1663 0 60.1366 13.8684 834 106.942 193.944 473.048
1664 0 62.1406 13.6465 848 109.974 196.373 469.078
1665 0 64.2206 11.0245 708 113.15 196.273 469.79
1666 0 65.1259 12.6831 826 110.23 197.219 467.821
1667 0 68.1231 11.5526 787 111.182 197.518 467.119
1668 0 71.1733 11.5071 819 112.659 198.274 461.013
1669 0 72.2092 11.1205 803 113.435 197.804 461.167
1670 0 77.3236 12.1179 937 110.651 199.56 465.916
1671 0 77.162 11.5342 890 112.239 198.944 465.33
1672 0 78.1814 12.2536 958 112.379 199.261 464.019
1673 0 78.384 12.4515 976 110.914 198.512 464.891
1674 0 80.1096 12.2332 980 112.536 200.565 462.323
1675 0 87.2091 11.7992 1029 112.254 200.555 462.121
1676 0 92.2729 15.6059 1440 107.11 199.765 462.458
1677 0 96.4137 16.0558 1548 105.798 200.649 464.798
1678 1 52.1575 13.2675 692 106.419 200.617 484.342
1679 0 52.1575 13.2867 693 134.268 199.618 484.244
1680 0 57.2761 12.8151 734 108.557 197.82 483.743
1681 0 57.1448 12.7396 728 113.049 197.771 480.654
1682 0 58.3059 12.0914 705 114.043 197.522 482.099
1683 0 63.1148 9.80753 619 116.703 198.685 482.994
1684 0 63.0772 12.0804 762 113.073 198.707 484.525
1685 0 66.0525 12.0056 793 111.605 197.625 483.066
1686 0 66.0761 11.2295 742 116.035 197.274 478.704
1687 0 69.0476 13.0345 900 112.808 196.497 483.042
1688 0 68.0706 10.2834 700 118.467 195.84 475.506
1689 0 73.0818 13.2454 968 113.132 196.231 475.993
1690 0 78.269 13.9263 1090 110.625 193.206 475.792
1691 0 78.269 13.9391 1091 136.296 191.224 475.663
1692 0 80.1443 10.244 821 117.715 192.3 472.629
1693 1 150.34 10.2435 1540 117.84 191.988 441.784
1694 1 142.301 10.4919 1493 113.94 191.774 456.877
1695 0 139.525 9.68284 1351 116.121 191.151 453.665
1696 0 140.542 13.4479 1890 113.351 191.208 445.772
1697 1 54.0433 12.3604 668 106.72 192.314 487.093
1698 0 49.1334 9.34191 459 114.51 191.41 481.344
1699 0 55.3545 14.1994 786 109.743 190.753 475.275
1700 0 58.0932 14.4767 841 112.331 190.384 471.325
1701 0 57.0673 10.5489 602 118.839 190.028 473.41
1702 0 61.1226 12.7285 778 112.874 192.492 475.177
1703 0 63.0634 13.6846 863 113.423 191.776 470.928
1704 0 65.2531 14.2369 929 110.869 192.837 471.871
1705 0 67.12 13.2002 886 113.185 192.71 468.113
1706 0 67.1109 11.8163 793 116.521 193.594 468.892
1707 0 69.1847 12.6328 874 115.716 194.221 463.97
1708 0 70.2242 12.5598 882 116.697 195.372 464.821
1709 0 73.1553 13.6832 1001 115.673 194.165 457.437
1710 0 75.2773 12.3942 933 117.936 196.85 464.584
1711 0 78.4444 13.6785 1073 115.34 198.074 463.834
1712 0 79.1909 13.0571 1034 117.686 198.093 462.518
1713 0 83.2327 14.4895 1206 116.931 198.746 451.182
1714 0 86.1798 15.0847 1300 113.378 198.985 458.239
1715 0 90.4774 13.6056 1231 113.574 200.342 459.301
1716 0 92.174 13.5939 1253 114.466 200.626 458.363
1717 0 98.2574 13.1797 1295 115.281 200.035 455.589
1718 0 102.207 13.8836 1419 112.733 200.932 462.987
1719 1 53.2397 11.514 613 116.468 199.902 477.206
1720 0 58.3488 15.2531 890 111.535 199.748 476.088
1721 0 60.0731 12.2684 737 115.065 199.704 481.693
1722 0 58.0632 13.6403 792 116.34 199.343 480.539
1723 0 63.14 13.969 882 117.537 198.154 480.129
1724 0 68.2946 14.9206 1019 114.186 198.762 478.101
1725 0 64.2501 13.3852 860 119.092 198.41 478.048
1726 0 67.1568 11.5402 775 124.055 197.337 478.991
1727 0 72.1612 14.2182 1026 119.064 196.916 476.672
1728 0 71.1357 13.2282 941 123.222 197.122 476.544
1729 0 74.1666 12.6472 938 124.207 196.241 477.703
1730 0 77.1198 12.915 996 124.736 195.407 475.267
1731 0 81.1701 13.6257 1106 121.775 193.514 472.497
1732 0 80.0781 12.6377 1012 125.868 193.844 472.069
1733 0 86.1797 13.6807 1179 122.341 193.125 469.109
1734 0 88.2564 14.3786 1269 120.244 192.805 467.087
1735 0 90.1926 17.7509 1601 111.494 191.464 468.758
1736 0 91.1362 12.816 1168 118.166 192.543 466.95
1737 0 95.4524 12.666 1209 124.371 193.034 463.711
1738 0 96.2221 9.65475 929 123.648 192.954 468.719
1739 1 53.2291 14.6536 780 116.412 191.641 481.642
1740 0 55.0721 13.1282 723 117.827 191.968 482.068
1741 0 55.0219 12.5223 689 121.237 192.848 479.652
1742 0 59.1117 14.1258 835 117.333 192.413 479.163
1743 0 60.0642 13.2525 796 120.638 192.53 476.891
1744 0 62.1704 14.1225 878 119.328 192.958 472.77
1745 0 65.0827 14.4432 940 118.473 193.632 470.539
1746 0 66.1121 12.8116 847 119.443 192.956 471.452
1747 0 66.1367 13.3662 884 117.37 194.035 472.239
1748 0 70.0619 11.4042 799 123.428 195.028 464.342
1749 0 73.0766 14.6011 1067 117.37 194.516 465.245
1750 0 76.1061 14.1513 1077 117.65 194.821 463.706
1751 0 78.0704 10.5033 820 122.359 195.367 463.201
1752 0 78.1683 14.0722 1100 116.548 194.908 462.637
1753 0 83.0758 15.1669 1260 113.977 195.191 460.403
1754 0 82.3497 10.5647 870 122.232 196.372 462.869
1755 0 89.1903 13.5553 1209 117.766 196.619 459.703
1756 0 89.2411 15.1612 1353 116.715 198.003 454.984
1757 0 94.1732 13.6982 1290 116.833 197.646 454.483
1758 0 98.3753 15.5933 1534 112.067 199.382 458.868
1759 1 54.2525 13.1054 711 116.191 199.079 476.45
1760 0 54.0819 11.4086 617 120.052 199.569 470.053
1761 0 60.0722 15.0319 903 113.54 200.091 474.402
1762 0 57.06 14.0729 803 117.487 199.993 475.356
1763 0 58.0939 11.8257 687 120.418 199.575 476.051
1764 0 66.1258 13.8524 916 115.434 199.697 477.662
1765 0 64.2403 15.5821 1001 114.137 200.064 475.689
1766 0 67.189 12.889 866 117.74 198.932 477.827
1767 0 70.2256 13.5278 950 119.168 199.029 474.936
1768 0 74.2557 14.2885 1061 116.826 197.73 474.523
1769 0 71.1143 12.8947 917 121.184 198.224 475.317
1770 0 76.3047 13.3412 1018 120.531 197.07 473.806
1771 0 79.1519 15.6029 1235 116.079 195.812 474.175
1772 0 83.3665 16.9013 1409 114.373 194.658 470.468
1773 0 87.2976 14.0095 1223 119.034 194.092 470.397
1774 0 88.3465 14.3073 1264 117.205 194.032 471.364
1775 0 94.2986 14.3374 1352 115.995 192.954 469.405
1776 0 95.1422 15.1668 1443 117.315 192.08 462.826
1777 1 55.3385 11.1315 616 118.153 191.029 486.552
1778 0 55.2903 18.9002 1045 106.807 191.853 482.715
1779 0 55.2626 11.1468 616 120.471 191.383 477.016
1780 0 56.0703 12.3238 691 117.378 191.388 481.271
1781 0 60.1784 13.1443 791 114.537 192.558 481.855
1782 0 61.2338 12.8687 788 116.138 191.855 481.141
1783 0 62.2267 12.7276 792 116.986 191.25 476.601
1784 0 65.1126 14.329 933 112.498 191.651 474.151
1785 0 69.1143 12.1827 842 114.442 190.891 473.901
1786 0 68.3185 13.1443 898 115.435 191.121 467.941
1787 0 69.3394 12.0278 834 116.312 191.029 467.778
1788 0 74.2873 15.3862 1143 110.883 191.019 465.866
1789 0 75.2874 14.7435 1110 111.32 191.352 465.504
1790 0 74.1701 7.92773 588 122.772 192.793 462.347
1791 0 79.2826 12.0707 957 117.432 192.933 457.879
1792 0 82.4245 14.0614 1159 116.079 193.777 455.333
1793 0 86.2942 14.4621 1248 113.627 193.885 454.128
1794 0 88.1813 11.8166 1042 116.216 195.153 456.394
1795 0 90.1779 11.7878 1063 116.547 194.663 453.219
1796 0 93.3993 10.9208 1020 118.223 196.707 451.941
1797 1 52.0794 13.8058 719 111.175 195.477 471.253
1798 0 51.1261 12.0878 618 115.269 196.56 468.385
1799 0 57.0344 11.309 645 117.501 197.546 465.161
1800 0 54.0794 12.907 698 111.337 197.788 464.486
1801 0 58.1633 11.7772 685 117.547 197.127 466.969
1802 0 62.0853 12.7083 789 115.767 198.161 468.635
1803 0 64.109 13.3211 854 115.636 198.508 467.496
1804 0 66.0798 9.74579 644 120.489 199.168 473.941
1805 0 68.1018 12.0702 822 119.816 199.533 469.077
1806 0 71.2489 12.5897 897 117.957 198.133 469.528
1807 0 72.1422 11.6437 840 120.679 199.213 469.937
1808 0 76.3086 13.7206 1047 117.053 197.989 469.6
1809 0 79.1834 14.4222 1142 114.991 199.001 470.618
1810 0 81.3048 10.8727 884 120.964 197.597 468.396
1811 0 88.6478 15.3303 1359 114.475 198.357 465.464
1812 0 88.503 12.6662 1121 121.393 197.425 465.124
1813 0 92.1794 12.7469 1175 117.708 197.754 466.738
1814 1 51.3035 10.4671 537 117.924 195.233 486.529
1815 0 52.1002 10.3838 541 119.296 194.856 486.983
1816 0 53.0854 9.68251 514 125.074 193.619 482.543
1817 0 54.2023 12.1397 658 120.988 193.435 478.967
1818 0 57.3033 14.4843 830 115.277 192.965 478.18
1819 0 58.1682 12.9796 755 117.938 191.975 479.728
1820 0 60.258 12.2473 738 120.625 192.401 476.546
1821 0 64.2984 13.7017 881 117.898 192.658 473.717
1822 0 66.0985 14.9625 989 114.202 192.544 476.925
1823 0 68.1115 13.0815 891 117.565 191.641 473.444
1824 0 68.2762 13.1964 901 117.168 190.868 474.907
1825 0 69.0945 11.9546 826 120.402 190.45 469.961
1826 0 72.1231 13.4631 971 117.472 190.624 466.136
1827 0 75.0969 14.0485 1055 115.5 190.332 468.074
1828 0 77.1812 11.635 898 119.33 190.017 465.359
1829 0 83.3762 10.9384 912 121.936 190.057 463.761
1830 0 82.2108 14.8156 1218 116.338 190.984 462.153
1831 0 85.1855 12.8426 1094 118.396 190.857 458.503
1832 0 89.1554 11.5641 1031 119.684 190.617 456.25
1833 0 93.2265 13.8909 1295 116.32 191.714 457.811
1834 0 94.3394 12.7624 1204 120.11 192.257 450.419
1835 1 190.482 16.7837 3197 116.892 192.568 413.312
1836 0 184.5 8.93227 1648 128.997 193.959 417.65
1837 1 102.18 12.9967 1328 123.196 193.855 438.321
1838 0 107.236 14.3422 1538 118.832 196.06 447.257
1839 0 108.259 12.7473 1380 123.168 196.175 444.309
1840 0 118.397 13.0324 1543 121.577 195.69 446.016
1841 0 118.221 15.6148 1846 117.335 196.34 442.941
1842 0 122.312 13.1549 1609 119.249 197.462 439.121
1843 1 133.21 10.81 1440 122.263 197.472 443.031
1844 0 134.353 12.7649 1715 120.818 198.712 436.969
1845 0 134.184 13.8839 1863 118.748 198.593 435.355
1846 0 132.514 11.1083 1472 125.875 199.786 423.114
1847 0 141.31 15.42 2179 116.3 200.135 434.096
1848 1 212.615 13.4562 2861 123.77 200.159 396.062
1849 1 295.711 16.5466 4893 119.121 199.165 365.076
1850 1 348.83 12.3814 4319 123.777 199.231 350.371
1851 0 351.038 12.5884 4419 118.645 200.251 378.02
1852 0 352.097 10.6107 3736 127.248 199.587 357.859
1853 0 354.187 11.045 3912 127.758 198.588 360.146
1854 1 179.817 14.2701 2566 117.673 198.407 417.414
1855 0 189.863 13.6361 2589 117.239 197.352 417.595
1856 0 197.72 16.2452 3212 112.773 197.284 405.403
1857 0 201.608 13.303 2682 117.877 196.189 410.836
1858 0 210.918 12.0237 2536 120.133 195.45 407.368
1859 0 221.602 14.2959 3168 115.245 193.927 390.296
1860 0 226.605 13.3713 3030 117.299 192.83 407.229
1861 1 167.598 15.0539 2523 117.904 193.267 422.995
1862 0 174.701 14.6421 2558 116.862 192.581 422.156
1863 0 182.707 14.9146 2725 115.08 191.806 418.283
1864 0 186.558 13.1594 2455 117.881 191.207 412.645
1865 0 192.724 13.9111 2681 118.403 191.094 410.527
1866 0 197.446 15.1282 2987 114.595 191.04 405.923
1867 0 203.386 15.886 3231 111.863 190.284 411.53
1868 0 208.637 12.6296 2635 118.044 190.428 396.714
1869 0 214.636 13.7721 2956 116.402 190.379 395.404
1870 0 222.673 17.7256 3947 108.447 191.057 402.433
1871 0 226.802 15.9654 3621 112.983 191.284 392.181
1872 0 323.857 12.2091 3954 120.161 191.096 338.921
1873 1 290.048 14.1976 4118 115.306 190.474 364.909
1874 0 299.745 19.4999 5845 107.918 191.955 363.323
1875 0 306.792 12.9077 3960 116.531 192.07 363.426
1876 0 319.132 12.9351 4128 118.244 191.97 338.848
1877 0 329.374 11.9317 3930 119.773 192.495 330.934
1878 1 214.861 13.7624 2957 115.785 193.436 394.733
1879 0 221.716 14.9831 3322 115.477 194.509 379.638
1880 0 229.87 15.5479 3574 114.097 194.56 382.968
1881 0 234.815 16.4768 3869 113.429 196.097 372.792
1882 0 243.602 16.49 4017 114.151 197.063 369.101
1883 0 247.823 16.5078 4091 115.09 197.017 364.406
1884 0 259.202 14.8919 3860 117.959 198.197 366.369
1885 0 268.302 14.5135 3894 117.704 197.595 365.781
1886 0 275.721 14.5691 4017 117.841 197.14 356.082
1887 0 284.001 14.8556 4219 118.176 198.571 341.376
1888 0 293.134 13.5637 3976 118.464 198.246 350.37
1889 1 72.2608 11.3201 818 99.8973 198.524 466.435
1890 0 73.2539 11.5079 843 101.082 198.517 463.216
1891 0 76.0658 13.5804 1033 98.4618 200.026 461.812
1892 0 77.1645 11.7282 905 100.187 198.455 467.392
1893 0 79.2086 7.72643 612 107.701 199.518 461.209
1894 0 82.2298 12.3799 1018 105.682 199.136 462.329
1895 0 83.1501 12.7841 1063 106.265 197.052 461.29
1896 0 87.1681 12.8487 1120 105.831 197.597 464.532
1897 0 87.1578 11.221 978 104.741 197.526 465.115
1898 0 90.187 12.0971 1091 104.665 197.747 466.907
1899 0 92.167 9.96019 918 108.562 197.721 466.612
1900 0 93.1204 12.4999 1164 105.274 196.108 461.849
1901 0 95.1862 10.8629 1034 108.132 194.94 463.194
1902 0 98.0752 12.2355 1200 105.925 195.202 465.25
1903 0 103.385 14.0059 1448 106.852 192.748 454.365
1904 0 105.151 13.4948 1419 107.187 193.895 456.844
1905 0 109.167 9.81069 1071 111.96 192.157 461.633
1906 0 105.238 11.7828 1240 111.419 192.687 458.143
1907 0 115.101 16.6289 1914 103.614 192.068 441.328
1908 0 112.153 10.1914 1143 113.393 191.681 454.474
1909 0 387.048 18.3156 7089 111.478 190.918 297.695
1910 0 388.244 27.6166 10722 99.9647 191.987 299.281
1911 0 131.506 18.1057 2381 100.591 190.924 433.824
1912 0 124.165 10.9048 1354 113.451 190.75 442.386
1913 0 131.248 13.0364 1711 110.723 189.658 437.013
1914 0 135.422 13.3804 1812 110.521 191.168 431.339
1915 0 147.302 18.961 2793 100.609 190.39 411.843
1916 0 142.483 12.977 1849 113.218 191.342 419.19
1917 0 145.187 17.0538 2476 107.184 191.188 423.115
1918 0 145.3 13.6752 1987 112.828 191.822 432.007
1919 0 149.278 13.8064 2061 112.789 191.81 424.226
1920 0 167.758 23.23 3897 96.4663 192.423 399.438
1921 0 169.286 19.724 3339 100.917 193.433 411.783
1922 0 166.336 14.9998 2495 109.896 193.847 399.901
1923 0 167.355 15.9242 2665 109.077 193.856 409.207
1924 0 173.366 15.2394 2642 111.139 195.903 406.819
1925 0 182.465 18.6392 3401 106.154 196.916 397.856
1926 0 187.572 22.2847 4180 101.728 196.689 397.957
1927 0 192.177 30.2586 5815 93.9451 196.57 393.118
1928 0 194.443 18.8024 3656 107.466 197.906 402.136
1929 0 198.405 17.2324 3419 110.656 199.208 390.606
1930 0 205.4 19.4742 4000 107.134 199.148 382.466
1931 0 213.354 21.2464 4533 105.229 200.071 384.786
1932 0 214.404 16.9073 3625 112.539 201.42 382.172
1933 0 222.453 18.732 4167 109.682 200.613 385.529
1934 0 228.573 25.1736 5754 102.422 200.566 377.767
1935 0 240.355 29.1152 6998 98.4258 200.183 377.885
1936 0 241.49 15.7853 3812 117.654 199.345 368.628
1937 0 256.035 28.2227 7226 99.3559 200.449 369.145
1938 0 260.462 19.4078 5055 111.143 199.596 370.818
1939 0 272.207 22.8061 6208 106.32 199.008 353.834
1940 1 206.499 11.5545 2386 123.138 197.209 399.769
1941 0 216.476 13.5211 2927 118.092 197.826 404.573
1942 0 224.504 13.4742 3025 120.794 198.036 393.795
1943 0 230.829 13.8804 3204 120.754 197.473 387.091
1944 0 240.529 14.651 3524 120.095 196.458 391.554
1945 0 242.542 13.9976 3395 119.439 195.156 390.642
1946 0 243.29 15.7754 3838 118.067 194.919 395.179
1947 0 243.544 13.1516 3203 126.618 193.903 383.907
1948 0 248.544 15.8 3927 120.08 193.43 387.062
1949 0 249.449 14.52 3622 123.358 193.158 381.41
1950 0 255.543 14.1659 3620 124.243 191.749 372.74
1951 0 261.457 17.2877 4520 117.875 191.376 381.492
1952 0 264.685 12.5885 3332 125.351 191.872 377.657
1953 0 268.686 13.3688 3592 123.922 191.563 375.194
1954 0 269.625 13.9305 3756 124.942 191.852 362.043
1955 0 275.55 14.2551 3928 124.509 191.756 360.951
1956 0 278.704 16.4476 4584 120.957 191.198 362.192
1957 0 284.736 16.3169 4646 121.439 190.455 359.587
1958 0 286.575 15.0781 4321 123.565 191.718 363.221
1959 0 288.588 17.596 5078 121.588 191.552 354.047
1960 0 285.482 14.8731 4246 128.671 192.06 362.626
1961 0 283.711 15.9035 4512 128.114 191.301 367.128
1962 0 285.809 17.1863 4912 128.902 192.701 362.299
1963 1 242.827 13.4046 3255 137.038 193.371 374.898
1964 0 245.57 14.3503 3524 135.861 193.276 381.257
1965 0 248.15 16.3651 4061 134.483 194.52 379.508
1966 0 246.878 17.0449 4208 134.566 195.293 384.217
1967 0 247.004 13.348 3297 141.971 196.438 391.144
1968 0 242.629 16.111 3909 141.651 197.149 381.758
1969 0 245.687 11.3396 2786 152.795 197.373 386.493
1970 0 247.068 17.1775 4244 144.75 198.029 376.031
1971 0 246.851 16.8725 4165 147.479 198.415 376.293
1972 0 249.855 16.5976 4147 149.084 198.994 370.722
1973 0 256.837 17.9219 4603 144.708 199.371 380.51
1974 0 256.698 16.3305 4192 149.854 198.722 379.858
1975 0 254.607 15.7655 4014 153.327 199.329 378.532
1976 0 253.878 15.7832 4007 158.262 200.814 376.194
1977 0 253.019 17.2557 4366 159.065 201.477 371.701
1978 0 246.689 15.9756 3941 167.388 201.737 373.2
1979 1 93.8177 11.0747 1039 154.591 199.573 461.594
1980 1 83.4051 11.9057 993 155.604 201.678 452.097
1981 1 100.128 15.0507 1507 152.182 199.93 469.378
1982 0 99.273 12.9441 1285 169.823 199.118 470.341
