time division length width area intensity CMx CMy
0 0 51.2582 11.5104 590 124.546 502.354 445.71
1 0 53.1186 8.86696 471 131.331 504.412 443.412
2 0 51.2172 13.2963 681 119.938 505.752 447.957
3 0 54.3076 10.7167 582 120.517 506.34 438.78
4 0 59.3331 14.0562 834 115.191 506.643 439.918
5 0 59.1432 13.0869 774 118.597 507.195 442.461
6 0 60.0649 14.6508 880 116.616 506.798 447.67
7 0 64.1101 21.2915 1365 108.165 505.653 450.594
8 0 62.2772 11.4649 714 121.669 505.433 442.307
9 0 61.2294 20.6763 1266 112.484 503.128 445.469
10 0 68.2266 13.5578 925 119.841 502.437 442.384
11 0 75.1316 14.3615 1079 118.06 501.798 446.384
12 0 74.1336 16.4568 1220 120.725 500.722 443.693
13 0 80.4092 20.5076 1649 118.128 499.842 441.879
14 0 78.1803 13.2258 1034 129.114 499.262 442.534
15 0 83.5964 15.204 1271 129.502 497.503 441.318
16 0 79.0693 12.6218 998 138.404 495.812 438.408
17 0 85.2449 15.3088 1305 138.012 494.26 436.728
18 0 89.1867 13.8249 1233 143.488 492.659 437.264
19 0 90.0769 15.298 1378 144.686 491.907 433.618
20 1 46.0287 12.7095 585 146.012 490.542 454.472
21 0 45.0298 12.414 559 148.263 489.732 453.692
22 0 48.1074 14.53 699 144.495 490.013 450.95
23 0 49.0696 15.8754 779 142.187 489.164 447.918
24 0 50.1452 14.2985 717 147.916 489.464 446.794
25 0 52.0641 13.6947 713 147.21 490.996 446.926
26 0 51.0178 13.1915 673 150.822 491.049 444.892
27 0 53.0528 13.4771 715 150.102 491.249 442.235
28 0 56.0341 12.5816 705 149.013 492.095 442.678
29 0 56.1172 13.8995 780 142.637 493.654 440.786
30 0 60.0383 12.6419 759 140.733 494.124 443.953
31 0 58.0736 12.1226 704 137.807 495.969 442.189
32 0 62.0354 13.3795 830 128.311 497.978 442.475
33 0 66.1042 19.5147 1290 120.001 499.217 438.592
34 0 66.1343 12.2327 809 127.983 500.656 440.323
35 0 71.4176 14.8703 1062 121.276 503.14 442.335
36 0 71.1801 12.4333 885 122.416 504.267 444.786
37 0 72.1655 14.2173 1026 122.325 504.442 440.059
38 0 73.4619 14.4837 1064 122.131 505.003 434.564
39 0 74.2614 14.5432 1080 121.765 505.194 439.442
40 0 433.446 35.1232 15224 114.418 502.496 260.531
41 1 134.433 17.2577 2320 123.015 503.914 418.708
42 0 137.47 9.26017 1273 133.055 503.96 418.712
43 0 135.41 13.0345 1765 132.752 501.984 414.983
44 0 144.359 14.9765 2162 133.142 501.67 410.59
45 0 146.366 18.6177 2725 126.777 500.811 409.24
46 1 96.3521 18.806 1812 122.487 500.038 435.242
47 0 98.1977 13.0757 1284 133.599 498.757 433.943
48 0 105.242 13.9678 1470 128.107 496.433 428.661
49 1 53.144 10.1234 538 124.652 493.972 456.18
50 0 57.9257 13.1548 762 119.732 491.483 455.999
51 0 59.3249 14.7999 878 117.196 491.2 454.786
52 0 59.0463 14.2431 841 120.471 491.493 451.26
53 0 61.139 19.0549 1165 114.079 490.136 451.028
54 0 61.1933 12.7138 778 123.08 489.753 447.163
55 0 70.1096 16.8736 1183 114.919 488.917 449.521
56 0 65.2005 11.2883 736 125.582 488.658 444.617
57 0 69.1933 16.2877 1127 119.627 488.041 443.193
58 0 73.1763 13.9663 1022 121.779 487.279 442.184
59 0 73.153 16.6774 1220 119.784 487.08 441.402
60 0 75.1322 16.3844 1231 121.389 486.955 435.822
61 0 78.1184 15.0925 1179 122.272 487.395 434.563
62 0 81.3462 12.5144 1018 128.901 488.146 430.988
63 0 85.2419 14.5116 1237 122.677 489.109 430.347
64 0 89.4104 16.441 1470 119.042 491.451 432.239
65 0 89.391 15.4042 1377 120.262 492.279 423.06
66 1 47.2496 10.6456 503 114.085 494.954 449.7
67 0 45.5581 10.4043 474 116.873 496.994 446.426
68 0 51.3176 17.0117 873 107.229 499.016 451.348
69 0 51.1072 15.1446 774 110.483 500.363 450.141
70 0 51.3855 14.3231 736 110.247 501.099 451.511
71 0 56.2262 10.9735 617 111.728 500.806 453.809
72 0 55.3454 14.4727 801 110.414 502.141 450.278
73 0 56.1769 9.36328 526 114.262 501.192 456.525
74 0 61.2186 13.0516 799 111.795 500.929 453.974
75 0 58.0967 9.3637 544 116.184 500.397 456.54
76 0 65.1629 14.2873 931 113.005 500.496 451.56
77 0 64.2549 12.4504 800 118.071 499.409 447.468
78 0 69.4122 19.2617 1337 112.46 499.076 444.049
79 0 69.2436 18.2399 1263 114.964 498.253 448.508
80 0 75.9371 19.5557 1485 112.309 497.629 447.061
81 0 74.1741 16.4208 1218 118.055 496.291 446.329
82 0 77.2437 14.4348 1115 122.984 494.877 447.474
83 0 80.3256 14.3541 1153 123.449 493.184 445.349
84 1 42.0836 11.4534 482 126.133 490.629 463.046
85 0 43.0476 13.9148 599 122.309 489.624 463.159
86 0 42.0426 11.8451 498 131.143 488.187 461.958
87 0 44.1287 9.24568 408 135.642 487.431 459.838
88 0 48.1141 14.2993 688 126.372 486.562 456.706
89 0 47.1024 15.3708 724 125.576 488.093 456.314
90 0 50.2208 12.7238 639 128.326 487.836 455.465
91 0 51.1315 14.4725 740 133.138 487.651 452.418
92 0 55.2623 15.8698 877 127.259 487.645 453.547
93 0 54.2076 12.1016 656 137.056 488.052 450.861
94 0 53.0793 13.169 699 135.612 487.854 451.847
95 0 57.2088 14.1237 808 134.493 487.78 448.167
96 0 59.26 14.2423 844 133.187 488.214 447.201
97 0 63.3105 16.6165 1052 127.445 489.893 446.952
98 0 61.1703 12.9638 793 129.174 492.185 447.917
99 1 127.292 20.8889 2659 128.106 492.414 412.234
100 0 135.227 27.3836 3703 116.91 493.419 424.392
101 0 132.454 13.8765 1838 136.087 495.416 413.871
102 0 140.517 20.0901 2823 126.019 496.726 412.98
103 0 149.003 22.9996 3427 121.287 498.184 410.059
104 0 146.515 22.5505 3304 122.59 499.146 415.225
105 0 151.532 16.0164 2427 128.412 500.227 414.214
106 0 156.502 15.2203 2382 133.123 500.297 407.078
107 1 78.3943 15.0521 1180 123.03 500.627 448.293
108 0 80.2124 23.9364 1920 114.809 500.464 447.828
109 0 82.149 14.8876 1223 127.86 500.942 440.029
110 1 44.0997 8.91163 393 133.048 499.272 462.257
111 0 48.2883 11.7834 569 129.773 499.13 461.311
112 0 45.0915 10.6228 479 133.182 498.403 462.052
113 0 49.1417 13.6137 669 134.955 497.238 459.895
114 0 49.2832 10.6121 523 138.627 496.423 463.015
115 0 49.1382 13.7368 675 133.476 494.163 459.393
116 0 54.069 13.2239 715 130.218 493.966 463.126
117 0 53.2853 13.1181 699 136.973 491.898 459.494
118 0 55.0465 14.3333 789 129.186 489.369 459.26
119 0 56.0701 12.9838 728 134.92 488.037 456.926
120 0 57.1039 13.9745 798 132.197 486.692 454.657
121 0 58.0764 11.2266 652 134.058 485.181 455.853
122 0 57.1706 13.486 771 132.374 483.979 452.379
123 0 57.1706 13.4685 770 130.852 483.004 452.301
124 0 62.1125 15.6007 969 129.421 482.943 445.87
125 0 65.0808 13.8597 902 136.043 482.513 447.614
126 0 67.1225 15.8069 1061 133.59 482.78 442.36
127 0 68.1578 11.4881 783 139.525 482.552 444.756
128 0 68.2042 14.2073 969 136.768 482.82 441.125
129 0 73.1252 15.07 1102 131.135 483.998 442.089
130 0 79.0987 19.7348 1561 121.941 484.292 436.477
131 0 79.3378 15.1378 1201 128.149 486.301 437.955
132 0 81.3137 18.2749 1486 123.282 487.343 435.799
133 0 84.2154 16.4103 1382 124.683 489.66 437.318
134 0 81.2597 11.7032 951 133.947 492.123 430.213
135 0 90.7515 15.7794 1432 124.073 494.513 429.325
136 0 92.5521 13.5923 1258 126.006 495.984 432.266
137 0 95.416 19.242 1836 119.426 497.66 433.409
138 0 102.485 17.6806 1812 121.618 497.354 422.293
139 0 102.673 15.1646 1557 119.739 498.075 430.599
140 0 110.027 22.2854 2452 113.456 497.054 433.035
141 0 105.267 13.974 1471 122.281 496.719 434.528
142 0 106.284 9.86981 1049 128.855 496.593 428.511
143 1 58.2632 15.9277 928 115.65 495.881 455.49
144 0 60.299 12.1395 732 121.544 494.648 457.497
145 0 62.2993 13.2265 824 124.307 494.399 453.016
146 0 62.1002 11.256 699 129.601 493.007 452.305
147 0 67.0472 14.5271 974 126.308 492.334 449.367
148 0 68.1353 13.664 931 135.441 490.885 450.608
149 0 70.1105 15.2759 1071 131.381 488.749 447.033
150 0 70.1105 15.8749 1113 133.308 486.766 447.538
151 0 77.1965 19.5475 1509 123.916 487.236 447.809
152 0 78.2894 13.3351 1044 131.662 484.87 449.996
153 0 81.1611 15.5123 1259 130.669 484.082 443.919
154 0 87.553 15.3735 1346 127.801 482.701 444.58
155 1 43.0761 10.052 433 127.487 481.644 464.619
156 0 45.2222 10.7469 486 134.023 480.765 461.537
157 0 44.0868 11.5908 511 134.556 480.209 458.28
158 0 47.2667 15.6558 740 125.091 480.258 454.809
159 0 51.138 13.3169 681 127.746 480.242 452.764
160 0 54.2614 13.9325 756 124.446 480.153 456.61
161 0 51.1223 13.7709 704 127.964 479.783 451.226
162 0 54.1988 13.6903 742 125.117 481.249 454.23
163 0 55.0367 16.4254 904 119.034 481.319 452.713
164 0 60.553 17.6044 1066 114.017 482.875 451.566
165 0 59.4301 11.9468 710 121.328 484.452 449.185
166 0 59.1867 11.9622 708 120.366 485.651 444.477
167 0 61.1551 13.7029 838 116.054 486.962 448.511
168 0 65.171 12.6283 823 117.889 489.296 447.707
169 0 65.2394 20.2178 1319 106.782 490.116 452.136
170 0 67.2692 18.6266 1253 111.709 492.171 447.709
171 0 71.2842 14.4352 1029 118.669 493.222 444.423
172 0 74.2017 17.0751 1267 115.268 493.657 444.447
173 0 78.2644 17.4792 1368 116.922 494.455 442.066
174 0 80.3128 20.9929 1686 113.524 494.899 446.597
175 0 83.1368 14.2175 1182 123.79 495.019 444.778
176 0 82.1243 11.9575 982 128.898 494.343 442.774
177 1 49.4119 14.4095 712 119 493.181 466.775
178 0 48.0989 14.5949 702 124.513 492.642 464.165
179 0 46.031 11.0143 507 133.284 491.568 463.207
180 0 48.0415 10.9905 528 132.744 490.655 464.208
181 0 51.0693 12.2187 624 133.942 492.479 462.401
182 0 53.1382 12.1946 648 132.431 491.647 459.617
183 0 52.0565 11.6796 608 132.635 489.822 457.668
184 0 56.1003 13.0837 734 127.142 488.398 459.55
185 0 59.1308 13.6646 808 131.168 486.426 459.902
186 0 56.1128 13.259 744 135.567 485.339 455.304
187 0 60.0368 13.3585 802 131.567 483.893 456.035
188 0 63.0646 17.1729 1083 126.478 483.079 450.371
189 0 64.0814 15.137 970 126.889 483.262 453.615
190 0 67.0592 14.1219 947 130.032 482.812 448.442
191 0 68.1343 12.5047 852 130.893 482.888 450.194
192 0 71.1698 17.2405 1227 126.094 481.399 442.65
193 0 72.1388 14.5553 1050 134.954 481.392 442.597
194 0 74.0855 13.5789 1006 136.135 482.071 439.637
195 0 76.1915 16.2223 1236 130.091 480.994 442.712
196 0 80.1411 13.6759 1096 136.555 481.956 440.509
197 0 82.2892 14.6678 1207 133.508 482.454 433.968
198 1 45.232 12.2258 553 131.967 485.074 454.566
199 0 46.2804 11.4519 530 134.196 486.553 452.76
200 0 53.3657 14.9347 797 124.476 484.404 454.862
201 0 51.0499 10.5975 541 133.15 486.211 452.645
202 0 53.0531 14.4007 764 126.627 487.954 452.912
203 0 54.2039 15.7922 856 124.222 489.925 451.855
204 0 56.3468 12.3876 698 129.862 491.798 455.17
205 0 56.2737 14.3762 809 125.519 493.141 457.114
206 0 60.4296 13.7019 828 130.087 493.986 454.372
207 0 60.2736 16.0269 966 127.93 494.057 453.643
208 0 61.3676 18.1529 1114 120.258 494.388 457.718
209 0 64.4194 15.0265 968 130.366 493.99 452.386
210 0 65.2608 16.5183 1078 127.902 494.107 453.356
211 0 67.2637 14.7776 994 134.005 493.332 452.041
212 0 69.1825 22.2455 1539 122.904 492.679 451.453
213 0 69.1886 15.2771 1057 136.989 491.5 451.782
214 0 71.1624 14.4739 1030 139.84 490.655 450.432
215 0 71.1624 14.3896 1024 154.915 489.646 450.359
216 0 79.3549 14.9077 1183 137.288 488.056 448.489
217 0 79.3402 17.2926 1372 129.017 486.604 451.794
218 0 83.4389 15.4005 1285 130.256 484.876 450.912
219 0 86.2346 18.4033 1587 128.946 483.517 445.629
220 1 49.1522 11.3118 556 133.86 481.647 465.691
221 0 44.0501 12.8036 564 137.557 480.707 461.617
222 0 49.0626 13.0649 641 135.655 479.649 459.48
223 0 50.0735 17.1947 861 127.816 479.539 458.009
224 0 48.1145 10.4127 501 135.681 478.503 458.84
225 0 49.131 12.1716 598 130.319 479.199 449.365
226 0 52.1084 11.5337 601 131.075 479.246 450.048
227 0 55.545 13.4846 749 125.724 479.016 451.933
228 0 55.276 14.509 802 126.592 479.383 448.55
229 0 56.1812 13.8658 779 126.05 479.608 444.177
230 0 59.403 13.5852 807 126.119 480.315 443.538
231 0 67.5418 11.1635 754 119.313 481.046 447.276
232 0 64.2993 10.5755 680 122.421 483.059 442.057
233 0 69.3399 14.5659 1010 118.048 484.239 440.685
234 0 66.1374 15.5434 1028 117.652 485.844 438.032
235 0 70.579 14.0693 993 114.099 487.217 443.825
236 0 82.8511 23.3551 1935 104.158 488.6 444.28
237 0 82.4397 18.2558 1505 107.782 491.231 444.69
238 0 78.3232 14.4402 1131 111.34 491.637 439.698
239 0 83.1155 19.0939 1587 109.24 493.364 435.761
240 0 87.8149 16.0223 1407 113.627 493.303 441.827
241 0 90.5728 19.5975 1775 110.036 494.008 440.415
242 1 45.1606 5.71295 258 119.5 495.729 461.252
243 0 48.2324 11.5275 556 116.149 494.405 458.448
244 0 48.2392 10.0955 487 121.807 493.895 458.739
245 0 51.2445 11.0451 566 121.786 494.027 461.205
246 0 54.2612 12.9374 702 124.862 493.489 461.661
247 0 60.7907 14.8542 903 117.212 492.176 461.999
248 0 59.6093 15.0648 898 115.313 491.367 465.52
249 0 55.1611 13.5784 749 125.866 489.912 458.048
250 0 60.184 14.5387 875 120.89 488.569 458.666
251 0 63.3356 13.7521 871 120.774 486.882 458.729
252 0 65.216 15.1497 988 119.217 485.374 458.635
253 0 66.1603 13.029 862 125.774 484.284 457.175
254 0 66.1118 13.9612 923 122.928 482.927 454.024
255 0 72.2313 15.7965 1141 119.716 481.378 453.352
256 0 73.1569 13.5052 988 124.988 480.65 452.599
257 0 73.1451 17.2534 1262 122.727 480.208 445.968
258 0 76.1607 14.1411 1077 126.634 479.97 448.42
259 0 80.2826 16.1803 1299 126.467 479.032 442.202
260 0 79.4676 13.1123 1042 134.379 478.813 440.056
261 0 84.2227 16.7532 1411 124.204 478.352 439.631
262 0 87.2325 16.0032 1396 126.122 478.941 434.097
263 1 50.9688 12.282 626 122.259 480.099 458.465
264 0 52.0649 13.2911 692 121.968 481.085 454.397
265 0 50.1058 12.0745 605 124.95 481.57 454.694
266 0 51.1203 13.5171 691 118.31 482.631 451.625
267 0 54.195 14.2079 770 115.921 484.029 453.684
268 0 55.2641 11.0922 613 120.55 485.568 454.574
269 0 54.0739 12.7973 692 114.98 489.048 455.357
270 0 54.1598 16.3775 887 115.647 490.418 454
271 0 57.3906 11.4479 657 122.4 491.347 452.7
272 0 64.6349 14.2493 921 118.235 493.99 453.383
273 0 62.6647 16.4048 1028 119.125 493.789 449.308
274 0 63.2894 15.832 1002 121.756 494.141 451.538
275 0 65.3392 16.3608 1069 122.883 493.888 450.613
276 0 67.4554 13.0308 879 128.148 494.158 455.327
277 0 74.7029 13.0383 974 128.424 493.927 455.095
278 0 73.3533 16.7 1225 126.209 492.336 448.943
279 0 75.3549 16.0441 1209 130.302 491.758 451.449
280 0 77.2764 16.0981 1244 131.845 490.184 450.492
281 0 78.1663 17.1941 1344 124.913 489.075 453.343
282 0 77.1618 13.6078 1050 134.634 487.455 449.495
283 0 83.1992 16.0578 1336 126.558 486.206 450.978
284 0 84.3022 15.4444 1302 126.257 484.434 450.524
285 0 87.3396 15.4569 1350 129.644 483.071 445.727
286 0 88.0908 17.2322 1518 128.587 481.955 443.921
287 0 93.1516 17.0582 1589 126.755 479.836 443.133
288 0 94.3997 18.178 1716 124.702 479.523 440.787
289 0 97.2517 15.2388 1482 129.862 478.637 439.676
290 0 97.2467 15.0853 1467 134.569 477.648 439.551
291 1 53.3099 9.30409 496 131.909 477.256 456.44
292 0 57.3754 14.6927 843 124.055 476.636 451.855
293 0 58.401 11.6436 680 128.976 476.541 451.435
294 0 60.2185 11.0099 663 132.698 476.65 448.036
295 0 61.3848 16.7631 1029 123.965 477.441 446.714
296 0 63.2267 13.8707 877 125.13 477.091 451.406
297 0 65.3063 14.0262 916 126.438 478.859 445.999
298 0 67.1306 13.228 888 123.912 479.548 449.035
299 0 68.18 14.007 955 124.15 481.091 443.931
300 0 72.1473 15.205 1097 122.987 483.242 441.313
301 0 72.1616 13.0125 939 124.388 484.542 443.445
302 0 78.3157 15.1055 1183 123.13 486.857 445.517
303 0 76.2635 14.0434 1071 131.711 488.664 440.35
304 0 80.2884 13.738 1103 130.486 489.67 442.066
305 0 83.2704 14.9513 1245 132.744 491.783 440.137
306 0 87.2474 18.5679 1620 122.572 491.431 445.989
307 0 89.1896 16.9302 1510 128.718 492.42 435.101
308 1 50.0431 12.6491 633 132.989 493.633 461.874
309 0 49.1419 11.3956 560 139.016 492.464 460.123
310 0 54.2863 16.4314 892 124.854 492.038 463.668
311 0 53.1772 15.4013 819 129.376 492.238 462.98
312 0 53.1258 11.6892 621 140.081 490.477 460.884
313 0 56.1351 12.1671 683 139.612 489.102 462.174
314 0 55.1501 11.6772 644 143.54 486.952 460.252
315 0 58.0578 13.8827 806 139.012 486.136 460.135
316 0 59.0395 13.1607 777 139.638 485.037 459.985
317 0 64.1313 13.9401 894 137.095 483.519 455.955
318 0 64.059 13.6905 877 136.979 482.612 454.086
319 0 70.3125 13.4827 948 133.528 480.898 457.717
320 0 70.1619 16.3621 1148 135.403 479.801 453.272
321 0 72.1294 14.0997 1017 136.243 479.095 453.31
322 0 75.2365 13.6237 1025 136.828 478.096 446.769
323 0 75.2365 13.6769 1029 148.711 477.096 446.859
324 1 40.0311 11.3162 453 138.587 477.022 462.468
325 0 41.0195 12.1162 497 138.028 476.833 460.274
326 0 42.0973 13.1837 555 133.926 476.396 461.89
327 0 44.0813 12.7265 561 136.26 476.574 459.695
328 0 48.2042 13.9822 674 130.387 477.915 459.896
329 0 47.0508 15.6852 738 124.726 479.55 458.262
330 0 49.2788 15.0775 743 123.689 481.085 457.634
331 0 48.109 12.8458 618 127.359 482.866 456.032
332 0 52.0435 16.2748 847 120.106 483.981 452.654
333 0 57.6798 16.4356 948 113.688 486.024 457.737
334 0 62.1522 13.9014 864 117.049 487.383 454.091
335 0 61.2812 15.6002 956 113.142 489.234 457.237
336 0 57.1636 12.1931 697 121.36 491.766 456.425
337 0 63.394 16.9259 1073 116.244 491.854 451.81
338 0 61.1318 17.0615 1043 116.15 493.253 453.75
339 0 65.2598 9.51581 621 124.277 494.683 457.523
340 0 64.2379 15.5983 1002 123.123 495.138 453.168
341 0 65.2551 11.4627 748 129.811 494.961 454.834
342 0 67.2246 11.469 771 131.938 495.087 452.464
343 0 69.3296 14.3085 992 127.804 494.522 452.784
344 0 72.3043 12.3644 894 147.862 493.642 453.919
345 0 74.2099 12.5725 933 156.81 493.617 450.484
346 0 76.156 12.2774 935 156.697 492.194 452.218
347 0 81.0952 14.8467 1204 152.327 490.943 447.847
348 1 42.0392 9.41977 396 156.487 489.801 469.003
349 0 42.0918 9.3605 394 156.541 487.294 468.784
350 0 44.1283 12.6449 558 151.203 485.998 466.265
351 0 46.2503 13.9242 644 148.047 484.096 463.522
352 0 49.2509 12.5683 619 145.848 483.026 464.215
353 0 46.0481 12.0309 554 147.354 482.132 463.72
354 0 49.1531 11.6981 575 148.123 479.125 459.464
355 0 52.0741 13.8072 719 141.339 477.836 460.122
356 0 54.0437 16.8382 910 134.955 477.307 455.416
357 0 55.085 13.4519 741 142.251 477.893 457.588
358 0 54.1016 12.1253 656 145.762 477.145 456.924
359 0 58.1473 14.0849 819 141.6 476.838 455.72
360 0 60.1246 13.9377 838 139.563 476.486 452.858
361 0 64.1585 18.6258 1195 126.586 477.093 451.242
362 0 65.1349 15.276 995 133.515 476.725 450.254
363 0 67.43 16.4022 1106 123.401 479.695 449.403
364 0 67.1707 14.0091 941 127.8 480.403 448.743
365 0 66.2261 8.51628 564 130.91 481.681 451.516
366 0 76.3887 18.275 1396 115.941 484.657 446.317
367 0 77.4423 18.0263 1396 130.573 487.686 446.431
368 0 81.2825 18.774 1526 115.659 487.98 440.729
369 0 83.1968 17.2002 1431 117.48 490.473 442.893
370 1 45.1496 9.65679 436 125.138 493.073 458.901
371 0 47.0628 14.8525 699 114.773 493.433 464.285
372 0 45.0663 13.5134 609 119.567 495.215 458.775
373 0 48.5946 15.5779 757 116.897 494.569 457.875
374 0 49.0571 10.0087 491 128.014 495.438 460.705
375 0 50.1495 12.1836 611 125.882 495.362 460.082
376 0 52.1374 13.5028 704 125.764 491.48 458.102
377 0 55.1795 13.8457 764 125.787 491.007 461.889
378 0 57.1048 13.2038 754 129.527 489.679 460.8
379 0 59.0495 14.056 830 129.698 488.416 457.299
380 0 59.1035 14.906 881 131.151 486.896 460.694
381 0 62.1416 16.5107 1026 127.884 485.868 460.497
382 0 63.1136 12.8182 809 138.257 485.122 460.062
383 0 65.0479 13.467 876 138.412 483.856 458.72
384 0 66.2124 12.2334 810 136.784 481.886 456.916
385 0 68.1122 17.6474 1202 128.995 481.248 456.708
386 0 72.0875 16.2996 1175 131.175 479.841 452.818
387 0 72.1992 12.2439 884 143.41 478.766 450.828
388 0 76.0721 13.6712 1040 137.81 478.167 449.401
389 0 77.0919 13.7498 1060 137.941 477.51 443.222
390 0 80.0993 14.2698 1143 134.416 476.879 447.623
391 0 83.1592 14.3821 1196 135.062 476.173 442.788
392 0 89.8361 17.1646 1542 127.553 476.404 444.461
393 1 44.1214 11.0377 487 135.043 478.534 462.606
394 0 45.068 7.30008 329 140.125 479.298 461.061
395 0 48.1154 12.4285 598 133.164 479.838 455.548
396 0 48.0817 11.1685 537 131.898 480.047 458.11
397 0 52.106 13.5109 704 123.838 482.036 456.071
398 0 53.1421 11.7986 627 129.485 482.386 454.233
399 0 58.2507 16.0856 937 119.964 484.347 453.305
400 0 61.2144 18.8191 1152 116.259 486.745 453.085
401 0 58.1935 13.0083 757 125.513 488.802 449.567
402 0 60.0587 13.9031 835 124.181 490.022 452.234
403 0 63.229 15.1355 957 123.858 491.644 448.806
404 0 70.4614 20.5503 1448 114.203 492.613 455.56
405 0 63.1461 13.8092 872 129.217 493.523 449.403
406 0 69.1311 18.7614 1297 122.404 493.377 448.512
407 0 68.0973 14.7877 1007 147.74 494.377 449.75
408 0 74.0997 18.718 1387 120.124 494.267 456.452
409 0 73.1928 15.4523 1131 138.77 493.907 450.501
410 0 76.1641 14.495 1104 143.186 493.422 451.126
411 0 83.9742 19.6965 1654 128.839 492.52 452.65
412 0 82.2011 14.355 1180 146.586 491.519 450.27
413 1 44.0963 9.38853 414 156.585 490.655 467.911
414 0 43.0784 10.8175 466 156.47 489.564 466.294
415 0 46.1014 12.3207 568 150.438 488.121 467.94
416 0 50.0434 13.2285 662 153.556 487.282 464.65
417 0 49.2013 12.2558 603 155.008 486.431 464.101
418 0 52.158 13.8042 720 149.425 484.894 462.349
419 0 52.1464 13.884 724 153.688 483.402 463.612
420 0 57.1844 14.2871 817 146.666 481.945 462.832
421 0 57.0676 16.1738 923 146.809 481.151 459.001
422 0 58.0629 13.0204 756 149.402 480.329 458.542
423 0 58.0915 12.618 733 150.082 479.449 458.527
424 0 63.1469 14.5375 918 146.981 479.317 454.216
425 0 64.2133 16.9591 1089 137.858 478.725 452.139
426 0 66.232 14.6908 973 141.416 478.287 451.735
427 0 69.1331 16.461 1138 137.986 478.175 449.491
428 0 67.1455 15.9206 1069 139.84 478.212 443.989
429 0 71.284 16.4553 1173 134.506 479.724 443.539
430 0 73.265 17.1159 1254 133.18 480.452 444.22
431 0 75.2547 13.9526 1050 140.974 481.825 441.767
432 0 76.3544 14.21 1085 141.697 482.905 440.328
433 0 76.3544 14.3017 1092 148.252 483.915 440.363
434 0 86.5508 15.7711 1365 135.831 486.972 439.958
435 0 86.2757 18.6611 1610 132.804 488.539 435.728
436 0 86.2143 13.3157 1148 141.341 489.684 437.791
437 0 88.375 15.6266 1381 139.227 491.68 437.836
438 0 92.5105 14.7767 1367 141.641 492.138 434.974
439 0 94.2278 16.9165 1594 136.768 492.961 436.602
440 0 98.3393 14.45 1421 139.987 493.735 439.02
441 0 98.3494 15.4958 1524 143.366 493.88 431.79
442 0 102.366 17.9161 1834 140.75 493.366 429.061
443 0 104.37 15.6941 1638 147.335 492.225 428.385
444 0 110.601 16.7449 1852 146.833 492.848 431.47
445 0 111.65 15.7456 1758 151.672 491.543 429.522
446 0 118.395 20.2374 2396 144.946 490.061 425.735
447 1 64.5002 13.7829 889 155.045 489.798 455.696
448 0 65.4428 13.9664 914 153.172 488.682 455.242
449 0 68.3948 12.9834 888 154.244 486.67 453.839
450 0 69.5066 14.1713 985 153.256 485.031 449.701
451 0 69.1049 13.342 922 153.132 484.992 449.572
452 0 73.1297 11.7873 862 153.765 483.594 448.466
453 0 76.1446 16.3505 1245 143.222 481.847 441.428
454 0 79.0726 14.4424 1142 148.658 480.863 439.751
455 0 80.0715 12.7511 1021 151.555 480.19 439.026
456 0 83.2162 13.1104 1091 150.888 479.181 436.322
457 0 88.138 14.0348 1237 148.721 479.222 436.153
458 0 88.138 14.0008 1234 146.584 479.237 436.183
459 1 40.1028 5.23654 210 151.91 479.29 455.557
460 0 46.1468 12.872 594 131.796 478.921 455.342
461 0 46.0791 10.6122 489 136.928 479.098 453.135
462 0 51.1924 13.2832 680 136.537 479.109 453.11
463 0 53.0564 12.6846 673 128.807 480.169 455.788
464 0 57.472 13.0498 750 123.157 481.024 454.175
465 0 57.472 13.0672 751 133.237 482.015 454.314
466 0 56.2389 14.5451 818 129.977 484.397 449.533
467 0 59.0697 12.3414 729 135.376 487.246 452.77
468 0 60.1007 13.9932 841 131.584 488.769 453.005
469 0 61.1323 12.3012 752 132.864 491.084 451.783
470 0 64.13 17.0279 1092 126.611 492.147 447.927
471 0 69.1175 20.4868 1416 120.267 493.112 450.2
472 0 69.0924 15.3997 1064 129.435 493.269 450.132
473 0 70.3127 13.2693 933 134.549 494.488 451.221
474 0 73.0846 16.2278 1186 131.333 494.182 448.823
475 0 77.1273 16.4922 1272 131.171 493.847 448.632
476 0 74.3224 12.096 899 142.334 493.372 448.727
477 0 80.106 12.8704 1031 143.423 492.758 447.93
478 0 82.2053 14.2935 1175 141.391 491.684 446.997
479 0 85.2263 13.118 1118 141.944 491.364 452.095
480 0 89.275 15.9843 1427 138.304 489.512 443.901
481 1 48.0272 10.2442 492 143.343 489.348 468.516
482 0 50.1901 10.8189 543 143.985 487.797 464.341
483 0 52.1841 12.5134 653 139.492 485.054 463.553
484 0 46.2349 9.30032 430 142.074 484.83 457.874
485 0 54.1051 15.6547 847 133.37 484.14 461.93
486 0 53.1023 12.7866 679 135.085 481.459 458.172
487 0 56.2248 14.2108 799 132.701 481.546 459.196
488 0 58.1195 14.3497 834 135.216 480.996 455.409
489 0 59.1156 11.7397 694 138.101 480.486 456.138
490 0 63.1559 16.0397 1013 129.285 480.324 453.707
491 0 63.4037 13.6427 865 133.618 480.054 451.798
492 0 67.1889 16.9968 1142 126.278 479.558 449.419
493 0 70.3271 17.3759 1222 123.671 479.488 448.106
494 0 71.1917 15.1001 1075 126.673 479.724 445.079
495 0 72.1929 14.3643 1037 127.708 480.113 444.089
496 0 76.1331 13.6997 1043 128.947 481.249 443.763
497 0 77.1703 12.9065 996 128.921 482.011 443.814
498 0 79.2286 13.4926 1069 127.912 483.547 440.79
499 1 45.1903 11.9495 540 122.776 485.144 458.826
500 0 48.0985 13.9298 670 120.4 487.767 457.034
501 0 46.0828 11.1972 516 122.537 488.767 460.791
502 0 46.0828 11.1104 512 126.375 489.721 460.814
503 0 47.1639 11.7887 556 124.052 491.245 460.345
504 0 54.7108 12.3193 674 119.386 492.153 462.2
505 0 47.3335 12.1267 574 125.916 493.92 457.568
506 0 50.1228 10.5142 527 126.62 494.264 455.92
507 0 54.173 14.3614 778 120.211 493.22 460.763
508 0 52.3386 10.3748 543 128.713 493.799 461.575
509 0 55.1647 12.4899 689 126.88 494.358 460.57
510 0 56.2607 9.74038 548 131.214 494.133 462.518
511 0 58.3283 13.7498 802 128.976 493.1 455.949
512 0 61.3282 13.0446 800 132.2 492.219 457.531
513 0 62.3575 11.5944 723 136.349 490.833 457.751
514 0 64.2612 12.5737 808 136.34 490.384 457.072
515 0 67.2951 13.894 935 135.934 488.437 455.399
516 0 70.2853 14.4981 1019 134.482 486.894 453.138
517 0 71.1989 13.8204 984 135.944 484.973 448.809
518 0 75.1669 15.8181 1189 131.902 483.421 447.324
519 0 76.2971 12.4382 949 138.395 482.494 446.497
520 0 79.2575 13.1849 1045 137.197 481.255 442.922
521 1 42.157 11.5521 487 137.784 481.918 462.542
522 0 46.0913 11.9545 551 133.624 480.797 462.642
523 0 45.1666 11.9336 539 137.417 480.219 460.351
524 0 46.1485 12.5248 578 134.33 479.509 459.744
525 0 47.2736 13.4113 634 128.558 479.546 457.446
526 0 50.1463 14.2782 716 125.69 480.003 458.024
527 0 53.2363 15.2152 810 123.23 480.299 455.659
528 0 54.1998 15.5351 842 123.466 480.457 451.049
529 0 53.2669 14.6057 778 127.562 480.844 452
530 0 53.1256 13.3081 707 131.26 482.504 454.901
531 0 57.0864 15.4853 884 121.09 483.629 455.336
532 0 56.0717 11.5745 649 129.186 484.592 453.311
533 0 60.3923 15.449 933 120.698 486.507 451.08
534 0 63.0904 13.8373 873 125.686 488.021 447.739
535 0 63.2074 15.5361 982 123.919 490.576 448.786
536 0 66.1778 12.8291 849 128.294 491.372 450.776
537 0 70.699 12.3481 873 126.805 492.565 453.775
538 0 69.2428 18.3124 1268 121.488 493.408 449.262
539 0 73.3119 13.8722 1017 128.265 494.115 451.97
540 0 73.2861 13.8908 1018 142.255 495.125 452.083
541 0 75.2037 16.8476 1267 126.687 493.997 449.68
542 0 75.1535 12.7339 957 137.336 494.112 452.287
543 0 78.1536 15.3672 1201 134.847 493.584 451.263
544 0 79.2993 13.7454 1090 142.067 492.958 450.246
545 0 82.1269 15.4517 1269 139.457 491.452 449.764
546 1 44.2662 11.4986 509 141.422 490.796 468.255
547 0 44.0336 12.1498 535 140.589 490.159 469.327
548 0 47.1145 12.3529 582 141.122 488.024 465.115
549 0 48.0943 11.7062 563 142.083 487.08 465.821
550 0 50.0687 13.4615 674 139.599 486.163 463.909
551 0 52.1081 16.8304 877 135.597 484.92 462.886
552 0 53.2062 12.8744 685 132.619 482.59 462.724
553 0 53.1917 13.8743 738 132.932 481.348 457.733
554 0 54.0906 13.8841 751 134.868 480.64 459.246
555 0 58.3584 14.291 834 132.062 479.361 455.847
556 0 57.2055 13.9847 800 135.155 478.558 453.242
557 0 61.2805 21.9156 1343 120.47 478.23 453.854
558 0 61.1313 14.9842 916 131.284 478.612 452.123
559 0 62.2329 14.8153 922 131.791 478.465 447.557
560 0 64.3452 13.5053 869 131.191 478.017 449.906
561 0 64.333 13.3835 861 145.952 476.986 449.652
562 0 64.278 12.1348 780 134.832 478.959 441.14
563 0 70.2451 11.8158 830 132.469 481.239 446.647
564 0 77.6344 19.3342 1501 117.745 481.418 444.522
565 0 75.116 14.6041 1097 125.054 482.779 442.215
566 0 81.23 16.7672 1362 125.088 485.179 442.506
567 0 81.321 14.6949 1195 128.385 487.37 443.085
568 0 86.5339 15.543 1345 126.833 489.64 438.814
569 0 86.5339 15.6586 1355 147.482 492.668 438.738
570 0 90.3938 14.9457 1351 126.32 492.852 441.045
571 1 50.1089 12.9518 649 127.034 494.086 460.478
572 0 54.5634 12.096 660 125.342 494.823 463.08
573 0 51.1007 14.7552 754 122.277 494.247 462.89
574 0 54.1325 15.6837 849 124.107 493.718 456.827
575 0 56.0759 14.944 838 125.224 493.214 461.418
576 0 55.1923 13.6976 756 129.923 492.22 461.761
577 0 60.0702 15.7649 947 126.866 492.033 458.863
578 0 59.126 14.9511 884 133.692 490.417 460.32
579 0 64.1911 16.669 1070 129.683 489.959 461.112
580 0 64.072 14.6866 941 134.299 489.238 457.217
581 0 69.1298 14.48 1001 131.768 488 460.658
582 0 70.1045 15.6909 1100 131.045 486.599 456.116
583 0 73.1285 14.9053 1090 133.315 484.938 458.321
584 0 75.1859 13.9388 1048 136.994 483.823 457.569
585 0 76.3065 14.5073 1107 136.456 482.944 454.472
586 0 79.2917 18.4509 1463 128.921 481.694 448.756
587 0 80.1556 13.9354 1117 138.355 480.091 451.037
588 0 83.1615 12.8184 1066 141.369 479.226 445.962
589 0 88.1515 13.2839 1171 136.023 478.018 449.229
590 1 46.0592 12.0063 553 131.098 476.38 466.354
591 0 48.1152 12.2622 590 131.512 477.234 468.576
592 0 47.303 15.1576 717 124.13 478.649 466.749
593 0 51.5406 15.7352 811 120.837 477.513 462.719
594 0 53.0795 15.1848 806 123.993 477.84 463.069
595 0 51.1228 14.4163 737 125.263 478.368 459.871
596 0 51.2651 12.4061 636 131.415 479.358 460.987
597 0 51.2651 12.5036 641 142.178 480.324 460.93
598 0 57.0888 12.0689 689 130.165 481.504 459.051
599 0 59.1789 15.1067 894 124.705 482.417 455.023
600 0 61.0781 10.9859 671 132.39 484.145 458.174
601 0 60.1159 12.7421 766 131.657 485.979 454.39
602 0 66.0738 14.0298 927 129.243 487.182 453.64
603 0 68.1045 17.8109 1213 123.641 488.251 453.594
604 0 70.2902 14.0987 991 129.308 489.554 454.055
605 0 74.2067 15.2951 1135 127.029 489.527 454.953
606 1 39.1125 11.8377 463 132.343 490.516 466.991
607 0 42.0293 12.6816 533 130.899 490.306 468.488
608 0 45.3018 12.6485 573 128.29 489.522 473.911
609 0 40.0839 10.1288 406 136.286 489.406 469.557
610 0 44.0451 12.6007 555 129.115 489.151 472.396
611 0 46.1308 11.7275 541 130.338 487.847 472.266
612 0 47.174 14.2027 670 126.587 486.658 470.799
613 0 47.1757 12.4852 589 131.331 483.606 470.148
614 0 50.076 13.3797 670 122.222 483.596 467.634
615 0 50.0292 14.1118 706 122.038 481.82 462.52
616 0 53.142 12.9465 688 127.503 480.177 467.02
617 0 57.4943 17.48 1005 115.396 479.187 464.785
618 0 52.1999 12.1648 635 125.792 477.518 459.309
619 0 58.1981 14.9489 870 122.678 476.437 460.437
620 0 57.3464 13.1656 755 124.318 475.303 454.902
621 0 62.2327 15.7955 983 117.33 474.587 457.371
622 0 63.1288 12.324 778 122.852 474.078 453.504
623 0 63.2949 10.4274 660 126.636 474.098 450.997
624 0 66.227 12.895 854 122.814 474.165 448.061
625 0 67.2696 12.9033 868 123.217 473.868 447.69
626 0 69.3171 13.9504 967 121.228 474.287 444.633
627 1 39.1568 8.50427 333 117.682 475.919 462.808
628 0 37.1345 9.99071 371 120.41 476.677 454.226
629 1 77.1947 12.2547 946 122.063 476.823 439.467
630 1 44.1987 9.45729 418 122.553 477.428 459.612
631 0 42.1347 11.131 469 122.823 478.972 455.399
632 0 47.169 12.7838 603 118.595 480.559 455.158
633 0 47.0878 9.66279 455 124.319 480.464 456.037
634 0 48.1792 10.1496 489 121.053 481.779 454.039
635 0 49.1609 11.2081 551 119.27 486.365 455.499
636 0 49.1486 11.6178 571 120.559 488.049 455.867
637 0 52.0854 16.5113 860 115.573 488.558 453.606
638 0 53.0996 12.6178 670 120.925 488.687 455.215
639 0 57.3405 14.8412 851 120.481 487.604 457.913
640 0 57.1028 12.784 730 126.507 488.316 457.496
641 0 57.0525 10.6218 606 134.086 488.391 459.114
642 0 59.1264 14.6297 865 125.671 487.087 458.464
643 0 63.0837 14.1083 890 127.733 486.556 454.201
644 0 63.258 11.5242 729 132.848 486.077 455.986
645 0 66.1647 15.4916 1025 126.896 485.065 452.99
646 0 66.0515 12.7476 842 132.691 484.722 453.438
647 0 70.2561 13.6643 960 131.709 483.382 453.335
648 0 73.544 14.5627 1071 129.323 482.427 452.782
649 1 38.1481 9.0175 344 132.564 481.974 469.442
650 0 39.1469 8.94069 350 128.731 481.563 472.437
651 0 42.2122 8.86 374 129.981 481.214 468.313
652 0 42.3546 11.5926 491 119.967 479.354 462.623
653 0 43.3138 9.58123 415 122.636 479.612 463.051
654 0 44.4105 9.56981 425 124.259 478.892 462.162
655 0 46.1989 10.4548 483 125.644 477.754 464.903
656 0 49.1046 12.2799 603 121.337 476.657 463.013
657 0 50.0744 12.3816 620 120.339 476.465 461.116
658 0 51.1858 12.8942 660 120.091 474.706 457.761
659 0 52.1628 13.7263 716 119 475.895 455.554
660 0 51.2196 17.1419 878 114.122 475.904 454.515
661 0 55.143 14.6891 810 115.904 476.302 452.794
662 0 60.2747 17.3041 1043 110.771 477.48 454.218
663 0 58.1176 19.1852 1115 107.721 479.022 455.671
664 0 60.2035 16.328 983 110.702 480.814 453.058
665 0 64.0923 12.9345 829 115.493 482.979 448.972
666 0 62.1104 15.0699 936 113.154 485.422 451.118
667 0 64.2604 9.86611 634 116.754 486.879 450.497
668 0 66.271 11.8453 785 116.989 488.755 447.474
669 0 67.1852 9.61521 646 119.416 490.895 448.932
670 0 70.2308 9.79628 688 119.328 491.291 447.395
671 0 73.1188 10.4351 763 119.161 491.927 445.429
672 0 75.2932 12.5509 945 113.57 491.767 454.333
673 0 81.2069 12.7945 1039 115.991 492.418 446.897
674 1 41.0222 11.0184 452 119.951 491.602 463.927
675 0 41.1584 10.083 415 121.135 491.101 466.147
676 0 45.101 15.4764 698 115.564 490.443 465.822
677 0 45.1887 11.7286 530 121.774 490.972 465.823
678 0 47.1513 12.3008 580 121.293 489.481 464.847
679 0 48.0744 11.4614 551 123.978 486.615 462.474
680 0 54.1001 17.1349 927 113.885 485.51 461.417
681 0 52.2852 12.757 667 122.714 486.058 461.28
682 0 52.1932 13.7566 718 119.677 484.148 459.526
683 0 56.1093 16.3788 919 114.397 482.713 458.036
684 0 59.2457 16.1193 955 113.288 481.222 460.244
685 0 57.1792 13.6413 780 121.023 480.744 457.353
686 0 60.2843 14.0169 845 118.832 479.348 456.214
687 0 61.1345 15.3759 940 118.113 478.241 453.128
688 0 65.3846 14.2694 933 119.71 477.01 450.718
689 0 66.3825 15.2902 1015 115.493 476.911 452.157
690 0 71.1366 21.6625 1541 108.318 476.731 445.648
691 0 68.1344 16.1446 1100 116.04 476.585 444.785
692 0 71.3064 15.3422 1094 116.451 476.909 440.082
693 0 76.2077 18.4758 1408 110.586 478.317 444.119
694 0 77.1254 13.1863 1017 117.902 478.62 437.018
695 1 46.4875 17.2304 801 105.342 479.966 461.049
696 0 43.0407 16.8213 724 107.461 480.985 459.202
697 0 45.1905 14.3614 649 110.847 481.968 452.857
698 0 55.653 16.9802 945 103.906 484.223 455.378
699 0 50.6794 14.3648 728 109.449 487.192 455.879
700 0 49.1234 12.2549 602 112 488.704 456.289
701 0 56.6645 13.6946 776 108.094 489.883 459.356
702 0 49.4055 10.5251 520 145.746 490.627 454.994
703 0 53.5529 16.2456 870 107.739 492.491 459.726
704 0 56.3027 15.6831 883 109.957 492.555 455.136
705 0 56.2602 10.6114 597 116.281 492.776 458.707
706 0 53.1827 15.5126 825 116.589 492.119 452.091
707 0 56.2684 14.4308 812 117.836 492.345 456.289
708 0 64.3422 16.4122 1056 114.477 491.975 454.555
709 0 62.1612 16.779 1043 118.497 491.874 453.822
710 0 64.1335 16.1226 1034 119.687 491.382 455.134
711 0 66.3056 17.6154 1168 121.047 489.436 453.792
712 0 67.2371 14.1886 954 128.263 488.461 453.957
713 0 70.1956 16.9811 1192 127.628 487.234 451.633
714 0 72.2773 16.0493 1160 127.112 485.516 449.83
715 0 75.3122 14.1677 1067 129.573 484.022 444.81
716 0 76.2511 14.8326 1131 128.284 482.118 441.912
717 0 79.4089 19.3681 1538 120.023 480.888 445.843
718 0 84.3861 19.5411 1649 118.221 479.563 447.15
719 0 84.0677 15.8206 1330 125.589 478.82 440.746
720 0 87.5786 15.9285 1395 126.277 477.945 441.477
721 0 91.4568 16.1934 1481 124.179 477.694 440.918
722 0 93.2091 18.3459 1710 123.739 477.796 437.801
723 0 101.762 17.2953 1760 123.468 478.42 436.337
724 0 100.404 16.7821 1685 127.488 478.193 430.57
725 1 50.1625 12.2801 616 126.849 479.279 455.716
726 0 53.1877 13.0857 696 128.586 480.361 454.168
727 0 57.4758 14.5974 839 121.636 481.02 456.124
728 0 60.3133 15.5687 939 119.564 481.923 453.386
729 0 59.2138 16.5333 979 117.621 482.669 450.137
730 0 61.2373 11.5126 705 126.291 485.681 452.624
731 0 64.1912 12.0889 776 126.385 486.934 451.434
732 0 62.3858 11.9578 746 132.275 488.092 450.391
733 0 70.5329 18.7997 1326 120.149 490.464 449.899
734 0 69.3436 14.9978 1040 127.643 492.02 445.493
735 0 73.3316 17.0186 1248 123.733 492.616 451.438
736 0 73.361 16.5074 1211 128.609 493.436 446.475
737 0 75.4051 15.1846 1145 132.118 494.366 448.478
738 0 80.4054 14.8497 1194 131.929 494.595 447.123
739 0 79.2236 13.2536 1050 136.651 493.476 445.855
740 1 45.34 12.1967 553 135.711 494.731 467.613
741 0 45.126 10.371 468 142.015 493.87 467.252
742 0 47.1238 12.0958 570 139.4 492.796 470.561
743 0 48.1495 14.5381 700 141.637 491.117 465.929
744 0 48.1411 14.4783 697 138.824 490.085 465.887
745 0 50.0649 13.5025 676 142.51 485.608 464.37
746 0 55.0836 15.54 856 135.708 483.32 466.05
747 0 55.1206 17.3801 958 133.236 482.784 465.212
748 0 59.0867 15.0288 888 136.025 480.481 465.301
749 0 63.0823 16.7718 1058 131.598 478.89 464.25
750 0 63.1475 17.4829 1104 130.793 477.832 460.585
751 0 65.177 18.5495 1209 128.074 476.66 459.734
752 0 66.0585 17.4542 1153 130.657 475.887 459.193
753 0 68.1707 17.0308 1161 130.039 475.486 457.464
754 0 70.2505 16.2846 1144 130.386 475.335 457.374
755 0 69.0951 15.3122 1058 134.25 474.876 455.105
756 0 72.1525 15.2732 1102 137.199 475.148 453.766
757 0 76.2273 14.8897 1135 135.257 474.971 452.913
758 0 76.2104 13.6464 1040 143.314 475.586 450.41
759 0 79.1432 13.4061 1061 142.166 475.671 449.156
760 0 84.2378 16.2041 1365 134.463 476.567 445.758
761 0 86.1803 15.8621 1367 134.241 477.354 445.273
762 1 48.1292 10.8458 522 133.981 477.515 466.96
763 0 48.1247 10.7014 515 136.2 479.369 464.505
764 0 51.0998 13.7965 705 133.047 481.826 461.793
765 0 53.1264 13.2514 704 133.562 483.812 462.256
766 0 56.1622 13.6569 767 133.709 484.866 462.683
767 0 58.1865 14.5566 847 131.772 486.566 460.641
768 0 59.1671 15.0928 893 133.507 488.13 459.783
769 0 59.1672 15.1097 894 125.463 488.135 459.755
770 0 60.1437 12.5034 752 140.887 490.056 459.678
771 0 63.1351 15.4906 978 134.629 490.488 460.284
772 0 66.0588 14.366 949 139.455 489.828 458.375
773 0 68.1251 13.0495 889 144.676 490.592 460.259
774 0 74.0623 14.4203 1068 139.589 489.056 461.289
775 0 75.1063 13.9802 1050 142.701 488.196 459.691
776 0 76.1357 14.8551 1131 143.707 486.543 459.011
777 0 80.0452 14.0171 1122 145.683 485.893 459.43
778 0 82.1714 12.8269 1054 150.322 483.922 456.174
779 1 46.1042 12.9272 596 142.812 483.482 475.851
780 0 46.0946 14.774 681 138.856 481.524 474.768
781 0 46.0366 13.4893 621 143.728 480.221 472.81
782 0 50.1118 12.6517 634 141.615 478.735 471.511
783 0 51.1096 14.3809 735 135.297 477.577 468.785
784 0 53.2047 14.6979 782 134.183 473.408 467.363
785 0 52.0684 12.2531 638 144.028 473.176 466.774
786 0 53.0422 12.556 666 144.143 473.275 464.569
787 0 55.0789 15.4869 853 136.09 471.281 461.547
788 0 56.0903 13.924 781 139.48 470.816 461.566
789 0 60.184 15.6852 944 133.633 471.032 458.481
790 0 59.0726 12.5269 740 140.096 471.001 456.491
791 0 62.1668 18.563 1154 128.149 472.317 456.282
792 0 64.0524 14.3164 917 133.229 471.987 449.954
793 0 67.0974 13.3388 895 131.515 473.011 452.507
794 0 71.2532 14.0766 1003 127.771 474.507 449.675
795 0 71.1919 15.7321 1120 126.293 475.698 444.993
796 0 75.1655 16.6167 1249 125.177 477.211 444.797
797 0 76.1087 14.6895 1118 128.511 479.042 443.454
798 0 78.2046 15.1014 1181 129.818 481.084 442.624
799 0 80.1051 15.3299 1228 127.852 482.504 439.98
800 0 86.3178 19.4514 1679 120.259 483.799 440.472
801 0 86.2147 14.9278 1287 127.423 485.218 443.944
802 0 87.2238 13.4826 1176 133.567 486.455 435.974
803 0 91.2682 13.0495 1191 136.004 488.264 439.763
804 0 95.27 14.4642 1378 133.159 489.401 434.726
805 0 95.2691 13.7295 1308 136.606 489.54 439.071
806 1 56.1527 13.8194 776 133.412 488.802 459.872
807 0 56.2138 10.5312 592 140.525 489.069 462.669
808 0 58.3497 13.1963 770 141.118 489.677 457.734
809 0 60.2303 11.6387 701 145.257 488.31 461.25
810 0 65.1871 14.1132 920 139.582 487.411 459.74
811 0 67.0711 14.8499 996 136.717 486.171 459.003
812 0 66.1341 14.7125 973 139.431 485.628 457.594
813 0 70.1015 15.1923 1065 140.262 484.744 454.145
814 0 70.0901 13.4969 946 144.132 483.604 455.042
815 0 75.1752 16.0691 1208 137.882 482.747 454.72
816 0 76.1603 15.5593 1185 142.083 481.497 450.127
817 0 79.3576 14.5292 1153 141.332 480.302 451.371
818 0 83.1568 15.8616 1319 140.34 479.476 447.406
819 0 85.1976 14.0966 1201 145.513 478.635 443.737
820 0 89.1947 17.9046 1597 134.478 478.517 445.894
821 0 93.5753 15.4742 1448 140.357 479.332 440.483
822 0 95.4341 14.4183 1376 141.542 478.778 439.565
823 1 50.0638 7.43052 372 151.234 479.481 461.384
824 0 53.0628 12.3816 657 144.728 481.248 459.193
825 0 55.0779 11.5654 637 145.359 480.914 453.005
826 0 56.0974 12.5318 703 141.166 481.403 454.947
827 0 58.1008 14.5953 848 137.233 480.276 450.629
828 0 59.1459 11.6999 692 137.96 482.957 454.896
829 0 62.1091 12.4458 773 134.23 484.317 453.252
830 0 62.1512 11.4881 714 137.146 484.738 451.324
831 0 70.2392 15.6608 1100 128.017 488.306 451.415
832 0 67.2268 14.3544 965 133.895 489.497 445.505
833 0 70.2047 13.8595 973 133.642 491.227 446.738
834 0 74.2916 15.0623 1119 130.506 493.318 451.651
835 0 76.1773 14.6106 1113 134.196 493.46 448.43
836 0 82.5494 17.0322 1406 128.608 495.122 448.42
837 0 79.1325 17.0853 1352 132.508 494.575 442.427
838 0 83.193 17.6698 1470 129.66 494.532 444.916
839 0 88.2437 17.6103 1554 129.387 494.54 446.098
840 0 87.294 13.6321 1190 145.586 493.868 444.334
841 0 91.1075 15.8165 1441 138.654 493.749 442.228
842 1 49.1016 7.92234 389 143.905 494.686 469.812
843 0 51.2295 12.1024 620 139.421 493.308 468.865
844 0 51.1309 12.028 615 141.834 491.569 466.595
845 0 52.163 11.0231 575 142.81 488.591 463.071
846 0 54.0058 12.832 693 138.912 487.372 463.312
847 0 55.2891 12.3171 681 139.257 486.601 460.231
848 0 59.4625 13.8911 826 132.901 485.033 459.586
849 0 61.2683 14.3794 881 132.966 483.447 456.044
850 0 61.2683 12.535 768 135.677 482.151 456.904
851 0 64.1366 19.4429 1247 122.524 480.464 449.599
852 0 65.0984 14.455 941 133.486 479.548 450.972
853 0 66.452 13.1523 874 136.341 478.668 450.2
854 0 68.2186 12.4893 852 139.062 478.548 447.71
855 0 72.3449 13.9609 1010 139.539 477.813 445.158
856 0 74.3602 14.2011 1056 137.17 478.225 444.681
857 0 78.1811 14.9908 1172 134.411 477.956 443.533
858 0 78.3931 14.0956 1105 136.552 478.582 443.355
859 0 83.2933 14.7071 1225 133.256 478.985 443.814
860 0 85.2772 14.0483 1198 134.562 479.739 441.671
861 0 88.3102 14.5057 1281 132.586 480.123 440.648
862 0 87.2518 19.3921 1692 124.59 480.707 444.111
863 0 91.2652 13.1156 1197 148.021 484.129 438.82
864 0 97.6647 13.5259 1321 138.279 484.307 437.38
865 1 54.1564 12.39 671 135.763 486.729 456.727
866 0 57.0963 12.2775 701 134.553 488.699 459.33
867 0 60.1854 14.987 902 131.823 490.155 458.213
868 0 62.9683 12.6889 799 124.804 490.732 455.546
869 0 61.1664 13.8311 846 126.052 490.067 454.28
870 0 67.5705 13.053 882 125.924 491.559 453.975
871 0 66.3016 16.063 1065 124.256 491.773 452.001
872 0 68.2663 14.8829 1016 125.387 492.089 454.054
873 0 69.2711 14.5948 1011 129.423 492.069 454.138
874 0 71.2655 12.264 874 133.866 491.371 450.751
875 0 72.3906 14.4218 1044 133.711 491.162 449.284
876 0 79.3859 13.869 1101 133.443 490.571 450.407
877 0 79.1991 15.3032 1212 131.31 488.814 447.456
878 0 83.2282 14.1779 1180 136.599 487.982 450.441
879 0 85.1615 15.2182 1296 132.583 486.316 448.016
880 0 87.189 14.4858 1263 135.687 484.643 446.546
881 0 89.1731 16.6081 1481 130.556 482.984 445.655
882 0 90.3272 11.248 1016 139.854 481.885 445.034
883 0 95.2306 14.3861 1370 135.582 480.72 441.969
884 0 98.2245 15.6478 1537 129.649 479.561 440.453
885 0 100.272 11.3591 1139 140.48 478.947 441.789
886 0 103.254 13.9656 1442 136.626 477.94 435.75
887 0 105.361 12.9839 1368 138.984 478.108 434.003
888 0 111.344 16.8038 1871 128.654 477.428 429.281
889 0 114.362 14.7427 1686 132.509 477.087 429.861
890 0 117.291 14.8007 1736 132.716 476.756 423.419
891 1 64.1433 10.7572 690 131.655 477.543 448.519
892 0 68.383 12.4592 852 128.601 477.897 446.17
893 0 75.418 14.718 1110 122.609 478.143 444.889
894 0 76.6272 14.7859 1133 119.814 479.68 449.395
895 0 74.3493 11.8495 881 126.413 480.615 446.62
896 0 74.2629 11.2708 837 131.706 482.056 444.272
897 0 78.2207 14.0244 1097 124.239 483.416 436.574
898 0 81.3792 12.9148 1051 127.944 485.676 441.122
899 0 83.3025 12.7127 1059 131.144 487.205 438.614
900 0 85.4106 13.8156 1180 130.772 488.667 440.379
901 0 90.4296 14.6523 1325 130.968 489.455 435.65
902 0 90.1918 14.6244 1319 132.324 490.808 437.152
903 0 94.2585 17.1974 1621 130.214 491.088 434.172
904 0 100.289 16.0237 1607 131.839 491.709 437.276
905 0 98.2729 13.4829 1325 139.743 491.857 434.685
906 0 103.361 14.0188 1449 138.842 492.872 438.344
907 0 104.316 12.6059 1315 141.996 492.501 435.233
908 0 107.592 14.2669 1535 140.467 491.598 431.678
909 0 112.337 13.4951 1516 142.501 490.819 433.836
910 0 117.607 14.7355 1733 140.796 489.692 430.348
911 1 65.4473 11.6735 764 132.298 489.818 464.918
912 0 64.2541 11.5479 742 138.399 488.047 458.361
913 0 66.3092 13.9951 928 134.086 486.777 456.264
914 0 67.106 12.3536 829 138.27 485.912 452.602
915 0 71.163 15.1483 1078 132.014 484.644 453.879
916 0 74.302 13.149 977 134.07 484.046 454.829
917 0 75.168 12.5053 940 134.779 482.12 452.437
918 0 79.1919 15.0773 1194 129.931 480.788 447.49
919 0 81.2266 14.9582 1215 128.316 480.034 445.76
920 0 85.2278 14.7956 1261 126.951 479.555 444.931
921 0 90.265 16.0084 1445 123.215 478.992 442.613
922 0 88.2152 12.5035 1103 129.194 480.103 442.039
923 0 94.3157 16.4554 1552 123.369 479.787 435.979
924 0 94.2347 13.9121 1311 129.41 479.922 432.439
925 0 98.2222 16.31 1602 124.112 479.914 429.463
926 0 104.179 16.2605 1694 120.587 480.375 437.414
927 0 106.359 15.6827 1668 122.325 480.721 430.774
928 1 59.3262 17.6988 1050 114.687 482.798 452.408
929 0 60.2094 11.9583 720 124.103 483.497 448.076
930 0 65.2795 11.1674 729 123.787 486.026 450.986
931 0 62.2512 11.2126 698 130.242 487.807 445.695
932 0 67.162 13.326 895 122.998 489.927 448.918
933 0 70.1452 13.5433 950 120.685 491.152 446.704
934 0 71.247 11.1303 793 125.786 492.793 449.573
935 0 73.108 14.8411 1085 124.951 493.579 441.46
936 0 76.1845 14.4649 1102 124.189 494.514 447.101
937 0 77.1573 12.3514 953 135.856 495.036 438.644
938 0 80.0936 15.4819 1240 129.115 494.935 439.715
939 0 82.2082 12.6386 1039 135.118 494.836 440.407
940 0 86.1378 15.8931 1369 130.36 493.933 437.454
941 0 87.2498 15.6333 1364 132.888 493.609 438.84
942 0 90.2625 15.7319 1420 134.28 493.061 437.403
943 0 90.0638 13.3461 1202 141.092 492.106 436.764
944 0 95.0878 14.7758 1405 134.458 490.054 440.195
945 0 98.1441 15.4161 1513 135.423 488.994 434.109
946 0 102.141 15.5079 1584 136.215 488.494 436.499
947 0 105.222 13.7234 1444 139.947 487.05 436.207
948 0 107.269 15.1955 1630 136.132 485.596 432.632
949 0 110.203 16.2882 1795 136.76 484.258 430.439
950 0 115.242 14.0921 1624 139.75 482.774 425.427
951 0 117.334 15.4943 1818 132.127 481.043 428.238
952 0 121.402 14.3902 1747 135.161 479.839 424.986
953 1 66.0418 11.8107 780 137.262 479.237 446.717
954 0 69.4498 14.4853 1006 134.185 478.796 445.16
955 0 71.3613 15.0081 1071 129.998 477.99 442.993
956 0 72.3124 14.8799 1076 129.842 478.384 437.527
957 0 76.2497 14.6099 1114 128.671 478.439 439.561
958 0 75.2926 14.9284 1124 131.828 479.12 435.125
959 0 79.2582 12.4403 986 134.417 479.731 436.227
960 0 84.6047 16.2993 1379 121.73 479.98 439.769
961 0 86.405 18.1124 1565 120.866 481.027 434.532
962 0 89.3423 16.9796 1517 120.307 482.894 435.266
963 0 91.2847 15.6215 1426 124.359 484.609 431.129
964 0 93.2358 17.8901 1668 122.872 486.758 422.486
965 0 96.2984 16.7708 1615 126.179 488.193 426.067
966 0 99.4822 16.5658 1648 128.028 489.796 422.542
967 0 98.5145 11.4298 1126 137.529 490.544 425.342
968 0 104.597 12.706 1329 131.754 491.75 426.834
969 1 59.2402 11.1748 662 130.314 492.562 444.35
970 0 57.3027 11.6574 668 129.027 493.406 447.115
971 0 56.2429 8.6411 486 137.455 493.099 443.562
972 0 64.4058 13.8807 894 128.124 494.164 444.421
973 0 67.2486 11.8813 799 131.909 493.406 445
974 0 69.2674 13.2819 920 128.189 492.749 444.466
975 0 72.4856 12.8715 933 127.923 492.554 444.796
976 0 76.633 13.8713 1063 125.103 491.129 447.792
977 0 74.4616 12.3285 918 132.728 489.431 443.109
978 0 79.2024 13.9769 1107 129.654 486.629 444.734
979 0 83.1143 12.6573 1052 133.096 485.701 445.311
980 0 86.2305 12.6753 1093 131.375 483.79 444.922
981 0 89.3841 14.4097 1288 128.255 482.499 440.462
982 0 88.4284 13.6268 1205 131.03 481.371 440.017
983 0 93.4411 13.4951 1261 130.045 480.205 437.531
984 0 97.54 14.066 1372 127.85 479.196 436.227
985 0 99.4798 11.3792 1132 133.295 477.867 432.928
986 1 58.2842 11.0665 645 124.626 476.724 457.222
987 0 57.3328 13.7269 787 121.548 476.056 452.361
988 0 61.3424 11.8515 727 124.802 475.622 451.039
989 0 61.2994 11.1094 681 127.3 475.737 453.305
990 0 63.3287 14.0853 892 122.253 475.952 447.067
991 0 68.3434 14.8076 1012 120.771 476.314 447.492
992 0 66.1042 10.5893 700 129.504 475.731 446.66
993 0 71.154 13.267 944 125.698 476.54 445.752
994 0 76.3825 15.5926 1191 117.541 477.248 445.494
995 0 78.3219 15.4108 1207 118.596 478.536 440.849
996 0 79.4655 16.2712 1293 117.352 479.879 444.962
997 0 81.3208 14.2153 1156 122.087 480.922 439.99
998 0 85.3356 15.4918 1322 124.932 483.574 437.993
999 0 89.2592 13.7353 1226 127.943 484.525 435.411
1000 0 88.2591 13.4717 1189 129.181 485.863 436.772
1001 0 91.4391 10.7285 981 133.845 487.617 435.567
1002 0 96.2716 14.2306 1370 127.509 488.267 434.585
1003 0 98.2469 16.2244 1594 127.853 488.631 431.578
1004 0 102.246 13.9077 1422 133.57 489.423 434
1005 0 102.234 12.6083 1289 134.806 489.809 436.074
1006 0 108.436 12.4036 1345 135.423 490.608 437.428
1007 0 109.339 12.8865 1409 138.097 491.076 431.373
1008 1 64.2185 9.84139 632 133.184 490.565 461.53
1009 0 64.3114 13.2791 854 129.301 491.444 460.452
1010 0 65.356 13.2964 869 133.826 491.475 453.213
1011 0 67.2631 13.2614 892 133.073 490.687 457.333
1012 0 71.3135 13.7982 984 133.091 489.584 455.667
1013 0 70.518 12.862 907 138.44 487.148 453.037
1014 0 72.5718 14.248 1034 137.182 485.522 449.949
1015 0 77.4627 15.2202 1179 134.218 484.623 452.276
1016 0 84.3795 16.7813 1416 128.924 483.291 452.25
1017 0 80.4086 14.8865 1197 134.962 481.984 447.764
1018 0 89.8064 16.9587 1523 126.476 481.144 451.432
1019 0 88.2167 13.5235 1193 134.763 479.776 445.377
1020 0 92.3492 16.1777 1494 128.25 479.456 446.507
1021 0 95.3655 19.7766 1886 123.296 478.391 442.273
1022 0 96.3271 14.8764 1433 131.588 478.115 440.521
1023 0 98.3079 14.9225 1467 130.731 477.256 438.92
1024 0 100.38 16.8759 1694 129.945 477.362 434.459
1025 0 103.319 13.3663 1381 135.051 477.828 440.398
1026 0 106.46 16.8608 1795 128.791 478.145 435.383
1027 0 110.4 12.8261 1416 138.516 478.737 425.679
1028 0 114.498 14.4108 1650 132.63 479.048 422.992
1029 1 62.2515 10.1363 631 132.705 480.9 452.464
1030 0 64.3458 8.93609 575 134.998 482.939 449.115
1031 0 67.2466 11.614 781 130.431 483.609 445.351
1032 0 71.1752 13.7267 977 125.992 485.987 448.975
1033 0 75.1808 14.6048 1098 125.315 487.779 451.534
1034 0 75.1996 12.7527 959 128.861 488.685 447.959
1035 0 81.3048 12.693 1032 125.927 489.738 448.011
1036 0 79.1685 12.1008 958 128.1 490.047 447.258
1037 0 86.1684 16.9668 1462 119.614 491.213 447.077
1038 0 85.2666 13.4519 1147 126.367 490.645 444.818
1039 0 91.208 11.9617 1091 129.349 490.685 441.955
1040 0 95.4291 13.5912 1297 127.288 490.67 440.037
1041 0 97.105 12.7079 1234 129.456 490.299 438.565
1042 0 101.296 13.9887 1417 127.872 489.473 442.839
1043 0 108.299 15.4942 1678 123.704 488.057 445.827
1044 1 56.1656 10.0417 564 129.973 486.707 462.835
1045 0 60.2619 12.9601 781 125.234 484.549 462.239
1046 0 61.1478 11.742 718 126.125 483.558 461.547
1047 0 67.4135 12.3714 834 123.565 482.183 459.876
1048 0 65.235 12.5239 817 125.807 480.607 459.181
1049 0 70.2335 12.6293 887 124.133 479.665 459.227
1050 0 69.2857 13.9278 965 123.692 478.277 454.178
1051 0 73.1656 12.8886 943 125.203 476.549 449.493
1052 0 75.222 15.2349 1146 122.188 476.721 448.71
1053 0 78.1987 13.8493 1083 122.508 476.121 449.455
1054 0 80.2445 14.7923 1187 121.508 475.404 443.65
1055 0 81.4469 13.6899 1115 125.085 475.978 442.903
1056 0 86.4329 16.4636 1423 119.996 475.611 442.242
1057 0 88.3031 14.9938 1324 122.702 475.887 437.52
1058 0 89.2692 12.7928 1142 128.065 475.884 434.968
1059 0 95.242 13.4079 1277 126.108 476.665 439.074
1060 0 95.241 14.6156 1392 127.291 477.299 430.358
1061 0 99.3281 14.729 1463 129.868 478.196 428.036
1062 0 102.375 16.4787 1687 126.555 478.647 425.385
1063 0 105.281 12.3004 1295 130.51 480.227 427.907
1064 0 110.54 13.9045 1537 127.656 482.512 421.654
1065 1 58.2135 13.794 803 123.624 484.539 448.041
1066 0 60.1666 11.4017 686 129.176 485.541 448.525
1067 0 61.0901 11.5894 708 128.893 486.127 451.345
1068 0 64.2036 11.9931 770 124.209 487.738 445.923
1069 0 66.2928 13.1839 874 123.808 489.666 447.541
1070 0 68.2957 11.5673 790 124.408 490.273 449.68
1071 0 72.2722 15.2341 1101 120.084 491.367 446.703
1072 0 75.2254 12.4825 939 125.655 491.537 449.445
1073 0 78.1656 16.9512 1325 118.528 491.424 448.029
1074 0 80.2909 13.9119 1117 124.281 491.789 443.637
1075 0 80.1772 15.6154 1252 125.139 491.645 445.789
1076 0 85.1025 15.2992 1302 125.422 490.986 446.747
1077 0 88.2814 16.2662 1436 124.406 490.774 446.118
1078 0 89.1627 13.9184 1241 130.199 489.632 444.969
1079 0 91.1116 15.4316 1406 129.358 489.203 440.45
1080 0 93.1141 15.6689 1459 129.875 487.479 442.095
1081 0 94.2891 12.292 1159 137.062 486.407 440.533
1082 0 99.122 14.6688 1454 132.476 484.786 437.401
1083 0 103.223 13.6307 1407 133.846 484.203 436.23
1084 0 104.289 13.8845 1448 136.006 483.129 431.714
1085 0 112.32 15.0196 1687 130.815 481.862 438.127
1086 1 61.0487 9.59889 586 130.925 480.56 460.254
1087 0 65.1788 12.7802 833 126.935 481.652 452.652
1088 0 68.1248 12.7707 870 129.432 482.083 452.117
1089 0 71.4278 14.0141 1001 128.618 480.355 444.232
1090 0 74.422 15.7077 1169 125.021 479.405 443.432
1091 0 74.1226 13.5991 1008 127.821 479.424 446.069
1092 0 78.2252 16.0179 1253 120.468 479.82 442.845
1093 0 84.5709 15.7856 1335 120.602 479.821 442.91
1094 0 83.3572 16.1714 1348 118.58 479.902 437.368
1095 0 85.4026 15.6318 1335 119.989 480.961 434.498
1096 0 88.2377 13.2596 1170 126.48 483.265 440.307
1097 0 89.3689 14.9045 1332 124.683 483.408 431.532
1098 0 94.2692 14.5541 1372 123.3 485.106 436.93
1099 0 98.1889 14.299 1404 122.545 487.28 437.622
1100 0 100.307 11.7739 1181 131.515 489.17 434.038
1101 1 57.3501 11.2118 643 128.132 491.88 453.722
1102 0 58.3692 10.7248 626 127.669 493.946 457.272
1103 0 68.0555 13.3861 911 119.282 494.324 457.565
1104 0 61.2382 10.5653 647 130.009 494.1 450.7
1105 0 63.2146 11.7694 744 127.239 494.776 450.808
1106 0 63.3025 11.6109 735 131.28 494.816 448.589
1107 0 66.1076 11.0124 728 135.473 494.522 448.964
1108 0 70.1629 12.2429 859 133.233 493.882 447.9
1109 0 70.2622 13.6489 959 132.789 493.51 449.855
1110 0 74.0682 14.4191 1068 131.556 492.334 450.582
1111 0 76.0766 14.5248 1105 131.688 491.275 449.661
1112 0 78.3043 15.0439 1178 132.306 489.895 448.652
1113 0 82.1717 12.8998 1060 136.861 487.957 448.402
1114 0 83.2984 15.4985 1291 133.749 486.157 447.407
1115 0 87.1561 15.9369 1389 134.087 484.816 446.059
1116 0 90.3033 14.0969 1273 139.995 483.768 442.045
1117 0 95.2476 15.7799 1503 135.194 481.924 442.413
1118 1 55.2503 9.97279 551 140.701 479.906 460.123
1119 0 54.2279 8.90686 483 141.981 478.789 459.151
1120 0 58.2021 11.7865 686 138.876 478.424 455.187
1121 0 59.1494 10.9891 650 139.922 477.697 453.732
1122 0 58.1336 10.4759 609 145.419 477.926 447.563
1123 0 62.0888 12.4982 776 141.698 477.918 449.517
1124 0 62.2082 13.2459 824 138.814 476.542 448.715
1125 0 66.4123 14.4853 962 134.876 476.607 444.74
1126 0 65.0764 14.4753 942 131.769 476.863 447.564
1127 0 69.1098 14.7447 1019 134.102 477.308 444.204
1128 0 70.3713 15.4466 1087 132.04 477.255 446.201
1129 0 73.1849 14.1559 1036 134.322 478.284 445.319
1130 0 74.1669 12.2427 908 137.467 479.24 442.968
1131 0 78.3019 13.7417 1076 134.976 480.116 441.039
1132 0 80.2745 13.3168 1069 136.751 481.696 439.795
1133 0 82.262 13.0559 1074 139.264 484.358 440.901
1134 0 85.0854 14.0565 1196 137.926 485.929 437.433
1135 0 86.0755 12.338 1062 142.129 487.42 436.972
1136 0 91.1302 14.4628 1318 139.161 487.839 437.214
1137 0 93.0401 15.1762 1412 139.194 489.187 433.555
1138 0 96.1173 15.8036 1519 139.066 489.512 433.409
1139 0 100.182 12.8565 1288 145.346 489.172 436.153
1140 1 56.0342 10.4757 587 141.811 489.336 458.67
1141 0 57.1266 10.8706 621 140.95 489.303 458.808
1142 0 61.1014 12.5693 768 141.909 489.01 457.493
1143 0 64.1675 12.1245 778 144.46 488.314 457.303
1144 0 65.2501 12.1686 794 145.33 484.902 454.234
1145 0 68.1495 12.8541 876 142.413 485.439 457.466
1146 0 69.2543 13.3132 922 139.5 483.543 455.779
1147 0 73.4132 14.4797 1063 134.524 481.723 453.232
1148 0 76.2634 14.5155 1107 132.872 480.483 454.578
1149 0 78.2065 14.7942 1157 132.545 479.316 452.092
1150 0 77.322 12.6225 976 138.231 477.665 449.339
1151 0 79.2401 11.8879 942 140.056 476.633 442.468
1152 0 82.2171 10.7885 887 139.113 475.756 445.802
1153 0 87.6765 13.949 1223 134.706 475.39 439.483
1154 0 88.3398 13.6066 1202 132.933 475.021 440.778
1155 0 90.2552 12.0658 1089 136.925 475.564 439.589
1156 0 94.3499 14.1601 1336 133.989 475.235 434.854
1157 1 52.2041 9.65441 504 131.798 476.653 459.157
1158 0 52.1313 10.9339 570 132.074 476.877 456.539
1159 0 55.3486 13.1169 726 129.014 477.039 453.237
1160 0 57.3315 9.61077 551 133.773 477.98 453.105
1161 0 57.2801 16.6724 955 125.821 477.934 448.545
1162 0 58.3447 11.2264 655 132.986 479.118 449.855
1163 0 60.1806 13.2102 795 131.194 480.37 446.497
1164 0 63.1473 14.2049 897 125.146 481.025 445.897
1165 0 64.4187 13.1484 847 128.394 483.048 444.366
1166 0 69.304 11.9474 828 129.564 485.353 447.38
1167 0 71.2854 12.9339 922 129.7 487.513 443.005
1168 0 71.2564 12.5041 891 132.585 489.034 443.708
1169 0 76.3651 14.745 1126 128.733 490.608 444.787
1170 0 75.3303 12.7837 963 135.206 491.528 444.29
1171 0 79.286 13.0918 1038 135.719 492.138 443.423
1172 0 83.325 14.1014 1175 135.733 492.22 443.153
1173 0 83.3363 12.5636 1047 142.793 492.403 436.938
1174 0 86.309 15.1548 1308 138.865 491.95 440.71
1175 0 91.4227 17.3808 1589 134.099 492.509 443.41
1176 0 92.3685 13.7926 1274 145.015 492.45 443.486
1177 0 96.3692 14.9425 1440 145.128 491.362 438.06
1178 1 49.2451 13.382 659 146.883 491.266 461.824
1179 0 53.1123 15.0813 801 140.371 490.046 464.401
1180 0 53.1442 12.7013 675 148.28 488.76 462.409
1181 0 57.061 14.318 817 141.583 487.017 461.537
1182 0 58.0993 12.3237 716 144.275 484.94 457.302
1183 0 58.2012 13.5564 789 143.768 484.36 453.359
1184 0 60.2076 15.6292 941 139.687 481.513 456.803
1185 0 63.1422 13.7309 867 140.382 479.864 456.136
1186 0 64.1115 10.4973 673 143.961 477.935 458.034
1187 0 65.0822 12.7838 832 143.361 477.322 450.959
1188 0 70.1158 13.5633 951 139.931 477.461 451.108
1189 0 71.0925 13.6301 969 141.011 478.672 447.707
1190 0 76.1447 13.8683 1056 138.196 478.154 444.404
1191 0 76.1325 14.8951 1134 136.69 478.169 440.086
1192 0 79.227 15.7396 1247 133.218 479.107 441.782
1193 0 83.3338 14.7599 1230 134.389 479.489 441.566
1194 0 86.3514 14.4757 1250 136.054 480.472 437.536
1195 0 89.4432 15.0934 1350 135.55 481.436 435.429
1196 1 47.2222 11.3082 534 136.039 484.12 452.906
1197 0 50.2141 9.18068 461 136.62 485.529 453.978
1198 0 53.341 11.7546 627 128.27 487.742 454.628
1199 0 53.2502 12.3943 660 138.044 489.15 450.073
1200 0 60.3235 13.9415 841 125.625 489.275 452.446
1201 0 60.4288 13.3215 805 134.154 490.612 446.097
1202 0 61.3852 14.1565 869 132.72 491.82 449.183
1203 0 60.2544 12.5136 754 136.491 492.721 455.318
1204 0 62.1063 13.654 848 137.927 493.386 451.618
1205 0 68.1213 15.6779 1068 130.004 493.276 452.675
1206 0 68.3944 14.855 1016 136.251 493.552 449.672
1207 0 71.1423 13.6206 969 140.779 492.794 451.915
1208 0 73.2119 15.1888 1112 140.857 492.631 448.963
1209 0 74.1181 14.7198 1091 142.797 492.241 447.645
1210 0 80.1379 16.8335 1349 138.978 491.569 449.777
1211 0 80.083 18.7056 1498 136.74 490.235 449.067
1212 0 82.2583 15.6337 1286 146.336 489.273 447.11
1213 0 83.3299 15.7087 1309 148.08 488.052 447.613
1214 0 87.1846 16.0808 1402 151.889 485.978 444.418
1215 0 93.1596 16.9923 1583 147.062 484.47 447.975
1216 1 49.3065 10.7491 530 153.481 483.385 464.923
1217 0 50.2475 11.5628 581 155.401 482.639 459.62
1218 0 54.3768 14.9144 811 142.152 481.126 463.222
1219 0 54.2458 14.7292 799 148.907 479.834 458.471
1220 0 56.3522 11.4459 645 154.457 479.347 459.431
1221 0 58.238 14.767 860 143.66 478.328 461.566
1222 0 62.3164 15.5176 967 143.278 478.469 455.701
1223 0 61.2307 15.5151 950 142.873 477.495 453.4
1224 0 64.2516 14.8012 951 140.121 477.117 456.008
1225 0 64.1789 13.2286 849 144.704 477.644 452.02
1226 0 67.2353 14.308 962 142.122 477.774 449.529
1227 0 71.1509 14.673 1044 138.726 478.439 450.421
1228 0 72.3639 11.7738 852 144.609 478.448 448.157
1229 0 75.5121 16.2093 1224 137.953 480.098 445.028
1230 0 77.3198 14.55 1125 141.084 481.399 442.596
1231 0 81.9745 16.2124 1329 138.041 483.41 440.894
1232 0 84.4591 14.8001 1250 139.202 484.919 440.695
1233 0 84.853 16.452 1396 137.806 487.112 436.911
1234 0 86.4534 14.6206 1264 142.987 488.29 433.237
1235 0 89.4594 15.9626 1428 140.245 489.445 434.7
1236 0 93.5025 14.7483 1379 142.524 490.875 436.025
1237 0 95.6142 13.042 1247 146.847 492.348 436.066
1238 0 99.4942 14.9657 1489 142.17 492.655 436.551
1239 1 51.2574 11.1789 573 142.087 493.325 464.241
1240 0 54.3258 14.6339 795 137.409 493.615 462.177
1241 0 55.3547 12.9528 717 141.073 491.926 463.968
1242 0 58.0858 14.4786 841 138.395 491.824 465.105
1243 0 59.123 13.751 813 140.476 491.048 464.836
1244 0 59.2104 12.768 756 146.833 490.851 464.028
1245 0 65.4634 17.0477 1116 135.375 489.582 463.141
1246 0 68.2514 15.6627 1069 138.427 487.366 458.879
1247 0 69.246 14.9612 1036 139.812 485.944 458.651
1248 0 70.3096 14.0664 989 142.95 484.752 457.183
1249 0 71.1748 13.1929 939 141.7 483.43 454.46
1250 0 75.1081 14.4991 1089 137.264 481.961 454.129
1251 0 78.1447 16.7126 1306 131.576 480.748 454.528
1252 0 78.2718 14.1175 1105 139.019 479.843 448.899
1253 0 82.1729 14.3356 1178 136.952 478.967 449.407
1254 0 83.1661 13.0943 1089 138.765 478.686 450.745
1255 0 86.1518 15.4495 1331 135.54 478.417 447.196
1256 0 89.2734 17.9225 1600 128.969 477.866 445.96
1257 0 90.2039 16.1966 1461 132.717 477.774 442.104
1258 0 92.1401 15.1291 1394 132.122 477.236 439.826
1259 0 94.2147 15.7619 1485 131.658 477.29 438.181
1260 1 52.0741 11.4644 597 133.072 477.896 460.752
1261 0 54.0953 12.1267 656 132.37 477.675 457.805
1262 0 56.1106 11.9229 669 131.616 477.634 458.836
1263 0 61.3371 14.673 900 127.964 477.922 450.811
1264 0 60.1444 13.6006 818 132.524 479.666 451.119
1265 0 63.332 14.2424 902 130.902 480.865 448.399
1266 0 65.2489 15.4485 1008 128.122 482.814 451.437
1267 0 66.1202 14.5493 962 131.45 484.153 450.647
1268 0 70.1534 16.6492 1168 128.578 485.78 449.433
1269 0 72.2245 12.0181 868 138.931 487.446 449.921
1270 0 74.1157 15.948 1182 131.898 488.698 449.723
1271 0 77.1596 14.9431 1153 133.696 489.8 449.892
1272 0 78.1016 14.3531 1121 135.097 489.915 453.933
1273 0 81.1838 15.7544 1279 135.32 490.172 448.758
1274 0 83.1586 14.7309 1225 139.518 490.737 448.696
1275 0 86.1945 14.2004 1224 143.594 490.234 449.658
1276 0 85.1805 13.4655 1147 146.865 489.692 448.855
1277 0 92.2069 16.4955 1521 139.076 489.189 449.423
1278 0 95.1931 15.3372 1460 143.897 487.664 449.909
1279 0 97.2081 14.4947 1409 146.995 486.059 447.265
1280 0 99.409 14.6164 1453 146.758 484.731 443.305
1281 0 105.556 16.4557 1737 142.877 483.012 441.328
1282 0 110.367 16.9345 1869 140.441 481.552 441.42
1283 1 60.3094 10.0648 607 146.578 481.399 464.603
1284 0 62.3393 10.9401 682 146.44 480.045 461.394
1285 0 63.3665 13.7297 870 142.169 478.584 458.114
1286 0 67.2253 15.4257 1037 135.66 478.358 461.089
1287 0 69.3839 13.0578 906 143.443 477.781 457.242
1288 0 66.1429 12.9568 857 147.473 477.121 452.236
1289 0 71.2495 14.1755 1010 143.425 476.468 453.181
1290 0 75.1339 14.7736 1110 140.482 476.029 452.303
1291 0 76.2023 11.1414 849 148.531 475.425 451.049
1292 0 81.338 17.4949 1423 134.07 475.757 447.827
1293 0 85.3555 15.0195 1282 140.192 475.933 448.841
1294 0 82.2028 13.1991 1085 148.743 476.116 442.69
1295 0 88.3605 14.6106 1291 144.576 476.81 445.594
1296 0 88.179 14.0169 1236 149.237 477.821 443.833
1297 0 90.2002 15.4656 1395 147.039 478.56 443.706
1298 0 95.1674 17.1908 1636 142.042 479.326 437.178
1299 0 96.1495 15.8191 1521 145.36 481.195 440.404
1300 1 58.1367 10.4237 606 148.305 482.845 457.97
1301 0 61.2504 12.0979 741 142.559 484.516 458.51
1302 0 62.2701 11.7231 730 147.216 485.849 455.749
1303 0 64.312 14.3986 926 141.417 486.554 455.575
1304 0 64.2194 13.9833 898 143.587 486.499 450.5
1305 0 68.118 16.1925 1103 137.535 488.381 452.919
1306 0 70.1284 15.4716 1085 140.096 488.693 452.128
1307 0 76.1388 16.772 1277 134.494 488.078 454.461
1308 0 75.098 14.5809 1095 143.552 488.617 450.951
1309 0 77.2151 14.4402 1115 144.987 488.146 452.387
1310 0 82.175 14.4813 1190 145.308 487.461 451.646
1311 0 84.2703 17.2303 1452 140.502 486.185 449.779
1312 0 86.0771 16.1948 1394 144.237 484.382 449.59
1313 0 90.1418 17.7942 1604 140.415 483.603 451.63
1314 0 94.2008 17.1761 1618 143.673 481.62 449.22
1315 0 93.32 14.1985 1325 153.103 480.075 445.537
1316 0 94.1098 12.8892 1213 157.18 478.847 444.887
1317 0 99.2524 16.2011 1608 149.373 477.316 443.353
1318 0 101.397 14.9609 1517 151.683 476.044 437.432
1319 0 105.191 14.2503 1499 151.178 474.994 437.075
1320 0 108.302 14.4318 1563 146.417 473.043 439.02
1321 0 111.26 16.403 1825 145.11 472.427 430.979
1322 0 114.112 15.441 1762 150.493 471.927 431.327
1323 0 119.402 16.2477 1940 144.453 471.196 427.626
1324 0 122.548 17.2096 2109 143.576 470.928 423.115
1325 0 125.352 15.2371 1910 147.966 471.362 424.227
1326 1 73.1321 11.5408 844 142.34 471.355 451.614
1327 0 75.1602 8.47523 637 149.879 471.529 448.363
1328 0 78.0959 11.7164 915 144.396 472.193 447.546
1329 0 80.1241 12.1062 970 149.93 472.553 441.648
1330 0 84.5202 14.5172 1227 141.767 475.831 439.352
1331 0 86.1335 14.3498 1236 144.453 476.413 438.214
1332 0 89.2293 17.2925 1543 135.968 477.634 436.661
1333 0 92.1567 16.5588 1526 143.421 479.613 438.057
1334 0 92.2115 16.4838 1520 140.993 481.381 438.814
1335 0 96.3011 14.4235 1389 148.967 483.223 434.837
1336 0 100.234 14.6955 1473 148.931 484.655 432.607
1337 0 101.124 14.1707 1433 152.899 485.759 427.973
1338 0 107.121 14.6657 1571 149.866 486.819 432.164
1339 0 109.199 12.8573 1404 155.417 487.486 431.88
1340 0 112.167 14.1485 1587 156.091 487.467 429.345
1341 0 115.491 13.8539 1600 159.229 488.084 425.655
1342 0 119.444 13.7219 1639 156.379 487.875 429.216
1343 0 121.362 14.3868 1746 156.798 487.612 425.249
1344 1 69.3267 6.67852 463 159.851 487.894 456.59
1345 0 76.2876 8.48107 647 157.966 486.357 451.427
1346 0 76.2014 10.2229 779 156.82 485.045 449.796
1347 0 77.2269 10.4238 805 154.899 484.498 449.253
1348 0 82.1964 12.2755 1009 151.149 482.009 442.945
1349 0 86.2108 13.6062 1173 147.662 481.184 448.408
1350 0 86.2482 13.1945 1138 149.591 480.278 443.029
1351 0 91.4002 13.1619 1203 148.263 479.284 443.574
1352 0 94.1967 13.3656 1259 146.38 478.137 443.741
1353 0 95.1954 12.4061 1181 148.305 476.885 437.831
1354 0 98.1621 12.2349 1201 144.769 476.251 439.379
1355 0 101.155 15.0363 1521 136.641 475.521 440.226
1356 0 104.31 12.7888 1334 144.651 475.508 435.799
1357 0 107.282 13.9446 1496 140.546 475.506 432.172
1358 0 110.171 13.3973 1476 142.742 475.224 429.186
1359 0 110.161 11.7828 1298 144.114 474.572 424.233
1360 1 67.2088 12.5281 842 135.529 475.867 449.493
1361 0 64.2531 8.03075 516 144.932 476.238 447.814
1362 0 72.1338 11.34 818 136.522 476.812 447.71
1363 0 69.1256 11.0958 767 138.86 477.619 440.228
1364 0 73.1149 12.2547 896 133.506 479.151 443.594
1365 0 74.2574 13.7225 1019 129.491 477.192 440.827
1366 0 76.1969 13.2814 1012 130.525 478.348 440.866
1367 0 78.2368 11.9637 936 135.081 480.423 440.846
1368 0 81.2055 13.8291 1123 132.665 482.687 438.124
1369 0 84.3715 14.0569 1186 130.98 483.748 443.353
1370 0 85.1213 15.8832 1352 129.374 485.433 437.232
1371 0 91.3529 17.5254 1601 124.66 486.413 439.961
1372 0 93.2559 15.6344 1458 130.556 487.158 438.051
1373 0 93.2773 11.2568 1050 140.843 486.952 439
1374 0 97.3184 14.4063 1402 135.157 486.864 436.196
1375 0 99.4208 13.297 1322 138.355 486.908 434.436
1376 0 100.311 14.3554 1440 138.514 486.799 431.547
1377 0 103.377 13.8715 1434 140.821 487.113 428.754
1378 0 109.511 15.213 1666 137 486.822 435.574
1379 0 111.796 13.8198 1545 138.963 485.276 435.155
1380 0 115.366 15.4378 1781 136.761 484.206 431.702
1381 0 118.549 16.9213 2006 132.998 482.661 430.901
1382 0 122.53 15.4493 1893 136.032 480.972 425.482
1383 0 126.47 15.6163 1975 131.446 479.546 423.525
1384 0 129.348 14.5808 1886 132.871 478.431 418.926
1385 1 72.3521 11.8863 860 129.678 477.969 444.216
1386 0 75.4211 10.5806 798 129.861 476.783 445.095
1387 0 73.2305 10.3509 758 129.916 475.976 440.467
1388 0 82.2248 15.0441 1237 121.521 475.232 441.941
1389 0 80.1931 13.9414 1118 125.595 475.464 438.43
1390 0 83.2209 13.4221 1117 124.664 474.736 434.829
1391 0 82.174 11.2201 922 132.247 475.337 432.205
1392 0 87.3165 14.8082 1293 123.995 475.231 426.152
1393 0 91.1732 15.4322 1407 123.187 475.994 426.635
1394 0 94.2149 15.0507 1418 123.062 476.233 430.248
1395 0 96.2384 14.2355 1370 125.04 476.789 426.22
1396 0 101.098 12.6906 1283 126.92 477.654 425.189
1397 0 104.228 14.2476 1485 125.98 479.537 423.438
1398 0 102.44 11.2944 1157 134.53 481.059 417.895
1399 0 109.327 14.8545 1624 127.318 482.823 423.759
1400 0 112.153 13.4369 1507 137.418 484.013 424.075
1401 0 117.286 14.9038 1748 136.007 484.648 428.523
1402 0 120.255 14.6522 1762 139.054 486.885 420.793
1403 0 126.335 14.4141 1821 136.068 489.072 415.468
1404 1 69.102 10.3904 718 133.687 491.333 451.008
1405 0 70.0618 11.8895 833 131.263 491.321 450.217
1406 0 73.18 11.9841 877 133.421 490.814 446.865
1407 0 76.0852 11.3951 867 133.783 490.18 445.659
1408 0 80.3216 16.0729 1291 125.737 489.944 447.171
1409 0 81.1683 12.3694 1004 134.937 489.865 447.458
1410 0 86.2005 13.8282 1192 132.159 488.776 449.421
1411 0 87.2978 15.1092 1319 130.121 487.221 450.111
1412 0 91.2962 12.1473 1109 137.499 485.482 441.424
1413 0 94.3478 13.4608 1270 135.185 484.222 445.501
1414 0 96.2709 13.8983 1338 135.407 481.986 440.05
1415 0 100.169 14.0861 1411 135.436 480.483 437.927
1416 0 101.375 13.2183 1340 138.806 479.097 437.434
1417 0 106.276 15.3185 1628 134.971 477.932 436.62
1418 0 110.388 12.6554 1397 139.948 476.47 437.665
1419 0 113.269 15.194 1721 138.802 474.875 431.557
1420 0 113.153 13.3183 1507 142.816 474.106 427.878
1421 0 119.116 13.0797 1558 141.951 473.456 428.164
1422 1 68.0672 11.5768 788 137.817 473.027 452.36
1423 0 70.0779 9.6464 676 141.59 472.235 451.21
1424 0 69.1868 9.82847 680 139.649 472.359 451.897
1425 0 73.2807 14.6287 1072 126.479 473.091 448.698
1426 0 76.317 11.5177 879 138.373 472.966 447.014
1427 0 77.1779 15.8465 1223 125.531 474.379 443.688
1428 0 80.2575 12.4724 1001 132.845 474.773 445.297
1429 0 81.3754 14.3532 1168 132.043 475.765 441.914
1430 0 83.142 12.7012 1056 137.364 475.593 439.016
1431 0 87.1804 14.2693 1244 132.743 477.362 441.827
1432 0 89.0957 13.9401 1242 136.716 478.864 437.069
1433 0 93.297 13.3445 1245 138.775 480 438.099
1434 0 94.2082 13.1411 1238 139.69 481.117 437.941
1435 0 99.386 16.7428 1664 133.308 482.722 438.343
1436 0 99.205 14.4247 1431 140.059 484.548 432.272
1437 1 58.0866 8.91772 518 145.249 484.847 457.409
1438 0 57.118 7.94846 454 149.813 485.385 457.896
1439 0 62.1078 11.0453 686 145.273 485.913 457.577
1440 0 63.0752 12.5089 789 142.942 485.769 457.738
1441 0 68.1532 13.8512 944 144.19 485.535 459.426
1442 0 70.1593 15.2795 1072 141.487 484.539 459.712
1443 0 70.0574 13.7887 966 147.271 483.43 456.63
1444 0 75.0953 17.6975 1329 136.197 483.223 457.704
1445 0 79.2448 16.9727 1345 137.394 481.688 458.442
1446 0 79.1368 13.9 1100 146.41 480.271 454.184
1447 0 84.2252 15.2211 1282 142.279 478.67 456.587
1448 0 84.2759 12.9337 1090 148.006 477.607 453.645
1449 0 87.2484 14.2238 1241 144.965 476.384 451.411
1450 0 91.2808 16.3013 1488 141.108 475.351 448.548
1451 0 96.3567 15.9927 1541 139.585 474.483 447.799
1452 0 94.3271 12.1916 1150 150.143 473.911 445.238
1453 0 97.4098 14.5673 1419 146.693 473.617 438.537
1454 0 103.529 15.5416 1609 141.107 473.255 436.525
1455 0 106.515 15.0308 1601 141.539 473.325 436.801
1456 1 66.431 13.4425 893 141.043 473.423 455.279
1457 0 66.2804 10.8328 718 144.443 473.804 454.16
1458 0 67.3371 12.0142 809 136.747 471.916 448.888
1459 0 67.2246 11.4839 772 136.846 472.381 449.11
1460 0 69.3741 11.3731 789 139.256 472.599 444.276
1461 0 72.2842 11.6623 843 140.641 473.751 442.362
1462 0 74.1759 13.0905 971 138.922 474.784 439.382
1463 0 78.2916 16.5535 1296 132.255 476.191 440.911
1464 0 81.2997 13.3826 1088 136.408 477.309 437.857
1465 0 82.1822 11.9126 979 140.185 478.903 435.226
1466 0 86.2774 12.0426 1039 138.624 480.959 438.815
1467 0 90.2079 14.5774 1315 135.766 482.596 435.802
1468 0 93.2755 16.1672 1508 132.469 484.901 435.888
1469 0 91.2427 11.1132 1014 147.139 485.978 430.755
1470 0 100.147 15.0878 1511 137.433 487.593 434.27
1471 0 98.161 15.7904 1550 137.497 487.843 431.5
1472 0 104.106 15.3881 1602 137.856 489.185 434.76
1473 0 107.33 14.7209 1580 138.424 489.109 431.119
1474 0 111.272 15.3858 1712 139.154 490.377 432.52
1475 1 61.1583 11.2986 691 134.74 490.984 459.274
1476 0 63.1227 9.79045 618 138.138 490.976 459.193
1477 0 65.0731 11.3257 737 136.355 490.498 459.769
1478 0 66.1413 11.6871 773 137.498 489.569 459.455
1479 0 69.1455 16.0387 1109 130.157 488.683 458.064
1480 0 71.1519 15.3756 1094 133.232 487.803 455.226
1481 0 73.1601 11.8644 868 139.915 486.192 458.002
1482 0 75.1091 13.7933 1036 137.057 484.459 453.051
1483 0 76.2954 14.1555 1080 137.497 483.491 450.537
1484 0 79.2676 13.8518 1098 136.865 482.629 449.123
1485 0 82.2034 14.6466 1204 135.147 481.287 450.104
1486 0 85.4018 12.5407 1071 136.01 480.249 444.114
1487 0 83.2029 11.9948 998 139.071 479.139 441.029
1488 0 91.4639 11.3925 1042 139.514 478.7 441.62
1489 0 94.3691 14.9625 1412 130.009 477.189 440.374
1490 1 53.3752 9.34891 499 140.409 477.036 455.242
1491 0 54.257 8.82835 479 142.436 477.261 451.816
1492 0 58.1337 12.196 709 130.094 476.034 456.46
1493 0 59.227 11.1942 663 132.293 475.953 453.786
1494 0 63.1898 10.9195 690 134.406 478.183 451.626
1495 0 65.2645 11.7981 770 131.455 477.965 447.613
1496 0 66.1986 12.8855 853 126.375 478.081 446.76
1497 0 69.1872 11.6929 809 127.57 479.632 445.796
1498 0 70.3071 14.8776 1046 126.513 480.989 443.163
1499 0 73.3652 14.8844 1092 123.152 482.583 440.584
1500 0 74.3233 14.3158 1064 127.559 484.218 440.373
1501 0 77.2404 14.2024 1097 121.619 485.755 440.798
1502 0 82.2761 16.1529 1329 119.831 487.435 438.099
1503 0 84.4102 15.8749 1340 124.043 488.822 438.613
1504 0 85.559 13.067 1118 129.717 489.741 438.361
1505 0 87.2798 16.3956 1431 125.816 490.597 438.398
1506 0 93.3841 13.5569 1266 130.634 491.423 435.216
1507 0 95.3078 13.9023 1325 132.049 491.171 432.989
1508 0 98.4716 15.5273 1529 131.976 490.974 433.515
1509 0 98.5389 13.274 1308 139.046 490.637 431.977
1510 0 100.301 13.5393 1358 141.373 490.599 431.01
1511 0 105.385 15.3817 1621 137.882 490.238 432.518
1512 0 107.337 14.6268 1570 139.043 489.279 432.235
