time division length width area intensity CMx CMy
0 0 72.3144 15.9996 1157 126.674 655.009 430.106
1 0 75.2995 13.4264 1011 127.789 656.549 436.068
2 0 74.2099 8.77242 651 133 656.939 431.705
3 0 76.1107 14.1636 1078 124.863 657.543 432.889
4 0 80.2572 16.796 1348 121.265 657.826 433.051
5 0 84.4326 22.4913 1899 115.354 658.662 426.921
6 0 84.2588 14.2893 1204 122.61 657.664 431.526
7 0 90.1902 10.877 981 123.923 658.491 432.078
8 1 50.3009 10.477 527 117.078 657.48 452.146
9 0 51.1034 16.3785 837 113.694 654.891 448.845
10 0 52.1178 10.9559 571 121.075 654.065 446.31
11 0 51.1514 14.0367 718 117.497 653.089 451.719
12 0 53.3464 9.01654 481 125.9 652.195 451.715
13 0 53.1011 10.0186 532 124.325 650.509 451.303
14 0 55.0896 14.2314 784 120.445 652.389 453.68
15 0 58.3754 15.0577 879 123.322 651.604 450.506
16 0 59.2646 14.6124 866 126.468 649.449 449.896
17 0 57.0724 12.6331 721 136.498 648.176 446.323
18 0 62.0681 12.6313 784 138.338 647.055 443.874
19 0 66.4342 13.9537 927 135.166 646.376 446.581
20 0 64.1953 12.1504 780 145.172 645.114 439.953
21 0 65.1668 12.6905 827 145.282 644.243 437.386
22 0 70.1362 12.7039 891 145 644.745 437.03
23 0 71.1743 11.9285 849 146.39 644.014 434.63
24 0 73.3097 13.8999 1019 142.347 643.921 432.725
25 0 79.1736 16.9754 1344 134.167 644.017 431.251
26 0 80.1989 13.3294 1069 139.106 643.966 434.685
27 0 83.164 15.1748 1262 135.605 643.802 432.078
28 0 85.0937 14.2666 1214 138.145 644.69 427.317
29 0 88.1332 12.8102 1129 137.09 646.248 427.093
30 0 92.2456 16.0116 1477 130.236 646.558 424.606
31 0 94.3214 16.4862 1555 127.008 648.026 421.084
32 0 97.3172 10.8922 1060 127.504 650.287 422.842
33 0 101.342 19.518 1978 116.029 651.635 425.263
34 0 111.839 14.2973 1599 119.044 653.004 427.393
35 0 109.385 17.1047 1871 116.158 655.084 422.799
36 0 111.335 10.7244 1194 123.344 655.259 415.01
37 0 120.364 17.8625 2150 113.141 655.786 423.876
38 0 117.748 11.9493 1407 120.629 657.014 420.205
39 0 122.584 14.4636 1773 118.474 656.945 420.193
40 0 123.542 16.7231 2066 117.661 656.325 415.972
41 1 69.717 17.7575 1238 108.141 657.161 451.691
42 0 72.2965 15.4088 1114 113.777 656.993 444.568
43 0 71.3352 18.4341 1315 112.671 655.709 447.415
44 0 75.29 14.1187 1063 122.253 654.95 440.358
45 0 81.4975 13.4115 1093 119.447 654.352 442.748
46 0 83.5394 21.822 1823 112.784 653.257 442.501
47 0 84.1024 12.2232 1028 129.053 651.68 437.836
48 0 87.2815 13.4851 1177 127.454 650.297 439.376
49 0 91.3783 17.3126 1582 120.542 648.735 441.719
50 0 91.3553 12.9823 1186 129.804 646.738 437.985
51 1 48.1388 12.8379 618 121.17 645.981 460.353
52 0 50.0468 9.7309 487 129.055 644.384 455.965
53 0 54.3467 12.7515 693 125.506 643.251 453.561
54 0 54.3827 12.6327 687 124.447 641.099 452.178
55 0 56.0724 13.7322 770 122.105 639.777 448.343
56 0 58.0461 12.1111 703 123.872 642.065 449.339
57 0 61.0944 14.8623 908 116.84 641.583 452.825
58 0 59.1222 17.337 1025 117.733 640.8 446.88
59 0 61.1866 11.4731 702 126.232 641.349 446.613
60 0 63.1363 14.73 930 123.086 640.903 441.111
61 0 64.1065 12.6196 809 124.373 641.489 442.073
62 0 69.1998 14.2052 983 119.822 641.774 439.342
63 0 71.0942 11.534 820 121.383 643.112 439.354
64 0 74.2505 17.1312 1272 113.512 645.228 440.385
65 0 75.1493 11.9762 900 119.226 646.707 436.846
66 0 78.1861 15.2585 1193 114.398 649.506 431.163
67 0 80.955 15.7124 1272 108.992 651.748 444.158
68 0 85.529 18.52 1584 106.133 653.528 441.904
69 1 167.746 18.8261 3158 113.627 653.611 396.046
70 0 174.785 27.1018 4737 107.299 653.879 397.544
71 0 183.674 27.4127 5035 106.734 654.435 400.763
72 0 183.999 24.2013 4453 109.33 655.264 398.725
73 0 190.665 27.1051 5168 110.274 654.854 383.027
74 1 150.895 14.129 2132 115.513 655.569 416.677
75 0 155.709 27.0698 4215 106.955 654.415 414.791
76 1 106.645 14.9936 1599 113.063 654.361 436.089
77 0 109.342 16.4987 1804 112.999 652.341 430.777
78 0 117.8 25.1443 2962 107.399 652.001 434.16
79 1 61.3645 14.145 868 113.54 653.025 454.302
80 0 63.2131 14.9652 946 110.609 652.268 456.886
81 0 63.0573 10.7045 675 119.778 650.676 453.967
82 0 65.2529 12.7197 830 119.757 648.829 452.983
83 0 69.078 15.5332 1073 116.942 647.534 449.373
84 0 69.0735 13.8259 955 122.454 645.825 448.674
85 0 71.2273 17.76 1265 119.142 644.104 445.178
86 0 74.2103 19.4313 1442 118.42 643.062 447.591
87 0 77.3379 22.3952 1732 113.747 640.594 448.352
88 0 79.1842 17.7813 1408 116.719 639.557 449.904
89 0 81.1657 14.1316 1147 128.302 639.044 440.81
90 0 82.2339 20.0769 1651 120.222 638.11 439.405
91 0 84.2682 15.8423 1335 133.873 638.282 432.996
92 0 88.2396 15.7866 1393 133.96 639.146 432.138
93 0 89.1657 13.8394 1234 138.588 639.522 430.463
94 0 92.0755 15.118 1392 137.325 639.177 429.389
95 0 98.1107 17.5108 1718 134.364 639.888 428.213
96 1 49.0717 11.8194 580 137.064 640.472 450.872
97 0 53.2634 10.5701 563 137.377 639.886 449.131
98 0 56.2745 7.64112 430 133.263 641.595 449.949
99 0 57.0907 12.9093 737 124.389 643.615 447.775
100 0 55.1009 7.4046 408 133.654 645.265 447.485
101 0 60.1792 18.8603 1135 116.256 647.697 445.893
102 0 59.0816 16.6211 982 118.115 651.123 445.333
103 0 64.05 13.4114 859 118.488 653.276 445.707
104 0 65.0661 17.0442 1109 116.849 653.845 444.478
105 0 67.1502 15.309 1028 117.136 654.752 444.514
106 0 70.121 16.443 1153 117.347 654.98 448.02
107 0 72.5834 12.4822 906 119.507 655.253 451.297
108 0 76.7664 21.3635 1640 113.227 654.801 447.409
109 0 76.1909 15.5399 1184 121.385 655.334 443.574
110 0 78.2753 29.3963 2301 110.486 653.528 448.08
111 0 81.172 20.3518 1652 121.709 653.646 439.731
112 0 82.2436 16.5484 1361 126.722 652.708 445.594
113 0 84.2403 14.0788 1186 138.947 651.4 441.641
114 0 88.5155 17.2512 1527 133.987 649.739 443.517
115 0 89.4602 14.4533 1293 141.374 648.27 438.957
116 0 91.4902 15.9033 1455 138.445 646.805 437.293
117 0 97.3885 17.1478 1670 138.562 644.847 435.365
118 0 100.324 16.2873 1634 130.491 642.509 439.604
119 1 55.0977 11.3435 625 132.29 640.683 459.654
120 0 55.0947 12.2153 673 130.1 639.33 456.092
121 0 58.2734 12.8189 747 128.351 638.301 452.645
122 0 60.4016 15.7943 954 123.582 637.408 450.148
123 0 60.4016 15.7281 950 131.514 636.34 450.314
124 0 62.1512 13.4993 839 130.663 638.261 449.185
125 0 61.3251 11.8059 724 139.838 637.891 446.222
126 0 66.2046 13.126 869 137.173 637.875 443.082
127 0 71.199 17.8092 1268 125.961 637.606 445.321
128 0 70.4594 18.791 1324 127.159 637.832 443.01
129 0 69.2511 11.22 777 138.667 638.19 439.486
130 0 73.3682 15.6335 1147 128.19 638.931 436.709
131 0 76.1491 15.5747 1186 128.204 640.717 435.742
132 0 80.2972 18.1451 1457 122.81 641.077 432.718
133 0 81.3162 15.5443 1264 126.692 643.309 435.964
134 0 84.2275 15.5294 1308 127.612 645.825 433.209
135 0 83.3742 11.8502 988 128.99 647.627 438.439
136 0 89.46 16.1748 1447 123.129 649.006 428.419
137 0 93.2416 13.3524 1245 126.038 651.051 432.581
138 0 97.9559 25.8382 2531 113.028 650.141 431.787
139 0 101.378 17.4791 1772 120.065 651.677 431.745
140 0 101.516 16.8545 1711 120.307 651.438 433.831
141 0 101.262 20.4914 2075 120.346 650.768 423.922
142 0 107.653 21.8201 2349 115.857 650.714 432.449
143 0 109.272 15.5026 1694 126.828 649.302 418.909
144 0 113.249 17.1656 1944 127.992 648.848 418.408
145 0 117.172 13.4929 1581 135.436 648.292 422.44
146 0 121.751 15.2854 1861 134.808 647.352 422.345
147 0 128.875 18.2192 2348 130.015 646.5 423.432
148 0 131.38 14.3553 1886 145.381 645.252 420.727
149 0 137.354 16.614 2282 135.023 643.116 421.735
150 0 137.354 16.7305 2298 135.4 641.136 421.777
151 1 75.185 14.471 1088 133.341 642.01 445.676
152 0 79.295 14.8559 1178 130.227 639.581 446.227
153 0 82.2888 13.3189 1096 131.731 638.795 448.241
154 0 85.2507 14.123 1204 129.838 636.928 440.23
155 0 88.1799 12.8374 1132 131.312 636.563 439.406
156 0 90.1952 11.586 1045 139.616 636.226 440.247
157 0 95.1761 17.7881 1693 127.049 635.166 435.68
158 1 49.0768 9.55645 469 131.473 635.205 457.972
159 0 48.0749 9.79721 471 133.17 636.04 455.754
160 0 53.0713 10.7968 573 129.864 634.928 452.785
161 0 53.0765 9.72182 516 135.919 635.258 451.159
162 0 55.1678 12.7792 705 127.627 636.339 447.841
163 0 57.2855 13.5636 777 122.97 636.744 447.229
164 0 59.2969 14.5539 863 116.11 637.768 450.963
165 0 59.3343 11.1908 664 122.578 639.244 441.688
166 0 67.7046 12.7022 860 112.686 640.965 453.192
167 0 66.3455 10.8975 723 118.231 642.163 446.675
168 0 68.212 10.3647 707 118.622 644.458 449.832
169 0 75.7444 13.3475 1011 113.656 645.759 446.373
170 0 72.5376 12.4625 904 116.431 647.091 449.02
171 0 75.4304 15.564 1174 116.171 647.785 445.719
172 0 76.1732 19.7314 1503 113.5 647.929 442.503
173 0 77.1354 12.316 950 124.032 648.568 443.993
174 0 82.3419 12.9217 1064 121.62 649.748 449.546
175 0 81.318 12.3835 1007 128.653 649.138 444.36
176 0 87.3962 13.2042 1154 128.266 648.503 444.579
177 0 89.4908 16.4039 1468 128.02 647.341 443.052
178 0 91.3507 15.4131 1408 131.246 646.783 441.21
179 0 94.3892 14.0588 1327 135.063 646.125 440.109
180 0 95.5646 11.1757 1068 140.518 645.963 441.498
181 0 99.2717 12.5615 1247 139.462 644.801 440.797
182 1 54.2175 11.251 610 136.921 643.798 456.302
183 0 56.0941 12.0512 676 131.311 642.152 459.277
184 0 60.1263 14.6525 881 129.334 640.334 456.145
185 0 60.1082 13.8417 832 133.422 639.189 454.446
186 0 61.2857 14.8648 911 128.244 637.232 454.528
187 0 65.3208 13.0433 852 127.575 635.953 455.913
188 0 66.2258 13.6503 904 129.662 635.18 449.914
189 0 67.202 12.7823 859 129.153 635.203 447.7
190 0 69.3708 12.8152 889 128.891 634.634 446.98
191 0 72.4086 12.6366 915 127.877 634.8 446.141
192 0 74.2092 16.8038 1247 123.524 633.235 443.494
193 0 74.2037 13.8403 1027 132.659 633.272 443.106
194 0 77.2283 13.3759 1033 133.063 633.906 442.843
195 0 79.2573 12.9452 1026 137.041 632.755 438.917
196 0 85.2849 13.8946 1185 133.112 633.373 438.849
197 0 87.3134 15.9769 1395 128.386 634.182 439.378
198 0 89.2756 14.7857 1320 132.669 635.666 432.411
199 0 92.3269 14.427 1332 130.35 636.819 432.224
200 0 94.3759 14.029 1324 131.193 638.035 429.974
201 0 98.464 11.3747 1120 133.079 640.812 428.372
202 1 53.0863 12.0182 638 121.201 644.014 456.348
203 0 53.2933 11.2022 597 125.116 645.352 449.042
204 0 57.4303 10.935 628 122.162 646.992 454.409
205 0 58.387 11.9718 699 119.464 648.288 454.572
206 0 57.2748 12.0123 688 125.475 649.061 450.555
207 0 58.3627 12.251 715 124.93 648.575 454.722
208 0 62.4039 15.8964 992 116.122 649.044 455.239
209 0 62.2729 14.0189 873 121.813 648.733 452.176
210 0 65.216 15.6097 1018 120.765 648.853 450.864
211 0 66.4177 13.1441 873 126.621 648.107 450.165
212 0 71.2485 14.1477 1008 123.919 647.343 452.509
213 0 71.3546 11.3518 810 131.39 646.352 454.109
214 0 73.3812 12.2511 899 132.071 645.344 450.638
215 0 73.3812 12.2511 899 145.407 643.388 450.841
216 0 79.3174 15.2678 1211 128.315 642.26 447.167
217 0 81.2274 14.1701 1151 133.853 640.97 444.398
218 0 84.2194 14.2841 1203 134.067 639.19 440.741
219 0 90.6452 20.5968 1867 120.968 637.912 446.929
220 0 90.1755 13.8508 1249 134.259 636.208 440.517
221 0 90.4161 13.5706 1227 136.9 635.317 437.973
222 0 93.3755 13.601 1270 138.638 634.249 434.039
223 0 97.4617 15.0418 1466 136.098 633.651 432.276
224 1 56.4444 14.6161 825 127.287 632.376 454.817
225 0 55.3426 12.7027 703 135.152 630.879 449.954
226 0 55.5526 12.0966 672 137.671 631.076 447.182
227 0 59.341 10.8188 642 136.871 631.998 448.449
228 0 61.0968 13.0449 797 129.524 633.992 452.05
229 0 62.2123 14.5791 907 124.729 634.314 449.671
230 0 64.2688 13.817 888 126.917 634.751 446.538
231 0 64.1733 12.4662 800 123.298 635.441 447.734
232 0 67.3535 12.7684 860 122.073 637.99 446.644
233 0 69.1148 11.6183 803 126.914 639.062 445.188
234 0 71.2147 22.9166 1632 111.025 639.687 447.439
235 0 77.3828 16.1018 1246 119.018 641.147 441.815
236 0 76.1259 16.6829 1270 120.025 643.032 438.483
237 0 75.2513 12.8237 965 123.754 645.454 441.636
238 0 81.2665 14.0156 1139 118.629 645.898 439.619
239 0 86.2735 18.6848 1612 112.917 647.322 446.741
240 0 87.212 16.0987 1404 123.165 646.902 442.021
241 0 89.236 15.812 1411 124.137 647.223 441.045
242 1 48.1369 11.4258 550 127.144 646.949 461.862
243 0 53.5377 11.1324 596 127.227 646.552 464.53
244 0 50.0739 11.1236 557 136.643 646.558 460.49
245 0 52.1227 14.9455 779 126.791 645.864 465.61
246 0 52.1596 12.7493 665 140.874 644.301 459.663
247 0 55.0765 12.4372 685 136.663 642.492 461.955
248 0 57.1566 14.539 831 133.389 640.682 458.971
249 0 56.1041 15.4178 865 135.755 639.692 457.117
250 0 58.114 13.6972 796 136.815 638.343 456.415
251 0 62.1687 13.0452 811 134.871 636.619 456.735
252 0 64.2424 14.025 901 130.456 635.047 459.633
253 0 65.0669 13.9088 905 136.811 634.327 454.419
254 0 67.14 14.2687 958 133.076 633.459 452.501
255 0 67.1762 12.7873 859 137.317 631.318 449.076
256 0 71.1088 13.2332 941 135.651 630.7 449.221
257 0 73.1141 14.9356 1092 134.274 630.488 446.215
258 0 73.085 11.083 810 141.154 629.833 444.486
259 1 37.0625 11.1164 412 135.655 629.18 459.842
260 0 42.0797 10.3375 435 132.057 631.361 463.025
261 0 42.0403 8.9438 376 132.912 631.162 460.668
262 0 43.0739 9.88999 426 129.005 633.352 458.218
263 0 45.2523 15.2036 688 118.673 630.051 456.15
264 0 46.0886 13.0618 602 120.699 633.515 453.254
265 0 46.046 11.5537 532 123.93 632.017 453.117
266 0 51.106 11.5251 589 121.219 634.277 452.255
267 0 49.1206 16.8768 829 114.361 636.097 449.486
268 0 48.3264 11.8155 571 121.317 638.054 451.543
269 0 53.0453 13.3848 710 115.559 642.389 451.577
270 0 52.2677 13.45 703 112.296 643.846 458.452
271 0 53.2227 13.2087 703 115.694 644.596 453.856
272 0 62.5858 18.7263 1172 108.702 647.428 456.067
273 0 59.3538 12.8383 762 117.685 647.281 451.761
274 0 61.2304 17.7853 1089 111.976 647.779 455.109
275 0 62.4122 13.8274 863 118.452 647.301 453.182
276 0 63.1656 13.1559 831 121.584 647.075 450.146
277 0 65.2666 13.9428 910 121.1 646.936 454.651
278 0 67.2498 15.896 1069 118.013 645.897 454.063
279 0 68.4571 11.7008 801 127.333 645.07 454.05
280 0 72.1464 11.8648 856 126.444 643.575 456.042
281 0 70.2224 10.5949 744 130.837 642.351 450.5
282 1 39.0631 10.3166 403 126.747 641.801 469.573
283 0 38.069 9.79799 373 125.933 641.102 468.107
284 0 41.0696 10.6892 439 120.446 638.549 469.084
285 0 42.0481 13.5559 570 119.035 637.402 466.775
286 0 42.1177 12.5363 528 124.195 635.977 464.549
287 0 45.3174 13.6151 617 120.297 632.301 461.984
288 0 45.0986 11.9959 541 119.03 631.49 464.155
289 0 46.0909 13.3432 615 120.25 633.229 462.324
290 0 46.0909 13.3866 617 119.687 633.248 462.436
291 0 50.1604 9.76866 490 124.086 632.704 460.347
292 0 51.1249 10.6797 546 122.982 632.07 459.308
293 0 51.164 12.3524 632 122.593 631.983 456.359
294 0 52.0986 14.3574 748 120.904 631.543 452.844
295 0 53.1957 14.926 794 117.636 632.193 455.283
296 0 56.0906 14.4588 811 118.816 631.871 450.049
297 0 58.1778 14.301 832 117.559 633.696 449.613
298 0 61.2467 12.8007 784 116.792 634.875 446.214
299 0 64.6108 11.8401 765 114.005 636.441 454.545
300 0 64.2538 14.3649 923 113.719 638.02 446.764
301 0 65.1952 14.5563 949 111.974 639.535 447.212
302 0 74.7626 16.1444 1207 110.413 641.486 448.633
303 0 68.1429 12.8113 873 120.554 643.596 447.05
304 1 38.0801 9.1649 349 121.547 646.037 461.788
305 0 40.0572 11.1091 445 121.609 647.587 460.89
306 0 49.9639 15.5913 779 108.576 647.386 464.873
307 0 43.0547 13.1461 566 114.933 648.302 464.569
308 0 38.0552 10.4322 397 124.149 648.33 461.791
309 0 43.094 12.6004 543 120.913 647.029 462.457
310 0 46.1444 12.4392 574 121.922 644.7 462.326
311 0 47.0623 11.8566 558 123.19 644.237 460.263
312 0 48.0465 13.7991 663 119.4 642.324 462.698
313 0 47.0519 12.9431 609 123.979 640.759 461.86
314 0 51.1622 13.0956 670 123.555 639.758 461.307
315 0 52.1093 14.7766 770 120.89 638.929 461.065
316 0 56.1236 13.5772 762 121.373 637.999 458.436
317 0 55.1667 13.0332 719 122.882 636.652 457.217
318 0 57.1095 11.6443 665 122.45 635.483 459.371
319 0 61.0457 19.5427 1193 111.246 634.287 455.143
320 0 61.1261 12.7605 780 124.578 632.855 456.203
321 0 60.1933 11.0145 663 125.676 631.778 453.825
322 0 64.0975 13.8383 887 119.548 630.901 449.407
323 0 64.0975 13.7447 881 127.313 629.881 449.39
324 0 67.0741 11.8078 792 122.851 629.904 449.138
325 0 71.1921 15.6478 1114 113.423 630.185 451.713
326 0 72.1554 13.3878 966 118.886 629.502 446.467
327 0 76.0899 16.7959 1278 115.022 629.787 446.131
328 0 75.1673 12.3458 928 122.402 630.547 442.055
329 0 79.161 11.9882 949 120.252 630.674 442.253
330 0 81.1611 13.2329 1074 119.086 631.595 434.802
331 0 86.2336 17.0583 1471 112.602 632.861 437.91
332 0 86.1616 13.9737 1204 113.429 633.908 439.899
333 0 89.2947 15.9248 1422 112.374 635.745 431.525
334 0 94.1973 18.2171 1716 109.449 637.456 431.913
335 1 52.2259 13.8246 722 109.787 638.867 451.766
336 0 55.1981 12.4642 688 112.744 640.683 452.529
337 0 60.5608 18.2461 1105 104.729 643.15 455.357
338 0 58.762 17.5283 1030 106.475 643.786 454.319
339 0 57.1173 16.8601 963 110.538 646.854 448.793
340 0 57.0869 16.1683 923 113.047 648.102 456.265
341 0 62.1586 17.0692 1061 112.214 647.639 457.798
342 0 61.2616 13.0424 799 118.982 648.503 456.894
343 0 64.1364 16.3714 1050 116.146 648.142 454.855
344 0 64.1039 16.3641 1049 132.112 646.765 451.357
345 0 66.0434 13.8848 917 142.194 646.82 453.377
346 0 69.1442 14.5493 1006 139.152 645.587 457.553
347 0 71.1724 13.5446 964 145.882 644.389 454.055
348 0 72.0928 14.7171 1061 145.592 642.764 453.878
349 0 73.1217 14.7152 1076 148.612 640.722 449.796
350 0 76.1272 15.9995 1218 143.612 639.739 451.13
351 0 81.0794 17.674 1433 138.688 638.476 447.86
352 0 81.1849 13.9435 1132 148.977 637.33 446.311
353 0 86.1219 15.8264 1363 143.467 635.755 447.426
354 0 88.1584 15.9599 1407 143.773 634.604 444.449
355 0 90.2077 14.256 1286 147.992 633.514 442.077
356 0 93.2121 15.7168 1465 144.194 632.606 439.037
357 0 95.1334 15.494 1474 147.011 632.45 438.788
358 0 96.112 13.7756 1324 153.504 631.701 436.558
359 0 98.1139 13.4639 1321 150.117 630.872 429.757
360 0 103.118 16.8836 1741 138.91 631.07 427.626
361 0 105.306 13.1331 1383 143.405 632.019 427.524
362 1 58.0834 9.41749 547 138.724 631.428 452.748
363 0 62.1091 12.4619 774 124.149 632.89 450.712
364 0 62.2214 14.4002 896 119.78 633.676 450.968
365 0 66.1443 12.9112 854 121.584 634.841 445.226
366 0 70.1778 12.9386 908 119.921 637.773 450.008
367 0 70.1778 13.0953 919 144.859 639.754 450.069
368 0 71.1698 16.018 1140 117.346 640.684 448.663
369 0 74.3938 11.2241 835 121.501 643.801 450.716
370 0 78.3668 13.3858 1049 120.235 644.721 449.936
371 0 80.3667 14.5707 1171 118.894 645.124 448.177
372 0 81.2428 13.7243 1115 120.709 646.43 446.912
373 0 83.3648 11.7676 981 122.733 646.527 447.427
374 0 89.4008 16.7113 1494 118.687 646.76 446.457
375 0 90.1782 13.0187 1174 125.761 646.492 445.624
376 0 90.3062 16.743 1512 118.876 645.88 449.021
377 0 93.2828 16.7877 1566 125.299 645.211 437.428
378 0 97.2878 15.1715 1476 126.608 645.164 443.373
379 0 102.45 15.0025 1537 128.025 643.977 440.569
380 0 100.279 13.6021 1364 134.968 642.571 437.809
381 1 54.1086 13.1218 710 129.721 642.444 463.069
382 0 59.1789 15.2926 905 126.978 641.432 462.768
383 0 59.1134 13.0596 772 132.824 639.421 463.675
384 0 61.3225 14.0405 861 130.364 635.69 458.295
385 0 62.1718 12.9802 807 133.77 633.938 458.067
386 0 65.1584 17.1582 1118 125.877 633.191 453.933
387 0 67.1678 15.171 1019 133.121 632.31 453.544
388 0 70.1571 16.6769 1170 127.185 631.65 453.95
389 0 72.099 13.3982 966 134.113 630.884 452.932
390 0 72.2843 15.522 1122 131.242 630.455 445.066
391 0 77.0687 15.9338 1228 129.811 629.683 444.907
392 0 78.3303 15.6134 1223 130.333 629.141 445.182
393 0 80.3015 16.4879 1324 127.749 629.319 446.332
394 0 87.3752 17.6824 1545 126.248 630.366 438.219
395 0 85.1998 11.5141 981 136.691 630.568 439.332
396 0 91.3469 15.0416 1374 129.632 631.206 437.028
397 1 51.1933 13.9862 716 124.476 632.235 453.675
398 0 51.2807 11.5443 592 120.902 633.044 458.458
399 0 54.2313 13.6637 741 120.124 634.613 452.198
400 0 57.1846 11.4716 656 121.814 637.116 453.902
401 0 64.603 15.7423 1017 114.177 640.761 451.557
402 1 119.35 28.4876 3400 106.339 640.099 432.468
403 0 114.513 16.723 1915 120.651 642.553 425.318
404 0 119.919 18.0956 2170 118.219 643.962 429.812
405 1 64.4235 11.9366 769 124.025 644.719 454.596
406 0 67.3881 15.3143 1032 119.602 645.675 452.701
407 0 67.3207 18.4639 1243 130.944 646.493 453.201
408 0 72.3917 15.2918 1107 121.488 646.39 449.487
409 0 68.2963 11.8747 811 137.911 645.969 451.961
410 0 72.1697 12.4845 901 139.942 646.31 452.4
411 0 75.3667 14.3565 1082 134.059 645.43 455.365
412 0 78.2712 14.2709 1117 139.498 644.112 451.183
413 0 81.4559 14.2531 1161 140.074 642.227 448.48
414 1 42.2735 8.32673 352 144.315 643.028 468.06
415 0 43.2166 12.0324 520 138.704 641.365 465.41
416 0 43.2166 12.0787 522 147.245 640.372 465.489
417 0 45.0901 10.8893 491 138.253 638.578 461.572
418 0 49.1474 13.7342 675 131.193 637.796 464.326
419 0 50.0435 13.0686 654 135.511 636.213 463.604
420 0 49.4203 12.2419 605 133.95 634.904 462.398
421 0 50.049 11.8884 595 139.247 634.079 460.461
422 0 53.1722 13.5409 720 127.731 633.501 463.49
423 0 54.0866 11.9623 647 133.076 632.447 458.708
424 0 55.1657 11.8552 654 135.572 632.283 455.566
425 0 57.2615 13.8138 791 127.082 631.469 451.064
426 0 59.249 14.1606 839 125.713 630.979 450.749
427 0 58.1281 11.4919 668 127.787 631.855 456.385
428 0 60.1826 11.2657 678 126.761 631.835 452.451
429 0 63.3383 11.2097 710 123.769 633.121 450.931
430 0 70.3298 17.5459 1234 114.825 633.491 447.254
431 0 69.3528 13.0492 905 121.454 635.043 448.051
432 0 70.2475 11.4737 806 125.163 635.933 441.753
433 0 70.2515 11.5015 808 127.189 636.96 441.8
434 0 75.3776 10.653 803 124.121 639.818 441.803
435 0 82.4586 19.719 1626 111.054 640.935 442.624
436 1 45.0321 12.8575 579 115.656 642.96 459.703
437 0 44.0731 11.6625 514 119.794 644.926 460.047
438 0 48.2179 16.1973 781 111.344 645.878 461.284
439 0 47.078 12.1925 574 121.904 646.463 459.138
440 0 46.1612 11.5898 535 119 646.239 463.181
441 0 48.1297 13.0481 628 115.398 646.382 466.414
442 0 51.0721 11.9243 609 121.215 646.701 463.433
443 0 52.0926 14.0327 731 121.866 645.642 460.167
444 0 50.2491 9.2738 466 132.865 646.489 464.382
445 0 55.2948 12.2977 680 129.562 645.622 462.306
446 0 56.1972 13.0789 735 131.635 644.318 462.494
447 0 57.1093 13.7106 783 136.462 643.217 462.677
448 0 60.048 17.5693 1055 126.821 642.097 462.813
449 0 60.1933 12.8087 771 136.071 640.324 460.035
450 0 71.381 16.8812 1205 122.46 639.032 461.792
451 0 66.2 12.8852 853 134.498 637.557 458.19
452 0 71.0563 14.6644 1042 129.066 636.192 456.051
453 0 72.198 14.0724 1016 128.322 634.765 456.601
454 0 70.1818 12.2681 861 144.639 632.618 454.087
455 1 38.0618 13.5832 517 128.052 633.242 468.603
456 0 40.1436 11.9571 480 130.973 632.317 465.158
457 0 43.0982 14.4553 623 125.841 631.971 464.966
458 0 43.0982 14.4553 623 135.021 631.944 465.026
459 0 43.3173 16.0213 694 123.754 630.991 459.301
460 0 44.0603 12.2105 538 131.749 631.747 460.331
461 0 43.0659 9.42741 406 130.387 631.133 464.059
462 0 45.0397 13.0107 586 122.826 632.597 459.316
463 0 49.1283 14.4723 711 117.305 632.755 459.588
464 0 54.57 18.7282 1022 108.154 633.798 458.645
465 0 52.1949 15.3847 803 128.349 634.834 455.8
466 0 52.0987 14.1462 737 120.7 637.225 456.691
467 0 54.1351 16.5327 895 119.697 639.528 455.316
468 0 58.3186 17.3872 1014 117.174 641.064 455.291
469 0 57.4636 17.1413 985 118.834 642.955 448.78
470 0 56.204 14.2516 801 124.172 644.754 454.306
471 0 59.1943 13.2445 784 124.194 645.957 455.524
472 0 59.189 14.1242 836 125.132 645.72 453.585
473 0 63.1884 14.433 912 126.558 647.046 453.189
474 0 64.1212 14.8313 951 126.335 646.904 454.962
475 0 67.1322 14.8513 997 128.89 646.689 452.941
476 0 68.1494 13.7785 939 133.414 645.709 453.469
477 0 72.1423 16.0516 1158 131.256 645.259 452.309
478 0 71.2439 13.9801 996 137.895 644.705 452.8
479 0 76.0978 16.5182 1257 134.552 643.885 450.919
480 0 80.1491 19.1268 1533 128.386 642.626 452.213
481 0 83.2604 16.3703 1363 135.786 641.375 447.689
482 0 84.1318 16.1651 1360 136.058 640.161 446.98
483 1 45.061 10.8298 488 146.084 638.947 464.492
484 0 46.1013 13.8174 637 138.531 637.162 465.129
485 0 47.0858 10.3003 485 144.872 636.501 465.184
486 0 51.0738 11.2582 575 140.358 634.765 464.442
487 0 52.0705 15.5558 810 135.158 633.128 458.9
488 0 53.1981 12.726 677 141.431 633.812 460.783
489 0 55.0736 14.0176 772 137.25 631.834 460.04
490 0 57.0768 14.6294 835 136.296 631.484 457.12
491 0 58.0439 15.6778 910 133.064 630.652 455.498
492 0 62.0476 15.0691 935 133.097 629.705 453.306
493 0 65.5585 13.6824 897 131.273 629.779 454.766
494 0 66.1411 13.5166 894 133.188 629.576 448.326
495 0 68.0823 15.5547 1059 129.989 630.132 444.958
496 0 68.2825 13.8688 947 133.661 631.27 446.044
497 0 74.1364 17.0362 1263 125.781 632.157 445.36
498 0 75.1393 15.8905 1194 128.416 633.822 443.308
499 1 45.0417 12.7215 573 128.288 634.288 457.117
500 0 46.0468 13.0736 602 126.924 637.068 458.181
501 0 48.0941 12.6627 609 129.34 638.148 458.731
502 0 48.0941 12.5379 603 152.62 638.144 458.605
503 0 47.2962 12.982 614 131.05 644.316 456.764
504 0 49.1239 16.4075 806 127.078 643.505 458.207
505 0 51.069 12.9824 663 134.83 643.836 459.988
506 0 52.1279 14.3685 749 132.131 644.214 460.271
507 0 53.0848 11.378 604 141.464 644.258 458.596
508 0 54.1396 14.5919 790 137.618 644.449 457.905
509 0 57.0874 13.3129 760 141.245 644.968 460.878
510 0 60.1295 16.1651 972 138.247 643.892 457.965
511 0 63.1439 17.2463 1089 135.571 643.576 460.455
512 0 60.0914 14.7941 889 147.839 642.397 460.255
513 0 64.0794 14.8566 952 148.617 640.819 458.282
514 0 65.0267 15.4859 1007 151.385 640.318 455.544
515 0 67.0459 15.1986 1019 152.377 638.716 457.179
516 0 71.0621 15.9016 1130 150.13 637.29 454.872
517 0 73.0821 14.6958 1074 152.372 635.42 452.134
518 1 40.0491 10.587 424 153.488 633.943 469.519
519 0 39.0319 11.3497 443 154.718 632.664 466.359
520 0 41.0762 11.3935 468 154.355 631.436 466.109
521 0 43.028 11.9225 513 154.448 631.133 465.283
522 0 45.0946 12.7732 576 147.639 629.759 465.153
523 0 46.1126 13.6839 631 152.937 629.496 461.293
524 0 48.1357 14.2929 688 147.512 629.052 459.219
525 0 50.193 14.3645 721 143.255 629.548 458.258
526 0 51.2226 13.6268 698 144.516 629.844 455.837
527 0 53.2712 13.7786 734 141.03 629.996 455.687
528 0 52.2138 15.1493 791 143.046 632.858 452.154
529 0 55.2825 13.838 765 142.888 633.09 455.991
530 0 57.2733 13.9507 799 146.761 634.688 452.203
531 0 57.2067 16.589 949 135.447 635.982 452.204
532 0 58.118 15.1588 881 138.505 637.093 451.488
533 0 63.2794 14.1752 897 137.184 639.077 450.674
534 0 62.1071 14.8936 925 139.618 640.672 445.889
535 0 65.1126 15.5884 1015 136.547 643.243 449.021
536 0 68.1872 14.4455 985 139.815 644.05 448.227
537 0 68.1351 14.4566 985 140.323 644.983 447.908
538 0 70.1956 14.7588 1036 140.811 646.438 445.376
539 0 74.3128 19.0411 1415 131.835 646.71 446.619
540 0 74.3128 19.0008 1412 131.53 646.712 446.691
541 0 78.1324 17.6239 1377 136.895 646.931 445.034
542 0 82.132 19.4565 1598 136.233 646.646 445.155
543 0 83.1588 16.9315 1408 141.704 646.516 446.839
544 0 86.3665 13.8364 1195 151.197 645.682 445.496
545 0 88.1519 14.5544 1283 151.553 644.175 443.751
546 0 93.2285 14.4162 1344 147.972 642.705 445.427
547 0 93.1462 17.1558 1598 144.981 641.793 443.031
548 1 47.0317 10.2909 484 152.983 641.132 463.804
549 0 49.1006 9.59255 471 151.614 640.047 464.397
550 0 52.0728 9.58274 499 152.234 639.218 461.938
551 0 56.2063 11.2087 630 147.484 637.795 460.538
552 0 53.0839 12.5085 664 143.119 635.934 452.518
553 0 57.1531 13.2451 757 137.982 634.707 452.742
554 0 58.1716 12.8929 750 138.891 633.564 452.623
555 0 61.3334 11.9348 732 137.179 632.477 451.713
556 0 63.1538 12.5408 792 136.789 631.707 450.057
557 0 65.2102 14.4149 940 134.168 631.19 446.915
558 0 68.0661 12.5613 855 135.372 631.806 447.587
559 0 69.1804 13.3564 924 135.576 631.687 440.906
560 0 73.1888 14.0322 1027 131.291 630.796 440.393
561 0 73.184 13.9785 1023 135.563 629.811 440.387
562 0 78.0893 12.7418 995 130.227 631.691 438.546
563 0 80.3899 12.5762 1011 131.055 633.606 438.409
564 0 86.1671 15.4816 1334 124.582 634.413 433.44
565 0 88.3291 14.6724 1296 125.119 635.11 430.65
566 0 91.1946 13.1696 1201 125.926 637.56 430.018
567 1 56.3978 10.3195 582 115.022 640.849 456.399
568 0 52.0663 10.6403 554 119.558 642.953 451.955
569 0 54.0664 12.3552 668 116.47 644.446 453.482
570 0 53.1878 9.45706 503 119.384 645.865 453.555
571 0 54.2365 11.6342 631 119.602 646.26 453.88
572 0 58.1574 20.3241 1182 108.623 646.547 454.794
573 0 56.0526 14.8789 834 117.061 647.373 451.076
574 0 58.2206 11.4736 668 123.132 646.855 452.292
575 0 61.1743 15.6111 955 118.422 646.935 453.251
576 0 63.1104 14.34 905 122.318 646.339 454.989
577 0 65.1464 14.5979 951 124.965 646.115 453.415
578 0 67.215 12.9138 868 131.959 644.817 456.123
579 0 69.1706 12.5342 867 135.347 644.751 454.091
580 0 71.1461 13.8026 982 132.444 644.172 453.923
581 0 73.1525 13.2736 971 133.058 642.355 453.834
582 0 73.2935 12.3203 903 137.319 640.895 448.72
583 0 78.1824 13.3662 1045 136.409 639.17 451.481
584 1 41.0467 8.06399 331 137.103 638.819 471.178
585 0 43.03 10.8529 467 131.233 637.854 469.974
586 0 42.044 9.65655 406 133.756 636.488 468.502
587 0 47.0464 13.0297 613 140.457 635.305 470.188
588 0 47.0429 13.1369 618 143.948 633.672 467.341
589 0 50.0628 13.3832 670 138.3 633.101 468.781
590 0 50.1215 15.7018 787 130.409 631.916 466.645
591 0 51.2555 16.5641 849 128.835 630.373 463.915
592 0 50.0807 12.2203 612 139.072 628.124 461.807
593 0 55.1247 12.5896 694 133.081 627.72 461.523
594 0 53.1011 13.9733 742 134.053 628.142 461.717
595 0 58.1837 14.2823 831 129.527 628.515 460.041
596 0 57.1528 13.0702 747 136.695 629.426 457.544
597 0 59.1718 14.9903 887 128.449 629.834 456.331
598 0 60.1091 16.1872 973 129.118 631.476 459.695
599 0 62.0551 14.1487 878 130.729 632.828 458.211
600 0 64.2223 13.4066 861 133.578 634.35 457.213
601 0 66.1307 15.1518 1002 130.25 636.523 453.658
602 0 66.0644 13.396 885 134.61 637.938 456.04
603 0 71.1226 16.099 1145 129.823 639.147 453.454
604 0 70.1828 11.6268 816 137.237 640.199 455.194
605 0 74.3087 14.4398 1073 133.791 642.285 452.501
606 0 77.3384 14.3913 1113 135.035 642.878 452.819
607 0 77.2345 13.1806 1018 139.304 642.425 453.873
608 1 39.0161 10.7648 420 144.06 642.693 471.271
609 0 40.068 11.755 471 137.866 642.346 471.497
610 0 41.0273 12.6989 521 136.484 642.079 471.743
611 0 42.0721 11.9794 504 137.411 640.671 472.986
612 0 45.1184 14.3179 646 133.61 638.345 470.929
613 0 45.3099 12.8449 582 132.189 635.756 471.756
614 0 47.2058 17.7944 840 121.954 637.183 471.636
615 0 48.203 14.3974 694 127.573 635.733 470.284
616 0 48.1302 14.5854 702 131.134 634.305 470.624
617 0 51.2579 12.681 650 129.883 632.668 468.474
618 0 51.118 15.9435 815 123.163 631.44 466.07
619 0 53.2334 16.6249 885 126.098 630.215 462.927
620 0 55.1639 17.6565 974 120.487 629.045 462.109
621 0 55.0692 13.8008 760 126.791 628.437 461.013
622 0 55.075 15.7966 870 125.023 627.614 458.107
623 0 59.1704 13.9935 828 126.971 627.732 459.965
624 0 59.0876 14.8085 875 126.499 627.698 457.329
625 0 65.5969 17.9582 1178 119.175 627.814 458.801
626 0 62.1789 17.0154 1058 125.592 627.581 451.101
627 0 66.1616 15.5831 1031 124.97 628.133 453.034
628 0 68.198 13.9593 952 127.924 629.206 449.972
629 0 68.074 14.9984 1021 125.737 630.357 447.848
630 0 72.2949 14.51 1049 121.808 631.123 449.196
631 0 73.1792 17.3683 1271 118.789 632.152 446.092
632 0 77.4295 21.5938 1672 112.458 633.574 444.211
633 0 77.1631 16.9381 1307 119.472 634.936 442.591
634 0 76.271 9.93824 758 127.54 636.641 444.174
635 0 79.3794 14.0213 1113 123.827 638.197 443.619
636 0 84.2003 15 1263 124.142 639.8 441.016
637 0 85.1737 12.7269 1084 127.677 640.826 444.651
638 0 89.0807 14.1557 1261 126.589 641.405 440.351
639 0 89.2592 12.4133 1108 133.014 641.127 436.928
640 0 92.2138 13.2627 1223 132.837 641.827 436.354
641 0 97.0737 16.5441 1606 130.679 641.99 437.791
642 1 54.2242 9.9771 541 134.667 642.205 459.224
643 0 55.2852 14.6332 809 125.565 641.713 461.465
644 0 54.1997 15.3875 834 126.734 641.36 460.348
645 0 58.0684 16.9972 987 122.749 640.153 458.864
646 0 59.173 12.3536 731 131.665 639.759 461.129
647 0 59.2203 13.4582 797 129.858 638.467 461.959
648 0 59.2212 11.8032 699 134.773 637.318 459.651
649 0 59.2212 11.7694 697 139.41 636.319 459.725
650 0 63.1528 11.4801 725 136.938 635.617 456.037
651 0 68.2653 14.2386 972 128.581 633.928 451.735
652 0 71.1634 13.3215 948 129.723 633.006 453.585
653 0 74.1691 14.3995 1068 129.6 632.096 451.746
654 0 74.1836 14.2889 1060 138.761 631.09 451.853
655 0 83.3304 18.3366 1528 121.016 631.16 449.113
656 0 81.1367 12.9041 1047 131.547 630.229 443.061
657 0 84.1291 17.4731 1470 123.087 629.339 440.531
658 0 88.23 14.2809 1260 125.74 629.389 443.399
659 1 51.1249 13.7115 701 123.917 631.301 459.187
660 0 48.1429 11.4035 549 130.06 631.115 457.018
661 0 52.1294 14.4256 752 125.001 631.738 455.898
662 0 52.1452 16.6458 868 116.91 631.472 453.062
663 0 55.2626 12.8658 711 120.433 634.249 451.977
664 0 55.2065 12.9152 713 120.007 635.613 449.158
665 0 59.2434 12.6596 750 118.025 637.773 452.375
666 0 63.541 16.8081 1068 110.689 639.776 454.753
667 0 61.0557 15.4941 946 115.128 641.664 449.256
668 0 64.1356 16.2936 1045 117.126 643.49 453.562
669 0 66.2346 13.9655 925 121.206 645.591 452.122
670 0 69.2097 20.0261 1386 112.19 645.906 454.857
671 0 71.0939 18.9608 1348 115.121 646.726 449.314
672 0 73.1513 14.1077 1032 122.19 646.818 451.025
673 0 72.1269 16.3046 1176 120.724 646.934 450.433
674 0 74.1865 16.1081 1195 125.289 646.49 448.042
675 0 77.1445 12.7942 987 129.629 646.374 452.539
676 0 80.2053 14.787 1186 129.924 645.212 449.678
677 0 84.2325 16.9531 1428 124.926 644.602 449.442
678 0 85.252 13.3135 1135 130.667 642.801 447.164
679 1 44.1027 11.6546 514 126.844 642.161 468.274
680 0 44.1497 13.4316 593 125.585 640.47 465.051
681 0 52.3092 14.6055 764 121.607 638.857 463.033
682 0 48.2248 11.0939 535 126.254 637.114 460.905
683 0 53.3143 17.5563 936 113.527 635.906 463.693
684 0 57.1379 15.2613 872 115.328 634.444 460.616
685 0 56.1594 20.5309 1153 109.8 633.477 460.245
686 0 56.1665 13.7805 774 117.239 632.225 460.292
687 0 59.468 15.4369 918 115.925 631.327 456.893
688 0 61.3327 14.9512 917 116.302 630.387 453.836
689 0 62.3078 15.8728 989 112.831 630.114 451.526
690 0 63.2321 15.625 988 114.713 629.76 447.54
691 0 63.1324 15.8239 999 114.741 629.842 447.204
692 0 67.1218 15.0175 1008 114.375 629.868 445.822
693 0 70.1934 15.1011 1060 113.783 631.079 444.281
694 0 74.0789 15.8075 1171 112.386 631.495 437.681
695 0 73.216 12.8387 940 114.44 632.884 445.301
696 0 76.1998 12.4279 947 116.266 633.777 439.135
697 0 80.3156 13.4967 1084 113.001 634.024 440.792
698 0 85.3663 22.6085 1930 104.238 635.566 437.613
699 0 91.815 21.173 1944 103.873 637.72 437.942
700 0 85.3882 21.1856 1809 101.64 639.381 446.889
701 0 91.2503 14.5095 1324 109.933 641.443 438.706
702 0 93.3783 14.3074 1336 129.758 642.479 438.627
703 0 97.3674 16.3196 1589 108.329 644.228 439.374
704 0 100.48 15.8042 1588 109.166 644.489 435.352
705 0 107.968 19.3206 2086 103.606 644.365 442.199
706 0 106.636 23.2941 2484 103.626 642.83 434.75
707 1 56.3015 13.3389 751 110.228 642.622 455.767
708 0 59.2159 16.9211 1002 107.427 642.749 459.539
709 0 63.498 19.1817 1218 108.425 642.694 458.775
710 0 63.4795 13.2011 838 117.549 642.202 457.811
711 0 64.2079 15.0449 966 118.311 640.176 458.201
712 0 69.3167 17.8023 1234 114.459 638.751 457.746
713 0 68.0795 13.7927 939 124.76 638.062 453.108
714 0 71.1629 16.1742 1151 117.772 636.513 451.665
715 0 69.1511 13.8682 959 121.196 635.03 452.574
716 0 75.434 15.2716 1152 118.661 633.254 450.175
717 0 76.4178 15.8602 1212 119.057 631.968 448.105
718 0 78.4041 15.6624 1228 119.333 630.814 448.275
719 0 79.3054 15.0431 1193 121.444 630.268 443.538
720 0 83.1331 18.4884 1537 118.736 629.942 444.684
721 0 86.4546 15.0252 1299 121.919 629.474 443.613
722 0 88.7202 12.4436 1104 127.277 629.768 445.543
723 0 92.3527 18.2994 1690 119.358 629.951 439.582
724 0 94.2279 21.6284 2038 116.186 629.998 435.439
725 0 100.329 18.7782 1884 117.47 630.617 435.057
726 0 102.21 15.7225 1607 126.581 631.407 434.956
727 1 52.4197 10.7212 562 127.98 631.616 453.854
728 0 59.2581 12.2684 727 120.975 633.063 457.558
729 0 60.1345 13.6361 820 117.463 633.374 453.512
730 0 60.13 14.6682 882 119.018 635.556 451.132
731 0 64.1802 12.9168 829 123.73 636.862 449.276
732 0 69.3174 18.1772 1260 116.855 639.249 449.146
733 0 69.1114 15.9163 1100 121.901 641.107 450.054
734 0 71.2295 15.5273 1106 123.336 642.374 447.512
735 0 71.1267 13.244 942 130.183 642.781 447.406
736 0 75.3075 19.666 1481 120.785 644.242 446.39
737 0 79.1285 16.4795 1304 127.179 644.696 447.845
738 0 82.264 15.7663 1297 127.642 645.123 450.834
739 0 83.1903 17.5621 1461 126.222 644.181 448.491
740 0 87.1939 17.0769 1489 129.377 644.015 449.27
741 0 91.2563 15.177 1385 134.098 643.147 448.837
742 0 94.1009 16.8436 1585 133.84 642.167 449.009
743 1 50.0788 8.64637 433 142.841 641.259 471.815
744 0 50.0724 9.20667 461 140.193 639.876 473.497
745 0 52.2238 9.8997 517 145.915 638.47 466.081
746 0 58.2916 11.7684 686 138.897 637.539 467.819
747 0 60.2332 12.8334 773 136.964 635.549 467.656
748 0 59.2955 14.5205 861 132.319 634.073 459.931
749 0 61.1812 14.3835 880 127.223 632.932 461.839
750 0 62.1429 16.3977 1019 125.631 631.671 459.479
751 0 63.3115 14.7524 934 127.338 630.869 457.353
752 0 65.1945 12.0562 786 131.58 629.864 458.874
753 0 69.2573 15.0742 1044 125.219 629.706 455.539
754 0 72.5724 16.5076 1198 117.904 629.744 459.743
755 0 70.231 13.4129 942 128.959 629.19 449.689
756 0 74.2266 13.0681 970 131.712 629.141 452.818
757 0 76.2517 15.9996 1220 125.431 629.019 449.634
758 0 76.2377 14.4679 1103 133.193 629.84 446.901
759 0 83.4281 17.4162 1453 122.593 629.305 446.782
760 0 84.1175 12.7084 1069 130.129 629.441 444.018
761 0 85.1951 12.1251 1033 131.59 630.302 439.248
762 0 91.3176 12.2868 1122 132.247 631.38 442.319
763 1 45.1389 10.5009 474 125.091 633.439 461.384
764 0 50.1203 12.4102 622 121.76 635.207 462.846
765 0 51.1017 15.3224 783 127.402 637.342 464.008
766 0 51.0273 15.3643 784 128.602 637.295 465.048
767 0 54.115 15.2453 825 129.235 638.606 465.081
768 0 54.2052 15.8472 859 130.927 641.376 461.121
769 0 54.2052 15.8472 859 134.308 642.376 461.121
770 0 56.0439 13.65 765 137.128 639.967 461.962
771 0 60.1505 13.1836 793 138.264 640.507 462.647
772 0 60.0346 12.4595 748 142.651 639.914 463.377
773 0 64.1316 13.8465 888 141.095 640.974 463.619
774 0 67.0853 13.5648 910 139.069 639.401 466.029
775 0 66.1063 13.206 873 144.662 638.462 462.511
776 0 72.1287 15.2367 1099 140.948 636.82 461.16
777 0 74.0693 15.4315 1143 141.013 636.056 461.514
778 0 76.0589 15.4617 1176 145.929 633.713 461.125
779 0 78.178 14.1472 1106 150.464 632.713 460.724
780 0 80.1449 14.7982 1186 147.705 630.845 457.073
781 0 84.0919 15.9231 1339 144.565 629.603 455.034
782 1 48.0247 13.1599 632 140.563 628.337 475.421
783 0 45.0827 11.1129 501 145.329 627.323 473.523
784 0 46.0279 11.1237 512 145.512 626.184 471.342
785 0 47.0448 11.7122 551 148.281 625.788 468.931
786 0 50.0851 13.6368 683 141.422 624.666 466.587
787 0 49.1889 11.3237 557 144.494 624.42 465.849
788 0 50.2628 12.6535 636 135.454 624.374 456.931
789 0 53.2103 15.4857 824 126.234 624.405 457.341
790 0 56.3201 14.9147 840 124.905 624.576 456.238
791 0 58.2089 14.2934 832 129.998 625.138 457.565
792 0 61.1479 14.9964 917 127.273 625.039 455.011
793 0 62.2199 15.4613 962 124.983 626.008 456.137
794 0 63.2423 14.4682 915 128.655 626.736 450.707
795 0 65.2569 14.4965 946 129.101 628.412 449.458
796 0 67.3648 15.7946 1064 127.019 629.963 447.389
797 0 69.2795 13.5971 942 130.228 632.11 447.852
798 0 72.3293 14.9317 1080 129.644 633.988 447.266
799 0 74.2872 14.5247 1079 127.885 635.867 447.019
800 0 79.3609 15.965 1267 123.953 636.777 446.274
801 0 81.0886 16.5251 1340 123.94 637.728 448.904
802 0 81.41 17.8602 1454 125.763 638.975 444.695
803 0 86.7459 17.8798 1551 123.921 640.8 452.389
804 0 87.1839 18.0767 1576 126.49 641.697 446.201
805 0 90.4543 17.6 1592 127.587 642.072 449.191
806 0 93.171 16.1102 1501 132.258 641.937 446.172
807 1 51.2208 14.1154 723 133.985 642.048 465.438
808 0 48.1419 9.11887 439 143.246 642.155 469.665
809 0 51.1149 14.8685 760 135.475 641.263 467.417
810 0 53.2533 13.126 699 137.438 640.469 465.781
811 0 59.7756 13.7849 824 128.245 640.109 464.183
812 0 56.2884 15.012 845 130.46 639.144 460.572
813 0 60.2199 12.7865 770 135.918 638.153 459.297
814 0 61.4149 13.4821 828 133.302 637.124 458.568
815 0 63.2521 15.0509 952 131.032 636.169 456.138
816 0 64.2446 13.1528 845 136.754 634.934 455.808
817 0 68.3058 14.2301 972 131.155 633.844 453.884
818 0 71.4671 15.2378 1089 130.333 632.905 452.421
819 0 73.3685 14.325 1051 133.162 631.921 448.57
820 0 75.2587 14.3505 1080 131.369 631.678 449.205
821 0 77.261 13.9656 1079 133.791 631.47 446.155
822 0 79.1581 16.2333 1285 129.626 630.767 443.363
823 0 81.2326 14.5754 1184 134.611 630.206 449.545
824 0 85.2548 16.0812 1371 134.632 631.732 443.474
825 0 88.1955 16.6448 1468 131.968 631.877 442.415
826 0 90.2355 15.925 1437 132.759 632.159 439.445
827 0 93.2797 16.3916 1529 131.165 633.384 439.009
828 0 96.1662 16.0971 1548 132.603 633.964 436.242
829 1 49.2647 11.7528 579 131.216 636.883 460.478
830 0 53.211 13.4559 716 130.983 637.642 456.425
831 0 59.3594 14.3869 854 130.06 639.687 455.861
832 0 58.2354 14.5444 847 130.662 641.078 455.532
833 0 59.243 15.5461 921 128.278 643.325 452.929
834 0 60.1852 12.9434 779 131.607 645.358 454.746
835 0 63.2078 14.2071 898 131.808 645.474 455.601
836 0 64.1789 14.1947 911 132.457 647.409 453.752
837 0 64.1547 11.2385 721 137.413 647.282 455.096
838 0 74.3215 17.0206 1265 124.815 646.791 453.674
839 0 73.356 14.3547 1053 130.439 647.063 452.205
840 0 75.0465 15.9634 1198 134.631 646.233 451.923
841 0 77.1292 12.9912 1002 136.968 646.455 452.341
842 0 81.2562 17.1556 1394 130.444 645.973 454.198
843 0 82.1295 17.1071 1405 133.969 644.806 452.48
844 0 86.1695 14.808 1276 140.277 643.045 449.619
845 0 89.2364 15.8904 1418 139.592 641.944 446.427
846 0 93.1022 16.251 1513 139.56 640.713 445.598
847 0 95.199 15.2523 1452 143.898 639.346 443.738
848 0 100.409 16.0245 1609 139.825 638.003 444.008
849 1 51.2088 9.04141 463 147.035 637.099 467.473
850 0 55.1958 12.1024 668 139.557 636.147 466.305
851 0 56.0283 10.9409 613 140.132 634.713 462.241
852 0 60.1395 13.1361 790 137.113 633.361 461.435
853 0 60.0347 13.4922 810 138.762 632.598 458.709
854 0 59.0804 11.5605 683 140.694 631.833 457.47
855 0 64.228 13.5144 868 137.056 631.316 457.96
856 0 67.1981 15.7891 1061 131.077 631.581 455.658
857 0 68.297 14.8762 1016 132.524 631.383 449.937
858 0 73.2673 14.2355 1043 133.247 632.213 451.602
859 0 74.3613 15.1826 1129 131.869 632.512 450.735
860 0 77.4337 13.4308 1040 135.307 633.199 450.434
861 0 80.2492 13.3584 1072 136.683 633.245 447.777
862 0 80.1428 14.4243 1156 140.381 633.742 441.138
863 0 87.286 14.7332 1286 140.937 636.527 442.323
864 0 89.3193 14.3642 1283 136.673 636.964 439.373
865 0 90.2547 14.171 1279 139.705 638.451 435.869
866 0 95.3705 17.1437 1635 134.092 639.729 437.533
867 0 97.3856 15.875 1546 142.017 641.298 437.415
868 1 50.1383 10.3314 518 140.946 642.985 459.483
869 0 54.3137 15.2632 829 130.546 643.151 458.986
870 0 53.21 13.3809 712 137.871 643.935 459.712
871 0 53.111 12.2197 649 145.254 644.424 454.606
872 0 57.3632 11.5231 661 142.346 643.52 460.617
873 0 57.3742 11.5557 663 143.855 643.492 460.677
874 0 62.1284 14.5827 906 138.561 643.74 460.309
875 0 63.2243 12.9222 817 146.858 643.694 457.716
876 0 68.1083 13.5373 922 142.684 642.937 459.829
877 0 68.1428 12.6499 862 143.505 642.014 463.925
878 0 71.1869 12.8956 918 150.709 640.644 459.443
879 0 73.3772 16.2039 1189 140.145 638.869 455.425
880 0 74.161 13.4437 997 146.613 637.243 457.176
881 0 76.3834 13.8774 1060 143.497 635.558 457.629
882 0 80.6865 14.3271 1156 141.952 634.276 453.984
883 0 86.3212 15.4887 1337 139.05 632.653 448.488
884 0 86.3507 12.6577 1093 142.788 631.798 447.714
885 1 46.2524 12.021 556 144.318 631.572 461.955
886 0 47.3241 11.1994 530 143.517 630.5 460.377
887 0 53.2767 13.1577 701 140.251 630.88 458.14
888 0 52.1587 12.8071 668 137.268 630.525 459.522
889 0 52.1074 13.1267 684 139.487 630.101 455.996
890 0 56.3286 13.8296 779 136.687 630.462 453.388
891 0 56.0475 12.8106 718 135.279 630.905 453.747
892 0 58.2671 14.9484 871 130.569 630.958 454.714
893 0 58.3402 13.7641 803 135.756 631.011 451.932
894 0 62.3088 14.3479 894 135.194 632.103 450.414
895 0 65.2194 15.9308 1039 131.65 632.812 449.591
896 0 67.2169 13.7614 925 137.326 634.669 450.346
897 0 67.3223 13.2348 891 134.767 636.376 448.294
898 0 69.5911 13.6512 950 139.565 638.182 443.652
899 0 72.4991 16.0554 1164 135.96 639.746 445.262
900 0 72.5587 14.4297 1047 143.69 641.167 441.735
901 0 77.2855 14.4917 1120 137.536 641.233 441.558
902 0 79.2597 16.6541 1320 134.305 642.96 443.666
903 0 82.3146 15.3314 1262 138.998 643.294 445.18
904 0 81.2702 14.2734 1160 143.265 643.759 443.078
905 0 85.2054 13.2973 1133 145.371 643.98 442.169
906 0 91.2995 16.3309 1491 139.636 644.041 439.394
907 1 46.1215 12.2936 567 141.039 643.563 460.527
908 0 51.0863 11.2555 575 139.889 643.212 461.682
909 0 50.1871 11.7361 589 143.698 643.16 461.701
910 0 53.108 15.2896 812 134.642 642.841 464.892
911 0 52.1574 10.7942 563 144.378 642.215 467.274
912 0 56.1927 13.169 740 138.499 640.496 465.345
913 0 57.1339 13.5121 772 139.278 639.18 462.434
914 0 57.1443 13.8247 790 139.343 637.686 459.505
915 0 61.1734 13.993 856 138.379 636.438 459.16
916 0 61.0888 15.0437 919 137.172 635.624 456.831
917 0 65.1726 13.5486 883 137.607 633.934 458.228
918 0 65.1887 12.2567 799 141.705 632.934 457.078
919 0 68.2235 15.0388 1026 134.478 632.031 451.783
920 0 70.0976 16.2773 1141 132.754 631.418 449.475
921 0 73.2387 15.5246 1137 132.566 631.181 446.894
922 0 79.4253 16.5564 1315 128.656 631.624 448.174
923 1 38.0302 13.1737 501 132.026 632.956 465.561
924 0 41.082 11.5379 474 134.614 632.694 463.686
925 0 40.0875 10.502 421 133.435 633.39 465.943
926 0 42.144 11.8878 501 133.585 633.427 462.876
927 0 38.0578 5.93833 226 141.721 634.221 465.04
928 0 44.0672 11.4825 506 134.377 635.68 460.213
929 0 45.0661 11.8493 534 129.843 636.24 460.509
930 0 47.052 16.8962 795 123.995 636.867 455.055
931 0 48.3 13.7888 666 133.68 639.033 458.336
932 0 50.4216 12.455 628 130.968 640.702 459.873
933 0 53.2429 14.894 793 125.174 642.34 456.443
934 0 54.1761 13.9914 758 129.338 643.707 457.693
935 0 56.0624 14.6622 822 129.328 644.956 458.051
936 0 56.1888 13.7928 775 134.052 645.721 455.745
937 0 57.1495 12.4761 713 142.597 646.297 456.485
938 0 58.154 13.3267 775 138.872 646.2 456.728
939 0 61.1961 15.5239 950 134.987 646.234 456.155
940 0 62.0821 16.9453 1052 132.859 645.837 459.157
941 0 64.0748 15.0917 967 139.188 645.581 458.192
942 0 65.3188 15.0493 983 140.771 645.787 454.447
943 0 69.2167 16.34 1131 137.754 644.864 453.336
944 0 71.2101 14.8294 1056 141.007 643.327 452.477
945 0 73.1569 13.6556 999 144.972 642.104 454.138
946 1 40.1111 14.0859 565 138.648 641.241 471.308
947 0 40.1615 12.7485 512 137.324 639.629 472.008
948 0 40.0945 12.1962 489 141.252 637.922 468.362
949 0 41.123 10.5051 432 145.694 636.988 467.38
950 0 40.1314 10.0171 402 142.363 635.766 466.649
951 0 44.3026 12.2566 543 134.729 634.083 462.886
952 0 49.3383 12.465 615 133.476 633.184 461.797
953 0 50.0817 14.5962 731 131.204 632.208 459.304
954 0 50.2167 11.2911 567 139.765 632.049 460.056
955 0 53.1734 18.2798 972 122.593 631.111 458.081
956 0 54.3538 13.2833 722 131.841 631.729 454.078
957 0 59.228 17.8969 1060 121.181 631.602 455.175
958 0 55.4219 13.6589 757 134.721 631.97 449.449
959 0 58.4125 11.5044 672 138.417 632.625 450.568
960 0 63.2386 14.5006 917 128.446 632.635 449.505
961 0 65.2015 13.6346 889 129.39 633.786 448.344
962 0 68.2322 16.1507 1102 123.436 635.393 446.627
963 0 72.1196 15.4882 1117 123.218 636.987 446.001
964 0 72.4256 14.2215 1030 128.34 639.515 444.171
965 0 73.3132 14.363 1053 131.481 640.582 442.194
966 0 74.1749 13.0772 970 137.461 642.567 441.164
967 0 79.4781 20.2697 1611 122.526 643.418 443.032
968 1 41.5277 12.2328 508 132.398 644.925 459.173
969 0 44.219 13.4784 596 133.775 645.678 455.844
970 0 46.3237 11.3765 527 137.613 646.429 455.397
971 0 49.2375 13.7294 676 133.862 646.507 456.101
972 0 50.2454 15.683 788 133.968 646.593 454.456
973 0 49.4544 14.0938 697 139.185 646.344 453.212
974 0 52.21 12.3157 643 139.257 645.316 454.869
975 0 54.3442 15.1994 826 136.826 644.985 456.691
976 0 57.237 13.9944 801 140.783 644.406 457.783
977 0 58.1948 14.3999 838 142.424 642.712 458.307
978 0 63.1884 14.5913 922 141.598 640.846 456.92
979 0 63.4274 17.5003 1110 134.99 639.877 456.456
980 0 66.3778 15.0502 999 139.869 637.575 452.619
981 0 68.2856 15.0398 1027 139.507 636.065 450.724
982 0 70.502 14.9216 1052 140.256 634.567 447.109
983 0 72.3831 12.5167 906 141.791 633.351 447.784
984 0 76.3036 16.0412 1224 135.205 632.259 443.235
985 0 78.3452 13.4405 1053 141.028 630.888 441.87
986 0 83.3479 15.8252 1319 134.837 630.353 442
987 0 83.5403 13.2631 1108 139.953 629.454 438.679
988 0 88.3691 19.0225 1681 129.707 628.804 436.721
989 0 87.3189 16.4226 1434 150.187 628.902 433.521
990 0 93.612 15.4788 1449 140.34 628.964 430.66
991 1 51.1506 11.6519 596 138.067 629.594 454.688
992 0 50.4258 10.8675 548 138.314 629.761 450.425
993 0 53.3747 13.5832 725 135.126 630.029 448.716
994 0 55.3274 13.4111 742 130.782 630.809 449.296
995 0 56.3335 12.3373 695 132.109 631.689 446.456
996 0 59.3367 14.2071 843 128.415 632.832 448.656
997 0 62.6581 13.2944 833 131.101 634.156 444.513
998 0 63.7301 15.9893 1019 130.228 636.835 444.763
999 0 66.3547 12.2373 812 136.134 637.499 446.528
1000 0 69.4629 14.8137 1029 132.833 638.948 442.837
1001 0 68.2974 14.0562 960 136.619 640.705 442.171
1002 0 72.6453 16.1745 1175 132.454 641.357 441.276
1003 0 76.4834 16.7618 1282 133.017 641.466 443.015
1004 0 78.3571 15.5187 1216 139.637 642.235 442.874
1005 0 79.4782 16.9858 1350 137.685 642.889 440.534
1006 0 80.3168 13.9448 1120 147.782 643.788 439.819
1007 0 84.2652 14.0983 1188 149.114 644.714 440.618
1008 1 45.3646 10.0298 455 149.075 643.527 462.404
1009 0 48.4787 12.851 623 141.204 643.883 464.316
1010 0 49.1729 11.4087 561 148.667 644.141 462.947
1011 0 47.3336 11.683 553 148.68 642.544 463.098
1012 0 50.3223 10.2936 518 131.251 640.573 462.197
1013 0 51.1016 10.8216 553 147.163 641.492 464.416
1014 0 52.1193 12.0109 626 146.92 637.776 462.141
1015 0 56.1042 13.4749 756 141.529 636.655 463.807
1016 0 57.2556 14.0423 804 140.318 634.891 457.469
1017 0 59.2921 12.9866 770 140.755 633.983 455.864
1018 0 62.1437 13.6136 846 138.637 633.368 455.742
1019 0 63.0671 12.2251 771 141.302 632.154 456.524
1020 0 64.1062 13.5556 869 139.53 631.843 454.337
1021 0 66.2818 13.684 907 139.365 632.503 450.551
1022 0 71.2196 13.5777 967 136.148 631.994 449.659
1023 0 71.1877 13.3029 947 136.925 631.499 449.777
1024 0 74.3154 12.9717 964 139.538 631.556 446.536
1025 1 38.0606 6.96258 265 146.623 631.996 463.094
1026 0 39.2082 7.03934 276 141.87 633.054 464.982
1027 0 43.0281 9.90051 426 140.528 633.07 463.223
1028 0 47.1183 9.04107 426 140.263 634.249 464.46
1029 0 48.0173 14.1824 681 132 634.495 462.756
1030 0 49.1134 12.3795 608 134.811 635.834 463.27
1031 0 50.0603 12.0055 601 135.524 636.449 459.644
1032 0 53.1445 14.5264 772 131.201 639.293 458.286
1033 0 52.2226 13.8254 722 137.089 640.787 457.583
1034 0 52.2861 11.6857 611 144.151 642.568 461.051
1035 0 55.1264 15.1833 837 135.005 643.523 461.342
1036 0 57.1287 14.126 807 136.625 644.371 460.359
1037 0 60.1309 15.2002 914 133.358 645.92 462.311
1038 0 62.1999 14.5177 903 135.258 645.32 462.308
1039 0 62.1619 14.1888 882 138.888 645.472 459.23
1040 0 63.26 14.1005 892 141.757 645.27 458.157
1041 0 67.1914 12.7993 860 143.21 644.067 458.284
1042 0 69.1945 13.715 949 142.099 643.564 460.178
1043 0 75.0943 16.1131 1210 136.117 641.898 459.028
1044 0 75.369 14.9796 1129 137.404 640.475 460.319
1045 0 78.2318 13.8051 1080 141.191 638.864 454.943
1046 0 78.1866 12.4446 973 143.292 637.003 455.173
1047 1 43.0753 8.8682 382 140.825 636.455 473.516
1048 0 45.1791 7.48133 338 141.689 634.663 473.462
1049 0 49.1084 12.7066 624 133.878 633.729 468.84
1050 0 49.0586 10.8442 532 138.141 632.105 466.711
1051 0 52.1109 12.3199 642 135.363 630.952 463.039
1052 0 50.1531 11.0462 554 139.59 630.773 460.935
1053 0 53.1381 10.8773 578 135.566 629.448 461.858
1054 0 54.3153 12.0408 654 133.716 626.602 456.631
1055 0 52.0468 9.47224 493 141.753 626.359 457.406
1056 0 57.0525 15.6698 894 126.548 625.987 457.768
1057 0 59.0709 12.5104 739 132.735 626.383 452.28
1058 0 60.0346 12.9592 778 133.603 626.054 449.451
1059 0 63.0883 13.6634 862 131.381 626.593 449.725
1060 0 64.0426 15.1774 972 127.244 627.594 446.56
1061 0 67.0402 15.2595 1023 127.431 628.603 450.485
1062 0 69.0971 14.9355 1032 128.695 629.618 444.935
1063 0 71.1917 13.0633 930 130.66 630.768 442.046
1064 0 74.1892 13.2499 983 128.19 633.178 442.948
1065 0 75.1073 15.2449 1145 125.598 634.784 441.2
1066 0 77.0923 12.0375 928 132.842 635.916 440.948
1067 0 80.1403 14.4247 1156 130.396 637.689 439.055
1068 0 83.1377 12.8943 1072 130.669 639.22 438.546
1069 1 43.0795 10.5851 456 128.046 641 461.252
1070 0 44.0761 5.8762 259 135.811 642.653 462.598
1071 0 46.0737 12.48 575 125.518 643.654 462.536
1072 0 44.0333 8.58441 378 138.188 643.683 458.063
1073 0 48.1031 8.89755 428 135.832 643.213 459.374
1074 0 51.0584 14.1015 720 123.749 643.375 456.375
1075 0 51.0475 13.8303 706 118.765 646.028 456.203
1076 0 53.055 11.4786 609 123.386 645.002 454.269
1077 0 54.125 12.2864 665 123.553 644.283 456.777
1078 0 54.2302 12.4654 676 128.429 642.751 454.151
1079 0 54.2188 12.468 676 120.448 641.731 454.155
1080 0 59.1594 12.9988 769 127.367 640.592 451.756
1081 0 60.3237 10.3939 627 131.596 639.836 452.652
1082 0 62.2157 12.9067 803 127.922 637.929 450.613
1083 0 64.2257 10.7434 690 128.888 637.158 453.045
1084 0 68.1459 12.5613 856 127.287 635.923 448.617
1085 0 70.2758 15.8376 1113 122.069 634.632 446.981
1086 0 70.1603 12.2006 856 127.819 633.304 444.452
1087 0 75.2491 14.5915 1098 121.379 632.699 444.899
1088 0 75.0921 12.3582 928 129.272 632.655 442.844
1089 0 81.236 12.9992 1056 123.191 632.662 439.818
1090 0 86.1181 13.795 1188 121.844 631.258 437.54
1091 1 43.0855 7.38068 318 125.849 631.89 455.066
1092 0 45.0741 8.07558 364 123.176 633.008 452.937
1093 0 46.0821 11.2191 517 120.884 632.76 451.75
1094 0 46.1214 10.5374 486 122.434 633.84 449.977
1095 0 50.0637 11.9847 600 119.807 634.96 449.167
1096 0 50.0886 11.9987 601 128.812 637.115 448.542
1097 0 53.0565 13.8343 734 124.057 638.143 451.413
1098 0 56.2309 14.974 842 121.335 639.477 451.521
1099 0 55.2465 9.57527 529 131.371 641.921 454.431
1100 0 59.069 15.3549 907 123.595 643.494 452.648
1101 0 60.289 12.3737 746 128.913 645.287 454.654
1102 0 61.0419 14.2034 867 129.104 647.039 450.82
1103 0 62.1346 11.8774 738 133.841 647.832 452.725
1104 0 67.0854 16.5759 1112 125.601 648.667 452.891
1105 0 66.1676 14.0552 930 130.657 648.588 454.402
1106 0 69.0941 13.5178 934 133.1 648.803 455.017
1107 0 71.3095 13.5045 963 138.678 648.285 453.464
1108 0 74.1067 14.8165 1098 136.994 647.863 453.249
1109 0 78.1923 17.2268 1347 133.509 647.339 452.607
1110 0 80.1872 17.509 1404 133.928 646.344 453.494
1111 0 84.1206 17.6057 1481 133.623 645.028 451.278
1112 0 86.1015 15.7372 1355 139.003 643.711 449.441
1113 0 88.226 16.5598 1461 139.5 641.691 449.111
1114 0 91.2131 18.4732 1685 136.109 640.032 446.193
1115 1 45.1225 12.1004 546 153.401 639.332 466.11
1116 0 50.0569 14.104 706 146.398 637.775 468.089
1117 0 54.0757 13.9249 753 144.655 636.054 469.058
1118 0 55.0849 14.0874 776 146.987 634.643 467.387
1119 0 56.1034 15.6497 878 146.133 633.556 462.33
1120 0 57.078 12.9297 738 148.806 632.623 463.753
1121 0 60.0168 13.9961 840 144.918 631.995 462.293
1122 0 62.112 14.0231 871 144.387 631.755 460.265
1123 0 59.1772 12.5048 740 151.103 631.501 458.412
1124 0 64.0664 14.5942 935 143.122 630.576 456.734
1125 0 64.1166 13.0699 838 146.342 630.789 453.245
1126 0 67.1135 14.1551 950 142.628 630.717 453.539
1127 0 69.1698 14.1536 979 146.074 631.335 452.469
1128 0 72.086 16.0919 1160 141.865 631.177 449.364
1129 0 74.139 13.5421 1004 148.523 632.367 449.272
1130 0 77.1392 17.9675 1386 137.014 633.225 446.239
1131 0 84.3415 18.0457 1522 132.898 634.117 448.815
1132 0 80.073 13.7749 1103 147.36 636.011 443.396
1133 1 47.1547 12.2999 580 146.124 638.197 464.228
1134 0 47.1319 12.7515 601 143.902 639.88 465.874
1135 0 46.1484 11.3113 522 148.563 641.362 464.81
1136 0 48.0969 12.0798 581 146.286 642.036 466.571
1137 0 50.0612 14.6021 731 144.306 643.334 466.204
1138 0 50.0112 13.1771 659 150.053 643.578 464.898
1139 0 52.1199 13.2195 689 142.287 643.048 462.318
1140 0 52.0618 11.7169 610 145.898 642.915 463.226
1141 0 56.0485 11.8112 662 151.304 643.356 467.131
1142 0 56.0763 13.9631 783 148.802 642.527 464.936
1143 0 58.0885 14.9083 866 144.695 641.677 466.029
1144 0 61.0541 14.9539 913 144.68 639.987 463.892
1145 0 63.0913 14.8991 940 144.917 638.2 461.955
1146 0 67.0409 14.1854 951 144.016 637.061 463.984
1147 0 68.1424 13.6039 927 145.042 635.542 459.958
1148 0 70.0936 16.3924 1149 138.729 634.171 457.874
1149 0 72.2348 16.3218 1179 138.444 632.681 457.464
1150 0 73.2389 15.2651 1118 141.514 631.544 455.097
1151 0 76.1104 16.0031 1218 140.22 630.268 450.916
1152 1 43.185 14.0327 606 138.251 629.465 466.891
1153 0 42.0588 11.6266 489 142.086 629.137 466.924
1154 0 44.0702 15.3845 678 131.6 628.676 466.537
1155 0 45.0955 10.9545 494 142.304 629.486 465.654
1156 0 45.0547 11.5637 521 142.369 629.05 464.056
1157 0 48.075 12.6261 607 140.189 629.591 461.713
1158 0 51.172 14.8519 760 134.908 630.05 459.229
1159 0 49.1926 12.7865 629 141.941 628.712 456.294
1160 0 52.4231 15.3749 806 134.596 629.779 456.806
1161 0 54.1828 15.8168 857 134.503 630.498 455.036
1162 0 57.2394 14.3957 824 133.478 631.328 454.603
1163 0 57.28 13.8792 795 136.197 633.192 453.469
1164 0 59.1877 17.9598 1063 123.639 633.95 452.705
1165 0 60.3371 16.3249 985 127.254 635.722 452.023
1166 0 61.3312 16.1908 993 129.819 637.947 449.973
1167 0 65.2759 16.2847 1063 129.797 640.216 449.062
1168 0 66.2201 15.8713 1051 132.132 641.915 447.357
1169 0 69.159 14.3293 991 134.299 643.274 449.753
1170 0 71.2823 16.9186 1206 130.549 644.191 449.638
1171 0 76.3683 16.4466 1256 129.77 644.674 448
1172 0 78.5286 16.2998 1280 132.063 644.63 448.633
1173 1 41.1249 9.75079 401 139.661 644.631 468.03
1174 0 44.0502 9.55728 421 139.525 643.933 467.729
1175 0 42.1067 11.7796 496 137.605 643.986 467.323
1176 0 48.0866 11.812 568 134.741 643.621 468.215
1177 0 46.0224 11.3206 521 141.065 642.72 464.511
1178 0 49.0483 14.0882 691 134.36 644.478 462.149
1179 0 48.1478 11.8801 572 139.332 643.056 459.948
1180 0 51.0401 13.1661 672 130.768 640.978 459.86
1181 0 51.1443 10.6366 544 134.671 639.529 460.05
1182 0 53.1726 17.3209 921 123.415 637.893 456.167
1183 0 57.1645 14.537 831 125.243 636.911 459.433
1184 0 57.0757 14.0165 800 127.924 634.969 454.67
1185 0 62.0618 13.3576 829 126.504 633.526 452.976
1186 0 62.1862 15.148 942 123.962 631.622 449.803
1187 0 63.1718 13.677 864 128.222 630.77 447.453
1188 0 67.1 16.93 1136 123.222 630.774 445.266
1189 0 72.3433 15.3159 1108 126.226 630.557 446.912
1190 0 72.156 15.6189 1127 127.117 630.011 444.082
1191 0 73.2085 16.7467 1226 125.792 630.215 440.029
1192 0 76.1338 16.1689 1231 127.123 631.106 440.803
1193 0 78.1615 15.5191 1213 128.81 631.658 440.747
1194 0 79.1506 14.0744 1114 134.843 632.51 436.205
1195 0 82.1258 16.7791 1378 130.845 633.73 433.081
1196 0 86.1367 17.1355 1476 129.136 635.636 433.715
1197 0 88.4172 16.6596 1473 130.416 636.859 431.19
1198 1 49.0348 11.4409 561 128.289 639.686 456.455
1199 0 49.0794 12.4492 611 135.628 641.414 456.368
1200 0 47.0822 12.6587 596 129.112 641.284 457.097
1201 0 49.217 12.4957 615 136.88 643.236 454.286
1202 0 52.1172 14.4098 751 143.502 644.652 453.975
1203 0 55.1102 15.0063 827 141.174 645.146 457.22
1204 0 57.2087 17.777 1017 137.643 645.69 454.672
1205 0 57.0689 15.9281 909 139.127 646.073 456.781
1206 0 57.1352 15.5596 889 143.985 646.381 456.906
1207 0 60.1219 14.3542 863 147.701 646.233 456.445
1208 0 62.0939 15.9275 989 147.64 646.404 457.768
1209 0 62.2 14.1801 882 153.321 645.935 456.27
1210 0 68.2561 15.2514 1041 150.894 645.418 456.763
1211 0 70.392 15.2858 1076 149.873 644.195 458.809
1212 0 70.1141 15.7172 1102 152.597 642.819 455.115
1213 0 74.1425 17.0078 1261 148.816 641.868 454.349
1214 0 75.153 13.9848 1051 157.413 640.37 455.631
1215 0 78.0965 16.8638 1317 150.778 638.892 451.188
1216 0 81.2635 15.8866 1291 152.864 637.782 453.607
1217 0 84.1667 17.6079 1482 147.573 636.529 451.227
1218 1 43.0365 11.0604 476 157.996 635.899 467.246
1219 0 48.1462 11.4443 551 153.256 634.24 467.122
1220 0 48.0123 13.08 628 146.994 633.672 466.748
1221 0 48.1233 11.5952 558 149.066 632.306 464.921
1222 0 50.0213 11.9349 597 148.37 631.705 462.116
1223 0 52.1344 14.1173 736 142.413 630.908 460.789
1224 0 56.1278 13.0417 732 140.738 630.848 459.56
1225 0 56.1622 14.9033 837 138.271 630.14 456.196
1226 0 58.1324 14.0541 817 138.72 630.262 456.365
1227 0 61.1952 14.7234 901 137.022 630.882 456.526
1228 0 58.1221 16.4309 955 137.374 631.125 452.172
1229 0 62.2818 14.4505 900 141.644 632.358 452.839
1230 0 64.1476 13.4222 861 143.593 633.652 450.4
1231 0 66.1659 13.8289 915 143.96 635.393 450.438
1232 0 70.3697 14.6512 1031 140.818 636.926 448.363
1233 0 72.1882 15.2241 1099 139.873 639.249 448.469
1234 0 74.3516 14.7811 1099 142.576 640.692 445.935
1235 0 77.2272 13.3891 1034 145.243 641.595 449.916
1236 0 77.0596 13.8075 1064 148.935 643.106 444.12
1237 0 80.1554 13.3865 1073 148.715 644.683 449.088
1238 0 85.1365 16.0566 1367 145.024 644.976 445.619
1239 1 46.1085 10.3018 475 147.139 645.202 467.949
1240 0 46.2554 11.7175 542 149.661 646.657 462.308
1241 0 49.194 11.4038 561 148.781 646.492 464.387
1242 0 51.159 10.6922 547 150.779 646.565 464.894
1243 0 53.1803 12.467 663 148.419 644.759 466.157
1244 0 56.2934 13.7672 775 147.439 643.625 465.354
1245 0 57.2971 15.1142 866 143.365 641.45 467.47
1246 0 60.1638 16.987 1022 138.541 639.53 464.775
1247 0 61.28 13.5607 831 147.051 637.925 463.119
1248 0 63.2796 14.27 903 145.485 636.988 463.817
1249 0 65.2207 14.1673 924 146.844 635.646 462.601
1250 0 68.1389 15.85 1080 143.876 634.549 459.52
1251 0 72.2207 15.7988 1141 142.572 633.361 457.083
1252 0 73.2867 14.1499 1037 146.689 632.365 458.197
1253 0 76.2179 17.1613 1308 139.939 631.156 455.214
1254 0 79.2316 17.228 1365 139.896 631.056 453.363
1255 0 82.3795 18.1113 1492 137.931 630.937 449.911
1256 0 81.3693 17.5005 1424 140.414 630.377 445.717
1257 0 86.2807 14.7426 1272 145.241 630.083 447.139
1258 1 47.1642 10.4529 493 146.73 629.371 467.158
1259 0 46.0762 9.02852 416 144.315 629.204 466.486
1260 0 51.0885 12.7817 653 136.588 629.885 463.695
1261 0 53.3093 13.2622 707 137.453 630.601 457.201
1262 0 51.2656 11.4307 586 140.35 631.834 457.452
1263 0 50.1809 11.618 583 140.93 632.456 455.856
1264 0 55.2614 13.0833 723 141.721 633.804 455.351
1265 0 57.1642 13.7324 785 140.792 633.558 457.083
1266 0 60.0533 14.5537 874 137.034 635.372 456.32
1267 0 62.134 15.3217 952 135.916 636.545 454.978
1268 0 63.1721 15.2599 964 137.511 638.321 452.79
1269 0 65.1374 13.863 903 140.133 639.546 454.429
1270 0 67.1696 12.9821 872 142.794 640.698 454.101
1271 0 71.1548 14.8128 1054 136.372 641.691 453.764
1272 0 74.2403 16.3388 1213 133.117 642.235 452.486
1273 0 75.0589 15.1081 1134 135.876 642.405 449.571
1274 0 78.2646 16.7764 1313 132.638 643.78 451.629
1275 0 82.3309 16.8831 1390 132.811 643.278 452.174
1276 0 84.2703 17.8473 1504 129.535 642.672 451.55
1277 0 85.1781 15.0156 1279 135.033 641.292 447.813
1278 0 88.3129 16.6001 1466 132.086 640.035 448.08
1279 0 92.1372 17.4088 1604 130.926 638.498 446.619
1280 1 45.1954 8.91684 403 137.432 637.546 468.047
1281 0 49.2539 11.2478 554 133.343 635.819 468.054
1282 0 50.2751 11.1984 563 132.885 634.622 469.092
1283 0 51.211 11.7748 603 131.191 633.569 468.975
1284 0 54.3061 10.9932 597 133.856 632.464 466.179
1285 0 57.2007 14.353 821 126.778 630.777 462.354
1286 0 57.1207 14.3205 818 127.359 630.258 459.182
1287 0 61.0767 14.9812 915 123.962 630.012 461.04
1288 0 62.0302 15.2184 944 124.014 629.201 460.073
1289 0 61.0527 11.9896 732 130.97 628.533 459.1
1290 0 64.1004 12.2152 783 129.745 628.155 456.814
1291 0 67.0913 13.7872 925 127.498 627.64 452.822
1292 0 69.1502 13.3478 923 128.19 627.826 450.443
1293 0 72.0862 13.0677 942 130.124 627.83 451.764
1294 0 74.073 16.5107 1223 124.392 628.624 449.435
1295 0 74.2452 11.8661 881 134.637 628.577 447.614
1296 0 78.2917 17.7924 1393 125.682 629.742 444.859
1297 0 79.1339 13.1044 1037 138.987 630.366 445.112
1298 0 84.0718 14.0832 1184 133.791 631.072 443.425
1299 0 87.2608 15.6198 1363 131.542 632.847 443.687
1300 0 90.2899 13.5453 1223 136.823 633.759 439.978
1301 0 90.2556 11.7666 1062 140.553 635.325 436.242
1302 1 47.0909 15.0135 707 126.707 637.219 459.058
1303 0 50.0491 11.9083 596 131.73 637.614 460.661
1304 0 51.0351 12.2857 627 131.649 638.102 459.78
1305 0 52.0626 12.485 650 136.514 640.906 460.332
1306 0 58.1275 14.9671 870 130.907 640.67 461.441
1307 0 61.1735 15.0882 923 129.459 637.946 461.185
1308 0 60.0805 14.9633 899 133.467 638.67 459.943
1309 0 61.0803 13.2449 809 137.713 638.156 460.712
1310 0 64.0701 13.1731 844 137.941 637.679 460.88
1311 0 68.1946 14.6932 1002 134.431 636.33 459.926
1312 0 71.0787 15.5039 1102 133.408 635.091 459.224
1313 0 72.13 14.9314 1077 136.103 634.297 458.981
1314 0 74.1456 16.0765 1192 133.954 632.669 453.536
1315 0 78.2132 20.572 1609 125.33 631.27 456.012
1316 0 80.1407 16.0967 1290 135.716 630.326 454.344
1317 1 42.0689 9.00903 379 145.947 628.34 473.332
1318 0 45.0457 12.1432 547 140.016 627.168 470.517
1319 0 44.0171 9.70078 427 144.55 626.166 470.361
1320 0 45.0352 9.81454 442 143.348 625.041 468.805
1321 0 47.0543 11.3273 533 140.069 624.604 467.824
1322 0 47.0474 11.7966 555 144.708 624.162 466.144
1323 0 51.0567 15.3751 785 133.641 624.266 461.4
1324 0 53.0646 14.3222 760 133.158 623.439 462.884
1325 0 54.1459 15.569 843 132.308 624.094 460.667
1326 0 58.0403 13.8869 806 135.375 624.207 458.799
1327 0 59.0383 14.4482 853 136.029 624.72 455.184
1328 0 57.0684 13.5451 773 140.14 625.182 454.616
1329 0 60.2344 13.5139 814 140.262 626.05 450.76
1330 0 62.2177 14.385 895 135.036 627.184 455.635
1331 0 67.0997 15.7974 1060 131.008 629.203 452.383
1332 0 68.1283 18.8615 1285 126.031 630.752 450.819
1333 0 70.1734 17.9983 1263 133.455 632.637 448.443
1334 0 73.1262 16.9433 1239 131.771 634.329 447.519
1335 0 73.2419 14.8139 1085 140.161 636.225 445.489
1336 0 76.2309 14.1937 1082 142.323 637.629 445.737
1337 0 80.302 17.2972 1389 135.308 638.885 447.197
1338 0 80.1411 16.2588 1303 138.426 639.744 446.748
1339 0 80.1316 14.3888 1153 145.644 640.069 448.08
1340 0 85.1631 16.2394 1383 142.776 639.87 446.495
1341 0 87.1878 14.9333 1302 146.968 639.873 447.113
1342 0 89.1589 13.7844 1229 152.711 639.493 445.172
1343 0 91.2761 15.3052 1397 149.742 639.394 445.133
1344 1 47.0654 12.557 591 152.288 638.785 468.406
1345 0 47.0853 11.3836 536 155.308 637.224 467.235
1346 0 51.0423 13.2243 675 147.45 635.923 468.936
1347 0 50.1502 12.1435 609 147.351 635.066 466.35
1348 0 52.1744 12.7457 665 147.734 634.591 464.723
1349 0 54.2239 12.6697 687 147.508 633.543 464.904
1350 0 54.1769 14.305 775 144.728 632.425 463.484
1351 0 56.217 12.8431 722 147.54 631.316 461.807
1352 0 59.1417 14.9133 882 142.923 630.134 458.804
1353 0 61.1682 16.5936 1015 134.199 629.54 459.853
1354 0 61.2681 18.7536 1149 126.12 628.015 455.485
1355 0 63.2078 13.3686 845 136.134 627.172 452.795
1356 0 67.3768 15.2129 1025 134.46 627.131 450.134
1357 0 67.2278 11.647 783 139.98 627.192 447.493
1358 0 73.5598 16.5716 1219 128.791 627.098 447.55
1359 0 71.1369 13.6216 969 135.024 626.329 441.669
1360 0 77.4308 14.4258 1117 131.534 627.208 443.615
1361 1 39.3227 10.5791 416 133.863 627.647 457.865
1362 0 45.5148 13.3803 609 127.757 628.509 457.261
1363 0 40.4646 7.19147 291 138.619 629.505 457.838
1364 0 46.3361 13.6826 634 129.793 630.885 460.424
1365 0 47.3912 13.5046 640 129.011 632.923 460.742
1366 0 46.2978 12.4844 578 134.133 634.036 456.356
1367 0 49.1913 15.6532 770 129.265 636.052 456.406
1368 0 51.2673 15.1364 776 130.628 638.388 458.465
1369 0 53.1663 13.975 743 133.463 638.879 458.476
1370 0 55.3219 14.7681 817 132.595 640.641 456.58
1371 0 54.2277 13.5171 733 135.025 641.641 458.241
1372 0 57.1699 15.8475 906 132.839 642.274 456.715
1373 0 58.2149 14.4637 842 138.097 642.056 454.911
1374 0 61.2411 14.9736 917 136.938 641.544 455.14
1375 0 62.2351 16.1967 1008 135.594 641.553 456.382
1376 0 64.2992 16.2833 1047 138.692 641.081 453.619
1377 0 67.3233 17.1115 1152 136.949 641.449 454.879
1378 0 69.1877 15.7543 1090 141.7 640.451 454.791
1379 0 72.2754 15.8699 1147 141.639 638.795 450.235
1380 0 72.3026 14.2319 1029 147.409 637.749 450.299
1381 0 74.4985 14.9667 1115 148.195 636.145 448.016
1382 1 41.368 12.4009 513 145.554 635.263 468.105
1383 0 42.2917 12.1064 512 143.941 634.316 468.584
1384 0 44.2351 13.7447 608 140.061 632.762 466.309
1385 0 44.2591 12.1783 539 142.267 632.312 466.675
1386 0 47.1989 13.4749 636 140.854 630.53 462.819
1387 0 45.324 11.0096 499 145.743 629.92 461.232
1388 0 48.1672 12.6227 608 145.173 629.281 462.163
1389 0 47.1311 14.2369 671 141.753 628.228 457.453
1390 0 49.4412 15.3313 758 136.913 627.764 453.946
1391 0 51.3764 14.384 739 149.211 627.422 458.598
1392 0 55.4362 14.7557 818 146.062 627.932 456.279
1393 0 57.3921 15.1066 867 145.03 629.122 454.753
1394 0 59.4061 15.0321 893 143.438 629.503 454.943
1395 0 61.4364 13.7052 842 147.741 630.322 452.48
1396 0 60.534 13.0505 790 150.948 631.324 450.696
1397 0 66.8174 15.4451 1032 145.421 633.38 449.017
1398 0 67.6377 14.6959 994 151.169 634.975 445.875
1399 0 70.4175 15.8483 1116 147.895 636.983 445.762
1400 0 72.4115 16.8067 1217 140.26 639.087 447.129
1401 0 71.2161 14.5332 1035 151.626 639.493 447.318
1402 0 73.1904 14.4691 1059 153.821 641.66 447.11
1403 0 76.3711 15.7782 1205 152.753 642.698 446.529
1404 0 80.4975 15.4539 1244 150.92 643.748 447.279
1405 1 44.2344 11.6199 514 157.21 644.482 465.224
1406 0 47.3201 12.2147 578 154.04 644.988 466.085
1407 0 47.5294 12.7079 604 153.469 644.291 464.808
1408 0 49.1575 14.4637 711 150.456 643.719 466.923
1409 0 48.116 13.6545 657 156.594 643.47 468.353
1410 0 52.0966 16.9685 884 149.948 642.209 467.27
1411 0 52.2135 14.5365 759 160.144 640.623 469.871
1412 0 54.0828 14.5887 789 161.487 639.066 467.848
1413 0 56.1394 15.7109 882 157.845 637.645 469.285
1414 0 57.0971 14.6592 837 162.795 635.699 467.474
1415 0 59.3044 14.316 849 163.146 634.346 466.41
1416 0 62.3326 17.4868 1090 155.372 632.845 465.207
1417 0 64.1854 15.3306 984 161.154 631.67 464.205
1418 0 66.2232 15.2212 1008 160.275 630.342 463.96
1419 0 69.3191 17.4555 1210 154.502 628.789 461.446
1420 0 68.1703 12.8502 876 165.589 628.025 459.369
1421 0 70.1286 14.8727 1043 159.333 627.63 457.751
1422 1 38.1128 11.2036 427 159.03 627.15 472.986
1423 0 41.0538 9.42665 387 159.86 626.034 472.132
1424 0 43.2257 11.7523 508 151.872 625.28 471.093
1425 0 45.0682 11.3162 510 151.829 624.929 469.014
1426 0 47.0916 11.6581 549 152.222 625.368 468.051
1427 0 48.098 13.9299 670 145.836 625.645 466.466
1428 0 49.0908 14.0759 691 146.983 625.702 465.24
1429 0 51.1007 12.8765 658 152.666 627.722 465.16
1430 0 52.0964 15.7976 823 145.378 627.676 464.368
1431 0 53.0445 13.6489 724 147.548 629.945 461.293
1432 0 55.0703 16.597 914 141.446 631.847 461.956
1433 0 56.1584 13.1058 736 151.353 633.512 461.167
1434 0 59.1598 14.9426 884 146.199 634.692 459.776
1435 0 58.0442 13.662 793 152.933 636.311 456.941
1436 0 58.0809 11.6217 675 156.988 638.333 457.929
1437 0 61.0449 10.0909 616 162.141 638.724 457.623
1438 0 68.0664 14.0304 955 151.663 639.188 458.222
1439 0 69.0856 15.7631 1089 150.017 639.43 458.48
1440 0 71.027 15.4167 1095 151.741 639.299 456.335
1441 0 75.0737 16.5304 1241 147.089 638.98 460.733
1442 0 77.1103 13.4353 1036 158.804 638.272 455.654
1443 0 77.1351 13.2495 1022 160.152 637.358 458.871
1444 1 43.044 11.7554 506 156.638 636.269 474.931
1445 0 43.0482 10.9644 472 161.047 634.735 474.794
1446 0 44.0307 8.58492 378 165.013 633.302 476.59
1447 0 47.0633 13.9812 658 155.787 631.623 472.582
1448 0 47.1371 12.644 596 162.243 631.084 471.128
1449 0 50.0777 13.5789 680 155.384 629.638 470.859
1450 0 51.0844 15.9148 813 148.875 628.557 471.264
1451 0 52.0466 13.8338 720 155.358 627.793 468.69
1452 0 54.1151 15.467 837 151.026 627.309 466.692
1453 0 55.2122 12.3523 682 160.048 627.18 466.051
1454 0 56.1478 14.4618 812 152.027 626.346 464.002
1455 0 57.2394 13.4173 768 153.333 626.385 461.159
1456 0 61.1692 13.8141 845 152.646 626.31 459.032
1457 0 63.1411 14.8239 936 148.395 626.126 455.826
1458 0 64.1494 13.4997 866 151.052 625.606 453.178
1459 0 66.2553 13.5385 897 148.812 626.018 451.793
1460 0 71.2238 14.9107 1062 143.754 626.483 452.549
1461 0 73.1869 15.2623 1117 145.528 627.764 450.856
1462 1 38.149 11.8221 451 148.013 629.02 467.421
1463 0 41.0505 9.64666 396 157.831 630.045 465.914
1464 0 41.04 10.8431 445 150.501 631.339 465.135
1465 0 46.0789 13.6722 630 143.632 633.308 462.887
1466 0 45.2033 15.1538 685 139.728 635.055 463.625
1467 0 46.2239 12.4178 574 151.206 636.716 462.84
1468 0 48.0847 13.0603 628 153.646 639.134 461.223
1469 0 50.1819 15.105 758 148.526 640.561 461.912
1470 0 48.2196 12.0283 580 159.831 641.779 461.874
1471 0 54.1535 13.2771 719 153.512 642.2 462.045
1472 0 53.1743 14.5371 773 153.984 643.21 459.651
1473 0 56.3511 14.8888 839 149.864 643.17 460.418
1474 0 57.1709 14.2555 815 152.669 643.553 461.61
1475 0 59.1016 11.8271 699 159.16 643.292 460.519
1476 0 59.1914 13.0087 770 157.248 643.032 459.122
1477 0 63.2093 13.8904 878 153.909 642.296 461.361
1478 0 64.254 14.1937 912 153.282 641.395 459.936
1479 0 66.2477 13.6608 905 152.673 640.418 461.391
1480 0 68.1578 13.41 914 155.044 639.421 457.287
1481 0 70.1615 13.1696 924 156.351 637.899 457.76
1482 0 71.1692 12.5335 892 158.002 636.5 456.787
1483 0 74.2073 13.0445 968 156.458 635.584 453.548
1484 0 77.0964 12.1536 937 155.663 634.772 455.834
1485 0 80.1532 14.9963 1202 148.631 633.526 453.034
1486 0 81.1435 15.6266 1268 145.086 632.68 446.648
1487 0 82.1324 10.9944 903 153.843 631.64 444.595
1488 1 43.0751 10.6558 459 147.771 630.723 465.253
1489 0 47.0785 10.9179 514 141.805 629.854 465.669
1490 0 46.1237 10.0165 462 145.229 629.623 463.814
1491 0 53.1379 12.8722 684 138.183 629.969 461.835
1492 0 53.1001 11.2429 597 141.516 629.844 460.219
1493 0 56.2146 12.9682 729 135.31 629.929 460.384
1494 0 57.0549 11.8132 674 140.635 630.279 456.132
1495 0 56.132 12.0074 674 147.346 629.372 455.746
1496 0 59.1623 13.032 771 144.099 629.665 451.554
1497 0 63.0881 12.4905 788 142.029 631.131 450.594
1498 0 63.2899 11.9924 759 146.072 632.806 451.083
1499 0 68.0851 12.2347 833 139.264 634.321 449.221
1500 0 70.3177 12.9839 913 139.896 636.117 450.012
1501 0 69.1909 13.1087 907 132.417 637.751 448.97
1502 0 74.2993 14.0378 1043 131.341 639.727 447.435
1503 0 79.1746 13.0345 1032 134.492 641.519 449.159
1504 0 79.1113 13.1208 1038 136.465 642.325 445.184
1505 0 82.2525 11.3066 930 141.046 643.071 444.285
1506 0 85.2678 12.8771 1098 135.53 643.961 449.317
1507 0 87.2958 11.7073 1022 139.858 644.023 447.27
1508 1 48.0712 8.15457 392 139.258 645.099 467.969
1509 0 47.2035 10.2747 485 139.204 645.002 466.231
1510 0 50.1435 9.87166 495 138.186 644.493 469.578
1511 0 49.1144 9.28445 456 144.353 644.134 466.86
1512 0 52.1751 12.0556 629 139.105 643.107 465.383
