time division length width area intensity CMx CMy
0 0 52.1666 14.8754 776 133.448 577.469 441.695
1 0 53.2423 15.0257 800 130.354 578.778 445.166
2 0 53.114 12.5579 667 135.936 579.381 443.615
3 0 56.097 11.6227 652 136.856 579.756 443.863
4 0 55.091 13.4868 743 132.45 579.817 442.59
5 0 59.1775 13.5694 803 131.555 581.136 439.311
6 0 61.3149 15.5753 955 126.994 580.422 444.213
7 0 65.5049 17.2659 1131 123.745 579.408 445.847
8 0 65.1252 22.0191 1434 123.234 578.027 437.761
9 0 68.2095 15.9509 1088 128.082 576.322 444.789
10 0 68.194 13.1537 897 137.651 575.571 441.146
11 0 71.3247 14.2728 1018 143.273 574.454 442.159
12 0 73.2396 12.4386 911 154.628 573.296 441.344
13 0 75.051 12.8446 964 154.684 572.645 439.604
14 1 39.0213 8.40566 328 149.177 572.829 460.747
15 0 41.089 8.81015 362 155.133 570.934 458.787
16 0 42.0386 9.32477 392 156.082 569.084 457.102
17 0 42.1641 13.0917 552 149.5 566.915 456.027
18 0 43.4176 10.8251 470 153.551 565.981 453.445
19 0 45.4345 13.0958 595 150.734 564.576 449.703
20 0 46.4206 12.1713 565 153.763 563.12 447.632
21 0 48.359 9.47083 458 161.581 562.587 444.956
22 0 50.0914 10.3411 518 153.4 562.311 450.129
23 0 52.0914 16.3175 850 141.5 562.773 446.904
24 0 51.1537 13.3519 683 153.189 562.426 441.953
25 0 50.1245 11.4116 572 158.836 562.862 441.247
26 0 55.1681 12.0359 664 153.392 562.5 439.16
27 0 55.1449 16.1574 891 143.768 562.531 440.218
28 0 54.0518 11.859 641 153.459 563.435 437.577
29 0 61.1691 15.3346 938 139.481 565.314 437.691
30 0 63.223 14.5991 923 136.729 566.668 439.579
31 0 61.0743 9.44751 577 143.922 568.116 436.35
32 0 65.1464 12.7405 830 133.081 570.612 434.053
33 0 68.3744 11.9782 819 128.93 572.429 438.241
34 0 69.2612 16.2573 1126 123.825 574.301 435.822
35 0 69.2612 16.2429 1125 123.336 576.303 435.957
36 0 74.0567 13.6787 1013 124.164 577.406 435.491
37 0 77.2983 15.5501 1202 121.809 577.059 433.868
38 0 76.2823 16.2816 1242 121.105 578.13 431.385
39 0 80.2567 9.91817 796 124.406 578.907 436.501
40 0 86.4182 15.911 1375 116.872 578.439 439.626
41 0 85.4263 12.4435 1063 124.431 578.051 435.794
42 0 88.4914 14.6907 1300 125.363 577.978 435.686
43 0 88.4739 12.3426 1092 129.121 576.556 428.848
44 0 93.2979 12.3368 1151 134.196 575.533 426.886
45 0 97.5942 13.4332 1311 130.791 574.865 433.314
46 0 100.378 15.2325 1529 133.621 574.157 433.334
47 0 105.514 14.1498 1493 140.402 572.823 429.985
48 0 107.445 14.6866 1578 138.783 571.471 429.49
49 0 107.37 10.3567 1112 148.511 570.033 428.574
50 0 112.304 14.7724 1659 142.175 568.036 425.571
51 0 117.64 15.2159 1790 143.628 566.096 417.386
52 0 119.298 11.4084 1361 153.398 564.428 419.238
53 0 125.465 13.9322 1748 149.34 563.748 414.08
54 0 128.422 15.1453 1945 147.449 562.503 411.741
55 0 129.374 14.5934 1888 149.885 561.59 404.235
56 0 136.479 15.6434 2135 143.36 561.31 408.853
57 0 140.617 14.2728 2007 147.423 560.712 402.284
58 0 144.495 16.2082 2342 143.953 560.67 397.015
59 0 150.584 14.809 2230 144.995 561.244 405.701
60 0 154.713 11.7637 1820 151.908 560.994 395.113
61 0 157.841 14.1915 2240 148.592 561.181 385.788
62 0 164.853 16.3843 2701 144.005 561.601 387.81
63 0 169.017 13.7679 2327 147.405 562.516 381.314
64 0 177.831 19.2542 3424 136.045 564.275 382.745
65 1 111.576 13.2018 1473 129.404 567.005 424.53
66 0 111.301 15.849 1764 130.985 569.717 410.65
67 0 115.444 16.259 1877 134.148 570.393 410.385
68 0 120.276 11.7231 1410 135.026 572.53 412.496
69 0 122.615 10.9774 1346 135.783 573.99 408.455
70 0 129.489 14.3565 1859 130.26 575.145 419.04
71 0 132.367 15.457 2046 139.285 575.112 410.617
72 0 137.786 14.704 2026 141.05 575.848 407.666
73 0 140.591 13.4717 1894 146.797 575.582 405.281
74 0 146.805 16.246 2385 141.295 575.622 406.021
75 1 67.5879 9.85383 666 144.024 575.608 442.35
76 0 69.4401 9.97983 693 144.154 574.781 443.623
77 0 73.4203 11.9994 881 139.749 574.521 444.404
78 0 75.5613 9.63456 728 147.909 574.144 445.365
79 0 76.2855 13.3053 1015 141.302 572.328 440.053
80 0 78.2612 12.5222 980 141.341 571.28 442.649
81 0 84.2261 12.9295 1089 136.674 570.265 446.195
82 0 85.1385 12.5208 1066 139.485 569.767 440.292
83 0 87.1698 14.9249 1301 138.437 567.848 436.819
84 0 89.2332 12.7307 1136 139.277 567.152 440.314
85 0 92.3474 12.8536 1187 139.845 565.683 437.078
86 0 95.3324 13.8253 1318 140.679 564.31 430.285
87 0 97.247 15.1161 1470 137.952 563.226 434.033
88 0 100.425 15.295 1536 138.656 561.512 424.592
89 1 57.0615 11.7067 668 134.329 561.888 451.852
90 0 57.0388 10.9049 622 138.805 561.529 449.823
91 0 58.1128 11.0647 643 134.866 560.58 448.266
92 0 60.0516 13.3385 801 129.262 560.531 445.366
93 0 59.0999 12.4704 737 131.94 561.233 446.469
94 0 60.083 11.1013 667 136.342 560.84 443.297
95 0 63.0859 12.3324 778 131.464 561.578 444.086
96 0 67.3083 12.4502 838 129.765 562.476 444.155
97 0 64.1808 12.8699 826 127.45 562.642 443.649
98 0 69.3231 18.6085 1290 117.743 563.918 439.909
99 0 70.132 10.8652 762 125.394 565.525 444.591
100 0 74.3143 15.8516 1178 120.399 567.778 436.104
101 0 74.0993 14.737 1092 121.004 569.483 432.627
102 0 77.2327 13.6859 1057 119.418 571.243 437.755
103 0 80.3085 15.6397 1256 117.21 572.53 436.16
104 0 83.3584 13.7119 1143 118.96 573.633 430.135
105 0 87.3531 20.9266 1828 109.47 574.193 437.964
106 0 90.3895 14.7362 1332 116.809 574.276 430.104
107 0 93.4504 12.8303 1199 118.93 574.882 435.018
108 1 52.2147 11.2229 586 122.585 574.177 457.352
109 0 52.1481 17.5078 913 114.116 574.13 455.28
110 0 52.1481 17.4119 908 125.58 574.057 455.254
111 0 50.1388 11.4083 572 130.78 575.002 457.995
112 0 49.1141 8.36827 411 134.01 575.192 459.299
113 0 53.2943 12.4779 665 132.478 573.779 459.155
114 0 57.1019 12.4689 712 132.41 572.813 458.805
115 0 58.1641 15.078 877 127.836 571.937 457.545
116 0 56.1184 11.1372 625 137.326 570.554 457.142
117 0 58.1918 15.0537 876 131.886 568.546 456.613
118 0 60.3478 14.2342 859 134.281 566.484 455.256
119 0 62.3563 16.6463 1038 132.834 565.133 454.607
120 0 63.2293 15.5782 985 133.341 563.891 450.548
121 0 65.3428 13.0083 850 137.995 562.566 450.218
122 0 67.3791 11.3091 762 138.092 561.063 451.352
123 0 69.3182 12.3056 853 136.753 559.742 447.216
124 0 74.3719 16.4982 1227 126.456 559.36 444.013
125 0 76.4549 16.0879 1230 127.776 559.25 443.607
126 1 46.4899 11.5079 535 127.551 560.135 459.561
127 0 46.4899 11.723 545 130.358 559.138 459.642
128 0 46.5336 9.64894 449 130.998 560.479 456.684
129 0 44.1876 10.3196 456 133.219 560.612 452.033
130 0 48.1617 11.3368 546 135.223 561.227 452.762
131 0 49.2939 12.3139 607 131.835 562.984 449.835
132 0 51.1733 13.1905 675 125.136 564.253 450.498
133 0 51.0957 15.0111 767 122.587 566.399 451.143
134 0 49.1231 11.2371 552 126.587 568.475 451.955
135 0 54.1424 14.7204 797 119.216 569.995 453.151
136 0 57.1204 14.093 805 120.896 570.82 450.527
137 0 60.2122 18.6341 1122 113.874 572.071 452.683
138 0 58.3352 16.2509 948 120.564 572.363 449.474
139 0 62.3203 16.0461 1000 116.049 572.981 453.562
140 0 61.0942 15.6971 959 119.528 573.442 454.611
141 0 65.2999 14.7473 963 121.91 572.481 454.853
142 0 64.1183 16.2668 1043 122.411 572.853 448.847
143 0 71.1994 17.5704 1251 121.706 570.973 452.166
144 0 71.1994 17.5985 1253 128.138 569.941 452.182
145 0 70.1676 16.9594 1190 135.094 569.597 450.291
146 0 70.1983 14.7297 1034 139.477 568.992 451.898
147 0 72.2492 16.9275 1223 137.438 567.8 450.96
148 0 75.2233 15.9392 1199 141.563 566.631 450.03
149 0 78.1351 15.3708 1201 142.473 564.66 446.423
150 1 42.0399 8.94388 376 150.242 564.101 466.231
151 0 42.0673 8.93806 376 149.154 562.511 466.891
152 0 43.1679 9.68312 418 149.49 559.304 464.847
153 0 45.1271 11.5452 521 148.883 557.912 461.601
154 0 46.1131 13.2283 610 143.905 556.893 463.511
155 0 47.1513 14.1884 669 142.807 556.152 460.716
156 0 47.1614 12.5314 591 145.805 555.291 460.753
157 0 51.1891 11.9752 613 147.02 554.478 457.659
158 0 52.1787 13.8946 725 142.102 553.84 456.274
159 0 51.209 11.9901 614 142.357 553.415 453.914
160 0 52.2278 12.0434 629 142.598 554.087 453.397
161 0 55.1355 14.4009 794 138.868 553.785 450.816
162 0 55.1166 12.0653 665 150.09 553.713 453.014
163 0 57.0664 12.3015 702 139.923 555.271 449.595
164 0 59.0956 12.3698 731 136.44 556.627 447.425
165 0 66.1615 16.8376 1114 122.949 558.703 449.942
166 0 65.2315 15.9739 1042 126.892 560.025 446.345
167 0 64.0429 12.0232 770 132.8 561.49 446.091
168 0 70.1726 17.1862 1206 124.517 564.065 445.645
169 0 70.0837 17.8215 1249 123.343 565.635 444.772
170 0 69.1476 12.5239 866 130.423 566.602 446.867
171 0 73.1587 15.1588 1109 128.827 568.327 443.479
172 0 80.533 15.9935 1288 124.52 567.297 447.903
173 0 82.2796 18.1941 1497 128.349 568.168 444.868
174 0 85.0811 21.2151 1805 124.963 569.006 446.867
175 0 82.1325 14.2453 1170 142.791 568.555 443.529
176 0 87.2152 13.3463 1164 144.103 569.271 443.302
177 0 90.2223 16.2598 1467 142.823 569.063 441.982
178 1 47.0457 12.3497 581 152.85 569.172 463.255
179 0 49.0342 10.3397 507 158.888 568.483 464.252
180 0 46.0228 10.4731 482 157.88 567.324 462.409
181 0 48.162 13.2885 640 151.255 567.328 461.277
182 0 50.1721 11.8392 594 154.461 565.776 459.152
183 0 53.1639 13.3173 708 142.503 564.412 461.332
184 0 56.1108 14.4179 809 140.454 563.057 458.219
185 0 57.1193 14.3734 821 138.116 560.922 457.967
186 0 60.2817 14.7474 889 137.728 560.001 458.36
187 0 60.1235 18.0129 1083 132.239 558.079 453.343
188 0 61.2971 12.5781 771 142.947 557.949 454.152
189 0 64.2168 14.1863 911 138.587 557.189 452.71
190 0 65.3695 12.4217 812 142.251 556.175 449.804
191 0 67.2652 15.1341 1018 136.102 555.17 446.846
192 0 69.2324 15.2241 1054 137.474 554.728 446.289
193 0 70.2704 14.1027 991 140.576 555.172 446.349
194 0 72.1651 13.3583 964 142.21 555.217 442.187
195 0 74.1685 13.0514 968 142.402 554.774 442.993
196 0 78.3131 16.6766 1306 135.796 555.917 440.837
197 0 78.2409 13.7268 1074 140.777 555.34 436.893
198 0 80.0883 14.0345 1124 139.444 556.371 438.44
199 0 89.2451 16.4267 1466 130.469 557.664 436.544
200 0 92.1471 20.5866 1897 126.576 558.933 430.564
201 0 93.1121 20.0941 1871 126.572 560.765 431.151
202 1 49.0553 10.478 514 128.545 562.986 458.5
203 0 49.14 9.19822 452 133.166 564.458 454.887
204 0 52.2289 11.9283 623 137.148 566.066 456.104
205 0 52.0632 15.9806 832 129.011 567.136 453.552
206 0 54.1201 12.9527 701 135.218 567.621 456.7
207 0 55.1794 13.4652 743 135.254 567.763 455.805
208 0 58.1377 12.0576 701 140.653 568.114 455.462
209 0 60.0673 13.9843 840 133.525 567.779 457.448
210 0 62.2106 12.956 806 141.427 567.734 454.156
211 0 62.2352 12.8866 802 147.564 567.137 455.512
212 0 65.1107 16.2339 1057 141.811 567.009 455.197
213 0 67.1659 14.4121 968 147.895 565.398 453.569
214 0 69.1742 17.68 1223 139.127 564.816 455.371
215 0 71.3078 17.5016 1248 140.912 563.16 450.618
216 0 72.0249 14.4117 1038 152.076 562.595 451.591
217 0 76.1482 13.0798 996 151.72 561.842 452.1
218 0 78.1445 16.4439 1285 144.613 559.669 447.598
219 0 79.1597 12.4179 983 148.113 558.522 447.557
220 0 81.1308 14.7293 1195 151.924 557.073 444.783
221 1 42.0348 11.4191 480 151.258 555.038 463.785
222 0 49.2123 10.2617 505 148.061 554.406 463.18
223 0 49.143 11.1308 547 147.771 554.347 460.453
224 0 49.2699 10.3309 509 151.031 554.688 457.134
225 0 51.4568 12.6708 652 145.646 555.152 453.994
226 0 52.3285 14.4663 757 142.316 554.428 451.108
227 0 56.0374 15.5789 873 137.574 552.456 452.814
228 0 57.0929 15.7112 897 137.211 552.988 450.405
229 0 57.0619 14.5631 831 139.694 553.371 448.918
230 0 60.1779 14.4904 872 137.71 554.46 447.42
231 0 61.1571 12.983 794 136.86 554.563 446.815
232 0 64.1263 13.91 892 135.74 557.308 444.79
233 0 68.1471 14.6595 999 130.642 557.842 447.784
234 0 70.3015 17.9228 1260 126.895 560.356 443.689
235 0 72.2033 13.5589 979 133.269 561.937 444.095
236 0 71.2106 12.779 910 138.245 564.432 441.38
237 0 77.713 13.7943 1072 137.321 567.045 438.931
238 0 76.4089 12.5116 956 140.508 567.964 441.535
239 0 80.3087 12.9376 1039 140.95 569.33 437.43
240 0 85.2173 14.95 1274 136.315 567.784 436.594
241 1 42.0397 10.8231 455 141.571 568.453 463.484
242 0 45.0959 12.2184 551 138.002 567.103 462.9
243 0 46.0711 10.6791 492 141.457 566.852 460.138
244 0 47.0298 13.013 612 134.095 567.544 461.35
245 0 49.0358 14.7443 723 131.693 567.418 463.238
246 0 48.0532 11.3416 545 141.765 567.116 462.875
247 0 48.1117 10.6003 510 145.92 565.92 460.227
248 0 53.1131 11.7297 623 143.933 565.467 461.823
249 0 54.1539 12.4091 672 142.793 564.332 459.621
250 0 55.1105 12.7743 704 142.793 563.111 459.621
251 0 55.0975 12.4325 685 141.775 561.545 461.031
252 0 59.1008 14.0269 829 136.828 559.992 460.386
253 0 58.1338 14.1054 820 141.313 558.745 455.798
254 0 63.17 12.8859 814 144.037 557.38 454.752
255 0 66.1947 14.1401 936 142.497 556.217 454.066
256 0 68.1566 16.6382 1134 138.377 555.559 450.938
257 0 68.1721 17.4558 1190 138.629 555.19 448.476
258 0 70.307 13.8678 975 146.736 554.445 447.065
259 0 74.0599 14.4613 1071 146.076 554.461 445.399
260 1 40.0766 11.0039 441 148.76 554.796 459.163
261 0 42.0246 11.636 489 143.198 553.838 460.847
262 0 42.0775 9.76769 411 143.358 553.642 459.854
263 0 43.0605 12.8192 552 135.817 554.308 459.687
264 0 45.3771 12.5173 568 138.225 555.542 453.792
265 0 50.2536 15.7601 792 127.624 556.449 453.28
266 0 50.2536 15.8198 795 126.98 556.442 453.328
267 0 49.1041 13.5019 663 134.226 560.045 450.38
268 0 52.3136 13.7631 720 134.082 562.122 449.611
269 0 53.2158 14.1875 755 133.8 564.693 451.444
270 0 58.3019 19.3133 1126 119.285 565.988 454.807
271 0 56.4266 13.7701 777 131.483 566.963 450.385
272 0 59.2954 16.5611 982 127.248 568.17 452.953
273 0 58.2915 12.2145 712 137.819 568.667 454.68
274 0 62.5759 15.9486 998 130.878 568.693 454.958
275 0 63.2569 15.3501 971 134.422 568.172 451.268
276 0 65.3735 16.5357 1081 131.96 568.648 453.528
277 0 67.3143 15.6876 1056 136.027 567.637 451.278
278 0 70.3055 15.4469 1086 138.205 566.447 451.89
279 0 73.315 15.4811 1135 137.811 565.9 453.72
280 0 74.4237 18.2469 1358 135.541 565.191 451.345
281 0 72.2098 14.9841 1082 143.701 563.9 452.299
282 0 77.2663 14.2235 1099 145.965 561.948 448.989
283 0 80.3669 14.384 1156 145.674 560.948 448.755
284 0 84.3324 18.0951 1526 138.253 559.062 445.955
285 0 87.2639 17.2694 1507 139.433 557.509 444.162
286 0 89.2927 16.8995 1509 140.297 556.506 442.349
287 0 93.3254 15.0227 1402 141.916 555.772 443.491
288 0 93.3258 15.0119 1401 139.253 555.77 443.56
289 1 51.0632 12.9252 660 141.929 554.182 459.677
290 0 49.1244 8.85507 435 146.874 553.533 460.733
291 0 52.1442 11.0655 577 141.451 553.607 458.185
292 0 56.2605 12.2466 689 135.145 552.74 457.736
293 0 59.2074 13.7314 813 135.161 553.276 453.446
294 0 57.0731 14.5953 833 132.863 550.563 450.375
295 0 60.1263 16.8479 1013 125.97 551.521 448.513
296 0 61.1113 15.3163 936 128.754 551.604 450.526
297 0 65.0486 17.6945 1151 124.687 552.743 445.354
298 0 67.2701 15.4303 1038 123.398 554.445 452.628
299 0 67.1508 13.775 925 126.412 555.091 448.228
300 0 74.5445 16.527 1232 119.972 557.802 446.567
301 0 74.3144 19.9827 1485 115.57 559.41 444.534
302 0 78.3933 14.4528 1133 122.034 561.593 447.381
303 0 78.0928 13.4968 1054 136.727 563.135 443.949
304 0 82.2351 14.6288 1203 133.42 564.319 444.254
305 0 87.4352 15.5887 1363 129.652 566.02 443.983
306 0 89.2092 20.2894 1810 119.531 566.229 436.904
307 0 90.168 12.3436 1113 132.485 566.63 441.762
308 0 96.284 16.119 1552 126.188 566.335 442.783
309 0 95.4923 14.7761 1411 130.119 566.501 439.258
310 1 50.2985 11.5709 582 133.833 565.969 464.651
311 0 53.2944 10.2637 547 132.651 566.17 464.218
312 0 55.5032 13.9812 776 130.103 565.43 460.219
313 0 56.5657 11.6855 661 137.815 563.985 460.82
314 0 57.3013 11.6577 668 135.922 562.564 460.35
315 0 59.3432 14.5762 865 130.69 561.351 460.382
316 0 61.1299 12.8579 786 135.817 560.173 461.24
317 0 62.3579 12.8612 802 134.296 558.789 454.969
318 0 65.312 13.6575 892 132.937 557.675 454.854
319 0 66.1313 15.4087 1019 129.919 556.187 455.454
320 0 70.4813 15.0536 1061 131.994 554.379 450.746
321 0 73.6337 16.5278 1217 129.001 553.219 449.993
322 0 74.4982 13.3829 997 134.528 551.523 446.837
323 0 79.5923 20.4542 1628 122.009 551.673 444.866
324 0 80.3705 16.4862 1325 128.319 551.349 446.103
325 0 83.6416 17.0011 1422 126.957 551.327 442.184
326 0 86.522 13.4417 1163 132.29 551.132 438.957
327 0 88.9797 12.958 1153 133.96 551.239 436.143
328 1 45.7238 9.66675 442 131.027 553.314 457.452
329 0 45.2966 8.45537 383 126.99 554.548 460.258
330 0 49.2073 9.61239 473 127.588 554.425 454.22
331 0 51.2207 14.7011 753 118.954 555.428 453.693
332 0 54.157 12.9254 700 118.229 557.289 454.786
333 0 58.2616 14.8297 864 113.531 558.178 451.78
334 0 60.6673 18.4613 1120 104.258 560.236 456.855
335 0 56.3309 11.0951 625 117.31 562.754 449.978
336 0 58.3483 10.5059 613 120.002 564.858 448.974
337 0 61.1576 12.247 749 117.79 565.701 449.214
338 0 64.1545 11.3164 726 118.291 567.12 450.959
339 0 66.2352 14.5693 965 114.772 567.923 450.573
340 0 68.2395 15.4602 1055 116.011 568.447 453
341 0 71.2904 13.957 995 119.551 568.222 451.521
342 0 74.1862 13.6144 1010 120.666 567.808 449.823
343 0 75.1581 12.0147 903 126.545 567.752 449.845
344 0 77.161 11.8713 916 128.811 566.164 448.109
345 0 80.3984 12.9107 1038 126.797 566.199 448.852
346 0 83.3239 13.9216 1160 126.81 565.12 448.428
347 0 86.3056 13.5797 1172 130.321 563.916 445.634
348 0 84.4321 11.832 999 136.577 562.329 442.917
349 0 84.4069 9.99919 844 120.305 561.307 445.789
350 1 49.4786 11.4393 566 131.719 558.949 462.742
351 0 51.3234 12.8207 658 130.962 558.375 462.547
352 0 52.2941 13.2329 692 127.896 556.98 462.137
353 0 57.1929 13.2534 758 129.128 555.302 462.972
354 0 55.3522 12.0501 667 132.736 554.985 457.819
355 0 58.0453 13.0932 760 131.537 554.097 457.229
356 0 58.1482 12.7777 743 134.933 554.592 454.708
357 0 62.1372 14.5163 902 130.632 554.414 454.678
358 0 65.1912 15.3702 1002 129.513 553.838 451.971
359 0 68.3068 15.2108 1039 130.437 552.524 451.131
360 0 68.126 14.3117 975 132.385 553.069 447.526
361 0 68.2106 16.7716 1144 129.197 552.919 443.291
362 0 71.2696 14.9152 1063 132.172 552.726 440.909
363 0 74.377 15.4483 1149 129.83 554.12 443.406
364 0 75.2359 18.7012 1407 124.645 553.659 438.23
365 0 76.3062 13.5245 1032 131.744 556.115 441.48
366 0 80.3956 19.5533 1572 120.412 557.496 439.601
367 0 86.3172 19.382 1673 116.337 558.874 442.381
368 0 88.4995 20.1131 1780 116.771 560.714 437.983
369 0 93.3618 16.4843 1539 118.195 563.25 438.433
370 1 47.0428 10.9475 515 120.146 565.28 457.01
371 0 54.1308 11.3983 617 119.122 565.303 455.968
372 0 51.1781 13.3065 681 127.129 566.206 456.736
373 0 56.1402 14.3213 804 128.162 565.476 462.362
374 0 56.211 13.734 772 134.526 565.795 460.37
375 0 56.2261 13.8192 777 153.045 566.79 460.375
376 0 58.1743 16.038 933 133.436 563.783 458.779
377 0 59.1169 12.839 759 141.626 563.319 462.972
378 0 62.0895 13.5933 844 140.693 562.711 460.923
379 0 61.1099 14.2694 872 139.786 560.8 460.666
380 0 68.2194 15.6554 1068 137.106 560.449 460.878
381 0 64.0586 11.9422 765 148.45 559.374 458.995
382 0 66.0878 12.3623 817 147.368 559.293 457.785
383 0 71.2347 14.1504 1008 140.47 558.392 458.121
384 0 74.0884 13.0115 964 146.076 556.562 453.16
385 0 76.094 13.1285 999 142.502 555.412 454.652
386 0 78.0705 13.5519 1058 142.521 554.144 453.618
387 0 82.1225 16.1344 1325 135.186 553.078 451.629
388 0 85.3016 16.5882 1415 134.192 552.331 449.134
389 0 86.1438 15.4393 1330 136.172 551.972 443.629
390 1 48.0877 12.7891 615 135.208 552.987 463.82
391 0 48.0357 13.5316 650 137.486 552.105 460.772
392 0 49.0495 9.80642 481 143.674 552.27 459.834
393 0 50.0464 12.4484 623 140.451 551.726 456
394 0 51.1575 13.3705 684 132.48 551.234 457.05
395 0 51.25 11.6683 598 135.93 551.759 455.816
396 0 56.1504 13.0542 733 128.775 551.802 457.291
397 0 55.1138 10.7958 595 131.818 552.85 457.165
398 0 58.1753 14.1985 826 126.464 553.993 450.792
399 0 60.3085 12.9501 781 130.376 555.58 448.766
400 0 63.1876 14.7339 931 125.445 557.692 451.792
401 0 64.1621 15.5232 996 121.955 559.461 447.136
402 0 66.2278 11.4604 759 124.845 559.938 451.584
403 0 66.4672 11.8856 790 130.975 561.692 448.753
404 0 71.2453 14.3448 1022 128.603 563.333 448.72
405 0 73.3701 13.2206 970 132.011 563.698 445.454
406 0 76.3324 13.939 1064 132.154 564.31 447.098
407 1 38.1268 9.86183 376 138.021 567.441 464.396
408 0 37.1134 9.96943 370 134.892 568.119 466.781
409 0 39.2008 9.33654 366 138.342 567.311 463.91
410 0 43.1474 12.8397 554 132.088 567.458 465.543
411 0 44.1054 13.0369 575 133.856 566.449 465.609
412 0 44.1332 13.1647 581 133.656 566.131 467.077
413 0 43.0842 9.30735 401 143.564 563.713 464.99
414 0 47.1875 12.2914 580 138.003 561.907 467.752
415 0 52.2276 12.6561 661 138.469 561.474 465.079
416 0 52.066 13.8286 720 138.944 559.451 463.846
417 0 49.0609 14.0845 691 142.268 558.877 462.983
418 0 54.1492 13.7767 746 139.521 557.279 463.15
419 0 56.0302 14.278 800 138.061 555.876 459.705
420 0 58.2497 14.7469 859 138.347 555.659 457.531
421 0 58.0682 13.6047 790 141.889 553.505 457.577
422 0 59.1727 12.8269 759 144.397 551.822 453.144
423 0 64.1863 15.5485 998 138.017 551.072 452.759
424 0 64.2877 12.0085 772 147.92 550.636 450.189
425 0 66.1481 14.7699 977 141.394 550.415 448.879
426 0 69.3372 14.105 978 144.919 549.624 447.892
427 0 71.2825 14.0287 1000 145.908 550.252 446.699
428 0 74.2199 16.7879 1246 137.797 550.448 445.056
429 0 76.1898 14.687 1119 140.686 551.925 443.972
430 0 76.1898 14.8051 1128 148.293 552.91 443.995
431 0 83.3662 16.3256 1361 136.423 553.703 441.207
432 0 83.2446 15.6887 1306 142.368 555.197 438.265
433 0 85.4 16.8033 1435 142.206 556.833 436.975
434 0 88.4338 15.4127 1363 144.521 560.343 436.933
435 0 89.3716 14.6019 1305 148.585 561.587 434.88
436 0 95.087 24.7458 2353 122.706 561.553 443.11
437 0 96.5605 14.6126 1411 144.146 565.574 436.969
438 0 98.6143 17.0462 1681 139.443 566.284 433.015
439 0 100.413 16.2629 1633 142.534 566.168 432.494
440 0 104.491 16.5948 1734 143.191 567.106 432.186
441 0 106.454 16.6551 1773 143.556 567.498 432.61
442 0 108.302 15.8261 1714 147.686 566.665 429.341
443 0 112.445 17.1817 1932 144.738 565.954 429.483
444 0 115.43 15.2647 1762 149.339 566.012 426.965
445 0 122.444 17.2813 2116 144.566 565.169 425.418
446 0 123.389 16.9708 2094 145.196 564.438 428.428
447 0 129.398 17.4191 2254 147.061 562.816 421.813
448 0 132.607 14.7729 1959 149.19 562.355 426.381
449 0 136.322 15.3093 2087 148.163 560.702 415.664
450 0 143.691 16.6051 2386 141.969 558.904 418.195
451 0 147.426 15.6621 2309 143.814 557.869 417.71
452 0 159.659 21.5648 3443 131.255 556.263 400.604
453 0 158.557 16.3663 2595 142.961 555.22 405.978
454 0 164.348 15.5524 2556 142.906 553.587 405.53
455 0 170.598 14.5078 2475 146.965 552.755 397.517
456 0 176.461 16.9726 2995 141.753 552.122 397.155
457 1 98.4392 12.2715 1208 143.421 552.921 437.107
458 0 103.337 13.664 1412 143.146 552.191 433.296
459 0 104.292 13.2224 1379 141.961 551.368 434.905
460 0 105.311 13.0375 1373 143.091 550.505 428.499
461 0 106.229 13.4991 1434 141.887 550.197 421.323
462 0 111.227 12.8565 1430 141.555 550.977 418.038
463 0 117.568 14.783 1738 133.495 551.82 417.366
464 1 67.1174 12.5601 843 131.421 553.635 440.819
465 0 64.1244 8.95134 574 139.986 555.906 441.528
466 0 68.0852 4.96437 338 145.624 557.29 438.376
467 0 73.1439 10.9784 803 134.557 559.864 437.979
468 0 74.0617 18.0255 1335 123.924 561.837 437.288
469 0 80.1205 11.9695 959 135.149 564.419 444.314
470 0 83.2343 14.7055 1224 134.947 565.337 439.801
471 0 86.3858 14.4584 1249 134.424 567.078 437.861
472 0 89.3664 16.4379 1469 131.059 566.818 437.907
473 0 91.534 13.5469 1240 137.123 567.465 437.04
474 0 100.396 16.8831 1695 128.1 567.753 440.232
475 0 100.46 17.0715 1715 131.377 567.273 437.741
476 0 103.296 14.4148 1489 136.914 566.181 437.19
477 1 57.0822 10.9491 625 139.621 566.006 460.054
478 0 58.09 11.5166 669 140.459 565.571 459.558
479 0 61.3732 9.79254 601 141.253 565.057 459.895
480 0 62.1507 12.1479 755 136.23 563.885 458.176
481 0 66.1607 16.5506 1095 130.869 563.434 457.437
482 0 65.055 12.2358 796 139.874 560.006 457.641
483 0 68.0682 13.6628 930 136.562 556.772 455.229
484 0 70.1513 14.3832 1009 135.853 554.402 452.602
485 0 74.069 12.9609 960 137.294 553.353 450.955
486 0 74.0891 11.2702 835 140.314 552.213 450.558
487 0 78.1907 11.8684 928 136.673 551.544 452.102
488 0 81.2753 12.8329 1043 136.839 551.136 443.407
489 0 84.2624 14.2531 1201 133.33 550.734 442.369
490 0 87.2025 15.6532 1365 129.79 550.796 443.112
491 0 89.1547 16.634 1483 127.057 550.346 444.28
492 0 92.2585 15.088 1392 130.899 550.394 439.735
493 1 52.1271 13.8699 723 128.08 550.144 457.503
494 0 51.0457 10.0106 511 130.421 550.342 460.499
495 0 52.2117 9.28911 485 132.984 550.668 458.204
496 0 52.1843 12.0726 630 133.408 551.395 454.362
497 0 59.2155 13.4424 796 127.518 555.07 452.521
498 0 54.129 10.2533 555 131.483 557.092 454.847
499 0 57.2445 11.4771 657 129.995 558.24 453.317
500 0 59.2313 12.544 743 129.766 560.355 449.978
501 0 61.1127 13.5487 828 132.385 559.104 452.832
502 0 64.2281 17.8738 1148 123.956 558.689 450.159
503 0 62.0735 13.1457 816 138.261 560.178 446.237
504 0 67.0743 13.5223 907 136.476 561.591 449.14
505 0 69.1552 13.6794 946 136.462 562.091 449.826
506 0 72.1098 15.9202 1148 131.887 562.096 449.415
507 0 73.0854 15.5982 1140 135.054 563.351 449.24
508 0 75.1223 12.0337 904 143.326 563.122 447.319
509 0 78.0396 14.9283 1165 138.712 563.042 446.48
510 0 80.1151 13.9924 1121 139.952 562.764 450.119
511 0 82.1624 16.1023 1323 137.488 562.511 448.292
512 0 85.1684 14.8177 1262 137.878 561.865 448.49
513 1 46.1004 13.9261 642 133.374 559.891 469.213
514 0 50.0326 12.8316 642 138.872 559.349 467.059
515 0 49.08 9.71882 477 142.769 557.528 468.281
516 0 49.1959 12.3587 608 141.893 555.78 464.837
517 0 51.0206 10.6036 541 146.664 555.619 465.542
518 0 55.059 12.9134 711 144.831 552.817 459.519
519 0 53.0665 10.7412 570 149.27 551.854 459.839
520 0 58.297 14.1002 822 137.69 554.255 459.738
521 0 58.2552 11.6728 680 146.154 553.756 456.594
522 0 61.1035 13.8126 844 137.992 552.722 456.81
523 0 61.1035 13.9763 854 139.898 551.676 456.875
524 0 66.2748 15.4056 1021 135.024 551.8 452.211
525 0 67.0995 13.7408 922 136.974 552.123 450.56
526 0 67.0979 12.5339 841 139.018 551.968 447.558
527 0 71.1334 12.9194 919 136.653 552.553 448.152
528 0 73.1031 14.2675 1043 135.965 553.579 447.038
529 0 72.164 13.497 974 140.124 553.501 444.034
530 0 79.2681 17.548 1391 131.021 554.559 442.983
531 0 79.1377 14.9233 1181 136.251 556.166 440.828
532 0 81.2454 15.7055 1276 135.26 557.289 441.342
533 0 88.3008 17.984 1588 129.314 559.61 440.924
534 0 86.2111 13.3278 1149 144.08 561.525 438.023
535 0 88.2565 13.6534 1205 146.419 563.296 437.962
536 0 90.2268 15.7824 1424 142.797 564.428 437.796
537 1 52.1156 10.6878 557 143.443 566.068 459.02
538 0 51.0287 9.2889 474 142.633 566.73 462.949
539 0 54.2747 11.1286 604 143.772 563.882 457.224
540 0 54.2064 10.0911 547 148.978 564.872 456.554
541 0 55.2171 14.9591 826 140.919 565.084 456.396
542 0 56.2244 12.8592 723 147.385 564.607 457.256
543 0 59.0621 15.7292 929 136.064 564.385 454.229
544 0 61.097 13.8468 846 143.475 562.826 462.259
545 0 62.0532 13.3917 831 146.332 562.093 458.948
546 0 64.0636 15.8748 1017 141.338 560.435 455.449
547 0 66.0933 13.4658 890 144.73 559.707 459.155
548 0 67.0339 14.6046 979 145.408 558.888 456.057
549 0 70.0719 12.9867 910 147.573 557.526 453.141
550 0 72.0783 15.941 1149 139.992 556.451 452.667
551 0 73.1338 13.8103 1010 143.5 555.342 452.621
552 0 77.1069 15.8222 1220 139.455 554.451 450.999
553 0 80.2675 18.4882 1484 133.832 552.868 449.556
554 0 79.1639 13.2131 1046 148.511 552.18 444.758
555 0 82.0972 14.1539 1162 146.426 550.428 444.656
556 0 86.063 15.7443 1355 141.165 550.48 443.254
557 0 87.159 15.7872 1376 142.067 550.715 441.379
558 0 90.4193 16.4898 1491 143.338 551.198 436.803
559 0 92.1021 14.6142 1346 143.653 550.489 438.715
560 0 93.2355 15.6914 1463 142.033 550.662 433.723
561 1 50.0667 12.6232 632 143.786 550.179 454.983
562 0 53.0844 14.4675 768 135.786 551.633 457.829
563 0 56.1248 14.3787 807 136.839 553.244 454.755
564 0 52.1685 12.613 658 142.649 554.296 456.263
565 0 55.09 12.3616 681 143.79 555.451 453.57
566 0 56.0961 12.8529 721 141.265 558.7 452.595
567 0 60.4464 13.847 837 134.906 561.876 451.27
568 0 62.3112 16.0164 998 129.592 563.631 451.131
569 0 64.2199 13.7341 882 131.74 564.922 452.618
570 0 64.1784 13.8832 891 135.726 565.378 451.866
571 0 66.1413 14.0759 931 134.858 565.811 455.19
572 0 68.1537 16.1693 1102 136.27 566.896 453.693
573 0 68.1537 16.0813 1096 145.512 568.894 453.648
574 0 71.2313 14.6565 1044 142.448 565.935 452.061
575 0 75.0991 15.4196 1158 145.026 566.442 453.031
576 0 77.2779 16.6671 1288 137.668 565.908 453.311
577 1 39.1228 12.2691 480 141.023 566.267 473.84
578 0 42.0878 13.2342 557 145.408 565.555 471.427
579 0 42.1378 13.622 574 145.441 564.023 473.286
580 0 40.1882 10.1771 409 152.623 563.122 471.44
581 0 44.1322 10.2646 453 152.349 561.647 471.3
582 0 45.11 10.4855 473 150.047 560.689 471.078
583 0 50.2033 12.788 642 144.072 558.866 470.427
584 0 48.0881 13.2257 636 143.533 559.368 468.465
585 0 52.0779 14.2479 742 141.443 556.416 469.706
586 0 53.2311 11.065 589 147.696 555.572 469.886
587 0 53.2458 12.5831 670 147.796 554.861 464.493
588 0 59.2622 14.6805 870 138.654 554.126 466.97
589 0 57.1211 13.06 746 143.708 553.315 464.428
590 0 61.1504 13.0171 796 143.109 552.075 462.975
591 0 61.13 13.4468 822 143.946 551.335 461.4
592 0 66.3095 16.5587 1098 136.6 550.984 459.183
593 0 67.2553 16.3407 1099 135.662 550.965 458.187
594 0 69.3291 14.2509 988 141.778 550.944 455.69
595 0 70.3803 15.2742 1075 138.564 550.988 456.645
596 0 73.4062 15.5981 1145 138.059 551.544 456.645
597 0 76.4437 16.0118 1224 141.463 552.13 451.542
598 0 77.2883 12.848 993 151.485 553.487 451.797
599 1 42.0825 10.6933 450 148.291 556.353 470.556
600 0 43.0291 10.8764 468 149.248 557.212 469.545
601 0 45.1355 12.0083 542 146.69 559.467 470.5
602 0 45.1163 11.1933 505 153.473 560.697 467.077
603 0 47.1532 11.9398 563 152.194 560.393 468.737
604 0 48.1069 12.7009 611 154.043 561.63 464.993
605 0 50.1104 13.8295 693 147.482 561.717 466.84
606 0 50.1091 13.9296 698 150.696 562.606 465.153
607 0 53.0387 15.0833 800 143.536 562.778 467.09
608 0 55.0493 12.4616 686 149.805 561.808 467.131
609 0 58.1259 15.4664 899 139.786 561.693 467.935
610 0 58.0679 13.3981 778 146.575 561.662 466.132
611 0 64.1192 14.7226 944 141.843 560.43 466.604
612 0 63.1924 14.6062 923 142.498 559.397 462.608
613 0 64.2474 13.0745 840 148.407 558.118 462.38
614 0 68.2465 16.0594 1096 140.091 556.669 461.137
615 0 69.1813 14.7583 1021 143.038 555.777 461.487
616 0 75.2819 18.8491 1419 131.736 553.965 461.615
617 0 76.211 17.1104 1304 137.576 552.485 456.313
618 0 80.444 19.3054 1553 130.351 551.634 455.617
619 0 79.1389 14.3798 1138 143.535 550.583 452.838
620 0 83.3058 16.0733 1339 142.622 548.879 449.604
621 0 85.2167 15.842 1350 141.397 548.269 447.417
622 0 88.3028 14.5749 1287 145.986 548.427 444.765
623 1 47.0532 12.1139 570 148.967 548.737 461.932
624 0 49.0243 12.8304 629 145.588 548.728 462.108
625 0 52.1736 13.0334 680 145.412 548.694 460.581
626 0 51.0525 12.6732 647 149.691 549.578 458.229
627 0 55.2123 13.7288 758 146.978 549.584 454.453
628 0 56.2103 14.5169 816 145.761 550.873 452.952
629 0 58.0319 12.7171 738 147.488 552.615 455.608
630 0 58.0574 13.9517 810 146.828 552.388 452.296
631 0 59.03 14.0606 830 148.198 554.187 450.201
632 0 59.1503 13.2713 785 142.568 554.962 451.499
633 0 65.1311 15.9678 1040 139.552 556.341 448.665
634 0 68.1378 18.4039 1254 133.701 558.489 452.435
635 0 68.1051 14.0518 957 146.955 560.277 450.86
636 0 71.12 14.7778 1051 147.474 562.031 450.739
637 0 71.106 14.0073 996 154.643 562.759 447.823
638 0 74.1156 14.1536 1049 151.663 563.728 449.591
639 0 77.1322 15.0391 1160 151.149 564.47 448.304
640 0 77.2117 12.8737 994 158.024 564.595 448.796
641 1 41.1282 9.6041 395 151.005 564.137 470.096
642 0 42.1616 10.6258 448 153.79 563.444 466.866
643 0 44.0421 10.3991 458 152.013 562.627 467.908
644 0 46.0712 12.4373 573 143.717 562.806 467.796
645 0 45.0376 12.7005 572 143.673 561.351 467.316
646 0 47.0916 12.911 608 145.097 561.454 466.561
647 0 49.1087 14.8039 727 141.4 560.385 466.12
648 0 50.1143 10.7754 540 148.933 558.967 467.844
649 0 53.0802 13.489 716 144.225 557.696 466.078
650 0 55.0792 13.6531 752 141.226 557.02 464.09
651 0 56.0511 14.7365 826 141.416 554.99 465.04
652 0 57.0942 12.961 740 142.909 553.814 461.72
653 0 59.0529 15.5623 919 134.583 552.436 461.159
654 0 61.072 16.6034 1014 130.019 551.399 459.795
655 0 63.0582 15.5095 978 136.098 551.421 456.005
656 0 66.1327 15.2723 1010 134.575 550.63 452.557
657 0 68.2088 13.444 917 137.725 550.027 452.704
658 0 68.2 12.8152 874 140.073 550.565 450.474
659 0 71.1895 14.4825 1031 136.66 550.96 448.299
660 0 74.17 15.1274 1122 135.291 551.122 446.144
661 1 44.2597 10.7095 474 136.88 553.27 462.194
662 0 39.0129 12.1242 473 136.647 553.461 463.038
663 0 43.021 11.7849 507 136.404 555.726 461.886
664 0 42.0475 12.5572 528 133.445 557.04 461.347
665 0 45.0826 13.9744 630 129.2 556.719 461.506
666 0 44.2246 9.94922 440 140.216 558.059 460.241
667 0 46.1662 14.0796 650 134.858 560.062 460.906
668 0 46.1864 12.0382 556 139.987 561.739 459.023
669 0 49.2025 14.4911 713 139.369 563.871 460.38
670 0 48.1323 13.172 634 148.377 563.44 459.151
671 0 52.2371 15.1808 793 139.842 565.067 459.818
672 0 52.0914 12.67 660 147.598 565.573 461.641
673 0 54.0827 11.9447 646 152.759 565.195 461.02
674 0 54.1647 13.1266 711 153.253 565.141 458.809
675 0 58.1206 13.5408 787 151.647 564.31 461.241
676 0 59.1962 14.1563 838 151.957 564.249 460.038
677 0 65.1555 15.0563 981 146.196 562.754 463.358
678 0 64.1928 12.369 794 157.052 561.351 460.306
679 0 66.096 13.783 911 154.67 560.075 459.414
680 0 65.1497 14.0599 916 156.727 558.311 456.104
681 0 68.1551 12.9557 883 158.345 557.486 457.878
682 0 72.0561 14.7802 1065 150.315 555.802 457.372
683 0 73.0968 12.9144 944 156.153 554.403 454.358
684 1 44.0929 11.3624 501 151.988 552.471 469.24
685 0 43.0304 12.0612 519 151.087 551.453 467.62
686 0 43.0248 9.71532 418 156.014 550.242 466.555
687 0 47.057 12.2192 575 149.123 549.367 465.499
688 0 48.1209 12.7387 613 149.848 549.514 462.219
689 0 47.16 13.2316 624 149.744 549.718 458.644
690 0 50.0634 15.2207 762 143.451 548.829 457.19
691 0 51.1188 12.4612 637 150.476 547.92 455.81
692 0 55.0992 15.2452 840 143.354 548.344 454.061
693 0 56.0392 19.183 1075 133.727 549.269 452.779
694 0 57.1077 12.8529 734 145.827 549.809 454.317
695 0 59.0753 13.0173 769 142.242 551.222 452.209
696 0 60.1282 14.6188 879 140.317 552.535 449.498
697 0 63.1415 14.6813 927 143.193 553.453 449.427
698 0 64.2253 16.4577 1057 137.569 555.684 450.273
699 0 67.1259 14.5101 974 139.854 558.026 448.864
700 0 68.1491 18.166 1238 132.07 559.16 448.771
701 0 70.0847 15.3386 1075 141.714 560.583 446.327
702 1 36.0301 11.0186 397 148.383 561.322 464.859
703 0 40.0484 10.5373 422 151.623 562.839 464.263
704 0 41.1769 10.3942 428 151.329 563.203 465.715
705 0 40.1113 12.7146 510 146.451 563.669 465.482
706 0 40.1162 10.32 414 151.014 563.785 466.435
707 0 45.1922 13.2988 601 143.854 563.271 465.047
708 0 45.0841 12.3991 559 149.236 563.408 465.97
709 0 47.0403 13.5628 638 141.307 562.455 465.398
710 0 48.1255 12.8622 619 142.953 561.212 464.321
711 0 49.1922 13.2135 650 145.248 559.886 463.485
712 0 48.1967 13.1752 635 147.452 559.006 463.649
713 0 48.1967 13.1752 635 142.441 559.006 463.649
714 0 52.061 12.7543 664 148.672 556.995 463.736
715 0 53.0492 12.1397 644 147.938 555.205 461.439
716 0 58.0766 16.0306 931 134.084 553.752 461.219
717 0 59.0781 15.1325 894 131.917 552.105 460.662
718 0 60.1076 16.903 1016 133.945 550.997 457.513
719 0 62.1365 16.3511 1016 133.38 550.443 453.596
720 0 64.1438 15.7459 1010 134.369 548.972 453.716
721 0 65.0897 14.9332 972 137.029 548.085 453.23
722 0 69.045 15.7144 1085 135.802 548.145 451.961
723 0 71.1493 17.2173 1225 132.014 548.087 447.878
724 0 74.125 16.1349 1196 134.742 548.526 447.06
725 0 73.1514 15.1193 1106 137.669 548.655 446.851
726 0 77.1323 16.9579 1308 133.868 549.765 445.452
727 0 81.1966 16.1583 1312 135.522 550.228 445.085
728 1 42.0772 10.6233 447 142.201 551.347 461.819
729 0 43.1198 9.74031 420 141.314 552.264 461.055
730 0 46.1161 11.4494 528 139.924 554.811 458.852
731 0 46.217 12.2249 565 137.717 556.765 461.425
732 0 46.3057 12.6334 585 143.292 560.248 460.149
733 0 48.0323 12.5332 602 133.301 560.362 461.914
734 0 52.1051 12.1869 635 134.932 561.92 460.98
735 0 55.1979 14.1853 783 130.171 565.52 464.853
736 0 54.2417 14.0482 762 138.013 566.119 459.944
737 0 57.0398 13.061 745 139.844 566.74 464.639
738 0 56.0827 11.9645 671 144.285 567.174 462.213
739 0 59.1011 14.7544 872 138.842 566.273 464.853
740 0 61.1589 15.3534 939 138.521 565.711 463.23
741 0 61.0734 16.8158 1027 138.497 565.069 460.296
742 0 66.1528 16.22 1073 137.775 563.976 463.223
743 0 67.1818 12.6373 849 148.768 562.489 462.815
744 0 70.1547 15.4943 1087 143.665 561.306 460.518
745 0 70.0408 15.234 1067 145.644 559.418 460.703
746 1 43.0233 11.6216 500 144.744 558.074 478.254
747 0 40.0422 11.4379 458 148.67 556.124 477.334
748 0 40.023 10.2941 412 153.303 555.158 475.762
749 0 42.0492 11.7957 496 149.522 553.905 475.675
750 0 43.0511 12.0554 519 151.235 552.944 471.247
751 0 43.092 10.8605 468 151.874 552.455 470.47
752 0 48.0627 15.4174 741 141.04 551.783 469.837
753 0 51.1055 17.1214 875 133.235 551.689 470.121
754 0 50.1034 11.0372 553 152.28 550.537 470.609
755 0 51.148 13.021 666 148.242 550.584 467.796
756 0 51.0715 13.1776 673 147.429 549.615 466.597
757 0 51.0715 13.2951 679 137.772 549.638 466.533
758 0 57.1173 14.0063 800 144.594 551.112 465.8
759 0 57.0888 15.5022 885 143.058 551.114 461.344
760 0 59.1717 13.9594 826 146.177 552.012 461.136
761 0 61.1775 13.4036 820 147.401 552.824 461.451
762 0 61.0798 14.7184 899 147.012 553.88 458.181
763 0 65.1427 17.1009 1114 140.376 555.435 459.99
764 0 65.131 14.0793 917 149.041 557.533 458.365
765 0 69.2151 17.2072 1191 141.069 558.431 457.109
766 0 69.2038 13.9877 968 151.911 559.496 456.169
767 0 72.1699 14.5906 1053 145.756 560.335 453.713
768 1 38.0678 9.7983 373 150.82 562.29 471.799
769 0 40.0957 12.2706 492 143.333 563.108 474.274
770 0 42.075 12.3351 519 143.432 563.549 471.963
771 0 43.0292 11.6665 502 145.106 562.992 475.978
772 0 42.3323 14.4098 610 141.713 559.91 472.28
773 0 45.1305 13.0289 588 140.704 559.932 475.318
774 0 47.088 13.8039 650 140.514 559.591 473.695
775 0 48.1369 13.5239 651 142.313 558.849 475.275
776 0 50.1049 12.2942 616 146.336 557.247 474.627
777 0 52.1163 13.4507 701 143.765 555.723 475.494
778 0 53.2052 13.213 703 143.95 554.468 473.511
779 0 52.1067 17.253 899 137.107 553.793 472.882
780 0 55.0658 12.5123 689 145.782 550.984 471.919
781 0 55.1262 13.333 735 144.739 549.615 468.169
782 0 54.141 11.1006 601 150.845 548.361 468.068
783 0 59.1724 13.4522 796 146.612 547.27 464.324
784 0 61.1595 14.9936 917 143.649 546.379 463.942
785 0 62.1498 13.1939 820 145.81 545.993 462.554
786 0 66.1542 15.615 1033 136.076 545.015 464.396
787 0 66.1366 13.3058 880 141.109 544.306 458.678
788 0 68.1352 13.121 894 135.982 544.256 459.226
789 1 37.0726 9.5758 355 141.073 543.518 470.569
790 0 39.212 9.79293 384 142.732 543.766 468.029
791 0 39.0378 12.3214 481 135.663 544.541 468.445
792 0 43.0821 14.1358 609 132.023 544.411 465.856
793 0 43.0416 11.1288 479 136.574 545.491 466.468
794 0 44.0477 13.054 575 134.08 546.478 463.553
795 0 43.0645 13.7236 591 129.425 548.139 462.477
796 0 46.4393 12.0588 560 129.784 550.389 457.984
797 0 48.4845 15.2832 741 127.426 552.507 458.933
798 0 48.1483 19.9384 960 120.827 553.411 458.907
799 0 48.0706 14.3123 688 135.529 554.696 459.372
800 0 50.0561 18.5592 929 122.875 556.604 457.544
801 0 51.1717 14.5002 742 132.577 557.871 456.601
802 0 56.2799 15.956 898 128.817 561.751 461.719
803 0 57.1147 20.0999 1148 120.648 562.894 463.412
804 0 57.0527 13.4262 766 151.124 563.221 462.24
805 0 57.0999 13.8179 789 152.346 563.902 461.697
806 0 59.1615 15.1112 894 149.309 563.406 460.789
807 0 61.1164 17.2949 1057 145.52 563.933 461.138
808 0 61.0537 13.7584 840 154.279 563.523 462.579
809 0 65.3189 13.6714 893 153.94 562.367 463.103
810 0 66.14 16.2232 1073 150.521 561.199 459.163
811 0 69.0708 14.3186 989 151.068 560.661 462.627
812 0 72.2088 15.4275 1114 152.583 560.268 459.68
813 0 74.3152 16.134 1199 151.696 559.344 457.414
814 0 72.2603 13.9357 1007 159.553 558.223 454.786
815 1 41.2605 12.2635 506 159.522 556.696 471.696
816 0 41.2191 8.73382 360 164.239 555.111 472.375
817 0 45.2147 12.4738 564 159.113 554.598 467.718
818 0 46.3644 13.9547 647 156.27 553.587 464.419
819 0 47.2677 13.1803 623 155.106 552.549 466.942
820 0 48.1846 12.9294 623 159.456 552.43 463.486
821 0 49.2727 11.893 586 157.667 551.137 460.976
822 0 52.2145 14.0957 736 144.875 550.811 461.885
823 0 53.1127 13.3866 711 144.965 550.17 461.774
824 0 54.0855 14.1443 765 146.4 550.856 457.119
825 0 57.1243 17.3831 993 138.782 551.568 454.611
826 0 58.2256 13.7053 798 147.422 552.42 455.302
827 0 62.1349 14.3398 891 141.816 553.54 454.045
828 0 64.1308 18.1036 1161 134.85 554.786 450.543
829 0 64.0941 13.3242 854 144.426 556.533 453.062
830 0 66.1925 13.3399 883 144.342 557.846 450.504
831 0 69.1701 15.339 1061 140.781 559.975 447.847
832 0 72.0721 14.097 1016 145.758 561.671 447.451
833 0 74.2654 16.8181 1249 140.271 563.731 447.507
834 1 41.0799 10.37 426 144.92 565.69 468.901
835 0 40.0495 9.2136 369 149.824 566.201 467.515
836 0 43.0857 13.1134 565 143.288 566.131 466.094
837 0 45.0692 11.6044 523 148.996 567.482 467.446
838 0 44.179 12.1551 537 151.803 567.11 467.227
839 0 50.247 12.4585 626 147.722 566.684 466.353
840 0 49.2414 14.5609 717 148.551 566.473 465.47
841 0 49.0501 14.7808 725 149.091 565.903 469.641
842 0 51.153 15.483 792 149.083 565.197 467.448
843 0 52.1092 13.3949 698 155.42 563.711 467.884
844 0 55.2242 14.5769 805 151.561 562.484 467.687
845 0 54.1143 13.6008 736 154.898 561.524 463.542
846 0 58.0916 13.9779 812 153.284 561.491 465.644
847 0 60.1928 14.8191 892 150.831 559.806 462.154
848 0 62.2733 14.5809 908 151.852 557.949 460.123
849 0 67.4373 14.9917 1011 148.511 556.694 462.521
850 0 69.1707 14.4136 997 147.487 554.773 460.964
851 0 70.361 15.4489 1087 146.238 553.472 455.989
852 0 72.3254 15.9695 1155 147.121 552.051 455.835
853 0 75.5885 13.547 1024 153.886 551.511 452.727
854 0 78.6894 15.6057 1228 148.962 551.386 449.897
855 0 81.5673 16.5385 1349 146.275 551.248 446.615
856 0 82.3814 15.7439 1297 147.545 551.558 444.658
857 1 46.1896 12.5136 578 148.749 551.5 460.747
858 0 46.4043 13.5117 627 144.818 551.592 461.257
859 0 47.3196 13.3137 630 146.421 552.514 460.773
860 0 48.1756 12.8488 619 149.57 552.389 459.17
861 0 51.1987 15.1566 776 140.889 552.416 461.894
862 0 52.1863 12.7811 667 149.655 553.346 461.204
863 0 57.4383 14.0325 806 140.475 556.937 456.84
864 0 57.362 13.4061 769 146.501 557.862 453.698
865 0 60.2217 17.2031 1036 132.453 559.296 453.614
866 0 62.2797 14.6276 911 138.474 560.789 452.16
867 0 62.2675 12.6711 789 149.033 561.991 456.896
868 0 63.3293 11.7323 743 150.116 563.223 455.318
869 0 67.2582 15.3439 1032 143.565 563.432 455.711
870 0 66.2105 14.6503 970 148.672 564.09 452.624
871 0 70.2716 13.9886 983 148.509 564.557 452.647
872 0 71.3703 13.7172 979 150.632 564.352 451.328
873 0 74.4058 13.7086 1020 149.089 563.469 452.773
874 0 76.29 15.6377 1193 144.505 563.64 452.303
875 0 82.3526 16.2836 1341 141.744 563.7 453.266
876 0 81.2671 13.8186 1123 147.996 562.744 450.215
877 0 85.1982 15.2703 1301 143.987 561.135 447.721
878 0 87.1679 15.82 1379 141.426 559.921 444.499
879 0 92.268 14.9131 1376 140.81 558.51 445.85
880 0 96.2027 14.4175 1387 142.393 557.492 443.475
881 0 99.2512 17.3701 1724 135.722 555.405 441.404
882 1 44.0306 10.311 454 139.899 554.106 471.872
883 0 45.0767 12.3567 557 137.187 552.925 469.767
884 0 45.23 11.8063 534 136.331 552.601 465.358
885 0 50.1304 15.1206 758 127.785 549.698 467.153
886 0 49.1698 15.4567 760 129.255 549.653 463.908
887 0 51.4274 12.9892 668 135.469 549.728 461.512
888 0 52.4009 13.912 729 132.616 548.996 460.83
889 0 55.254 16.1074 890 128.493 548.58 459.053
890 0 55.1523 13.1998 728 133.889 549.165 456.76
891 0 58.2794 16.2665 948 127.309 549.397 455.285
892 0 65.6214 16.58 1088 122.615 549.594 455.188
893 0 65.4226 13.558 887 130.759 550.167 453.292
894 0 65.2409 15.0366 981 130.236 550.846 450.845
895 0 65.2016 15.107 985 134.908 552.23 449.907
896 0 68.2581 16.1446 1102 130.429 553.609 449.308
897 0 70.5181 14.8472 1047 130.926 555.354 448.225
898 0 73.4265 15.5802 1144 130.74 557.428 446.495
899 1 42.3468 13.3658 566 133.663 560.177 463.226
900 0 38.5777 8.89115 343 145.685 561.227 462.19
901 0 42.4532 11.6599 495 143.802 562.042 458.895
902 0 47.5546 13.332 634 137.065 563.427 460.708
903 0 48.355 14.1247 683 138.127 563.605 461.816
904 0 47.0483 12.0727 568 141.706 562.37 465.933
905 0 50.0206 15.1538 758 135.811 562.624 462.493
906 0 52.2488 13.34 697 137.03 562.593 465.973
907 0 54.0328 13.0291 704 142.031 562.129 465.967
908 0 54.0452 13.8403 748 143.306 561.948 464.134
909 0 54.1179 13.0825 708 144.054 561.151 464.162
910 0 57.0404 13.5343 772 143.54 560.806 463.32
911 0 58.0321 14.1129 819 143.62 559.803 461.084
912 0 62.0784 15.7382 977 138.019 558.882 461.116
913 0 61.0574 14.4127 880 142.767 557.783 458.32
914 0 63.0449 14.3231 903 142.116 556.558 457.865
915 0 67.0443 17.3915 1166 134.169 555.419 459.087
916 0 67.1073 17.5093 1175 136.237 554.371 453.07
917 0 68.1664 12.2641 836 146.547 552.55 452.929
918 0 71.0788 16.4043 1166 135.805 551.954 456.065
919 0 74.1331 15.5531 1153 136.853 551.044 453.46
920 0 78.1168 13.9535 1090 138.892 551.19 448.06
921 0 77.2199 14.776 1141 138.919 550.564 445.066
922 0 82.128 14.5139 1192 138.218 550.821 442.727
923 1 42.0212 11.4466 481 132.449 550.272 463.983
924 0 42.0291 10.6355 447 129.579 550.671 465.107
925 0 44.2258 13.0919 579 127.796 550.893 459.959
926 0 46.1817 13.0355 602 127.651 551.327 459.563
927 0 50.1471 15.0158 753 120.704 552.607 456.481
928 0 49.2877 14.6081 720 124.064 553.66 455.297
929 0 51.2232 12.5529 643 128.557 555.323 454.6
930 0 54.2858 15.0316 816 121.543 557.782 455.439
931 0 54.1158 15.7994 855 124.346 559.67 451.961
932 0 55.1817 13.229 730 130.23 560.989 454.952
933 0 60.2007 16.7772 1010 120.477 562.85 454.148
934 0 58.259 13.3027 775 129.617 563.581 454.317
935 0 60.3066 13.6469 823 131.566 565.186 453.87
936 0 62.1646 14.1238 878 132.655 566.259 452.73
937 0 63.1843 14.8929 941 133.06 566.255 456.368
938 0 67.1711 16.2123 1089 129.502 566.797 456.613
939 0 67.251 15.1076 1016 132.822 565.938 453.998
940 0 72.3726 16.6085 1202 130.776 565.775 453.708
941 0 74.3408 16.5051 1227 133.248 565.508 453.374
942 0 75.2032 15.4249 1160 136.934 564.127 453.095
943 0 76.1353 14.0933 1073 143.565 564.101 454.428
944 1 42.0682 12.7888 538 146.792 562.48 470.677
945 0 41.1187 11.1385 458 153.459 561.251 469.061
946 0 41.2116 10.895 449 153.909 560.886 470.846
947 0 44.0918 12.7008 560 148.43 559.421 469.436
948 0 47.0588 14.8325 698 144.417 559.665 468.401
949 0 47.1819 14.2004 670 146.566 557.382 467.725
950 0 50.2533 14.5463 731 144.699 554.785 462.518
951 0 52.1419 16.6661 869 137.267 552.381 463.574
952 0 54.0487 15.2085 822 138.826 552.036 461.925
953 0 55.128 16.3256 900 136.01 551.958 461.606
954 0 57.0917 15.3612 877 139.66 551.753 457.171
955 0 59.155 15.7721 933 138.438 551.175 455.013
956 0 58.0689 14.0523 816 144.303 552.033 454.308
957 0 63.0316 17.3722 1095 134.079 551.486 450.815
958 0 66.147 18.2019 1204 130.086 552.238 450.444
959 0 66.11 13.6742 904 137.883 552.862 450.158
960 0 70.1991 16.3962 1151 133.706 552.92 446.148
961 1 36.0821 13.4416 485 133.313 554.511 461.179
962 0 38.0159 9.73278 370 142.668 555.765 461.238
963 0 41.0346 14.4025 591 132.87 557.897 460.919
964 0 41.0633 14.709 604 133.038 559.111 459.233
965 0 41.0926 14.1388 581 139.014 560.454 460.761
966 0 45.0297 13.9686 629 133.948 563.936 464.243
967 0 46.0789 16.1028 742 131.623 564.571 460.864
968 0 50.1269 14.9421 749 129.072 566.227 462.832
969 0 49.0737 15.222 747 134.89 566.719 461.408
970 0 50.0851 15.2341 763 135.684 566.474 463.077
971 0 51.0997 14.2858 730 139.274 566.821 464.332
972 0 53.1935 13.7611 732 141.284 567.053 463.283
973 0 55.089 17.2267 949 132.549 566.647 461.701
974 0 57.2548 15.8065 905 136.908 565.476 464.278
975 0 58.1481 14.0847 819 144.675 565.404 461.774
976 0 60.2878 12.4735 752 144.71 563.992 463.367
977 0 61.1456 14.6045 893 144.806 562.633 462.088
978 0 63.2995 14.2971 905 143.733 561.466 460.611
979 0 67.2788 14.4622 973 142.458 560.822 461.299
980 0 68.0824 16.715 1138 140.496 558.772 458.014
981 0 68.2394 14.8594 1014 144.181 556.868 455.34
982 0 70.182 16.6852 1171 142.665 555.666 452.967
983 0 73.2344 13.5319 991 143.813 554.276 454.752
984 0 80.7328 18.6417 1505 129.15 553.876 448.512
985 0 82.7009 17.8716 1478 130.34 552.668 446.618
986 0 82.4922 13.6255 1124 139.613 552.43 446.413
987 0 85.3953 15.5044 1324 135.537 551.437 441.356
988 0 89.8003 16.6926 1499 130.601 550.894 440.128
989 0 90.8879 13.104 1191 135.881 551.125 439.149
990 0 95.4318 17.1327 1635 128.024 550.405 431.928
991 1 48.1162 14.8183 713 125.865 551.567 455.811
992 0 53.1641 13.4301 714 126.885 551.511 455.508
993 0 53.122 14.2502 757 123.328 552.243 454.703
994 0 55.2092 18.0224 995 123.285 553.583 449.057
995 0 60.1912 18.0591 1087 121.037 555.344 450.21
996 0 60.1539 14.4463 869 134.22 556.735 445.976
997 0 63.4692 15.1727 963 129.363 558.395 447.675
998 0 64.4178 12.776 823 135.197 561.026 448.247
999 0 67.298 14.2501 959 133.918 561.946 446.206
1000 0 70.2273 13.6272 957 137.864 562.958 446.421
1001 0 72.254 14.1584 1023 144.628 564.55 445.176
1002 0 74.3345 15.2957 1137 143.817 564.773 442.54
1003 0 76.1517 16.5985 1264 142.4 565.21 443.826
1004 1 40.2282 13.8211 556 137.032 566.281 462.691
1005 0 40.1422 11.26 452 150.15 567.002 465.241
1006 0 42.1744 13.3256 562 148.253 566.795 464.689
1007 0 46.3954 15.5619 722 143.978 567.267 465.434
1008 0 46.1078 15.5505 717 145.23 566.664 466.356
1009 0 48.3779 14.9035 721 148.748 566.857 465.019
1010 0 49.4681 16.071 795 148.927 565.454 463.546
1011 0 50.1012 15.5485 779 151.714 564.209 463.773
1012 0 51.1131 15.3581 785 155.241 563.485 465.382
1013 0 54.4774 15.0888 822 154.758 561.698 463.944
1014 0 54.164 14.3638 778 160.657 560.266 461.481
1015 0 58.475 16.5712 969 154.122 558.66 460.283
1016 0 60.2327 15.3073 922 157.838 556.304 458.313
1017 0 60.39 14.9694 904 157.749 555.659 457.585
1018 0 66.3971 16.3411 1085 152.033 555.042 457.647
1019 0 68.3618 17.4805 1195 149.682 553.888 454.073
1020 0 70.474 17.5242 1235 149.484 553.223 454.217
1021 0 74.3451 16.3293 1214 152.224 552.607 454.333
1022 0 73.4055 15.3531 1127 153.644 552.585 450.354
1023 0 79.3767 16.8185 1335 147.261 551.603 448.086
1024 0 83.5204 17.2054 1437 147.507 552.233 448.296
1025 0 85.4373 18.1771 1553 147.624 552.169 443.965
1026 0 86.5236 17.3594 1502 151.136 552.744 443.108
1027 0 90.5175 18.6594 1689 146.323 553.026 443.31
1028 0 93.294 18.3399 1711 148.858 553.782 439.879
1029 0 96.3882 18.6122 1794 145.679 555.125 441.161
1030 0 98.2871 16.2687 1599 152.717 556.717 439.058
1031 1 54.1252 12.9145 699 153.587 558.491 459.916
1032 0 56.2313 11.9506 672 159.073 560.646 458.902
1033 0 56.1579 10.7376 603 162.342 561.844 460.292
1034 0 62.2849 15.8786 989 148.898 563.126 459.867
1035 0 65.2121 14.0771 918 154.399 564.647 458.345
1036 0 64.1142 16.1743 1037 154.598 564.563 455.527
1037 0 65.1995 14.0952 919 159.245 565.67 456.915
1038 0 70.202 16.6377 1168 150.094 565.092 459.881
1039 0 72.107 15.1996 1096 156.891 565.052 458.448
1040 0 76.1798 15.5422 1184 155.23 564.954 458.764
1041 0 78.1747 15.4909 1211 156.596 563.89 457.306
1042 0 80.1068 14.2934 1145 158.731 563.591 457.292
1043 0 83.1542 16.0425 1334 155.295 561.388 456.32
1044 0 84.2164 13.4772 1135 161.936 559.656 452.509
1045 1 41.0934 8.78487 361 153.532 560.144 478.006
1046 0 46.0892 10.8702 501 147.559 557.541 476.118
1047 0 46.0098 11.8236 544 147.972 555.494 473.781
1048 0 47.0321 12.0131 565 147.158 553.906 472.896
1049 0 47.0387 11.6075 546 150.679 552.698 470.769
1050 0 49.0178 11.5264 565 150.312 550.901 468.554
1051 0 50.1068 11.9545 599 150.387 549.371 466.71
1052 0 52.0608 15.9237 829 137.937 549.277 463.859
1053 0 55.0476 13.7336 756 138.705 549.304 465.532
1054 0 55.0747 14.1626 780 139.362 549.067 461.737
1055 0 55.0857 14.1961 782 140.027 548.907 461.78
1056 0 57.0958 14.2918 816 138.625 548.409 456.833
1057 0 59.0703 14.305 845 139.483 549.383 456.862
1058 0 60.0239 14.6942 882 139.404 548.866 454.841
1059 0 62.3269 13.9105 867 142.273 549.787 454.873
1060 0 64.1569 16.4752 1057 136.124 550.806 452.376
1061 0 66.0457 15.2924 1010 140.08 551.404 450.629
1062 0 68.1459 15.775 1075 138.717 552.37 450.059
1063 0 70.2181 15.1243 1062 140.319 552.433 446.158
1064 0 72.2013 15.1105 1091 141.306 556.148 442.767
1065 0 73.1059 18.0834 1322 138.095 557.601 445.454
1066 0 77.1505 16.0854 1241 138.463 559.023 445.126
1067 0 79.1062 13.0458 1032 144.705 560.491 447.069
1068 0 80.0676 13.5261 1083 148.237 562.113 443.125
1069 0 82.2074 13.989 1150 149.363 563.187 440.237
1070 0 83.1212 13.2698 1103 148.546 565.041 442.373
1071 0 88.1402 13.3424 1176 147.291 565.065 445.008
1072 1 43.0388 8.15543 351 149.519 565.396 462
1073 0 49.1959 13.802 679 137.51 565.265 460.284
1074 0 51.0708 11.7092 598 140.552 565.105 461.967
1075 0 51.1329 12.9662 663 143.925 565.852 463.449
1076 0 51.1315 12.2234 625 142.018 566.01 462.605
1077 0 54.1054 10.9601 593 145.86 564.145 463.789
1078 0 54.0892 13.9399 754 140.573 564.301 463.964
1079 0 57.2413 12.0018 687 141.591 563.017 463.246
1080 0 57.0784 12.7194 726 142.946 561.785 459.015
1081 0 60.1622 12.4995 752 142.894 561.871 460.876
1082 0 60.1226 11.7427 706 146.613 560.133 454.868
1083 0 63.1328 13.2102 834 142.132 558.731 454.929
1084 0 64.1397 10.3992 667 146.723 557.646 455.997
1085 0 69.1799 12.229 846 140.656 556.196 453.667
1086 0 70.2289 11.9609 840 139.802 554.568 453.714
1087 0 71.2894 12.0214 857 137.12 553.672 450.609
1088 0 74.3147 12.6085 937 135.624 552.948 449.578
1089 1 39.0772 8.59836 336 137.789 552.705 466.179
1090 0 42.0367 9.03971 380 137.358 552.997 464.334
1091 0 39.0652 7.47468 292 141.397 552.911 462.325
1092 0 43.0322 10.0622 433 133.145 553.589 459.774
1093 0 45.0479 13.0528 588 127.985 553.486 458.046
1094 0 45.0546 10.8091 487 132.158 553.7 456.741
1095 0 49.1904 11.6893 575 127.059 552.273 455.569
1096 0 52.0777 14.728 767 121.777 553.996 456.819
1097 0 52.0484 14.7363 767 120.714 555.392 455.202
1098 0 53.3078 14.7821 788 120.49 557.881 451.777
1099 0 54.2057 11.6962 634 125.997 559.662 456.615
1100 0 55.2743 10.0951 558 128.996 561.201 454.907
1101 0 60.4336 13.8168 835 125.479 562.514 449.703
1102 0 61.2276 13.6376 835 124.576 564.457 450.02
1103 0 64.3017 12.488 803 129.416 565.306 450.704
1104 0 66.1349 14.1226 934 125.092 566.15 453.909
1105 0 69.0987 14.3997 995 124.369 566.504 453.272
1106 0 69.2025 12.6874 878 129.753 566.661 453.583
1107 1 36.1446 11.205 405 132.664 565.632 471.242
1108 0 39.0961 11.5868 453 132.371 566.155 472.15
1109 0 37.0822 11.3801 422 137.64 565.595 470.981
1110 0 39.1668 13.4042 525 130.69 566.823 470.941
1111 0 41.2148 12.7867 527 133.059 564.814 471.097
1112 0 43.1629 14.9897 647 127.594 560.934 469.618
1113 0 43.1282 13.17 568 133.695 559.322 469.629
1114 0 42.0495 11.0584 465 139.83 560.275 469.725
1115 0 48.3895 17.1525 830 124.906 558.588 469.489
1116 0 50.1441 13.7404 689 132.531 557.052 469.241
1117 0 52.1476 14.6124 762 129.108 555.244 469.077
1118 0 51.1054 15.0669 770 129.427 554.068 465.591
1119 0 51.4331 14.5821 750 130.66 553.184 466.613
1120 0 56.3552 15.5442 876 126.313 552.517 463.016
1121 0 55.0946 15.3917 848 125.893 551.828 461.816
1122 0 56.3633 12.0291 678 131.59 551.46 463.676
1123 0 61.2891 17.083 1047 120.657 550.891 458.147
1124 0 61.2956 16.4775 1010 122.434 549.701 459.179
1125 0 61.3315 12.571 771 130.781 549.815 456.556
1126 0 65.296 14.1663 925 124.966 550.09 455.823
1127 0 64.1927 11.668 749 134.053 550.207 454.159
1128 0 69.1537 15.5885 1078 125.675 550.404 452.086
1129 1 31.0312 6.28399 195 139.656 552.487 470.764
1130 0 36.0162 10.8285 390 130.064 552.718 467.369
1131 0 41.0962 11.3636 467 128.278 552.882 467.021
1132 0 38.1879 8.51056 325 135.077 553.745 466.732
1133 0 43.1755 10.5384 455 132.442 554.897 464.567
1134 0 41.1534 12.0525 496 133.296 555.885 462.536
1135 0 42.1428 11.1051 468 137.06 558.588 464.573
1136 0 43.0784 14.1834 611 134.252 558.571 464.687
1137 0 45.0594 12.6056 568 138.919 559.688 464.817
1138 0 46.0461 14.3117 659 135.798 559.863 464.59
1139 0 47.0376 13.6912 644 137.579 559.933 466.169
1140 0 49.0956 15.5207 762 134.268 560.146 465.675
1141 0 50.1204 13.5274 678 139.364 559.401 466.906
1142 0 51.069 12.7475 651 142.201 558.871 466.736
1143 0 52.0987 14.914 777 138.856 558.606 465.788
1144 0 53.0701 13.1901 700 142.109 556.91 465.979
1145 0 57.1416 13.9478 797 140.348 555.396 466.198
1146 0 58.0557 14.4 836 139.718 553.849 463.287
1147 0 62.1597 16.8759 1049 133.558 552.92 460.199
1148 0 63.1758 15.7972 998 136.109 550.675 461.075
1149 0 63.1881 13.9583 882 138.59 549.999 460.888
1150 0 65.0897 12.7516 830 142.545 548.857 456.928
1151 0 68.1057 14.5656 992 140.049 547.938 456.287
1152 0 70.0515 15.4315 1081 140.697 546.827 450.932
1153 0 72.0617 15.7504 1135 138.781 546.161 453.142
1154 0 73.1125 15.8249 1157 139.475 546.112 450.452
1155 1 38.0911 9.37228 357 146.871 546.199 467.207
1156 0 37.0364 9.36917 347 150.369 546.582 463.977
1157 0 41.0273 9.4815 389 148.087 546.35 462.902
1158 0 44.036 13.4435 592 141.858 546.877 460.975
1159 0 44.0133 11.2239 494 146.964 547.275 460.196
1160 0 45.034 11.5912 522 148.952 548.354 457.4
1161 0 48.0138 13.517 649 145.376 548.957 456.379
1162 0 51.2741 13.4376 689 135.951 550.94 455.486
1163 0 51.1957 11.9932 614 138.614 552.691 452.002
1164 0 54.1126 14.7101 796 131.661 554.597 453.224
1165 0 52.2078 12.4885 652 139.617 556.431 451.107
1166 0 58.0809 13.0508 758 136.551 558.235 451.347
1167 0 59.1233 14.4951 857 135.803 561.09 449.8
1168 0 61.1027 13.1418 803 139.411 561.949 450.689
1169 0 61.1978 14.9842 917 137.173 564.55 451.714
1170 0 64.1091 16.8775 1082 134.247 564.091 451.901
1171 0 65.105 14.1617 922 143.666 564.578 450.441
1172 0 66.3748 15.759 1046 139.173 564.903 451.323
1173 0 71.1256 15.1844 1080 140.066 565.139 451.727
1174 0 71.1876 16.014 1140 139.685 565.41 452.049
1175 0 75.0233 17.208 1291 138.534 565.847 450.383
1176 0 75.0474 15.1771 1139 144.945 564.846 449.975
1177 0 78.0428 17.3494 1354 140.895 563.953 448.637
1178 0 79.1437 14.5053 1148 147.994 563.334 449.354
1179 0 83.1814 16.5782 1379 143.521 561.943 447.191
1180 0 86.0877 16.5064 1421 144.602 560.798 444.652
1181 1 44.0489 9.28513 409 149.421 560.335 468.296
1182 0 47.0326 13.6076 640 141.472 558.423 465.45
1183 0 49.0762 12.0629 592 146.127 555.902 461.684
1184 0 48.1522 12.232 589 150.61 554.885 461.869
1185 0 49.1682 12.4064 610 151.097 553.33 459.466
1186 0 51.058 12.241 625 149.531 552.571 458.094
1187 0 53.0387 13.6881 726 146.193 552.19 453.69
1188 0 56.0337 12.2962 689 147.3 551.552 456.707
1189 0 57.0287 13.9579 796 143.455 552.06 452.273
1190 0 59.0361 11.908 703 145.102 550.983 453.238
1191 0 62.0302 16.2663 1009 131.615 550.378 446.316
1192 0 63.1258 15.6196 986 132.862 550.62 447.541
1193 0 64.102 13.0885 839 138.495 551.144 444.565
1194 0 68.109 13.7133 934 135.384 551.637 443.353
1195 0 69.1535 13.9689 966 136.696 553.639 439.769
1196 0 72.1447 14.9838 1081 132.985 555.855 442.105
1197 0 72.4931 13.4496 975 134.906 556.765 442.209
1198 0 74.0861 14.5236 1076 131.712 559.022 440.915
1199 0 78.0824 14.2926 1116 131.262 560.617 439.603
1200 0 82.2441 15.8066 1300 128.695 561.835 435.538
1201 0 83.0701 14.1567 1176 134.332 563.165 433.023
1202 0 87.1892 14.7725 1288 132.422 564.462 436.505
1203 0 91.2192 17.2442 1573 127.636 564.994 439.995
1204 1 46.0449 10.3377 476 134.746 565.374 462.794
1205 0 47.1184 13.3494 629 136.21 564.903 461.156
1206 0 49.0758 11.9815 588 139.454 565.162 459.634
1207 0 52.24 14.3951 752 133.993 565.444 462.616
1208 0 53.1709 14.3311 762 135.051 565.718 464.081
1209 0 56.1813 12.78 718 139.295 565.276 463.788
1210 0 55.2677 15.8501 876 134.677 565.188 465.543
1211 0 61.2426 14.2548 873 138.077 564.369 462.324
1212 0 62.3134 17.3478 1081 134.098 563.549 462.219
1213 0 63.1771 17.0631 1078 135.946 562.08 461.378
1214 0 68.4425 15.9988 1095 136.234 561.433 460.75
1215 0 68.2094 14.1036 962 141.505 560.275 459.589
1216 0 69.2164 14.014 970 140.939 558.914 458.274
1217 0 73.2545 14.3745 1053 141.024 558.311 452.006
1218 0 75.1899 14.9621 1125 139.47 557.105 455.014
1219 0 75.2536 13.8199 1040 143.055 555.383 450.483
1220 0 82.3422 12.5695 1035 140.577 555.022 453.081
1221 1 42.0479 13.2944 559 139.163 553.896 466.524
1222 0 42.1093 9.83155 414 142.012 552.829 469.053
1223 0 42.0762 11.7406 494 138.057 551.86 465.298
1224 0 48.1026 11.7457 565 135.651 550.965 463.184
1225 0 49.1578 12.0022 590 135.964 551.38 460.62
1226 0 50.1434 12.0654 605 135.949 551.559 456.398
1227 0 53.1699 17.0397 906 125.852 551.943 458.318
1228 0 54.1608 14.9555 810 129.732 553.331 455.917
1229 0 54.3025 13.3327 724 129.583 554.523 458.198
1230 0 55.1176 12.301 678 132.617 556.468 458.212
1231 0 58.1019 13.6484 793 129.757 557.182 455.228
1232 0 59.1502 16.1961 958 124.568 559.413 455.945
1233 0 63.0973 14.4222 910 127.902 561.762 456.222
1234 0 63.1796 12.9156 816 132.701 563.271 452.344
1235 0 66.1371 12.6706 838 131.209 564.155 453.697
1236 0 67.21 13.0487 877 134.252 565.048 451.186
1237 0 70.0563 13.9174 975 132.416 566.686 452.734
1238 0 74.2634 11.54 857 136.735 566.779 455.165
1239 0 73.2038 12.2808 899 139.275 566.861 450.752
1240 0 80.1243 14.5649 1167 132.476 566.648 453.746
1241 1 41.0234 10.0187 411 141.034 567.472 472.1
1242 0 46.042 12.9664 597 134.729 567.633 472.479
1243 0 46.0764 11.9584 551 137.724 566.492 472.617
1244 0 48.0111 12.268 589 138.014 564.769 473.114
1245 0 50.0864 14.5349 728 132.022 563.957 473.802
1246 0 51.0445 14.3013 730 133.526 562.484 472.575
1247 0 51.0129 13.2319 675 137.913 561.179 468.206
1248 0 53.1152 13.6496 725 139.161 558.828 470.19
1249 0 55.3297 12.4165 687 140.942 558.188 470.76
1250 0 59.1781 12.3187 729 140.233 556.833 469.672
1251 0 60.2129 12.3562 744 139.313 555.862 467.233
1252 0 62.144 16.7997 1044 133.062 555.229 464.006
1253 0 65.1468 15.089 983 134.784 554.325 463.14
1254 0 66.0942 15.5838 1030 135.643 553.391 460.11
1255 0 68.1204 15.223 1037 136.758 553.273 458.483
1256 0 71.2196 15.0239 1070 134.846 552.682 457.45
1257 0 71.2519 14.6242 1042 135.345 552.216 458.432
1258 0 72.1652 12.8317 926 142.79 551.557 452.486
1259 0 75.1308 15.0937 1134 137.609 551.025 450.636
1260 0 79.1511 13.0636 1034 140.491 550.499 452.808
1261 1 40.0396 12.8123 513 139.928 550.788 468.93
1262 0 44.0942 12.5187 552 141.328 552.114 466.716
1263 0 44.0163 14.1084 621 139.419 552.155 466.093
1264 0 47.0549 15.4926 729 137.727 554.351 465.76
1265 0 49.1605 16.5783 815 137.455 554.682 461.893
1266 0 47.0438 11.5849 545 151.952 558.532 464.998
1267 0 50.0166 13.3356 667 148.988 560.063 463.553
1268 0 50.0324 13.6911 685 147.955 561.558 465.858
1269 0 53.0959 16.5926 881 142.482 562.275 465.027
1270 0 55.0583 14.8933 820 145.266 563.478 465.348
1271 0 57.1126 16.4412 939 141.741 564.453 463.237
1272 0 58.0554 16.157 938 142.725 564.514 465.357
1273 0 59.0616 13.5452 800 149.632 564.359 464.389
1274 0 63.087 17.1034 1079 140.277 564.657 467.056
1275 0 63.0851 15.5663 982 144.982 563.906 468.185
1276 0 64.0825 14.5906 935 147.032 563.007 467.684
1277 0 66.0781 15.9206 1052 145.779 562.624 466.813
1278 0 66.1564 15.0552 996 149.134 560.634 465.543
1279 0 68.0822 15.0113 1022 150.846 558.878 464.49
1280 1 36.1008 10.3876 375 155.133 558.787 480.029
1281 0 37.0955 10.6482 395 153.592 557.086 478.489
1282 0 40.0179 10.5203 421 149.741 555.67 481.413
1283 0 43.0799 7.82268 337 152.243 554.27 481.65
1284 0 43.0277 12.1085 521 148.833 553.106 475.547
1285 0 44.0279 13.0372 574 143.155 552.352 476.221
1286 0 48.0822 14.6416 704 137.869 551.48 475.413
1287 0 45.0753 11.2257 506 149.316 550.765 473.504
1288 0 47.027 13.2477 623 144.709 549.36 472.456
1289 0 52.1528 14.0165 731 140.736 549.584 465.979
1290 0 54.2507 17.8247 967 131.007 549.884 464.587
1291 0 53.2042 14.6605 780 140.955 548.926 465.318
1292 0 55.0937 14.5026 799 137.018 549.109 465.706
1293 0 57.1744 13.9048 795 139.719 549.455 463.127
1294 0 58.1712 17.1563 998 132.811 549.827 461.763
1295 0 59.0847 18.9389 1119 129.594 549.931 459.875
1296 0 58.1107 13.6292 792 145.14 551.226 456.932
1297 0 64.2101 16.3059 1047 136.792 551.931 457.131
1298 0 66.2622 17.6873 1172 135.755 552.981 455.065
1299 0 67.2025 16.2791 1094 138.983 554.287 455.246
1300 0 70.1114 14.4199 1011 143.478 555.69 455.634
1301 0 72.3429 14.9151 1079 143.229 556.652 453.751
1302 0 75.1093 14.5921 1096 145.308 558.003 452.786
1303 0 79.5061 18.2627 1452 136.957 559.287 453.393
1304 0 78.2644 16.917 1324 143.163 559.676 450.367
1305 1 37.0113 11.0237 408 152.184 561.191 470.103
1306 0 42.0056 12.6888 533 147.116 559.223 470.345
1307 0 41.0448 12.8396 527 150.52 559.025 468.584
1308 0 44.0539 14.6185 644 144.193 558.601 471.512
1309 0 45.0702 11.2713 508 148.88 559.012 469.108
1310 0 47.0552 14.3661 676 142.66 558.763 468.923
1311 0 49.1789 13.9287 685 143.229 558.247 471.372
1312 0 48.0649 14.4388 694 145.873 557.012 470.638
1313 0 51.1019 14.6374 748 144.908 556.138 467.353
1314 0 51.1163 14.6529 749 145.104 555.077 466.288
1315 0 56.1671 14.9198 838 143.383 552.888 466.172
1316 0 57.1634 17.0214 973 140.562 551.941 464.438
1317 0 59.1625 19.5732 1158 134.161 551.005 464.007
1318 0 60.1378 14.3171 861 147.232 549.585 461.341
1319 0 60.1362 13.7521 827 150.596 548.497 460.377
1320 0 63.0609 14.938 942 148.693 547.401 455.892
1321 0 66.1597 18.0926 1197 140.885 546.848 456.272
1322 0 67.3132 16.2375 1093 143.945 546.357 455.427
1323 0 70.0899 18.3051 1283 138.065 545.844 455.509
1324 0 72.0836 14.5387 1048 148.576 545.682 448.589
1325 0 73.0777 17.5019 1279 142.658 545.926 446.962
1326 0 74.1626 14.8188 1099 151.886 546.467 449.571
1327 0 79.2015 20.6941 1639 138.755 546.89 448.635
1328 0 79.1576 16.6251 1316 150.565 547.213 447.229
1329 0 84.17 17.5597 1478 147.742 548.493 444.715
1330 1 45.0882 12.1318 547 158.819 550.112 462.126
1331 0 46.0668 12.9595 597 158.521 552.4 462.394
1332 0 46.0731 14.1948 654 154.219 553.628 460.706
1333 0 49.1199 14.9837 736 154.462 554.466 456.111
1334 0 48.1688 14.2208 685 159.59 556.396 458.368
1335 0 52.0679 15.5566 810 154.301 557.405 458.827
1336 0 54.1378 15.0542 815 155.967 558.499 459.512
1337 0 54.1135 14.1739 767 157.953 559.321 459.463
1338 0 57.0639 16.7882 958 151.451 560.701 459.412
1339 0 59.079 15.2338 900 154.23 560.991 458.13
1340 0 63.0277 17.1512 1081 150.886 560.928 459.426
1341 0 63.1532 16.4679 1040 154.218 561.064 459.418
1342 0 67.0784 17.3827 1166 152.219 560.444 458.735
1343 0 69.0935 17.9322 1239 151.683 560.094 458.609
1344 0 71.2489 19.6775 1402 150.859 558.969 458.464
1345 0 72.1223 17.401 1255 156.035 557.83 458.206
1346 0 76.0706 18.2988 1392 153.591 556.863 455.146
1347 0 78.1076 17.9368 1401 154.597 555.513 454.54
1348 0 80.0668 16.9109 1354 159.708 554.38 450.33
1349 0 82.1765 15.4545 1270 159.917 552.352 450.13
1350 0 85.2188 16.0059 1364 156.594 551.749 448.915
1351 0 88.1048 16.2534 1432 154.243 551.104 446.953
1352 0 92.1618 15.4945 1428 156.543 550.188 441.034
1353 1 48.1634 14.3262 690 155.297 549.7 462.417
1354 0 49.2675 13.173 649 153.522 548.7 461.435
1355 0 52.2178 13.2139 690 147.159 548.006 459.858
1356 0 54.1726 12.331 668 147.928 547.996 458.295
1357 0 57.0585 13.9331 795 148.001 548.026 456.519
1358 0 60.0921 15.4596 929 143.438 547.421 455.843
1359 0 61.0929 16.4667 1006 137.828 546.877 452.438
1360 0 63.1877 15.4935 979 139.95 547.183 451.775
1361 0 65.0976 16.2372 1057 136.386 548.041 451.549
1362 0 68.357 14.7607 1009 138.639 548.525 450.008
1363 0 71.1194 17.4214 1239 137.246 549.467 446.052
1364 0 74.1903 16.9833 1260 134.19 550.544 447.738
1365 0 78.3635 15.913 1247 139.501 552.833 445.686
1366 0 80.105 16.7031 1338 144.644 553.891 444.632
1367 0 81.0997 16.6955 1354 144.805 555.205 440.894
1368 0 85.2005 19.636 1673 137.62 556.847 439.167
1369 0 88.3265 17.1636 1516 141.933 558.288 436.701
1370 0 90.0616 18.4429 1661 140.627 559.688 435.045
1371 0 91.2803 14.5815 1331 151.636 560.11 432.657
1372 0 97.2576 17.4896 1701 145.325 561.236 438.153
1373 0 99.2722 21.3655 2121 137.785 561.167 435.511
1374 1 53.2637 11.6777 622 152.994 561.177 457.534
1375 0 56.1939 14.5211 816 146.864 561.074 456.105
1376 0 57.1706 16.407 938 143.485 561.113 458.012
1377 0 58.1489 13.8782 807 148.861 561.569 460.126
1378 0 61.0325 14.4677 883 147.333 559.52 459.059
1379 0 63.0324 14.8971 939 144.226 557.821 455.215
1380 0 67.1553 14.7271 989 145.609 556.402 455.848
1381 0 70.0538 16.159 1132 139.307 556.117 454.623
1382 0 71.1753 14.9349 1063 143.37 553.615 453.967
1383 0 75.0894 16.74 1257 139.132 552.268 451.648
1384 0 78.2503 17.329 1356 139.608 551.25 450.737
1385 0 78.2449 14.6847 1149 148.556 550.413 446.845
1386 0 81.1464 15.9095 1291 144.306 549.754 446.99
1387 0 83.0864 16.188 1345 144.424 548.498 440.421
1388 0 87.313 15.851 1384 143.846 547.652 440.819
1389 0 89.2621 15.5497 1388 144.236 548.123 434.798
1390 0 92.2632 16.1928 1494 143.284 547.878 435.006
1391 0 94.1567 15.8247 1490 143.297 547.491 433.326
1392 0 98.3201 17.9109 1761 140.76 548.069 430.32
1393 0 98.2699 13.3306 1310 150.676 549.321 425.935
1394 0 108.233 15.3373 1660 142.172 549.524 427.549
1395 0 111.309 15.4525 1720 141.492 550.151 421.126
1396 1 61.1479 9.19084 562 139.899 550.964 451.441
1397 0 63.1247 12.4832 788 139.755 552.608 443.463
1398 0 66.1769 12.119 802 140.369 553.978 446.631
1399 0 67.1054 12.2494 822 139.039 555.889 451.421
1400 0 69.1323 15.2895 1057 134.862 557.308 447.933
1401 0 72.193 15.791 1140 135.039 558.868 446.423
1402 0 73.1474 13.2472 969 142.646 560.361 447.602
1403 0 78.0981 15.8006 1234 138.185 561.312 444.088
1404 0 80.2383 13.759 1104 143.553 561.902 446.383
1405 0 83.2015 15.5045 1290 141.797 561.897 446.033
1406 0 86.1776 13.9595 1203 145.696 562.485 446.525
1407 0 88.3594 15.3238 1354 142.248 562.086 444.494
1408 0 94.3115 16.6364 1569 139.732 561.234 446.125
1409 1 45.0275 13.5251 609 150.22 560.545 470.199
1410 0 47.0458 11.3719 535 154.828 559.368 472.52
1411 0 49.1125 12.4001 609 150.583 559.312 469.092
1412 0 51.1239 11.6188 594 152.283 557.641 467.872
1413 0 54.0424 13.7485 743 145.408 556.104 472.147
1414 0 56.0596 15.9473 894 138.883 555.331 472.626
1415 0 61.0571 15.9195 972 136.218 553.457 471.611
1416 0 63.1946 13.5929 859 141.228 551.763 470.4
1417 0 64.1077 15.4116 988 136.787 551.42 467.293
1418 0 65.0825 13.4291 874 140.143 550.388 465.251
1419 0 68.0912 17.6087 1199 131.586 549.314 461.126
1420 0 70.229 14.3388 1007 138.417 547.893 461.147
1421 0 70.229 14.3673 1009 124.108 546.859 461.079
1422 0 77.1044 16.1729 1247 131.148 548.126 461.647
1423 0 77.2498 19.2881 1490 127.468 547.664 455.348
1424 0 80.2681 17.3294 1391 129.574 547.512 455.172
1425 0 84.2055 14.5477 1225 134.863 547.473 453.92
1426 0 85.1185 16.1775 1377 130.455 548.058 454.123
1427 0 88.0876 15.8025 1392 131.786 548.042 451.054
1428 0 89.1322 16.5036 1471 131.433 548.175 446.214
1429 0 93.1491 15.6631 1459 135.12 548.532 445.58
1430 0 94.1591 13.2117 1244 144.139 549.655 445.95
1431 1 48.1362 8.82912 425 151.141 551.216 468.729
1432 0 52.1114 12.8379 669 140.442 552.88 466.625
1433 0 53.1523 12.6994 675 143.132 554.407 466.926
1434 0 57.0604 12.145 693 142.502 556.097 465.69
1435 0 58.207 15.8057 920 135.199 556.652 463.396
1436 0 60.1781 14.0915 848 138.999 558.474 466.221
1437 0 61.1456 13.2144 808 141.629 558.854 466.62
1438 0 63.1189 14.0528 887 142.029 559.063 464.681
1439 0 66.1569 15.297 1012 140.204 559.859 460.864
1440 0 70.1525 13.1285 921 144.445 559.299 463.225
1441 0 72.1872 14.6425 1057 142.402 559.051 464.411
1442 0 75.1405 15.4111 1158 141.371 558.197 462.153
1443 0 77.192 14.6777 1133 144.763 557.343 459.951
1444 1 38.1657 12.7602 487 143.485 557.394 480.821
1445 0 37.0331 10.1801 377 151.782 555.939 482.528
1446 0 42.0735 11.1234 468 150.333 554.562 479.158
1447 0 42.0859 13.52 569 146.905 553.076 477.979
1448 0 44.0212 10.5404 464 152.575 551.472 477.442
1449 0 46.1718 14.0345 648 143.591 549.184 476.417
1450 0 47.0323 15.8402 745 142.495 548.33 472.561
1451 0 49.1666 17.1255 842 135.821 547.519 471.243
1452 0 50.1965 14.7421 740 141.035 546.785 471.853
1453 0 51.3643 13.6671 702 144.581 546.462 467.846
1454 0 52.1979 15.1156 789 142.817 545.858 464.729
1455 0 53.3436 13.4599 718 143.585 545.404 463.88
1456 0 57.386 17.4433 1001 132.147 545.553 461.314
1457 0 56.3161 15.8569 893 136.16 545.375 458.669
1458 0 57.5501 15.8644 913 136.147 545.516 451.828
1459 0 59.2243 14.6561 868 139.659 545.109 456.217
1460 0 62.3498 15.0923 941 139.409 544.7 455.182
1461 0 63.3814 14.2313 902 148.835 546.067 456.864
1462 0 62.3707 15.7766 984 147.558 547.332 454.695
1463 0 66.426 14.6328 972 153.228 548.75 452.214
1464 0 67.2941 16.1827 1089 149.041 550.159 451.962
1465 0 69.4241 17.5731 1220 149.8 552.889 451.203
1466 0 68.6624 15.3213 1052 160.628 554.706 447.914
1467 0 72.8 16.0714 1170 156.529 556.123 446.843
1468 0 72.687 14.6106 1062 165.26 558.441 447.17
1469 0 76.5993 18.2247 1396 157.977 559.638 449.054
1470 0 77.5604 14.84 1151 173.083 561.162 448.502
1471 0 78.4927 14.014 1100 179.726 561.472 448.299
1472 0 81.5856 13.3725 1091 180.582 562.193 448.164
1473 1 44.3544 11.2277 498 177.884 562.207 467.791
1474 0 45.2642 11.7311 531 173.701 562.621 469.151
1475 0 44.2688 11.8594 525 182.434 562.891 466.758
1476 0 48.3522 11.3335 548 183.445 562.867 467.677
1477 0 46.2877 11.3421 525 185.004 561.939 468.756
1478 0 48.2161 10.8885 525 185.509 561.333 470.063
1479 0 49.1604 14.2594 701 175.486 560.1 470.054
1480 0 50.3589 13.9399 702 182.856 559.017 466.789
1481 0 52.3111 15.2166 796 177.832 557.952 467.737
1482 0 52.5447 14.7874 777 178.069 556.664 466.463
1483 0 54.2757 15.1818 824 179.041 555.756 463.176
1484 0 54.076 15.1453 819 185.227 556.99 466.341
1485 0 56.277 15.015 845 180.607 555.908 466.575
1486 0 56.1277 15.2866 858 176.252 554.967 465.42
1487 0 57.0752 15.6635 894 178.952 553.773 462.794
1488 0 57.0603 15.4748 883 181.225 553.227 459.596
1489 0 56.0727 14.6774 823 181.64 552.281 460.542
1490 0 57.0397 16.4973 941 173.374 551.849 458.244
1491 0 59.0568 16.3402 965 171.517 551.992 457.229
1492 0 59.0884 14.216 840 177.486 552.137 456.269
1493 0 58.046 13.4721 782 182.116 552.014 452.634
1494 0 60.1754 15.8204 952 170.065 551.556 455.664
1495 0 58.1462 13.1565 765 173.2 551.622 457.533
1496 0 59.3264 13.451 798 183.793 552.193 456.028
1497 0 61.3292 15.2456 935 174.105 552.628 456.111
1498 0 58.372 13.1399 767 184.936 554.365 455.138
1499 0 58.3191 13.3061 776 180.076 556.392 456.567
1500 0 61.5393 14.5435 895 173.381 558.006 455.898
1501 0 60.3497 14.8468 896 170.57 559.26 457.548
1502 0 60.5908 14.8868 902 169.501 561.13 455.815
1503 0 59.3951 12.2064 725 179.324 562.727 458.625
