time division length width area intensity CMx CMy
0 0 85.221 14.4917 1235 131.232 653.52 424.587
1 0 87.4725 14.5189 1270 128.35 654.88 428.903
2 0 91.2168 12.8266 1170 131.056 655.367 427.367
3 0 95.2289 18.6393 1775 124.609 656.051 424.966
4 0 95.2205 18.5989 1771 130.756 657.034 424.752
5 0 100.135 15.0097 1503 127.148 656.966 419.111
6 0 105.732 15.7663 1667 124.125 656.172 422.239
7 0 113.585 19.2631 2188 119.83 655.241 421.596
8 1 56.031 11.7256 657 121.703 654.332 453.374
9 0 56.2231 18.5867 1045 116.582 651.762 453.094
10 0 59.1623 21.3143 1261 119.441 651.28 445.41
11 0 58.1699 12.8073 745 138.185 649.612 448.749
12 0 61.2665 14.3145 877 143.308 648.803 447.879
13 0 65.1421 13.9541 909 138.93 648.287 449.637
14 0 63.1168 12.7225 803 144.186 648.196 446.271
15 0 62.1887 12.1244 754 152.574 646.703 443.755
16 0 69.2204 15.689 1086 144.3 644.789 444.065
17 0 72.1136 13.8115 996 148.449 643.165 441.895
18 1 39.0503 9.73105 380 156.234 642.029 456.897
19 0 41.1864 11.1687 460 148.761 640.889 458.226
20 0 42.0273 9.23208 388 156.606 639.268 454.634
21 0 41.1096 10.3139 424 155.413 638.531 453.663
22 0 43.1185 12.2453 528 150.742 638.903 453.261
23 0 46.1146 12.5123 577 146.884 638.568 451.496
24 0 46.0715 12.2418 564 150.218 639.215 447.39
25 0 48.1004 12.0789 581 147.544 639.742 446.174
26 0 49.1257 12.01 590 147.042 639.175 446.154
27 0 48.1528 10.529 507 150.89 638.876 447.446
28 0 51.0539 14.1419 722 142.72 639.515 443.468
29 0 53.0449 13.875 736 139.842 641.103 442.643
30 0 53.1587 12.6978 675 139.231 642.624 442.929
31 0 58.1806 17.4972 1018 123.706 644.238 445.932
32 0 58.0981 12.3068 715 128.601 646.401 443.536
33 0 60.2217 13.0684 787 125.633 648.4 439.794
34 0 64.3172 13.3246 857 121.945 649.925 443.504
35 0 64.3172 13.3712 860 136.459 650.906 443.222
36 0 64.2596 14.9394 960 117.01 653.473 445.254
37 0 68.1706 14.6397 998 119.377 652.821 438.286
38 0 69.2007 22.6154 1565 111.281 654.004 440.585
39 0 73.132 18.4598 1350 113.999 654.086 441.132
40 0 76.2128 20.2853 1546 113.512 653.401 439.614
41 0 78.288 10.7679 843 123.821 653.209 443.432
42 0 81.2668 12.5512 1020 126.169 653.083 440.487
43 0 83.0984 16.5466 1375 120.268 651.911 439.27
44 0 85.286 13.7186 1170 129.268 650.703 438.222
45 1 47.0353 10.6303 500 127.84 649.632 459.006
46 0 46.1089 11.7331 541 132.769 648.969 460.076
47 0 47.067 12.7265 599 135.088 647.73 459.868
48 0 49.1462 14.406 708 133.126 646.726 459.133
49 0 51.0613 12.6711 647 136.368 647.148 458.091
50 0 51.0787 14.879 760 134.305 644.826 454.983
51 0 53.0725 12.9446 687 139.047 643.854 454.475
52 0 54.1416 12.5781 681 145.398 642.587 453.054
53 0 55.0523 13.5689 747 144.778 641.775 450.127
54 0 57.025 14.6076 833 141.6 641.228 450.483
55 0 58.088 13.8755 806 142.208 640.148 447.084
56 0 61.2092 13.5927 832 139.27 639.782 445.749
57 0 63.4291 13.3535 847 135.839 638.908 442.087
58 0 69.4182 16.8256 1168 124.577 638.92 447.037
59 0 68.2162 16.5503 1129 130.926 637.516 442.871
60 0 68.114 12.0386 820 138.662 637.544 436.293
61 0 73.3461 12.5705 922 137.408 637.768 437.306
62 0 77.2884 14.7499 1140 131.058 637.893 437.104
63 0 78.802 15.2027 1198 128.54 639.046 432.801
64 0 82.3606 14.7643 1216 125.36 641.118 434.449
65 0 82.1228 10.7035 879 126.083 643.273 432.291
66 1 42.1825 10.3834 438 118.178 646.021 453.674
67 0 42.3088 8.03615 340 123.121 646.835 453.206
68 0 49.2702 11.8327 583 114.139 648.902 455.782
69 0 51.1809 13.6575 699 110.96 650.481 454.731
70 0 50.1228 18.4946 927 110.764 650.7 449.235
71 0 49.1712 14.7444 725 122.389 650.28 451.211
72 0 48.0684 10.6307 511 128.444 650.898 451.387
73 0 53.0529 16.6626 884 119.18 650.821 455.705
74 0 55.0338 11.6292 640 128.519 650.303 452.256
75 0 53.0867 12.3948 658 131.632 649.591 450.216
76 0 55.1578 10.8416 598 135.565 648.651 452.525
77 0 58.0555 12.4881 725 132.819 648.346 451.203
78 0 58.0422 11.9396 693 138.54 647.654 451.726
79 0 61.1039 13.2888 812 135.009 645.975 449.729
80 0 64.1364 13.1595 844 133.113 644.82 451.874
81 0 64.1247 10.9786 704 137.746 643.707 449.754
82 0 67.1778 13.6206 915 132.795 643.426 447.995
83 0 68.1626 15.4777 1055 132.053 642.105 448.206
84 0 71.2538 14.8203 1056 131.898 640.898 446.894
85 0 75.2053 17.0201 1280 126.734 639.647 446.39
86 0 77.1555 12.5072 965 138.574 639.199 441.792
87 1 123.426 10.0384 1239 149.583 637.969 426.502
88 1 40.0296 7.44449 298 144.953 636.678 459.315
89 0 43.1221 10.4123 449 138.185 635.927 455.332
90 0 44.2364 8.00245 354 143.63 634.966 455.653
91 0 47.086 9.47203 446 138.984 634.435 453.262
92 0 49.2068 12.3967 610 133.415 634.721 452.78
93 0 49.1187 11.3195 556 134.98 635.739 451.16
94 0 53.4496 11.8242 632 134.821 636.709 448.299
95 0 51.1875 14.2613 730 131.49 635.242 445.504
96 0 55.1703 15.2256 840 126.539 635.899 447.358
97 0 55.2238 12.9835 717 128.989 637.481 446.893
98 0 55.137 11.0996 612 132.748 639.701 446.253
99 0 63.8508 14.9881 957 120.367 641.945 449.111
100 0 60.1902 9.61951 579 129.748 643.39 449.456
101 0 60.0899 17.8066 1070 115.942 645.638 448.154
102 0 63.089 11.9197 752 121.547 647.082 442.919
103 0 64.1623 15.866 1018 115.555 648.489 445.898
104 0 68.1747 22.3397 1523 109.718 649.493 443.251
105 0 68.2463 12.1765 831 116.219 650.438 447.321
106 0 71.2408 11.3699 810 117.725 650.049 447.293
107 0 75.2893 17.3597 1307 112.673 650.975 446.438
108 0 78.3119 14.3912 1127 122.917 649.845 437.84
109 0 78.2922 13.8456 1084 124.269 649.881 439.799
110 0 78.2492 13.3803 1047 134.832 649.815 440.258
111 1 41.1435 9.94083 409 128.682 650.428 462.1
112 0 43.0319 10.7594 463 126.778 650.354 461.769
113 0 44.0277 11.6972 515 129.808 649.219 463.93
114 0 45.0888 10.0468 453 134.673 647.598 464.031
115 0 44.0455 12.6914 559 131.02 645.63 460.436
116 0 47.0786 12.7871 602 131.248 644.387 460.236
117 0 47.0359 11.2467 529 136.851 642.611 460.336
118 0 49.0843 12.0812 593 135.975 641.084 460.673
119 0 51.0779 12.7061 649 139.541 640.451 458.512
120 0 51.0593 12.1623 621 139.752 639.763 454.485
121 0 56.061 15.4831 868 131.543 638.295 455.53
122 0 56.0932 14.048 788 134.685 636.536 455.635
123 0 55.138 13.8017 761 135.074 635.373 452.869
124 0 57.2208 12.5828 720 135.661 635.308 450.731
125 0 60.0605 15.2846 918 131.609 633.505 447.464
126 0 63.1585 15.6115 986 130.204 633.11 447.543
127 0 63.1585 15.5007 979 133.874 633.103 447.479
128 0 64.1986 14.0969 905 132.904 632.956 446.298
129 0 69.0673 13.0452 901 134.798 633.701 443.474
130 0 70.0935 16.2069 1136 135.2 634.518 440.114
131 0 71.2082 12.9058 919 140.851 636.382 441.567
132 0 75.214 19.7038 1482 124.677 637.858 439.756
133 0 75.0696 13.6673 1026 135.779 640.364 438.669
134 0 79.1092 14.0692 1113 132.052 642.677 439.881
135 0 79.1345 14.747 1167 132.086 644.378 434.274
136 0 86.1203 14.5378 1252 130.541 644.825 439.568
137 0 89.1653 15.0956 1346 131.183 646.743 436.959
138 0 93.5382 23.2418 2174 119.837 646.831 441.06
139 0 91.4806 13.9483 1276 130.604 647.853 433.246
140 0 96.2678 18.6044 1791 124.599 647.775 437.819
141 0 98.464 15.6707 1543 132.607 647.757 439.03
142 0 101.412 15.5406 1576 134.056 648.392 431.309
143 1 56.4362 13.9804 789 129.205 647.324 460.532
144 0 56.4362 14.1044 796 141.898 646.293 460.672
145 0 58.1245 13.6603 794 143.286 645.698 458.742
146 0 59.2816 14.8781 882 139.522 644.93 458.545
147 0 60.2868 15.2106 917 143.447 643.687 455.605
148 0 64.3565 13.6738 880 149.822 642.799 456.341
149 0 65.2736 14.0486 917 148.221 640.742 453.215
150 0 67.3151 14.3356 965 146.854 639.582 452.958
151 0 69.3492 16.078 1115 143.631 638.305 453.122
152 0 73.2401 14.2818 1046 143.432 637.363 453.248
153 0 74.1207 15.2589 1131 143.928 635.702 450.93
154 0 73.1696 12.7239 931 153.494 634.047 445.766
155 0 78.232 15.0961 1181 146.423 633.37 443.809
156 1 42.0631 11.7443 494 149.575 633.476 462.731
157 0 42.0274 11.1356 468 153.453 632.368 459.333
158 0 43.053 9.89478 426 155.23 632.695 459.146
159 0 46.1767 11.3261 523 141.197 632.054 454.465
160 0 46.047 15.1584 698 133.566 631.706 458.573
161 0 48.092 13.4326 646 140.546 632.091 453.176
162 0 48.092 13.287 639 137.366 632.097 453.144
163 0 49.058 12.6585 621 138.169 633.089 452.093
164 0 54.2492 11.8527 643 132.608 634.731 455.014
165 0 52.2939 9.9438 520 134.373 636.412 452.669
166 0 55.2809 12.3913 685 126.818 638.134 455.495
167 0 58.3207 16.0835 938 123.385 639.243 450.428
168 0 59.271 14.324 849 126.134 641.721 449.558
169 0 61.2126 12.6444 774 125.45 643.213 450.537
170 0 60.2874 12.175 734 124.996 644.454 451.911
171 0 65.221 15.6698 1022 119.652 645.932 454.074
172 0 67.2502 14.1858 954 123.566 645.192 452.026
173 0 67.1914 15.1359 1017 128.261 646.054 449.98
174 0 71.2873 18.6008 1326 124.374 646.247 443.411
175 0 71.2617 15.9693 1138 131.472 646.489 448.355
176 0 73.1299 16.163 1182 132.963 645.349 448.883
177 0 74.1486 12.5828 933 143.251 645.28 451.611
178 0 77.1331 14.4296 1113 151.721 644.098 444.467
179 0 82.19 15.2208 1251 150.067 643.764 447.894
180 1 42.1316 10.6333 448 157.451 643.413 464.261
181 0 42.0322 10.1827 428 158.801 642.738 466.199
182 0 46.1152 10.2135 471 153.558 641.42 467.108
183 0 48.0421 11.5732 556 150.099 639.628 464.903
184 0 50.0928 12.9959 651 144.449 638.207 463.931
185 0 51.1281 11.657 596 144.658 636.367 461.673
186 0 52.1343 14.0406 732 143.525 634.844 460.219
187 0 51.1153 11.4251 584 148.625 633.515 460.253
188 0 55.1335 13.295 733 144.139 632.939 458.593
189 0 56.1038 13.475 756 142.307 632.649 457.68
190 0 57.0753 13.8063 788 140.278 631.345 457.173
191 0 60.1893 13.9393 839 140.379 630.855 454.128
192 0 59.0863 14.0472 830 141.613 630.327 454.013
193 0 63.1368 15.4902 978 140.677 630.635 449.016
194 0 67.2279 16.1986 1089 136.595 630.646 446.917
195 0 68.1782 16.0902 1097 138.33 630.187 446.36
196 0 68.0992 13.451 916 144.485 631.615 446.751
197 0 72.1802 16.154 1166 136.703 632.003 441.433
198 0 76.1765 13.6656 1041 138.096 633.215 444.889
199 0 76.1802 13.9669 1064 136.211 634.481 440.461
200 0 81.4659 19.8242 1615 124.346 635.926 446.515
201 0 83.4405 22.2074 1853 120.541 636.794 445.606
202 0 88.382 19.6646 1738 124.067 639.864 441.203
203 0 86.2542 12.7878 1103 134.721 641.719 437.015
204 0 92.3256 18.0773 1669 134.995 642.875 435.377
205 1 53.0897 12.0739 641 141.142 644.75 456.608
206 0 51.0952 12.0951 618 143.481 645.044 458.439
207 0 52.1648 11.8471 618 143.157 645.183 460.563
208 0 53.0743 11.7948 626 149.12 645.216 456.318
209 0 57.1555 12.8247 733 142.865 644.823 457.412
210 0 61.1025 14.7784 903 145.495 644.678 455.748
211 0 62.1104 16.1004 1000 148.115 643.989 456.467
212 0 61.0757 12.9675 792 158.039 643.288 456.544
213 0 66.1685 14.3422 949 155.34 642.379 456.02
214 0 66.1896 13.7484 910 157.627 641.625 455.669
215 0 68.0758 15.2624 1039 153.141 640 454.554
216 0 71.1433 14.7027 1046 159.246 638.893 452.063
217 0 73.1431 14.8476 1086 157.614 637.897 448.838
218 0 77.1878 14.4453 1115 156.921 635.817 449.463
219 0 78.2477 13.7384 1075 154.195 634.877 447.252
220 0 81.0821 15.7988 1281 161.435 633.733 445.2
221 0 83.1752 13.6579 1136 168.107 632.231 441.297
222 0 88.2186 16.2211 1431 155.46 631.6 444.506
223 0 90.2233 15.5503 1403 161.142 631.008 437.359
224 1 45.079 9.38352 423 159.882 629.955 462.865
225 0 48.0631 11.9426 574 156.078 629.62 459.143
226 0 51.2454 12.645 648 151.86 629.134 456.599
227 0 53.027 12.3711 656 153.595 629.784 454.114
228 0 54.1312 15.9797 865 144.046 630.595 452.133
229 0 55.0844 11.7456 647 151.66 630.675 453.408
230 0 56.0271 12.726 713 150.321 631.487 450.422
231 0 60.1901 15.7667 949 134.63 631.899 452.454
232 0 63.2804 13.4639 852 142.587 633.87 447.21
233 0 64.2584 13.648 877 140.926 635.097 447.433
234 0 65.1616 13.9346 908 141.96 637.296 444.449
235 0 66.1295 14.1843 938 138.913 638.533 447.894
236 0 67.1209 12.9468 869 145.25 640.661 444.177
237 0 72.2089 17.1447 1238 136.142 642.712 446.642
238 0 74.2783 14.4053 1070 145.582 642.939 445.848
239 0 78.2022 13.6057 1064 148.242 644.639 442.749
240 0 78.1654 14.7891 1156 146.695 644.456 441.279
241 0 82.1224 16.2441 1334 146.41 644.175 442.07
242 0 84.1813 15.6448 1317 143.055 643.752 442.244
243 0 91.5781 15.6915 1437 140.962 643.363 446.008
244 0 90.3645 16.1347 1458 140.894 642.894 441.806
245 1 48.1167 11.867 571 141.51 642.89 461.963
246 0 50.0623 8.02999 402 145.331 642.134 466.002
247 0 51.0198 12.5834 642 140.629 640.079 460.364
248 0 54.116 14.2472 771 138.732 639.569 460.606
249 0 54.1054 12.1245 656 142.576 638.21 459.95
250 0 54.0447 10.9724 593 143.951 637.332 462.064
251 0 59.1376 12.3272 729 139.39 635.529 457.682
252 0 59.0255 14.1634 836 135.531 634.228 457.115
253 0 60.118 11.4608 689 141.38 633.138 456.165
254 0 63.1517 13.3963 846 139.201 631.829 452.196
255 0 64.2027 12.445 799 142.656 630.69 451.125
256 0 66.0648 10.3535 684 147.373 630.303 450.098
257 0 68.2347 10.757 734 146.898 630.089 447.411
258 0 71.168 10.9319 778 145.719 629.535 445.5
259 0 76.2177 13.409 1022 141.706 629.579 444.163
260 0 75.253 12.8898 970 142.808 629.3 442.274
261 0 77.2899 14.3486 1109 137.756 629.252 441.711
262 0 77.5996 9.61345 746 145.881 629.121 437.815
263 0 84.3267 11.6808 985 142.545 629.057 435.214
264 0 86.2981 10.4753 904 144.373 630.106 435.74
265 0 88.3853 15.308 1353 135.558 630.877 431.477
266 0 87.3839 12.7598 1115 133.471 631.814 427.961
267 1 50.1763 7.25442 364 135.577 634.986 457.973
268 0 51.0985 8.37598 428 135.888 637.14 455.056
269 0 53.1345 11.5744 615 132.862 639.698 453.28
270 0 49.1345 11.2752 554 131.525 641.513 452.097
271 0 54.1773 9.94881 539 133.158 641.625 455.028
272 0 53.0824 11.9437 634 133.186 642.325 454.85
273 1 114.568 14.3408 1643 141.867 643.099 425.39
274 0 118.536 13.3378 1581 144.061 643.095 426.719
275 1 59.2337 11.1085 658 139.777 642.394 456.532
276 0 61.2607 10.6267 651 138.038 642.68 459.19
277 0 64.2294 14.6662 942 134.432 642.041 456.291
278 0 67.1632 12.1346 815 142.93 640.772 454.301
279 0 68.2405 11.7379 801 143.888 640.001 456.659
280 0 70.1468 13.5715 952 143.716 639.47 451.583
281 0 73.2064 15.8046 1157 139.442 638.256 451.745
282 0 75.2396 15.351 1155 139.606 636.277 455.241
283 0 77.1989 13.3422 1030 147.83 635.24 448.664
284 0 79.1254 12.6255 999 151.005 633.417 450.199
285 0 82.2759 13.4912 1110 149.338 631.823 448.939
286 0 83.3661 15.162 1264 147.142 630.803 445.287
287 0 87.2073 12.3728 1079 150.162 629.912 445.051
288 0 87.2073 12.3843 1080 138.699 629.882 444.987
289 1 49.1437 9.76727 480 149.071 627.11 463.788
290 0 50.169 11.9596 600 148.113 626.262 458.505
291 0 53.1272 12.2536 651 144.527 626.581 458.003
292 0 53.2646 12.6914 676 145.497 625.512 453.916
293 0 53.1857 12.6162 671 140.469 627.602 454.112
294 0 54.2135 11.2334 609 142.238 627.358 453.949
295 0 55.1684 10.912 602 140.068 628.126 454.48
296 0 57.2898 12.463 714 134.405 628.259 455.793
297 0 58.1513 13.6712 795 133.472 629.564 452.291
298 0 60.0858 11.8664 713 134.034 630.627 451.61
299 0 63.1772 13.9449 881 128.784 631.882 447.006
300 0 64.1558 13.6543 876 125.789 634.256 451.1
301 0 66.2225 11.8691 786 126.289 636.238 451.64
302 0 68.2171 14.3806 981 125.088 638.196 447.121
303 0 69.209 11.9782 829 140.917 639.893 449.712
304 0 72.2705 11.7475 849 141.847 641.152 446.357
305 0 71.36 10.7763 769 143.646 642.666 443.375
306 0 77.2758 14.2994 1105 129.641 643.053 444.602
307 0 81.3603 14.7615 1201 129.589 643.169 442.137
308 1 43.0488 13.8215 595 130.477 642.553 463.274
309 0 46.0559 8.61996 397 136.7 642.96 465.164
310 0 46.0449 11.8363 545 135.479 642.215 463.134
311 0 46.2009 9.35046 432 138.308 641.979 464.389
312 0 50.1903 12.2932 617 134.681 641.298 461.972
313 0 49.1812 11.9151 586 141.729 639.529 462.058
314 0 49.0502 13.0071 638 133.408 639.898 460.856
315 0 56.0753 14.0525 788 129.352 638.865 461.708
316 0 55.2705 12.5745 695 136.191 637.751 461.456
317 0 55.1225 11.3747 627 136.772 636.566 458.383
318 0 57.0578 9.84967 562 138.801 635.205 460.786
319 0 61.1008 10.9164 667 136.001 633.811 459.024
320 0 60.0432 11.7915 708 137.155 631.582 456.13
321 0 63.1274 11.659 736 137.505 630.601 455.367
322 0 67.1302 12.4534 836 132.634 628.938 454.134
323 0 65.092 11.1995 729 136.513 629.019 453.106
324 0 70.0878 11.7424 823 135.279 628.216 450.299
325 0 72.1781 14.3811 1038 130.873 627.841 444.193
326 0 75.2014 12.8854 969 132.511 627.361 444.98
327 1 40.0842 10.4281 418 135.443 626.543 460.926
328 0 41.1797 9.90781 408 135.775 627.218 461.301
329 0 42.2059 12.8655 543 128.759 627.877 461.442
330 0 43.1092 13.1295 566 130.611 628.143 456.839
331 0 46.1071 11.56 533 131.448 629.293 457.546
332 0 46.107 12.7963 590 130.659 631.183 455.178
333 0 49.0683 12.126 595 123.333 633.687 457.908
334 0 50.0741 10.4845 525 123.85 635.987 457.636
335 0 52.1135 14.8714 775 117.408 637.956 457.138
336 0 51.0672 10.3197 527 127.231 639.865 457.655
337 0 53.0997 14.1997 754 122.256 641.04 457.133
338 0 55.0936 14.3392 790 122.514 641.715 454.828
339 0 56.1417 17.2243 967 119.523 643.109 457.843
340 0 57.1066 14.2891 816 127.77 643.543 457.082
341 0 59.1481 17.5661 1039 122.925 643.2 458.4
342 0 60.0736 12.0852 726 130.694 642.713 460.674
343 0 62.0894 14.1892 881 132.544 642.68 455.38
344 0 66.1173 14.2323 941 132.722 641.261 455.03
345 0 67.1494 13.9093 934 133.466 641.216 456.13
346 0 72.2176 14.2486 1029 133.872 640.173 453.518
347 0 71.1568 15.6415 1113 134.037 639.038 453.559
348 0 74.1929 12.7371 945 142.383 637.488 451.703
349 0 73.1921 13.69 1002 132.822 636.524 450.896
350 1 43.0813 12.2791 529 134.55 634.11 468.711
351 0 41.1089 10.5087 432 142.914 633.019 466.738
352 0 45.1785 13.7233 620 132.729 631.785 467.211
353 0 45.0784 12.5559 566 136.8 630.099 466.938
354 0 45.0721 12.0917 545 137.125 629.042 468.11
355 0 47.2079 11.9683 565 133.324 628.274 466.041
356 0 48.0505 15.1715 729 130.882 628.686 462.005
357 0 48.0774 14.9966 721 133.117 628.576 459.436
358 0 47.0628 10.4541 492 142.815 628.177 457.321
359 0 51.1199 12.7152 650 137.931 627.026 458.038
360 0 52.0812 12.6725 660 136.105 627.502 457.518
361 0 54.0813 12.2778 664 137.42 627.383 454.842
362 0 57.1071 12.6429 722 135.686 627.389 453.888
363 0 59.1077 16.2077 958 128.368 628.885 453.614
364 0 60.1295 14.3191 861 129.003 629.007 453.778
365 1 126.258 15.508 1958 133.316 630.674 420.704
366 0 130.892 16.6856 2184 130.282 632.48 408.745
367 0 139.611 24.5539 3428 116.665 633.669 422.3
368 1 69.2183 15.2705 1057 118.732 636.562 452.436
369 0 70.0769 15.7969 1107 117.723 638.861 445.964
370 0 74.2684 17.9753 1335 111.796 639.893 453.996
371 0 78.2765 16.6717 1305 113.736 640.85 451.73
372 0 77.3085 13.0775 1011 128.608 641.589 448.067
373 0 78.1603 8.53375 667 135.334 641.307 448.157
374 0 84.2656 11.6418 981 134.099 641.908 444.988
375 1 43.4096 9.81351 426 131.209 640.66 466.862
376 0 45.1238 10.8812 491 129.138 640.287 468.619
377 0 47.0712 13.6814 644 127.374 640.295 465.693
378 0 46.0709 10.7443 495 132.531 640.101 466.347
379 0 49.0689 13.8784 681 126.14 638.366 464.251
380 0 51.0744 12.4133 634 131.41 638.383 463.845
381 0 53.0877 14.1652 752 128.274 637.201 463.956
382 0 53.0718 12.794 679 131.856 636.568 463.325
383 0 55.074 12.347 680 131.543 635.638 461.743
384 0 57.0931 14.6953 839 129.287 633.88 461.408
385 0 59.0753 12.9496 765 132.374 633.02 461.455
386 0 61.151 13.1478 804 133.795 631.775 459.364
387 0 63.097 12.9325 816 133.966 630.73 454.564
388 0 67.1062 15.6617 1051 126.673 629.934 455.963
389 0 67.1704 12.9521 870 133.229 629.529 451.013
390 0 68.0683 12.7813 870 133.602 628.874 449.303
391 0 70.1118 14.8905 1044 129.989 628.004 449.543
392 0 76.1283 14.9091 1135 129.641 628.019 445.532
393 0 77.1392 15.5822 1202 129.095 627.967 445.394
394 0 80.0796 15.2848 1224 129.276 628.431 441.65
395 0 82.2011 16.411 1349 128.372 628.9 439.044
396 1 45.1163 12.6562 571 128.602 628.785 458.65
397 0 49.0398 13.4992 662 125.705 629.959 458.258
398 0 48.1025 11.4547 551 130.187 630.583 455.102
399 0 47.0913 10.0019 471 135.726 632.1 453.656
400 0 51.183 11.4882 588 129.512 633.946 457.554
401 0 53.1046 13.577 721 123.491 636.822 453.688
402 0 52.107 11.841 617 122.574 637.541 456.522
403 0 60.1849 21.085 1269 112.788 638.604 451.777
404 0 57.0261 14.0462 801 125.717 639.774 453.508
405 0 62.3526 16.519 1030 119.134 639.279 454.769
406 0 62.1919 12.8795 801 127.775 640.526 456.206
407 0 62.4786 13.7967 862 130.462 641.368 456.321
408 0 64.2129 11.057 710 128.503 642.349 453
409 0 65.0308 12.6094 820 127.06 641.612 450.776
410 0 66.1176 13.2945 879 126.807 641.473 452.829
411 0 68.0775 11.4575 780 131.459 640.364 451.637
412 0 72.1913 11.7466 848 131.638 640.087 451.191
413 0 74.1281 13.3957 993 127.989 638.115 452.498
414 0 77.1508 12.8709 993 130.092 636.916 453.127
415 0 77.1136 13.2661 1023 130.481 636.044 450.42
416 0 81.2266 15.1305 1229 127.516 635.356 448.068
417 0 84.1698 14.5777 1227 129.292 634.301 448.235
418 0 85.3819 12.8364 1096 132.942 632.555 443.255
419 0 89.1251 12.5554 1119 132.176 631.155 441.299
420 1 48.0939 11.9974 577 131.513 629.295 460.931
421 0 53.0639 9.55451 507 130.787 628.389 464.014
422 0 54.1886 12.272 665 128.941 627.418 458.803
423 0 59.5062 14.5867 868 122.889 626.546 459.075
424 0 57.1811 13.2911 760 130.382 627.005 450.266
425 0 61.2369 13.5702 831 127.904 626.663 450.576
426 0 61.1841 13.7781 843 130.357 625.917 449.467
427 0 64.352 14.5139 934 131.91 626.442 452.094
428 0 64.2153 14.7317 946 130.642 626.559 448.776
429 0 67.2299 14.5471 978 129.299 628.172 445.388
430 0 68.3765 16.1313 1103 128.054 629.191 447.893
431 0 70.3668 11.1843 787 133.886 629.858 444.897
432 0 78.233 16.5915 1298 125.82 631.423 444.572
433 0 78.2758 13.8485 1084 133.862 632.794 442.721
434 0 80.2492 15.1029 1212 131.655 635.656 440.51
435 0 83.1281 16.6971 1388 127.243 637.46 442.412
436 0 84.3107 16.119 1359 129.453 638.095 435.698
437 0 91.1576 14.1513 1290 132.672 640.443 437.043
438 0 91.2479 13.4359 1226 134.856 641.356 433.988
439 0 95.1725 16.5279 1573 129.659 641.392 434.842
440 0 97.2331 13.9973 1361 136.406 642.428 433.262
441 0 102.33 18.0104 1843 130.995 642.567 436.818
442 0 106.194 15.5187 1648 133.782 642.68 430.033
443 1 57.1336 13.3547 763 137.042 642.193 455.423
444 0 59.1111 9.76128 577 142.92 642.575 457.454
445 0 61.0741 13.6719 835 138.78 641.283 455.6
446 0 64.3986 12.8419 827 140.651 640.872 458.433
447 0 67.1932 15.7754 1060 137.777 639.342 455.897
448 0 70.1362 15.4414 1083 135.882 638.045 456.032
449 0 71.2406 14.2194 1013 137.311 636.278 452.881
450 0 73.3872 12.5635 922 139.928 634.586 451.923
451 0 77.1534 12.7538 984 138.064 632.971 450.863
452 0 77.2257 13.9461 1077 138.046 631.834 445.663
453 0 82.2615 16.2409 1336 132.793 630.534 447.449
454 0 85.2405 15.1689 1293 133.945 629.037 442.493
455 0 87.1677 13.0094 1134 139.243 628.092 440.578
456 0 88.1862 13.6302 1202 138.958 627.578 435.726
457 0 93.3203 16.9524 1582 132.533 627.367 433.272
458 0 98.241 17.0601 1676 133.138 627.082 432.545
459 0 104.311 17.582 1834 132.303 626.699 431.251
460 0 104.307 13.6137 1420 140.268 626.269 432.036
461 0 110.233 17.717 1953 132.098 626.981 428.708
462 0 114.353 16.4228 1878 133.092 627.672 426.041
463 0 115.428 14.4332 1666 134.663 627.69 417.893
464 1 61.1884 10.2307 626 136.005 628.26 445.935
465 0 63.249 11.1148 703 131.553 629.37 448.421
466 0 66.1302 11.6739 772 130.263 631.141 449.085
467 0 69.1489 13.5939 940 127.295 634.206 446.244
468 0 71.0855 15.0242 1068 125.058 636.349 444.514
469 0 73.1778 22.1515 1621 114.723 638.293 447.875
470 0 77.1014 14.1502 1091 130.308 639.506 443.682
471 0 79.16 17.4457 1381 124.963 641.077 443.765
472 0 80.1902 15.4882 1242 129.171 641.009 445.099
473 0 82.2017 14.9875 1232 132.77 641.591 441.349
474 0 82.0923 13.4361 1103 135.841 641.828 443.249
475 0 89.1382 17.4785 1558 127.795 641.962 445.498
476 0 88.0968 15.9824 1408 134.377 640.837 441.607
477 0 92.1395 14.0331 1293 140.456 640.579 442.759
478 0 92.1132 14.7644 1360 142.518 640.146 436.371
479 0 98.0959 15.3014 1501 138.499 639.115 440.64
480 0 100.217 15.237 1527 137.012 638.262 435.892
481 0 103.235 14.2975 1476 142.818 636.568 435.152
482 0 108.505 16.5614 1797 136.973 636.186 437.321
483 1 57.0745 8.49767 485 144.72 632.986 460.596
484 0 61.1201 10.4876 641 142.232 630.955 458.629
485 0 62.0373 11.7994 732 137.779 630.146 458.682
486 0 64.2757 12.1041 778 138.785 630.14 453.357
487 0 69.2442 12.8097 887 135.317 629.548 448.428
488 0 72.2329 12.4597 900 138.151 628.376 447.372
489 0 75.2935 13.6798 1030 134.016 627.92 452.322
490 0 74.1746 12.4706 925 139.419 627.53 442.338
491 0 78.0957 15.9932 1249 131.876 627.369 443.006
492 0 82.2523 15.7686 1297 130.646 627.351 442.578
493 0 82.3323 12.4981 1029 137.739 627.553 436.656
494 0 87.3306 15.6303 1365 130.708 627.578 433.482
495 0 89.2055 13.822 1233 133.617 628.578 430.125
496 0 94.4025 16.8534 1591 128.365 629.582 429.307
497 0 98.569 19.9353 1965 121.433 630.121 431.239
498 0 96.5832 12.849 1241 134.474 632.158 428.417
499 1 54.4216 15.0859 821 121.963 634.616 453.294
500 0 57.3064 11.9882 687 128.571 636.872 450.597
501 0 56.25 10.9867 618 129.032 637.85 452.183
502 0 59.095 12.5053 739 126.146 638.742 451.912
503 0 56.2521 9.83074 553 134.432 640.002 448.83
504 0 61.1359 14.9667 915 122.223 641.044 454.202
505 0 63.1731 14.7689 933 124.935 641.303 454.311
506 0 64.0804 14.1541 907 126.154 641.202 454.14
507 0 63.0957 12.2988 776 133.996 642 449.875
508 0 66.2896 14.678 973 130.306 641.328 449.375
509 0 71.2336 15.007 1069 129.068 641.334 451.875
510 0 71.2329 14.249 1015 131.242 640.765 452.625
511 0 73.355 12.6372 927 133.036 639.498 453.742
512 0 77.4985 13.0325 1010 133.932 638.447 450.223
513 0 79.539 14.584 1160 133.032 637.428 445.035
514 0 82.3228 13.9208 1146 133.057 636.712 450.864
515 0 85.4415 14.1734 1211 133.05 635.121 449.815
516 0 85.2184 13.8585 1181 137.116 633.089 443.553
517 0 88.2545 13.1325 1159 137.752 631.153 444.163
518 0 91.2326 14.7206 1343 135.372 629.688 443.587
519 0 96.2689 14.8438 1429 134.656 628.569 440.55
520 1 54.2226 12.67 687 133.553 626.758 459.939
521 0 51.0619 10.0662 514 139.074 626.276 458.737
522 0 57.1219 11.5192 658 137.53 628.33 455.926
523 0 57.1219 11.5192 658 140.945 628.33 455.926
524 0 58.1001 12.7883 743 135.735 627.455 453.62
525 0 58.0411 10.6993 621 139.821 628.018 450.386
526 0 63.0837 15.9312 1005 123.696 627.422 450.426
527 0 66.0569 13.6398 901 127.001 628.178 448.218
528 0 67.2127 17.1991 1156 121.282 629.42 446.991
529 0 70.0838 14.3971 1009 126.687 629.103 442.774
530 0 72.1831 13.8398 999 125.907 630.848 447.695
531 0 74.1396 16.361 1213 122.424 631.902 443.66
532 0 76.2628 14.7385 1124 126.239 633.205 438.07
533 0 78.2767 14.4232 1129 126.191 635.623 437.731
534 0 82.3341 16.931 1394 121.387 637.583 442.734
535 0 85.3911 11.8396 1011 129.508 639.057 437.513
536 0 85.1952 12.9467 1103 128.997 640.097 431.087
537 0 90.5237 15.101 1367 124.557 640.685 432.632
538 1 46.0893 9.78535 451 123.619 643.443 458.847
539 0 47.1204 11.7147 552 123.574 643.139 454.806
540 0 50.101 11.7962 591 127.54 643.887 455.435
541 0 54.058 14.3735 777 128.593 644.833 460.239
542 0 55.049 14.1874 781 132.75 644.366 457.067
543 0 57.1395 13.7733 787 130.037 644.492 462.968
544 0 57.1783 14.1487 809 133.24 642.995 461.213
545 0 57.1484 14.9435 854 134.062 642.272 459.104
546 0 61.1627 17.6088 1077 127.095 640.566 461.717
547 0 61.0902 15.0597 920 133.504 639.565 459.663
548 0 63.1166 16.2715 1027 132.249 638.477 459.237
549 0 63.062 13.7325 866 137.342 637.262 458.723
550 0 65.0984 13.2569 863 138.67 635.891 455.112
551 0 66.1949 14.4271 955 134.209 634.851 456.001
552 0 67.1392 14.1944 953 134.576 633.554 455.836
553 0 68.1391 13.9861 953 147.967 632.547 455.986
554 0 72.1062 10.859 783 141.99 631.542 451.966
555 0 75.2654 13.1535 990 137.8 629.665 447.848
556 0 79.2716 16.7778 1330 129.324 629.349 446.002
557 1 43.06 10.8221 466 138.118 629.682 461.44
558 0 45.1824 11.0663 500 138.336 629.75 460.186
559 0 46.0801 11.6102 535 135.28 629.303 459.508
560 0 46.0989 12.0827 557 137.472 629.42 453.925
561 0 52.8049 14.4494 763 127.696 628.096 457.149
562 0 51.0497 12.8306 655 133.684 630.713 454.673
563 0 52.141 12.9265 674 133.454 632.233 451.987
564 0 56.2538 13.7413 773 131.36 633.423 453.173
565 0 53.0648 11.8534 629 138.226 634.515 451.113
566 0 60.1278 12.7562 767 131.61 636.746 452.326
567 0 59.2367 14.957 886 123.116 638.651 452.909
568 0 59.295 12.8173 760 126.651 640.829 449.938
569 0 62.2484 13.4461 837 121.908 642.648 453.147
570 0 63.2202 12.7175 804 125.843 643.374 450.525
571 0 65.2147 14.3066 933 124.806 643.403 450.237
572 0 65.1117 11.0426 719 134.656 644.483 449.27
573 0 65.1106 11.9182 776 132.122 646.481 450.348
574 0 70.1387 12.3897 869 132.435 644.799 453.163
575 0 74.2549 13.1978 980 134.281 644.674 452.461
576 0 76.3074 14.5464 1110 128.712 644.199 452.38
577 0 76.308 13.4848 1029 136.428 643.639 450.105
578 0 79.2161 14.1385 1120 136.776 642.836 452.692
579 0 82.3989 14.5026 1195 137.733 641.093 452.823
580 0 85.1359 13.9189 1185 136.597 640.894 451.257
581 1 46.1172 11.6442 537 137.65 640.153 470.434
582 0 49.0198 11.4647 562 138.027 638.934 469.308
583 0 46.0389 10.4042 479 145.511 637.023 466.18
584 0 51.118 11.6593 596 141.334 636.067 466.794
585 0 51.0413 14.3413 732 139.9 633.701 466.728
586 0 53.0446 13.0645 693 137.818 630.175 464.928
587 0 55.0658 12.4215 684 143.371 629.614 464.617
588 0 55.0448 14.4064 793 140.337 630.044 462.588
589 0 60.1138 15.637 940 135.15 630.385 462.838
590 0 61.2088 12.6616 775 141.959 629.253 461.849
591 0 60.1894 15.6672 943 136.756 628.388 460.933
592 0 62.1639 14.6709 912 139.988 627.795 456.467
593 0 65.1065 14.2689 929 137.731 627.878 455.982
594 0 66.0566 14.6844 970 136.527 628.274 457.403
595 0 68.1589 14.7596 1006 136.777 628.399 454.46
596 0 71.1504 14.378 1023 137.889 628.81 452.616
597 0 74.1891 14.9348 1108 137.356 629.682 452.763
598 0 75.1129 14.9908 1126 140.272 631.023 451.593
599 0 78.3454 14.1297 1107 142.351 632.455 449.246
600 0 80.2191 14.7596 1184 141.39 633.543 447.528
601 0 82.0677 13.9153 1142 142.933 633.816 448.241
602 0 86.19 15.0714 1299 139.554 635.231 447.907
603 1 43.0782 10.98 473 146.782 635.237 464.926
604 0 47.1263 10.7583 507 143.351 636.84 467.757
605 0 46.0679 9.7682 450 142.576 636.111 467.916
606 0 48.279 11.0814 535 146.245 638.454 462.409
607 0 49.3179 11.3955 562 137.267 637.055 459.722
608 0 52.1982 10.5368 550 136.396 637.355 461.336
609 0 51.3623 12.5579 645 133.152 636.42 459.781
610 0 55.1995 11.6668 644 133.484 636.343 458.797
611 0 58.0863 12.3093 715 140.443 636.116 463.241
612 0 61.2539 14.7582 904 134.102 635.811 462.782
613 0 60.1234 13.7883 829 138.977 634.472 461.739
614 0 64.1779 17.171 1102 130.158 632.869 458.267
615 0 66.3639 15.4753 1027 132.385 631.909 458.286
616 0 70.2656 13.0932 920 136.378 630.317 456.583
617 0 71.2613 15.7729 1124 130.323 628.665 455.106
618 0 71.1697 14.5708 1037 132.685 627.83 452.625
619 0 75.2753 15.45 1163 129.745 626.592 451.457
620 0 78.1654 13.0876 1023 135.864 625.215 449.23
621 0 79.3368 14.0414 1114 131.962 624.455 445.257
622 0 82.328 14.9524 1231 130.989 624.452 442.834
623 0 84.2802 16.1723 1363 127.991 623.846 444.31
624 0 87.2324 13.9054 1213 132.477 623.717 439.363
625 0 89.3713 11.939 1067 136.387 623.4 437.384
626 0 91.3216 11.0708 1011 137.104 624.111 439.036
627 1 49.1206 12.2759 603 134.566 624.914 454.978
628 0 50.0872 11.3802 570 131.904 626.365 451.972
629 0 49.0529 12.4967 613 131.785 628.385 452.427
630 0 51.0414 10.3641 529 137.784 628.41 451.172
631 0 53.0993 10.6593 566 136.309 630.24 451.313
632 0 57.0804 10.494 599 130.509 630.917 450.215
633 0 58.3016 11.3376 661 131.522 632.781 451.393
634 0 61.1076 14.2372 870 126.99 634.583 449.508
635 0 62.1958 14.1649 881 129.504 636.129 448.385
636 0 63.1723 11.1758 706 137.231 638.075 449.629
637 0 66.4668 12.5928 837 136.755 638 446.728
638 0 70.552 15.1378 1068 130.239 639.177 450.003
639 0 71.29 14.8268 1057 133.57 639.874 447.482
640 0 74.3873 13.8464 1030 134.946 640.434 450.371
641 0 77.2652 14.2885 1104 134.942 640.211 449.294
642 0 82.4392 16.1574 1332 127.994 639.261 451.301
643 1 41.0935 9.0282 371 142.863 639.148 464.76
644 0 44.0502 12.4403 548 133.303 638.92 466.151
645 0 49.0732 12.2266 600 130.162 638.145 469.158
646 0 49.1191 14.0475 690 131.297 637.903 466.557
647 0 53.1701 12.9772 690 129.926 637.355 469.004
648 0 51.325 12.8398 659 132.124 636.437 467.319
649 0 54.3318 13.8777 754 128.796 633.901 465.854
650 0 55.1384 14.9805 826 125.452 633.121 461.913
651 0 55.1775 12.632 697 134.029 631.208 461.848
652 0 58.2991 12.9505 755 129.611 630.079 460.921
653 0 56.1364 12.1846 684 133.121 628.738 456.183
654 0 59.146 14.236 842 141.077 627.704 458.929
655 0 61.2169 16.9561 1038 122.939 627.536 455.756
656 0 62.2103 13.4865 839 128.278 626.83 454.128
657 0 63.2505 14.403 911 126.975 626.314 452.823
658 0 67.3159 16.4448 1107 122.305 626.214 451.043
659 0 69.2202 13.4354 930 128.148 627.097 449.772
660 0 69.2477 14.3254 992 127.659 627.184 448.554
661 0 70.2288 14.4528 1015 126.23 628.024 445.28
662 0 73.1991 14.563 1066 125.869 628.472 440.146
663 0 75.3853 15.1886 1145 125.197 630.79 440.835
664 0 81.5234 18.326 1494 119.793 631.897 439.716
665 0 79.1184 13.0564 1033 130.1 634.357 444.032
666 0 79.3137 12.4443 987 132.651 635.668 439.675
667 0 84.2875 12.6947 1070 133.846 637.15 438.482
668 1 44.0514 14.3469 632 123.196 639.992 458.448
669 0 44.0987 8.52632 376 138.356 641.904 458.91
670 0 46.2046 9.71765 449 139.149 641.764 459.648
671 0 49.2154 13.1463 647 130.847 643.056 458.116
672 0 51.1957 10.6064 543 136.271 643.416 460.669
673 0 51.316 11.6143 596 145.935 643.607 462.409
674 0 54.0769 13.8322 748 134.392 643.147 461.414
675 0 55.1491 11.9132 657 140.604 642.63 460.629
676 0 55.1802 11.8521 654 143.327 642.148 459.589
677 0 57.3333 12.9768 744 138.292 640.973 461.758
678 0 56.1384 11.8992 668 143.801 639.355 459.464
679 0 60.414 13.5565 819 139.49 638.046 456.498
680 0 61.157 12.4761 763 142.273 636.569 457.312
681 0 64.2708 13.801 887 138.852 635.59 454.531
682 0 66.2368 14.7803 979 136.177 633.561 451.23
683 0 65.1903 13.0541 851 140.72 632.363 451.945
684 0 68.2061 14.4415 985 137.04 630.467 448.955
685 0 72.2589 13.9637 1009 134.613 629.761 450.574
686 0 74.3575 13.4754 1002 136.121 628.644 447.566
687 1 42.2054 11.2071 473 132.19 628.958 464.061
688 0 41.098 9.10021 374 134.647 628.436 464.104
689 0 40.2243 11.9828 482 130.896 627.896 459.871
690 0 45.2528 9.52426 431 131.942 628.056 460.142
691 0 41.1754 9.44738 389 139.105 627.774 457.118
692 0 46.0469 10.9671 505 132.853 626.503 455.905
693 0 47.2057 11.291 533 129.413 627.428 452.235
694 0 51.6009 15.0385 776 118.74 628.336 450.669
695 0 52.2 15.0575 786 118 629.574 448.756
696 0 51.0734 14.2931 730 119.844 630.853 447.733
697 0 54.1343 14.464 783 121.737 631.69 448.208
698 0 55.2412 10.9158 603 127.612 633.547 447.713
699 0 57.3822 15.0395 863 121.586 636.543 446.871
700 0 60.1402 16.4449 989 118.973 637.876 448.224
701 0 62.3093 17.3971 1084 119.734 638.951 448.431
702 0 61.145 18.219 1114 120.664 639.736 450.417
703 0 64.1975 12.6796 814 130.55 641.242 449.656
704 0 68.1422 15.2182 1037 125.797 641.304 448.628
705 0 70.2552 15.1448 1064 128.318 641.555 446.889
706 0 72.2253 16.8916 1220 124.326 641.661 450.722
707 0 74.1402 13.3666 991 133.502 641.561 446.849
708 0 77.1601 14.9559 1154 132.41 641.697 446.718
709 0 79.1277 14.167 1121 134.644 641.35 446.553
710 1 41.0329 10.2844 422 137.481 640.922 469.038
711 0 42.0469 9.75103 410 141.8 639.229 467.854
712 0 46.1061 11.6687 538 138.401 636.401 467.219
713 0 45.1064 10.9519 494 137.411 635.336 466.37
714 0 46.2375 10.7272 496 146 634.966 462.663
715 0 49.2389 13.7087 675 138.264 634.089 460.418
716 0 49.1046 11.1802 549 142.579 633.124 460.217
717 0 54.0566 12.5424 678 132.665 631.291 462.336
718 0 54.047 12.7112 687 137.245 630.313 459.917
719 0 56.0893 14.1738 795 134.257 629.156 459.443
720 0 55.0964 12.3238 679 140.171 627.153 453.957
721 0 56.1885 10.4826 589 143.951 627.221 455.202
722 0 59.0765 11.172 660 143.209 627.035 455.038
723 0 64.0525 12.5366 803 136.606 626.263 453.451
724 0 62.0696 11.4549 711 142.176 626.543 450.308
725 0 66.0579 15.774 1042 130.381 626.542 449.641
726 0 66.191 13.3251 882 136.715 628.05 448.59
727 0 70.0526 12.5049 876 139.068 628.642 447.462
728 1 38.0238 11.8347 450 131.596 630.32 463.824
729 0 39.0567 9.19176 359 132.086 632.181 464.708
730 0 37.0951 10.9448 406 132.404 633.611 463.534
731 0 37.1414 11.1466 414 132.384 635.411 465.505
732 0 39.0621 9.9073 387 138.713 638.297 466.129
733 0 41.0892 9.39421 386 136.793 640.453 465.99
734 0 42.1452 14.4975 611 132.486 640.854 462.534
735 0 45.5515 12.5133 570 137.032 641.263 462.577
736 0 45.1665 12.2657 554 137.04 642.509 465.72
737 0 44.2605 12.9009 571 140.821 642.238 465.004
738 0 47.1657 13.5268 638 137.596 642.282 466.276
739 0 47.2051 11.4394 540 145.07 641.681 466.587
740 0 53.258 16.7111 890 129.525 641.409 468.317
741 0 52.1845 13.5673 708 138.799 641.136 467.455
742 0 53.2335 13.9949 745 139.608 639.569 466.992
743 0 55.2192 14.705 812 137.762 637.883 465.802
744 0 54.1821 16.1862 877 135.488 637.422 469.16
745 0 57.2087 13.005 744 141.173 635.598 466.136
746 0 60.2766 14.0685 848 137.857 634.032 466.861
747 0 63.2001 15.1266 956 135.924 631.44 463.572
748 0 63.2002 15.3797 972 136.357 630.827 462.415
749 0 65.2867 13.9998 914 139.724 629.555 462.072
750 0 66.1679 12.7554 844 142.639 627.775 459.168
751 0 71.1255 14.4252 1026 135.745 627.555 457.58
752 0 73.1143 13.5541 991 138.276 627.256 459.48
753 1 39.069 9.18887 359 143.111 627.922 473.602
754 0 40.0609 10.3343 414 143.705 627.128 471.478
755 0 44.065 13.117 578 135.621 626.817 470.521
756 0 45.0589 11.6514 525 138.857 626.608 468.83
757 0 45.0589 11.718 528 146.491 627.608 468.833
758 0 45.085 12.2879 554 136.838 627.013 465.099
759 0 47.0872 11.5743 545 133.352 626.488 463.072
760 0 51.1543 13.2931 680 128.401 626.799 461.843
761 0 51.1738 14.3042 732 122.913 627.291 463.846
762 0 51.0878 11.353 580 131.067 629.453 461.478
763 0 53.2862 14.7318 785 130.502 631.229 462.734
764 0 56.1131 16.5024 926 126.968 633.16 461.323
765 0 57.162 17.0918 977 127.321 634.169 459.664
766 0 59.4184 15.1973 903 130.269 635.22 463.528
767 0 61.1319 14.0025 856 130.754 636.029 460.646
768 0 63.1627 15.2463 963 128.777 637.264 460.582
769 0 63.2353 13.8372 875 134.536 638.015 458.785
770 0 68.298 14.9931 1024 132.372 638.34 457.989
771 0 66.2738 13.7007 908 137.27 638.096 458.304
772 0 70.2393 11.8025 829 142.871 637.473 458.369
773 0 75.1159 15.1366 1137 135.088 637.671 461.681
774 0 76.0906 14.6667 1116 138.299 637.193 458.891
775 0 77.1202 14.0689 1085 142.628 636.806 460.1
776 1 44.1447 9.69538 428 145.023 635.463 478.418
777 0 43.0526 12.868 554 135.866 633.502 477.588
778 0 45.2914 8.10308 367 147.093 632.774 475.226
779 0 45.0309 9.06045 408 145.951 631.99 476.578
780 0 48.3414 12.1014 585 142.544 629.607 472.349
781 0 51.3139 12.5112 642 143.607 627.975 470.989
782 0 52.1251 13.0455 680 138.612 626.484 470.587
783 0 53.0713 13.2463 703 139.488 625.088 467.287
784 0 55.1742 15.587 860 134.736 624.206 467.177
785 0 56.1571 13.6225 765 140.886 623.995 465.736
786 0 56.0626 12.0758 677 143.095 623.08 464.812
787 0 59.0909 14.9939 886 134.341 622.281 460.298
788 0 62.1716 15.1355 941 129.427 622.537 459.852
789 0 65.2448 15.6488 1021 129.033 621.933 456.353
790 0 66.2798 13.6542 905 133.623 622.206 455.514
791 0 65.2129 13.9696 911 134.216 622.905 450.93
792 0 68.299 14.0705 961 131.934 622.602 451.343
793 0 70.175 14.3498 1007 129.82 623.686 452.819
794 0 73.2782 13.7012 1004 132.442 624.407 448.689
795 0 75.289 15.5136 1168 128.677 625.806 446.225
796 0 80.2019 14.8999 1195 127.741 627.708 445.555
797 1 43.0346 14.2908 615 121.675 630.473 465.267
798 0 43.1164 11.1327 480 130.75 631.771 463.752
799 0 44.0258 11.4478 504 135.942 633.601 461.458
800 0 42.0275 12.9201 543 129.582 635.505 459.959
801 0 50.6275 17.2041 871 117.742 636.755 462.939
802 0 47.0819 14.4217 679 130.648 638.178 461.133
803 0 50.0986 14.0323 703 129.647 639.306 461.619
804 0 49.0644 15.2249 747 143.036 640.003 462.461
805 0 50.048 15.1654 759 145.772 640.498 463.028
806 0 52.1276 15.2894 797 144.863 640.064 463.552
807 0 53.1368 18.3112 973 140.801 640.471 462.77
808 0 53.1758 14.7435 784 151.366 640.173 461.721
809 0 56.1616 14.2802 802 151.011 638.915 464.469
810 0 55.2225 13.2193 730 157.097 637.833 460.071
811 0 60.1394 15.1648 912 148.428 637.1 458.652
812 0 61.2375 13.7987 845 154.07 637.086 461.475
813 0 63.2715 15.7101 994 150.196 636.225 458.704
814 0 64.3091 13.7928 887 154.991 634.908 457.145
815 0 68.1971 15.8364 1080 150.331 633.545 455.567
816 0 70.2659 16.7507 1177 147.361 632.28 452.481
817 0 72.2529 16.5115 1193 147.253 631.527 452.413
818 0 74.3049 16.042 1192 149.556 630.758 451.841
819 0 74.1496 13.9852 1037 153.795 629.852 452.947
820 0 76.1691 14.9273 1137 155.111 629.376 445.615
821 0 78.2207 16.658 1303 148.533 628.786 447.819
822 0 82.1864 15.185 1248 152.105 628.53 443.787
823 0 84.3905 17.3716 1466 147.641 627.898 438.96
824 1 47.1563 11.1968 528 154.561 629.661 460.536
825 0 48.0205 9.47512 455 157.27 627.484 460.145
826 0 48.0522 11.0713 532 156.055 627.581 457.244
827 0 50.0736 12.5216 627 148.895 628.463 454.262
828 0 52.1166 12.779 666 146.441 630.757 455.381
829 0 52.1802 11.6328 607 141.244 633.733 450.245
830 0 54.1077 11.551 625 139.765 634.95 450.662
831 0 56.2016 11.868 667 140.499 637.007 448.096
832 0 57.147 13.4565 769 140.211 638.273 447.761
833 0 60.0813 12.7827 768 142.109 639.419 448.788
834 0 62.1331 15.0644 936 138.858 641.296 447.887
835 0 65.2045 16.3025 1063 134.972 641.174 447.717
836 0 66.235 13.3313 883 141.128 643.082 448.785
837 0 69.0749 15.4904 1070 138.066 643.134 451.626
838 0 71.1498 13.844 985 145.621 642.954 449.037
839 0 74.1003 14.7503 1093 140.913 642.747 449.54
840 0 77.0639 15.2341 1174 143.644 642.689 451.059
841 0 76.2618 13.257 1011 154.079 642.167 448.415
842 1 42.0358 10.3483 435 150.347 642.083 469.745
843 0 40.0489 10.1376 406 153.692 641.131 469.315
844 0 44.0759 8.66687 382 151.927 639.186 472.453
845 0 45.1252 11.3019 510 156.225 637.331 472.812
846 0 46.0536 9.94494 458 162.277 636.747 471.094
847 0 49.108 14.3765 706 153.222 635.224 467.693
848 0 50.3978 11.9846 604 159.242 634.303 466.205
849 0 54.2297 14.0145 760 151.587 633.451 464.853
850 0 53.0776 13.7535 730 151.407 630.11 465.134
851 0 55.1313 15.6717 864 146.309 630.565 462.5
852 0 56.1143 12.4567 699 155.296 629.049 464.243
853 0 59.0769 14.2865 844 149.423 628.73 461.627
854 0 60.1121 14.9554 899 149.127 628.246 455.707
855 0 63.0942 14.09 889 149.154 628.258 457.67
856 0 63.1443 14.1897 896 148.815 628.629 456.377
857 0 65.2292 15.4839 1010 145.794 628.215 454.178
858 0 67.1303 13.9132 934 148.503 628.506 453.986
859 0 70.2007 14.017 984 148.809 628.794 451.936
860 0 70.2095 12.1066 850 154.738 629.26 450.149
861 0 75.1936 14.4693 1088 146.142 629.562 447.434
862 1 40.1267 12.3359 495 147.404 631.574 465.733
863 0 42.1164 12.9878 547 141.74 633.713 466.027
864 0 41.1499 11.3973 469 149.77 631.774 463.61
865 0 44.0976 10.0232 442 146.079 633.305 464.095
866 0 46.1168 11.6227 536 147.496 634.213 462.681
867 0 49.0374 14.1117 692 145.095 636.105 463.379
868 0 50.0844 12.2393 613 147.476 637.256 461.272
869 0 50.0872 16.7508 839 142.462 637.46 461.94
870 0 51.0351 14.7937 755 148.245 637.992 462.507
871 0 52.1032 15.0855 786 144.407 638.98 460.412
872 0 54.0804 14.4784 783 146.534 638.756 461.046
873 0 54.0848 13.3309 721 149.553 637.63 464.323
874 0 53.1128 12.0122 638 155.042 638.038 462.246
875 0 59.058 16.2721 961 144.084 637.821 462.678
876 0 61.1395 15.0803 922 144.923 637.185 464.413
877 0 60.1126 13.5912 817 151.029 635.29 461.268
878 0 64.0989 14.1656 908 146.411 634.081 462.693
879 0 64.1152 14.9575 959 144.814 632.704 457.903
880 0 63.1924 12.2483 774 153.565 631.845 457.284
881 0 68.1573 12.5738 857 150.707 630.222 454.889
882 0 71.1459 13.8448 985 147.181 628.439 459.027
883 0 73.065 13.1527 961 147.523 627.73 452.293
884 0 76.1923 15.264 1163 139.195 626.351 452.307
885 0 79.1067 14.7269 1165 139.225 625.289 448.021
886 0 82.175 15.8321 1301 135.558 625.278 446.835
887 0 85.1627 18.0008 1533 131.876 625.336 446.795
888 0 86.1462 16.3675 1410 133.294 624.555 444.734
889 0 90.275 14.1789 1280 138.107 623.835 440.927
890 1 50.1862 11.4772 576 136.5 624.201 461.701
891 0 52.0455 11.6629 607 137.278 624.3 457.173
892 0 53.1493 11.5335 613 136.496 624.168 456.316
893 0 53.0696 13.0206 691 134.855 625.042 454.321
894 0 55.2763 13.4054 741 131.835 625.85 454.389
895 0 57.148 15.7311 899 128.91 627.704 454.012
896 0 58.2725 16.0625 936 127.083 628.861 453.551
897 0 63.1143 13.0082 821 129.163 630.531 453.559
898 0 61.3503 13.3007 816 131.641 632.797 451.625
899 0 64.104 14.9913 961 130.112 634.8 451.341
900 0 67.3355 16.9153 1139 126.889 635.908 450.476
901 0 67.1108 13.6938 919 135.998 636.845 448.446
902 0 70.1991 13.6184 956 135.925 638.121 450.427
903 0 73.1619 15.8553 1160 134.967 638.289 448.529
904 0 75.0855 14.7299 1106 136.32 639.451 449.151
905 0 77.3375 16.0724 1243 133.54 639.648 447.902
906 0 79.4443 14.3245 1138 132.503 640.64 444.56
907 0 81.2025 13.4848 1095 138.639 639.952 445.817
908 0 85.3411 12.4911 1066 142.098 639.339 441.538
909 0 88.5922 13.9967 1240 138.984 638.692 443.144
910 0 91.1944 16.8541 1537 137.16 637.741 440.599
911 1 50.1148 10.456 524 144.406 636.777 462.966
912 0 51.2931 12.8672 660 137.723 636.315 460.914
913 0 54.315 12.1698 661 139.643 635.941 460.219
914 0 52.2259 13.4033 700 138.944 634.541 459.929
915 0 54.0817 13.1098 709 141.474 633.963 461.621
916 0 57.1122 12.8694 735 140.909 632.952 459.736
917 0 58.0774 12.931 751 141.108 631.097 457.881
918 0 58.0774 12.8105 744 139.478 629.085 457.879
919 0 63.0606 11.1797 705 141.138 629.611 457.86
920 0 64.1251 15.6413 1003 134.627 629.06 451.465
921 0 66.2988 12.6247 837 139.226 628.888 452.673
922 0 71.226 14.4751 1031 134.606 628.729 448.67
923 0 73.2182 15.2148 1114 126.681 628.848 450.359
924 0 75.2541 17.1286 1289 122.049 628.929 446.76
925 0 79.1681 14.4629 1145 124.624 629.105 446.084
926 0 81.4412 13.8628 1129 124.88 629.496 443.607
927 0 83.311 13.5396 1128 125.584 630.549 441.95
928 0 85.3231 15.8574 1353 121.909 631.533 442.97
929 1 46.1323 10.6433 491 124.587 633.853 461.342
930 0 50.264 12.2752 617 118.149 636.078 461.603
931 0 50.0967 11.5377 578 123.834 638.111 460.758
932 0 49.1674 12.0405 592 126.274 639.331 457.883
933 0 50.1172 12.0717 605 124.479 640.82 456.516
934 0 53.4368 13.8294 739 119.651 641.804 458.536
935 0 57.2299 14.8873 852 120.937 643.043 457.276
936 0 54.2059 12.6554 686 126.899 644.216 456.86
937 0 59.076 14.5744 861 123.605 644.214 456.591
938 0 61.1681 17.7544 1086 117.275 644.203 445.146
939 0 62.1677 14.3161 890 122.901 643.552 448.155
940 0 63.3897 22.9375 1454 111.301 642.752 442.238
941 0 63.1555 12.0338 760 131.992 642.946 448.03
942 0 67.1687 14.7986 994 127.484 641.314 447.137
943 0 66.1578 12.6969 840 135.339 641.501 449.688
944 0 70.1934 14.5028 1018 134.434 640.298 446.279
945 0 71.332 14.0049 999 133.365 638.798 449.715
946 0 74.347 13.6253 1013 135.338 637.9 447.665
947 0 77.3456 14.0409 1086 134.484 636.14 443.949
948 0 80.0877 16.4195 1315 130.323 634.852 446.476
949 0 80.2637 14.9133 1197 134.546 632.678 443.203
950 0 84.1883 13.9449 1174 135.669 630.711 441.198
951 0 86.2999 16.8714 1456 130.223 629.286 440.749
952 1 44.3688 12.7567 566 132.581 628.979 456.97
953 0 47.1545 11.5789 546 135.949 628.694 460.24
954 0 48.1534 9.51127 458 135.712 628.965 460.284
955 0 49.3226 10.8267 534 133.895 628.474 454.204
956 0 51.5411 13.8336 713 131.496 628.808 449.682
957 0 53.2314 12.4363 662 133.583 628.524 448.894
958 0 55.3322 14.5846 807 122.081 629.371 450.079
959 0 56.1885 12.8496 722 124.356 630.319 447.817
960 0 61.1176 11.846 724 126.036 630.149 447.285
961 0 61.1637 13.7173 839 126.324 631.302 444.08
962 0 65.0941 15.3931 1002 124.058 633.013 445.323
963 0 63.3864 12.4317 788 130.674 634.807 445.756
964 0 68.3172 16.3941 1120 121.64 636.171 444.684
965 0 72.3427 13.6849 990 126.24 637.702 444.21
966 0 73.2463 15.168 1111 125.831 639.589 441.815
967 0 73.426 14.0141 1029 132.107 640.263 443.688
968 0 75.4115 15.3292 1156 130.767 641.715 439.401
969 0 79.3598 15.1588 1203 133.805 642.37 440.797
970 0 81.2779 17.8277 1449 129.218 642.442 437.897
971 0 85.2046 16.255 1385 134.241 642.688 437.783
972 0 87.2585 16.8923 1474 134.862 642.78 439.839
973 0 90.3363 17.5345 1584 136.386 642.059 435.522
974 1 47.1642 10.3892 490 146.21 641.467 458.959
975 0 49.2182 11.9671 589 148.852 641.088 455.226
976 0 53.3174 11.5722 617 144.068 639.781 457.514
977 0 53.2213 13.4908 718 147.17 638.006 454.479
978 0 54.2398 12.9241 701 146.073 636.625 464.121
979 0 59.1469 15.1825 898 140.159 636.214 460.713
980 0 62.1214 13.6668 849 143.775 634.332 460.092
981 0 64.3104 14.7566 949 139.177 633.011 460.321
982 0 65.2532 16.6735 1088 138.016 633.017 456.092
983 0 67.2502 14.1858 954 141.273 631.932 452.925
984 0 72.3283 15.7753 1141 132.871 631.181 452.353
985 0 73.3784 16.8169 1234 131.998 630.048 451.974
986 1 38.1305 10.569 403 137.742 630.519 466.68
987 0 40.1677 10.8047 434 141.456 629.069 462.399
988 0 42.3702 11.8716 503 135.028 628.883 462.348
989 0 43.2291 12.2371 529 133.384 629.049 459.819
990 0 43.4522 12.5655 546 133.313 628.132 458.077
991 0 54.057 12.5608 679 124.81 629.124 459.302
992 0 48.7571 14.603 712 130.716 628.243 453.094
993 0 50.4222 14.4777 730 127.034 629.168 454.404
994 0 51.448 12.2842 632 140.551 629.747 450.965
995 0 51.4909 13.4199 691 137.53 631.658 451.049
996 0 55.431 15.1359 839 137.313 633.026 450.828
997 0 52.226 11.163 583 144.979 634.834 451.209
998 0 52.226 11.1822 584 152.841 636.789 451.058
999 0 58.4404 14.3052 836 140.627 637.889 448.191
1000 0 61.1663 15.3025 936 140.966 639.603 448.736
1001 0 63.2184 15.7233 994 145.479 641.182 448.114
1002 0 63.0972 14.5331 917 149.868 641.496 448.921
1003 0 64.2303 12.424 798 155.674 641.924 448.698
1004 0 67.1629 12.5218 841 146.738 642.639 446.693
1005 0 71.1474 13.1277 934 150.751 643.495 448.648
1006 0 72.0641 12.6138 909 151.584 643.245 449.033
1007 1 41.0299 9.04218 371 148.45 644.232 468.48
1008 0 42.0806 9.00653 379 147.113 643.464 469.699
1009 0 41.0495 10.0854 414 147.155 643.877 469.043
1010 0 40.0356 9.91618 397 152.982 642.411 465.111
1011 0 45.0462 13.7414 619 139.64 641.439 469.165
1012 0 48.0916 10.7711 518 145.969 639.458 470.382
1013 0 48.1059 12.6596 609 144.158 634.558 463.979
1014 0 49.0217 13.6674 670 142.206 633.406 463.658
1015 0 50.1356 10.9703 550 147.525 631.731 462.525
1016 0 52.1938 13.4307 701 141.558 629.447 461.939
1017 0 52.207 11.8566 619 143.908 628.874 460.535
1018 0 55.0765 13.1454 724 140.167 627.946 457.141
1019 0 57.088 14.066 803 136.273 627.085 454.701
1020 0 56.0195 12.8884 722 141.201 626.929 460.141
1021 0 63.0819 14.5208 916 133.681 625.843 459.025
1022 0 63.1364 15.9813 1009 129.562 625.85 452.846
1023 0 67.0813 16.2638 1091 126.714 624.918 454.885
1024 0 68.1167 15.1798 1034 133.262 625.345 452.112
1025 0 69.1392 13.1185 907 138.732 625.388 451.097
1026 0 70.0849 14.2399 998 136.999 626.028 449.379
1027 0 73.07 13.4939 986 138.033 626.317 449.86
1028 0 77.1127 16.651 1284 130.284 627.289 449.005
1029 0 78.1664 14.9809 1171 132.67 628.696 447.907
1030 0 82.1758 13.7997 1134 135.64 630.293 442.593
1031 0 84.1291 14.763 1242 134.395 631.304 443.25
1032 0 86.1427 15.5324 1338 132.777 636.084 445.259
1033 0 90.2359 13.9523 1259 135.969 637.044 446.507
1034 1 47.0212 12.5688 591 138.333 639.496 464.401
1035 0 47.0855 11.6809 550 139.396 641.087 465.149
1036 0 47.0252 11.2493 529 141.1 641.291 465.624
1037 0 50.3621 13.4426 677 136.185 641.997 463.191
1038 0 54.3986 12.868 700 135.721 641.71 465.766
1039 0 56.1275 14.182 796 135.604 642.045 466.492
1040 0 59.2018 14.459 856 133.605 641.801 468.03
1041 0 60.0903 15.6265 939 131.56 640.785 467.85
1042 0 61.2378 17.3586 1063 129.552 640.406 465.845
1043 0 63.079 15.647 987 133.478 638.263 465.761
1044 0 65.1102 14.9439 973 134.975 636.48 463.158
1045 0 67.2653 14.7327 991 135.087 635.785 462.823
1046 0 69.1444 14.2745 987 134.746 633.655 460.619
1047 0 72.2014 15.0967 1090 133.442 631.735 457.938
1048 0 75.1876 15.8404 1191 132.015 630.266 457.076
1049 0 76.1762 13.9939 1066 135.758 628.885 456.254
1050 0 83.2811 18.1914 1515 125.055 627.141 455.273
1051 0 82.2247 15.6766 1289 132.971 625.182 448.692
1052 0 84.3653 14.8639 1254 134.247 625.982 446.364
1053 0 87.2119 14.9865 1307 132.065 625.957 446.955
1054 1 44.129 10.7866 476 135.284 627.355 467.538
1055 0 45.087 11.9547 539 134.876 627.071 465.787
1056 0 48.1194 12.2196 588 133.26 626.605 461.145
1057 0 46.3251 9.69237 449 139.203 627.236 460.379
1058 0 50.2785 11.9733 602 134.164 627.056 458.322
1059 0 53.482 15.5753 833 128.335 627.414 456.245
1060 0 53.0416 13.0652 693 131.996 628.926 458.877
1061 0 54.1882 15.6676 849 127.686 629.161 456.133
1062 0 58.1363 14.036 816 128.202 630.207 455.824
1063 0 58.0889 15.7862 917 126.874 631.272 452.055
1064 0 57.1444 15.2071 869 129.374 633.634 451.409
1065 0 59.0726 13.4411 794 135.563 635.286 451.67
1066 0 64.3394 17.7807 1144 122.302 636.38 451.962
1067 0 63.204 16.6129 1050 126.03 637.799 449.954
1068 0 64.1034 16.3018 1045 129.905 639.327 450.25
1069 0 69.1436 13.8552 958 134.15 640.452 451.559
1070 0 71.1675 14.7961 1053 131.392 641.977 449.922
1071 0 71.1488 14.3643 1022 134.323 641.991 449.249
1072 0 74.1456 11.936 885 139.029 642.682 446.461
1073 0 76.2726 15.4577 1179 130.978 642.24 447.99
1074 0 78.1548 15.2774 1194 133.907 642.481 447.768
1075 0 81.2243 14.5154 1179 137.835 642.763 447.573
1076 0 84.1933 16.7828 1413 132.888 641.703 447.299
1077 0 86.2011 17.436 1503 133.92 640.804 447.417
1078 0 90.1999 16.153 1457 137.251 640.811 445.833
1079 0 93.2264 16.5511 1543 135.566 639.533 442.615
1080 0 98.261 18.3796 1806 131.302 638.315 443.695
1081 1 54.015 11.1451 602 142.859 638.321 463.002
1082 0 52.0553 11.0459 575 142.343 636.501 462.69
1083 0 58.0325 11.528 669 140.096 635.389 460.834
1084 0 53.0682 12.8137 680 137.106 633.782 457.91
1085 0 59.036 13.7035 809 131.422 631.138 455.292
1086 0 62.2082 14.2104 884 128.222 630.473 453.267
1087 0 60.1684 11.5842 697 132.159 629.396 449.141
1088 0 65.2389 13.1823 860 128.594 628.97 449.873
1089 0 68.2441 13.2026 901 127.836 627.935 448.205
1090 0 68.2347 14.9631 1021 127.142 627.925 443.275
1091 0 68.3053 11.1704 763 133.932 627.874 441.653
1092 0 73.5887 13.1542 968 128.6 628.777 439.873
1093 0 74.2959 15.2364 1132 126.229 628.595 439.508
1094 0 77.3484 12.3079 952 132.453 628.995 436.226
1095 0 79.168 14.6019 1156 127.815 629.439 436.587
1096 0 82.2466 11.8303 973 135.996 631.561 435.789
1097 0 85.264 13.382 1141 131.088 632.676 434.415
1098 0 88.3843 13.1471 1162 131.931 634.819 433.187
1099 0 93.2699 14.7743 1378 129.305 636.859 434.103
1100 1 46.0697 8.92126 411 135.092 639.161 455.088
1101 0 49.1394 11.8032 580 135.848 640.724 456.6
1102 0 50.2294 11.0493 555 136.598 642.706 456.544
1103 0 52.1303 9.93664 518 140.82 643.6 456.141
1104 0 54.1971 12.3623 670 136.073 643.833 457.401
1105 0 57.2439 16.1415 924 127.369 644.027 456.943
1106 0 58.2483 12.6527 737 135.947 643.988 455.275
1107 0 60.1516 12.5184 753 138.13 643.502 457.785
1108 0 62.1513 13.8855 863 136.39 643.497 457.467
1109 0 63.1038 12.424 784 140.552 643.14 456.983
1110 0 67.0695 12.748 855 136.798 642.318 457.189
1111 0 70.1445 14.7695 1036 133.267 640.052 456.066
1112 0 69.1429 10.9194 755 142.705 639.445 456.285
1113 0 75.1997 14.4814 1089 134.185 637.554 455.013
1114 1 40.0173 11.445 458 136.712 637.109 474.1
1115 0 41.0674 12.1751 500 136.778 635.34 472.754
1116 0 41.1262 12.1334 499 137.351 633.723 472.303
1117 0 42.1172 8.00149 337 143.635 632.116 473.908
1118 0 44.0965 12.8582 567 135.15 630.885 470.529
1119 0 46.0467 12.9434 596 136.023 629.911 468.406
1120 0 48.2295 12.6479 610 134.477 629.254 466.285
1121 0 48.2232 12.608 608 133.271 628.324 465.702
1122 0 50.2737 14.3614 722 129.524 627.921 464.704
1123 0 49.2476 12.1833 600 136.185 627.837 463.01
1124 0 55.3219 16.9553 938 125.222 626.356 461.626
1125 0 52.1287 12.3732 645 136.643 626.553 457.927
1126 0 55.5104 12.5922 699 133.561 626.984 457.735
1127 0 57.0852 12.8229 732 135.049 627.111 457.377
1128 0 58.1552 13.0857 761 134.258 627.464 457.118
1129 0 62.1707 15.0071 933 131.471 628.04 453.932
1130 0 60.1661 12.6483 761 134.397 629.193 452.965
1131 0 65.1112 15.6501 1019 127.221 630.413 454.397
1132 0 67.204 13.5557 911 132.091 632.486 451.457
1133 0 70.1593 15.365 1078 129.229 634.052 450.18
1134 0 72.222 15.4662 1117 128.543 634.91 448.285
1135 0 72.1894 13.5893 981 133.344 636.773 450.055
1136 0 76.2675 14.3836 1097 133.786 637.506 449.493
1137 0 79.2807 13.963 1107 135.72 638.487 448.568
1138 1 41.0409 12.5241 514 135.3 639.953 469.751
1139 0 42.0445 10.9408 460 142.413 639.85 468.302
1140 0 46.0262 11.7976 543 138.16 639.886 470.326
1141 0 49.0512 14.0262 688 135.14 639.263 469.452
1142 0 48.1666 10.8581 523 142.715 638.577 468.43
1143 0 47.0642 12.3236 580 142.843 638.055 467.233
1144 0 53.0382 15.6491 830 132.016 636.172 468.639
1145 0 53.0353 13.1045 695 140.283 634.924 466.476
1146 0 54.0628 15.0381 813 135.711 633.321 467.573
1147 0 58.047 13.0928 760 138.086 632.384 465.507
1148 0 59.0304 14.6873 867 136.631 629.967 462.798
1149 0 61.0505 13.6936 836 137.075 629.268 461.738
1150 0 62.0996 13.9775 868 136.381 628.036 459.933
1151 0 66.0475 15.61 1031 134.385 626.929 457.292
1152 0 65.1757 12.2285 797 143.821 625.857 456.625
1153 0 69.1324 15.087 1043 135.451 625.048 455.378
1154 0 67.1249 12.0075 806 144.186 625.104 451.211
1155 0 71.0653 13.4806 958 140.296 625.164 452.27
1156 0 75.1226 17.132 1287 133.132 625.131 447.558
1157 0 76.1329 14.3171 1090 139.083 624.778 444.526
1158 0 76.3475 12.4955 954 144.447 625.281 443.73
1159 0 82.2003 16.2651 1337 135.41 625.589 442.705
1160 0 86.2697 18.6856 1612 130.723 626.576 439.263
1161 0 87.1568 14.8124 1291 139.735 627.09 440.229
1162 1 47.1352 12.496 589 136.452 627.71 459.362
1163 0 50.1476 11.2468 564 137.516 629.392 457.819
1164 0 49.2077 10.5675 520 140.315 631.137 458.61
1165 0 49.1726 14.3779 707 135.491 633.103 457.453
1166 0 49.2795 11.1202 548 143.035 633.558 452.81
1167 0 55.1835 14.3159 790 133.428 636.156 453.114
1168 0 54.0545 12.7834 691 135.369 637.447 452.029
1169 0 56.1828 13.812 776 133.771 640.066 452.13
1170 0 59.1012 14.5175 858 131.804 639.347 453.255
1171 0 59.1287 13.7158 811 135.111 640.154 451.284
1172 0 61.0554 13.6106 831 134.4 640.91 452.076
1173 0 65.1196 14.9417 973 130.805 641.618 451.47
1174 0 67.1099 16.242 1090 127.729 642.018 452.492
1175 0 70.1293 17.0114 1193 127.338 642.306 452.374
1176 0 71.0719 15.3366 1090 131.874 641.278 448.685
1177 0 73.0669 14.7399 1077 133.644 640.318 448.496
1178 0 79.0969 17.0171 1346 128.275 639.77 447.709
1179 0 81.0869 15.1196 1226 131.8 638.326 449.322
1180 0 83.1485 14.4801 1204 133.211 636.987 447.841
1181 1 45.0283 9.86046 444 136.133 635.977 465.412
1182 0 44.0298 8.81221 388 140.018 634.791 463.776
1183 0 47.2748 12.2899 581 128.398 633.232 465.318
1184 0 47.1054 12.3553 582 131.476 632.46 464.06
1185 0 48.0642 12.8162 616 132.804 630.294 458.412
1186 0 49.1163 9.93559 488 139.717 628.799 457.861
1187 0 53.0761 14.1307 750 130.283 627.645 455.208
1188 0 54.1351 14.0944 763 135.119 628.148 460.197
1189 0 59.1369 15.1513 896 130.893 628.767 459.96
1190 0 53.1522 13.4143 713 140.123 627.555 453.142
1191 0 57.1953 15.1236 865 133.772 627.126 452.271
1192 0 60.1327 12.8549 773 136.84 627.924 453.899
1193 0 62.0756 14.9656 929 131.964 628.421 451.844
1194 0 65.3897 16.4858 1078 127.246 629.038 453.661
1195 0 66.3801 15.5468 1032 132.354 630.728 448.463
1196 0 69.3121 13.9225 965 134.446 632.891 449.501
1197 0 71.1574 15.5008 1103 131.281 633.552 447.261
1198 0 75.1278 15.6933 1179 130.348 635.436 445.465
1199 0 74.2841 17.1773 1276 129.462 637.057 441.802
1200 0 78.3339 18.268 1431 125.696 637.948 446.121
1201 0 82.3212 17.4803 1439 128.876 639.461 442.961
1202 0 84.1449 16.5785 1395 132.173 640.596 438.804
1203 0 86.3519 13.8735 1198 137.348 640.818 442.053
1204 1 47.133 10.8629 512 137.459 641.428 460.875
1205 0 48.2577 10.9413 528 137.693 641.08 461.765
1206 0 49.3276 11.9608 590 138.981 641.369 458.89
1207 0 54.2852 12.2685 666 138.24 641.281 459.833
1208 0 53.3016 15.6656 835 133.429 641.234 458.925
1209 0 55.3553 14.8315 821 135.82 641.119 458.961
1210 0 54.0809 16.5863 897 130.91 641.977 460.458
1211 0 58.1256 12.731 740 135.878 641.022 463.005
1212 0 63.1608 13.6952 865 134.106 640.32 462.246
1213 0 63.1041 15.4348 974 132.509 638.574 461.345
1214 0 65.0655 14.1089 918 135.278 637.194 459.234
1215 0 68.0829 14.4677 985 133.864 635.031 458.606
1216 0 69.2304 19.8323 1373 124.873 633.391 456.648
1217 0 71.0854 14.56 1035 136.868 633.023 453.786
1218 0 73.1465 17.8272 1304 130.271 631.683 453.662
1219 0 76.1377 17.8755 1361 131.043 630.17 448.115
1220 0 78.2912 18.1374 1420 129.639 629.876 447.204
1221 0 80.1834 15.4645 1240 138.449 627.896 443.506
1222 0 84.3076 17.9818 1516 131.84 626.764 444.569
1223 0 85.1874 18.9699 1616 127.987 625.912 443.334
1224 0 90.3897 18.7189 1692 128.212 625.609 442.335
1225 0 89.4186 15.9139 1423 135.572 626.742 441.827
1226 0 93.2039 14.9672 1395 137.785 626.812 439.777
1227 0 95.1683 15.3517 1461 141.901 626.987 434.621
1228 1 54.0278 11.4386 618 140.447 627.257 459.684
1229 0 54.1351 10.8433 587 143.119 628.16 460.724
1230 0 58.1046 8.63959 502 150.386 630.014 457.978
1231 0 59.1652 13.4708 797 140.442 631.005 458.019
1232 0 61.0646 11.4141 697 142.882 633.402 458.33
1233 0 65.1614 15.1316 986 137.903 635.933 457.093
1234 0 63.2787 13.8909 879 144.353 638.477 452.388
1235 0 66.2038 12.7485 844 139.75 639.496 453.898
1236 0 67.0725 14.3427 962 141.165 639.964 451.464
1237 0 70.0821 13.2416 928 142.402 641.918 451.929
1238 0 74.1178 13.2357 981 142.287 641.49 452.062
1239 0 76.0309 15.2701 1161 139.327 641.857 452.154
1240 0 79.1075 13.6017 1076 143.895 641.874 452.41
1241 0 79.0816 12.367 978 147.984 641.365 452.693
1242 0 83.122 15.8562 1318 142.005 642.048 451.426
1243 0 85.1137 15.0152 1278 144.527 640.695 452.485
1244 0 89.1209 16.6403 1483 141.766 639.607 449.984
1245 0 91.0836 13.6797 1246 147.393 638.605 448.356
1246 0 97.2899 14.3386 1395 143.577 637.147 450.649
1247 1 47.0949 10.2347 482 146.481 635.919 469.483
1248 0 47.0414 11.4367 538 149.24 634.957 469.626
1249 0 51.1393 13.8445 708 145.863 633.331 465.541
1250 0 52.135 13.5418 706 143.63 630.952 470.647
1251 0 56.2731 15.2293 857 139.939 630.676 465.466
1252 0 55.2221 12.2234 675 146.099 630.674 466.249
1253 0 57.1934 15.4214 882 140.772 629.405 463.751
1254 0 57.2223 13.2641 759 145.207 628.668 462.88
1255 0 59.2332 13.1514 779 147.566 628.439 460.89
1256 0 64.2353 14.4936 931 142.217 627.897 457.841
1257 0 63.265 15.6169 988 141.775 626.729 454.851
1258 0 68.3259 15.7188 1074 138.325 626.848 457.584
1259 0 68.5107 14.6692 1005 143.309 626.195 451.646
1260 0 70.143 16.224 1138 141.27 625.867 451.496
1261 0 73.2185 16.8263 1232 140.909 625.72 450.526
1262 0 74.297 16.3129 1212 144.686 626.413 446.084
1263 0 78.3032 15.6188 1223 144.741 627.409 448.186
1264 0 79.1881 13.5248 1071 152.634 629.538 447.729
1265 0 81.2712 15.8728 1290 150.389 630.901 444.588
1266 0 86.1489 19.06 1642 143.769 632.778 442.846
1267 0 89.2257 15.2198 1358 152.083 634.432 443.254
1268 1 46.2785 11.5604 535 152.987 636.658 465.964
1269 0 50.2545 12.0387 605 154.929 637.734 463.499
1270 0 52.3385 12.5338 656 153.34 638.55 462.8
1271 0 53.1575 15.4823 823 144.928 639.764 464.021
1272 0 55.3121 11.4984 636 153.255 639.844 465.042
1273 0 55.2312 14.5932 806 151.321 638.864 463.598
1274 0 57.1318 15.578 890 150.356 638.64 464.787
1275 0 60.0858 15.7941 949 145.474 637.669 465.908
1276 0 62.2511 16.562 1031 144.091 636.995 463.597
1277 0 67.0883 16.8137 1128 144.421 636.186 464.157
1278 0 69.1324 15.6077 1079 146.145 634.485 465.629
1279 0 72.2265 14.5791 1053 148.492 632.559 462.406
1280 0 74.114 16.2722 1206 144.784 632.032 459.553
1281 0 77.1271 14.5344 1121 148.468 630.21 457.932
1282 0 79.1193 17.6948 1400 141.498 628.659 459.306
1283 0 82.1085 17.8301 1464 140.175 627.913 460.373
1284 0 84.1561 16.9804 1429 143.316 627.672 454.122
1285 1 47.0546 12.3899 583 149.842 627.786 473.604
1286 0 47.0331 10.971 516 151.037 626.952 473.626
1287 0 48.1535 12.2317 589 148.024 626.003 473.633
1288 0 51.0535 13.9853 714 145.878 625.02 469.863
1289 0 51.0951 13.6412 697 145.321 624.907 468.379
1290 0 54.078 14.3126 774 139.004 623.528 465.82
1291 0 54.0974 13.106 709 146.203 622.748 461.836
1292 0 58.2825 15.0302 876 139.001 622.712 460.292
1293 0 57.1576 13.734 785 136.941 624.057 458.512
1294 0 60.0515 13.7216 824 135.203 624.4 460.697
1295 0 61.2248 14.4059 882 134.776 624.647 454.713
1296 0 67.0926 14.9197 1001 134.073 625.989 453.452
1297 0 67.2084 13.6441 917 142.694 627.846 456.125
1298 0 70.2125 13.2882 933 144.166 629.066 456.391
1299 0 72.0844 14.3304 1033 139.665 630.012 454.371
1300 0 75.1992 15.173 1141 140.663 631.511 450.831
1301 1 40.0294 9.81777 393 147.125 633.374 470.659
1302 0 41.1584 11.1763 460 144.593 634.95 470.485
1303 0 41.0944 11.3641 467 148.709 636.109 469.024
1304 0 43.1205 11.8273 510 147.233 636.804 469.241
1305 0 45.1572 12.2904 555 146.38 637.793 468.768
1306 0 48.1866 13.7798 664 144.736 637.508 466.684
1307 0 50.2055 12.6281 634 147.021 636.648 467.151
1308 0 52.069 14.8841 775 143.665 635.262 468.102
1309 0 53.1043 14.5939 775 146.155 635.102 468.221
1310 0 58.1205 14.2979 831 141.694 634.853 466.184
1311 0 58.0835 14.6857 853 142.517 634.24 467.25
1312 0 60.1054 13.3266 801 147.135 632.782 465.87
1313 0 62.1185 11.5747 719 150.892 631.702 467.227
1314 0 67.0829 15.2796 1025 142.246 630.66 464.615
1315 0 67.087 16.4413 1103 142.625 628.634 461.634
1316 0 68.0887 13.688 932 151.792 627.572 460.487
1317 0 71.0858 15.2492 1084 147.268 626.759 460.609
1318 0 73.0659 14.1653 1035 150.142 625.438 458.348
1319 0 77.1218 15.7932 1218 145.772 624.013 457.991
1320 0 80.1202 14.8652 1191 148.544 622.894 455.763
1321 1 39.0515 9.9612 389 158.892 621.792 474.746
1322 0 38.0401 14.7476 561 152.114 621.328 470.955
1323 0 44.0245 12.4476 548 153.515 620.695 469.398
1324 0 44.1708 13.9912 618 146.528 620.542 470.061
1325 0 45.1381 14.5996 659 143.586 622.279 464.508
1326 0 45.0981 12.5282 565 151.593 622.451 462.32
1327 0 50.1315 14.0231 703 145.347 622.398 462.115
1328 0 48.1076 14.5091 698 147.348 623.438 460.223
1329 0 49.0956 12.9136 634 150.795 624.874 461.481
1330 0 53.1226 16.1702 859 148.454 625.333 461.626
1331 0 55.1003 17.9128 987 145.309 627.52 463.193
1332 0 56.0999 15.9537 895 150.857 628.275 461.849
1333 0 57.0309 14.4483 824 157.568 630.079 460.425
1334 0 62.0446 18.8252 1168 144.223 632.252 460.295
1335 0 59.1196 15.3249 906 157.393 634.318 457.66
1336 0 62.0894 15.1072 938 155.434 635.917 453.302
1337 0 63.1663 13.7257 867 158.203 636.597 455.968
1338 0 64.0833 15.2458 977 156.209 637.91 456.068
1339 0 71.1205 17.5899 1251 146.445 638.314 456.128
1340 0 73.2067 16.993 1244 150.76 638.084 456.006
1341 0 73.1018 14.9244 1091 158.872 638.162 457.628
1342 0 78.1141 16.6167 1298 154.572 637.321 455.865
1343 0 76.0284 15.2312 1158 162.516 637.015 456.464
1344 0 81.1239 19.7352 1601 153.638 635.953 455.864
1345 0 87.1289 18.9834 1654 151.875 634.753 449.969
1346 0 88.1761 18.2136 1606 155.87 633.92 450.222
1347 0 90.2727 16.6385 1502 160.107 632.344 452.581
1348 0 91.1571 17.607 1605 160.169 631.138 448.421
1349 0 96.3312 16.4952 1589 159.225 629.084 449.884
1350 1 51.1254 17.1539 877 159.877 628.87 469.826
1351 0 52.1244 14.6764 765 167.297 628.038 466.716
1352 0 53.177 15.7587 838 166.038 626.906 466.234
1353 0 57.1023 17.9502 1025 153.786 626.056 467.284
1354 0 60.1148 19.3463 1163 147.966 625.23 464.997
1355 0 59.066 16.3207 964 157.074 624.218 461.471
1356 0 63.0705 18.3446 1157 149.205 624.185 460.959
1357 0 65.0325 17.4989 1138 152.812 624.215 457.3
1358 0 66.1752 16.7434 1108 155.023 624.066 454.432
1359 0 67.0932 15.7244 1055 154.855 623.608 453.302
1360 0 69.3617 16.5653 1149 153.879 623.819 450.21
1361 0 74.4462 17.2474 1284 148.588 624.491 449.646
1362 0 76.199 19.764 1506 144.148 624.973 448.323
1363 0 81.2653 17.6828 1437 151.225 626.302 450.469
1364 0 81.2174 17.5332 1424 152.409 627.229 447.373
1365 0 84.1184 20.9586 1763 148.335 629.357 443.028
1366 0 88.1233 18.5989 1639 161.824 630.431 443.83
1367 0 88.201 19.2515 1698 160.648 632.062 443.495
1368 0 93.1871 20.2174 1884 157.769 633.643 440.783
1369 0 94.1334 18.2082 1714 166.09 634.756 440.695
1370 0 99.2261 17.0419 1691 169.698 636.082 442.938
1371 1 53.0684 15.3952 817 177.93 637.035 462.53
1372 0 53.0185 16.8809 895 177.732 637.402 462.255
1373 0 54.2512 15.0411 816 179.536 637.263 465.798
1374 0 53.0883 15.5967 828 185.897 636.754 461.95
1375 0 56.2265 17.554 987 179.554 636.799 463.409
1376 0 62.0932 18.7299 1163 174.364 637.322 462.911
1377 0 63.3146 18.9688 1201 174.127 637.062 463.029
1378 0 64.2068 20.5741 1321 172.544 636.478 461.187
1379 0 68.2024 17.4334 1189 175.088 634.606 463.293
1380 0 70.0781 18.2511 1279 177.222 633.127 460.866
1381 0 74.2449 20.9711 1557 168.283 632.577 459.961
1382 0 74.0793 17.5218 1298 181.839 630.122 457.989
1383 0 77.0727 18.3333 1413 177.949 628.88 457.801
1384 0 79.1522 19.1909 1519 178.524 627.86 455.111
1385 0 83.1829 17.3593 1444 184.943 626.925 452.37
1386 0 84.1772 18.865 1588 179.741 626.216 449.827
1387 0 88.4214 18.4345 1630 179.717 624.835 448.252
1388 0 90.2132 18.9108 1706 177.61 623.928 445.643
1389 0 93.1627 18.7951 1751 176.42 624.278 442.072
1390 1 47.0402 15.4124 725 185.037 624.21 461.574
1391 0 51.1494 14.5456 744 181.233 623.95 461.526
1392 0 52.0613 15.2128 792 185.029 624.227 458.494
1393 0 54.1414 17.8791 968 176.316 625.332 455.884
1394 0 57.0841 16.9399 967 175.878 625.378 457.722
1395 0 60.1255 16.5155 993 176.817 626.159 454.246
1396 0 59.1084 16.1906 957 178.123 626.81 454.507
1397 0 63.1242 17.822 1125 173.97 628.277 451.125
1398 0 64.1358 17.0887 1096 179.624 629.756 451.216
1399 0 68.2062 17.6377 1203 175.318 631.532 452.502
1400 0 67.2613 15.804 1063 185.281 633.533 449.722
1401 0 72.1279 17.0669 1231 180.24 635.139 449.106
1402 0 75.2495 16.8905 1271 181.311 637.032 447.998
1403 0 77.2176 19.0242 1469 177.279 637.933 446.32
1404 0 81.2462 18.5363 1506 175.505 638.736 448.349
1405 0 84.1908 20.1922 1700 173.368 638.681 447.276
1406 1 41.2122 11.4772 473 194.414 638.992 466.636
1407 0 46.0738 11.9157 549 181.315 638.492 469.858
1408 0 44.094 14.6732 647 183.233 637.747 467.609
1409 0 47.0392 14.2222 669 184.374 638.094 468.117
1410 0 49.0737 15.1609 744 180.56 636.97 468.858
1411 0 51.0286 16.1282 823 178.469 636.599 467.767
1412 0 52.0693 15.2873 796 183.552 634.922 466.7
1413 0 55.0527 15.3126 843 182.649 633.085 466.388
1414 0 55.1141 14.1706 781 184.834 632.093 466.077
1415 0 60.1261 14.6692 882 180.659 630.092 464.13
1416 0 62.122 15.4696 961 179.541 628.53 460.638
1417 0 63.1623 15.4998 979 179.358 628.01 460.223
1418 0 67.1128 15.4665 1038 176.449 626.503 459.422
1419 0 68.1011 16.1525 1100 177.555 625.34 455.183
1420 0 70.1286 14.7016 1031 178.429 624.136 455.431
1421 0 70.125 14.6738 1029 162.872 623.181 455.485
1422 0 75.0798 14.9041 1119 173.83 623.622 451.756
1423 0 77.1002 14.4617 1115 175.128 623.328 449.018
1424 0 79.1325 14.4947 1147 172.675 622.98 445.308
1425 0 84.1323 16.9138 1423 165.287 623.159 443.387
1426 0 86.1167 14.4107 1241 169.837 623.921 443.007
1427 0 88.3506 16.095 1422 164.04 623.971 441.715
1428 0 93.4203 16.6773 1558 163.244 624.276 436.473
1429 1 49.1748 10.3305 508 165.585 625.27 461.846
1430 0 49.0564 10.2535 503 178.344 625.547 457.702
1431 0 53.378 12.833 685 171.134 627.025 457.834
1432 0 56.1767 13.0837 735 171.769 628.69 456.389
1433 0 57.1649 12.2803 702 176.43 630.298 457.588
1434 0 58.1142 12.3378 717 177.463 631.865 455.166
1435 0 64.2594 15.3441 986 167.654 632.91 454.584
1436 0 64.1063 14.8815 954 172.212 634.559 452.067
1437 0 67.1672 12.6699 851 179.236 634.595 451.843
1438 0 70.1437 14.0854 988 176.486 634.86 452.42
1439 0 72.1443 14.0967 1017 177.275 635.15 450.756
1440 0 75.1435 13.7603 1034 178.33 635.082 448.494
1441 0 79.1619 14.1356 1119 176.899 634.737 448.093
1442 0 80.0821 14.9971 1201 177.604 634.067 446.351
1443 0 84.1951 14.7752 1244 178.787 633.457 446.332
1444 0 87.2797 15.1582 1323 175.939 632.857 447.791
1445 0 91.1471 17.1262 1561 171.844 631.11 447.188
1446 0 93.2578 16.2667 1517 175.666 629.343 441.952
1447 0 97.1204 15.4859 1504 177.58 628.165 440.12
1448 1 54.1122 9.86839 534 169.337 626.122 462.71
1449 0 55.094 9.31137 513 171.842 625.084 460.548
1450 0 57.0622 9.44582 539 172.022 624.605 461.827
1451 0 59.2711 11.7764 698 162.414 624.328 459.403
1452 0 61.2593 12.2757 752 160.282 623.755 458.532
1453 0 63.1752 11.3177 715 159.294 624.274 459.745
1454 0 63.1344 12.1487 767 168.49 621.323 458.16
1455 0 67.1559 14.8758 999 159.014 622.175 456.78
1456 0 67.2054 13.615 915 162.213 622.257 452.925
1457 0 70.0997 12.311 863 162.954 622.064 452.612
1458 0 71.103 14.5845 1037 155.31 622.042 449.023
1459 0 75.3988 15.5573 1173 152.159 621.527 447.308
1460 0 78.2227 13.7045 1072 153.899 621.532 448.515
1461 0 77.2562 12.232 945 168.86 623.144 443.783
1462 0 81.1962 12.8208 1041 165.896 623.95 441.56
1463 1 44.0686 7.80602 344 165.773 624.977 463.276
1464 0 45.0263 10.194 459 159.407 626.205 460.806
1465 0 45.105 9.11208 411 161.178 628.8 461.131
1466 0 48.1654 9.73729 469 158.674 630.915 460.998
1467 0 51.1819 11.8597 607 153.293 631.888 460.883
1468 0 50.1014 12.814 642 147.924 636.293 459.276
1469 0 52.0612 13.3689 696 149.307 637.443 461.904
1470 0 51.063 10.8493 554 157.157 638.738 462.449
1471 0 54.1013 11.7003 633 156.736 639.068 461.074
1472 0 58.0977 12.7888 743 149.225 639.744 464.511
1473 0 55.0918 11.1995 617 158.603 639.833 460.485
1474 0 58.0899 11.3273 658 155.003 640.112 462.682
1475 0 60.0433 10.6756 641 157.552 639.894 462.329
1476 0 64.062 12.8938 826 151.179 639.787 462.616
1477 0 66.1065 12.7673 844 150.533 638.81 463.441
1478 0 66.0777 13.3328 881 152.574 638.152 461.274
1479 0 67.0453 11.3804 763 154.942 637.066 463.139
1480 0 70.1504 12.1311 851 154.687 635.333 459.763
1481 0 71.1711 11.3389 807 157.347 634.34 459.057
1482 0 72.1937 9.82079 709 159.921 633.021 458.646
1483 1 42.1527 9.46559 399 151.912 632.449 474.391
1484 0 42.0857 9.50442 400 150.275 630.975 474.335
1485 0 44.1548 9.85171 435 149.722 630.046 472.437
1486 0 43.0865 10.8851 469 146.318 629.026 469.731
1487 0 48.0726 10.6714 513 150.06 628.413 465.936
1488 0 50.0543 11.6274 582 144.759 627.503 465.991
1489 0 49.0616 11.3531 557 145.273 626.395 464.553
1490 0 51.1083 12.092 618 137.416 626.065 463.799
1491 0 47.0674 10.2831 484 143.446 627.535 464.849
1492 0 52.0257 12.8975 671 136.238 627.481 461.55
1493 0 52.0324 9.37877 488 144.652 627.127 460.66
1494 0 52.0717 11.753 612 140.475 627.306 458.724
1495 0 55.0789 10.6393 586 143.689 627.985 459.263
1496 0 57.0911 11.3853 650 140.16 628.774 457.788
1497 0 56.0347 10.1544 569 142.209 629.23 457.793
1498 0 63.1156 12.6276 797 134.799 631.532 456.069
1499 0 63.1976 12.3581 781 137.038 633.836 452.026
1500 0 63.3262 11.4802 727 139.143 635.52 449.091
1501 0 67.2357 12.2851 826 136.178 636.573 448.634
1502 0 67.2662 10.4362 702 137.623 638.668 449.764
1503 0 72.2357 13.0268 941 134.003 639.513 447.79
1504 0 74.4169 12.954 964 134.719 640.92 448.137
1505 1 42.0844 11.0255 464 138.694 640.847 468.414
1506 0 42.1222 12.7961 539 135.677 641.8 470.308
1507 0 42.1907 12.0643 509 143.827 642.065 468.128
1508 0 43.0298 11.5501 497 145.435 642.392 468.125
1509 0 45.1392 13.2258 597 146.087 642.005 465.829
1510 0 47.3309 12.1274 574 148.531 642.056 467.972
1511 0 48.0669 12.9611 623 150.92 641.87 469.355
1512 0 49.083 13.2836 652 151.623 640.186 469.84
