time division length width area intensity CMx CMy
0 0 92.2887 22.3971 2067 126.432 196.906 435.138
1 0 91.4234 14.8649 1359 137.53 198.74 431.064
2 0 91.4215 14.8105 1354 147.327 200.749 431.215
3 0 99.3933 19.6794 1956 130.722 199.737 428.338
4 0 100.454 17.7993 1788 128.921 200.689 432.509
5 0 107.304 15.8056 1696 130.892 200.992 427.384
6 1 55.3469 16.767 928 120.862 200.859 450.391
7 0 57.2262 13.1408 752 123.493 200.634 455.09
8 0 62.3609 12.7805 797 126.078 199.646 453.108
9 0 61.3051 17.4537 1070 120.513 195.643 455.353
10 0 61.1591 16.7105 1022 128.134 194.831 450.427
11 0 65.2061 20.0595 1308 126.274 193.464 455.872
12 0 66.0538 14.0491 928 146.544 192.42 451.592
13 0 68.09 14.5543 991 145.472 191.511 451.292
14 0 68.1341 13.5615 924 149.905 191.147 448.631
15 0 70.172 13.6807 960 154.244 189.777 448.088
16 0 74.0846 18.2899 1355 143.351 188.046 447.407
17 0 74.0735 13.0411 966 157.776 186.173 446.856
18 0 79.114 13.7776 1090 154.69 185.533 445.044
19 0 82.0649 15.4999 1272 151.398 184.253 442.711
20 0 82.1098 15.1017 1240 156.073 182.793 436.338
21 0 86.0913 14.3104 1232 159.295 181.798 437.481
22 0 87.1258 14.1519 1233 159.154 182.02 436.76
23 1 45.0461 12.3207 555 157.562 181.508 455.159
24 0 45.0486 13.3855 603 157.219 182.463 452.348
25 0 47.2185 10.8644 513 159.398 184.23 453.195
26 0 51.1474 14.3507 734 148.293 184.083 451.571
27 0 49.1548 11.8605 583 155.377 184.664 451.751
28 0 52.1989 13.2187 690 150.848 185.306 449.099
29 0 54.2048 13.7442 745 146.102 186.926 448.952
30 0 59.2776 13.1247 778 140.193 188.436 451.197
31 0 54.2561 15.1504 822 134.315 189.956 451.387
32 0 63.453 18.9432 1202 123.677 191.455 446.73
33 0 59.4088 10.4362 620 130.89 194.474 452.115
34 0 64.2271 13.4834 866 126.527 195.67 449.688
35 0 64.2271 13.5301 869 127.089 197.655 449.545
36 0 70.903 14.4564 1025 124.183 198.703 443.163
37 0 68.3079 14.8885 1017 122.771 198.382 448.308
38 0 77.1234 16.4801 1271 116.973 199.607 451.056
39 0 74.2708 9.65386 717 127.34 199.647 449.134
40 0 73.4404 13.9978 1028 124.452 198.78 445.926
41 0 82.1873 15.2213 1251 124.04 198.484 446.102
42 0 81.2175 14.5412 1181 128.843 197.688 443.997
43 0 86.2065 13.9317 1201 128.61 196.549 445.752
44 0 87.1144 12.7074 1107 134.64 195.911 445.642
45 0 90.3423 13.9691 1262 135.725 194.669 437.124
46 0 92.3661 13.479 1245 142.838 194.007 436.504
47 1 49.0897 12.7522 626 145.11 193.703 461.123
48 0 53.1135 12.3509 656 142.707 192.386 461.971
49 0 53.1265 13.3267 708 144.03 189.09 458.34
50 0 54.1767 13.3452 723 145.611 185.921 454.615
51 0 58.1255 13.8666 806 142.83 187.569 459.182
52 0 60.2249 16.8535 1015 140.042 185.895 455.726
53 0 60.2366 12.9489 780 149.897 185.328 454.237
54 0 61.2228 13.4917 826 150.864 184.734 449.562
55 0 64.2963 12.7068 817 149.424 183.814 450.627
56 0 67.2806 14.1794 954 142.868 183.278 449.017
57 0 69.2935 14.518 1006 143.367 182.074 445.987
58 0 69.1755 13.3429 923 147.658 182.902 444.183
59 0 74.3189 12.8769 957 148.773 182.935 444.445
60 0 75.2378 14.5672 1096 144.703 182.953 441.378
61 0 76.3433 14.4872 1106 145.426 181.117 436.769
62 0 81.217 16.4498 1336 139.224 181.567 437.259
63 0 83.1597 15.38 1279 138.211 182.408 436.704
64 0 87.3762 18.1514 1586 132.565 184.482 431.758
65 0 88.2267 13.5447 1195 137.764 186.024 433.295
66 1 47.1117 10.8041 509 133.481 188.094 456.01
67 0 50.116 11.8525 594 133.29 189.476 453.392
68 0 53.3026 12.0444 642 129.097 191.173 458.502
69 0 52.053 13.4478 700 127.251 192.361 457.239
70 0 56.0432 13.5967 762 131.18 193.348 454.937
71 0 58.405 20.4263 1193 121.28 195.687 459.391
72 0 59.3543 19.0887 1133 123.243 196.047 460.747
73 0 57.0752 13.7012 782 141.934 196.242 455.541
74 0 61.138 14.639 895 138.638 195.831 456.297
75 0 63.3028 15.6075 988 140.135 194.79 455.174
76 0 66.2783 16.7174 1108 138.454 194.079 454.866
77 0 65.1941 13.7742 898 146.812 193.772 455.215
78 0 70.2258 18.0703 1269 140.61 192.897 454.503
79 0 70.2578 15.2012 1068 146.904 191.956 452.146
80 0 72.1754 14.8527 1072 146.27 190.767 449.73
81 0 75.1482 15.2232 1144 143.809 189.677 452.76
82 0 76.2455 14.3615 1095 146.023 189.218 446.554
83 0 79.1483 14.8708 1177 147.569 187.641 447.107
84 1 43.0177 11.1582 480 150.229 187.721 465.467
85 0 46.0367 11.5994 534 142.676 186.47 466.069
86 0 49.6077 12.2965 610 141.562 185.452 465.736
87 0 51.1924 15.0022 768 137.368 183.947 464.74
88 0 50.0414 14.1483 708 143.12 182.362 459.905
89 0 51.0804 15.8769 811 138.208 180.731 457.139
90 0 50.225 12.7626 641 145.602 180.789 456.491
91 0 54.1077 11.3662 615 141.507 181.197 458.807
92 0 52.0814 10.618 553 145.727 179.313 456.231
93 0 55.2728 10.1135 559 143.784 181.699 455.719
94 0 56.1605 12.126 681 142.891 179.938 451.392
95 0 59.1217 14.6985 869 135.711 181.293 449.154
96 0 60.2038 20.9954 1264 123.875 182.052 448.059
97 0 62.4584 14.6818 917 130.08 183.834 449.618
98 0 64.178 14.1326 907 131.473 186.042 446.938
99 0 64.2314 14.6034 938 129.432 187.438 442.509
100 0 66.2434 11.9408 791 129.796 189.723 449.336
101 0 71.4533 13.8972 993 125.346 191.372 446.832
102 0 73.4429 11.7778 865 124.23 192.79 447.05
103 0 74.3171 9.90351 736 125.557 194.135 446.61
104 0 79.3496 15.9169 1263 117.888 195.024 442.473
105 1 122.34 9.0894 1112 128.069 195.273 428.871
106 1 83.5711 15.6513 1308 118.647 195.171 444.668
107 0 88.557 14.0249 1242 120.669 195.914 442.56
108 1 49.1644 10.2106 502 128.137 194.715 462.382
109 0 51.154 19.6856 1007 114.604 194.672 460.568
110 0 51.154 19.5488 1000 123.794 195.65 460.552
111 0 51.1222 12.9494 662 130.687 194.559 461.798
112 0 55.3609 11.9579 662 133.997 194.424 461.077
113 0 57.0458 14.1991 810 134.932 193.344 460.633
114 0 56.0446 12.4901 700 140.333 192.36 460.254
115 0 59.1372 13.8661 820 135.632 191.678 460.6
116 0 58.0724 13.156 764 137.268 187.097 458.41
117 0 59.0597 11.9879 708 140.893 185.453 461.811
118 0 61.1589 13.3586 817 140.009 183.547 459.612
119 0 64.1385 13.8606 889 143.115 182.355 457.852
120 0 67.2071 14.061 945 138.383 181.007 457.443
121 0 70.2425 19.4896 1369 129.389 179.855 449.291
122 0 72.0713 18.2042 1312 131.114 178.071 449.232
123 0 74.3446 15.8182 1176 134.304 176.983 448.656
124 0 72.3189 13.3298 964 140.891 177.328 443.947
125 1 39.082 11.7445 459 135.37 176.479 465.479
126 0 41.0569 8.6709 356 141.986 176.011 463.955
127 0 44.1196 10.1542 448 137.438 176.616 462.366
128 0 45.1474 11.9608 540 134.88 176.394 460.072
129 0 47.1178 15.0049 707 127.588 177.141 458.859
130 0 48.1901 12.0772 582 133.985 178.393 457.78
131 0 47.1535 15.2269 718 128.178 180.916 454.893
132 0 48.159 9.63475 464 134.58 180.912 457.216
133 0 50.1845 12.4541 625 127.856 183.878 458.533
134 0 53.0973 15.4434 820 121.859 184.967 457.562
135 0 56.0206 14.3697 805 122.133 186.971 457.335
136 0 58.1714 16.0044 931 120.498 188.136 454.072
137 0 59.1875 17.7233 1049 117.259 189.699 456.665
138 0 58.0669 10.7979 627 129.804 189.984 458.185
139 0 60.3078 20.9094 1261 115.056 190.923 455.415
140 0 61.1184 16.0672 982 122.529 190.879 454.822
141 0 63.1682 17.2239 1088 122.544 190.258 456.161
142 0 63.186 25.6702 1622 109.689 190.202 462.285
143 0 66.1151 14.8378 981 127.775 189.442 458.68
144 0 66.1151 15.0495 995 139.646 187.395 458.748
145 0 71.3392 13.4989 963 141.683 189.156 454.481
146 0 72.2344 14.9928 1083 137.295 188.332 455.574
147 0 75.4138 15.3818 1160 137.942 187.257 453.191
148 0 77.3129 13.3484 1032 144.473 186.325 451.315
149 0 79.3922 13.5278 1074 143.066 184.49 451.797
150 0 80.2538 15.0398 1207 140.374 182.945 447.258
151 0 83.3452 14.4939 1208 141.927 181.906 447.883
152 0 87.2518 15.5756 1359 137.738 180.64 450.135
153 0 90.764 16.317 1481 138.223 179.074 443.728
154 1 44.2358 10.444 462 144.476 179.305 466.271
155 0 49.1785 11.7328 577 140.536 178.53 463.612
156 0 49.3274 11.6163 573 140.93 177.785 461.574
157 0 52.2657 14.0436 734 132.149 176.798 461.721
158 0 53.362 11.244 600 139.162 175.555 455.482
159 0 55.4623 11.2328 623 135.997 175.019 458.6
160 0 56.2734 13.4877 759 133.76 175.15 453.903
161 0 59.7041 15.5266 927 127.95 175.088 456.126
162 0 59.6663 12.6034 752 132.638 174.281 458.286
163 0 62.3756 14.4127 899 130.068 176.693 450.098
164 0 66.5397 13.3454 888 127.217 177.851 451.374
165 0 67.5856 12.9317 874 126.651 180.164 449.715
166 0 73.68 16.5988 1223 120.339 181.176 446.93
167 0 70.534 13.3836 944 126.624 182.677 444.405
168 0 76.4108 18.2697 1396 118.077 185.055 445.698
169 0 74.2792 14.257 1059 123.472 186.7 443.845
170 0 80.3476 15.7316 1264 117.687 187.864 448.919
171 0 82.4606 16.7717 1383 119.302 189.247 444.766
172 0 82.3299 13.7982 1136 124.889 188.567 443.625
173 0 87.3112 15.3474 1340 124.056 189.334 446.798
174 0 89.5411 17.6344 1579 122.092 189.671 443.927
175 0 90.511 14.5618 1318 129.978 189.772 442.836
176 0 92.2527 12.791 1180 134.097 188.671 441.993
177 1 53.1705 9.62939 512 132.41 189.641 466.879
178 0 50.0968 7.62524 382 144.866 189.034 465.618
179 0 52.1094 11.4183 595 137.755 188.15 467.664
180 0 53.152 11.834 629 135.382 186.606 462.471
181 0 55.3659 11.3427 628 139.242 185.605 461.118
182 0 58.3447 14.62 853 132.931 183.709 459.54
183 0 60.2207 11.325 682 135.544 180.87 464.39
184 0 63.0987 16.7674 1058 126.875 179.847 461.214
185 0 64.1759 15.925 1022 128.038 178.036 457.228
186 0 63.1354 11.2298 709 141.042 179.819 457.285
187 0 69.1724 12.664 876 136.481 178.237 454.347
188 0 72.2885 14.2623 1031 134.359 177.528 451.531
189 0 76.1397 15.5504 1184 128.544 177.031 454.136
190 0 74.0455 13.3431 988 136.399 175.964 447.166
191 0 78.2144 12.2484 958 135.23 175.281 450.428
192 0 79.1146 14.0935 1115 135.065 174.544 444.784
193 0 82.3512 13.2481 1091 137.787 174.947 443.937
194 0 86.1142 16.3388 1407 130.089 174.908 442.221
195 0 88.2264 14.9048 1315 134.375 174.45 441.231
196 0 90.254 14.4814 1307 136.307 175.903 439.798
197 0 92.1724 10.8492 1000 139.501 176.344 438.661
198 1 53.1753 8.2181 437 135.021 178.238 459.256
199 0 55.0685 8.86169 488 128.602 179.703 459.666
200 0 62.2036 10.6264 661 125.484 181.696 458.501
201 0 58.3242 9.84154 574 128.397 183.484 455.639
202 0 62.2185 13.2436 824 122.118 182.112 453.748
203 0 68.1008 19.1775 1306 112.283 183.426 454.951
204 0 64.5224 12.6933 819 124.548 185.718 454.689
205 0 63.0733 10.8287 683 129.379 187.168 455.329
206 0 67.1904 12.2041 820 129.355 187.724 453.444
207 0 70.246 14.2784 1003 128.307 189.621 455.28
208 0 71.4257 15.8626 1133 127.243 189.68 453.972
209 0 74.2276 13.5125 1003 127.979 189.44 458.962
210 0 74.1088 10.9569 812 139.296 189.542 453.874
211 0 77.0458 13.0961 1009 139.559 188.391 449.959
212 0 81.1837 13.2539 1076 139.029 187.78 450.593
213 0 84.1262 12.9448 1089 141.452 186.942 448.5
214 0 86.1326 12.9568 1116 140.861 185.762 449.193
215 1 47.0637 9.03031 425 142.193 185.475 469.191
216 0 48.1731 11.2303 541 139.725 183.967 468.137
217 0 48.2107 9.99777 482 140.579 183.56 468.701
218 0 51.0955 11.2926 577 137.697 181.123 466.794
219 0 52.2199 11.7771 615 135.574 179.922 463.876
220 0 53.3562 11.7887 629 139.194 177.725 459.197
221 0 57.2945 12.3747 709 139.103 176.891 461.051
222 0 57.3159 10.7998 619 137.635 176.25 461.559
223 0 58.2196 12.1437 707 135.866 175.62 457.487
224 0 61.2622 13.8421 848 131.919 175.279 458.981
225 0 62.2231 12.6802 789 134.341 174.285 455.152
226 0 65.2432 14.6222 954 129.19 173.794 454.311
227 0 66.3373 11.532 765 134.945 174.217 454.586
228 0 67.2764 14.2844 961 129.144 174.567 453.832
229 0 70.2842 14.982 1053 129.352 174.42 446.904
230 0 73.412 12.3822 909 132.998 175.593 446.752
231 0 74.1886 12.1986 905 128.922 175.854 446.496
232 0 77.4079 12.1306 939 131.256 177.296 444.567
233 0 80.4712 12.812 1031 131.773 178.62 443.392
234 0 82.244 13.8977 1143 131.239 180.874 442.785
235 0 84.3884 13.7578 1161 130.562 182.439 440.409
236 0 88.428 13.4799 1192 132.981 184.824 439.846
237 1 44.3177 9.79293 434 133.309 187.198 462.217
238 0 47.5034 12.0623 573 131.508 187.794 462.489
239 0 49.5317 8.01506 397 139.937 189.521 461.635
240 0 50.3254 12.7967 644 131.208 189.22 462.3
241 0 49.2636 9.6623 476 142.758 188.477 462.782
242 0 53.2656 8.37313 446 138.72 187.365 468.314
243 0 54.1186 10.9759 594 140.985 186.798 464.226
244 0 53.1225 12.01 638 137.154 186.019 464.854
245 0 57.1296 10.835 619 138.784 186.313 464.533
246 0 58.0855 11.3798 661 140.646 185.215 463.693
247 0 61.3526 13.0068 798 136.902 183.919 462.728
248 0 61.0919 9.96859 609 143.982 183.025 465.461
249 0 65.213 13.2949 867 137.911 182.174 461.021
250 0 66.2017 12.2504 811 140.761 181.002 458.999
251 0 68.2418 11.4153 779 140.077 179.484 456.326
252 0 71.2324 14.2211 1013 136.313 177.601 455.823
253 0 74.2601 14.4896 1076 135.693 176.557 454.393
254 0 74.0742 12.933 958 139.627 175.399 449.168
255 0 79.2459 12.2909 974 141.303 174.485 450.919
256 0 81.5937 14.4496 1179 137.945 174.333 444.097
257 0 83.7419 14.5925 1222 136.083 173.908 445.091
258 1 44.3618 11.564 513 133.984 174.195 464.25
259 0 45.5255 12.0372 548 133.133 174.208 462.305
260 0 44.3396 11.5473 512 133.963 173.66 462.168
261 0 50.1166 13.5085 677 125.777 173.377 461.826
262 0 49.1536 14.119 694 126.159 173.304 458.207
263 0 49.2854 12.316 607 128.501 171.601 458.898
264 0 52.1793 14.8718 776 122.972 172.607 455.957
265 0 54.1997 11.4576 621 126.512 173.689 458.143
266 0 55.1644 15.6985 866 122.051 175.73 455.387
267 0 56.2459 19.7881 1113 115.934 177.453 452.115
268 0 57.2163 11.1681 639 130.427 179.948 455.39
269 0 61.3575 17.3573 1065 120.492 182.488 454.251
270 0 60.1891 13.3247 802 125.838 184.403 452.848
271 0 65.3698 14.2421 931 123.793 184.716 454.171
272 0 66.2405 14.7795 979 125.756 186.105 452.932
273 0 70.3207 14.4765 1018 126.849 186.7 456.488
274 0 70.258 15.5285 1091 128.579 186.839 451.947
275 0 74.2215 14.4432 1072 132.359 186.377 453.404
276 0 76.1295 13.8186 1052 134.488 186.553 453.358
277 0 78.4868 16.1938 1271 131.908 186.382 452.908
278 0 81.2612 14.9149 1212 137.686 186.172 450.634
279 0 81.6848 13.1114 1071 143.566 185.149 450.028
280 1 43.2223 11.1979 484 141.698 185.998 472.103
281 0 45.215 12.1641 550 138.945 184.469 473.24
282 0 45.307 11.8304 536 143.692 182.274 469.759
283 0 48.4226 11.7094 567 143.425 181.183 469.734
284 0 46.147 11.7667 543 145.639 179.304 468.523
285 0 50.0884 13.6958 686 139.329 177.996 469.706
286 0 52.181 13.5107 705 142.152 176.655 464.684
287 0 52.2321 12.4253 649 141.539 175.589 468.052
288 0 56.3578 14.6918 828 137.576 173.932 465.223
289 0 58.2519 13.3386 777 139.278 172.618 464.413
290 0 63.34 14.5406 921 134.349 172.446 463.739
291 0 70.2119 19.4127 1363 121.444 172.109 463.264
292 0 61.0893 14.4379 882 139.457 171.33 455.812
293 0 64.1966 15.1566 973 138.393 172.01 454.328
294 0 63.1536 14.346 906 143.396 170.543 452.574
295 0 69.2459 15.1633 1050 139.638 171.337 452.423
296 0 71.1756 18.1663 1293 132.291 171.701 451.76
297 0 71.2365 16.5645 1180 137.031 172.924 449.876
298 0 75.3616 15.0475 1134 135.908 174.417 449.78
299 0 78.4749 16.5276 1297 130.837 175.223 447.838
300 0 83.3264 18.6016 1550 125.574 177.446 446.874
301 1 38.1797 10.6077 405 133.894 179.911 465.948
302 0 46.5191 13.7148 638 126.139 183.279 465.453
303 0 44.2161 10.4939 464 141.75 184.099 463.599
304 0 44.2563 12.0435 533 138.638 185.782 461.756
305 0 45.284 14.9059 675 132.59 187.264 460.65
306 0 47.1798 17.232 813 124.942 187.475 466.23
307 0 49.1155 14.0892 692 128.16 187.753 468.796
308 0 49.0786 14.9352 733 131.216 187.25 467.176
309 0 51.2746 15.2122 780 130.473 187.162 467.541
310 0 52.1363 12.9085 673 140.409 186.376 467.377
311 0 55.1948 13.9868 772 133.902 186.203 469.027
312 0 53.1673 12.6958 675 141.529 185.544 465.467
313 0 57.1771 12.8898 737 144.099 183.919 465.657
314 0 57.265 11.6476 667 144.403 182.897 465.042
315 0 61.1216 15.8864 971 136.927 181.967 464.809
316 0 63.2095 16.4058 1037 139.468 180.625 464.153
317 0 64.2192 14.2636 916 141.73 179.428 462.122
318 0 66.2221 13.3943 887 144.398 177.694 461.675
319 0 69.0756 12.8121 885 144.447 175.928 461.786
320 0 71.2554 15.5918 1111 141.69 173.875 458.47
321 0 74.601 14.9194 1113 144.836 172.615 453.863
322 0 76.6274 16.2083 1242 141.212 170.961 449.45
323 0 77.5824 14.4749 1123 146.25 171.029 449.631
324 0 79.6057 16.9209 1347 142.065 170.507 445.271
325 1 39.1804 10.7962 423 146.265 170.187 465.303
326 0 39.4195 9.81748 387 146.566 170.083 464.654
327 0 46.5646 11.5968 540 146.77 170.356 459.828
328 0 46.6212 13.0413 608 138.785 170.553 462.581
329 0 47.2962 14.8426 702 138.66 171.311 456.768
330 0 49.3217 13.3612 659 140.134 172.662 459.857
331 0 53.1544 15.201 808 133.524 174.198 460.899
332 0 52.0583 14.9832 780 134.976 175.74 457.987
333 0 54.3873 12.5029 680 135.807 177.299 458.744
334 0 58.2106 12.7812 744 132.527 178.872 458.379
335 0 58.4823 15.7484 921 129.177 180.92 457.486
336 0 64.1708 16.3937 1052 128.628 182.707 455.603
337 0 61.4468 16.0139 984 131.737 183.427 453.803
338 0 67.5201 16.6321 1123 129.557 184.379 453.988
339 0 68.5347 15.6417 1072 134.262 185.551 453.917
340 0 69.4556 20.0848 1395 131.118 186.029 452.716
341 0 70.5442 13.6227 961 145.988 185.769 452.014
342 0 74.5468 14.8766 1109 143.656 185.383 450.705
343 0 76.4981 18.7848 1437 138.832 185.312 454.376
344 0 77.5116 15.3525 1190 149.361 183.866 452.534
345 0 80.7996 15.2476 1232 148.975 183.842 451.131
346 0 81.703 14.5527 1189 152.066 182.73 451.642
347 0 83.4586 15.96 1332 152.283 181.645 447.609
348 0 86.6286 14.5102 1257 157.5 180.178 448.745
349 0 90.7575 16.0317 1455 150.978 178.735 448.458
350 0 95.5559 17.079 1632 147.169 177.242 444.126
351 0 96.6666 17.0793 1651 149.07 175.684 443.965
352 0 101.375 17.2034 1744 145.095 174.64 443.756
353 0 103.59 17.3954 1802 147.951 173.049 438.341
354 1 59.3603 13.7803 818 146.055 172.333 462.026
355 0 61.6048 15.7293 969 140.753 171.652 458.83
356 0 64.3074 16.4367 1057 138.905 171.251 457.518
357 0 64.3034 14.0583 904 144.032 170.882 455.963
358 0 69.4893 18.4057 1279 133.663 170.289 454.945
359 0 69.1415 15.4755 1070 141.555 169.206 452.213
360 0 72.2903 15.3409 1109 140.351 169.765 449.704
361 0 73.4144 16.5363 1214 139.472 170.114 445.629
362 0 75.154 13.6387 1025 144.253 169.739 446.658
363 0 79.1614 12.9735 1027 142.766 171.188 444.936
364 0 80.268 12.7074 1020 143.21 171.363 442.503
365 0 86.2736 16.4129 1416 131.818 173.279 443.609
366 0 90.2814 16.2381 1466 129.362 175.115 441.824
367 1 46.1363 12.6365 583 122.369 176.36 464.719
368 0 48.1389 11.6122 559 122.778 178.091 463.803
369 0 50.0777 10.324 517 125.692 180.758 458.238
370 0 52.1222 9.59284 500 122.478 183.15 466.412
371 0 51.0783 10.9636 560 125.532 184.154 460.057
372 0 52.0913 10.9423 570 129.677 185.433 465.5
373 0 53.0622 11.6279 617 130.867 185.008 461.812
374 0 55.114 10.1063 557 134.023 185.639 464.609
375 0 57.0789 8.98757 513 134.901 184.669 464.772
376 0 62.081 13.7884 856 128.6 183.831 463.015
377 0 62.1238 14.2458 885 129.959 183.121 463.176
378 0 63.0576 12.0683 761 136.051 182.695 459.301
379 0 63.0878 10.7628 679 138.057 180.926 460.664
380 0 67.2132 12.2446 823 137.796 180.597 459.55
381 0 71.2229 11.5412 822 138.788 179.605 461.085
382 0 71.1395 12.0608 858 140.052 178.734 456.501
383 0 75.1658 14.315 1076 134.448 178.1 455.298
384 0 77.1756 13.1777 1017 139.208 176.515 454.691
385 1 42.1534 7.54388 318 136.053 175.736 475.616
386 0 42.2863 8.96271 379 138.441 174.05 471.113
387 0 42.2713 12.5854 532 128.992 172.694 469.477
388 0 45.1333 11.6544 526 130.029 172.112 468.019
389 0 47.2427 11.2398 531 129.672 171.456 466.746
390 0 48.1653 11.6681 562 128.075 170.641 463.938
391 0 47.0435 10.5647 497 131.386 171.439 462.565
392 0 48.1032 9.56277 460 131.615 171.187 464.502
393 0 51.0868 11.8034 603 128.376 171.098 459.305
394 0 52.0154 12.5732 654 126.067 171.693 458.994
395 0 52.0394 9.80026 510 131.496 172.502 456.663
396 0 57.1023 10.8052 617 126.439 172.72 458.391
397 0 60.0677 14.2839 858 120.369 173.774 455.931
398 0 61.1121 14.6289 894 119.074 174.68 454.474
399 0 63.0685 12.7163 802 124.226 176.489 454.512
400 0 63.1108 10.7113 676 126.879 178.836 455.672
401 0 67.2888 11.5472 777 123.954 180.694 452.228
402 0 68.1529 11.7677 802 122.566 181.599 450.707
403 1 38.0934 7.2716 277 128.292 183.491 469.657
404 0 39.032 9.22321 360 129.975 185.167 468.256
405 0 38.07 9.71895 370 131.384 185.262 466.968
406 0 42.0305 14.5846 613 120.749 185.408 468.22
407 0 41.319 10.6246 439 129.269 184.754 471.21
408 0 42.3043 11.6773 494 129.579 185.168 471.494
409 0 45.2923 14.7045 666 123.955 184.607 470.826
410 0 45.2658 10.8912 493 133.363 184.108 470.531
411 0 43.171 10.8406 468 137.252 182.908 466.991
412 0 44.2605 10.9804 486 139.329 182.862 469.356
413 0 47.2594 9.90279 468 139.006 180.756 469.361
414 0 49.3298 12.0211 593 136.589 180.13 470.691
415 0 50.2056 11.1143 558 138.475 178.998 468.934
416 0 52.3031 11.0318 577 137.092 178.473 469.936
417 0 50.2457 10.6676 536 142.131 177.198 468.987
418 0 53.2259 11.7424 625 139.459 175.696 466.707
419 0 55.3084 11.915 659 136.935 174.256 466.744
420 0 56.2326 9.31844 524 143.635 172.887 463.25
421 0 61.2989 11.6805 716 135.795 172.536 464.884
422 1 29.1035 8.14334 237 135.544 173.017 476.409
423 0 34.1549 10.6866 365 126.745 172.367 474.693
424 0 32.0215 11.0238 353 131.105 173.008 470.745
425 0 32.0078 7.68562 246 134.756 172.984 470.626
426 0 36.0809 11.7791 425 127.602 171.991 469.033
427 0 38.0267 11.4919 437 126.27 172.476 467.792
428 0 36.0941 11.6363 420 127.85 172.736 465.857
429 0 37.1975 11.99 446 127.002 174.177 465.027
430 0 38.0313 9.8603 375 133.651 175.171 465.813
431 0 41.0239 11.3592 466 125.721 175.564 467.06
432 0 40.1173 12.6629 508 124.244 176.652 467.437
433 0 41.0538 14.2252 584 124.048 175.199 465.846
434 0 44.1355 13.164 581 124.107 177.468 467.632
435 0 43.0513 11.9393 514 130.831 179.076 465.021
436 0 43.1812 11.2317 485 130.458 179.996 465.755
437 0 46.037 13.1199 604 128.498 182.301 466.873
438 0 45.0298 11.7256 528 132.555 183.373 465.121
439 0 50.1732 19.0141 954 117.936 183.375 462.869
440 0 50.1186 12.0315 603 135.556 184.315 463.552
441 0 50.1067 12.7129 637 133.78 184.559 466.487
442 0 52.0857 14.7449 768 131.47 183.962 465.724
443 0 53.0722 13.3403 708 134.455 183.138 467.237
444 0 56.1504 13.8734 779 133.94 183.352 466.449
445 0 57.0517 13.0759 746 137.673 182.24 465.428
446 0 59.0897 12.9633 766 138.681 181.493 465.372
447 0 61.1191 15.0689 921 136.317 180.187 466.71
448 0 63.1018 12.9949 820 139.452 179.422 462.524
449 0 66.1417 14.8771 984 135.463 177.753 462.942
450 0 67.1652 13.9209 935 137.179 176.098 459.861
451 0 70.0447 14.5907 1022 135.341 174.987 459.093
452 1 36.0403 11.2929 407 139.16 173.297 476.929
453 0 41.0947 11.1937 460 137.276 173.609 475.661
454 0 39.0517 11.9073 465 137.308 170.594 472.359
455 0 40.04 10.9141 437 140.991 169.913 471.458
456 0 44.0571 14.2315 627 132.951 169.549 467.116
457 0 46.0695 16.3666 754 126.716 169.58 467.371
458 0 45.0754 12.823 578 134.135 169.277 465.976
459 0 46.0699 16.4532 758 126.93 169.013 466.59
460 0 46.049 11.9872 552 137.759 168.741 463.969
461 0 50.0232 14.5333 727 130.085 169.162 463.144
462 0 50.2475 14.8266 745 129.961 170.099 462.332
463 0 51.1616 14.3076 732 131.168 170.857 459.579
464 0 55.1497 15.5939 860 128.47 172.314 459.329
465 0 56.0968 13.5123 758 130.128 173.187 458.65
466 0 57.0598 14.4936 827 128.966 174.843 456.1
467 0 59.1113 16.3251 965 124.873 177.516 458.215
468 0 61.1007 14.8116 905 127.056 179.838 456.699
469 0 63.2625 20.7864 1315 117.409 182.385 457.44
470 0 65.1634 15.8218 1031 129.048 183.489 455.811
471 0 64.1985 12.9442 831 134.805 184.705 456.49
472 0 68.2371 18.3771 1254 124.581 184.831 452.998
473 0 71.2689 15.7011 1119 128.659 185.492 456.315
474 0 72.1105 16.4054 1183 127.771 185.909 456.573
475 0 75.1208 12.4866 938 136.776 186.064 457.655
476 1 41.054 9.47532 389 138.666 184.746 475.064
477 0 37.1131 9.53841 354 143.96 184.675 476.008
478 0 42.0452 12.2249 514 139.183 184.117 473.261
479 0 44.1548 11.2559 497 141.926 185.02 473.288
480 0 46.3222 12.9312 599 136.952 183.467 472.793
481 0 46.1074 13.5553 625 137.624 182.517 472.555
482 0 47.0768 13.4461 633 139.088 182.077 470.67
483 0 47.1581 13.847 653 136.968 179.398 472.36
484 0 48.0261 11.3064 543 142.322 176.794 472.297
485 0 51.1089 11.9744 612 139.825 175.928 470.529
486 0 52.0421 13.5659 706 136.567 174.524 465.715
487 0 54.1202 14.9113 807 131.544 173.829 464.242
488 0 55.0669 12.9479 713 135.539 171.471 465.544
489 0 57.2417 12.8054 733 132.868 170.206 467.106
490 0 59.1462 12.7312 753 133.551 170.291 462.738
491 0 59.1389 10.9573 648 136.671 170.062 462.142
492 0 63.2301 15.7836 998 126.41 170.154 458.913
493 0 65.168 13.1199 855 129.253 169.901 456.201
494 0 64.3096 11.9111 766 131.71 169.93 453.385
495 0 70.0711 12.7585 894 127.865 170.216 452.831
496 0 72.1546 12.4594 899 129.676 171.709 450.865
497 0 76.1993 14.6327 1115 124.474 172.382 450.688
498 0 78.1584 14.1508 1106 125.91 174.241 446.264
499 0 80.1543 14.4596 1159 126.218 175.814 444.893
500 1 40.0154 10.1211 405 129.368 177.348 466.012
501 0 40.1211 12.2379 491 125.585 178.244 465.187
502 0 42.1607 10.1754 429 129.361 179.823 463.914
503 0 42.2335 10.1578 429 132.552 180.625 463.73
504 0 45.2941 11.6792 529 131.429 182.151 463.849
505 0 49.2852 12.5595 619 129.572 182.477 466.645
506 0 51.0476 15.2015 776 123.619 184.997 464.164
507 0 52.278 18.7842 982 119.634 186.381 463.44
508 0 53.2016 13.9469 742 128.981 185.85 464.139
509 0 54.2689 15.5153 842 127.089 185.867 464.219
510 0 55.2864 15.1032 835 128.468 185.416 464.133
511 0 56.1473 15.9046 893 127.413 185.302 467.465
512 0 59.1461 15.1658 897 129.213 183.821 467.615
513 0 60.2347 16.1369 972 127.594 182.776 466.941
514 0 63.2159 14.1104 892 131.725 182.118 464.759
515 0 63.1333 12.8617 812 135.335 180.511 466.027
516 0 66.1529 14.3607 950 132.08 178.212 461.005
517 0 66.3418 13.536 898 134.92 176.356 460.616
518 0 70.2969 15.8186 1112 130.578 174.922 459.282
519 0 71.2787 15.1237 1078 132.259 173.698 460.006
520 0 73.3625 14.7759 1084 131.883 172.914 455.624
521 0 77.3421 14.5845 1128 131.708 172.262 453.704
522 0 78.3613 15.0074 1176 131.105 171.102 452.151
523 0 80.194 15.4999 1243 134.112 170.487 447.979
524 0 83.2809 13.0402 1086 136.135 170.205 446.824
525 1 45.1492 11.0079 497 131.588 171.213 467.038
526 0 48.0981 14.2209 684 124.414 169.885 465.763
527 0 45.0658 12.7591 575 129.05 170.769 462.656
528 0 48.3023 12.2975 594 128.902 172.606 463.847
529 0 54.4679 13.0168 709 125.371 172.773 461.898
530 0 56.5501 14.7126 832 123.77 173.87 458.827
531 0 52.4531 13.3643 701 127.332 175.359 459.732
532 0 57.2524 18.0429 1033 117.369 176.529 459.127
533 0 57.2806 14.6996 842 123.214 178.647 453.424
534 0 60.4674 14.7352 891 124.888 180.659 456.365
535 0 63.1998 15.3165 968 123.952 182.663 457.013
536 0 62.2062 14.1143 878 127.018 183.817 456.845
537 0 66.2405 16.1986 1073 123.31 184.393 453.208
538 0 70.2312 17.1576 1205 121.156 185.985 454.8
539 0 72.2936 15.0912 1091 125.85 185.804 454.344
540 0 74.2505 16.175 1201 126.047 186.628 454.448
541 0 75.1295 16.2653 1222 127.768 186.742 454.322
542 0 80.1447 17.6181 1412 126.204 186.507 454.412
543 1 40.071 8.70955 349 137.791 187.095 476.768
544 0 42.1176 11.919 502 129.299 185.918 478.452
545 0 44.0354 9.35612 412 140.755 185.308 473.631
546 0 45.0203 12.5721 566 134.332 183.657 473.668
547 0 46.0354 11.9473 550 136.002 182.685 472.12
548 0 49.1105 11.4436 562 135.128 181.555 473.247
549 0 48.0333 11.4296 549 136.262 179.65 470.872
550 0 49.3456 12.7671 630 132.525 179.008 468.892
551 0 52.1145 13.6814 713 127.565 176.982 468.259
552 0 54.0899 13.607 736 127.966 176.226 467.489
553 0 58.3281 14.4356 842 125.309 175.24 465.913
554 0 58.1622 14.9066 867 125.359 174.401 464.787
555 0 60.3992 12.1194 732 129.907 172.796 461.459
556 0 60.3882 12.0553 728 128.598 172.876 462.107
557 0 62.2521 13.6863 852 126.778 172.115 455.876
558 0 66.1916 12.7055 841 127.398 172.377 457.736
559 0 67.4005 13.9168 938 125.579 171.804 452.71
560 0 70.3962 12.4581 877 126.994 171.9 452.61
561 0 71.2494 14.358 1023 123.312 171.974 449.773
562 0 76.3521 13.071 998 123.594 173.188 450.893
563 0 74.3303 13.2517 985 125.271 174.496 447.753
564 0 77.2058 13.1855 1018 126.604 175.685 444.447
565 0 82.3382 16.3108 1343 120.246 176.914 446.431
566 0 84.2617 16.0334 1351 121.029 179.249 442.036
567 0 89.4926 13.219 1183 122.003 181.726 446.983
568 0 88.2355 15.0053 1324 121 182.972 442.9
569 0 91.1698 15.005 1368 120.27 184.051 442.091
570 0 93.1489 15.7275 1465 119.859 184.552 444.272
571 0 96.2385 13.7575 1324 124.536 184.507 440.869
572 0 101.297 17.9274 1816 121.715 185.91 434.115
573 0 106.339 17.604 1872 122.061 186.669 438.886
574 1 58.1426 11.0418 642 128.483 185.5 466.234
575 0 56.2001 11.2633 633 134.581 185.477 464.338
576 0 59.1742 11.6436 689 131.144 185.329 463.73
577 0 60.1963 11.1469 671 135.914 185.389 464.729
578 0 66.3827 15.034 998 128.149 185.889 461.967
579 0 67.0829 14.1616 950 132.796 181.868 464.241
580 0 71.1035 16.3564 1163 127.831 181.716 460.923
581 0 71.0908 13.8696 986 134.877 180.096 459.089
582 0 72.0869 13.456 970 136.633 178.7 458.803
583 0 77.2339 14.851 1147 133.581 177.089 460.02
584 0 77.1188 12.6299 974 139.494 176.071 459.724
585 0 81.2138 15.6008 1267 133.428 174.592 457.193
586 0 84.3912 14.2432 1202 135.967 173.438 457.484
587 0 88.353 14.4081 1273 134.69 172.478 456.922
588 0 87.1738 12.5955 1098 139.643 171.653 452.314
589 0 90.2344 15.1716 1369 133.635 171.172 454.9
590 0 94.2388 13.8372 1304 136.617 170.245 449.925
591 0 96.1426 12.6167 1213 141.299 169.415 445.838
592 0 98.3323 12.7323 1252 142.101 168.943 441.07
593 0 102.262 14.0326 1435 136.04 168.96 444.223
594 0 106.175 15.9831 1697 132.386 169.051 442.534
595 0 109.277 17.5974 1923 129.917 169.458 439.3
596 0 111.228 15.0772 1677 135.338 170.034 437.577
597 0 117.2 14.1724 1661 138.921 170.767 434.964
598 0 120.425 15.2792 1840 137.259 172.063 436.154
599 0 125.361 13.9996 1755 141.233 173.534 430.44
600 0 129.399 14.7528 1909 138.987 174.981 427.417
601 1 73.1229 15.0979 1104 129.445 176.8 460.976
602 0 73.2917 13.6032 997 132.45 178.055 461.902
603 0 76.1262 12.7945 974 137.232 178.451 457.725
604 0 78.1281 13.2347 1034 137.038 179.405 457.032
605 0 81.1447 20.5189 1665 123.207 179.061 453.932
606 0 83.1173 15.412 1281 134.689 180.525 455.319
607 0 87.175 13.6851 1193 137.274 179.115 456.003
608 0 88.1424 14.2837 1259 137.812 178.432 456.112
609 0 90.1867 13.9267 1256 138.699 178.362 452.348
610 0 96.3426 13.452 1296 137.659 178.137 455.897
611 0 96.3133 15.2835 1472 136.179 177.29 453.72
612 1 46.0781 9.83113 453 144.4 175.96 476.843
613 0 53.0827 12.3015 653 140.991 174.876 474.597
614 0 52.0487 10.836 564 142.637 173.168 474.612
615 0 56.0671 11.8251 663 139.407 172.276 473.027
616 0 55.3184 10.9367 605 142.873 173.274 467.95
617 0 57.5445 11.6779 672 140.717 171.497 465.906
618 0 61.3708 13.231 812 135.283 170.394 461.778
619 0 64.0841 12.8113 821 134.374 169.899 464.888
620 0 63.052 12.45 785 136.561 168.415 464.359
621 0 65.1274 12.3911 807 134.24 167.714 460.397
622 0 67.1838 13.3514 897 132.167 167.603 459.455
623 0 69.1408 13.6678 945 132.205 167.473 457.546
624 0 72.123 12.4232 896 136.062 167.549 453.201
625 0 75.1162 12.5672 944 136.188 167.439 452.933
626 0 78.1371 15.6392 1222 129.489 167.855 450.267
627 0 78.2342 13.2679 1038 136.34 168.353 449.289
628 0 83.2464 17.4542 1453 126.853 169.179 448.433
629 0 83.1902 15.2662 1270 133.035 170.429 444.906
630 0 85.2538 14.1108 1203 135.204 170.552 444.638
631 0 88.304 14.167 1251 135.725 172.461 441.126
632 0 93.2102 15.5992 1454 132.752 173.695 438.802
633 0 94.2097 13.9795 1317 138.787 175.203 439.19
634 1 51.0948 10.6469 544 134.561 177.316 463.96
635 0 50.0449 10.8902 545 138.328 179.053 461.705
636 0 55.0277 15.1742 835 129.771 180.928 463.987
637 0 55.1238 15.2384 840 131.627 180.598 462.125
638 0 57.2262 12.8263 734 136.654 183.278 463.074
639 0 58.1731 14.5772 848 134.959 184.065 464.354
640 0 59.1862 14.6825 869 136.372 184.171 460.595
641 0 63.2317 12.81 810 138.326 184.164 465.036
642 0 65.2458 14.9895 978 134.203 182.838 464.028
643 0 65.2187 12.7264 830 143.227 182.195 464.135
644 0 66.2495 13.8265 916 140.579 181.826 461.27
645 0 70.2199 13.9989 983 138.101 180.926 465.578
646 1 38.028 10.2819 391 144.435 181.35 478.588
647 0 38.0518 11.1953 426 145.617 180.751 477.948
648 0 43.0585 13.8881 598 137.06 179.505 476.886
649 0 43.0145 11.6472 501 144.134 177.601 476.587
650 0 43.0576 11.8446 510 144.061 176.543 473.539
651 0 45.0523 12.9183 582 143.395 174.51 472.007
652 0 46.0591 13.5044 622 141.767 173.551 469.423
653 0 52.4166 17.1129 897 127.582 172.067 472.671
654 0 51.123 14.6509 749 135.76 171.539 468.913
655 0 54.1427 15.533 841 134.238 170.971 465.608
656 0 51.0856 13.448 687 140.435 170.279 463.495
657 0 53.2438 14.0674 749 137.725 169.788 464.268
658 0 54.0995 13.623 737 138.136 169.932 463.71
659 0 56.0388 18.0589 1012 130.529 170.626 457.42
660 0 58.1063 15.9535 927 132.868 170.718 460.272
661 0 60.0649 16.5155 992 130.09 171.773 458.332
662 0 59.0464 13.1083 774 138.465 172.749 456.828
663 0 62.0374 15.3133 950 132.659 174.824 456.731
664 0 68.4531 24.0749 1648 115.001 176.053 456.599
665 0 65.0405 16.2207 1055 131.429 178.178 455.286
666 0 69.1502 14.9096 1031 132.027 180.81 457.705
667 0 71.1451 15.0537 1071 134.475 182.147 455.083
668 0 76.2222 21.621 1648 120.661 183.453 455.032
669 0 74.054 14.3004 1059 140.736 185.753 453.822
670 0 80.2056 16.3455 1311 136.659 185.203 451.204
671 0 84.1686 17.9996 1515 130.461 186.723 449.755
672 0 80.2341 14.009 1124 142.287 186.866 450.152
673 1 42.0204 10.8995 458 146.015 187.926 471.552
674 0 47.0472 13.3695 629 139.24 187.345 471.118
675 0 45.0966 11.2869 509 142.515 186.656 472.523
676 0 46.2347 14.8806 688 138.984 185.318 466.703
677 0 47.0873 12.8485 605 141.909 185.023 470.83
678 0 50.11 13.1112 657 140.699 183.361 470.664
679 0 51.1449 14.8206 758 137.193 181.968 468.914
680 0 52.2266 12.6181 659 142.866 180.376 467.822
681 0 54.2061 12.3787 671 142.399 178.985 467.87
682 0 54.2335 13.2575 719 140.697 177.145 464.115
683 0 57.2091 12.7078 727 139.707 175.824 467.322
684 0 60.2801 13.6363 822 136.703 174.162 465.427
685 0 63.2998 16.6193 1052 127.977 173.058 462.166
686 0 64.2502 13.6964 880 134.276 171.95 459.653
687 0 65.2157 13.4937 880 133.765 171.1 458.506
688 0 70.2916 13.3586 939 131.833 170.288 454.485
689 1 39.0269 9.91624 387 132.049 171.16 470.204
690 0 37.1043 9.70237 360 132.2 171.2 467.819
691 0 40.0465 10.2131 409 131.416 170.941 466.24
692 0 41.1145 13.4989 555 125.805 170.95 464.092
693 0 42.0739 10.5766 445 129.712 172.254 462.708
694 0 45.0843 13.0644 589 120.336 172.735 466.355
695 0 45.0189 12.0172 541 123.519 174.091 461.895
696 0 46.09 13.2784 612 119.564 172.752 460.448
697 0 48.1124 13.3646 643 121.627 174.605 459.994
698 0 49.138 13.0042 639 120.435 178.235 457.116
699 0 52.1069 15.2571 795 116.055 180.409 459.164
700 0 54.1907 14.0799 763 118.434 181.516 459.177
701 0 56.1761 16.9111 950 115.304 182.694 458.592
702 0 56.2217 16.8262 946 117.524 183.596 459.247
703 0 54.117 11.9741 648 127.877 184.81 461.355
704 0 61.22 16.4325 1006 118.576 184.914 461.023
705 0 62.1675 13.7371 854 122.27 185.069 461.874
706 0 63.2067 14.0966 891 123.797 185.039 458.469
707 0 66.2443 13.9031 921 124.092 184.717 460.8
708 0 68.2257 13.983 954 127.231 184.718 459.944
709 0 67.1549 11.7638 790 131.967 184.454 459.522
710 0 69.127 13.7139 948 129.39 183.017 455.78
711 1 38.0803 9.29615 354 134.904 182.921 475.121
712 0 38.0714 13.0019 495 129.63 182.075 472.889
713 0 40.0739 10.7801 432 133.067 180.715 473.141
714 0 43.0497 10.1975 439 131.597 179.524 474.171
715 0 44.0188 14.4711 637 125.32 177.794 469.768
716 0 45.1522 13.5985 614 125.316 176.101 468.954
717 0 47.1761 15.3044 722 119.393 174.681 469.247
718 0 42.0936 11.1656 470 127.619 170.46 467.368
719 0 46.1259 9.97272 460 128.296 169.989 466.972
720 0 48.1271 12.0307 579 124.712 168.375 466.784
721 0 50.0685 15.0394 753 119.709 167.835 464.818
722 0 52.1651 11.4061 595 127.739 167.363 463.733
723 0 55.0964 14.6108 805 121.313 167.405 459.981
724 0 56.1288 14.4311 810 121.298 167.97 460.993
725 0 58.0979 13.4772 783 123.243 168.02 459.037
726 0 57.2856 14.6808 841 123.667 169.189 457.268
727 0 57.3307 10.8493 622 131.33 169.555 457.744
728 0 63.1814 14.8936 941 122.658 171.525 455.125
729 0 64.1574 16.1634 1037 118.158 172.502 457.734
730 0 66.1511 14.6634 970 122.266 174.793 456.123
731 0 66.1256 14.8354 981 126.396 176.424 452.016
732 0 69.14 15.0275 1039 129.032 179.081 453.636
733 0 73.2185 13.6577 1000 128.516 180.616 452.743
734 0 77.3178 15.1712 1173 127.346 181.902 451.268
735 1 43.0426 10.1527 437 133.716 182.439 472.158
736 0 42.0478 10.6545 448 138.877 182.373 470.234
737 0 41.0376 8.99174 369 144.805 182.911 471.583
738 0 46.1476 12.5467 579 135.499 183.66 471.876
739 0 47.2557 14.3898 680 132.785 186.069 471.965
740 0 47.0903 14.6739 691 133.897 185.567 471.598
741 0 49.1758 15.9021 782 132.541 185.087 471.827
742 0 53.1281 15.3026 813 131.466 184.102 475.012
743 0 53.0843 13.8647 736 136.806 182.374 473.713
744 0 55.1905 16.0173 884 133.62 181.267 471.446
745 0 56.0978 14.7243 826 136.678 179.316 468.614
746 0 58.1565 14.0999 820 138.549 177.57 469.966
747 0 61.2388 13.6188 834 139.245 175.572 469.916
748 0 63.1731 16.9059 1068 132.087 174.878 469.007
749 0 63.1612 15.2467 963 137.816 173.399 466.008
750 0 64.1556 15.213 976 137.554 171.636 465.458
751 0 67.1788 13.799 927 138.613 170.285 465.138
752 0 68.1837 17.7462 1210 132.741 169.93 463.696
753 0 69.0827 17.7758 1228 131.022 169.857 461.543
754 0 73.3371 16.5946 1217 132.869 168.747 461.385
755 0 73.4256 16.6699 1224 132.861 168.373 460.429
756 0 76.5516 13.8077 1057 136.966 167.391 457.739
757 0 80.2231 15.2699 1225 133.281 166.904 454.954
758 0 82.3534 14.2435 1173 135.756 167.942 454.398
759 0 86.0961 15.9124 1370 131.545 167.819 453.26
760 0 87.2231 16.1654 1410 131.214 168.837 450.676
761 0 90.1231 15.6675 1412 134.348 169.431 447.921
762 0 94.2574 13.8451 1305 134.935 170.657 449.53
763 1 49.1527 13.041 641 133.251 171.894 467.793
764 0 51.0645 11.8282 604 134.409 173.861 469.308
765 0 52.0989 10.9215 569 136.207 175.023 469.355
766 0 54.0536 15.0591 814 131.24 176.168 466.955
767 0 56.1115 16.3781 919 129.124 177.169 466.515
768 0 58.0726 12.8115 744 136.849 178.726 468.366
769 0 59.031 16.0763 949 132.73 179.134 467.211
770 0 62.0908 12.6911 788 139.687 179.595 464.985
771 0 64.0856 14.5118 930 136.658 179.541 466.18
772 0 65.0426 12.6532 823 142.249 179.029 468.869
773 0 68.0901 17.3447 1181 133.681 179.46 467.373
774 0 70.0762 16.3679 1147 135.605 179.143 469.376
775 0 73.1739 15.9483 1167 137.786 178.106 468.87
776 0 75.1489 15.8752 1193 140.272 176.481 463.58
777 0 79.2694 15.9456 1264 140.517 175.032 466.204
778 0 82.2365 15.1636 1247 141.914 173.726 462.486
779 1 46.2028 10.4972 485 142.839 173.14 482.885
780 0 47.1225 12.0325 567 141.284 170.42 480.824
781 0 49.1142 12.2164 600 139.263 169.243 479.97
782 0 48.1594 12.3133 593 141.293 167.879 478.081
783 0 50.0958 13.2546 664 136.27 166.557 477.226
784 0 52.052 11.4501 596 141.272 165.909 474.935
785 0 54.1401 13.5205 732 135.31 165.933 474.69
786 0 53.1716 14.1241 751 135.71 165.121 468.928
787 0 59.1469 14.5908 863 129.667 164.604 468.868
788 0 60.1749 15.322 922 130.454 163.658 464.55
789 0 61.3731 14.9251 916 131.392 163.368 462.727
790 0 65.4142 13.6668 894 133.361 163.541 461.559
791 0 66.2131 14.0607 931 132.032 164.537 461.014
792 0 66.2154 14.9814 992 128.886 164.288 453.546
793 0 69.2413 16.7819 1162 122.818 165.552 458.438
794 0 73.4341 13.6857 1005 127.984 166.363 454.537
795 0 73.2692 14.6719 1075 127.09 167.78 451.019
796 0 79.4276 16.6818 1325 121.094 169.881 451.389
797 0 80.4509 20.7829 1672 116.42 171.718 449.115
798 0 81.3633 14.2202 1157 127.74 173.135 447.518
799 0 82.5089 17.3557 1432 124.182 174.909 451.159
800 0 89.6805 14.1391 1268 125.148 176.677 446.656
801 1 47.5957 10.0219 477 127.145 178.482 468.891
802 0 46.4532 11.2156 521 132.067 180.042 464.161
803 0 52.5951 14.4881 762 123.287 180.672 463.388
804 0 52.2431 15.6767 819 127.171 180.51 467.11
805 0 53.1024 14.6698 779 130.001 181.246 467.702
806 0 54.1139 12.64 684 134.803 181.095 466.034
807 0 54.056 12.3391 667 137.48 181.469 464.432
808 0 58.1257 12.1805 708 136.559 181.439 466.637
809 0 59.1538 12.6281 747 134.695 180.234 468.42
810 0 62.1885 15.1957 945 130.332 179.131 466.548
811 0 66.1045 13.4635 890 132.327 178.621 464.607
812 0 64.1995 14.0344 901 133.919 178.436 465.524
813 0 67.1757 11.8346 795 137.114 177.624 464.99
814 0 68.1731 11.4415 780 137.022 176.392 464.567
815 0 69.3272 12.7079 881 137.263 175.352 460.501
816 0 74.066 11.4223 846 137.441 174.337 459.843
817 0 79.2157 13.9366 1104 131.154 173.592 456.803
818 1 40.1068 8.07843 324 136.059 173.068 477.577
819 0 39.1612 9.67794 379 137.401 171.712 472.562
820 0 47.1322 8.67772 409 136.819 170.166 468.34
821 0 45.2571 9.56756 433 137.503 169.968 466.838
822 0 47.144 10.8179 510 132.861 169.527 466.247
823 0 47.3807 12.79 606 131.926 169.903 462.366
824 0 49.1481 12.9201 635 131.861 170.271 462.298
825 0 50.2408 11.2657 566 134.316 171.242 462.17
826 0 53.1033 13.05 693 130.361 171.674 462.13
827 0 54.1741 14.1211 765 128.076 173.016 459.501
828 0 52.1417 10.2605 535 136.727 173.871 460.794
829 0 57.2157 14.926 854 125.907 175.785 459.854
830 0 59.1522 17.3789 1028 120.211 176.881 460.586
831 0 60.1549 14.7287 886 125.875 179.365 458.121
832 0 60.1219 12.2418 736 133.045 180.838 455.958
833 0 64.238 13.5901 873 129.828 182.543 453.717
834 0 69.2463 15.3221 1061 127.631 183.907 454.833
835 0 69.1778 12.2583 848 132.929 184.202 456.863
836 0 73.3158 16.0265 1175 124.909 185.78 451.918
837 0 71.1672 13.4613 958 134.773 185.36 454.602
838 0 75.1559 12.7867 961 138.081 185.293 454.171
839 0 78.232 15.0706 1179 132.082 185.596 456.825
840 1 42.0984 9.54905 402 141.012 185.331 475.535
841 0 40.076 9.60676 385 144.291 187.044 475.777
842 0 43.0796 10.2601 442 142.67 186.357 476.873
843 0 43.3179 11.1963 485 141.689 184.794 475.897
844 0 46.1841 12.7316 588 139.645 183.65 475.395
845 0 48.0843 13.2476 637 138.926 182.044 475.086
846 0 48.0554 12.6521 608 142.309 181.398 474.406
847 0 49.2649 16.3605 806 134.14 180.325 472.088
848 0 50.1735 12.6959 637 143.168 178.512 471.312
849 0 52.1202 13.9677 728 141.574 176.941 469.589
850 0 52.0528 15.8301 824 135.924 174.256 471.527
851 0 55.4112 12.7592 707 141.475 173.936 468.757
852 0 58.2607 14.1433 824 137.529 172.319 468.249
853 0 61.1574 12.9502 792 140.067 171.577 466.508
854 0 61.3669 13.4437 825 140.053 171.308 463.473
855 0 64.2539 13.2288 850 140.7 170.792 460.822
856 0 64.1622 11.6891 750 144.225 171.289 459.811
857 0 69.1483 17.5565 1214 130.515 171.021 456.222
858 0 71.2153 15.1232 1077 135.686 171.261 456.992
859 1 36.1629 10.508 380 139.6 173.513 472.947
860 0 37.0793 11.0574 410 144.715 173.622 469.28
861 0 41.0903 9.4913 390 139.138 174.508 472.277
862 0 39.0893 9.38875 367 148.747 175.237 468.801
863 0 42.1511 13.3804 564 138.961 177.401 466.97
864 0 42.0967 10.8322 456 141.522 178.686 470.697
865 0 43.1304 11.129 480 138.935 178.371 471.196
866 0 45.1224 12.0118 542 138.841 179.635 469.452
867 0 48.1302 14.5647 701 139.315 182.745 468.558
868 0 48.0485 14.964 719 136.851 183.53 469.038
869 0 48.1619 13.2054 636 142.447 184.258 467.816
870 0 52.0453 14.4682 753 139.135 184.815 468.019
871 0 51.0636 13.1601 672 143.58 184.204 469.094
872 0 53.2058 13.3632 711 146.159 184.426 468.003
873 0 56.1986 15.3207 861 140.228 183.527 468.758
874 0 55.2182 12.1699 672 149.504 183.516 466.917
875 0 59.1919 16.1678 957 141.129 183.32 466.369
876 0 62.1759 16.1477 1004 139.461 182.937 468.331
877 0 62.0911 14.2533 885 145.279 180.967 468.349
878 0 64.1426 15.1693 973 142.791 179.713 465.922
879 0 63.2058 14.3658 908 144.955 178.21 463.61
880 0 67.1628 15.1125 1015 143.502 177.217 462.667
881 0 71.1751 15.511 1104 141.296 175.335 465.298
882 0 74.1225 16.7021 1238 138.274 173.704 461.855
883 0 74.0918 16.0882 1192 140.223 172.686 456.893
884 1 41.1216 11.0161 453 140.358 172.287 476.746
885 0 42.0472 9.53689 401 143.95 171.18 475.202
886 0 45.0752 10.6045 478 138.812 171.207 472.985
887 0 42.0626 10.6032 446 143.868 170.919 470.092
888 0 45.0993 14.1466 638 135.378 169.964 465.672
889 0 48.0486 14.1523 680 132.582 169.613 465.262
890 0 49.2175 12.6581 623 134.576 170.417 463.647
891 0 49.183 13.7446 676 133.546 170.422 460.037
892 0 51.0863 12.1755 622 133.355 170.434 461.391
893 0 54.2671 14.4655 785 129.484 171.25 460.69
894 0 56.1297 15.7671 885 126.872 171.746 459.398
895 0 55.1937 13.8422 764 133.931 173.296 458.236
896 0 58.114 14.8329 862 130.816 174.584 457.07
897 0 60.0697 13.9838 840 130.181 176.388 456.961
898 0 61.219 11.7937 722 137.179 178.201 453.841
899 0 64.3282 15.452 994 131.977 180.32 455.487
900 0 66.2774 15.9934 1060 132.801 181.23 456.15
901 0 68.2124 14.4548 986 138.085 182.343 454.371
902 0 70.1971 18.8469 1323 130.463 183.244 455.982
903 0 71.3053 15.1882 1083 142.484 183.387 454.483
904 0 73.1589 15.0768 1103 141.231 184.811 456.084
905 0 73.1304 15.5065 1134 141.97 184.665 454.416
906 0 76.2156 14.787 1127 142.478 184.614 452.793
907 0 82.1884 17.8736 1469 138.483 184.297 454.66
908 1 44.0741 9.71093 428 148.227 184.886 476.021
909 0 46.0866 13.9954 645 145.109 183.829 471.288
910 0 48.1841 10.0656 485 152.718 183.697 471.823
911 0 48.0872 11.0216 530 150.968 182.577 470.134
912 0 50.1319 11.1905 561 148.715 181.225 466.806
913 0 50.0617 9.64809 483 149.329 178.683 467.429
914 0 53.3211 15.9787 852 135.378 177.704 464.775
915 0 53.123 10.2404 544 148.07 177.2 464.206
916 0 57.1014 14.0452 802 138.849 175.914 463.567
917 0 57.0433 13.2531 756 142.331 173.921 458.021
918 0 60.119 13.2404 796 140.56 173.254 459.651
919 0 61.2331 13.6364 835 140.453 172.005 454.65
920 0 61.1088 13.1405 803 142.164 171.803 452.408
921 0 64.1789 11.3589 729 146.369 171.121 449.082
922 0 67.1074 12.7855 858 142.179 171.112 447.65
923 0 72.1287 15.0703 1087 135.211 172.058 452.758
924 0 73.3131 15.5361 1139 133.887 172.106 449.97
925 1 144.482 23.1102 3339 126.043 171.391 413.951
926 0 147.386 16.718 2464 135.99 172.073 411.376
927 0 153.629 16.9174 2599 134.863 172.806 411.743
928 0 157.381 15.5928 2454 138.438 174.132 405.868
929 1 87.4 14.897 1302 134.22 176.28 441.604
930 0 91.3178 15.0573 1375 131.071 178.395 439.639
931 1 47.074 12.3848 583 135.033 181.074 461.341
932 0 50.2563 13.3516 671 131.492 182.021 462.687
933 0 50.0857 12.0593 604 131.639 183.031 462.974
934 0 51.06 12.3972 633 131.258 185.114 464.009
935 0 52.1802 12.9551 676 133.572 187.216 461.732
936 0 54.0386 13.1017 708 133.797 186.945 462.626
937 0 55.1269 12.8975 711 136.916 186.961 462.236
938 0 58.0531 12.5402 728 136.06 187.357 463.04
939 0 59.0542 10.3634 612 139.225 186.958 465.172
940 0 62.0684 15.5957 968 131.257 186.427 462.784
941 0 63.0949 15.9759 1008 134.186 187.06 462.108
942 0 67.2821 15.1898 1022 135.654 185.545 461.464
943 0 67.1075 12.3682 830 145.71 185.534 458.461
944 0 72.2021 14.9303 1078 140.95 184.433 455.768
945 0 75.1636 12.24 920 146.741 183.33 457.929
946 1 42.0621 9.62863 405 144.479 183.546 475.709
947 0 42.0312 11.0632 465 145.275 181.598 472.671
948 0 43.0798 11.1421 480 144.542 180.421 471.733
949 0 46.1282 11.4464 528 142.828 178.494 471.343
950 0 47.0774 13.3185 627 137.746 176.376 469.616
951 0 47.1585 13.6561 644 139.051 174.842 466.708
952 0 50.0904 13.296 666 138.462 174.815 466.635
953 0 52.1753 13.7996 720 137.092 174.447 464.821
954 0 52.0877 11.711 610 142.902 174.613 463.707
955 0 54.0702 15.9792 864 133.999 173.516 459.524
956 0 55.0863 13.7602 758 138.347 174.716 461.397
957 0 56.0887 14.1205 792 135.832 173.846 458.503
958 0 57.1956 12.9031 738 136.92 174.351 455.585
959 0 58.0355 13.4745 782 133.559 174.394 459.004
960 0 59.1397 14.9307 883 133.239 174.566 454.063
961 0 63.3138 14.8625 941 133.77 175.829 453.394
962 0 64.2333 15.4748 994 134.709 177.268 453.625
963 0 68.3503 15.7132 1074 132.436 179.054 454.393
964 0 66.2919 16.0201 1062 132.01 180.14 452.187
965 0 68.3897 13.6863 936 136.368 181.726 451.397
966 0 72.4973 16.3178 1183 130.665 183.162 452.309
967 0 70.483 12.9819 915 141.864 184.256 453.225
968 0 74.2959 12.8136 952 141.742 185.447 449.489
969 1 41.171 10.1528 418 142.763 186.148 468.72
970 0 42.2145 12.1048 511 137.299 185.992 468.904
971 0 41.1121 9.77814 402 144.251 186.896 470.137
972 0 45.0843 10.4914 473 142.679 187.317 470.721
973 0 47.2092 14.5734 688 135.459 186.295 469.378
974 0 48.2282 13.208 637 141.259 184.615 464.961
975 0 48.3654 13.2119 639 144.419 184.052 464.258
976 0 50.015 12.7362 637 143.672 181.991 468.407
977 0 50.0537 14.1648 709 145.577 179.708 466.681
978 0 52.0865 13.036 679 146.533 178.61 465.925
979 0 54.1138 11.4389 619 148.866 178.1 468.874
980 0 56.0582 13.2362 742 146.578 175.926 465.283
981 0 58.0781 12.9653 753 144.029 174.357 465.919
982 0 57.1162 16.9304 967 137.17 173.451 466.82
983 0 58.0486 13.0925 760 145.17 172.27 462.8
984 0 62.0738 13.7256 852 139.114 171.644 462.43
985 0 64.2575 16.4494 1057 133.693 170.741 459.192
986 0 66.1872 15.7432 1042 135.133 170.205 458.444
987 0 66.045 15.1866 1003 138.328 169.183 454.392
988 0 70.1602 13.9395 978 138.196 168.782 453.168
989 0 70.3951 16.3506 1151 134.287 169.324 450.722
990 0 71.3674 15.8476 1131 134.111 168.715 450.627
991 0 76.196 15.7226 1198 130.868 169.19 450.297
992 0 77.3266 13.8115 1068 135.464 169.589 446.049
993 0 80.2711 15.0739 1210 130.474 170.257 445.796
994 0 81.4835 16.3591 1333 131.389 171.566 444.656
995 0 82.3388 15.2905 1259 132.655 173.284 446.288
996 0 84.4372 13.9038 1174 137.476 174.57 439.306
997 0 87.1269 15.2192 1326 131.764 176.183 442.922
998 0 89.1365 14.2029 1266 136.156 178.84 439.303
999 0 93.1817 14.3805 1340 135.744 179.486 442.107
1000 0 95.1385 14.5893 1388 139.555 180.747 435.947
1001 0 99.171 13.7137 1360 143.899 183.207 437.858
1002 1 51.2011 10.5467 540 146.261 184.574 462.133
1003 0 54.1151 10.8842 589 144.37 183.893 461.61
1004 0 54.291 12.6356 686 139.622 184.106 454.159
1005 0 55.152 11.7312 647 148.124 186.436 458.303
1006 0 58.2331 15.1975 885 140.873 186.134 457.873
1007 0 63.1822 13.374 845 143.709 186.699 458.838
1008 0 62.1594 14.0445 873 144.262 185.735 457.683
1009 0 66.1105 18.6203 1231 133.709 186.056 461.885
1010 0 69.0523 13.1639 909 146.432 184.989 462.623
1011 0 69.1576 16.325 1129 139.674 183.586 460.348
1012 0 70.0945 13.8955 974 149.068 182.551 458.439
1013 0 74.0731 14.2157 1053 150.201 181.047 459.617
1014 0 77.136 13.2752 1024 153.395 179.56 458.648
1015 0 79.0945 14.6407 1158 150.416 177.859 457.675
1016 0 77.2612 13.2926 1027 154.625 175.463 456.876
1017 0 85.4046 15.2802 1305 145.311 174.619 455.359
1018 0 86.3088 13.1852 1138 149.632 173.881 452.984
1019 0 89.5708 14.3127 1282 145.849 172.988 452.465
1020 0 92.7317 14.2777 1324 146.295 172.179 449.161
1021 0 94.3831 15.6808 1480 144.828 171.399 444.136
1022 1 52.3704 12.6407 662 138.267 171.997 468
1023 0 52.3615 11.4588 600 137.167 171.122 469.08
1024 0 55.4674 11.322 628 141.151 171.436 466.417
1025 0 57.086 15.4153 880 134.293 171.235 464.497
1026 0 60.0683 13.9674 839 138.329 172.242 462.305
1027 0 63.1805 13.5327 855 135.919 172.543 463.196
1028 0 64.2673 14.533 934 137.124 173.353 457.921
1029 0 66.0719 13.9242 920 137.489 174.563 462.192
1030 0 69.5766 15.1344 1053 135.053 175.929 459.519
1031 0 71.4736 13.1937 943 141.74 176.932 454.187
1032 0 74.5414 15.5886 1162 137.217 179.182 456.421
1033 0 75.3905 13.503 1018 144.392 180.21 455.436
1034 0 79.4605 14.1202 1122 144.381 181.558 452.859
1035 0 82.5626 14.8372 1225 143.324 183.042 451.131
1036 0 83.7333 14.7731 1237 143.793 183.484 455.601
1037 0 89.4656 15.4026 1378 142.919 184.498 451.909
1038 0 91.5045 14.8845 1362 144.066 183.845 453.726
1039 0 95.6283 16.355 1564 143.779 183.854 452.772
1040 0 97.3889 14.7553 1437 148.507 183.511 451.608
1041 0 101.596 15.9456 1620 147.217 182.472 446.665
1042 0 101.537 16.5358 1679 147.036 182.416 450.104
1043 0 108.516 18.0157 1955 143.888 180.136 445.617
1044 0 112.563 16.533 1861 145.786 178.48 442.913
1045 1 58.4621 9.54464 558 149.032 179.005 475.498
1046 0 60.3693 10.8996 658 148.971 176.416 470.153
1047 0 61.4572 11.9107 732 146.283 174.526 467.887
1048 0 64.368 12.4596 802 145.662 172.87 464.456
1049 0 68.3082 16.0449 1096 136.294 171.892 465.286
1050 0 69.4137 15.8758 1102 136.647 170.144 460.406
1051 0 72.3976 13.3844 969 141.083 169.077 461.251
1052 0 72.3567 13.0741 946 142.781 169.547 458.489
1053 0 75.1907 13.8049 1038 141.151 169.788 457.842
1054 0 77.2365 14.9541 1155 137.719 169.719 455.684
1055 0 79.2463 13.906 1102 141.218 169.391 453.664
1056 0 79.2565 13.6771 1084 141.726 169.158 449.339
1057 0 85.2931 15.4995 1322 135.952 169.735 449.504
1058 0 85.3668 13.0496 1114 143.087 169.467 443.973
1059 0 90.3882 16.1415 1459 135.668 170.052 446.586
1060 0 90.5874 14.9138 1351 140.243 171.03 440.355
1061 0 96.4105 18.639 1797 130.845 171.498 440.787
1062 0 94.407 15.4755 1461 138.615 172.669 437.994
1063 0 96.3972 14.0668 1356 142.6 174.033 436.647
1064 0 102.443 13.6467 1398 142.393 176.158 434.495
1065 0 106.393 14.6157 1555 142.493 177.759 432.99
1066 0 109.419 15.1711 1660 137.713 178.983 430.77
1067 0 113.455 16.0769 1824 134.646 180.447 429.453
1068 1 62.3091 10.9294 681 135.119 183.018 459.834
1069 0 64.24 9.12205 586 139.251 184.029 459.456
1070 0 69.3798 15.9989 1110 123.884 185.203 457.848
1071 0 68.1972 13.6076 928 128.606 185.442 457.644
1072 0 71.2605 13.6541 973 129.827 185.826 454.616
1073 0 73.2245 12.646 926 132.93 185.472 451.462
1074 0 75.323 12.9044 972 134.699 185.809 450.336
1075 0 80.3634 15.5543 1250 128.205 186.524 454.406
1076 0 82.5473 14.949 1234 129.74 185.203 453.131
1077 0 81.3149 11.4985 935 138.794 183.63 447.48
1078 0 83.4112 13.2596 1106 135.639 183.052 447.869
1079 0 86.1576 12.6861 1093 137.634 182.904 452.758
1080 0 90.2145 15.8954 1434 132.038 181.403 448.499
1081 0 93.205 14.4949 1351 134.745 180.312 445.803
1082 0 97.2168 14.6374 1423 134.046 178.609 442.221
1083 0 100.276 13.5327 1357 135.139 177.889 442.776
1084 0 102.317 15.1685 1552 132.386 176.994 441.073
1085 0 106.242 14.9376 1587 133.37 175.554 436.111
1086 0 109.646 16.2705 1784 129.767 174.172 436.978
1087 0 115.325 17.2989 1995 125.373 172.946 434.28
1088 0 113.255 13.0943 1483 136.6 172.082 427.853
1089 0 120.406 14.4345 1738 131.425 171.234 431.156
1090 0 122.35 17.025 2083 130.168 171.374 421.876
1091 0 127.184 13.1935 1678 135.706 171.362 425.611
1092 0 130.488 12.8058 1671 136.101 172.18 420.233
1093 0 136.39 15.3017 2087 132.744 171.939 416.253
1094 0 140.641 15.1592 2132 131.963 172.671 416.095
1095 0 146.391 16.0324 2347 129.552 172.798 408.144
1096 0 148.543 13.0266 1935 141.01 174.523 402.638
1097 1 68.2852 11.7888 805 123.858 178.225 453.67
1098 0 70.2576 13.5501 952 123.405 179.434 450.657
1099 0 71.2291 11.7227 835 128.552 181.304 447.051
1100 0 74.1672 12.0134 891 128.779 182.064 449.68
1101 0 77.2269 16.1343 1246 123.937 181.224 447.593
1102 0 79.1912 15.1153 1197 124.536 183.462 450.758
1103 0 80.1957 12.3323 989 133.031 186.212 452.889
1104 0 83.1438 12.5325 1042 134.116 186.55 447.889
1105 0 83.178 12.888 1072 134.126 186.84 447.455
1106 0 89.1561 12.551 1119 134.481 186.653 448.651
1107 0 88.2355 12.104 1068 138.613 185.896 447.025
1108 1 49.1326 7.2864 358 142.514 186.626 471.645
1109 0 53.057 10.14 538 137.918 186.277 470.6
1110 0 53.0994 9.00198 478 143.569 185.385 468.201
1111 0 56.0464 12.5967 706 133.364 182.339 469.619
1112 0 58.1243 12.4733 725 134.374 181.313 467.716
1113 0 59.099 12.9105 763 135.025 178.326 466.126
1114 0 62.0796 12.1618 755 134.087 177.025 460.363
1115 0 64.1615 12.2192 784 135.145 175.227 460.791
1116 0 66.091 11.8927 786 137.225 173.528 462.246
1117 0 68.0944 14.2302 969 134.093 171.542 459.871
1118 0 72.1097 13.6875 987 134.088 170.502 457.927
1119 0 75.1476 16.8602 1267 126.182 169.66 457.173
1120 0 73.144 11.4569 838 137.535 169.268 456.779
1121 0 78.1649 13.1901 1031 131.463 168.624 454.184
1122 0 79.3539 13.8745 1101 128.866 168.157 454.996
1123 0 81.2351 13.3563 1085 130.897 167.847 448.884
1124 0 86.4666 16.6423 1439 124.337 167.238 449.871
1125 0 87.3348 13.7288 1199 130.626 167.112 446.855
1126 1 47.2485 11.4924 543 129.508 168.192 466.681
1127 0 50.1595 12.221 613 126.662 168.604 468.077
1128 0 48.1072 12.4721 600 126.747 170.603 465.857
1129 0 50.1467 12.5033 627 127.037 170.061 465.979
1130 0 49.0803 11.0228 541 129.494 171.982 464.318
1131 0 51.1591 11.0831 567 127.931 172.33 467.451
1132 0 52.0893 11.2115 584 128.134 172.526 464.634
1133 0 53.1144 12.3507 656 129.485 174.456 461.578
1134 0 56.1295 12.3999 696 128.286 175.845 462.131
1135 0 55.0595 11.1152 612 132.727 177.704 459.186
1136 0 58.1875 13.5424 788 130.458 178.73 460.906
1137 0 63.1357 12.1326 766 132.23 179.64 464.884
1138 0 62.0532 12.1186 752 135.068 180.088 462.894
1139 0 63.0632 12.3051 776 135.137 180.932 466.468
1140 0 66.131 12.6869 839 136.132 180.143 462.679
1141 0 68.1275 12.5206 853 138.613 180.58 463.996
1142 0 72.1294 12.5608 906 138.276 178.794 462.392
1143 0 73.1768 14.0482 1028 136.738 178.666 462.507
1144 0 74.1566 12.5141 928 139.425 176.589 463.67
1145 1 42.0419 11.0604 465 136.54 174.712 479.624
1146 0 42.0195 10.9473 460 140.985 173.174 476.315
1147 0 43.0365 11.0836 477 142.128 172.419 473.616
1148 0 47.0755 14.6361 689 132.213 170.334 474.929
1149 0 45.0356 12.8121 577 137.584 169.718 472.111
1150 0 46.0233 12.6458 582 137.763 168.522 472.098
1151 0 49.1942 13.6805 673 135.88 167.505 469.822
1152 0 48.3831 13.3724 647 135.459 167.983 460.901
1153 0 51.1583 14.7777 756 128.108 167.571 462.698
1154 0 52.127 12.623 658 132.082 168.091 464.754
1155 0 52.2056 12.5657 656 133.855 167.962 461.607
1156 0 52.1403 13.8664 723 133.025 167.768 458.455
1157 0 56.1553 13.1599 739 131.961 167.65 457.317
1158 0 57.2535 13.5887 778 131.19 168.274 457.981
1159 0 57.2435 13.364 765 132.923 168.684 454.839
1160 0 59.0701 14.6775 867 130.189 169.889 454.495
1161 0 59.1185 11.2317 664 139.791 170.456 452.795
1162 0 62.1376 13.4218 834 132.49 171.205 451.856
1163 0 66.1467 13.3794 885 130.476 173.04 450.544
1164 0 65.1672 12.6137 822 134.479 174.611 449.339
1165 0 67.1231 13.4827 905 133.678 176.276 447.38
1166 0 69.2313 12.9566 897 135.977 178.07 445.921
1167 0 74.2452 13.8999 1032 133.131 180.829 447.434
1168 0 75.2535 14.1389 1064 134.071 181.829 447.323
1169 0 77.3346 14.6636 1134 133.992 184.236 443.937
1170 0 77.1345 12.368 954 140.619 183.711 446.517
1171 0 81.2339 12.8025 1040 141.498 184.271 444.906
1172 0 84.1574 12.8806 1084 141.603 184.446 444.339
1173 0 87.2366 14.6727 1280 138.484 184.657 444.278
1174 1 45.1645 8.17014 369 146.71 185.856 467.179
1175 0 49.3108 12.2083 602 137.734 185.817 467.786
1176 0 51.1205 11.1501 570 141.504 184.804 469.505
1177 0 48.056 8.76061 421 147.373 183.19 466.734
1178 0 53.0747 13.2643 704 140.024 182.445 464.757
1179 0 55.0944 12.1065 667 142.178 181.277 466.688
1180 0 58.1413 15.3247 891 138.227 179.921 464.745
1181 0 58.1939 14.5892 849 138.823 178.879 463.495
1182 0 58.158 13.4117 780 143.342 177.178 458.865
1183 0 62.1862 13.7169 853 141.522 175.823 458.256
1184 0 65.12 13.8513 902 141.63 174.616 456.537
1185 0 66.1058 12.7674 844 143.481 172.79 457.077
1186 0 69.0843 13.8961 960 142.308 171.144 452.029
1187 0 70.0833 13.4269 941 144.459 170.767 449.44
1188 0 73.1731 11.1653 817 148.898 170.558 449.635
1189 0 76.3078 13.9828 1067 143.037 170.687 444.269
1190 0 77.2841 12.6287 976 146.336 169.454 441.684
1191 0 82.337 14.7443 1214 138.944 169.214 436.983
1192 0 87.2882 15.741 1374 135.932 169.913 438.648
1193 0 89.2031 16.0084 1428 136.231 170.532 434.477
1194 0 92.2502 16.4552 1518 135.085 171.258 435.041
1195 1 49.1173 12.1953 599 139.486 174.479 453.038
1196 0 50.1047 11.4361 573 141.632 176.574 452.382
1197 0 51.1378 9.58196 490 148.582 177.755 453.308
1198 0 53.0839 12.4331 660 137.444 179.7 452.333
1199 0 54.0353 12.1957 659 138.917 181.158 449.772
1200 0 55.2587 10.7856 596 141.852 182.493 450.378
1201 0 58.1399 13.6739 795 132.493 181.643 456.725
1202 0 61.1702 12.8984 789 134.044 182.895 455.549
1203 0 63.1073 12.3282 778 135.829 183.546 455.893
1204 0 64.1192 13.9116 892 134.669 185.234 454.805
1205 0 65.0815 12.8762 838 136.298 185.198 458.475
1206 0 69.1038 13.7474 950 135.244 184.849 456.247
1207 0 71.046 12.4286 883 139.388 184.846 457.528
1208 0 73.1187 13.991 1023 137.238 184.685 458.016
1209 0 77.1507 16.1372 1245 134.377 184.622 455.481
1210 0 78.2505 14.6197 1144 140.51 184.529 453.415
1211 0 80.0926 12.985 1040 145.533 183.599 455.608
1212 0 84.1333 15.3209 1289 140.909 184.088 452.51
1213 0 87.2742 17.1414 1496 137.83 182.453 452.16
1214 0 91.2252 14.6889 1340 144.522 181.163 449.034
1215 1 47.1864 8.28629 391 148.031 180.453 474.391
1216 0 50.2707 10.523 529 146.883 178.783 470.062
1217 0 49.3948 10.9121 539 147.16 178.204 468.801
1218 0 51.4277 13.378 688 143.84 176.519 466.302
1219 0 55.175 12.8863 711 141.916 175.454 468.738
1220 0 56.0886 12.4268 697 141.702 174.968 467.818
1221 0 55.2426 11.6034 641 147.972 172.688 461.817
1222 0 59.1666 13.8423 819 140.919 171.761 461.807
1223 0 59.2176 13.2393 784 140.161 171.008 459.602
1224 0 63.2607 14.6062 924 135.154 170.663 459.395
1225 0 66.2779 13.5037 895 136.314 171.044 457.882
1226 0 69.2608 13.1099 908 136.671 171.523 457.999
1227 0 67.2327 11.9882 806 144.022 171.71 453.902
1228 0 73.2815 14.0554 1030 136.753 171.815 453.155
1229 0 75.241 12.8255 965 140.948 172.987 451.861
1230 0 77.2371 13.1414 1015 140.748 174.956 452.739
1231 0 80.2904 13.5633 1089 141.154 175.517 449.956
1232 0 83.2882 13.5313 1127 141.334 177.62 449.786
1233 0 86.2068 14.7784 1274 140.399 179.83 447.916
1234 0 90.287 13.8669 1252 140.746 181.435 449.957
1235 1 49.0729 9.35343 459 145.876 183.566 470.638
1236 0 52.1029 9.76913 509 145.904 185.143 471.301
1237 0 55.119 13.9516 769 142.179 185.693 465.939
1238 0 54.1635 9.50825 515 152.054 185.13 466.041
1239 0 59.3255 11.1251 660 147.642 184.97 464.958
1240 0 61.2166 12.807 784 145.49 185.304 464.287
1241 0 60.3176 12.8155 773 147.84 184.582 461.693
1242 0 65.2822 19.1476 1250 131.988 186.407 468.898
1243 0 65.1117 14.3753 936 145.576 185.04 467.179
1244 0 69.1823 14.6569 1014 143.663 183.782 467.071
1245 0 67.1217 13.6022 913 147.014 182.483 465.291
1246 0 73.2671 15.7642 1155 139.987 181.134 466.854
1247 0 75.142 19.1105 1436 133.361 179.646 462.415
1248 0 77.2382 16.8052 1298 139.524 178.157 460.038
1249 0 79.2497 13.3502 1058 147.565 176.522 460.865
1250 0 81.2597 14.3368 1165 147.508 175.012 459.285
1251 0 86.3698 16.5567 1430 139.856 174.209 458.31
1252 0 88.1655 13.6448 1203 145.915 173.478 458.539
1253 0 90.2776 15.0868 1362 144.002 172.379 454.603
1254 1 46.0409 8.36212 385 151.748 171.927 475.036
1255 0 49.0902 13.0576 641 142.93 171.838 472.622
1256 0 50.2022 12.2903 617 146.034 171.472 469.78
1257 0 49.0815 9.92227 487 152.747 170.532 467.903
1258 0 52.2036 11.436 597 146.774 168.424 462.94
1259 0 54.1587 14.2729 773 143.296 168.141 460.785
1260 0 59.0303 14.0775 831 141.527 169.813 463.14
1261 0 57.0642 12.5473 716 147.524 170.267 459.687
1262 0 58.0417 12.7839 742 149.95 171.235 458.575
1263 0 62.142 12.4071 771 148.215 172.104 458.394
1264 0 65.1324 13.6031 886 146.739 173.915 456.266
1265 0 66.1083 15.1116 999 144.608 175.194 455.002
1266 0 69.3207 15.6807 1087 141.856 176.809 456.787
1267 0 72.1667 15.2148 1098 143.375 178.401 453.889
1268 0 72.239 13.9537 1008 148.248 179.757 452.688
1269 0 77.1484 16.734 1291 140.15 180.892 453.266
1270 0 77.1769 16.0411 1238 142.256 181.926 451.263
1271 0 81.2867 16.0789 1307 141.117 182.79 448.636
1272 0 82.2493 16.377 1347 140.264 182.992 450.108
1273 0 84.2727 13.9666 1177 145.194 182.552 450.418
1274 0 85.208 15.2216 1297 143.854 182.222 451.311
1275 0 89.1589 15.1527 1351 141.099 181.545 453.971
1276 1 48.1572 11.3586 547 142.046 180.623 470.77
1277 0 49.2394 11.2512 554 144.884 180.446 470.439
1278 0 52.1613 9.85406 514 144.755 178.313 471.934
1279 0 51.1522 10.068 515 144.55 177.068 470.748
1280 0 54.1257 12.8774 697 140.37 177.046 470.925
1281 0 55.1283 12.8609 709 142.241 175.176 469.35
1282 0 56.0575 13.4683 755 141.272 173.812 470.025
1283 0 61.1909 13.94 853 137.737 172.776 470.807
1284 0 62.1293 13.9548 867 138.101 171.45 470.46
1285 0 64.2424 14.7099 945 136.821 170.61 469.142
1286 0 63.1229 13.8302 873 140.071 169.811 465.726
1287 0 66.262 13.2353 877 139.919 168.92 463.603
1288 0 69.1658 16.1351 1116 132.219 167.727 462.06
1289 0 68.1987 14.1352 964 137.421 167.329 458.75
1290 0 76.2835 16.9237 1291 127.227 167.335 460.709
1291 0 72.3066 14.8258 1072 136.684 166.418 454.69
1292 0 76.6175 16.0407 1229 132.337 166.32 449.261
1293 0 80.532 16.1675 1302 132.328 167.167 453.161
1294 0 82.2184 15.8724 1305 129.172 167.497 453.038
1295 0 83.1053 14.1146 1173 132.468 167.791 452.084
1296 0 86.169 16.6417 1434 128.377 169.116 450.735
1297 0 87.1794 14.0974 1229 133.943 170.021 446.643
1298 0 91.1583 14.7655 1346 132.552 171.76 445.353
1299 0 91.4289 13.5843 1242 135.889 173.141 442.873
1300 0 95.3872 14.4988 1383 133.645 174.419 437.68
1301 1 50.35 10.7845 543 132.444 176.385 463.576
1302 0 54.2002 10.7195 581 132.503 177.936 463.322
1303 0 56.2407 11.1841 629 131.512 179.184 463.455
1304 0 58.2434 10.542 614 132.169 179.739 465.119
1305 0 58.1812 12.6158 734 128.891 180.909 463.364
1306 0 61.179 12.9456 792 128.256 180.835 464.068
1307 0 65.111 11.5341 751 130.356 179.895 460.776
1308 0 66.1617 13.8751 918 127.367 179.558 461.557
1309 0 69.1975 12.5727 870 129.677 179.557 463.41
1310 0 67.1359 11.8863 798 133.678 178.944 459.499
1311 0 72.149 14.3314 1034 129.149 178.316 461.155
1312 0 73.2122 11.7194 858 134.941 176.802 459.995
1313 0 75.0641 14.3477 1077 130.192 175.058 458.282
1314 0 81.0776 13.4192 1088 130.623 174.033 458.679
1315 0 85.2106 12.8975 1099 130.077 172.088 461.232
1316 1 45.1948 9.00547 407 134.791 171.157 476.727
1317 0 43.1988 10.0697 435 132.179 170.409 478.432
1318 0 46.0581 9.83539 453 131.83 169.203 478.283
1319 0 49.0823 11.1242 546 130.722 167.842 474.158
1320 0 52.093 13.0536 680 125.381 167.09 473.004
1321 0 52.2245 15.7206 821 122.915 167.017 469.369
1322 0 54.0581 12.7825 691 128.502 164.252 467.999
1323 0 56.0295 14.8493 832 124.338 164.314 467.624
1324 0 58.1464 15.9253 926 121.255 164.114 465.715
1325 0 59.0878 11.9991 709 128.777 164.296 462.681
1326 0 58.0977 12.238 711 129.854 164.904 460.215
1327 0 64.2546 15.2051 977 122.726 165.159 460.284
1328 0 63.0861 14.9161 941 123.582 165.172 456.763
1329 0 65.1145 13.4071 873 125.149 166.6 457.683
1330 0 69.1931 13.5852 940 124.916 167.663 456.486
1331 0 71.1969 14.5372 1035 125.549 169.809 454.538
1332 0 73.1202 15.0437 1100 124.343 171.182 452.764
1333 0 73.1922 13.8949 1017 129.973 173.213 450.447
1334 0 78.1662 12.7421 996 130.384 175.11 452.988
1335 0 81.1106 14.9549 1213 127.225 176.889 451.19
1336 0 83.0975 13.5383 1125 131.251 178.052 446.866
1337 0 87.2594 13.924 1215 129.849 178.772 449.99
1338 0 88.0733 16.0208 1411 127.029 180.135 446.393
1339 1 46.1008 8.5248 393 135.545 181.72 471.738
1340 0 44.0462 8.35487 368 139.13 181.668 468.717
1341 0 50.0883 12.1585 609 130.55 181.548 471.939
1342 0 50.0774 9.88471 495 137.004 180.523 471.051
1343 0 54.0963 12.2189 661 130.573 179.434 470.762
1344 0 53.1717 13.5786 722 129.758 178.622 468.442
1345 0 56.1831 15.5563 874 127.895 178.605 471.768
1346 0 57.0913 13.6273 778 132.446 177.81 470.922
1347 0 58.1122 15.4701 899 129.637 176.307 467.605
1348 0 60.1431 13.8669 834 132.203 175.158 467.21
1349 0 64.5669 12.6071 814 135.257 172.577 464.676
1350 0 64.1453 14.2177 912 131.932 172.138 465.179
1351 0 66.4906 14.5735 969 130.85 171.055 460.71
1352 0 68.4366 13.2678 908 133.649 170.052 463.92
1353 0 70.2558 14.5184 1020 130.938 169.27 461.1
1354 0 74.5342 14.9998 1118 128.282 168.239 456.388
1355 0 75.5359 15.3437 1159 126.473 167.353 455.872
1356 0 77.4997 15.0194 1164 127.39 167.278 453.502
1357 0 79.4857 11.9393 949 134.216 167.644 448.764
1358 0 80.7806 12.6392 1021 132.795 167.401 447.665
1359 0 84.475 14.2172 1201 126.614 166.699 445.784
1360 0 88.4659 13.1576 1164 128.428 167.071 442.564
1361 0 90.373 15.0598 1361 123.827 167.786 443.688
1362 0 94.505 15.9568 1508 124.061 168.26 436.388
1363 1 47.2262 14.42 681 129.508 169.777 460.16
1364 0 50.4296 13.4445 678 128.484 170.771 459.472
1365 0 52.3851 14.1834 743 129.444 173.092 458.137
1366 0 53.0726 13.0387 692 133.929 173.819 459.86
1367 0 56.0683 13.5014 757 132.329 175.428 461.342
1368 0 55.2605 13.3006 735 134.645 176.782 461.882
1369 0 58.07 14.7408 856 132.502 178.083 461.152
1370 0 58.1085 12.6316 734 140.64 179.267 460.612
1371 0 61.0639 15.7376 961 134.29 179.915 461.004
1372 0 64.1245 15.7038 1007 134.606 180.509 457.914
1373 0 66.2179 14.6184 968 138.196 180.745 460.465
1374 0 67.1354 14.7016 987 138.693 180.106 458.667
1375 0 72.1169 17.1111 1234 132.387 180.112 461.518
1376 0 73.1418 15.3401 1122 137.532 180.547 459.391
1377 1 40.283 11.7419 473 139.114 181.23 478.844
1378 0 42.2584 10.2938 435 146.692 180.494 475.366
1379 0 42.4948 10.9425 465 146.43 178.503 474.71
1380 0 45.1662 14.8784 672 133.216 177.948 475.799
1381 0 47.3949 12.7862 606 138.152 177.223 475.086
1382 0 45.4853 13.257 603 141.204 174.594 473.592
1383 0 50.2988 11.9884 603 140.176 173.489 472.93
1384 0 51.0972 14.7953 756 136.89 172.001 472.151
1385 0 52.0329 13.9527 726 139.493 171.085 470.453
1386 0 53.0488 14.3264 760 138.199 170.438 470.924
1387 0 54.0289 16.3246 882 134.311 169.034 468.111
1388 0 55.0742 15.815 871 134.759 168.127 465.63
1389 0 58.1622 15.4396 898 133.322 168.55 463.57
1390 0 58.174 16.8804 982 130.896 168.448 460.544
1391 0 60.236 15.6053 940 131.894 168.381 460.341
1392 0 61.265 14.7229 902 136.22 168.437 457.446
1393 0 64.1701 15.1628 973 133.231 169.424 455.983
1394 0 66.0791 14.9972 991 136.948 169.765 456.623
1395 0 65.0787 13.9216 906 137.064 170.203 457.76
1396 0 68.0582 15.5896 1061 132.5 170.468 456.454
1397 0 74.303 18.5861 1381 126.445 171.703 449.299
1398 0 73.1567 15.583 1140 136.997 173.304 448.305
1399 0 76.3575 16.6716 1273 134.197 175.089 448.728
1400 0 79.138 17.2989 1369 132.992 177.085 449.983
1401 0 83.1833 19.1144 1590 130.355 178.602 446.672
1402 0 84.4143 17.2127 1453 134.553 180.486 447.939
1403 0 86.2536 19.3035 1665 131.474 181.529 447.463
1404 1 45.2044 9.62297 435 145.028 181.968 471.087
1405 0 45.1468 13.2457 598 141.712 182.054 469.855
1406 0 48.1306 13.1933 635 138.715 182.405 473.011
1407 0 50.0735 12.5016 626 141.257 181.791 468.601
1408 0 52.0725 16.8419 877 132.688 180.746 469.734
1409 0 56.1656 17.4306 979 131.235 181.2 471.995
1410 0 57.1174 16.4048 937 134.925 180.085 468.113
1411 0 61.1035 16.202 990 134.2 179.307 472.117
1412 0 59.1391 15.2691 903 139.052 178.102 470.803
1413 0 63.1666 15.7678 996 138.376 176.204 468.365
1414 0 63.2596 14.1164 893 141.982 175.095 468.793
1415 0 67.1618 13.5792 912 142.929 173.329 467.731
1416 0 71.1066 18.8731 1342 132.637 171.759 465.508
1417 0 71.265 15.6318 1114 141.715 171.194 466.126
1418 0 75.2274 17.0948 1286 136.931 169.616 465.285
1419 0 78.342 16.8492 1320 138.749 168.557 460.434
1420 0 79.1457 14.2522 1128 144.661 167.339 457.321
1421 0 81.2525 16.0857 1307 139.451 167.256 459.708
1422 1 40.0941 11.2236 450 145.887 167.133 477.558
1423 0 47.1916 12.8413 606 141.787 166.767 475.023
1424 0 44.2825 13.459 596 141.572 166.483 473.24
1425 0 48.1143 11.8676 571 141.049 166.658 475.075
1426 0 47.081 13.2537 624 140.381 167.575 473.083
1427 0 49.2832 12.8644 634 142.32 167.503 469.681
1428 0 50.2565 16.0775 808 135.536 167.824 469.196
1429 0 51.0931 15.5207 793 141.714 168.357 467.149
1430 0 53.0207 14.5415 771 143.83 168.257 469.022
1431 0 56.1393 18.4363 1035 133.648 170 466.225
1432 0 56.129 14.9834 841 144.377 171.805 464.002
1433 0 57.0937 13.6793 781 150.794 173.337 464.2
1434 0 64.1467 15.0592 966 142.554 175.02 465.891
1435 0 62.1063 15.4413 959 145.774 176.249 463.494
1436 0 65.0922 17.6826 1151 141.427 178.088 463.828
1437 0 66.0583 14.8354 980 148.847 178.403 464.071
1438 0 70.2152 19.4687 1367 140.087 178.604 461.824
1439 0 73.1195 16.8081 1229 146.072 179.111 461.622
1440 0 75.4003 20.9416 1579 135.054 178.75 465.8
1441 0 76.1118 16.0553 1222 148.673 178.888 460.823
1442 0 77.1114 14.0446 1083 153.442 178.276 459.371
1443 0 84.1825 15.6802 1320 147.426 177.389 460.662
1444 0 87.248 16.413 1432 143.33 176.742 461.898
1445 0 91.1874 17.1625 1565 143.34 175.27 460.385
1446 1 48.0498 13.6733 657 149.83 173.641 475.565
1447 0 50.0375 12.8704 644 151.112 172.25 474.825
1448 0 53.0335 14.5757 773 144.12 170.598 475.816
1449 0 54.0489 13.4323 726 146.398 169.058 476.623
1450 0 56.0821 13.8369 776 142.851 168.786 476.514
1451 0 60.0703 15.382 924 142.439 168.133 473.275
1452 0 62.0705 15.7724 979 140.731 167.192 472.088
1453 0 63.1896 14.0371 887 145.081 166.711 469.77
1454 0 64.1078 15.6455 1003 143.859 166.204 468.528
1455 0 64.0714 15.7793 1011 145.235 166.141 463.091
1456 0 69.121 16.1456 1116 140.756 166.194 463.673
1457 0 73.3203 17.4167 1277 135.879 165.542 461.726
1458 0 72.1154 15.6 1125 139.863 165.643 457.318
1459 0 76.1506 16.9664 1292 137.048 165.462 456.706
1460 0 79.2056 17.4609 1383 134.903 165.587 455.32
1461 0 78.1904 15.3983 1204 146.022 167.034 451.72
1462 0 82.0992 16.1877 1329 142.308 167.928 451.601
1463 0 86.087 18.5975 1601 140.049 169.37 447.833
1464 1 43.0255 12.2253 526 147.861 171.264 467.348
1465 0 44.0385 10.8541 478 148.157 173.469 471.069
1466 0 46.0316 13.2735 611 148.813 175.498 469.051
1467 0 47.071 15.1686 714 145.424 176.403 467.874
1468 0 49.0589 14.0851 691 149.954 179.505 469.042
1469 0 51.0529 15.67 800 148.775 180.74 467.519
1470 0 54.0578 16.2789 880 145.875 182.019 468.374
1471 0 56.0558 15.7165 881 149.857 182.128 468.708
1472 0 57.1193 16.4393 939 146.941 182.847 470.059
1473 0 58.0366 16.1278 936 148.575 182.866 469.362
1474 0 62.036 16.2325 1007 146.663 183.321 467.573
1475 0 63.0717 17.2978 1091 143.713 183.234 469.734
1476 0 66.0408 16.9895 1122 143.816 183.363 469.151
1477 0 68.1104 14.917 1016 148.066 182.474 469.305
1478 0 69.0794 14.1576 978 151.584 181.597 466.009
1479 0 75.0682 17.2643 1296 142.816 180.378 465.134
1480 0 78.1371 17.9428 1402 141.818 178.876 463.835
1481 0 77.2995 13.5188 1045 153.705 177.815 459.07
1482 1 41.1679 10.105 416 157.457 176.337 475.861
1483 0 44.2011 11.9228 527 152.102 175.207 475.44
1484 0 43.2582 14.0551 608 147.706 174.217 475.905
1485 0 47.1874 15.2159 718 141.34 173.233 476.667
1486 0 46.1388 13.3293 615 143.476 172.234 474.455
1487 0 49.179 14.4167 709 145.444 170.98 469.755
1488 0 50.1676 13.4549 675 146.887 170.484 468.021
1489 0 53.2479 15.5499 828 140.473 169.109 465.343
1490 0 54.0464 14.3395 775 142.071 168.924 464.363
1491 0 59.2983 18.0781 1072 131.718 168.609 461.184
1492 0 60.1569 18.0528 1086 131.523 168.711 460.283
1493 0 61.0997 15.1556 926 139.904 168.698 455.473
1494 0 61.2111 14.4255 883 141.535 168.838 455.835
1495 0 63.1564 12.8095 809 145.729 169.403 454.975
1496 0 67.1047 15.7068 1054 138.675 170.389 451.222
1497 0 71.3477 16.1603 1153 135.02 170.659 451.858
1498 0 73.4864 18.1258 1332 132.929 172.309 449.188
1499 0 75.2986 18.1013 1363 131.709 174.413 445.714
1500 0 79.4457 16.8165 1336 131.621 175.943 448.044
1501 0 82.47 20.3104 1675 126.039 177.054 445.044
1502 0 85.2529 17.8058 1518 129.806 179.368 443.481
1503 0 86.3643 15.7472 1360 135.348 180.618 444.44
1504 0 89.3889 19.3424 1729 130.011 181.864 443.69
1505 0 95.8218 16.6559 1596 135.849 182.373 444.466
1506 1 48.2486 14.6533 707 138.362 183.413 465.413
1507 0 49.3127 12.9379 638 140.572 183.329 468.014
1508 0 51.2712 11.839 607 145.699 183.325 466.71
1509 0 50.1103 15.2663 765 144.613 183.158 465.339
1510 0 54.2442 14.7481 800 145.921 183.029 466.344
1511 0 53.1159 15.5321 825 150.121 182.495 465.712
1512 0 58.1985 16.4781 959 146.802 181.119 466.968
