time division length width area intensity CMx CMy
0 0 56.117 12.4561 699 117.642 584.921 447.9
1 0 56.2453 13.6367 767 116.683 585.708 444.714
2 0 56.2453 13.7078 771 128.183 586.735 444.716
3 0 57.1246 15.4049 880 111.018 587.94 449.301
4 0 57.1246 15.4399 882 117.025 588.992 449.533
5 0 60.3394 11.7005 706 115.414 588.472 446.031
6 0 61.3089 21.1878 1299 105.957 587.98 452.011
7 0 68.0897 17.4916 1191 109.981 587.294 447.275
8 0 68.3465 7.34493 502 114.801 586.215 455.269
9 0 70.2645 20.5936 1447 105.585 585.517 452.182
10 1 131.696 16.3027 2147 120.404 585.548 414.391
11 0 136.406 14.7867 2017 121.319 583.29 419.453
12 0 142.986 15.4981 2216 123.738 583.568 413.226
13 0 148.884 20.2909 3021 122.848 582.158 409.44
14 1 83.7744 18.2753 1531 118.818 581.444 441.297
15 0 83.2796 14.7815 1231 133.428 579.069 440.465
16 1 44.0663 9.34956 412 139.905 576.934 461.573
17 0 42.0728 9.81632 413 142.869 575.092 458.603
18 0 47.1021 12.7383 600 135.57 574.502 457.86
19 0 48.0611 12.7546 613 134.39 573.109 457.499
20 0 48.1429 12.7952 616 134.937 572.797 454.748
21 0 49.2345 12.9584 638 136.154 571.611 452.928
22 0 51.0893 13.7015 700 135.044 570.013 450.674
23 0 50.0589 11.7661 589 141.211 570.662 448.907
24 0 53.0372 12.7269 675 138.744 570.602 447.905
25 0 57.0648 14.7376 841 132.522 570.587 448.612
26 0 57.1871 13.4646 770 137.701 570.421 443.517
27 0 59.0403 14.5833 861 133.873 570.948 444.254
28 0 61.0743 14.7525 901 131.928 571.322 440.604
29 0 61.1023 13.4528 822 129.313 572.808 439.283
30 0 62.2185 13.8222 860 126.264 575.285 441.113
31 0 68.4409 18.6 1273 114.859 577.483 442.34
32 0 69.165 14.5449 1006 116.634 577.471 439.333
33 0 66.3065 7.69156 510 120.312 579.418 442.204
34 0 74.5045 16.3614 1219 111.164 580.999 438.276
35 0 72.579 18.256 1325 110.483 582.934 430.881
36 0 71.476 6.05798 433 120.189 584.476 433.27
37 0 84.3298 21.1076 1780 106.193 585.612 439.178
38 0 80.6774 16.0888 1298 109.816 585.868 440.781
39 0 84.0389 7.72262 649 113.458 586.367 444.847
40 0 85.3401 11.4483 977 115.074 585.767 427.669
41 0 89.2803 7.65006 683 119.613 585.504 432.486
42 0 97.8761 16.1224 1578 111.61 585.482 438.99
43 0 95.6481 9.49313 908 124.765 584.158 432.944
44 1 52.0464 15.1788 790 119.61 584.818 457.878
45 0 53.1636 11.2295 597 131.24 583.003 457.856
46 0 55.3626 16.1481 894 125.365 580.696 456.511
47 0 53.3305 10.1443 541 139.863 581.876 456.767
48 0 57.0891 11.0354 630 139.511 580.043 456.946
49 0 59.2084 11.9915 710 144.025 578.175 453.675
50 0 60.2299 13.0666 787 143.849 576.179 449.691
51 0 63.1828 12.3135 778 144.46 575.154 451.756
52 0 65.1811 12.611 822 144.965 574.678 449.966
53 0 67.2172 17.2575 1160 135.953 572.959 447.783
54 0 70.1192 13.4485 943 142.682 572.305 447.032
55 0 72.2065 12.7689 922 144.432 571.546 445.471
56 0 74.1975 13.235 982 141.255 571.113 439.178
57 0 78.2724 14.0152 1097 135.434 570.864 443.014
58 0 82.2419 12.3173 1013 138.676 570.194 438.616
59 0 85.3365 18.1282 1547 128.549 570.259 438.908
60 1 42.0695 10.9818 462 136.5 571.606 459.234
61 0 43.0272 12.7826 550 139.529 571.404 455
62 0 46.0338 11.7088 539 138.685 572.538 454.043
63 0 47.0975 12.7608 601 137.384 574.062 451.792
64 0 48.0657 10.4232 501 142.721 575.812 451.407
65 0 51.1192 13.9869 715 134.179 577.152 448.848
66 0 54.1007 14.5839 789 126.217 578.596 451.132
67 0 58.1615 14.7692 859 115.038 581.49 452.704
68 0 61.6818 21.465 1324 105.749 582.36 453.573
69 0 59.1749 10.4943 621 116.506 583.723 452.554
70 0 59.436 11.138 662 115.846 584.736 453.356
71 0 61.2917 8.61455 528 119.045 585.01 454.845
72 0 68.3259 14.9138 1019 108.906 585.459 458.375
73 0 60.2725 11.5144 694 119.372 584.895 449.326
74 0 67.2119 11.2034 753 118.612 584.533 448.61
75 0 71.373 13.8288 987 114.324 584.759 453.706
76 0 72.446 14.3141 1037 115.49 583.367 452.342
77 0 72.1118 9.30499 671 123.893 582.803 457.854
78 0 76.3972 16.244 1241 123.641 581.923 448.147
79 0 78.2704 13.6833 1071 129.616 581.112 447.465
80 0 79.3441 15.0736 1196 128.543 579.917 445.35
81 0 82.2579 13.1538 1082 137.068 578.29 445.935
82 0 85.2247 12.2382 1043 136.982 576.755 444.875
83 0 87.2933 13.2885 1160 137.947 575.99 439.954
84 0 90.2585 10.9796 991 141.585 573.597 442.873
85 0 94.2137 14.3504 1352 137.125 571.745 437.615
86 0 98.2099 15.8436 1556 134.954 570.249 433.716
87 0 106.566 17.4728 1862 126.333 569.99 441.531
88 1 52.1209 11.2431 586 138.375 570.908 455.655
89 0 55.2049 14.5096 801 137.029 568.306 452.581
90 0 57.3601 15.6032 895 132.75 569.746 447.018
91 0 55.2772 14.4906 801 134.879 567.306 450.87
92 0 59.0856 12.6596 748 139.711 567.227 451.124
93 0 60.2527 13.6923 825 135.05 567.824 450.429
94 0 62.163 13.352 830 137.253 567.698 446.033
95 0 64.1271 10.8846 698 138.481 568.026 449.225
96 0 65.0556 13.8189 899 139.003 568.996 442.129
97 0 69.15 15.0398 1040 130.612 570.289 441.43
98 0 69.15 15.0832 1043 133.423 571.304 441.502
99 0 75.2219 11.619 874 130.903 572.38 442.111
100 0 73.179 16.8628 1234 112.13 574.798 447.511
101 0 75.2931 13.2549 998 114.869 576.796 441.239
102 0 85.4458 15.0388 1285 110.543 578.73 439.759
103 0 88.9749 29.5926 2633 101.222 579.797 438.701
104 0 88.7825 20.6122 1830 108.472 581.997 432.711
105 0 391.635 40.3003 15783 106.235 580.56 276.238
106 1 93.4705 13.6407 1275 112.235 584.114 439.954
107 0 98.5414 14.6639 1445 111.436 584.298 438.621
108 0 101.864 12.2025 1243 115.39 582.842 435.803
109 1 54.4741 15.2917 833 109.244 583.814 457.372
110 0 52.3145 11.2779 590 115.892 583.215 457.59
111 0 59.7752 18.7369 1120 107.328 582.258 461.027
112 0 57.2486 17.817 1020 110.318 582.129 463.942
113 0 57.2938 16.7383 959 121.779 580.297 455.702
114 0 58.2568 12.8569 749 131.231 579.49 454.995
115 0 60.2194 13.1519 792 136.221 577.338 453.946
116 0 63.1692 12.4744 788 139.421 576.26 455.175
117 0 66.1499 14.6183 967 134.744 575.08 453.606
118 0 68.2609 13.6096 929 144.692 573.712 453.313
119 0 69.3026 17.3154 1200 136.082 572.354 450.75
120 0 72.1817 15.9459 1151 139.793 570.8 449.889
121 0 73.3026 11.855 869 148.648 569.516 447.627
122 0 74.1956 14.1383 1049 144.925 568.176 447.461
123 0 80.3024 17.4715 1403 137.163 567.301 442.539
124 0 81.1474 14.5784 1183 146.352 566.387 438.481
125 0 84.1562 15.7921 1329 143.147 566.056 436.005
126 1 48.1198 11.5129 554 139.951 566.816 460.271
127 0 44.1931 13.079 578 144.46 566.218 452.562
128 0 48.0891 12.7472 613 144.315 566.155 453.429
129 0 49.1233 12.0106 590 145.656 567.366 452.532
130 0 51.0622 13.65 697 138.208 569.085 451.756
131 0 51.0617 13.0626 667 138.966 571.663 450.814
132 0 52.1899 13.9299 727 131.241 571.82 451.872
133 0 53.2892 13.9991 746 128.471 574.783 450.713
134 0 55.1298 14.7833 815 130.27 576.399 449.16
135 0 53.2697 10.6815 569 131.207 578.659 451.844
136 0 60.2034 18.0056 1084 117.634 579.181 453.181
137 0 60.3602 15.4075 930 123.472 580.254 447.184
138 0 67.44 18.7277 1263 116.118 581.292 451.249
139 0 59.2354 9.67328 573 130.429 582.112 452.099
140 0 68.3027 15.7827 1078 123.914 581.365 452.578
141 0 68.1755 14.5507 992 127.522 581.044 450.184
142 0 71.1826 16.254 1157 128.832 580.899 450.563
143 0 74.3722 17.1704 1277 127.544 581.06 452.175
144 0 70.2111 12.1348 852 146.65 579.978 449.23
145 0 76.1672 13.2997 1013 144.658 579.041 446.908
146 0 79.2118 14.1645 1122 141.927 578.488 450.252
147 0 81.3591 14.2209 1157 144.558 576.738 444.232
148 0 83.3783 15.7115 1310 141.208 575.611 447.469
149 1 48.0893 11.3955 548 143.807 575.405 463.297
150 0 48.1643 12.4366 599 140.78 572.533 462.195
151 0 47.4318 10.4571 496 148.002 571.143 461.169
152 0 49.3431 9.6062 474 139.451 568.432 455.082
153 0 51.0842 12.4696 637 135.485 568.501 454.934
154 0 54.0474 11.7674 636 136.083 568.426 455.627
155 0 55.0711 13.7277 756 134.841 566.52 452.594
156 0 55.168 12.4347 686 141.831 565.606 450.844
157 0 56.07 12.9303 725 139.468 566.652 448.441
158 0 58.1016 13.5108 785 140.684 565.823 447.317
159 0 61.136 14.2142 869 144.249 565.132 447.074
160 0 63.1189 13.1973 833 141.077 565.311 451.705
161 0 65.17 12.6899 827 141.86 566.43 448.658
162 0 68.2262 14.0708 960 134.893 566.5 447.157
163 0 68.0966 11.9242 812 136.547 566.862 444.054
164 0 78.2531 16.6639 1304 121.16 568.135 448.987
165 0 80.1903 19.5286 1566 118.714 569.726 442.962
166 0 80.1903 19.7031 1580 118.794 571.742 442.976
167 0 78.3227 12.257 960 122.688 573.01 437.478
168 0 77.3725 13.4673 1042 120.89 575.193 433.162
169 0 85.236 17.8446 1521 113.439 576.771 440.342
170 0 87.2748 12.581 1098 116.804 578.09 442.014
171 0 87.2748 12.3862 1081 133.624 579.077 442.09
172 0 90.471 16.1267 1459 116.017 579.478 436.517
173 1 55.4001 10.8845 603 112.466 580.01 461.718
174 0 48.1552 7.55889 364 118.357 576.975 463.308
175 0 52.2134 14.3833 751 114.394 580.82 456.997
176 0 48.2322 10.6775 515 121.777 576.301 457.8
177 0 50.4161 21.6399 1091 105.209 576.704 467.402
178 0 54.0925 14.5122 785 113.823 575.88 467.061
179 0 55.216 12.5145 691 118.939 575.606 463.702
180 0 60.5859 10.9431 663 122.012 573.988 465.009
181 0 57.1693 14.9381 854 122.251 573.218 461.72
182 0 58.3706 10.0907 589 132.615 571.154 462.392
183 0 62.2071 13.3908 833 130.068 570.87 458.229
184 0 64.266 13.5842 873 129.003 569.41 460.995
185 0 65.1882 13.6835 892 132.188 567.49 459.674
186 0 69.2042 11.7623 814 136.064 566.177 455.553
187 0 70.2091 14.5423 1021 137.695 565.076 455.248
188 0 71.1641 13.2651 944 138.745 564.69 447.29
189 0 77.456 11.5937 898 138.755 562.311 448.425
190 0 76.1106 11.1154 846 141.255 561.202 446.29
191 0 80.3369 12.9704 1042 133.77 561.844 445.94
192 1 45.3022 9.75669 442 136.195 560.948 461.647
193 0 46.2972 13.4781 624 131.688 560.51 457.234
194 0 48.0851 16.346 786 121.163 560.949 455.338
195 0 45.2063 10.6622 482 132.382 561.396 457.963
196 0 48.1619 12.4787 601 127.002 562.647 458.035
197 0 49.1529 11.9423 587 124.102 562.687 459.859
198 0 50.4356 11.5791 584 118.714 564.692 460.029
199 0 52.0958 10.4423 544 121.237 565.958 458.226
200 0 57.2807 10.3874 595 119.629 567.333 458.8
201 0 54.0971 9.22416 499 115.631 569.76 461.447
202 0 59.8924 20.6537 1237 104.07 572.306 459.558
203 0 59.8924 20.637 1236 109.273 574.314 459.482
204 0 59.4805 11.6509 693 111.811 575.007 455.732
205 0 62.3398 11.309 705 113.471 576.748 451.475
206 0 64.3054 12.0052 772 108.825 576.342 462.088
207 0 68.2282 24.462 1669 104.93 577.223 445.95
208 0 68.2782 10.589 723 114.845 576.602 452.596
209 0 70.1432 16.9225 1187 110.618 576.13 452.578
210 0 74.8744 13.5961 1018 110.5 576.535 458.973
211 0 78.5104 12.4697 979 116.178 575.565 453.762
212 0 80.2777 16.144 1296 115.361 575.453 450.932
213 0 80.5785 17.213 1387 116.686 575.07 450.146
214 0 85.5044 15.5431 1329 117.791 574.196 448.093
215 0 85.7691 11.1579 957 125.723 572.719 450.508
216 1 47.0782 12.9359 609 121.126 573.294 466.069
217 0 47.3597 11.8455 561 125.234 572.07 467.089
218 0 47.5568 15.4131 733 123.029 570.348 460.823
219 0 49.0665 16.6916 819 124.046 568.919 462.199
220 0 48.0815 12.354 594 131.269 568.687 461.776
221 0 49.2023 11.1987 551 133.77 566.947 465.851
222 0 51.1703 11.8037 604 135.369 565.871 461.73
223 0 52.1956 13.9284 727 132.968 564.79 459.746
224 0 48.1813 9.54726 460 143.891 564.748 456.441
225 0 57.1284 13.4434 768 133.147 564.089 459.072
226 0 54.0784 11.4833 621 139.369 563.554 456.51
227 0 57.0697 12.7563 728 137.508 563.393 456.457
228 0 55.2908 11.322 626 146.024 563.529 451.038
229 0 62.0821 13.0633 811 137.185 564.047 451.914
230 0 63.201 13.0852 827 133.744 565.383 452.785
231 0 66.2014 15.196 1006 126.746 565.047 448.147
232 0 70.2086 14.286 1003 124.682 567.612 449.215
233 0 67.1452 11.557 776 134.88 569.29 446.403
234 0 71.2623 12.5733 896 127.904 570.973 446.535
235 0 76.3758 16.3795 1251 126.432 572.544 440.57
236 0 78.1847 15.3227 1198 127.384 575.245 440.861
237 0 78.2398 12.6918 993 126.561 576.467 443.259
238 0 82.2773 11.5949 954 126.523 577.245 445.022
239 0 90.6443 13.8233 1253 123.424 578.553 445.881
240 0 86.3606 11.533 996 123.768 577.844 439.585
241 0 94.3364 23.2784 2196 107.371 577.776 440.452
242 1 49.0748 11.3704 558 118.143 578.987 465.6
243 0 53.2592 14.9458 796 119.078 578.004 463.413
244 0 56.1194 16.0907 903 120.577 578.372 466.206
245 0 55.024 16.7745 923 125.516 577.379 462.706
246 0 58.0627 13.7954 801 134.243 576.483 461.748
247 0 59.1716 14.6523 867 133.265 575.107 460.716
248 0 59.1022 13.2652 784 139.455 574.094 459.177
249 0 55.0814 11.5102 634 147.15 572.692 457.765
250 0 62.0768 15.2553 947 137.472 571.94 458.93
251 0 65.1205 14.6498 954 139.976 570.852 456.646
252 0 68.0925 15.3027 1042 140.626 569.199 451.96
253 0 67.0719 12.4493 835 148.338 567.873 451.205
254 0 73.1298 14.6862 1074 142.219 566.52 452.026
255 0 75.0978 15.2068 1142 141.367 565.507 450.08
256 1 42.2416 8.45138 357 142.639 564.7 468.655
257 0 40.0722 9.65756 387 144.786 563.563 464.442
258 0 40.0501 10.8864 436 144.183 563.615 462.807
259 0 41.1135 7.9536 327 149.3 563.719 463.688
260 0 46.033 13.1428 605 138.397 563.314 460.372
261 0 47.0579 14.004 659 134.478 563.276 457.704
262 0 49.1525 12.4103 610 139.923 563.498 455.923
263 0 48.0677 10.2148 491 145.929 565.267 456.54
264 0 52.0336 13.7411 715 137.954 565.797 453.084
265 0 53.0366 17.8933 949 130.769 567.137 451.507
266 0 55.2798 11.6317 643 140.012 569.081 453.762
267 0 54.0324 15.7683 852 132.059 570.675 450.595
268 0 56.0896 14.2451 799 136.428 572.562 448.859
269 0 58.2018 12.2505 713 134.54 574.227 452.056
270 0 61.1458 12.7564 780 131.46 576.296 451.446
271 0 63.0465 15.3696 969 126.717 577.042 449.805
272 0 63.3135 13.3147 843 131.407 578.489 454.738
273 0 67.1817 13.3072 894 132.056 578.441 454.074
274 0 64.066 11.6286 745 142.879 578.464 453.933
275 0 69.1571 15.8046 1093 134.308 578.034 452.339
276 0 73.1829 15.5911 1141 138.939 578.069 451.498
277 0 73.1309 14.6176 1069 146.853 577.598 451.514
278 0 80.1907 14.5653 1168 138.86 577.172 455.674
279 1 40.081 12.35 495 137.384 577.236 468.875
280 0 42.0333 11.7764 495 139.657 576.123 470.228
281 0 48.123 8.64451 416 142.274 574.594 469.752
282 0 44.1491 9.1055 402 144.92 574.082 468.202
283 0 40.0681 12.329 494 142.802 572.713 468.233
284 0 45.0549 9.65488 435 148.428 571.559 467.984
285 0 48.1369 12.2567 590 146.354 569.324 466.415
286 0 50.0451 12.189 610 143.192 567.439 464.556
287 0 50.1013 10.2792 515 147.577 565.718 460.724
288 0 52.272 11.5932 606 143.228 564.145 457.375
289 0 52.1578 11.3693 593 150.467 563.786 460.981
290 0 56.1828 11.8542 666 144.039 563.317 462.167
291 0 57.1546 13.7172 784 140.251 563.154 460.394
292 0 61.0734 15.2439 931 136.951 562.613 455.087
293 0 58.1338 11.3187 658 151.614 561.973 454.061
294 0 61.1531 12.1171 741 147.163 562.645 453.264
295 0 66.1284 13.0806 865 143.235 562.63 450.829
296 0 66.085 13.9669 923 143.441 562.891 447.814
297 0 69.2151 13.6964 948 142.566 564.936 448.437
298 0 73.4587 16.7577 1231 136.197 565.725 443.617
299 0 76.345 14.2249 1086 138.031 567.498 447.717
300 0 74.3028 13.2835 987 143.608 569.838 443.104
301 0 78.2536 14.7725 1156 137.749 571.635 443.057
302 0 85.2243 18.2225 1553 126.76 573.861 445.609
303 0 84.3191 16.402 1383 134.295 575.474 439.087
304 0 88.3227 16.6322 1469 131.461 577.103 440.56
305 0 91.534 17.7967 1629 128.614 578.123 440.862
306 0 91.5483 17.641 1615 144.706 579.141 440.806
307 0 94.54 13.5498 1281 139.703 578.591 435.662
308 1 53.0706 8.91265 473 141.283 579.529 463.452
309 0 54.3296 11.9272 648 140.387 579.13 458.858
310 0 57.2481 9.6597 553 145.199 578.154 460.803
311 0 58.3228 12.1908 711 143.342 578.269 459.658
312 0 59.1688 14.1291 836 143.547 577.695 457.53
313 0 63.1457 15.2821 965 140.991 575.773 461.665
314 0 62.1641 12.5153 778 152.632 571.573 458.961
315 0 63.119 12.3418 779 157.385 570.105 458.009
316 0 68.0787 15.1002 1028 146.94 568.723 456.203
317 0 69.0357 13.4713 930 152.49 567.072 455.359
318 0 72.0566 14.0723 1014 149.281 565.408 453.305
319 0 73.069 13.0425 953 152.945 564.285 451.87
320 0 74.0899 13.956 1034 151.91 562.821 447.448
321 0 78.1437 12.6306 987 154.369 562.987 446.73
322 1 41.1062 8.46588 348 146.181 560.842 466.695
323 0 45.0105 8.95346 403 148.03 560.623 464.412
324 0 46.0308 10.884 501 143.168 559.723 459.822
325 0 45.1491 10.7865 487 143.793 558.723 460.778
326 0 48.0685 11.2132 539 135.05 558.002 459.72
327 0 49.0508 11.2536 552 137.346 558.643 456.969
328 0 49.3827 15.066 744 130.18 559.495 455.491
329 0 53.0844 13.6386 724 130.974 559.671 457.743
330 0 52.0845 11.7309 611 135.228 558.517 456.142
331 0 52.1232 9.9188 517 135.766 562.043 454.489
332 0 56.1853 13.4555 756 125.466 563.878 454.198
333 0 56.1853 13.4733 757 131.797 564.892 454.272
334 0 59.1106 17.7126 1047 115.24 568.286 452.833
335 0 59.724 14.4833 865 118.015 569.702 447.477
336 0 60.1919 11.5962 698 120.519 571.378 450.991
337 0 66.2949 15.3255 1016 114.124 573.519 453.452
338 0 67.568 12.8019 865 117.09 577.133 455.361
339 0 65.4082 12.2767 803 125.001 576.506 452.142
340 0 69.176 13.3717 925 124.543 577.799 450.519
341 0 74.4988 17.8392 1329 117.44 577.66 455.801
342 0 73.4498 14.8537 1091 125.908 577.031 452.145
343 0 76.3958 14.2678 1090 131.313 576.481 450.17
344 1 43.0649 9.68307 417 135.918 577.523 468.923
345 0 44.0886 13.4275 592 131.856 576.245 469.235
346 0 49.7356 13.6723 680 129.782 575.374 471.184
347 0 46.0986 16.2261 748 130.04 573.853 471.828
348 0 46.0515 12.2254 563 142.979 574.14 467.778
349 0 49.1232 13.7817 677 144.139 572.127 467.848
350 0 50.0273 14.2922 715 140.958 571.304 466.366
351 0 53.0298 14.3504 761 138.754 569.782 464.955
352 0 56.0719 13.4827 756 138.807 568.534 464.997
353 0 54.0746 13.5369 732 140.746 567.081 462.205
354 0 59.7809 13.9342 833 141.394 565.725 464.582
355 0 55.0478 12.8797 709 147.44 564.79 461.008
356 0 61.6056 17.1251 1055 130.223 564.235 463.696
357 0 59.1685 13.5376 801 142.667 563.397 458.724
358 0 60.0661 13.4518 808 145.598 563.015 454.106
359 0 62.0597 12.8747 799 146.632 562.955 455.28
360 0 66.1498 14.4823 958 138.117 563.235 454.582
361 0 69.0421 15.9902 1104 135.153 563.455 451.211
362 0 72.4291 20.0886 1455 126.496 562.671 451.742
363 0 70.1886 15.8003 1109 138.866 563.755 448.225
364 0 73.1034 14.1443 1034 137.271 564.797 448.079
365 0 75.2364 16.6542 1253 126.223 566.024 447.011
366 0 75.2364 16.6409 1252 121.229 568.026 446.904
367 0 82.2307 13.3892 1101 134.361 568.734 445.465
368 0 83.4819 12.2901 1026 130.172 570.895 449.53
369 0 83.1247 15.6873 1304 126.959 572.495 442.028
370 0 84.565 13.6581 1155 134.013 573.674 441.071
371 0 93.571 15.7848 1477 124.68 574.54 444.375
372 0 93.3494 13.1335 1226 130.832 574.947 443.072
373 0 95.2415 12.1376 1156 125.12 575.425 442.128
374 0 100.338 13.6339 1368 127.53 575.783 444.879
375 0 102.417 15.1732 1554 127.183 575.546 437.513
376 0 105.474 12.5908 1328 137.261 576.236 439.413
377 1 61.5205 16.4173 1010 127.926 575.777 461.474
378 0 58.2841 15.4931 903 132.754 575.529 460.838
379 0 61.2344 14.273 874 133.13 575.072 466.685
380 0 62.2085 14.4353 898 138.553 573.546 461.539
381 0 63.179 14.9892 947 136.517 572.854 464.398
382 0 63.1511 12.8581 812 144.695 571.461 458.94
383 0 67.2054 13.8679 932 141.427 570.113 457.872
384 0 69.2075 15.2151 1053 138.226 568.272 455.737
385 0 70.1602 12.4572 874 145.235 566.809 456.303
386 0 74.2104 14.6745 1089 140.14 565.028 453.804
387 0 78.2649 14.2209 1113 137.521 564.005 455.261
388 0 79.3257 13.3878 1062 141.981 563.234 448.376
389 0 81.224 12.644 1027 143.8 561.996 446.701
390 1 49.2892 13.1063 646 135.015 562.531 465.036
391 0 45.0958 11.531 520 139.606 562.173 464.683
392 0 48.1338 11.0733 533 142.756 561.829 460.411
393 0 49.0886 13.7099 673 137.073 561.722 458.004
394 0 52.1571 13.3827 698 135.328 562.477 458.417
395 0 53.2372 13.0736 696 140.5 562.356 455.92
396 0 56.2246 16.0072 900 133.773 563.72 455.438
397 0 55.0452 15.0604 829 131.255 562.118 455.238
398 0 54.2275 11.6915 634 139.396 562.524 454.267
399 0 57.1427 13.9825 799 132.292 564.31 452.999
400 0 58.2303 13.2405 771 132.415 566.882 450.412
401 0 60.212 11.4927 692 135.198 568.789 452.364
402 0 62.3319 13.6688 852 131.148 569.899 450.487
403 0 63.2135 13.9211 880 132.517 572.05 447.497
404 0 64.2373 14.7889 950 129.203 573.843 449.423
405 0 67.3808 17.0375 1148 129.413 574.041 450.36
406 0 71.4371 13.7324 981 130.111 574.313 453.016
407 0 73.2589 13.3499 978 134.09 574.179 449.505
408 0 74.224 12.112 899 140.363 574.442 449.264
409 0 78.3318 15.1024 1183 138.487 573.923 447.985
410 0 82.301 15.9172 1310 135.429 573.76 450.848
411 0 84.2747 18.3922 1550 136.988 573.477 445.901
412 0 85.3364 14.2495 1216 147.782 572.187 445.974
413 0 87.2112 16.2938 1421 144.852 570.612 441.507
414 1 47.0358 9.86483 464 147.614 568.724 465.332
415 0 48.0458 10.1986 490 146.629 567.643 466.827
416 0 51.0538 11.576 591 143.257 566.689 466.372
417 0 51.0467 11.0095 562 146.701 565.731 462.327
418 0 54.104 13.0674 707 140.414 564.379 464.772
419 0 53.375 10.192 544 137.399 564.706 458.824
420 0 56.0838 11.572 649 131.464 562.385 456.085
421 0 58.0843 11.6383 676 137.556 561.402 453.325
422 0 59.118 10.7243 634 139.393 560.472 448.779
423 0 61.2173 11.3203 693 136.369 559.961 452.035
424 0 65.2628 14.1122 921 132.238 559.124 447.634
425 0 66.1385 11.1433 737 138.813 558.902 446.132
426 0 67.0823 13.4163 900 142.207 558.683 442.293
427 0 68.0606 14.1492 963 143.342 559.011 441.474
428 0 71.0485 12.3437 877 146.694 558.669 438.49
429 0 73.1016 12.8314 938 146.789 560.357 438.665
430 0 76.1603 13.314 1014 146.43 560.648 438.318
431 0 79.1446 13.2542 1049 154.009 562.416 440.153
432 0 82.1468 13.8046 1134 152.663 565.048 438.823
433 0 86.1326 12.2253 1053 157.475 568.329 437.877
434 0 89.1437 16.1313 1438 148.946 570.38 437.188
435 0 91.1574 13.4383 1225 157.127 572.522 437.339
436 0 94.0794 14.1689 1333 151.784 573.077 437.052
437 1 47.0837 9.72737 458 153.321 575.64 457.159
438 0 51.0468 12.0673 616 152.648 576.252 455.221
439 0 54.1295 12.9689 702 145.208 577.382 457.848
440 0 56.1058 12.6547 710 150.769 578.486 456.296
441 0 58.1412 13.6908 796 147.499 578.362 458.309
442 0 59.1224 13.1422 777 147.452 576.786 458.71
443 0 58.0407 11.8021 685 155.38 575.761 458.457
444 0 62.0641 12.2776 762 153.251 575.825 457.524
445 0 64.1122 11.9166 764 152.887 575.276 460.319
446 0 69.0703 12.0602 833 154.531 573.716 457.136
447 0 70.2434 11.8161 830 157.074 572.514 453.046
448 0 72.1065 13.7713 993 150.916 571.597 454.914
449 0 76.0737 14.0127 1066 150.771 569.453 452.341
450 1 41.0242 9.09219 373 152.861 568.82 472.408
451 0 42.0256 10.5888 445 146.946 567.288 472.49
452 0 43.0804 10.2367 441 152.347 565.966 468.528
453 0 44.0893 10.7055 472 151.161 564.479 468.354
454 0 44.0544 12.7116 560 147.255 563.898 467.043
455 0 46.0478 11.9007 548 149.432 562.909 463.745
456 0 47.1079 12.3971 584 147.182 561.966 463.568
457 0 48.0483 11.1971 538 152.013 562.08 462.764
458 0 50.1139 11.853 594 149.187 561.689 461.253
459 0 51.1033 12.1519 621 149.209 561.766 458.689
460 0 51.129 13.1041 670 147.36 561.548 458.827
461 0 53.1502 12.6246 671 147.863 561.782 456.884
462 0 53.1901 11.8255 629 150.634 562.647 454.66
463 0 54.0878 10.1132 547 155.717 563.338 455.36
464 0 59.0767 11.7305 693 149.755 564.978 453.847
465 0 57.0578 12.6538 722 149.686 566.493 448.287
466 0 60.1102 14.0076 842 143.074 568.329 453.447
467 0 64.0784 11.8293 758 147.69 570.905 450.674
468 0 65.0773 8.71271 567 153.242 572.603 453.757
469 0 67.3229 13.1902 888 143.004 574.635 448.624
470 0 69.0698 12.7697 882 142.943 576.616 444.5
471 1 42.6919 10.4001 444 119.838 578.804 468.899
472 0 41.1351 13.1275 540 111.83 578.665 470.08
473 0 42.2557 13.726 580 115.898 578.724 469.993
474 0 40.055 10.2609 411 125.72 579.173 465.757
475 0 46.0679 11.8304 545 124.088 579.116 466.136
476 0 46.0399 12.3154 567 129.501 577.998 466.122
477 0 47.0299 12.0987 569 129.998 577.696 465.185
478 0 51.385 12.0269 618 124.788 577.24 468.95
479 0 49.0727 16.5265 811 123.735 575.201 462.678
480 0 50.2023 12.35 620 129.603 574.242 465.892
481 0 52.1986 13.3145 695 128.56 572.875 465.478
482 0 54.1008 14.8427 803 127.587 571.604 465.301
483 0 55.0602 13.3309 734 130.074 569.764 464.155
484 0 57.0852 19.4622 1111 121.086 568.281 460.162
485 0 58.0761 13.7923 801 130.225 567.134 459.13
486 0 60.0556 15.4357 927 129.708 565.89 459.239
487 0 62.0434 15.3924 955 129.428 564.985 455.258
488 0 64.0811 14.3724 921 130.271 563.745 457.629
489 0 64.0996 13.0266 835 135.062 563.129 455.849
490 0 68.1228 14.7234 1003 129.356 563.047 455.844
491 0 69.1368 16.8651 1166 126.357 562.112 450.218
492 0 71.0661 12.8472 913 134.518 561.87 447.853
493 0 75.3124 18.722 1410 121.211 562.185 446.918
494 0 76.1797 17.485 1332 123.54 562.227 443.589
495 0 81.2572 18.9768 1542 119.763 562.854 442.178
496 0 82.2203 16.2612 1337 121.826 563.577 444.653
497 0 83.212 13.8682 1154 125.863 564.845 442.327
498 1 42.0151 9.13958 384 133.438 567.544 460.164
499 0 46.1019 16.0514 740 119.227 568.635 458.384
500 0 46.0742 12.2845 566 124.555 571.83 459.611
501 0 50.0861 14.8943 746 118.483 573.064 462.34
502 0 51.2211 16.419 841 117.797 574.35 455.344
503 0 49.09 11.4484 562 122.219 576.573 462.818
504 0 54.2976 14.8441 806 118.357 576.871 461.015
505 0 58.5642 18.1681 1064 110.292 577.911 462.59
506 0 58.5853 14.0991 826 114.661 578.944 463.822
507 0 57.1329 18.2907 1045 114.901 578.547 462.898
508 0 58.213 13.4334 782 125.641 577.675 461.329
509 0 57.2011 11.1711 639 132.776 577.548 461.966
510 0 62.145 14.257 886 128.228 576.447 462.594
511 0 62.1632 15.3145 952 128.924 575.883 459.254
512 0 66.1699 14.4174 954 130.756 574.613 460.463
513 0 66.1953 14.0493 930 135.743 573.961 456.905
514 0 69.174 14.5864 1009 134.333 573.247 457.824
515 0 71.1995 13.6658 973 136.411 572.021 457.092
516 0 73.1423 12.3321 902 137.016 569.764 458.294
517 0 77.214 14.6217 1129 132.422 568.358 452.962
518 0 80.2001 16.1471 1295 130.524 567.812 452.153
519 1 44.1628 13.6993 605 132.608 567.364 467.231
520 0 44.1571 10.5759 467 136.46 566.319 467.925
521 0 47.0403 13.0314 613 131.985 565.339 466.641
522 0 47.0464 11.5205 542 132.95 564.34 464.692
523 0 52.0504 13.1027 682 128.412 563.742 464.481
524 0 54.109 14.4523 782 123.234 563.318 461.845
525 0 53.0834 13.865 736 126.204 563.152 460.467
526 0 53.1428 12.9086 686 131.969 563.303 458.08
527 0 57.2327 13.8732 794 128.501 564.048 455.858
528 0 58.1297 15.7235 914 127.073 564.91 455.835
529 0 61.0879 17.925 1095 122.07 564.917 454.616
530 0 63.1506 14.9484 944 126.382 566.319 450.531
531 0 65.1469 15.0122 978 124.125 568.18 447.132
532 0 67.407 14.7314 993 126.483 569.105 447.949
533 0 71.175 21.9881 1565 111.357 571.392 448.102
534 0 75.2603 16.9146 1273 115.736 573.71 449.345
535 0 72.1138 13.2707 957 122.698 575.69 446.885
536 0 78.4793 13.7361 1078 121.236 576.393 440.395
537 0 83.4104 20.4651 1707 109.462 577.041 451.219
538 0 84.1754 16.7389 1409 113.608 578.74 445.147
539 0 84.8426 18.1512 1540 115.868 578.255 443.404
540 1 45.3338 12.1984 553 118.745 578.684 464.016
541 0 44.0557 12.4842 550 122.376 578.704 464.295
542 0 49.1269 14.1878 697 116.775 577.175 467.273
543 0 46.0612 11.311 521 127.818 576.633 470.432
544 0 49.1026 11.9545 587 124.121 576.646 471.424
545 0 50.2016 14.641 735 125.071 575.162 466.917
546 0 52.0922 12.785 666 129.677 573.752 466.161
547 0 52.1185 12.3948 646 130.467 572.432 468.777
548 0 52.122 12.7969 667 134.267 571.505 466.138
549 0 54.239 13.1824 715 133.799 569.943 464.222
550 0 54.0783 12.2415 662 136.497 568.976 463.612
551 0 58.1647 16.5392 962 128.483 567.045 462.057
552 0 60.0974 11.3482 682 137.249 566.003 462.493
553 0 59.1005 12.2503 724 135.307 564.892 461.311
554 0 62.1316 14.6463 910 133.562 563.819 456.578
555 0 65.3667 15.9255 1041 131.137 562.783 456.961
556 0 68.4426 15.3851 1053 134.124 562.516 453.361
557 0 71.4381 16.3218 1166 131.522 561.779 451.778
558 0 74.4371 17.6122 1311 128.532 561.868 447.227
559 0 76.5028 15.934 1219 129.08 561.725 450.582
560 1 44.2522 10.5757 468 136.098 563.152 464.342
561 0 46.0291 13.926 641 128.646 562.29 463.069
562 0 42.1133 10.9229 460 135.589 563.333 462.224
563 0 47.1317 14.5337 685 127.981 564.112 459.921
564 0 49.297 15.3762 758 121.889 565.989 460.187
565 0 47.2551 11.4697 542 129.808 566.609 458.832
566 0 50.4952 13.7043 692 122.5 568.519 458.465
567 0 56.1745 11.8203 664 120.083 569.214 458.078
568 0 61.1007 21.5055 1314 106.619 572.039 459.649
569 0 55.0527 15.6759 863 114.628 572.969 459.857
570 0 60.3662 14.793 893 113.59 574.123 461.888
571 0 57.2321 12.9647 742 130.346 574.408 461.102
572 0 59.0433 13.9728 825 130.15 575.441 458.691
573 0 60.2891 14.9447 901 128.716 577.309 457.721
574 0 63.2238 14.8994 942 131.452 576.175 457.777
575 0 67.2201 16.3046 1096 133.746 576.068 457.723
576 0 66.1605 15.1752 1004 140.401 575.177 456.835
577 0 68.1604 15.1554 1033 138.85 574.669 457.742
578 0 71.182 15.7905 1124 142.727 574.745 459.068
579 0 73.2189 15.16 1110 145.806 573.333 456.077
580 0 75.229 15.074 1134 143.441 571.934 458.841
581 0 77.1231 15.8448 1222 143.354 571.103 453.771
582 0 78.0751 13.6919 1069 151.129 570.853 453.109
583 0 84.2529 14.8482 1251 144.13 568.216 455.02
584 1 46.0836 14.4737 667 141.919 566.078 471.048
585 0 48.0584 11.7149 563 146.742 564.966 472.265
586 0 49.0438 12.2543 601 146.995 563.963 469.441
587 0 53.0332 13.501 716 143.883 562.487 468.116
588 0 51.0474 11.5187 588 145.889 562.333 465.702
589 0 52.0737 13.2696 691 141.748 561.268 463.819
590 0 55.0945 13.3407 735 139.698 560.608 461.955
591 0 56.0821 12.8383 720 137.335 560.282 463.214
592 0 58.0973 11.7045 680 140.571 559.718 459.309
593 0 62.0942 13.8338 859 135.175 559.567 458.607
594 0 62.1821 14.4897 901 135.993 559.928 453.837
595 0 66.0633 16.1814 1069 126.648 559.802 455.403
596 0 68.0816 16.5977 1130 124.728 560.704 458.219
597 0 67.078 12.1053 812 135.004 560.578 453.696
598 0 72.1715 15.1029 1090 133.724 562.776 451.457
599 0 76.5208 17.3025 1324 125.884 564.202 452.11
600 0 77.2539 13.708 1059 135.92 565.822 449.329
601 0 80.1395 13.6886 1097 137.079 567.595 448.16
602 1 42.0215 11.5179 484 133.362 568.2 469.465
603 0 42.0957 9.97726 420 138.855 568.86 467.59
604 0 45.1559 14.1067 637 130.349 570.196 467.983
605 0 45.1515 12.8899 582 131.6 571.369 470.216
606 0 47.2887 13.7877 652 140.419 571.922 468.972
607 0 50.188 15.5615 781 137.055 571.868 469.659
608 0 53.1888 12.3146 655 142.362 571.663 471.661
609 0 53.1493 13.7725 732 141.948 571.504 469.439
610 0 55.1606 15.2827 843 138.028 570.569 469.809
611 0 55.0545 14.0951 776 143.397 569.658 469.881
612 0 56.1351 13.7525 772 146.412 568.716 467.948
613 0 59.0985 13.9259 823 144.741 567.177 469.089
614 0 62.0964 14.7674 917 142.711 565.99 467.001
615 0 63.2038 14.2713 902 146.448 564.511 463.324
616 0 67.1644 15.5291 1043 142.491 563.328 464.486
617 0 68.1954 14.1945 968 146.111 562.023 459.906
618 0 71.3128 14.794 1055 141.715 560.274 460.721
619 0 73.314 16.2725 1193 145.324 559.311 457.266
620 0 74.1896 14.9751 1111 150.305 558.067 454.953
621 1 41.1113 12.3567 508 147.813 558.38 471.404
622 0 42.0449 14.4132 606 143.45 558.106 469.254
623 0 40.0163 12.4199 497 150.549 557.759 467.25
624 0 41.0354 11.4292 469 152.124 557.119 465.676
625 0 46.1246 15.8917 733 140.128 557.229 463.527
626 0 51.2865 13.8243 709 142.494 557.111 463.684
627 0 50.2516 15.8602 797 142.898 557.816 460.671
628 0 49.0637 14.5729 715 140.208 558.095 460.587
629 0 51.039 14.5183 741 138.402 558.912 459.565
630 0 52.1862 16.786 876 131.281 558.89 460.072
631 0 55.0986 13.8842 765 138.554 561.173 457.821
632 0 57.1523 15.6424 894 133.554 563.688 456.569
633 0 60.1684 15.3569 924 135.689 565.578 456.5
634 0 61.1329 15.2618 933 139.449 566.748 454.819
635 0 64.1375 19.9571 1280 127.299 569.365 455.719
636 0 65.0968 14.4093 938 138.649 570.531 454.466
637 0 68.141 15.1597 1033 136.129 571.373 453.197
638 0 69.6309 16.1135 1122 138.174 571.981 452.716
639 0 71.1659 15.5552 1107 139.207 573.307 454.074
640 0 73.0964 15.5548 1137 146.41 573.173 453.705
641 0 77.1333 18.3578 1416 138.775 573.583 452.53
642 0 78.2013 13.8361 1082 151.457 572.506 449.403
643 0 82.1452 15.85 1302 148.531 572.379 451.766
644 0 83.1622 18.3737 1528 145.473 572.359 450.829
645 1 39.1551 9.11759 357 157.415 570.905 474.566
646 0 43.0779 12.489 538 151.494 571.455 470.374
647 0 46.1296 16.1285 744 146.938 570.091 468.909
648 0 45.1507 12.9787 586 156.928 568.618 466.229
649 0 46.2021 11.6012 536 159.336 566.675 463.562
650 0 48.3371 11.9784 579 157.805 565.472 461.808
651 0 50.2804 12.7485 641 155.009 564.54 460.108
652 0 51.2051 13.651 699 152.748 562.933 461.386
653 0 54.1539 17.3949 942 144.781 562.92 462.313
654 0 54.176 15.8927 861 148.852 561.958 462.384
655 0 56.1372 15.2662 857 153.725 560.996 456.681
656 0 60.1292 15.5997 938 150.488 560.252 456.445
657 0 63.2885 15.5794 986 147.096 559.961 455.417
658 0 63.172 15.5132 980 149.703 560.261 454.198
659 0 65.1954 13.9274 908 151.65 560.872 453.025
660 0 65.1341 15.5372 1012 151.353 561.419 450.831
661 0 68.1906 15.3394 1046 149.745 561.954 448.096
662 0 72.2885 17.3748 1256 141.441 563.006 449.348
663 0 72.3573 15.4787 1120 149.912 564.316 446.19
664 0 78.2698 16.2259 1270 145.741 565.683 445.888
665 0 74.2916 11.8318 879 156.225 568.422 446.319
666 0 78.3923 16.6088 1302 147.277 570.729 442.958
667 0 83.4908 18.6847 1560 140.56 571.862 443.014
668 0 83.6515 16.5926 1388 145.6 573.115 439.468
669 0 88.4468 18.644 1649 139.785 574.963 440.463
670 0 89.2119 16.4552 1468 142.22 574.943 440.877
671 0 92.5419 16.7924 1554 143.35 576.394 433.462
672 0 97.8227 16.4481 1609 144.09 576.047 436.272
673 0 98.6864 14.2776 1409 150.889 576.449 435.177
674 0 102.667 16.6558 1710 151.334 575.927 431.844
675 1 53.3278 12.1888 650 148.943 575.148 458.415
676 0 56.4525 13.6575 771 144.523 574.578 459.13
677 0 60.2353 13.9619 841 142.665 573.321 462
678 0 61.1285 14.265 872 143.775 572.224 461.06
679 0 63.1142 16.6523 1051 138.408 571.141 459.238
680 0 65.1346 14.3242 933 144.192 570.066 456.958
681 0 68.1694 15.2121 1037 141.049 568.47 454.324
682 0 70.2461 15.6877 1102 145.107 566.994 449.521
683 0 71.1332 13.0038 925 149.358 565.264 451.842
684 0 72.1046 12.8424 926 151.347 563.652 452.775
685 0 77.1075 13.9286 1074 147.465 562.918 451.024
686 0 78.3735 16.1407 1265 145.119 562.015 445.975
687 0 81.2081 17.0303 1383 142.696 561.318 442.623
688 1 40.125 10.5919 425 145.694 559.694 463.689
689 0 42.2995 8.55802 362 145.699 559.622 462.945
690 0 44.2111 9.97487 441 147.837 559.064 457.451
691 0 42.3829 9.48495 402 144.44 559.876 460.525
692 0 47.4449 13.5104 641 138.953 561.153 453.727
693 0 46.4719 13.6642 635 140.378 560.791 449.51
694 0 52.249 12.2682 641 138.842 561.382 454.334
695 0 52.0528 11.0657 576 141.509 561.986 450.01
696 0 55.256 12.3968 685 137.616 563.931 452.964
697 0 56.1579 12.7498 716 141.743 564.739 450.851
698 0 60.235 13.1153 790 138.738 566.887 451.408
699 0 61.1172 14.3822 879 136.918 569.71 447.934
700 0 61.1506 12.3956 758 138.476 570.912 449.832
701 0 67.2277 12.4354 836 136.542 572.218 449.173
702 0 66.3686 11.9032 790 134.876 573.571 451.089
703 0 66.34 11.5315 765 137.478 574.586 446.511
704 0 70.4481 15.2737 1076 130.37 574.016 445.783
705 0 71.3662 13.1435 938 134.901 574.764 448.585
706 0 73.576 13.5098 994 137.011 573.81 446.389
707 0 76.2645 11.3946 869 141.688 572.985 442.573
708 0 78.5109 13.9726 1097 137.924 572.683 445.818
709 0 80.4332 13.39 1077 140.189 572.464 446.235
710 0 82.5012 10.6059 875 147.681 571.678 442.285
711 0 89.5337 14.7654 1322 140.582 569.865 442.681
712 0 92.4872 14.4777 1339 140.692 568.761 442.86
713 1 50.1858 11.9556 600 139.158 566.7 460.29
714 0 52.3035 9.78902 512 141.133 565.059 459.551
715 0 54.2961 13.7947 749 133.011 562.955 458.081
716 0 59.2308 10.7208 635 138.786 561.414 455.342
717 0 61.1568 15.3703 940 132.363 560.879 451.683
718 0 62.2725 9.79566 610 143.238 559.805 451.315
719 0 64.1177 11.5257 739 139.472 558.241 450.265
720 0 69.1233 13.8014 954 133.097 557.931 449.965
721 0 69.2648 11.5499 800 139.445 557.369 446.95
722 0 73.3242 12.5606 921 133.9 557.346 446.207
723 0 73.2727 13.5385 992 136.76 557.936 441.079
724 0 75.2926 15.3667 1157 132.554 558.318 439.921
725 0 77.0596 14.3006 1102 132.91 558.607 444.014
726 0 78.1995 13.4528 1052 136.369 559.222 439.095
727 0 85.3719 13.3651 1141 134.696 560.604 439.569
728 0 84.1742 11.3455 955 142.665 561.733 436.534
729 0 90.3838 14.4606 1307 133.371 563.17 432.538
730 0 95.3859 16.3861 1563 128.342 566.555 436.076
731 0 95.2705 13.7083 1306 135.701 569.037 434.279
732 0 101.514 14.3625 1458 131.13 570.961 435.32
733 1 55.0834 11.1104 612 133.732 574.041 456.873
734 0 58.0657 13.4158 779 128.979 574.756 456.884
735 0 58.1486 15.512 902 126.242 575.068 458.542
736 0 57.1697 11.9469 683 134.047 576.347 458.524
737 0 59.1525 11.4619 678 137.463 576.158 457.527
738 0 62.1241 13.1833 819 132.596 576.42 456.622
739 0 63.1077 12.3757 781 137.517 575.41 454.502
740 0 66.3891 10.2577 681 143.251 574.88 453.156
741 0 69.3676 17.5154 1215 128.872 573.651 458.29
742 0 72.488 13.216 958 137.504 572.839 458.371
743 0 72.2463 13.7723 995 137.416 571.621 459.378
744 0 75.422 12.3439 931 141.946 569.69 457.055
745 0 75.422 12.4102 936 142.225 568.685 457.049
746 0 79.31 16.4292 1303 130.214 566.394 449.041
747 0 81.3896 17.3118 1409 129.564 564.685 450.6
748 0 82.4778 15.095 1245 133.622 562.822 445.371
749 0 84.7078 11.3449 961 141.86 561.442 445.944
750 0 85.3416 11.3427 968 144.814 560.747 436.7
751 0 92.5915 15.2606 1413 134.57 559.773 442.75
752 0 95.4497 14.8036 1413 138.355 559.11 436.645
753 1 53.2479 10.4229 555 135.222 557.944 467.058
754 0 54.2256 8.92568 484 137.12 557.116 467.157
755 0 53.3095 10.636 567 135.183 557.46 462.533
756 0 54.0494 12.6736 685 128.003 559.841 459.235
757 0 57.0255 10.7496 613 131.643 560.114 460.768
758 0 58.1315 11.5772 673 132.863 558.793 464.721
759 0 61.1418 12.3483 755 132.254 557.028 456.524
760 0 64.0601 13.6747 876 134.011 557.94 456.796
761 0 63.2641 12.7244 805 136.923 559.308 455.227
762 0 68.1943 12.8896 879 136.724 561.276 453.286
763 0 69.2853 14.4186 999 131.168 562.412 455.277
764 0 70.1277 12.078 847 136.397 564.707 452.969
765 0 72.0918 12.165 877 137.546 565.631 452.831
766 0 82.8074 12.2574 1015 132.849 567.728 457.837
767 0 78.2502 13.3546 1045 136.233 568.65 451.218
768 1 41.0633 11.0318 453 133.839 571.532 472.272
769 0 43.0462 9.78019 421 131.584 571.713 474.796
770 0 45.0471 10.5889 477 135.518 572.222 471.583
771 0 46.0288 10.0372 462 134.342 572.883 474.675
772 0 46.0774 11.2203 517 136.159 572.921 472.919
773 0 48.0697 7.55153 363 146.708 574.512 474.601
774 0 46.1161 12.0132 554 134.966 570.937 474.847
775 0 48.1336 12.8393 618 132.702 570.384 476.987
776 0 52.0915 11.7294 611 132.614 566.38 477.57
777 0 55.1058 11.8136 651 136.344 564.676 472.31
778 0 58.1335 13.211 768 134.387 563.784 472.405
779 0 56.0892 12.4979 701 139.086 562.248 468.11
780 0 60.098 12.7292 765 135.988 560.272 468.558
781 0 61.1019 17.1681 1049 128.168 558.99 467.779
782 0 61.169 14.3537 878 132.491 557.691 468.522
783 0 64.1808 15.3161 983 130.137 556.821 465.223
784 0 69.3203 16.2867 1129 123.249 556.929 468.605
785 0 67.19 19.1546 1287 119.813 555.286 465.955
786 0 68.1928 13.1685 898 129.321 555.135 459.922
787 0 72.0996 17.1152 1234 121.422 554.071 458.87
788 0 74.0478 15.8411 1173 122.602 553.945 456.066
789 0 74.0879 16.116 1194 120.052 553.498 457.43
790 1 40.2687 11.1501 449 126.296 553.298 467.775
791 0 41.1522 10.5462 434 126.889 554.431 466.429
792 0 39.1017 14.4495 565 118.95 554.595 463.749
793 0 46.0749 12.6316 582 114.962 555.954 465.058
794 0 47.217 12.4743 589 118.154 556.981 461.988
795 0 51.6972 24.5081 1267 99.9534 558.819 460.27
796 0 48.138 16.5358 796 109.568 560.104 460.665
797 0 52.0587 14.9639 779 109.344 562.486 460.641
798 0 54.2025 12.8407 696 111.636 563.904 459.503
799 0 57.3037 18.2362 1045 105.734 565.851 458.488
800 0 55.371 13.4005 742 113.528 566.482 460.214
801 0 59.2207 14.2011 841 113.037 568.338 459.737
802 0 58.3684 12.3868 723 116.7 569.082 461.571
803 0 60.1316 14.1357 850 118.479 571.06 459.079
804 0 62.2465 15.2137 947 117.495 571.362 459.578
805 0 67.1901 15.7761 1060 114.314 571.064 462.435
806 0 64.165 15.7563 1011 122.043 570.948 460.265
807 0 66.3465 12.1785 808 124.109 571.281 460.567
808 0 68.1442 14.1611 965 122.352 571.825 455.502
809 0 68.1618 14.9644 1020 122.925 570.081 459.761
810 0 71.2838 14.2809 1018 125.509 569.762 455.786
811 0 72.2502 14.6297 1057 126.7 569.407 455.595
812 0 75.2281 12.2295 920 131.288 570.512 456.625
813 1 37.0163 12.0758 447 129.711 568.371 472.371
814 0 41.1641 12.0493 496 127.69 568.054 471.968
815 0 40.089 11.0255 442 131.19 566.744 471.376
816 0 42.0345 12.1805 512 129.422 564.135 471.176
817 0 40.3029 9.77596 394 132.632 563.432 468.459
818 0 46.4402 12.7691 593 131.695 563.125 463.079
819 0 47.2642 12.7581 603 128.629 563.06 466.201
820 0 46.2272 11.6598 539 132.089 562.538 464.852
821 0 49.2757 13.1302 647 128.861 561.808 463.6
822 0 49.3434 14.389 710 127.789 561.646 459.62
823 0 51.3911 14.4578 743 127.174 561.538 457.525
824 0 54.1157 11.7341 635 129.006 561.017 459.702
825 0 54.5503 12.8139 699 134.049 562.778 455.938
826 0 58.8713 13.9117 819 127.485 563.545 456.043
827 0 61.4001 17.2312 1058 122.991 564.883 455.004
828 0 64.6675 13.5617 877 128.544 565.887 452.943
829 0 61.4164 14.7843 908 130.905 567.334 449.534
830 0 66.5936 15.6922 1045 125.255 568.462 451.059
831 0 68.5431 16.5297 1133 124.911 570.608 451.125
832 0 70.5967 20.9783 1481 118.965 571.011 448.057
833 0 68.2993 15.1685 1036 129.143 572.864 446.728
834 0 72.377 15.8199 1145 128.603 575.548 448.53
835 0 78.3543 17.3698 1361 122.325 575.515 449.442
836 0 78.309 15.3111 1199 121.979 577.01 448.2
837 0 81.3394 15.3062 1245 126.3 576.519 448.212
838 0 83.2493 19.3996 1615 120.767 576.61 448.541
839 0 88.4901 18.9739 1679 119.398 575.962 454.213
840 1 48.3149 10.0797 487 135.554 575.308 468.698
841 0 47.0911 11.4247 538 133.777 576.703 470.849
842 0 49.0536 14.7186 722 132.64 577.338 469.881
843 0 48.0338 13.5113 649 138.396 575.131 471.459
844 0 52.0529 14.005 729 138.68 574.049 470.979
845 0 53.1745 12.6376 672 139.667 572.606 469.94
846 0 56.0612 14.6804 823 138.221 570.778 466.74
847 0 58.0938 15.0446 874 136.225 569.481 466.47
848 0 55.0945 12.9414 713 143.194 568.216 465.241
849 0 57.0504 12.6555 722 142.798 566.504 466.992
850 0 63.1008 15.7367 993 134.496 564.729 464.542
851 0 64.1922 14.3475 921 137.837 563.628 463.291
852 0 66.1235 18.163 1201 130.376 563.655 461.494
853 0 67.0824 15.8611 1064 134.85 562.769 459.793
854 0 70.0923 14.4238 1011 139.568 562.296 458.144
855 0 71.217 13.9995 997 139.115 561.817 456.023
856 1 37.0142 11.9144 441 136.948 561.97 470.644
857 0 38.0668 12.3993 472 135.748 562.042 469.992
858 0 45.0705 10.4947 473 134.569 561.949 469.131
859 0 43.0843 11.373 490 132.798 562.649 469.318
860 0 41.1207 12.2809 505 135.885 562.37 465.98
861 0 41.2872 12.5947 520 134.379 563.021 465.715
862 0 43.0502 13.403 577 135.087 566.087 463.029
863 0 49.0384 16.844 826 124.786 567.569 463.774
864 0 48.0512 14.0891 677 133.563 568.926 461.378
865 0 52.209 13.7333 717 129.862 570.453 464.315
866 0 48.0817 14.3714 691 133.398 571.606 462.204
867 0 53.0863 14.4482 767 132.755 573.316 461.133
868 0 53.0901 13.7314 729 138.007 573.793 462.379
869 0 54.1328 13.8733 751 138.525 573.891 460.628
870 0 54.0709 14.2776 772 144.57 573.861 462.113
871 0 55.0581 12.9136 711 147.212 574.18 462.644
872 0 57.0506 15.4249 880 143.119 573.867 462.288
873 0 59.0446 15.8863 938 141.671 574.327 460.908
874 0 58.2056 13.0056 757 148.317 574.123 462.454
875 0 62.0583 14.4058 894 144.106 573.812 464.633
876 0 65.0597 18.1218 1179 138.115 571.958 462.663
877 0 66.0743 17.9495 1186 137.733 570.941 463.59
878 0 68.0718 12.7365 867 149.815 569.446 460.201
879 0 70.2052 15.8108 1110 143.496 568.78 458.432
880 0 72.2671 14.2527 1030 146.363 566.755 459.707
881 0 73.1596 12.5479 918 150.815 565.148 457.435
882 0 79.1284 15.6202 1236 142.885 563.925 454.265
883 0 79.2334 13.984 1108 148.411 560.845 450.504
884 1 44.1041 12.1304 535 138.293 558.432 472.404
885 0 43.0342 10.5962 456 147.901 557.888 464.447
886 0 46.0238 10.7119 493 143.807 556.373 464.077
887 0 46.0998 10.9979 507 144.15 556.828 463.813
888 0 49.1243 11.7661 578 139.242 556.301 462.834
889 0 50.1764 11.6589 585 140.262 558 459.754
890 0 54.2765 13.6708 742 130.852 559.251 455.096
891 0 56.2166 17.1124 962 123.523 558.845 455.241
892 0 57.1656 12.5075 715 134.173 559.638 451.274
893 0 60.108 14.79 889 126.871 559.808 449.628
894 0 63.2301 14.898 942 125.031 561.369 451.683
895 0 64.3599 15.7396 1013 124.86 562.413 449.715
896 0 64.2468 12.094 777 131.323 563.892 448.457
897 0 70.2352 18.9933 1334 114.086 566.032 450.758
898 0 68.1566 13.4837 919 123.259 568.404 451.526
899 0 72.1986 14.9033 1076 122.674 569.836 447.869
900 0 73.2464 14.3215 1049 121.654 570.94 448.975
901 0 76.2418 15.0836 1150 123.63 571.61 445.662
902 0 81.3618 14.4908 1179 121.802 572.174 447.131
903 0 81.2676 15.7258 1278 124.014 573.009 444.369
904 0 84.3936 14.3968 1215 124.9 574.42 449.975
905 0 88.3258 14.1974 1254 129.698 573.765 444.237
906 0 90.2879 14.8968 1345 127.48 573.372 446.511
907 0 92.2678 14.6313 1350 131.118 573.054 444.379
908 1 50.1446 9.43271 473 131.638 572.738 471.125
909 0 50.4493 11.2787 569 132.699 570.859 466.938
910 0 53.4284 13.5883 726 132.039 569.678 462.069
911 0 56.4962 13.7885 779 132.14 569.958 459.644
912 0 58.4723 16.0247 937 126.85 568.701 458.027
913 0 58.1554 14.9427 869 133.426 566.964 460.852
914 0 62.324 14.5209 905 130.696 565.517 461.445
915 0 63.2147 16.879 1067 127.041 564.401 458.174
916 0 65.2667 16.379 1069 127.406 563.361 456.808
917 0 68.2617 14.2979 976 132.392 561.321 457.132
918 0 69.1519 13.492 933 133.674 560.942 455.09
919 0 73.2666 15.8189 1159 125.601 560.544 456.002
920 0 76.2938 13.8937 1060 135.072 560.172 449.833
921 0 79.4033 15.1631 1204 131.601 560.213 446.879
922 0 82.297 13.8644 1141 135.365 559.713 447.972
923 1 43.039 10.7345 462 134.364 558.903 462.483
924 0 45.0875 10.5351 475 130.669 558.928 464.051
925 0 47.1674 14.9468 705 124.396 559.949 460.753
926 0 47.2056 12.2655 579 130.801 560.287 459.219
927 0 50.0813 14.5364 728 121.283 562.146 457.559
928 0 51.1014 12.0936 618 133.678 561.759 455.945
929 0 51.1313 14.2965 731 129.138 563.453 455.097
930 0 56.0985 17.7545 996 117.899 565.414 458.644
931 0 55.0935 15.3739 847 117.907 567.307 459.378
932 0 58.1711 17.8095 1036 115.55 569.08 455.969
933 0 59.1192 13.3459 789 123.142 570.133 455.527
934 0 62.233 13.8833 864 120.259 571.608 454.299
935 0 64.1824 15.3002 982 118.754 572.991 456.539
936 0 65.1218 14.7109 958 121.285 573.268 453.51
937 0 68.3311 15.8054 1080 119.833 573.985 455.787
938 0 68.3179 14.4472 987 121.714 574.79 454.01
939 0 70.2083 14.3715 1009 121.408 574.293 455.61
940 0 74.1732 18.6456 1383 118.351 574.127 454.1
941 0 75.2626 23.7834 1790 113.505 573.693 451.612
942 0 78.2604 18.004 1409 121.674 572.923 454.377
943 0 80.3912 19.2434 1547 121.807 571.515 448.827
944 0 83.4556 14.7983 1235 129.797 570.585 450.666
945 0 86.5878 14.3092 1239 131.302 569.249 447.014
946 0 89.7249 15.7927 1417 129.001 568.004 444.414
947 0 93.6301 14.6214 1369 130.489 566.571 450.141
948 0 96.7262 15.1769 1468 129.808 565.424 442.707
949 1 55.5893 10.9913 611 134.977 563.8 459.026
950 0 53.4237 9.50889 508 129.122 564.961 457.927
951 0 58.4548 15.2597 892 118.048 563.97 456.214
952 0 59.5052 13.1249 781 119.264 563.584 459.33
953 0 60.3043 14.9243 900 117.026 561.656 455.604
954 0 63.1554 12.6355 798 130.308 560.441 455.794
955 0 65.2275 14.3958 939 126.774 559.917 453.219
956 0 67.4075 12.7137 857 125.725 559.811 458.653
957 0 69.1742 14.196 982 126.136 559.812 451.243
958 0 69.4523 13.3905 930 129.413 560.184 450.682
959 0 72.3203 12.6659 916 130.479 560.371 450.057
960 0 76.3658 15.2162 1162 127.949 561.052 443.849
961 0 78.574 13.5541 1065 131.515 562.596 440.893
962 0 81.3592 13.7047 1115 131.92 564.29 440.882
963 0 85.5391 14.0053 1198 131.176 566.208 440.782
964 0 86.4135 12.4402 1075 134.644 568.688 440.033
965 0 89.3893 13.3014 1189 127.272 570.695 436.045
966 1 48.2594 11.8112 570 122.577 571.693 461.305
967 0 51.384 14.0705 723 118.196 573.202 460.902
968 0 49.36 13.128 648 124.446 573.616 455.417
969 0 50.3562 13.2258 666 123.706 575.656 458.185
970 0 55.5466 17.5348 974 113.073 576.035 459.473
971 0 55.0927 9.98317 550 127.453 574.718 459.204
972 0 56.3125 11.667 657 127.342 574.463 460.81
973 0 57.1398 17.641 1008 120.372 574.129 459.746
974 0 59.0857 12.8627 760 126.679 573.525 458.559
975 0 61.19 13.2048 808 130.608 572.186 456.906
976 0 62.1238 12.4429 773 131.709 572.034 460.682
977 0 63.2079 12.5301 792 130.495 571.787 457.509
978 0 68.457 16.5798 1135 118.954 569.944 457.552
979 0 70.2257 12.6307 887 126.794 569.262 457.043
980 0 72.1976 14.0725 1016 124.771 567.459 456.789
981 1 36.072 9.59191 346 125.983 567.575 472.023
982 0 39.1249 12.5751 492 122.132 566.039 469.63
983 0 41.074 12.6357 519 120.963 565.838 470.936
984 0 40.198 17.1401 689 115.985 564.012 469.631
985 0 43.1959 11.7372 507 125.298 563.152 464.665
986 0 45.4556 11.1097 505 125.711 561.994 462.119
987 0 45.5149 12.5453 571 122.457 561.461 459.522
988 0 46.1604 13.7997 637 121.217 561.564 459.342
989 0 47.4944 12.5067 594 121.455 561.564 460.732
990 0 48.393 13.783 667 119.717 561.549 458.709
991 0 54.464 14.3398 781 118.476 561.805 455.211
992 0 52.4814 15.9485 837 115.486 561.773 454.008
993 0 58.5733 18.575 1088 112.745 561.861 455.283
994 0 60.3856 13.0826 790 124.037 563.477 454.313
995 0 59.6759 15.115 902 118.043 565.008 455.428
996 0 63.713 14.7537 940 120.833 566.745 451.979
997 0 60.4866 12.6309 764 129.035 568.225 449.24
998 0 64.358 17.7911 1145 116.701 570.419 447.121
999 0 67.3534 16.7772 1130 121.597 571.002 448.913
1000 0 67.5707 28.0447 1895 106.146 571.401 448.621
1001 0 69.5033 17.7114 1231 115.817 574.296 447.14
1002 0 73.5402 21.2265 1561 109.696 574.863 450.861
1003 0 79.2966 22.4474 1780 104.981 575.26 445.248
1004 0 80.8429 21.1521 1710 108.861 575.256 445.807
1005 0 85.8654 20.5787 1767 111.105 574.598 448.503
1006 0 87.3231 16.9257 1478 117.124 574.602 449.959
1007 0 83.4713 18.9526 1582 120.81 574.705 446.306
1008 1 45.4861 10.7945 491 130.077 574.126 468.063
1009 0 48.1909 14.4011 694 127.28 573.483 467.782
1010 0 48.3045 14.0152 677 132.774 572.833 463.567
1011 0 53.3587 16.7358 893 128.769 572.198 467.76
1012 0 51.0891 12.8795 658 133.536 569.86 469.03
1013 0 54.0953 15.3248 829 130.086 568.469 465.817
1014 0 56.1128 17.1975 965 131.108 566.336 465.74
1015 0 58.0617 15.8108 918 132.988 564.4 466.044
1016 0 58.0986 14.4238 838 134.585 563.267 465.68
1017 0 62.1982 16.0133 996 136.994 562.87 462.687
1018 0 62.0673 15.6926 974 139.339 561.33 462.121
1019 0 65.1707 14.7919 964 141.303 560.526 460.018
1020 0 67.0918 13.5933 912 144.48 559.893 460.333
1021 0 69.1394 15.0999 1044 143.946 559.15 457.547
1022 0 70.1858 16.9123 1187 139.388 558.724 454.832
1023 0 72.1485 14.9969 1082 144.011 558.171 454.996
1024 0 76.2064 17.6494 1345 139.425 558.164 451.273
1025 0 76.1611 14.8107 1128 146.807 558.176 452.767
1026 0 78.2108 13.9239 1089 150.028 558.696 450.564
1027 0 83.1039 15.5348 1291 146.246 559.358 448.521
1028 1 45.1919 9.40435 425 156.014 559.605 469.645
1029 0 46.0667 11.6136 535 151.858 561.654 467.916
1030 0 49.1087 11.7494 577 151.354 563.503 467.667
1031 0 53.1204 14.3071 760 142.534 564.336 465.53
1032 0 51.148 14.7806 756 147.155 566.505 463.095
1033 0 52.0989 14.6452 763 148.691 568.682 462.17
1034 0 54.0938 13.0514 706 152.86 571.656 465.256
1035 0 53.1016 13.5778 721 154.018 572.333 464.533
1036 0 58.1966 14.6916 855 148.798 573.25 467.469
1037 0 61.1219 14.1684 866 150.23 573.834 465.403
1038 0 63.1566 18.6204 1176 140.56 573.06 464.875
1039 0 64.159 12.8275 823 154.651 574.135 467.591
1040 0 66.0875 14.9045 985 150.613 573.426 468.405
1041 0 70.0707 16.3406 1145 147.699 571.874 462.831
1042 0 70.1634 13.9246 977 153.616 570.755 463.878
1043 0 77.1245 15.1962 1172 149.54 569.726 463.717
1044 0 79.0906 15.2104 1203 149.729 568.228 460.857
1045 0 81.232 14.6986 1194 151.247 566.954 458.891
1046 1 42.0298 10.9922 462 156.104 565.545 477.887
1047 0 42.0497 10.2022 429 154.378 564.107 479.601
1048 0 43.0483 15.2852 658 145.708 561.883 477.772
1049 0 44.0287 11.5152 507 153.753 560.536 476.351
1050 0 45.0201 14.1048 635 149.066 559.598 475.324
1051 0 47.0652 13.7894 649 151.174 558.607 472.413
1052 0 50.0996 15.0101 752 148.068 558.1 468.524
1053 0 50.1878 14.8841 747 149.886 558.027 467.311
1054 0 52.2035 18.6194 972 145.424 557.969 465.181
1055 0 53.1565 15.1628 806 150.648 557.499 465.674
1056 0 55.3655 17.3393 960 146.226 557.458 462.058
1057 0 57.6658 15.85 914 149.998 558.451 459.026
1058 0 57.4112 20.7277 1190 140.594 558.446 459.27
1059 0 60.3614 20.924 1263 140.127 559.096 457.439
1060 0 63.3354 17.1942 1089 147.793 559.421 455.392
1061 0 64.3172 17.8646 1149 147.62 560.004 452.384
1062 0 67.4312 15.0376 1014 153.103 561.102 453.027
1063 0 69.4768 20.0355 1392 142.838 562.771 450.017
1064 0 71.3587 16.9286 1208 150.972 564.962 450.503
1065 0 72.4224 15.451 1119 156.037 566.92 447.804
1066 0 76.4005 18.3376 1401 150.144 567.59 446.709
1067 0 76.4415 18.2231 1393 148.218 568.597 446.692
1068 1 40.102 9.82495 394 163.155 570.241 467.561
1069 0 43.2641 12.1579 526 162.656 571.823 464.791
1070 0 43.2545 13.8714 600 157.885 573.193 465.272
1071 0 44.1324 13.5048 596 159.604 573.087 465.237
1072 0 46.2008 14.5019 670 159.872 573.496 463.075
1073 0 48.0684 17.1839 826 153.138 573.665 462.524
1074 0 50.2409 14.8883 748 156.492 573.767 462.357
1075 0 51.053 13.8483 707 157.508 574.109 465.728
1076 0 52.0743 14.8442 773 152.736 573.975 463.706
1077 0 54.0408 15.5993 843 150.005 573.429 463.52
1078 0 58.1048 16.126 937 149.248 572.935 460.803
1079 0 62.102 16.6339 1033 145.797 572.809 462.565
1080 0 61.1605 15.3203 937 151.43 570.646 460.108
1081 0 62.1255 16.1447 1003 149.944 569.731 458.713
1082 0 65.0795 16.6566 1084 146.673 567.635 458.893
1083 0 70.2496 16.9538 1191 144.448 566.53 458.024
1084 0 70.1604 18.8996 1326 143.762 565.247 454.151
1085 0 74.1395 17.0624 1265 146.015 563.519 452.099
1086 0 78.366 18.9751 1487 140.024 562.835 449.96
1087 0 79.083 18.1961 1439 142.271 561.762 445.671
1088 0 80.1712 15.6415 1254 149.126 562.051 445.913
1089 1 41.0794 11.7821 484 152.169 562.337 463.43
1090 0 46.1266 13.3329 615 151.041 562.411 461.221
1091 0 48.0624 14.065 676 146.712 561.855 460.528
1092 0 44.056 13.1197 578 153.043 562.057 455.671
1093 0 51.0592 13.357 682 149.595 561.872 456.877
1094 0 51.0872 13.8978 710 148.527 562.589 454.221
1095 0 54.0712 14.6844 794 147.239 563.545 452.772
1096 0 56.0683 15.0709 845 149.162 565.286 453.785
1097 0 60.0577 16.4009 985 143.103 565.044 452.946
1098 0 61.0565 17.5903 1074 142.716 566.94 452.437
1099 0 63.0473 17.0983 1078 145.673 569.034 452.838
1100 0 65.0975 17.1281 1115 146.716 569.813 449.776
1101 0 66.1081 15.5503 1028 150.884 572.62 451.499
1102 0 72.1933 17.2592 1246 147.25 573.824 451.701
1103 0 72.301 17.0814 1235 149.858 574.774 451.564
1104 0 76.2016 17.3618 1323 149.153 575.313 452.088
1105 0 78.1713 15.2102 1189 153.722 575.267 450.692
1106 0 80.29 17.3247 1391 150.678 575.609 451.368
1107 1 43.1179 10.8076 466 158.888 575.633 471.453
1108 0 47.0767 12.1504 572 160.019 574.818 470.007
1109 0 47.1278 13.283 626 158.514 574.626 469.631
1110 0 48.0622 15.2303 732 157.832 573.149 465.795
1111 0 50.4038 12.9157 651 160.112 570.968 466.018
1112 0 53.1062 16.3446 868 154.259 569.755 467.316
1113 0 54.0584 16.3342 883 154.851 568.182 465.572
1114 0 58.0631 17.1021 993 150.624 567.63 468.368
1115 0 59.0853 16.417 970 154.306 565.477 466.058
1116 0 60.1183 14.4548 869 161.159 564.656 465.194
1117 0 64.19 16.2175 1041 156.929 562.856 463.271
1118 0 67.2123 17.1546 1153 156.151 561.029 458.927
1119 0 69.1995 16.1995 1121 161.213 559.909 457.956
1120 0 70.1591 17.8594 1253 157.192 558.957 457.641
1121 0 72.1444 16.966 1224 161.137 558.115 455.208
1122 0 75.348 14.8776 1121 166.628 557.762 454.07
1123 0 77.2914 17.6346 1363 159.672 557.384 450.971
1124 0 80.4365 14.9186 1200 168.804 556.751 446.787
1125 0 83.2631 17.7149 1475 161.519 556.744 443.925
1126 0 85.2398 14.512 1237 171.477 557.255 440.842
1127 1 44.1891 11.4508 506 168.753 557.814 464.263
1128 0 44.1321 12.4852 551 165.401 558.352 464.27
1129 0 46.5606 14.755 687 166.914 558.942 458.753
1130 0 49.2679 13.3353 657 170.269 560.368 458.4
1131 0 50.1365 15.5176 778 165.156 561.5 458.063
1132 0 53.367 15.3466 819 164.491 563.371 458.823
1133 0 55.2767 16.2817 900 162.278 564.673 457.79
1134 0 57.2925 15.8485 908 161.945 565.922 456.485
1135 0 61.5065 16.5836 1020 161.118 567.124 455.906
1136 0 62.6584 16.5979 1040 161.586 568.062 456.761
1137 0 64.2383 18.0266 1158 156.796 569.276 457.108
1138 0 66.3361 16.3561 1085 164.434 569.59 452.308
1139 0 66.2254 13.8466 917 172.178 569.779 454.3
1140 0 70.258 15.9128 1118 165.077 569.216 456.091
1141 0 72.4999 17.7242 1285 163.307 569.098 453.454
1142 0 74.3886 17.1666 1277 166.516 568.865 450.037
1143 0 77.3431 15.5541 1203 170.494 568.38 450.633
1144 0 80.1966 15.1877 1218 169.319 567.223 454.547
1145 0 84.3084 17.4716 1473 165.547 565.618 448.597
1146 0 85.5145 19.0026 1625 163.656 564.397 445.542
1147 0 89.6201 18.3553 1645 163.3 562.746 444.707
1148 0 91.5033 18.4474 1688 163.578 561.361 442.377
1149 0 94.3633 17.6022 1661 165.269 560.21 440.734
1150 1 45.1568 12.2462 553 181.083 558.566 457.432
1151 0 50.3128 13.5949 684 171.346 557.632 458.469
1152 0 51.2308 12.9414 663 174.671 556.11 457.208
1153 0 55.2506 14.4252 797 165.76 555.965 455.73
1154 0 56.3893 14.8432 837 167.951 555.802 452.768
1155 0 57.3007 13.9963 802 169.067 556.04 453.909
1156 0 58.2704 16.3891 955 164.708 556.01 450.252
1157 0 62.2251 16.2796 1013 164.304 555.517 448.338
1158 0 61.3382 12.9283 793 178.005 556.264 445.487
1159 0 64.3057 14.9598 962 170.606 556.534 445.158
1160 0 66.4089 16.4135 1090 168.472 557.756 441.111
1161 0 71.3479 17.688 1262 158.564 558.544 443.377
1162 0 70.3553 15.3791 1082 167.363 559.297 436.741
1163 0 73.257 14.688 1076 168.023 561.231 436.488
1164 0 78.2517 15.7952 1236 161.178 562.82 438.975
1165 0 78.3449 15.5084 1215 169.384 564.603 433.906
1166 0 80.2033 14.8373 1190 168.802 565.837 435.487
1167 0 85.5436 16.2958 1394 163.793 568.315 436.769
1168 0 86.2737 16.0652 1386 167.246 568.999 433.894
1169 0 88.2772 17.8415 1575 162.854 571.261 436.861
1170 0 91.2727 16.4124 1498 171.618 571.196 434.525
1171 0 95.3562 16.0136 1527 172.303 571.808 434.842
1172 0 95.1555 18.1387 1726 166.659 572.214 435.859
1173 0 98.1366 16.1 1580 173.507 572.432 431.38
1174 0 102.288 15.603 1596 176.589 572.9 432.371
1175 0 107.224 17.8412 1913 170.662 572.588 435.477
1176 0 111.327 17.8394 1986 173.008 572.445 428.003
1177 0 115.391 16.5697 1912 176.618 571.476 430.373
1178 1 65.2902 7.06078 461 177.523 570.785 458.764
1179 0 69.4318 8.94403 621 179.797 569.947 453.873
1180 0 69.2189 11.702 810 177.215 568.074 449.169
1181 0 72.2452 14.9491 1080 166.583 566.896 449.972
1182 0 75.2531 14.7768 1112 166.548 565.437 447.393
1183 0 76.4866 14.5124 1110 169.733 563.711 443.26
1184 0 80.2543 13.1332 1054 173.764 562.071 441.47
1185 0 82.1958 13.4557 1106 173.844 561.335 437
1186 0 85.2313 12.3429 1052 171.779 560.274 439.147
1187 0 88.4124 13.2108 1168 172.777 559.497 430.253
1188 0 90.528 14.6253 1324 169.048 559.121 428.54
1189 0 94.4051 13.834 1306 170.946 558.904 424.682
1190 0 99.4273 15.3177 1523 161.782 558.995 425.894
1191 0 103.51 14.1243 1462 162.381 558.356 423.779
1192 0 107.354 14.4848 1555 161.448 558.77 422.242
1193 0 109.342 13.2154 1445 166.691 558.325 416.215
1194 0 111.329 15.297 1703 160.665 559.877 414.697
1195 0 118.554 16.2542 1927 159.364 561.668 414.99
1196 0 122.375 14.1777 1735 161.67 563.629 412.985
1197 1 76.2294 9.48454 723 151.859 565.236 437.357
1198 0 78.2639 10.8735 851 148.298 567.04 435.522
1199 0 80.3321 12.5853 1011 143.924 568.602 432.016
1200 0 85.1913 11.5622 985 137.353 573.34 437.447
1201 0 87.1571 11.1867 975 137.937 575.205 438.05
1202 0 90.211 12.7368 1149 135.185 575.762 434.64
1203 0 92.3804 10.1428 937 141.409 576.584 437.009
1204 0 96.3342 11.3252 1091 140.534 576.755 432.631
1205 0 98.471 11.445 1127 142.504 575.983 428.874
1206 0 101.43 12.5111 1269 142.013 576.462 436.752
1207 0 102.366 12.5726 1287 147.953 576.378 435.782
1208 0 108.392 14.3461 1555 145.066 575.224 429.008
1209 0 110.34 12.4977 1379 149.553 575.494 428.875
1210 0 114.467 12.4403 1424 149.556 574.765 428.082
1211 0 118.404 12.7868 1514 148.481 573.996 427.542
1212 0 118.308 11.1488 1319 154.116 573.166 418.646
1213 0 127.341 14.2452 1814 144.585 571.934 424.588
1214 0 128.346 14.2349 1827 145.909 570.373 415.62
1215 0 131.391 10.914 1434 152.19 569.614 415.575
1216 1 73.2913 7.68167 563 143.643 568.52 449.536
1217 0 80.1181 9.83548 788 142.406 567.132 446.665
1218 0 80.1335 11.5183 923 142.289 565.849 442.499
1219 0 82.2038 10.1212 832 134.639 561.793 447.774
1220 0 82.2103 8.85534 728 138.021 560.642 441.595
1221 0 86.4648 8.40805 727 137.173 559.586 447.839
1222 0 88.2793 9.75313 861 134.424 559.226 443.742
1223 0 93.3065 11.414 1065 131.234 558.475 435.808
1224 0 93.3313 9.83593 918 134.028 558.917 434.657
1225 0 99.407 11.9609 1189 130.339 558.994 433.024
1226 0 102.434 9.8991 1014 136.538 559.066 431.295
1227 0 104.399 8.0652 842 141.996 559.847 429.087
1228 0 105.371 8.26602 871 140.893 560.126 428.098
1229 0 113.549 12.1534 1380 135.288 561.349 425.455
1230 1 49.3134 7.68554 379 128.311 563.926 462.562
1231 0 50.2783 7.67726 386 131.946 565.409 454.484
1232 0 54.1446 7.83089 424 131.019 567.281 455.66
1233 0 55.1291 9.55938 527 127.622 569.184 455.355
1234 0 56.0457 10.7948 605 127.415 570.906 454.499
1235 0 56.0737 9.38052 526 131.38 572.806 452.709
1236 0 57.1315 10.3271 590 130.344 571.59 457.024
1237 0 59.215 7.32923 434 138.537 572.85 457.862
1238 0 59.1206 7.84837 464 138.961 571.054 453.849
1239 0 66.2016 11.1025 735 133.067 571.366 458.072
1240 0 66.2814 11.6926 775 132.494 571.979 458.288
1241 0 68.2308 9.74634 665 136.537 570.94 459.259
1242 0 71.1885 12.0946 861 131.287 571.411 460.754
1243 0 74.1691 11.8783 881 130.653 570.068 462.266
1244 0 75.3844 12.4031 935 130.501 569.673 456.381
1245 0 77.2711 13.472 1041 129.419 568.457 457.481
1246 0 81.1893 11.8735 964 131.468 566.743 456.629
1247 0 82.2744 11.9235 981 132.402 566.099 455.133
1248 0 85.2637 11.8925 1014 132.936 564.382 451.745
1249 0 87.434 12.8097 1120 131.912 563.414 449.601
1250 1 48.619 10.9217 531 129.731 562.405 469.303
1251 0 50.4788 11.9456 603 129.841 560.983 466.484
1252 0 52.384 12.9811 680 126.21 559.729 467.06
1253 0 53.289 8.72601 465 136.234 558.832 464.626
1254 0 55.4913 10.7765 598 131.548 558.965 464.401
1255 0 56.354 9.86621 556 133.581 558.378 461.516
1256 0 57.3189 10.9911 630 129.721 557.468 462.187
1257 0 60.4595 15.4649 935 122.294 557.584 457.071
1258 0 60.5032 14.5612 881 124.662 557.392 456.645
1259 0 62.1729 13.1729 819 126.178 556.227 459.294
1260 0 64.1882 15.5792 1000 121.766 556.533 458.224
1261 0 67.1653 12.5511 843 126.923 557.24 457.68
1262 0 68.4152 15.2159 1041 122.358 558.65 454.399
1263 0 69.214 14.4768 1002 125.112 558.802 453.785
1264 0 70.4337 14.9928 1056 126.807 560.841 453.708
1265 0 73.3429 14.289 1048 127.718 561.569 451.559
1266 0 75.2826 13.4692 1014 129.791 564.56 452.975
1267 0 75.2829 11.8752 894 134.399 565.475 449.862
1268 0 79.4543 14.3856 1143 127.767 567.523 450.602
1269 0 82.3484 15.1794 1250 127.501 568.113 449.471
1270 0 82.3261 13.5801 1118 131.345 569.606 450.089
1271 0 86.338 15.949 1377 125.816 569.378 451.653
1272 0 88.3564 12.3477 1091 135.574 570.387 448.136
1273 0 88.3025 14.9713 1322 132.347 570.49 446.629
1274 0 91.1932 13.5646 1237 134.75 570.134 450.039
1275 0 96.2264 14.258 1372 134.171 570.416 446.738
1276 1 53.1135 10.374 551 132.891 569.194 469.72
1277 0 55.4597 12.8021 710 131.669 569.052 465.238
1278 0 54.3519 11.7199 637 134.65 567.661 465.185
1279 0 56.3371 11.2892 636 134.774 566.374 466.55
1280 0 62.2796 17.6141 1097 120.231 564.31 467.437
1281 0 62.1233 12.5718 781 131.492 561.968 467.883
1282 0 63.1958 12.9439 818 130.676 562.757 465.263
1283 0 63.2019 15.7116 993 126.14 561.172 464.307
1284 0 65.1262 14.1725 923 128.233 560.79 464.164
1285 0 67.2142 13.5834 913 130.456 559.757 461.965
1286 0 69.2394 12.7095 880 131.857 558.784 459.776
1287 0 71.2678 13.2318 943 131.308 557.787 459.537
1288 0 73.3471 13.1294 963 132.51 556.857 454.155
1289 0 75.3688 15.4839 1167 127.338 556.474 455.029
1290 0 77.5607 12.5966 977 133.641 556.225 451.116
1291 0 81.2684 13.0186 1058 133.572 555.672 447.762
1292 0 81.4673 14.3493 1169 131.43 556.076 446.811
1293 0 85.5074 13.4374 1149 132.372 556.481 447.221
1294 0 88.4197 16.58 1466 126.292 557.029 443.067
1295 0 89.3408 14.7861 1321 130.198 557.846 438.893
1296 0 93.3498 13.9475 1302 130.466 559.335 437.316
1297 0 96.2594 13.1831 1269 132.173 559.107 439.305
1298 1 50.1036 10.2787 515 127.163 559.151 464.144
1299 0 49.0785 5.9089 290 137.09 560.586 460.948
1300 0 54.0408 12.6756 685 124.016 561.682 460.79
1301 0 55.0484 13.6426 751 125.205 562.792 459.325
1302 0 57.2661 13.7778 789 124.087 565.99 461.098
1303 0 59.3701 13.8622 823 124.03 567.447 458.987
1304 0 60.3266 13.9739 843 125.526 567.808 458.495
1305 0 62.1487 11.4081 709 126.663 568.695 458.244
1306 0 63.3231 11.5598 732 126.107 569.1 457.294
1307 0 67.1465 14.5801 979 121.108 568.356 458.298
1308 0 72.3521 15.466 1119 117.775 569.018 460.517
1309 0 70.2995 13.1011 921 124.578 568.344 459.721
1310 0 75.2944 13.321 1003 123.608 567.907 460.478
1311 0 74.2137 12.7739 948 127.174 566.871 456.67
1312 0 80.1529 15.4455 1238 121.819 565.706 456.75
1313 0 82.1432 13.1234 1078 126.205 564.473 454.913
1314 0 85.1845 16.3058 1389 122.084 563.312 450.13
1315 0 86.1738 13.496 1163 127.1 561.391 454.155
1316 0 89.2497 19.8992 1776 118.052 560.342 450.248
1317 0 93.1661 14.5439 1355 127.725 559.134 449.164
1318 1 47.0863 10.7037 504 133.091 559.821 467.339
1319 0 49.0746 13.6731 671 125.811 558.368 470.207
1320 0 53.0879 11.9236 633 127.286 557.504 468.807
1321 0 54.112 13.1579 712 129.545 556.404 464.775
1322 0 57.2474 15.1098 865 125.555 555.421 463.14
1323 0 59.4045 13.7363 816 126.3 554.825 461.69
1324 0 62.264 16.43 1023 121.417 554.771 459.243
1325 0 60.1249 13.1726 792 129.725 555.581 458.231
1326 0 61.1873 12.8131 784 128.639 556.374 454.385
1327 0 65.144 11.9888 781 131.172 556.464 455.853
1328 0 69.11 16.8138 1162 121.358 556.854 452.325
1329 0 69.2688 14.552 1008 126.519 558.29 450.454
1330 0 73.1492 15.5709 1139 124.628 559.262 452.939
1331 0 74.1942 14.9877 1112 128.933 560.898 448.442
1332 0 75.106 14.7525 1108 130.994 562.057 446.367
1333 0 77.1681 13.9306 1075 132.504 563.544 445.387
1334 0 80.3022 14.3583 1153 130.709 566.117 445.61
1335 0 83.2744 15.2988 1274 129.312 567.936 447.433
1336 0 84.1726 13.5317 1139 136.13 568.45 444.311
1337 0 87.4291 15.4068 1347 131.37 569.646 446.264
1338 0 92.1677 15.5152 1430 128.665 570.373 446.293
1339 0 92.1882 14.8284 1367 131.865 570.088 444.29
1340 0 92.4312 13.0367 1205 139.921 570.167 437.858
1341 0 100.437 16.0997 1617 132.29 569.836 443.341
1342 1 55.6612 11.6778 650 138.389 569.822 462.312
1343 0 56.3256 12.3212 694 136.902 569.291 462.767
1344 0 58.4342 14.3922 841 133.848 568.621 462.935
1345 0 58.189 13.1296 764 131.313 566.864 457.56
1346 0 60.3371 12.1484 733 133.744 565.824 459.993
1347 0 60.3833 13.1825 796 133.838 564.758 456.222
1348 0 62.2609 9.36382 583 141.847 564.05 458.94
1349 0 67.2612 13.0536 878 132.644 562.304 461.751
1350 0 70.2579 17.6066 1237 125.86 561.208 458.414
1351 0 72.3528 15.2033 1100 131.222 560.467 453.628
1352 0 75.2588 15.2407 1147 131.289 559.317 454.579
1353 0 74.3131 15.7173 1168 132.213 558.366 451.254
1354 0 77.3137 11.615 898 137.806 557.608 453.586
1355 0 80.148 14.1987 1138 134.534 556.434 446.952
1356 1 43.1374 11.73 506 129.767 556.684 466.466
1357 0 46.157 11.0492 510 130.878 555.678 462.471
1358 0 47.1779 11.4672 541 130.163 555.75 460.516
1359 0 49.2451 12.4682 614 126.515 554.958 458.326
1360 0 49.3451 11.3892 562 130.173 556.276 455.292
1361 0 53.4048 12.6206 674 127.013 556.371 453.994
1362 0 54.2676 13.2123 717 126.088 557.342 452.936
1363 0 54.1029 13.234 716 125.568 558.443 459.989
1364 0 57.4011 16.4283 943 120.388 559.51 457.275
1365 0 59.0569 14.0881 832 124.728 561.692 456.934
1366 0 63.1919 15.6191 987 120.376 563.262 456.081
1367 0 63.309 15.0689 954 121.271 564.838 455.035
1368 0 62.2708 11.0325 687 131.178 566.798 453.039
1369 0 68.3355 16.419 1122 119.489 567.51 454.102
1370 0 68.2939 13.3687 913 125.516 569.596 451.883
1371 0 69.105 14.572 1007 125.173 569.514 451.119
1372 0 73.3181 14.9076 1093 125.426 570.27 452.115
1373 0 76.4332 13.9992 1070 127.996 570.134 450.681
1374 1 38.0473 11.7222 446 128.549 569.09 470.321
1375 0 42.0834 12.1426 511 130.793 568.877 466.912
1376 0 45.0418 10.0573 453 131.36 569.077 470.664
1377 0 45.0588 12.4504 561 128.077 567.852 470.442
1378 0 47.0946 13.3561 629 125.847 566.846 469.676
1379 0 51.0902 13.623 696 123.72 566.977 470.157
1380 0 51.1 14.4031 736 123.334 565.425 469.281
1381 0 54.1722 12.4234 673 125.773 566.75 466.266
1382 0 55.114 13.3723 737 124.273 564.825 464.569
1383 0 56.102 13.2259 742 124.966 563.356 464.016
1384 0 56.0949 12.7106 713 126.401 561.541 461.802
1385 0 59.0955 11.2191 663 128.379 560.881 461.288
1386 0 61.2178 10.0461 615 130.332 559.941 459.839
1387 0 60.1063 14.2913 859 127.806 558.589 457.47
1388 0 62.0269 12.9944 806 130.197 557.685 452.633
1389 0 65.1226 12.9448 843 127.115 558.38 453.332
1390 0 64.096 11.6856 749 129.628 558.868 453.409
1391 0 66.0543 11.3392 749 129.673 558.45 449.176
1392 0 69.0948 13.6334 942 124.485 558.874 446.32
1393 0 73.0859 11.2197 820 128.002 559.051 444.029
1394 0 77.1566 12.7662 985 124.161 559.957 443.551
1395 0 78.1032 14.7113 1149 121.145 560.044 441.242
1396 0 82.1037 14.774 1213 121.413 560.961 440.718
1397 1 43.0623 10.7519 463 123.272 562.873 462.13
1398 0 43.0656 10.4492 450 126.056 564.516 459.216
1399 0 45.0999 12.3725 558 121.253 567.097 461.81
1400 0 48.0478 13.445 646 119.505 569.539 461.494
1401 0 48.0542 14.1507 680 120.296 569.875 456.881
1402 0 50.1835 15.3835 772 114.462 568.995 459.54
1403 0 52.1675 17.8847 933 111.363 569.449 458.117
1404 0 53.2537 11.3419 604 121.101 570.795 463.144
1405 0 54.3414 13.9488 758 118.177 571.362 463.351
1406 0 57.2773 14.3338 821 117.8 571.378 462.168
1407 0 60.2793 14.0513 847 117.934 570.551 460.839
1408 0 60.2542 11.6672 703 123.516 570.172 463.703
1409 0 65.1074 15.4667 1007 117.465 569.633 464.109
1410 0 67.1129 16.8969 1134 117.181 569.11 462.444
1411 0 70.2184 16.2351 1140 118.111 567.681 462.642
1412 0 73.1658 14.884 1089 121.794 566.09 462.837
1413 0 76.2325 15.2297 1161 122.822 564.879 459.45
1414 0 79.1671 17.3683 1375 119.743 563.607 460.748
1415 0 84.2829 16.326 1376 121.944 562.238 457.379
1416 0 84.3153 14.4102 1215 126.475 560.844 457.353
1417 0 88.4033 16.9451 1498 122.885 559.214 456.268
1418 0 89.2731 13.89 1240 131.129 558.16 451.378
1419 0 90.1521 13.0224 1174 135.141 557.285 448.991
1420 0 98.4526 18.5064 1822 123.227 556.386 450.148
1421 0 101.334 18.3552 1860 122.702 556.824 451.21
1422 0 102.482 16.8518 1727 127.536 556.208 447.047
1423 0 102.402 13.8962 1423 133.874 555.926 445.91
1424 0 105.607 13.5313 1429 135.528 555.513 441.127
1425 0 109.419 16.2404 1777 129.772 555.113 438.154
1426 0 112.361 16.6605 1872 128.782 555.984 439.067
1427 0 115.589 15.1399 1750 132.643 555.945 436.355
1428 0 116.569 14.6608 1709 134.777 556.485 431.444
1429 0 122.542 15.0561 1845 134.762 556.791 429.468
1430 1 58.2938 11.4935 670 135.336 557.66 460.203
1431 0 61.2082 12.2369 749 133.447 558.57 461.199
1432 0 64.321 10.8985 701 131.957 560.36 460.214
1433 0 68.4287 13.8246 946 130.15 561.748 457.167
1434 0 68.3226 11.5189 787 136.534 564.079 454.105
1435 0 71.3572 12.2062 871 132.869 564.095 457.251
1436 0 76.4048 10.7585 822 138.545 566.508 455.653
1437 0 77.3695 11.2318 869 138.272 566.931 454.298
1438 0 78.2609 14.7711 1156 131.469 567.42 457.621
1439 0 81.4166 12.1597 990 139.534 567.697 454.112
1440 0 84.2184 11.767 991 141.676 568.004 452.111
1441 0 88.2249 13.9983 1235 139.283 567.776 448.917
1442 0 93.3648 12.992 1213 138.718 567.407 451.455
1443 0 94.4113 12.2125 1153 143.628 567.396 447.22
1444 0 98.4189 13.7778 1356 137.063 566.456 450.109
1445 0 101.525 17.0992 1736 132.575 565.12 450.249
1446 0 104.288 15.2654 1592 138.624 564.296 445.078
1447 0 109.212 13.6524 1491 141.562 562.626 442.617
1448 0 113.507 13.2679 1506 142.161 561.3 437.781
1449 0 116.472 12.5524 1462 142.035 559.198 438.73
1450 0 120.475 16.2441 1957 136.258 558.086 431.076
1451 1 45.2457 10.4319 472 135.506 556.634 467.504
1452 0 48.5562 10.7298 521 131.954 555.255 468.184
1453 0 52.2284 10.7604 562 135.388 555.208 462.571
1454 0 54.1283 12.9507 701 131.99 555.429 462.589
1455 0 56.5066 14.3523 811 130.021 554.928 458.995
1456 0 56.1545 12.7327 715 134.604 553.79 457.334
1457 0 57.4094 12.6634 727 135.226 555.347 457.327
1458 0 61.2179 15.2733 935 125.8 554.684 456.509
1459 0 61.2525 13.4688 825 129.567 554.878 456.336
1460 0 60.4208 11.7013 707 132.15 556.028 452.512
1461 0 64.285 12.3201 792 125.258 557.588 453.121
1462 0 67.2244 11.6773 785 124.908 558.195 455.364
1463 0 70.4645 13.1414 926 125.123 559.51 451.59
1464 0 73.0879 15.3377 1121 121.103 560.695 449.171
1465 0 73.345 12.448 913 126.322 562.737 451.118
1466 0 74.1796 13.3055 987 128.916 564.531 448.294
1467 0 78.6184 12.1854 958 128.379 565.534 445.407
1468 0 81.4091 12.0502 981 132.445 567.332 442.575
1469 0 86.6426 15.3389 1329 123.403 568.319 439.1
1470 1 129.362 18.8232 2435 104.251 570.711 436.615
1471 0 122.185 16.8597 2060 109.34 571.001 421.605
1472 0 110.139 29.4809 3247 98.6243 570.984 420.766
1473 1 53.4136 11.0084 588 128.107 572.44 460.706
1474 0 54.1679 11.0767 600 129.317 573.402 460.78
1475 0 57.1265 15.562 889 125.017 570.071 462.717
1476 0 60.4021 15.2478 921 126.354 569.674 462.495
1477 0 61.2487 15.7554 965 126.202 569.211 460.712
1478 0 63.4153 15.0437 954 128.081 569.09 460.362
1479 0 65.3114 13.8873 907 130.137 568.591 460.818
1480 0 70.3375 18.6387 1311 121.598 568.046 459.464
1481 0 70.3411 16.0362 1128 127.84 566.793 458.904
1482 0 74.4647 16.5582 1233 126.956 565.709 459.5
1483 0 75.4452 15.4019 1162 129.167 564.456 459.154
1484 0 77.6036 16.7131 1297 128.344 562.614 454.946
1485 0 82.464 16.0191 1321 129.515 561.314 453.659
1486 0 81.4455 16.2808 1326 127.897 560.151 452.496
1487 0 85.5204 18.6505 1595 123.366 558.806 451.158
1488 0 84.6042 14.1601 1198 135.643 558.229 442.215
1489 0 90.8516 18.4477 1676 124.799 557.754 442.627
1490 0 91.4966 13.6836 1252 134.659 557.549 442.349
1491 0 96.506 15.512 1497 131.727 557.538 439.886
1492 0 100.522 17.3097 1740 128.693 557.729 436.255
1493 0 101.478 17.3436 1760 131.458 558.145 433.414
1494 0 104.535 17.8026 1861 129.987 557.853 432.965
1495 1 58.1118 10.4798 609 131.368 560.072 458.128
1496 0 59.3778 10.7111 636 132.024 560.502 457.535
1497 0 63.109 11.7733 743 127.299 561.401 454.54
1498 0 64.1718 13.121 842 126.648 563.365 452.659
1499 0 66.165 12.3933 820 127.084 564.687 450.37
1500 0 65.2413 11.7257 765 130.382 564.939 447.816
1501 0 70.4685 14.1482 997 123.002 567.512 447.88
1502 0 68.2192 11.8881 811 130.274 568.938 448.841
1503 0 72.2463 12.6373 913 130.597 570.681 447.229
1504 0 77.1378 14.6102 1127 122.06 572.117 448.914
1505 0 77.0715 13.1566 1014 128.964 571.835 447.509
1506 0 81.13 14.8034 1201 125.577 572.124 449.047
1507 0 83.1347 12.1971 1014 132.024 572.308 448.375
1508 0 88.131 13.8998 1225 126.982 572.401 447.235
1509 0 90.1737 16.1799 1459 125.236 571.707 445.032
1510 0 89.0505 10.7018 953 135.064 571.087 447.42
1511 0 93.2456 14.3385 1337 128.283 570.834 446.025
1512 0 99.1785 15.2452 1512 127.754 570.198 439.261
