time division length width area intensity CMx CMy
0 0 60.0296 11.1778 671 119.377 365.227 437.282
1 0 60.2885 13.6344 822 114.232 366.473 445.277
2 0 59.5363 19.5847 1166 111.647 367.136 438.646
3 0 58.125 25.8065 1500 104.351 366.475 446.149
4 0 65.5805 11.4363 750 114.925 367.005 441.457
5 0 72.4394 16.8279 1219 107.82 366.573 447.6
6 0 75.6402 23.744 1796 105.257 366.719 445.18
7 0 78.9002 11.9138 940 111.916 365.994 447.805
8 0 76.1789 20.7669 1582 109.59 365.042 439.69
9 0 80.6506 18.2268 1470 110.802 364.159 440.574
10 0 87.4742 31.3807 2745 103.87 363.189 439.182
11 0 90.4892 20.4444 1850 110.401 361.815 437.958
12 0 93.8626 22.5756 2119 106.344 360.953 448.792
13 1 48.2055 18.6286 898 108.014 359.611 459.962
14 0 46.4032 9.07265 421 121.04 360.798 454.724
15 0 49.2581 12.2619 604 112.43 360.823 461.674
16 0 48.0866 12.7478 613 120.038 359.09 451.724
17 0 50.2539 11.5613 581 123.552 357.88 455.585
18 0 52.1185 13.028 679 125.863 356.722 453.065
19 0 52.1467 12.8292 669 130.824 355.142 452.079
20 0 54.1862 12.1618 659 132.596 355.005 453.135
21 0 57.0531 14.1272 806 129.756 354.218 448.417
22 0 59.549 16.541 985 124.529 354.093 451.298
23 0 58.0504 12.627 733 135.872 353.289 445.359
24 0 60.0925 14.8438 892 129.006 353.472 449.374
25 0 61.1763 13.7308 840 133.726 352.988 444.913
26 0 63.265 13.4039 848 134 353.914 443.442
27 0 65.1859 15.9084 1037 128.491 353.518 442.114
28 0 70.7372 17.6003 1245 123.404 353.248 443.153
29 0 68.2658 11.7189 800 131.61 355.392 438.469
30 0 71.1566 12.6341 899 124.515 357.06 440.82
31 0 79.9442 16.4115 1312 115.736 357.821 440.374
32 1 161.337 24.7309 3990 116.198 358.288 395.104
33 1 79.5342 16.7098 1329 114.464 361.004 437.895
34 0 81.8825 14.7773 1210 114.787 362.67 440.448
35 0 79.46 11.7795 936 119.348 364.765 436.901
36 0 85.4687 16.7781 1434 114.216 365.245 439.175
37 0 87.3243 14.0167 1224 117.748 365.39 436.516
38 0 92.397 11.0718 1023 117.857 366.282 441.056
39 0 94.2672 15.9228 1501 115.522 366.135 437.298
40 1 52.8381 9.99279 528 115.661 365.78 458.17
41 0 54.1604 8.82564 478 120.285 366.379 453.86
42 0 56.3837 16.1394 910 114.233 365.264 449.036
43 0 55.3338 18.5601 1027 107.5 363.256 458.969
44 0 62.1526 16.379 1018 112.736 362.305 454.869
45 0 59.2463 14.7688 875 112.493 361.211 460.817
46 0 59.5043 10.8059 643 119.151 360.323 458.495
47 0 63.0822 18.1192 1143 110.304 359.091 462.252
48 0 63.1566 16.2928 1029 116.814 356.803 456.298
49 0 66.3606 15.039 998 121.218 354.938 455.11
50 0 65.0418 10.8853 708 139.169 353.099 452.942
51 0 69.1144 16.0603 1110 129.453 352.774 451.125
52 0 70.084 12.0712 846 143.765 350.411 447.501
53 0 73.0557 13.0448 953 149.139 349.803 447.174
54 0 76.1289 13.1093 998 147.357 349.856 445.802
55 0 77.2091 12.654 977 150.807 349.015 442.719
56 1 43.0767 10.3304 445 156.852 346.953 456.404
57 0 44.0392 11.9439 526 147.103 348.496 458.378
58 0 47.1623 9.3507 441 151.739 347.095 455.946
59 0 46.2097 12.3134 569 147.183 346.953 451.763
60 0 47.0402 11.5858 545 146.716 346.152 452.912
61 0 51.0672 11.6317 594 141.768 347.364 453.416
62 0 54.4614 15.4421 841 133.566 349.709 451.342
63 0 54.1725 11.5003 623 135.892 350.525 449.626
64 0 58.126 16.7223 972 123.221 351.945 449.23
65 0 67.6179 22.1095 1495 106.734 354.425 456.05
66 0 63.7649 16.5922 1058 113.596 357.491 450.899
67 0 70.6334 18.5323 1309 110.048 360.225 450.108
68 0 61.482 9.75896 600 121.487 362.03 448.983
69 0 76.8118 19.6715 1511 109.644 363.343 448.56
70 0 67.6358 12.1533 822 114.737 363.332 454.319
71 0 73.857 11.5358 852 115.25 365.204 452.381
72 0 72.6732 15.8518 1152 115.359 364.347 444.099
73 0 75.3446 10.1268 763 116.368 364.809 456.249
74 0 75.3788 13.6643 1030 117.345 364.201 445.14
75 0 80.3367 17.8748 1436 113.267 363.784 446.013
76 0 84.2838 17.2987 1458 113.758 362.353 445.776
77 0 91.6143 19.6476 1800 111.954 362.884 444.124
78 0 93.0285 16.0703 1495 114.749 362.704 446.342
79 0 92.6644 18.4213 1707 113.368 362.878 447.074
80 0 98.5242 16.8182 1657 114.624 361.364 444.822
81 0 94.188 12.061 1136 122.98 359.68 441.162
82 1 53.0529 17.9821 954 111.936 358.705 464.047
83 0 53.132 14.1346 751 120.563 357.672 463.549
84 0 55.1457 15.4137 850 116.641 355.639 460.615
85 0 59.3058 13.2702 787 121.108 354.516 460.531
86 0 51.1356 8.56546 438 140.735 352.534 459.381
87 0 55.0435 12.8444 707 130.19 351.953 458.362
88 0 56.0695 13.3406 748 133.057 350.297 455.417
89 0 60.1376 14.3338 862 129.827 350.309 456.111
90 0 58.0789 12.5175 727 135.524 349.64 453.501
91 0 64.2595 16.729 1075 127.385 349.462 447.862
92 0 62.1542 12.2598 762 135.266 349.723 447.602
93 0 65.1556 12.4164 809 134.262 349.588 449.734
94 0 68.1521 14.541 991 131.135 349.305 447.06
95 0 70.2666 13.3919 941 129.741 350.092 445.105
96 0 73.0706 13.0696 955 128.533 350.286 444.217
97 0 73.1093 15.5521 1137 129.999 351.239 440.728
98 0 76.3135 13.2087 1008 126.732 353.72 438.129
99 0 77.3195 14.6406 1132 119.859 355.517 439.44
100 0 84.7179 24.4812 2074 107.475 355.906 437.843
101 0 85.4074 23.9441 2045 108.254 357.678 436.421
102 0 90.0206 18.518 1667 108.788 359.697 441.36
103 1 277.847 21.1771 5884 114.383 359.17 376.242
104 0 282.322 22.9702 6485 116.13 360.381 364.451
105 0 383.42 38.0679 14596 110.032 359.997 286.27
106 0 303.435 32.4616 9850 111.02 360.39 318.579
107 1 104.654 15.384 1610 111.142 363.754 437.873
108 1 59.1607 12.8126 758 111.554 364.433 457.4
109 0 55.389 10.7422 595 115.303 363.866 453.771
110 0 58.4203 13.6767 799 106.099 360.889 452.944
111 0 60.3662 18.5534 1120 106.645 361.473 460.044
112 0 60.4764 20.4212 1235 104.417 361.192 462.523
113 0 61.3073 30.0943 1845 102.199 359.756 456.971
114 0 62.1874 16.595 1032 111.054 359.335 454.388
115 0 70.7074 22.9396 1622 104.636 357.732 458.815
116 0 68.2713 16.3758 1118 113.424 356.518 453.914
117 0 71.239 21.5753 1537 110.218 354.732 454.338
118 0 74.3554 16.9053 1257 117.513 353.634 450.628
119 0 71.1333 15.3374 1091 130.852 351.838 452.451
120 0 74.186 15.2589 1132 130.498 350.808 447.731
121 0 84.591 15.2617 1291 133.175 349.416 447.732
122 0 82.3623 13.7077 1129 139.006 348.035 444.19
123 0 83.2591 15.2296 1268 138.763 346.812 438.996
124 0 87.2007 15.7109 1370 137.612 347.081 439.494
125 0 92.3439 15.6913 1449 138.561 346.391 435.168
126 1 51.2109 11.8529 607 139.446 347.216 454.783
127 0 51.1452 12.7871 654 134.823 346.96 455.376
128 0 53.0936 12.4685 662 138.879 347.261 452.926
129 0 53.0681 13.8313 734 135.567 347.832 449.817
130 0 57.1271 13.3037 760 129.943 348.28 449.082
131 0 58.1349 12.9354 752 125.061 347.656 450.399
132 0 59.1323 17.9766 1063 117.208 348.696 445.706
133 0 66.1929 16.5728 1097 113.974 351.394 447.478
134 0 66.2386 18.5843 1231 109.511 354.022 450.199
135 0 73.9201 17.059 1261 108.464 356.608 447.293
136 0 71.4839 17.4025 1244 108.986 357.567 449.891
137 0 68.1872 20.5904 1404 108.194 358.648 449.501
138 0 73.3654 26.9337 1976 100.303 358.562 457.433
139 0 80.5852 22.56 1818 106.109 359.611 448.279
140 0 75.2634 13.5258 1018 112.284 359.31 453.117
141 0 75.2634 13.2202 995 140.451 358.315 453.014
142 1 162.282 18.4124 2988 113.625 358.296 423.184
143 0 166.632 21.3645 3560 113.503 357.227 417.976
144 0 173.909 27.7501 4826 111.375 357.264 408.438
145 0 177.712 12.8691 2287 121.747 356.839 411.424
146 0 183.759 25.0328 4600 110.962 355.87 416.902
147 0 189.784 22.9313 4352 114.749 354.628 408.186
148 1 55.0703 12.7473 702 116.04 353.417 462.335
149 0 55.12 15.0399 829 110.89 353.917 464.84
150 0 54.1745 19.9725 1082 111.534 350.823 461.224
151 0 53.1648 9.14139 486 125.735 348.539 461.113
152 0 56.1409 11.8452 665 123.45 346.669 462.095
153 0 58.1053 14.7491 857 123.901 345.856 458.154
154 0 62.2272 21.2929 1325 116.875 344.737 455.015
155 0 63.3893 17.1953 1090 121.705 343.393 455.659
156 0 63.1326 14.3666 907 129.797 342.504 451.807
157 0 64.2908 14.6988 945 128.647 342.34 451.202
158 0 65.1838 12.1963 795 132.806 341.457 448.216
159 0 67.2162 13.4343 903 130.19 341.468 445.272
160 0 73.2238 13.5612 993 128.445 342.046 446.715
161 0 71.0652 17.097 1215 120.795 342.28 448.148
162 0 76.1934 17.3637 1323 118.429 342.55 445.493
163 0 78.1177 19.0354 1487 117.134 343.447 438.3
164 0 84.6297 15.8691 1343 117.422 344.529 440.175
165 0 82.2498 15.8541 1304 115.13 347.033 439.299
166 0 88.447 21.4818 1900 110.4 348.539 431.138
167 0 89.4501 19.5975 1753 109.876 350.286 435.756
168 0 96.7088 24.3825 2358 101.77 351.699 443.543
169 0 99.8511 20.14 2011 105.427 354.257 438.42
170 0 106.039 23.7838 2522 101.193 354.896 442.505
171 0 102.648 13.1712 1352 113.813 356.381 427.541
172 0 106.586 15.5462 1657 110.352 356.497 434.149
173 0 115.404 22.7635 2627 104.039 357.066 438.22
174 0 119.202 23.5902 2812 101.419 356.82 443.223
175 0 118.048 12.4102 1465 112.171 357.616 433.189
176 1 77.6784 25.567 1986 98.3077 356.914 456.904
177 0 67.7433 14.7469 999 107.38 356.441 456.222
178 0 70.5375 20.3863 1438 104.417 355.896 455.548
179 0 74.176 18.2674 1355 106.294 354.97 456.52
180 0 76.5384 15.2864 1170 109.475 353.775 452.291
181 0 78.5657 12.6136 991 112.175 353.445 454.572
182 0 82.6602 14.1906 1173 112.041 352.272 452.861
183 0 84.3598 19.4761 1643 108.744 351.156 452.505
184 1 43.3081 11.8684 514 111.117 350.718 469.002
185 0 43.4882 12.2102 531 112.113 349.019 469.034
186 0 38.1372 9.5707 365 120.603 347.627 464.542
187 0 41.02 9.8001 402 117.219 346.037 468.659
188 0 47.0369 16.2638 765 110.395 344.376 465.92
189 0 46.1807 9.13801 422 122.879 341.829 461.761
190 0 47.0455 11.8609 558 120.088 342.254 460.097
191 0 47.2242 17.1522 810 115.669 342.1 456.72
192 0 49.0628 10.1095 496 126.123 341.232 458.847
193 0 54.5681 14.8072 808 119.036 341.91 452.627
194 0 52.1142 17.7495 925 114.277 342.459 456.658
195 0 55.2979 15.1181 836 117.317 341.755 456.054
196 0 53.2559 13.5947 724 119.015 342.34 455.344
197 0 60.6627 21.5783 1309 108.279 344.704 450.913
198 0 63.2741 23.738 1502 105.718 346.172 450.675
199 0 70.2972 17.3976 1223 107.376 348.138 453.071
200 0 68.9975 22.711 1567 105.399 349.357 446.331
201 0 67.485 36.334 2452 97.2957 349.214 448.418
202 0 69.3884 32.0371 2223 99.6059 350.608 441.866
203 0 71.8086 23.7298 1704 102.719 354.458 447.156
204 0 80.3148 26.5829 2135 101.495 355.365 446.798
205 0 84.1715 17.4049 1465 107.242 356.709 445.044
206 0 83.4457 23.8239 1988 105.042 356.947 440.57
207 0 86.6772 24.9431 2162 102.833 357.278 448.341
208 0 87.498 15.9432 1395 109.229 357.618 452.351
209 0 89.9705 19.4842 1753 106.707 357.096 450.759
210 0 93.8194 23.2788 2184 106.456 356.916 446.183
211 0 92.5741 21.1182 1955 109.34 356.821 444.145
212 0 92.4199 13.5252 1250 115.357 356.561 444.547
213 1 112.256 19.9187 2236 106.798 355.07 452.054
214 1 56.1956 28.6677 1611 96.2142 353.866 468.433
215 0 54.6713 24.4186 1335 97.6352 354.017 471.208
216 0 53.6702 22.8991 1229 104.113 352.183 462.007
217 0 57.1197 20.4483 1168 106.601 351.019 463.08
218 0 57.2492 23.1444 1325 105.309 349.211 462.866
219 0 60.1216 22.2383 1337 106.701 348.213 463.319
220 0 60.2243 13.6324 821 120.385 347.088 457.069
221 0 63.2344 16.1621 1022 118.683 345.53 454.81
222 0 64.4148 14.5463 937 124.418 344.107 451.499
223 0 66.233 13.996 927 128.162 343.465 452.333
224 0 69.1998 15.159 1049 132.002 343.131 452.004
225 0 72.4524 15.417 1117 132.683 342.253 450.927
226 0 70.2862 13.9003 977 135.853 342.479 445.999
227 0 72.2785 14.8592 1074 133.879 341.952 445.449
228 0 77.2676 14.0809 1088 134.033 342.333 444.289
229 0 79.5589 15.9002 1265 129.95 343.328 440.568
230 0 82.7999 16.5701 1372 126.69 344.41 442.956
231 0 86.1916 11.9501 1030 129.894 344.977 439.571
232 0 87.4849 20.895 1828 117.476 347.051 435.386
233 0 92.418 16.8041 1553 117.757 348.728 438.159
234 0 99.5917 19.3289 1925 112.309 350.683 439.999
235 0 100.222 14.857 1489 116.255 352.447 436.087
236 0 106.266 23.8459 2534 108.64 353.652 434.509
237 0 106.896 19.271 2060 111.822 354.837 434.213
238 0 109.08 24.1657 2636 108.594 355.336 434.646
239 0 112.058 30.7252 3443 104.69 356.062 432.233
240 0 114.4 20.6294 2360 110.147 357.76 433.833
241 1 67.2337 8.4779 570 111.798 358 460.049
242 0 68.0985 13.3483 909 110.809 357.21 458.084
243 0 65.6517 22.8174 1498 102.68 356.256 462.662
244 0 66.3715 10.9083 724 113.856 356.174 459.304
245 0 73.7233 13.3472 984 110.77 356.261 460.955
246 0 76.0846 20.5955 1567 102.889 355.58 461.284
247 0 79.4042 20.9939 1667 107.947 354.225 452.466
248 0 71.7257 13.1473 943 118.232 353.584 448.1
249 0 77.7428 17.4678 1358 114.955 352.533 446.387
250 0 78.843 12.3663 975 118.167 351.462 454.893
251 0 88.1991 13.8323 1220 120.184 350.046 447.81
252 0 80.6719 10.2886 830 131.208 347.906 443.546
253 0 87.9895 15.4564 1360 127.897 346.747 442.153
254 1 46.2766 12.4469 576 127.96 346.759 460.59
255 0 46.1055 9.43489 435 129.209 345.947 465.823
256 0 48.3661 13.3151 644 125.835 345.022 463.248
257 0 49.0454 13.1307 644 132.253 344.272 461.29
258 0 49.0984 12.3018 604 133.555 343.071 453.411
259 0 52.3141 14.8335 776 121.509 342.68 457.276
260 0 49.1827 11.3455 558 138.489 341.66 456.473
261 0 51.0452 11.1078 567 136.466 343.157 453.303
262 0 58.4027 14.3829 840 124.737 343.838 455.611
263 0 54.0738 11.7062 633 129.863 344.028 452.953
264 0 56.3073 13.0356 734 123.155 344.334 450.414
265 0 61.2445 16.0014 980 116.226 346.608 451.519
266 0 63.2665 12.1549 769 118.144 348.153 452.164
267 0 67.4584 16.2619 1097 108.572 349.831 454.818
268 0 66.3527 14.1516 939 111.835 351.896 449.864
269 0 66.5037 18.1343 1206 107.602 353.029 450.862
270 0 67.5949 13.7436 929 107.972 355.249 455.256
271 0 78.3516 21.5439 1688 105.159 355.163 445.844
272 0 74.7467 12.0808 903 108.934 357.274 454.92
273 0 78.6861 13.7381 1081 110.522 357.192 448.374
274 0 78.3854 12.0813 947 114.628 357.393 443.833
275 0 95.0655 13.3277 1267 106.922 356.719 456.908
276 0 91.507 12.7968 1171 112.816 356.262 443.893
277 0 93.4114 18.167 1697 108.905 355.53 439.05
278 0 93.5616 18.3088 1713 107.712 355.632 445.887
279 0 101.607 17.7842 1807 104.224 355.425 454.509
280 0 95.8261 15.8934 1523 113.445 354.017 437.679
281 1 52.3414 10.8709 569 112.673 352.464 466.587
282 0 52.5841 12.4562 655 111.508 351.924 466.267
283 0 51.0675 12.1212 619 119.677 349.202 466.583
284 0 54.1993 15.4061 835 118.635 348.172 464.348
285 0 52.2024 12.0301 628 129.74 346.21 462.884
286 0 55.1292 12.117 668 132.597 344.91 462.852
287 0 57.1114 16.1089 920 128.663 344.004 460.223
288 0 59.3957 18.1831 1080 126.759 342.668 459.711
289 0 60.0423 14.4065 865 136.61 341.403 456.409
290 0 63.0696 13.8894 876 142.451 340.32 455.049
291 0 63.2167 17.0841 1080 131.587 340.103 455.375
292 0 65.3161 12.4472 813 140.79 339.92 453.218
293 0 65.1703 11.1707 728 141.508 339.9 451.571
294 0 68.3735 15.1082 1033 135.984 341.014 445.791
295 0 72.8859 13.4319 979 134.087 341.325 444.665
296 1 38.1326 9.09982 347 134.925 342.914 457.441
297 0 47.2151 10.3145 487 112.382 343.774 461.025
298 0 43.3942 11.9601 519 113.734 344.127 455.108
299 0 45.3535 13.5381 614 109.417 346.702 456.946
300 0 51.8047 16.4657 853 103.555 347.914 456.206
301 0 53.372 12.2161 652 105.078 350.132 456.595
302 0 53.6687 18.9496 1017 99.4867 351.602 455.507
303 0 59.2743 20.5823 1220 100.875 353.279 455.067
304 0 65.4036 15.412 1008 99.7411 355.549 463.258
305 0 59.221 14.5388 861 103.625 356.699 456.116
306 0 63.7797 13.3585 852 103.531 356.702 458.331
307 0 59.3117 13.8253 820 99.2488 356.962 468.079
308 0 63.4939 12.5839 799 104.584 357.194 461.203
309 0 67.6751 19.0321 1288 102.337 355.571 455.217
310 0 69.2859 13.3938 928 102.234 356.414 465.728
311 0 68.6209 18.8281 1292 101.735 355.642 460.613
312 0 68.6209 19.0758 1309 124.877 355.591 460.681
313 0 71.6391 15.955 1143 109.407 351.609 463.289
314 0 71.0876 21.5087 1529 107.988 351.209 461.051
315 0 76.4977 16.9678 1298 118.944 350.253 458.607
316 0 74.1526 9.04891 671 132.078 349.201 459.472
317 0 76.1505 11.3066 861 135.03 347.791 453.469
318 1 40.0678 10.033 402 133.92 346.149 470.211
319 0 40.1152 9.99622 401 136.791 344.878 467.604
320 0 43.0238 10.5756 455 141.198 343.589 468.602
321 0 44.0313 12.3548 544 135.537 343.386 465.842
322 0 46.0422 13.8134 636 129.082 342.788 464.042
323 0 47.1074 12.3123 580 135.528 342.34 462.759
324 0 47.2032 12.4144 586 138.592 341.681 461.899
325 0 50.1042 13.5118 677 140.567 340.914 457.662
326 0 51.1717 12.8587 658 137.843 341.09 458.451
327 0 51.0914 14.8557 759 139.121 342.333 456.415
328 0 54.0657 14.5748 788 137.09 342.874 454.523
329 0 55.1462 12.7479 703 136.57 342.893 455.974
330 0 56.0578 14.1996 796 134.296 343.559 451.113
331 0 59.2176 14.5903 864 136.647 345.211 452.01
332 0 59.1725 14.2972 846 128.872 346.512 451.249
333 0 60.0469 12.2571 736 129.764 347.808 447.477
334 0 66.1369 14.5758 964 122.786 349.854 448.68
335 0 67.0941 13.6674 917 117.076 351.226 451.405
336 0 71.1091 17.1708 1221 109.814 353.189 449.784
337 1 148.785 16.6347 2475 112.96 352.768 423.593
338 0 152.795 13.5149 2065 118.382 354.2 402.441
339 0 158.674 15.1568 2405 117.566 355.179 404.099
340 0 164.517 11.5489 1900 117.663 355.534 416.61
341 1 85.3992 17.6583 1508 107.991 354.743 452.502
342 1 47.1964 13.7934 651 108.702 354.825 468.481
343 0 47.1964 13.6875 646 126.796 354.893 468.322
344 0 50.056 15.7024 786 110.827 354.015 466.957
345 0 49.0394 19.882 975 110.373 355.468 461.909
346 0 48.0642 11.4014 548 138.701 352.62 466.049
347 0 50.0976 14.332 718 125.564 351.749 468.659
348 0 53.146 14.5825 775 128.103 350.369 468.72
349 0 54.1079 12.013 650 135.886 348.997 464.332
350 0 55.1585 13.1258 724 138.305 347.648 464.847
351 0 57.0667 13.3703 763 141.699 346.073 462.009
352 0 57.1194 13.9532 797 140.173 345.232 460.762
353 0 59.1139 13.2456 783 141.974 342.826 458.433
354 0 63.1252 15.493 978 137.434 341.839 453.627
355 0 66.1337 15.136 1001 136.094 341.166 454.082
356 0 68.0986 14.5524 991 136.989 340.398 453.489
357 0 68.195 14.048 958 137.772 339.952 448.725
358 0 72.0769 16.6766 1202 132.305 339.542 448.727
359 0 76.0545 14.0557 1069 136.392 339.147 446.907
360 1 44.0466 11.2381 495 135.958 339.04 462.121
361 0 42.0644 11.7439 494 135.852 338.571 461.816
362 0 45.0945 12.8175 578 131.298 339.336 461.029
363 0 44.1564 8.80959 389 137.404 340.681 460.943
364 0 48.1435 10.7387 517 133.36 341.745 459.043
365 0 49.0667 14.2867 701 128.026 343.004 454.591
366 0 52.1103 14.7188 767 124.098 344.382 454
367 0 55.115 13.0999 722 126.83 346.187 454.666
368 0 59.1777 13.5017 799 120.519 351.384 455.451
369 0 56.3016 15.3815 866 114.604 351.015 455.633
370 0 58.2623 15.5847 908 109.454 353.151 457.01
371 0 58.1932 22.9408 1335 103.186 353.369 459.394
372 0 64.5591 26.1775 1690 101.059 353.954 454.528
373 0 65.4563 20.8383 1364 104.745 353.897 459.975
374 0 65.5222 13.8579 908 107.865 355.173 464.989
375 0 63.4113 10.424 661 118.53 354.84 453.867
376 0 69.2999 17.8067 1234 111.284 354.563 454.641
377 0 72.6154 19.1695 1392 111.372 354.107 456.124
378 0 70.3039 10.5968 745 131.985 352.574 454.517
379 1 41.0684 12.4427 511 128.834 351.478 470.061
380 0 41.1833 7.47875 308 142.227 350.682 470.399
381 0 44.166 14.3549 634 131.437 350.379 469.828
382 0 46.1037 11.2789 520 139.794 348.429 471.196
383 0 48.1079 14.7793 711 138.824 346.446 467.575
384 0 48.1189 14.4434 695 142.721 347.642 464.373
385 0 51.2551 11.9988 615 134.472 345.966 463.257
386 0 51.1164 13.0682 668 134.97 344.229 460.919
387 0 52.0978 11.7471 612 140.825 342.542 458.368
388 0 57.1478 11.934 682 138.908 341.733 458.072
389 0 58.1565 14.1859 825 135.988 342.085 454.739
390 0 58.1692 13.753 800 135.832 342.052 454.921
391 0 59.2044 12.4653 738 138.744 340.48 451.65
392 0 62.1237 13.9882 869 135.455 340.411 452.664
393 0 62.2026 12.0252 748 139.572 340.576 449.711
394 0 66.2625 13.8993 921 134.409 340.7 447.395
395 0 70.3734 14.6504 1031 127.478 341.173 449.54
396 0 73.2536 14.4839 1061 132.281 341.416 445.958
397 0 75.2764 15.3966 1159 126.414 342.729 443.682
398 0 76.2911 15.7948 1205 125.804 343.781 439.29
399 0 77.5164 17.0287 1320 118.845 345.358 445.032
400 0 83.3203 15.8305 1319 117.817 347.797 443.357
401 0 87.8225 14.6887 1290 118.26 349.709 440.36
402 0 87.4465 13.8599 1212 115.457 351.633 437.732
403 0 95.8035 29.3204 2809 102.454 352.392 436.035
404 0 98.8662 15.2125 1504 112.206 355.219 436.818
405 1 50.2599 11.3013 568 106.13 356.359 464.234
406 0 55.1341 14.7459 813 106.054 355.67 461.9
407 0 55.3811 13.4161 743 110.013 356.347 455.851
408 0 67.0893 15.1887 1019 105.813 357.293 463.882
409 0 63.0588 12.9562 817 112.874 356.856 459.127
410 0 65.3816 14.5148 949 116.694 356.134 465.223
411 0 61.2745 10.8365 664 125.435 353.916 462
412 0 69.1729 13.5747 939 122.413 353.193 464.592
413 0 66.3199 15.1689 1006 123.353 351.936 460.036
414 0 68.267 12.7294 869 129.865 351.211 458.684
415 0 72.3635 17.2601 1249 123.857 349.743 458.246
416 0 74.1774 12.0117 891 134.374 349.604 460.148
417 0 75.1613 12.2536 921 139.344 347.535 456.702
418 0 79.243 14.9035 1181 136.784 346.367 454.348
419 0 81.2892 13.1629 1070 140.057 344.998 452.084
420 0 85.2329 15.0177 1280 136.026 343.52 449.863
421 0 88.3072 13.2945 1174 140.116 342.82 446.476
422 1 48.0622 10.0911 485 143.278 343.555 463.155
423 0 50.1059 12.0744 605 140.408 342.899 460.339
424 0 50.083 13.1582 659 136.577 342.599 461.463
425 0 51.0437 15.0263 767 133.877 341.359 459.331
426 0 52.0838 13.9967 729 137.705 338.273 454.941
427 0 55.1447 14.0177 773 135.775 338.411 456.448
428 0 55.0458 16.1502 889 130.16 338.396 456.098
429 0 56.0496 13.3275 747 136.849 340.151 452.082
430 0 59.103 14.9062 881 132.86 340.518 454.536
431 0 58.0563 13.0046 755 134.457 341.669 454.448
432 0 62.2108 14.7081 915 129.413 343.199 452.062
433 0 66.0445 14.2328 940 130.228 344.523 452.097
434 0 63.0444 12.2771 774 131.318 347.407 452.202
435 0 67.3158 12.2111 822 124.426 349.584 453.371
436 0 72.1822 16.7908 1212 111.832 350.302 455.003
437 0 69.6425 15.9673 1112 108.056 352.683 458.696
438 0 69.6425 15.7375 1096 124.521 354.662 458.588
439 0 75.2734 19.8875 1497 105.548 353.534 458.074
440 0 83.2737 17.1483 1428 110.686 354.118 451.609
441 0 84.2088 16.2928 1372 110.547 354.27 454.701
442 0 87.1073 15.2226 1326 114.718 353.702 450.805
443 0 87.2678 14.5987 1274 122.586 352.717 447.202
444 0 90.186 15.9781 1441 123.11 353.067 447.016
445 0 94.3614 16.9561 1600 124.538 352.489 449.448
446 1 53.4167 13.3292 712 130.096 352.166 466.47
447 0 54.0564 14.4664 782 133.824 349.307 464.684
448 0 54.0917 13.2553 717 144.444 351.718 464
449 0 54.0432 12.6565 684 143.678 350.098 464.349
450 0 59.0612 15.0352 888 138.119 348.385 462.265
451 0 59.0878 14.8423 877 142.346 346.928 460.938
452 0 60.0959 14.7098 884 144.109 345.82 459.962
453 0 61.0766 16.16 987 141.517 344.477 458.512
454 0 65.1716 15.252 994 141.476 343.281 457.622
455 0 63.1885 12.4073 784 149.293 343.046 457.431
456 0 69.1112 15.0482 1040 139.651 341.972 455.947
457 0 68.101 14.2142 968 144.986 341.132 448.996
458 0 71.1083 13.9927 995 141.3 341.265 450.176
459 0 76.3412 15.3652 1173 138.713 340.972 449.228
460 0 77.108 15.4718 1193 138.504 341.013 445.175
461 0 81.1805 14.4 1169 134.062 341.109 447.039
462 0 82.158 15.0685 1238 132.771 341.048 444.576
463 0 84.2542 14.2782 1203 128.845 342.189 446.017
464 0 88.1917 15.8632 1399 127.472 343.215 438.144
465 1 48.0902 12.8716 619 126.775 345.43 457.239
466 0 52.091 12.6317 658 121.561 346.956 458.261
467 0 50.0732 12.4617 624 123.428 348.588 454.577
468 0 49.1081 11.1998 550 121.391 350.573 457.071
469 0 57.3242 12.8218 735 105.899 353.109 463.354
470 0 58.1329 14.5701 847 109.133 352.867 457.51
471 0 55.066 10.2059 562 110.913 355.304 457.692
472 0 61.0496 11.2204 685 108.444 355.707 458.311
473 0 61.2634 17.335 1062 103.86 354.799 461.855
474 0 64.2746 13.6446 877 107.368 356.009 455.721
475 0 67.2499 11.8811 799 109.324 355.309 461.758
476 0 66.2991 14.6307 970 112.2 354.69 457.296
477 0 67.2459 13.1012 881 122.246 354.02 459.538
478 0 67.1138 14.9299 1002 122.675 353.037 457.076
479 0 72.106 14.1181 1018 125.752 352.005 459.756
480 0 73.236 14.8424 1087 131.343 351.194 458.434
481 0 74.1821 15.0036 1113 133.259 349.9 452.77
482 0 79.3686 15.7871 1253 132.904 349.314 454.949
483 1 41.169 9.93466 409 143.139 348.888 470.171
484 0 40.0358 11.8893 476 143.576 347.267 469.973
485 0 44.1791 11.4081 504 145.462 346.244 466.974
486 0 44.1515 12.2533 541 144.762 344.996 464.893
487 0 47.1132 12.7565 601 141.469 343.824 465.99
488 0 49.2653 12.1587 599 145.614 342.524 463.8
489 0 48.2188 13.0032 627 143.587 342.459 461.833
490 0 51.1977 13.8092 707 139.709 342.194 460.612
491 0 53.1782 13.9531 742 140.912 341.212 457.681
492 0 54.1156 14.7647 799 139.071 341.952 456.016
493 0 55.1066 17.9107 987 131.718 341.617 452.284
494 0 55.0206 13.4677 741 145.822 341.463 453.524
495 0 57.0732 14.6479 836 141.151 341.684 452.437
496 0 59.0277 15.7045 927 136.085 342.475 449.917
497 0 58.0918 12.2048 709 143.468 343.512 450.099
498 0 65.0754 13.9991 911 137.73 345.662 449.076
499 0 66.1502 14.9508 989 126.627 348.04 448.482
500 0 69.1929 16.2444 1124 123.755 350.319 443.109
501 0 72.5427 14.4742 1050 124.575 351.129 444.313
502 0 74.3075 16.4048 1219 114.22 353.402 445.773
503 0 78.8177 14.5145 1144 112.424 354.907 439.972
504 0 74.2369 12.056 895 114.337 356.208 442.106
505 0 84.711 16.7157 1416 107.945 356.562 445.124
506 0 84.5069 21.8562 1847 104.568 356.423 444.362
507 0 90.908 17.4242 1584 107.233 356.148 446.67
508 0 90.428 11.2023 1013 115.524 356.551 441.777
509 0 96.6537 21.2822 2057 108.982 355.294 438.825
510 1 52.2674 10.0445 525 119.059 356.617 461.354
511 0 53.384 12.6068 673 122.762 355.248 465.016
512 0 56.1101 16.9488 951 118.408 353.468 466.795
513 0 54.0623 13.3734 723 129.719 351.497 463.88
514 0 57.1017 13.4672 769 132.455 350.16 462.386
515 0 58.0557 12.8842 748 136.322 348.707 462.308
516 0 61.051 12.8909 787 141.537 347.823 459.681
517 0 64.195 15.4997 995 139.827 346.367 455.812
518 0 64.1028 13.6499 875 146.085 345.074 454.709
519 0 67.1841 13.6342 916 145.474 343.68 455.288
520 0 69.125 13.0488 902 148.897 343.011 452.478
521 0 73.2042 14.8762 1089 146.265 342.077 447.78
522 0 76.2374 15.8321 1207 142.916 341.071 447.608
523 0 79.1179 15.3568 1215 145.455 341.277 446.328
524 0 81.3595 14.7494 1200 146.75 341.203 437.562
525 1 42.2413 11.9078 503 142.843 342.087 460.113
526 0 43.0628 11.0304 475 146.731 341.722 457.044
527 0 46.125 12.4661 575 141.007 342.661 457.047
528 0 48.2318 12.2533 591 139.932 343.67 455.971
529 0 50.0999 16.7066 837 132.458 343.165 453.201
530 0 50.1836 14.5466 730 135.989 342.26 455.115
531 0 52.32 15.9021 832 128.464 343.609 454.999
532 0 56.0743 15.5864 874 124.785 344.789 453.621
533 0 57.3626 14.8529 852 124.262 346.975 450.817
534 0 62.9817 14.5439 916 119.721 349.313 454.362
535 0 62.4541 14.6668 916 113.798 352.777 452.139
536 0 62.3197 11.8422 738 115.52 353.839 453.518
537 0 66.5122 19.0491 1267 102.63 354.681 458.39
538 0 69.4152 17.4313 1210 104.745 355.549 452.832
539 0 73.3203 31.001 2273 97.249 354.17 453.23
540 0 71.1078 26.7903 1905 98.3475 354.307 457.794
541 0 73.3531 12.174 893 113.599 355.12 451.559
542 0 82.1305 16.839 1383 111.325 354.25 456.022
543 0 80.1803 16.3132 1308 119.362 354.045 452.07
544 0 81.1898 15.0758 1224 123.561 353.502 452.02
545 0 83.2146 14.4686 1204 128.134 351.848 451.378
546 1 49.0538 12.2518 601 133.572 350.334 466.814
547 0 49.1208 13.5381 665 129.376 349.854 470.35
548 0 52.1458 12.3692 645 140.468 348.251 464.746
549 0 55.2067 15.288 844 136.084 347.341 464.051
550 0 53.0881 13.9014 738 141.417 346.018 463.916
551 0 55.1029 14.9901 826 140.651 344.315 462.439
552 0 59.1516 15.4856 916 137.688 343.344 462.443
553 0 58.1634 14.0638 818 143.735 342.697 457.482
554 0 62.2623 14.8404 924 142.001 342.681 455.958
555 0 63.1682 13.7411 868 144.271 341.606 455.684
556 0 64.3211 13.1683 847 146.92 341.58 452.661
557 0 68.3576 15.4628 1057 141.981 340.609 450.376
558 0 70.3773 14.4933 1020 142.57 340.623 452.867
559 0 71.2319 15.5689 1109 144.03 340.193 445.932
560 0 75.3119 14.0748 1060 146.839 340.333 444.021
561 0 77.2645 14.8322 1146 146.284 341.039 442.882
562 1 40.1012 12.269 492 147.492 342.61 460.232
563 0 45.1736 11.3341 512 148.02 343.502 458.275
564 0 48.2137 10.7438 518 142.044 344.66 459.019
565 0 47.3432 11.9764 567 138.808 346.852 459.009
566 0 51.2059 12.6353 647 131.4 348.402 458.437
567 0 53.2902 17.8832 953 122.937 350.465 458.659
568 0 58.4166 17.1527 1002 112.055 352.756 462.839
569 0 56.1399 14.9804 841 115.266 354.521 457.77
570 0 60.2615 23.7797 1433 104.196 354.109 460.299
571 0 63.4824 21.6123 1372 105.287 354.889 459.614
572 0 58.1801 12.5301 729 116.088 356.576 459.789
573 0 62.7299 17.5674 1102 110.776 356.545 456.579
574 0 65.4345 23.3516 1528 106.726 355.116 457.522
575 0 65.4282 18.6311 1219 112.168 356.572 459.676
576 0 66.3897 17.8793 1187 120.553 354.818 460.361
577 0 66.2938 14.8279 983 130.797 354.923 460.944
578 0 70.1702 14.3223 1005 131.934 354.231 463.864
579 0 70.2614 13.2932 934 140.014 353.859 460.164
580 0 72.2602 12.801 925 145.054 353.507 459.457
581 0 76.114 13.6506 1039 146.168 352.22 456.65
582 0 80.1416 13.7631 1103 151.631 350.514 455.381
583 0 81.2139 15.7362 1278 151.102 349.063 454.293
584 0 82.072 14.207 1166 155.6 347.778 451.996
585 0 89.133 17.098 1524 147.66 346.414 453.973
586 1 44.0364 10.9455 482 160.427 345.454 472.527
587 0 46.0316 12.7521 587 159.112 344.075 470.269
588 0 48.0653 12.4414 598 157.375 342.846 468.191
589 0 50.0351 12.3513 618 155.892 341.294 468.908
590 0 50.0406 15.1877 760 141.796 341.316 466.654
591 0 49.0401 12.6835 622 146.977 341.318 469.002
592 0 56.0445 17.9679 1007 143.695 340.451 462.915
593 0 57.1571 16.9008 966 146.124 338.551 459.31
594 0 56.1833 14.5773 819 152.984 337.999 461.418
595 0 59.1383 14.1194 835 154.722 338.759 458.45
596 0 59.2801 13.9676 828 155.947 339.419 457.165
597 0 62.2731 16.7488 1043 149.281 340.123 456.091
598 0 66.1492 15.1476 1002 151.067 341.168 456.636
599 0 67.0954 17.1249 1149 146.374 342.228 457.374
600 0 70.1336 16.1977 1136 148.177 344.635 454.955
601 0 71.1109 13.7532 978 154.235 345.891 454.365
602 0 71.1121 15.2717 1086 153.937 346.472 452.96
603 0 77.2396 15.4195 1191 149.244 347.975 452.36
604 0 80.1556 18.1647 1456 138.617 348.809 449.93
605 0 85.2822 18.2453 1556 136.506 348.536 449.972
606 0 84.228 16.6453 1402 142.456 348.611 452.466
607 0 86.0725 15.882 1367 148.961 348.976 451.153
608 0 91.3094 16.7891 1533 146.312 348.448 445.675
609 0 94.0923 15.4529 1454 149.652 348.3 448.449
610 1 54.1217 12.0469 652 148.261 346.937 471.727
611 0 54.1046 14.4535 782 146.802 346.59 469.343
612 0 58.0572 11.0581 642 154.606 345.668 468.984
613 0 61.1692 12.8987 789 150.978 344.236 467.45
614 0 60.1019 15.5403 934 147.611 343.787 462.008
615 0 62.1278 14.4702 899 147.521 345.207 466.566
616 0 66.0906 15.4485 1021 147.229 343.333 462.96
617 0 64.0413 14.8342 950 153.084 341.703 459.176
618 0 67.0759 15.2663 1024 152.039 340.766 458.4
619 0 71.1524 15.7409 1120 149.127 339.522 458.917
620 0 73.1518 14.8732 1088 153.598 338.068 455.488
621 0 73.1234 13.8123 1010 156.368 337.357 452.858
622 0 76.1337 15.9194 1212 153.479 337.325 449.965
623 0 80.2232 17.576 1410 149.143 337.207 448.116
624 0 81.218 14.9967 1218 155.805 336.975 447.888
625 1 46.0273 8.23425 379 160.602 337.361 466.24
626 0 43.0246 10.4824 451 161.727 337.869 463.031
627 0 47.0275 12.3545 581 159.289 338.208 459.592
628 0 47.0517 11.2429 529 156.911 339.93 461.399
629 0 46.0533 9.83643 453 163.925 341.466 456.386
630 0 51.2103 13.4934 691 152.948 341.187 455.362
631 0 52.1977 13.832 722 149.564 342.305 453.303
632 0 55.1956 14.349 792 142.008 342.197 453.188
633 0 53.1122 14.121 750 143.055 346.288 454.129
634 0 58.131 14.6049 849 137.378 347.998 455.104
635 0 59.0778 15.9282 941 138.584 349.598 452.333
636 0 61.1122 15.987 977 128.624 351.364 454.896
637 0 62.2997 14.8797 927 132.073 351.754 454.955
638 0 65.0876 16.5777 1079 127.035 352.612 456.33
639 0 66.1477 15.4956 1025 127.175 353.739 455.965
640 0 64.1394 12.3481 792 138.289 353.205 453.563
641 0 72.1983 17.8813 1291 127.39 352.582 454.993
642 0 71.1304 15.6473 1113 139.149 350.758 454.339
643 0 74.1886 16.3098 1210 145.023 350.056 451.453
644 0 77.1146 15.4445 1191 146.38 349.913 455.175
645 0 79.493 15.0957 1200 151.244 348.718 451.398
646 0 79.183 14.9653 1185 154.149 347.731 450.146
647 0 82.3031 17.2533 1420 148.708 346.547 448.555
648 0 84.1228 17.2605 1452 151.806 346.225 447.514
649 0 86.2792 13.804 1191 158.518 344.931 447.19
650 0 91.1588 15.4456 1408 152.996 343.787 445.254
651 1 48.1262 9.35041 450 157.429 343.253 465.124
652 0 49.3248 9.71114 479 156.37 342.013 460.651
653 0 52.3076 11.7765 616 148.977 341.537 460.922
654 0 52.2826 8.81746 461 152.202 340.466 460.555
655 0 53.1865 11.7699 626 148.425 339.752 457.875
656 0 58.2959 12.3508 720 145.335 339.265 451.964
657 0 59.3454 12.3683 734 144.127 338.958 450.946
658 0 61.1601 13.293 813 140.849 339.729 453.164
659 0 62.25 13.751 856 140.345 339.655 450.952
660 0 65.1451 12.1728 793 141.561 339.956 448.015
661 0 68.1242 13.0791 891 139.211 340.553 446.657
662 0 70.1633 13.5826 953 137.238 342.18 446.256
663 0 70.161 12.2718 861 140.354 343.389 444.177
664 0 73.0858 14.353 1049 137.466 344.758 441.957
665 0 77.0997 13.5798 1047 136.691 346.656 441.319
666 0 80.1176 15.1652 1215 125.243 348.946 438.766
667 0 84.1258 15.7859 1328 120.929 350.679 438.383
668 0 85.1926 12.7593 1087 124.577 351.453 436.92
669 0 88.3168 18.796 1660 110.924 353.111 441.511
670 0 91.1359 7.69181 701 118.669 354.238 439.468
671 0 94.2213 10.486 988 113.372 355.368 435.55
672 1 49.1933 12.8879 634 106.186 356.151 460.757
673 0 50.2048 6.57308 330 111.082 356.527 463.885
674 0 53.3278 15.9016 848 107.71 354.961 460.054
675 0 54.1262 12.6926 687 124.687 354.192 459.831
676 0 58.0936 15.3029 889 114.828 352.528 460.872
677 0 58.0543 11.3687 660 123.186 351.498 461.791
678 0 59.0999 13.5364 800 126.135 349.909 458.955
679 0 60.1078 11.862 713 135.596 349.858 457.586
680 0 62.224 13.3068 828 135.304 348.585 455.367
681 0 66.0944 15.024 993 131.029 347.194 456.981
682 0 67.2141 14.5208 976 134.37 345.209 452.909
683 0 69.2312 11.4255 791 141.693 343.693 453.302
684 0 68.1501 13.2795 905 139.835 341.726 448.778
685 0 74.1675 16.0717 1192 133.559 341.254 451.015
686 0 75.267 12.4092 934 144.074 339.808 443.551
687 0 79.4014 13.1484 1044 141.443 339.145 445.788
688 0 80.2276 14.1099 1132 140.868 338.985 443.589
689 0 82.251 13.7506 1131 143.185 338.323 436.736
690 0 87.2895 13.3578 1166 143.167 338.323 438.391
691 1 43.0204 10.158 437 138.753 338.762 455.934
692 0 47.0184 13.5479 637 131.121 340.028 454.155
693 0 47.0504 12.3485 581 134.382 339.905 451.793
694 0 51.1614 12.3726 633 129.529 339.948 450.967
695 0 51.1746 12.5257 641 133.323 341.969 452.892
696 0 54.0803 13.8128 747 128.25 343.244 449.936
697 0 55.1999 11.5942 640 129.802 344.355 451.202
698 0 62.3848 16.0776 1003 118.424 346.348 451.798
699 0 60.1314 13.1379 790 126.49 349.213 452.781
700 0 66.7878 14.2841 954 113.058 350.987 456.54
701 0 66.2774 11.9045 789 120.496 351.929 449.11
702 0 67.3056 12.0792 813 116.278 353.091 451.676
703 0 70.323 19.5811 1377 102.634 353.816 452.493
704 0 70.1153 10.169 713 109.656 354.748 455.224
705 0 74.5333 8.90877 664 113.203 355.25 455.122
706 0 78.5214 13.9452 1095 111.351 354.677 449.903
707 0 78.2452 14.1095 1104 126.5 353.49 449.121
708 0 82.3916 14.4554 1191 122.694 353.392 447.267
709 1 45.143 12.3829 559 123.701 354.263 466.848
710 0 46.0772 9.09344 419 128.274 353.415 468.332
711 0 46.0241 11.3636 523 141.059 351.719 464.577
712 0 47.0215 10.676 502 145.98 350.141 463.96
713 0 51.0745 11.2776 576 143.71 349.559 464.104
714 0 52.1146 12.4341 648 142.934 347.995 461.002
715 0 53.2137 16.3492 870 132.856 343.115 459.592
716 0 54.0861 13.0163 704 140.824 341.433 459.533
717 0 55.082 13.1622 725 145.259 339.894 457.901
718 0 57.0374 14.885 849 141.111 337.744 457.372
719 0 59.0378 12.6529 747 144.89 337.768 456.719
720 0 62.0914 15.7832 980 138.565 337.235 453.58
721 0 62.0931 13.0127 808 146.209 336.663 452.293
722 0 65.0204 14.78 961 143.786 337.037 449.947
723 0 66.0891 13.4667 890 146.909 337.5 448.144
724 0 67.0906 14.2494 956 145.792 337.84 446.377
725 0 72.1475 14.0407 1013 143.744 337.96 447.418
726 0 71.1722 13.5025 961 147.19 338.631 443.753
727 1 41.0465 12.9609 532 140.165 339.797 460.218
728 0 42.0274 12.4205 522 137.648 340.954 461.056
729 0 43.1515 10.5211 454 144.485 342.315 458.557
730 0 47.1513 11.4101 538 135.615 344.537 459.335
731 0 47.0764 13.1488 619 132.493 345.63 456.596
732 0 51.2226 15.1691 777 123.066 349.462 459.409
733 0 49.0575 13.6778 671 122.59 352.814 458.389
734 0 53.0444 14.1202 749 119.323 354.32 458.697
735 0 54.0803 15.8468 857 116.553 354.674 459.98
736 0 55.115 13.0999 722 120.098 356.006 460.49
737 0 57.2639 12.7305 729 120.326 355.663 461.634
738 0 57.0662 13.8786 792 124.266 355.212 458.332
739 0 58.0434 15.6262 907 119.395 355.077 462.138
740 0 63.1428 14.7127 929 118.51 355.238 464.145
741 0 61.0976 13.814 844 126.113 354.204 461.685
742 0 64.0698 14.7964 948 131.87 352.715 462.706
743 0 66.0663 16.0142 1058 130.974 350.75 458.763
744 0 69.1232 15.5519 1075 131.073 349.715 460.355
745 0 70.1459 13.5289 949 136.086 348.186 459.057
746 0 72.1204 13.8102 996 137.5 344.986 457.554
747 0 75.1182 14.1377 1062 135.801 343.425 453.602
748 1 42.0781 10.1953 429 138.252 341.993 473.529
749 0 41.0273 9.89584 406 141.241 340.554 472.103
750 0 39.0115 5.9726 233 150.807 339.691 471.665
751 0 46.1948 15.8892 734 129.884 338.296 468.322
752 0 48.0417 12.4892 600 138.69 337.902 468.567
753 0 49.17 12.6907 624 140.308 339.958 466.917
754 0 49.1989 15.8134 778 133.834 339.386 464.09
755 0 50.1137 14.2077 712 137.098 339.11 461.913
756 0 52.064 13.3682 696 139.063 338.364 462.102
757 0 51.1094 12.62 645 144.174 338.45 459.915
758 0 55.097 10.8354 597 146.131 339.07 459.136
759 0 57.1083 14.7789 844 137.436 339.314 459.874
760 0 60.2692 15.829 954 134.976 339.762 456.132
761 0 61.2106 12.9553 793 141.735 340.755 456.909
762 0 65.2789 14.124 922 137.031 342.292 455.033
763 0 66.274 14.7116 975 137.699 343.265 454.331
764 0 69.2403 13.3304 923 138.413 346.037 456.168
765 0 73.3223 13.7612 1009 134.371 347.139 452.751
766 0 74.1436 13.811 1024 132.263 348.409 454.278
767 1 39.1106 10.8666 425 134.635 349.946 468.421
768 0 42.0871 10.3119 434 133.806 351.323 469.53
769 0 41.1061 11.5555 475 136.863 351.84 470.811
770 0 43.1396 11.173 482 134.755 352.224 474.18
771 0 46.0762 14.2807 658 128.456 352.126 472.647
772 0 48.0567 15.9395 766 133.399 352.085 471.796
773 0 49.2415 17.1197 843 130.83 352.237 470.569
774 0 51.0674 13.864 708 136.794 351.143 473.569
775 0 53.1429 13.5484 720 138.117 350.531 472.411
776 0 53.3535 13.6448 728 138.723 348.497 469.949
777 0 57.2562 13.2737 760 142.262 347.595 470.429
778 0 55.2115 12.425 686 146.143 346.602 468.147
779 0 60.2015 16.3949 987 136.181 344.474 467.596
780 0 61.2645 16.339 1001 135.849 342.339 468.05
781 0 60.2137 14.2326 857 144.026 340.953 463.573
782 0 65.2058 15.5968 1017 139.088 339.226 462.04
783 0 63.1434 14.6334 924 143.366 338.2 456.588
784 0 67.1579 13.3715 898 144.294 337.61 458.698
785 0 68.1083 13.8309 942 144.417 336.873 456.5
786 0 72.1713 14.7981 1068 143.125 335.929 452.488
787 0 76.1933 15.9332 1214 138.9 335.521 452.334
788 0 76.1581 14.982 1141 145.318 335.232 446.27
789 0 81.4312 14.9943 1221 144.362 335.098 444.731
790 0 80.2426 12.8485 1031 152.215 335.846 443.987
791 0 84.2756 15.0933 1272 145.344 336.106 437.894
792 0 88.1984 15.261 1346 144.03 336.374 438.085
793 0 89.2285 15.3314 1368 143.249 337.01 435.694
794 0 92.2014 13.3512 1231 146.148 337.522 431.743
795 0 93.0583 13.7656 1281 143.988 338.876 427.898
796 0 97.216 13.3929 1302 141.451 340.576 429.286
797 1 55.1518 14.7049 811 129.499 342.877 448.82
798 0 54.1452 11.6908 633 135.36 343.494 448.46
799 0 59.0537 11.5319 681 132.717 344.68 449.612
800 0 60.1346 12.4388 748 131.754 346.243 447.54
801 0 62.1175 15.841 984 124.25 349.082 451.31
802 0 65.1888 11.5357 752 130.653 350.251 450.222
803 0 65.1773 14.6984 958 122.646 352.264 446.525
804 0 68.3924 11.8288 809 128.326 352.304 448.409
805 0 70.1603 14.6949 1031 131.225 352.117 446.366
806 0 74.0961 16.5326 1225 127.433 352.462 448.997
807 0 75.1251 11.8735 892 136.714 353.145 446.039
808 0 70.1016 10.8557 761 137.547 352.72 440.895
809 1 80.0959 15.0195 1203 129.439 351.896 442.543
810 0 85.4514 16.5591 1415 129.114 350.775 442.792
811 0 89.1216 16.6514 1484 128.887 349.92 445.342
812 0 90.1378 15.321 1381 137.022 349.421 446.794
813 0 93.1692 17.216 1604 136.739 347.93 443.994
814 1 53.0463 10.9904 583 143.146 347.755 466.619
815 0 54.0831 12.7951 692 143.699 346.321 463.032
816 0 56.0965 14.4751 812 138.282 344.106 463.862
817 0 52.1419 10.2413 534 148.599 344.264 459.936
818 0 58.2751 14.4315 841 139.477 341.967 458.317
819 0 62.3191 14.6825 915 134.493 342.094 457.099
820 0 63.1128 14.4186 910 138.187 341.798 452.074
821 0 65.1605 13.1368 856 137.541 341.59 453.039
822 0 66.1174 12.7954 846 138.421 342.565 451.411
823 0 70.2345 14.5085 1019 134.529 341.869 448.801
824 0 72.1311 16.0957 1161 130.571 343.268 449.077
825 0 74.1103 16.9882 1259 128.697 343.354 447.191
826 0 78.3403 15.7901 1237 130.811 343.314 445.086
827 0 78.1795 13.0597 1021 136.294 344.343 443.221
828 0 82.3421 14.8284 1221 131.057 345.328 438.67
829 0 85.0986 14.5243 1236 125.566 347.341 442.71
830 0 89.364 14.4353 1290 131.523 347.92 441.54
831 0 91.4333 14.5024 1326 123.571 350.375 438.79
832 0 96.5245 21.0724 2034 114.803 350.742 432.687
833 0 99.542 17.1586 1708 114.042 353.263 437.927
834 0 107.581 13.2737 1428 115.696 354.433 440.574
835 0 106.461 15.8461 1687 113.278 354.812 434.09
836 0 108.373 15.8988 1723 108.734 355.688 432.844
837 0 114.103 21.5682 2461 103.796 355.225 430.715
838 1 58.0658 8.61092 500 112.92 356.882 458.716
839 0 61.2281 11.89 728 112.174 356.109 458.124
840 0 67.4037 23.7969 1604 101.049 355.206 463.181
841 0 68.497 25.388 1739 102.66 354.842 459.411
842 0 65.105 15.2369 992 122.545 354.979 458.852
843 0 67.2052 14.5376 977 131.809 353.488 458.068
844 0 69.1406 13.8414 957 131.931 352.225 457.496
845 0 74.1085 14.7082 1090 127.812 350.691 460.181
846 0 73.0995 13.5021 987 136.449 349.105 457.263
847 0 74.1544 15.4677 1147 133.179 347.797 452.164
848 0 77.0958 16.499 1272 131.483 346.208 454.021
849 0 78.2731 15.0754 1180 135.261 344.597 450.392
850 0 83.1954 16.299 1356 132.165 343.78 450.06
851 0 81.2144 13.4951 1096 139.473 342.946 448.13
852 0 87.3544 15.1452 1323 135.243 341.745 442.769
853 0 88.2701 14.7728 1304 137.215 340.792 442.133
854 0 93.3424 17.5269 1636 130.551 340.471 440.743
855 0 93.2298 16.8187 1568 132.147 339.674 436.899
856 0 99.3557 17.2813 1717 129.74 339.066 435.976
857 1 55.0969 10.6721 588 138.789 340.337 456.01
858 0 53.2444 5.91612 315 142.317 341.521 456.902
859 0 57.2393 10.0106 573 141.246 341.784 451.103
860 0 59.2548 11.6109 688 139.343 341.906 449.471
861 0 64.4793 12.4846 805 135.337 343.386 450.924
862 0 64.2063 13.8927 892 135.83 344.878 450.656
863 0 66.1088 16.6392 1100 129.796 346.542 446.463
864 0 68.1946 12.2297 834 137.763 347.719 447.734
865 0 72.4879 15.2163 1103 126.928 349.625 448.788
866 0 77.4776 14.0686 1090 128.522 350.347 447.585
867 0 74.1682 14.5345 1078 129.087 351.603 444.414
868 0 78.1812 17.1397 1340 120.983 352.538 445.614
869 0 81.368 13.6786 1113 124.68 353.733 444.433
870 0 84.3902 14.6936 1240 126.398 353.283 447.585
871 0 86.3123 11.3078 976 135.559 353.939 443.11
872 0 89.3268 16.3333 1459 126.411 352.876 444.138
873 0 92.2366 15.2 1402 134.18 353.305 439.206
874 0 93.3141 12.2704 1145 136.8 352.43 439.807
875 0 95.3155 11.9183 1136 140.128 352.035 443.904
876 1 48.0409 10.2621 493 139.787 352.357 462.886
877 0 55.0895 13.3056 733 138.999 348.748 462.637
878 0 55.1533 12.0573 665 143.278 348.477 460.316
879 0 57.1953 10.9275 625 143.923 349.558 463.11
880 0 57.1397 11.0256 630 143.924 346.875 462.69
881 0 62.1505 11.9066 740 142.277 345.781 460.02
882 0 64.1005 12.1528 779 143.314 343.847 453.341
883 0 66.1255 13.3383 882 141.556 342.601 454.486
884 0 66.1873 12.4948 827 143.917 341.3 447.77
885 0 68.2332 12.7211 868 145.302 340.384 444.759
886 0 69.0888 10.6095 733 149.255 339.737 446.411
887 0 73.3381 12.6128 925 146.457 339.388 443.192
888 0 75.1848 12.3695 930 147.225 338.805 440.325
889 0 77.1893 12.3204 951 149.122 339.073 438.375
890 0 82.2432 14.3234 1178 144.735 338.739 438.414
891 0 87.1261 13.2107 1151 146.496 338.659 438.178
892 0 88.0834 12.806 1128 149.832 339.824 434.018
893 0 93.2719 13.6268 1271 147.636 339.541 432.402
894 0 94.286 11.6242 1096 150.762 341.132 435.713
895 1 53.1167 9.13084 485 150.151 343.01 452.445
896 0 56.1009 13.3153 747 139.293 343.535 450.222
897 0 57.137 10.9211 624 136.893 345.019 452.436
898 0 61.1509 13.0497 798 126.846 348.128 449.602
899 0 63.1125 14.8465 937 123.694 349.211 448.716
900 0 63.1681 13.3295 842 127.972 349.417 448.993
901 0 64.0626 12.7219 815 128.371 350.445 453.666
902 0 68.1047 12.6423 861 127.925 351.329 450.559
903 0 70.1957 15.6277 1097 122.659 351.848 450.89
904 0 71.1233 11.1918 796 125.41 353.06 455.752
905 0 73.1245 13.4838 986 128.231 352.72 449.992
906 0 77.143 14.7389 1137 126.35 352.937 450.77
907 0 79.1849 14.0052 1109 126.662 350.989 446.289
908 0 81.1964 14.077 1143 128.582 350.3 444.928
909 0 85.2064 13.1328 1119 131.714 349.265 449.187
910 0 88.1537 13.4651 1187 134.5 348.56 445.067
911 0 89.3875 12.7199 1137 143.073 347.158 444.433
912 0 93.1808 13.7367 1280 141.551 346.673 440.461
913 0 96.1044 14.1097 1356 140.339 345.647 441.39
914 1 52.0451 8.22364 428 147.526 343.285 455.93
915 0 58.1108 8.39774 488 143.738 342.121 457.199
916 0 58.1235 9.35938 544 143.993 341.43 453.375
917 0 57.0737 6.27259 358 147.29 340.617 454.321
918 0 63.3961 12.2563 777 137.088 342.035 452.386
919 0 63.1332 10.4858 662 142.505 340.205 450.583
920 0 67.3431 9.96391 671 142.694 340.389 448.38
921 0 69.3096 16.7509 1161 129.953 340.6 449.131
922 0 69.3921 12.2925 853 140.508 340.879 445.89
923 0 72.5401 12.9584 940 139.957 340.424 441.803
924 0 79.4476 14.8777 1182 133.382 340.553 442.59
925 0 77.5017 10.8901 844 144.043 341.867 440.049
926 0 83.3221 14.3779 1198 135.193 342.08 438.763
927 0 85.4544 15.833 1353 133.824 342.771 437.078
928 0 86.2737 12.0894 1043 139.103 344.41 437.759
929 0 89.2896 13.1146 1171 135.056 346.197 434.478
930 0 93.3419 15.4379 1441 127.814 347.806 432.593
931 0 103.558 17.1787 1779 118.617 349.925 434.679
932 0 102.583 21.8944 2246 114.451 350.746 431.458
933 0 106.413 16.2199 1726 118.286 353.048 433.391
934 0 107.343 15.4365 1657 114.978 354.171 429.664
935 0 109.353 19.2587 2106 109.091 355.352 420.736
936 0 112.491 16.6769 1876 111.729 354.905 420.568
937 1 65.1584 12.6615 825 110.318 357.038 454.381
938 0 68.1588 10.1087 689 111.202 358.171 457.148
939 0 71.7794 13.7226 985 104.402 356.489 456.882
940 0 71.1028 16.1175 1146 112.805 352.798 452.301
941 0 74.2969 17.7396 1318 114.744 352.058 454.468
942 0 73.1402 13.9322 1019 123.365 352.245 454.36
943 0 77.1075 14.9143 1150 123.274 351.2 453.024
944 0 79.0797 15.1998 1202 123.638 350.313 451.245
945 0 79.1579 14.2626 1129 129.402 349.528 445.156
946 0 83.2171 14.9609 1245 130.652 348.586 450.173
947 0 84.1062 13.1025 1102 139.851 346.557 448.836
948 0 86.3931 15.6494 1352 135.561 344.814 444.218
949 1 45.1432 9.52524 430 134.242 344.146 469.33
950 0 47.1561 13.6568 644 130.342 342.557 466.401
951 0 50.2214 11.0909 557 138.465 342.7 458.776
952 0 51.3911 10.0601 517 138.607 342.629 456.967
953 0 53.3023 12.551 669 133.619 341.484 454.369
954 0 54.2578 9.27056 503 140.67 341.064 453.954
955 0 54.1171 9.01748 488 133.494 342.408 451.133
956 0 56.0557 12.8979 723 129.492 341.747 454.668
957 0 57.11 10.1733 581 134.744 341.47 453.377
958 0 61.0999 11.7349 717 131.339 341.075 451.764
959 0 60.0807 12.3833 744 133.309 342.665 447.027
960 0 62.0675 11.0364 685 134.429 343.323 447.069
961 0 66.1906 12.9021 854 129.813 345.42 448.507
962 0 68.1302 13.0339 888 124.847 347.154 449.462
963 0 70.2292 12.6301 887 126.185 348.583 445.266
964 0 71.1477 10.7101 762 121.692 351.055 440.623
965 0 72.2009 13.6563 986 114.058 353.394 442.916
966 0 77.1023 11.3486 875 115.786 354.854 447.098
967 0 79.1825 10.6084 840 110.146 355.846 439.977
968 0 83.3405 17.3745 1448 99.8094 355.683 440.352
969 0 84.3908 17.3597 1465 98.441 356.676 443.59
970 0 88.3174 16.1803 1429 99.7054 357.269 432.934
971 0 88.3051 11.5848 1023 100.973 357.37 450.304
972 0 90.3591 8.62115 779 109.592 357.028 441.86
973 0 93.3408 13.9167 1299 106.813 356.239 432.03
974 0 96.2284 14.1019 1357 108.003 355.802 436.467
975 0 98.2252 12.7055 1248 114.22 355.409 444.457
976 0 103.333 11.7485 1214 120.368 354.404 438.981
977 0 105.34 15.1984 1601 120.536 352.157 430.603
978 0 107.356 12.7613 1370 131.253 349.939 430.148
979 0 110.258 14.1123 1556 129.784 349.406 431.258
980 1 60.0757 9.30492 559 137.193 348.517 455.649
981 0 63.1353 12.1802 769 134.161 345.702 455.93
982 0 66.2717 13.4899 894 130.343 346.029 454.992
983 0 67.419 12.2221 824 136.341 344.875 454.174
984 0 69.2129 14.2604 987 134.449 343.109 447.844
985 0 71.2587 10.5671 753 141.268 341.825 447.452
986 0 73.3032 13.4237 984 136.359 340.729 443.303
987 0 79.2641 13.4109 1063 134.987 340.393 444.83
988 0 79.3939 15.5176 1232 133.366 339.856 441.568
989 0 82.366 16.2082 1335 132.198 339.588 439.163
990 0 81.3963 10.9219 889 143.898 339.489 437.85
991 0 87.4423 12.8771 1126 140.601 339.934 433.17
992 0 91.8622 15.5668 1430 132.965 339.825 432.194
993 0 92.5263 13.0666 1209 137.998 340.476 430.765
994 0 95.5202 14.4681 1382 135.989 341.289 424.974
995 0 100.278 17.0925 1714 127.593 343.18 429.887
996 0 103.238 17.6001 1817 126.177 344.773 424.514
997 1 62.313 13.5766 846 119.812 346.877 449.511
998 0 62.5203 12.9078 807 117.597 349.31 453.001
999 0 65.4123 13.2085 864 116.038 350.802 449.711
1000 0 61.3141 10.9763 673 120.214 350.658 443.459
1001 0 66.501 12.7517 848 111.338 352.219 446.667
1002 0 71.31 17.5151 1249 103.884 352.411 443.878
1003 0 77.3133 14.6547 1133 103.153 353.317 450.276
1004 0 73.3141 9.82076 720 113.046 353.422 445.876
1005 0 77.4578 11.9807 928 109.654 353.638 452.567
1006 0 76.3387 11.9861 915 110.462 354.093 451.17
1007 0 80.2756 13.6405 1095 113.607 354.457 447.136
1008 0 84.2875 12.9201 1089 119.036 354.021 448.647
1009 0 86.2046 11.2871 973 122.92 353.483 443.899
1010 0 88.2477 11.751 1037 128.003 352.423 443.338
1011 0 90.1788 11.8321 1067 131.507 351.08 448.359
1012 0 92.1489 15.5292 1431 132.628 349.57 441.531
1013 0 96.1263 15.334 1474 136.123 348.384 442.504
1014 0 100.2 12.7246 1275 139.56 347.779 444.314
1015 1 55.1406 8.85011 488 141.195 346.436 462.359
1016 0 55.1242 10.5398 581 135.151 344.931 463.181
1017 0 58.1966 12.4406 724 132.258 344.215 459.55
1018 0 59.2424 10.246 607 136.061 343.578 458.797
1019 0 62.1996 12.058 750 131.572 342.488 458.083
1020 0 61.2432 11.3645 696 135.356 341.48 452.527
1021 0 65.3722 10.8762 711 135.896 340.992 453.82
1022 0 65.48 13.9279 912 135.62 340.636 448.542
1023 0 70.3138 13.838 973 133.462 340.569 450.825
1024 0 70.2224 13.5569 952 132.432 340.629 446.755
1025 0 73.2358 13.0537 956 132.325 341.05 448.957
1026 0 77.2116 10.9051 842 135.887 340.998 448.546
1027 0 80.1512 12.5263 1004 134.94 341.509 446.447
1028 0 83.1584 13.5525 1127 134.019 342.511 442.406
1029 0 87.2421 12.6086 1100 134.991 343.758 443.609
1030 0 90.3073 12.4575 1125 134.781 345.84 443.568
1031 1 49.1196 10.2607 504 132.389 347.996 462.839
1032 0 49.2572 10.3741 511 134.45 348.957 461.315
1033 0 55.1784 13.1936 728 125.955 350.162 461.69
1034 0 56.1964 11.3175 636 122.008 350.885 461.588
1035 0 58.2848 10.7918 629 125.099 352.429 459.04
1036 0 59.4672 12.1916 725 125.022 352.902 457.357
1037 0 61.1754 13.8781 849 123.545 353.61 456.761
1038 0 63.4067 12.1281 769 128.837 353.828 461.761
1039 0 64.1054 14.5542 933 128.266 354.426 460.7
1040 0 68.0892 13.5998 926 129.635 354.172 458.548
1041 0 70.3856 17.3331 1220 127.06 352.815 460.411
1042 0 72.2507 13.7438 993 136.298 351.664 460.103
1043 0 77.3649 16.2864 1260 129.282 350.206 460.456
1044 0 78.4538 14.773 1159 131.653 348.485 458.904
1045 0 78.1832 12.9567 1013 135.458 347.215 457.45
1046 0 80.3615 11.075 890 140.262 345.094 452.689
1047 0 82.2108 12.0057 987 138.473 343.623 455.525
1048 1 46.1369 9.86196 455 136.734 343.057 470.943
1049 0 45.1523 11.3172 511 132.636 342.456 472.153
1050 0 49.1887 9.37207 461 133.38 341.308 470.015
1051 0 48.1855 12.0368 580 131.616 340.402 468.364
1052 0 52.155 12.4629 650 132.589 339.263 462.612
1053 0 55.2334 10.0483 555 134.746 338.915 463.894
1054 0 56.2263 12.2185 687 129.463 339.07 464.757
1055 0 56.2041 11.6717 656 133.936 338.791 459.954
1056 0 60.1337 15.7482 947 123.945 337.711 457.022
1057 0 63.0678 16.3475 1031 122.936 339.6 455.428
1058 0 64.1052 14.1486 907 126.566 339.568 455.476
1059 0 63.0705 13.4136 846 131.078 339.883 449.109
1060 0 66.1662 12.9674 858 130.509 340.815 451.156
1061 0 68.0366 13.3605 909 130.921 341.646 447.279
1062 0 69.0655 11.1344 769 133.694 342.468 449.443
1063 0 74.2137 12.8413 953 130.433 343.784 446.386
1064 0 73.1839 11.8605 868 131.138 345.95 442.135
1065 0 77.1997 13.5104 1043 124.254 347.808 439.954
1066 0 77.1664 14.0994 1088 118.781 349.54 447.767
1067 0 79.3276 12.4673 989 122.189 350.654 441.16
1068 0 86.1409 15.0916 1300 114.484 352.035 445.439
1069 0 91.3028 14.4026 1315 113.047 353.345 442.195
1070 0 98.6947 23.1319 2283 101.155 353.222 443.336
1071 0 93.249 13.6623 1274 108.321 354.525 442.183
1072 1 53.0958 15.0671 800 103.638 355.406 463.256
1073 0 54.1083 9.40705 509 113.957 355.442 460.607
1074 0 58.0744 13.4311 780 109.413 355.1 463.094
1075 0 59.3985 12.0373 715 114.449 353.523 460.172
1076 0 58.3435 10.4896 612 120.021 355.158 453.366
1077 0 62.1157 15.5677 967 111.652 354.036 456.408
1078 0 63.1831 16.0644 1015 113.89 352.953 458.803
1079 0 67.2245 15.0243 1010 114.586 352.485 457.31
1080 0 70.0613 14.0591 985 118.524 351.14 455.315
1081 0 72.1497 14.5808 1052 121.17 349.652 454.113
1082 0 72.1201 14.3649 1036 127.189 347.393 455.372
1083 0 77.109 15.5754 1201 126.497 346.118 450.501
1084 0 79.1393 15.0368 1190 128.829 345.354 449.654
1085 0 79.1251 14.6982 1163 131.051 344.368 446.621
1086 0 84.2436 13.8408 1166 131.646 342.814 443.443
1087 0 88.135 19.8672 1751 120.329 342.142 442.682
1088 0 89.1952 13.0612 1165 134.364 342.173 438.139
1089 0 90.1841 12.4523 1123 135.755 342.362 434.707
1090 1 48.0607 12.7339 612 131.33 341.422 455.49
1091 0 47.0545 6.73687 317 137.558 340.366 458.694
1092 0 50.0458 9.65116 483 129.424 340.774 460.118
1093 0 53.0474 11.386 604 130.389 341.081 455.995
1094 0 57.1207 14.0229 801 124.613 341.735 453.492
1095 0 59.1833 13.4666 797 127.842 344.276 453.345
1096 0 57.0983 13.3104 760 123.242 345.637 448.72
1097 0 59.3598 14.8249 880 122.3 347.178 450.066
1098 0 63.2539 16.2362 1027 115.789 348.662 447.711
1099 0 66.3106 15.9401 1057 115.75 351.118 448.249
1100 0 66.3106 16.0306 1063 125.449 353.146 448.223
1101 0 73.2651 18.5491 1359 103.988 354.358 449.757
1102 0 77.9188 12.3462 962 109.165 355.335 451.548
1103 0 75.2871 14.1193 1063 106.523 355.988 451.195
1104 0 79.4049 14.5457 1155 105.07 356.69 452.294
1105 0 79.4565 16.1094 1280 105.394 356.352 449.566
1106 0 82.2918 12.3949 1020 107.117 357.973 451.17
1107 0 87.3451 13.7043 1197 111.247 357.267 450.216
1108 0 86.4653 15.4166 1333 117.233 356.139 447.604
1109 0 87.4676 13.6165 1191 124.133 355.332 447.315
1110 0 90.7956 16.6748 1514 122.019 354.394 444.022
1111 0 89.4793 15.389 1377 128.678 352.627 442.845
1112 0 90.2194 13.0903 1181 142.727 351.474 441.68
1113 1 50.1625 13.3367 669 135.045 350.679 465.483
1114 0 53.3786 10.7346 573 137.195 349.422 466.686
1115 0 52.2247 11.259 588 135.959 348.359 469
1116 0 55.1557 11.2772 622 140.992 346.003 461.867
1117 0 58.311 10.9413 638 142.926 343.89 460.875
1118 0 58.253 13.2525 772 138.595 342.381 459.931
1119 0 63.1914 12.66 800 136.308 341.874 461.529
1120 0 60.0662 11.8536 712 144.392 340.923 455.22
1121 0 67.1307 14.5835 979 136.361 340.488 456.496
1122 0 70.1546 16.4209 1152 133.563 339.762 455.651
1123 0 71.1185 14.8485 1056 137.646 339.009 452.526
1124 0 74.1196 15.1512 1123 137.752 338.467 451.453
1125 0 78.1858 15.8597 1240 135.668 338.511 449.912
1126 0 78.2311 16.4896 1290 136.981 338.239 446.66
1127 0 80.283 15.0966 1212 140.672 338.569 445.089
1128 0 84.2894 15.079 1271 142.472 339.193 441.22
1129 0 88.2048 13.7067 1209 144.931 339.943 443.409
1130 0 89.2131 14.1235 1260 145.261 341.482 441.636
1131 0 93.2361 16.9784 1583 139.717 342.12 440.758
1132 1 51.1471 9.48245 485 150.309 344.744 461.633
1133 0 48.0851 9.12965 439 155.531 346.349 460.747
1134 0 49.0696 11.392 559 150.453 348.055 458.524
1135 0 55.1861 13.7897 761 139.263 349.561 459.095
1136 0 56.1522 14.1402 794 143.414 350.066 459.928
1137 0 54.0755 12.3531 668 150.353 350.97 457.982
1138 0 58.1798 14.163 824 142.227 348.76 461.181
1139 0 64.0881 15.4319 989 136.023 349.144 460.656
1140 0 65.1234 14.9409 973 141.819 348.608 460.93
1141 0 66.1506 14.6333 968 145.656 348.518 459.76
1142 0 70.261 15.1293 1063 142.923 347.75 462.064
1143 0 71.1515 16.4016 1167 140.524 347.114 461.272
1144 0 75.4633 17.3727 1311 140.231 346.011 458.735
1145 0 75.2834 13.2167 995 151.237 344.425 454.702
1146 0 80.1904 17.6954 1419 140.871 342.901 454.257
1147 0 83.4486 15.3028 1277 144.934 341.677 453.785
1148 0 84.4653 17.6522 1491 141.123 340.48 450.604
1149 0 88.7351 15.4392 1370 148.475 338.753 447.177
1150 0 90.314 16.199 1463 149.397 337.569 443.131
1151 0 94.7627 17.5174 1660 144.966 337.04 440.704
1152 0 96.4763 15.3509 1481 145.083 336.226 436.864
1153 0 96.2897 14.0306 1351 146.86 336.133 437.745
1154 0 98.4036 15.0808 1484 146.708 335.764 430.468
1155 0 101.639 16.0765 1634 143.363 336.42 432.597
1156 0 107.719 16.3944 1766 141.366 336.925 430.841
1157 0 110.664 15.0727 1668 142.435 337.547 432.409
1158 0 111.494 13.7586 1534 149.881 337.424 424.342
1159 0 113.443 12.861 1459 151.425 338.5 423.642
1160 0 117.428 17.4234 2046 142.393 339.841 421.338
1161 0 123.387 15.2934 1887 146.556 340.368 420.403
1162 0 125.379 16.3663 2052 142.6 340.957 415.928
1163 0 127.421 14.5894 1859 144.907 342.487 412.399
1164 0 134.543 14.7314 1982 142.581 344.14 413.637
1165 0 138.346 12.3964 1715 141.199 346.416 416.796
1166 0 144.365 14.7751 2133 142.365 347.652 407.397
1167 0 150.45 15.8059 2378 134.66 349.379 408.968
1168 0 153.396 14.8114 2272 131.519 350.439 411.836
1169 0 158.498 14.3914 2281 133.047 352.126 404.969
1170 0 162.408 12.7395 2069 132.186 352.507 413.167
1171 0 168.48 13.8414 2332 130.608 353.185 409.613
1172 0 174.513 15.2367 2659 131.177 352.719 403.876
1173 0 179.677 15.0548 2705 132.325 352.757 397.095
1174 0 185.636 14.7924 2746 132.793 353.343 397.277
1175 0 188.875 15.9788 3018 134.584 352.803 397.209
1176 0 195.946 14.356 2813 140.641 352.466 383.969
1177 0 204.059 16.9412 3457 135.674 351.611 381.097
1178 0 208.689 16.6995 3485 139.685 350.856 383.62
1179 0 216.968 16.643 3611 145.985 350.248 378.923
1180 0 221.849 15.8081 3507 147.847 348.892 380.615
1181 1 51.4084 8.20877 422 140.82 348.145 457.749
1182 0 53.1414 8.24216 438 140.194 347.08 455.74
1183 0 54.2239 9.46078 513 141.435 346.092 449.589
1184 0 59.0293 12.011 709 135.291 344.726 449.647
1185 0 59.1165 12.1117 716 134.538 342.309 448.352
1186 0 62.314 13.8171 861 132.413 341.56 452.546
1187 0 63.1942 13.7354 868 134.478 340.097 449.135
1188 0 67.1858 13.5892 913 133.628 339.547 448.647
1189 0 70.1752 13.8511 972 133.642 339.157 445.588
1190 0 71.1608 11.1859 796 140.396 339.325 442.783
1191 0 72.38 10.9975 796 141.181 339.784 442.636
1192 0 74.1921 10.7289 796 143.005 340.438 441.377
1193 0 78.1287 12.3514 965 139.803 341.135 435.748
1194 0 82.1106 14.6388 1202 135.505 341.591 435.35
1195 1 50.1564 10.3875 521 133.23 342.397 452.432
1196 0 47.3941 8.22887 390 137.369 343.915 444.438
1197 0 55.2624 9.31918 515 127.507 345.115 446.501
1198 0 55.345 12.5395 694 124.526 347.487 441.965
1199 0 57.3909 13.0683 750 116.727 349.509 442.101
1200 0 58.3816 12.4183 725 122.539 350.887 438.421
1201 0 60.226 13.3829 806 117.877 351.656 436.061
1202 0 62.1814 14.7472 917 104.547 352.258 449.05
1203 0 66.5346 12.3094 819 110.051 354.83 452.409
1204 0 70.2908 15.0518 1058 101.886 356.593 451.457
1205 0 66.2413 13.1187 869 107.679 356.476 448.864
1206 0 70.3282 15.8685 1116 105.204 356.406 451.815
1207 0 75.3625 15.578 1174 109.487 356.428 453.349
1208 0 75.1044 14.7661 1109 122.393 353.442 448.567
1209 0 78.2151 13.6547 1068 126.149 353.501 450.684
1210 0 84.242 13.2832 1119 126.44 351.52 441.094
1211 0 82.166 13.1441 1080 133.053 350.494 437.237
1212 0 84.1549 11.4194 961 139.439 349.723 439.657
1213 0 88.1138 12.7449 1123 143.167 348.252 433.751
1214 1 52.2319 9.15149 478 137.95 346.868 460.554
1215 0 55.0917 12.1616 670 133.522 345.245 461.94
1216 0 55.0841 12.49 688 133.91 343.682 461.776
1217 0 55.1023 10.907 601 138.386 342.324 461.062
1218 0 57.1063 13.3085 760 136.721 341.159 457.401
1219 0 61.1167 12.8116 783 135.294 339.895 457.641
1220 0 59.0794 12.881 761 138.742 339.046 455.347
1221 0 64.0915 16.024 1027 131.536 337.663 456.28
1222 0 62.1847 13.7815 857 136.496 337.32 454.062
1223 0 64.0521 14.9253 956 132.424 337.33 453.701
1224 0 67.1586 14.6965 987 133.129 337.684 451.081
1225 0 69.1401 13.827 956 135.987 337.65 451.145
1226 0 70.0536 13.6039 953 136.898 338.401 448.307
1227 0 71.098 14.909 1060 135.111 339.256 448.243
1228 0 73.2948 14.7214 1079 135.619 339.934 449.012
1229 0 75.1849 13.6331 1025 140.296 342.345 445.295
1230 0 78.1593 14.7007 1149 135.998 343.701 442.289
1231 0 81.2681 16.3164 1326 133.105 345.612 442.567
1232 0 83.3787 14.2363 1187 137.867 347.115 439.066
1233 0 87.3173 16.7435 1462 129.668 348.492 443.116
1234 0 90.48 15.8709 1436 124.538 350.352 445.057
1235 0 92.277 16.3963 1513 123.036 351.822 438.072
1236 0 97.9458 16.6521 1631 121.603 352.147 439.876
1237 1 53.2875 11.1283 593 121.506 354.137 465.678
1238 0 55.1048 14.3363 790 119.219 354.36 460.581
1239 0 57.2321 12.825 734 121.199 354.557 462.281
1240 0 60.1157 12.3096 740 122.532 354.65 464.359
1241 0 63.0748 13.2224 834 125.969 353.951 466.936
1242 0 62.3228 14.1682 883 126.634 353.724 464.704
1243 0 64.069 12.0339 771 133.348 353.025 464.971
1244 0 65.1164 14.2361 927 130.273 351.909 462.153
1245 0 69.1738 19.357 1339 118.437 350.626 467.627
1246 0 72.2855 15.6325 1130 125.912 348.901 463.47
1247 0 72.3144 15.6815 1134 127.479 347.824 461.243
1248 0 70.2085 11.8647 833 137.283 346.174 458.719
1249 0 75.2261 14.5295 1093 132.771 344.624 458.496
1250 0 76.3223 14.9891 1144 133.024 343.36 457.675
1251 0 78.3263 14.8864 1166 135.011 342.434 452.549
1252 0 81.1583 13.9727 1134 136.31 340.77 452.44
1253 0 83.2178 15.6577 1303 133.117 339.347 451.93
1254 0 86.3094 16.128 1392 133.736 339.292 448.565
1255 0 88.408 14.4783 1280 138.316 339.056 448.062
1256 0 88.2221 14.7129 1298 135.787 338.286 444.979
1257 0 92.1763 14.4614 1333 134.155 337.727 444.777
1258 0 94.2642 15.9658 1505 131.73 337.452 442.882
1259 1 54.0707 9.85747 533 130.82 338.084 465.595
1260 0 53.0273 11.4847 609 130.875 338.601 462.519
1261 0 53.1037 12.0707 641 133.552 337.952 454.271
1262 0 57.2838 11.7136 671 132.599 338.064 455.297
1263 0 56.3887 10.9774 619 135.459 340.076 453.002
1264 0 63.5099 15.9345 1012 125.989 340.894 458.183
1265 0 61.0848 13.6859 836 133.183 342.337 455.311
1266 0 63.0931 11.9664 755 137.485 344.226 454.103
1267 0 68.2648 17.271 1179 124.676 345.651 455.617
1268 0 70.1089 13.208 926 129.201 347.125 452.145
1269 0 69.1614 13.3745 925 127.512 348.704 452.757
1270 0 73.1928 15.1928 1112 123.558 349.336 451.68
1271 0 74.3942 14.4232 1073 123.91 350.544 451.076
1272 0 76.3204 14.4391 1102 124.011 350.985 453.923
1273 0 75.3307 12.3854 933 131.255 351.025 451.831
1274 0 79.3101 14.727 1168 130.645 351.109 451.448
1275 0 82.2847 15.5436 1279 131.685 350.579 455.714
1276 0 83.156 15.4529 1285 137.83 350.351 451.751
1277 0 88.1816 17.3846 1533 132.89 349.831 455.804
1278 0 87.1957 16.9045 1474 136.543 348.745 453.343
1279 0 86.2514 13.5882 1172 147.631 347.328 451.676
1280 0 95.2616 18.9058 1801 132.753 345.73 449.033
1281 0 92.202 14.2513 1314 143.337 344.789 448.339
1282 0 94.2553 17.5799 1657 138.416 343.299 442.64
1283 0 97.1143 16.8358 1635 139.229 341.741 446.345
1284 0 100.286 15.9444 1599 141.72 340.34 443.636
1285 0 101.288 17.0307 1725 140.268 339.26 441.81
1286 0 103.227 15.6354 1614 143.91 338.588 437.718
1287 0 107.389 16.9105 1816 141.676 337.58 436.037
1288 0 108.234 16.067 1739 144.217 336.874 434.948
1289 0 111.339 18.3764 2046 139.867 336.565 435.532
1290 1 58.4035 11.3863 665 145.856 336.844 457.696
1291 0 61.2263 14.6996 900 139.528 336.51 458.134
1292 0 62.1515 13.9498 867 144.567 336.805 456.211
1293 0 64.3541 13.8764 893 145.617 336.916 456.146
1294 0 64.272 13.6762 879 148.223 337.538 455.903
1295 0 66.2308 14.7061 974 149.048 338.664 452.292
1296 0 67.1687 16.5404 1111 141.625 339.672 455.681
1297 0 67.1069 19.4019 1302 137.557 339.737 455.481
1298 0 71.1909 17.5163 1247 143.471 340.551 454.789
1299 0 72.0511 16.4328 1184 148.233 342.18 452.02
1300 0 73.2311 15.4443 1131 151.409 343.525 451.668
1301 0 73.1293 18.5288 1355 145.768 344.769 453.001
1302 0 74.1286 18.6433 1382 147.007 345.819 453.281
1303 0 73.0817 14.2306 1040 160.397 346.846 450.898
1304 0 77.0739 18.7742 1447 150.327 347.437 450.737
1305 0 77.0851 17.0331 1313 153.934 348.224 452.213
1306 0 77.16 16.1612 1247 159.281 348.064 451.382
1307 0 81.1128 16.9024 1371 157.21 348.223 453.729
1308 0 80.0627 18.3106 1466 156.885 348.736 453.703
1309 0 81.2327 16.1019 1308 164.416 348.002 453.278
1310 0 84.1764 17.1901 1447 160.622 347.211 455.72
1311 0 84.1096 15.5036 1304 167.195 346.347 453.438
1312 0 84.0644 14.4889 1218 170.51 344.938 454.886
1313 0 87.1378 15.9173 1387 167.17 343.405 453.663
1314 0 89.099 17.9014 1595 164.502 342.796 451.327
1315 0 92.0932 18.8396 1735 162.138 340.796 451.702
1316 0 93.0705 16.1276 1501 171.322 339.568 446.931
1317 1 50.0543 12.6463 633 171.003 338.055 469.016
1318 0 52.0701 14.5573 758 162.596 337.507 471.714
1319 0 49.0799 11.5322 566 172.885 336.148 468.811
1320 0 49.0348 11.9915 588 173.726 335.447 466.478
1321 0 54.0892 11.481 621 175.188 334.604 465.768
1322 0 54.0385 16.4512 889 168.439 334.187 462.412
1323 0 52.0801 14.0553 732 173.372 333.865 460.992
1324 0 53.0858 12.4516 661 174.526 333.729 461.912
1325 0 56.0798 16.0486 900 167.701 333.918 458.952
1326 0 55.0495 13.3153 733 169.371 334.647 461.352
1327 0 56.0893 13.8529 777 170.279 335.329 458.618
1328 0 58.1133 15.986 929 167.907 335.619 455.55
1329 0 58.1523 14.2385 828 170.795 336.615 455.182
1330 0 58.0933 15.4407 897 167.565 337.969 455.763
1331 0 60.1475 14.0987 848 165.637 339.755 458.203
1332 0 59.14 15.0998 893 167.007 340.936 455.683
1333 0 60.155 16.1084 969 164.106 342.189 454.11
1334 0 61.1716 14.5656 891 167.508 344.66 454.57
1335 0 64.1644 14.307 918 161.52 346.561 457.147
1336 0 60.0938 15.0764 906 159.859 347.586 457.618
1337 0 61.1005 15.9082 972 161.106 348.377 458.92
1338 0 62.1209 16.5645 1029 151.677 349.07 458.638
