time division length width area intensity CMx CMy
0 0 56.1985 9.76895 549 124.004 289.909 438.55
1 0 59.2978 15.2957 907 119.159 290.959 444.247
2 0 60.3665 13.4677 813 119.806 290.737 444.599
3 0 64.3232 30.3312 1951 104.532 290.584 447.391
4 0 70.5166 18.407 1298 106.856 290.95 454.192
5 0 73.6006 20.1357 1482 113.21 291.714 445.176
6 0 69.3734 14.0111 972 118.007 291.527 447.474
7 0 74.4441 15.918 1185 118.235 291.302 442.871
8 0 75.5306 14.2194 1074 117.922 290.018 447.602
9 0 78.691 32.1511 2530 105.811 288.848 444.885
10 0 79.7411 18.6353 1486 112.622 288.153 449.972
11 0 82.9037 20.1077 1667 113.05 287.179 447.411
12 0 79.1966 14.5966 1156 119.018 286.68 447.064
13 1 42.8974 10.7233 460 114.27 286.626 464.943
14 0 42.3538 16.1261 683 117.725 284.821 455.28
15 0 46.6422 14.5148 677 119.168 283.61 458.524
16 0 46.4757 12.3936 576 125.842 282.314 458.281
17 0 49.3542 13.9806 690 129.016 280.061 455.528
18 0 49.1093 14.5186 713 131.596 278.065 457.487
19 0 53.2538 12.1682 648 141.076 277.571 451.08
20 0 53.0432 14.2525 756 138.819 277.34 450.485
21 0 54.3213 14.2301 773 140.498 275.843 449.349
22 0 58.1223 17.618 1024 134.522 276.092 445.827
23 0 58.168 11.759 684 145.652 275.447 447.098
24 0 62.1404 13.6465 848 140.203 275.383 445.234
25 0 65.0615 19.9043 1295 127.126 274.934 446.741
26 0 67.0751 16.1908 1086 135.627 275.154 438.652
27 0 67.0929 11.894 798 141.823 274.911 439.163
28 0 68.2259 13.2061 901 138.471 274.978 437.001
29 0 70.0654 12.0459 844 134.008 276.841 436.547
30 0 75.2305 18.5962 1399 120.668 278.584 434.43
31 0 79.2082 21.7528 1723 114.703 279.585 438.9
32 0 85.1664 22.7555 1938 112.03 281.878 433.093
33 0 81.338 22.1176 1799 112.602 283.155 432.136
34 0 83.2342 18.5741 1546 115.614 286.08 426.42
35 1 101.878 16.8928 1721 112.5 288.515 432.835
36 0 98.6428 20.3765 2010 113.965 289.308 422.11
37 0 103.309 23.9863 2478 110.64 289.335 426.285
38 1 53.383 14.9298 797 110.138 291.013 452.194
39 0 52.2788 21.6532 1132 106.99 290.405 452.969
40 0 58.3803 13.532 790 113.001 291.13 452.058
41 0 56.1492 20.3921 1145 107.156 290.54 454.479
42 0 60.2488 11.8509 714 112.507 290.206 458.924
43 0 59.3942 19.3622 1150 106.694 287.21 459.76
44 0 58.1475 8.63322 502 119.1 286.376 454.655
45 0 67.6794 17.2726 1169 110.906 285.471 451.742
46 0 64.2592 13.2121 849 111.184 284.012 461.02
47 0 63.1177 12.7856 807 117.663 283.446 448.009
48 0 70.2785 14.8979 1047 114.921 281.019 454.795
49 0 73.78 17.1727 1267 114.066 279.365 456.323
50 0 72.2896 14.3036 1034 128.787 277.654 448.729
51 0 76.1827 15.9485 1215 126.137 276.993 449.095
52 0 77.1874 14.9506 1154 134.492 275.611 445.903
53 0 79.0819 15.4017 1218 140.541 274.243 442.32
54 0 81.221 14.7622 1199 140.856 274.156 442.253
55 0 85.1839 15.132 1289 141.901 273.334 439.322
56 0 87.1684 15.2464 1329 146.281 272.147 436.783
57 0 89.0801 14.3915 1282 144.77 272.392 437.24
58 0 96.5926 15.995 1545 139.594 271.981 435.23
59 1 51.1102 10.9176 558 141.281 272.106 455.95
60 0 53.1404 10.1241 538 147.736 271.08 452.138
61 0 53.2296 10.6895 569 142.64 272.023 451.921
62 0 55.1231 10.7215 591 142.929 272.569 450.228
63 0 61.0741 16.0624 981 120.197 275.005 456.116
64 0 59.2612 15.3557 910 118.486 277.266 446.732
65 0 61.4728 11.7125 720 119.25 279.147 443.139
66 0 68.8771 20.5438 1415 105.39 281.327 448.893
67 0 66.7987 23.3537 1560 101.742 283.228 452.678
68 0 73.0403 17.1138 1250 108.475 285.763 447.33
69 0 71.2116 18.0167 1283 110.307 286.852 444.684
70 0 74.9748 19.5532 1466 108.3 287.832 447.218
71 0 73.5102 17.9975 1323 112.146 288.466 441.286
72 0 81.2569 15.3956 1251 107.6 289.664 456.333
73 0 80.2598 18.2034 1461 108.541 289.491 454.856
74 0 84.3305 17.5619 1481 107.733 289.236 455.022
75 0 84.3361 12.7703 1077 114.816 289.326 450.607
76 0 86.0979 26.133 2250 108.907 287.133 441.528
77 0 91.569 26.1115 2391 106.059 285.992 450.923
78 0 93.2732 17.497 1632 114.712 285.871 444.577
79 0 101.783 22.0567 2245 110.004 285.938 448.222
80 0 96.4176 16.5219 1593 116.455 284.696 444.103
81 0 98.6953 14.9349 1474 121.05 282.879 440.249
82 0 106.444 16.7223 1780 121.793 281.204 438.843
83 0 107.438 15.9441 1713 129.518 279.636 435.273
84 0 106.288 12.6166 1341 131.461 277.946 430.194
85 1 56.2061 14.5536 818 124.171 277.434 459.718
86 0 64.779 13.878 899 130.575 275.644 459.623
87 0 60.1795 11.2497 677 138.078 275.177 456.347
88 0 64.3627 15.5991 1004 133.968 273.212 450.807
89 0 65.1801 14.0534 916 138.976 273.733 450.324
90 0 69.1982 19.278 1334 128.13 272.509 449.238
91 0 68.3094 14.2733 975 138.488 273.122 445.677
92 0 73.3477 17.0012 1247 132.694 272.585 444.344
93 0 75.5246 16.9878 1283 133.624 272.27 442.794
94 0 78.4077 16.5545 1298 134.682 272.099 442.212
95 0 80.4854 16.239 1307 131.37 273.002 441.719
96 0 84.1366 17.9946 1514 127.092 273.236 441.846
97 0 86.2973 15.6436 1350 136.49 274.323 437.568
98 0 88.2876 18.1792 1605 125.356 276.7 436.809
99 0 90.4814 16.9317 1532 123.354 278.736 434.458
100 0 95.5619 18.0197 1722 118.221 280.302 434.829
101 0 98.8031 12.4895 1234 122.014 282.027 434.379
102 0 103.856 21.5394 2237 112.222 282.771 432.923
103 0 108.664 26.2368 2851 109.282 283.756 425.561
104 0 106.585 13.6886 1459 117.626 285.755 432.582
105 0 106.417 13.7666 1465 118.955 285.605 428.81
106 1 61.6839 13.9096 858 113.401 285.206 452.627
107 0 65.2096 18.1875 1186 108.564 286.302 454.697
108 0 66.6699 20.939 1396 103.953 285.441 461.388
109 0 71.6855 21.7059 1556 106.67 285.783 452.895
110 0 75.8104 20.5777 1560 105.8 284.667 456.856
111 0 72.2189 18.804 1358 112.136 284.125 445.802
112 0 74.2213 19.0242 1412 107.918 283.304 458.511
113 0 74.4446 25.8179 1922 106.096 282.31 453.829
114 0 79.1338 17.085 1352 113.662 281.59 448.927
115 0 85.7967 27.4952 2359 103.165 280.171 457.411
116 0 85.63 14.2707 1222 116.65 278.706 451.12
117 1 48.1689 14.0755 678 111.763 276.649 468.968
118 0 49.0949 15.8876 780 113.408 275.214 467.36
119 0 54.6622 13.6474 746 125.129 273.412 466.055
120 0 49.1675 13.3015 654 128.612 273.599 462.456
121 0 54.7992 16.0586 880 122.844 272.427 462.788
122 0 49.0712 12.0437 591 133.812 270.047 461.015
123 0 51.022 13.8568 707 131.156 268.805 459.188
124 0 53.1028 13.9917 743 132.268 269.122 455.374
125 0 56.0899 13.6032 763 132.337 268.443 453.088
126 0 58.1697 17.5349 1020 123.258 268.126 452.932
127 0 58.1078 12.5112 727 131.055 267.882 453.045
128 0 62.1394 18.2976 1137 122.159 268.218 448.859
129 0 63.1565 19.0321 1202 119.313 269.075 448.174
130 0 63.0992 14.3742 907 121.508 269.648 447.732
131 0 66.1366 11.0378 730 121.629 271.321 447.915
132 0 71.1853 19.2455 1370 109.678 272.724 444.62
133 0 70.231 18.6812 1312 109.677 275.426 441.319
134 1 150.229 15.8957 2388 114.859 278.447 415.75
135 0 156.21 17.7517 2773 111.633 280.242 416.671
136 0 163.18 20.8114 3396 112.551 281.54 402.903
137 0 175.729 20.5999 3620 109.334 282.493 413.719
138 0 167.729 11.7094 1964 119.777 283.407 394.914
139 0 176.932 12.3325 2182 117.996 283.865 397.727
140 0 178.917 24.1732 4325 111.635 283.083 383.132
141 1 51.0733 17.6022 899 104.602 282.542 460.533
142 0 50.1571 33.9334 1702 96.2056 282.42 461.571
143 0 50.1571 34.0331 1707 102.359 282.418 461.488
144 0 56.3535 13.4153 756 105.003 283.39 463.177
145 0 55.2249 16.4056 906 107.97 282.713 459.471
146 0 59.4568 15.6752 932 104.665 282.186 465.292
147 0 61.1985 19.3959 1187 106.418 280.574 457.089
148 0 62.24 10.4113 648 113.5 280.167 461.861
149 0 64.3587 14.8698 957 110.697 278.319 458.573
150 0 65.1276 9.99577 651 116.823 277.081 457.977
151 0 64.0605 11.6921 749 117.624 275.549 453.347
152 0 72.2668 15.5535 1124 115.316 273.115 452.391
153 0 75.3989 17.4804 1318 116.42 272.064 449.629
154 0 78.5559 20.6732 1624 113.452 270.466 444.885
155 0 75.2096 17.0457 1282 114.803 269.54 452.645
156 0 79.1449 17.2974 1369 117.916 268.959 446.234
157 0 83.2668 16.7534 1395 117.907 268.563 440.876
158 1 41.0749 14.1693 582 115.079 268.046 459.93
159 0 43.1511 9.06117 391 117.225 267.509 463.212
160 0 46.3487 13.6789 634 112.468 268.388 458.47
161 0 47.2962 11.9883 567 115.732 268.414 455.848
162 0 46.0328 11.7742 542 114.548 268.633 452.817
163 0 51.1263 13.496 690 108.428 269.201 457.77
164 0 56.7581 19.0634 1082 104.011 268.998 450.403
165 0 54.2182 14.9028 808 105.525 272.726 450.141
166 0 52.164 13.4767 703 105.696 275.216 451.93
167 0 60.4596 15.2333 921 101.483 276.314 452.488
168 0 59.4034 17.0024 1010 100.202 278.229 453.26
169 0 58.3039 12.1776 710 103.442 280.241 452.454
170 0 60.591 6.13952 372 106.199 281.565 455.669
171 0 60.3526 34.9612 2110 91.255 279.435 454.67
172 0 61.101 7.16846 438 106.11 282.046 454.797
173 0 67.2686 13.959 939 101.151 282.083 455.178
174 0 67.3267 18.9078 1273 97.9961 281.714 454.21
175 0 72.3171 19.373 1401 98.394 282.522 446.083
176 0 76.1926 20.1594 1536 96.8984 281.742 451.311
177 0 74.5074 21.3267 1589 97.4984 281.606 450.559
178 0 83.8191 18.0985 1517 99.4113 280.836 445.829
179 0 77.3101 16.3239 1262 99.0642 280.078 455.62
180 0 84.5497 14.3702 1215 99.6831 279.472 456.611
181 0 92.6267 27.2492 2524 94.1101 277.721 449.9
182 1 47.4284 17.226 817 96.2154 277.439 468.163
183 0 46.0954 9.56711 441 101.578 276.272 470.905
184 0 49.0502 14.7808 725 101.688 275.283 464.177
185 0 49.1651 7.24091 356 109.396 273.815 464.685
186 0 50.111 10.6164 532 109.051 272.226 462.682
187 0 53.1118 16.8701 896 102.725 270.83 463.066
188 0 55.0749 11.0032 606 109.106 269.484 461.328
189 0 55.19 11.9043 657 112.149 269.215 454.901
190 0 62.4064 22.065 1377 101.123 268.432 455.115
191 0 58.0529 12.1269 704 112.849 268.304 454.361
192 0 60.1276 13.2385 796 114.004 267.731 449.809
193 0 63.1933 12.2323 773 111.96 267.966 456.34
194 0 65.2506 16.996 1109 107.066 268.12 450.794
195 0 68.1097 15.6512 1066 109.785 267.503 446.759
196 0 67.0666 9.69186 650 115.935 268.489 448.083
197 0 77.5821 19.8886 1543 101.441 269.881 447.776
198 0 81.3376 21.9456 1785 100.534 270.876 443.376
199 0 78.4391 26.8106 2103 96.8488 271.65 446.379
200 0 84.328 26.5867 2242 97.6748 273.413 441.377
201 1 163.315 20.9779 3426 103.862 274.763 409.834
202 0 174.36 21.8571 3811 99.9798 276.08 417.96
203 1 90.3018 21.5389 1945 99.8468 278.995 435.556
204 0 98.0362 17.1161 1678 97.8093 280.637 452.903
205 0 96.5513 17.5451 1694 102.826 281.718 439.841
206 0 104.391 15.5952 1628 103.693 281.064 441.248
207 1 49.1976 29.2494 1439 91.779 280.826 462.788
208 0 55.3495 18.8078 1041 97.9789 281.356 458.648
209 0 59.1781 29.8421 1766 92.9219 280.313 463.579
210 0 54.3394 12.0723 656 104.744 280.549 461.453
211 0 57.4141 15.4318 886 99.1896 280.079 470.302
212 0 54.2347 14.9904 813 103.09 279.086 465.951
213 1 124.704 15.4445 1926 109.887 278.419 437.916
214 0 125.769 22.3346 2809 102.228 277.417 444.664
215 0 132.537 12.7587 1691 113.264 276.61 433.854
216 1 64.2437 10.4135 669 107.981 275.507 465.601
217 0 68.271 22.4253 1531 101.388 274.558 461.459
218 0 69.5033 14.9777 1041 106.973 272.619 461.972
219 0 77.1811 14.7445 1138 107.485 271.17 461.956
220 0 73.2998 15.9618 1170 111.966 269.615 456.1
221 0 74.2622 13.7351 1020 117.792 268.453 449.522
222 0 78.315 12.5008 979 119.496 266.888 452.634
223 0 83.4662 15.5752 1300 118.37 266.417 448.66
224 1 43.1444 11.6817 504 127.062 265.312 463.466
225 0 45.0762 13.6879 617 118.896 264.282 467.183
226 0 45.0986 11.9294 538 125.617 264.903 459.665
227 0 48.1646 11.1285 536 122.838 266.442 461.491
228 0 49.5897 10.8087 536 124.853 266.991 457.431
229 0 52.4759 13.7015 719 120.732 267.612 454.601
230 0 55.0844 15.086 831 121.402 268.563 455.457
231 0 56.1538 15.1548 851 119.253 269.08 453.765
232 0 58.0862 14.6162 849 117.039 271.629 451.237
233 0 62.3621 20.1404 1256 107.407 272.865 452.642
234 0 65.0497 24.7811 1612 102.105 274.384 454.427
235 0 68.2536 18.3873 1255 106.804 276.626 448.943
236 0 73.6427 16.5257 1217 101.997 278.304 459.316
237 0 72.7564 19.1736 1395 104.589 279.776 450.163
238 0 68.3415 18.3929 1257 106.217 280.506 447.377
239 1 77.4657 15.878 1230 103.569 282.1 455.619
240 0 84.51 18.696 1580 103.863 282.658 447.584
241 0 88.0612 27.0494 2382 97.7355 281.316 453.898
242 0 86.7682 34.0447 2954 96.0369 280.485 450.182
243 0 90.1536 28.0854 2532 99.6963 280.872 443.764
244 1 251.025 17.8986 4493 110.716 280.183 385.168
245 1 83.5664 18.3327 1532 106.243 279.501 443.884
246 0 90.124 17.487 1576 105.839 278.519 446.211
247 0 96.4304 26.444 2550 101.545 278.113 442.074
248 0 96.1995 14.0333 1350 110.934 277.28 441.737
249 0 97.2386 11.9706 1164 112.875 276.369 447.276
250 0 104.403 26.7139 2789 104.689 274.947 438.3
251 0 106.452 14.8048 1576 113.736 273.386 441.983
252 0 108.49 15.7157 1705 116.003 271.732 439.004
253 0 111.549 17.6336 1967 119.312 270.289 431.841
254 1 57.2395 18.1518 1039 112.929 269.926 463.658
255 0 62.398 16.2185 1012 118.808 268.683 461.274
256 0 62.4254 12.3988 774 129.589 267.506 453.748
257 0 64.5937 15.9613 1031 125.293 267.021 453.762
258 0 66.5543 19.9536 1328 119.322 265.685 449.959
259 0 67.4374 14.0723 949 129.53 265.683 448.862
260 0 68.6674 13.9513 958 131.228 265.421 446.287
261 0 73.4042 17.3015 1270 121.475 265.467 445.568
262 0 73.3111 13.7633 1009 125.141 266.3 444.634
263 0 77.3489 14.5833 1128 122.246 266.264 444.678
264 0 81.303 20.8725 1697 112.06 267.087 444.839
265 0 85.5008 19.415 1660 112.433 268.885 438.934
266 0 87.2551 16.4689 1437 113.985 270.667 440.35
267 0 84.278 12.9215 1089 116.51 272.907 438.488
268 0 93.8453 21.9084 2056 106.541 274.696 436.726
269 0 97.9386 18.3789 1800 104.008 276.274 443.899
270 0 95.3992 18.1343 1730 104.502 278.484 442.462
271 0 323.688 39.0499 12640 98.8055 276.539 319.635
272 1 159.737 16.7463 2675 108.536 280.478 416.419
273 0 167.314 21.3252 3568 107.342 280.722 403.984
274 0 171.836 30.337 5213 101.264 279.853 412.705
275 1 62.3726 27.3518 1706 95.7702 280.184 462.444
276 0 58.199 12.7322 741 107.522 279.991 457.471
277 0 64.0613 9.67822 620 107.071 278.615 461.676
278 0 64.3024 20.8701 1342 100.399 278.595 460.694
279 0 61.3484 26.5044 1626 98.1279 277.646 462.507
280 0 67.1981 11.8456 796 110.928 276.665 457.965
281 0 71.2792 30.2473 2156 97.7087 275.298 458.143
282 0 76.5561 18.7575 1436 106.031 275.07 453.905
283 0 75.3767 17.0875 1288 110.438 273.998 454.027
284 0 76.4766 14.3835 1100 116.547 272.531 444.941
285 0 81.1561 21.243 1724 112.222 270.72 447.789
286 0 80.2134 13.2148 1060 126.86 269.496 448.242
287 0 85.1585 16.0877 1370 124.869 268.726 440.486
288 0 86.4525 14.5861 1261 130.384 266.826 441.879
289 0 88.1942 13.1755 1162 133.127 266.448 443.213
290 1 49.2021 10.8125 532 134.064 265.293 462.323
291 0 50.0987 11.6769 585 134.156 264.694 458.256
292 0 52.1673 11.559 603 129.842 264.471 454.64
293 0 54.3662 13.5194 735 122.897 263.819 453.142
294 0 58.3697 16.7381 977 123.373 264.329 452.116
295 0 57.2912 13.6321 781 128.615 264.233 452.214
296 0 65.3103 15.7096 1026 122.107 265.123 451.578
297 0 63.3812 14.6731 930 123.883 266.329 449.145
298 0 65.4358 14.1818 928 121.809 267.527 446.801
299 0 65.5838 21.0723 1382 115.141 269.169 443.384
300 0 71.6452 12.7154 911 117.664 270.954 450.633
301 0 77.2425 20.1055 1553 109.22 273.066 445.773
302 0 73.1684 20.61 1508 107.106 274.266 446.528
303 0 77.4191 16.3913 1269 109.672 276.878 445.812
304 0 82.0194 18.7882 1541 107.324 278.188 445.328
305 0 82.7104 19.526 1615 107.35 279.149 440.425
306 0 85.5261 31.4056 2686 98.968 278.849 446.532
307 0 93.3346 24.0104 2241 102.379 280.059 446.177
308 0 97.2447 18.6745 1816 105.567 280.368 446.976
309 1 48.1361 8.60061 414 111.645 280.928 459.15
310 0 56.8173 19.3779 1101 100.389 280.245 462.521
311 0 50.4843 12.3207 622 110.77 279.886 459.182
312 0 52.323 12.8051 670 112.281 279.303 461.513
313 0 54.3388 13.8943 755 115.238 277.866 466.248
314 0 55.1825 13.9356 769 120.758 277.446 463.143
315 0 56.2781 14.5527 819 127.211 275.828 462.208
316 0 56.1717 14.9898 842 127.433 275.116 462.81
317 0 59.113 13.8548 819 132.028 273.319 462.015
318 0 62.1414 15.7383 978 127.237 271.932 460.183
319 0 58.3351 12.8567 750 137.609 270.943 455.184
320 0 64.0824 14.7934 948 136.733 269.441 456.832
321 0 65.2549 13.5622 885 136.493 269.347 452.749
322 0 68.1053 18.5154 1261 124.233 268.72 452.568
323 0 69.1014 15.3687 1062 131.822 268.136 446.993
324 0 73.3605 14.5719 1069 133.161 265.129 448.733
325 0 73.3242 13.2698 973 140.706 264.535 443.878
326 0 77.1646 13.9313 1075 135.389 264.481 442.443
327 1 42.0969 11.9724 504 137.585 263.972 460.264
328 0 44.0977 12.1775 537 133.816 264.182 460.38
329 0 45.1307 10.1483 458 134.895 264.295 459.703
330 0 47.029 10.8018 508 133.689 265.051 458.215
331 0 50.0831 12.4992 626 134.383 266.856 456.01
332 0 50.2319 12.064 606 123.52 268.277 454.513
333 0 52.0871 12.8823 671 117.352 270.255 455.87
334 0 49.1238 12.3158 605 121.256 275.717 454.063
335 0 54.2891 12.2492 665 114.499 276.427 455.752
336 0 54.1469 9.78819 530 113.898 277.964 454.845
337 0 60.1278 13.7041 824 108.867 278.593 453.136
338 0 59.0624 7.0942 419 113.255 279.664 461.306
339 0 63.4857 9.0099 572 111.266 280.233 462.131
340 0 65.1934 19.1584 1249 103.889 282.092 453.339
341 0 65.4208 14.2004 929 107.678 281.161 460.83
342 0 65.1246 13.3129 867 110.87 281.236 457.176
343 0 65.1246 13.3129 867 121.047 281.197 457.014
344 0 72.3851 17.1168 1239 110.627 277.385 455.257
345 0 74.1439 13.285 985 119.87 277.874 451.779
346 1 42.0147 10.7581 452 138.279 275.299 468.779
347 0 39.1959 9.38874 368 136.277 274.364 468.891
348 0 40.0464 8.93962 358 139.536 273.506 469.411
349 0 45.0617 14.3803 648 130.836 271.301 467.722
350 0 47.0927 13.6115 641 136.768 270.925 466.771
351 0 47.0477 12.8168 603 142.219 268.141 463.72
352 0 46.0603 11.8757 547 140.139 269.336 466.748
353 0 48.0452 13.6954 658 138.348 267.561 462.956
354 0 50.128 11.5504 579 142.024 266.807 462.865
355 0 50.0365 12.8706 644 139.46 265.517 460.654
356 0 51.1312 10.7958 552 143.995 264.98 458.232
357 0 56.0384 12.2238 685 137.733 262.933 456.69
358 0 58.0755 12.9831 754 136.94 262.611 453.549
359 0 57.1027 14.8154 846 132.7 262.319 455.667
360 0 63.0813 14.6636 925 130.768 263.961 450.766
361 0 61.0845 13.113 801 134.588 262.794 447.469
362 0 62.162 10.4887 652 138.244 264.707 450.704
363 0 65.203 12.7755 833 132.611 265.004 447.689
364 0 68.0871 14.2758 972 129.171 266.382 444.746
365 0 71.174 15.3989 1096 126.244 268.635 446.219
366 0 72.1886 12.7444 920 127.253 269.532 447.435
367 0 78.3527 15.1622 1188 125.56 270.275 443.37
368 1 40.0739 8.65901 347 127.939 272.006 462.101
369 0 45.1501 15.7032 709 111.776 274.09 464.213
370 0 46.0743 15.6921 723 109.339 276.302 461.686
371 0 51.155 18.5124 947 104.377 277.169 466.006
372 0 51.2096 17.0866 875 105.242 278.936 467.933
373 0 51.4744 14.0264 722 113.658 278.807 462.619
374 0 57.3644 13.4404 771 108.744 279.702 470.143
375 0 54.2814 16.8197 913 107.484 280.623 462.596
376 0 56.4731 18.7169 1057 106.284 280.61 463.465
377 0 54.2227 14.2376 772 113.376 280.123 466.389
378 0 55.1571 18.1119 999 118.454 278.539 462.64
379 0 55.1503 15.4849 854 126.711 277.831 462.457
380 0 59.159 14.4526 855 129.675 277.191 463.077
381 0 61.0682 15.3435 937 131.459 275.365 464.436
382 0 61.236 13.4725 825 140.219 274.808 460.801
383 0 65.1763 14.7446 961 140.649 272.915 460.83
384 0 66.0899 13.0731 864 147.646 271.788 458.366
385 0 67.1727 13.7854 926 147.97 270.191 456.235
386 0 70.125 14.6881 1030 145.477 268.717 457.102
387 0 71.3333 13.7804 983 147.467 268.072 456.375
388 0 73.1115 13.7735 1007 151.526 267.369 450.621
389 0 80.1629 14.3583 1151 147.666 266.578 449.104
390 0 83.241 16.6384 1385 141.709 266.232 448.308
391 1 39.0527 10.5242 411 150.45 265.961 466.36
392 0 45.1152 11.3931 514 151.177 265.572 463.698
393 0 46.1213 14.3534 662 143.769 265.627 460.166
394 0 46.0344 13.012 599 146.529 266.257 458.928
395 0 50.0983 15.1103 757 138.91 266.65 458.503
396 0 51.0314 13.6191 695 146.577 266.738 457.273
397 0 56.1951 16.4605 925 129.518 267.835 456.907
398 0 56.1622 14.5828 819 132.963 269.062 455.56
399 0 56.1597 14.9217 838 131.334 270.434 454.021
400 0 60.1285 18.2942 1100 121.543 272.695 452.963
401 0 60.1061 15.3395 922 123.016 274.838 455.376
402 0 63.1086 19.1416 1208 111.604 276.66 458.178
403 0 60.2696 15.0158 905 116.029 278.674 450.307
404 0 65.266 19.6733 1284 108.608 280.116 453.818
405 0 65.2043 12.1464 792 115.994 280.592 454.047
406 0 69.1149 19.0118 1314 109.092 280.049 453.752
407 0 73.4948 21.1035 1551 105.502 280.535 455.036
408 0 73.1851 18.1731 1330 110.463 280.629 452.083
409 0 74.3121 21.6923 1612 109.475 279.842 448.42
410 0 80.4118 15.2341 1225 121.091 278.738 456.042
411 0 78.2954 13.7301 1075 128.979 278.251 449.726
412 0 83.2991 20.2643 1688 124.087 277.278 447.401
413 1 40.0358 8.74218 350 140.569 277.117 474.051
414 0 45.0393 11.9895 540 137.75 275.317 472.604
415 0 46.0236 15.1444 697 135.35 274.766 470.44
416 0 47.0743 13.2132 622 144.85 273.381 469.741
417 0 50.1518 15.6326 784 140.599 269.362 465.577
418 0 51.1803 13.3254 682 148.287 268.059 466.334
419 0 53.1862 14.2894 760 146.849 266.978 463.462
420 0 53.0692 17.2228 914 139.761 265.844 465.375
421 0 54.083 13.3683 723 149.082 264.621 462.952
422 0 57.0795 15.382 878 143.067 264.484 461.44
423 0 59.0394 15.7183 928 140.744 263.884 460.777
424 0 58.122 14.8309 862 144.827 263.921 458.875
425 0 63.0423 15.2596 962 142.517 263.342 453.493
426 0 65.1973 14.4638 943 144.209 263.026 452.836
427 0 65.0766 13.1845 858 149.178 263.336 449.395
428 0 69.1563 16.629 1150 139.317 263.379 448.41
429 0 69.0777 14.158 978 146.573 264.534 448.809
430 0 71.0811 14.8141 1053 144.076 264.751 448.076
431 0 76.1311 16.7737 1277 136.406 266.418 444.749
432 0 77.0686 15.4797 1193 137.994 267.838 444.363
433 0 79.0576 17.7466 1403 134.411 269.131 444.683
434 0 84.0803 17.1146 1439 130.064 272.377 444.662
435 0 88.5308 28.7697 2547 111.249 273.982 442.285
436 0 91.7983 16.9284 1554 118.685 275.657 445.794
437 0 93.2867 16.6369 1552 115.341 277.769 440.796
438 0 93.2867 16.6905 1557 141.012 280.786 440.913
439 0 101.254 18.1623 1839 113.711 278.365 441.461
440 0 106.497 13.1271 1398 118.705 278.504 439.383
441 0 116.064 21.8414 2535 106.981 278.287 446.565
442 1 60.0642 17.0651 1025 113.038 278.25 461.034
443 0 62.2321 15.4904 964 121.136 276.853 460.308
444 0 62.1071 16.1817 1005 124.838 277.173 459.728
445 0 65.304 16.9668 1108 127.66 276.432 455.588
446 0 67.1138 16.5242 1109 129.375 275.691 461.472
447 0 71.1791 18.91 1346 130.272 274.165 459.346
448 0 71.093 18.1031 1287 140.002 273.013 456.033
449 0 74.1492 15.1317 1122 142.725 272.233 454.914
450 0 76.1036 16.0176 1219 143.631 270.601 452.737
451 0 79.1759 15.2698 1209 149.309 268.926 450.68
452 0 80.1204 17.2615 1383 147.119 267.629 450.758
453 0 83.1834 15.4358 1284 152.4 266.462 446.014
454 0 86.121 15.1879 1308 153.141 265.161 443.446
455 1 46.0982 14.686 677 149.071 264.47 464.346
456 0 47.1274 12.6254 595 153.418 263.518 461.092
457 0 48.0676 12.2536 589 155.088 264.694 459.924
458 0 48.0918 14.4099 693 147.094 265.004 459.707
459 0 53.2173 13.9804 744 148.839 264.594 458.042
460 0 53.0773 13.9608 741 147.421 264.386 455.923
461 0 53.0397 14.3477 761 146.979 264.484 454.761
462 0 55.068 13.2745 731 150.39 264.878 453.044
463 0 58.1354 14.8274 862 142.353 266.208 450.673
464 0 61.1148 15.3154 936 141.068 265.58 450.895
465 0 61.1188 15.2817 934 139.677 267.142 450.845
466 0 64.1553 16.4912 1058 134.767 268.546 446.716
467 0 67.0871 15.4873 1039 138.689 270.613 447.092
468 0 73.4815 17.7868 1307 127.458 272.967 449.768
469 0 73.1178 14.757 1079 125.543 275.239 448.237
470 0 75.2964 20.2134 1522 117.427 276.155 450.212
471 0 76.4334 13.9206 1064 122.697 277.589 448.903
472 0 80.2064 15.5598 1248 117.835 278.147 451.484
473 0 86.4139 21.6285 1869 113.408 277.526 448.383
474 0 85.4266 14.9719 1279 119.451 278.686 450.26
475 0 89.1646 22.5089 2007 115.106 278.197 445.69
476 0 95.605 15.9615 1526 123.3 277.678 451.87
477 0 94.1616 18.4682 1739 131.026 276.964 442.772
478 0 99.1711 17.737 1759 132.999 276.229 445.165
479 0 100.317 17.6441 1770 133.06 275.721 441.564
480 0 100.467 15.2388 1531 145.048 274.875 437.696
481 0 106.148 16.1944 1719 139.937 273.625 438.839
482 1 55.18 12.7945 706 145.528 274.103 464.725
483 0 57.2069 13.5298 774 146.96 272.286 463.798
484 0 59.1549 13.9295 824 146.925 270.623 462.745
485 0 63.2555 13.8802 878 150.109 269.852 460.229
486 0 66.3778 16.1048 1069 145.981 268.29 455.865
487 0 66.1183 16.8486 1114 144.441 266.687 455.395
488 0 70.256 16.2406 1141 145.304 265.895 454.853
489 0 71.1563 15.6276 1112 147.719 265.333 451.341
490 0 73.1713 13.5846 994 152.873 265.03 451.334
491 0 76.1124 16.1866 1232 149.179 264.081 445.786
492 0 79.2589 14.9762 1187 150.296 264.693 443.023
493 0 81.1794 14.3879 1168 151.845 264.71 442.744
494 0 85.0876 16.3009 1387 147.709 264.746 445.253
495 0 85.2471 15.5548 1326 152.795 264.891 439.83
496 0 89.3765 15.1158 1351 151.483 265.62 440.262
497 0 91.4429 15.5726 1424 150.464 266.294 436.708
498 1 51.1647 11.3359 580 155.228 268.478 454.383
499 0 51.3468 13.0096 668 140.129 270.502 452.906
500 0 51.3398 13.0308 669 138.543 272.728 452.801
501 0 52.6095 14.218 748 135.698 273.582 452.706
502 0 57.4195 17.5028 1005 120.05 276.036 450.541
503 0 57.0607 12.1975 696 121.805 279.272 456.082
504 0 65.5595 19.265 1263 108.397 279.983 458.914
505 0 63.2856 23.5283 1489 105.116 280.735 459.033
506 0 63.4059 17.8059 1129 111.332 280.983 453.18
507 0 67.2306 15.6774 1054 114.584 280.584 455.346
508 0 69.1092 18.2754 1263 111.122 280.751 460.193
509 0 72.2854 16.8914 1221 117.179 280.167 457.717
510 0 75.1932 17.5548 1320 121.311 279.592 452.624
511 0 78.477 17.4064 1366 128.248 278.886 453.958
512 0 80.2853 12.8417 1031 136.042 278.002 457.407
513 1 39.1267 12.0123 470 136.815 277.562 474.845
514 0 40.1074 13.2893 533 142.801 275.874 470.246
515 0 43.1469 12.9094 557 143.284 274.812 470.745
516 0 42.0657 12.6469 532 149.769 273.921 471.352
517 0 44.1011 12.2219 539 152.627 272.208 469.319
518 0 45.1574 14.9699 676 147.935 270.762 467.413
519 0 45.3281 11.5822 525 159.074 269.192 463.575
520 0 47.1289 13.3252 628 147.823 268.153 463.659
521 0 49.1186 15.432 758 144.051 267.1 461.297
522 0 52.0552 15.9062 828 139.448 266.264 461.108
523 0 53.1336 15.1317 804 144.628 265.613 458.546
524 0 55.178 16.5646 914 138.819 264.801 455.315
525 0 56.1198 16.5182 927 139.21 264.549 453.41
526 0 56.2572 14.2204 800 143.852 264.664 452.508
527 0 60.1918 16.4806 992 137.124 264.645 450.93
528 0 62.2324 15.185 945 138.239 265.72 449.885
529 0 63.2615 13.2466 838 142.266 266.105 449.979
530 0 64.2775 13.8618 891 140.492 267.672 448.367
531 0 69.165 13.5473 937 135.901 269.038 447.7
532 0 70.2631 14.4172 1013 131.17 270.329 444.224
533 0 72.1124 12.4528 898 130.362 272.216 443.796
534 0 78.225 17.6926 1384 119.229 274.306 443.415
535 0 78.3422 14.3346 1123 118.633 275.914 445.53
536 0 82.4094 14.4886 1194 117.348 276.733 441.812
537 0 89.542 15.1661 1358 111.997 278.418 442.272
538 1 48.1122 14.6533 705 103.139 279.891 465.404
539 0 45.2853 17.8424 808 105.625 278.349 462.356
540 0 50.5054 13.4243 678 109.407 278.732 464.484
541 0 53.5374 15.5405 832 107.245 280.758 467.477
542 0 55.3471 17.3993 963 108.969 280.126 467.673
543 0 52.3256 13.3204 697 122.136 279.6 466.455
544 0 53.1604 13.9013 739 123.536 278.664 463.909
545 0 55.3432 21.195 1173 115.153 277.049 465.502
546 0 55.213 14.3626 793 130.84 275.145 461.618
547 0 59.3793 15.1063 897 130.002 274.076 461.13
548 0 60.1106 16.9355 1018 129.943 273.314 463.629
549 0 62.4139 14.4038 899 140.019 272.067 458.412
550 0 66.277 18.9809 1258 129.067 270.772 458.157
551 0 67.3859 15.7451 1061 138.495 268.961 457.992
552 0 71.2743 16.4856 1175 135.931 268.717 457.266
553 0 70.1851 13.8348 971 144.148 266.869 453.316
554 0 75.1874 14.3774 1081 141.849 266.414 453.267
555 1 37.0244 9.37219 347 145.735 266.343 468.55
556 0 39.1157 11.0186 431 143.717 266.297 466.638
557 0 43.0567 12.2165 526 140.707 265.413 464.542
558 0 40.0249 12.2174 489 142.72 265.45 461.489
559 0 44.0836 12.4536 549 142.807 265.279 460.093
560 0 46.2002 11.9913 554 142.341 265.762 459.78
561 0 49.0383 15.0698 739 134.242 265.951 460.219
562 0 49.2477 14.3357 706 137.949 266.395 458.198
563 0 49.2014 13.089 644 140.095 267.421 458.207
564 0 53.2003 16.5225 879 126.697 268.719 454.999
565 0 55.2486 15.2221 841 127.493 270.697 455.37
566 0 56.2722 15.6027 878 123.499 272.245 452.884
567 0 59.2755 14.8966 883 122.989 274.318 455.042
568 0 66.5957 17.0432 1135 110.573 276.248 451.323
569 0 70.0033 18.142 1270 105.391 278.086 453.925
570 0 68.2615 18.5756 1268 107.26 278.769 452.344
571 0 71.4449 12.8771 920 108.597 279.686 453.323
572 0 70.298 12.8738 905 108.885 280.349 452.692
573 0 74.3561 20.227 1504 101.247 280.537 454.842
574 0 78.448 20.5104 1609 104.108 279.454 448.518
575 0 78.2579 13.9539 1092 110.975 280.168 448.646
576 1 40.0489 12.3849 496 116.643 279.8 470.272
577 0 37.1061 10.8877 404 124.322 279.837 474.114
578 0 40.0241 11.0683 443 126.788 279.072 473.05
579 0 43.1312 14.3516 619 122.834 278.659 472.95
580 0 42.1084 9.83176 414 134.645 278.287 475.589
581 0 44.0201 11.9945 528 133.165 276.962 474.705
582 0 44.1307 12.6669 559 139.005 274.716 468.971
583 0 48.0982 14.9694 720 134.378 273.554 471.133
584 0 49.1212 12.4793 613 138.135 272.365 473.331
585 0 49.037 13.5204 663 138.849 270.941 469.281
586 0 52.0761 16.1302 840 132.52 269.612 468.196
587 0 54.0256 18.8244 1017 126.586 268.363 468.86
588 0 55.119 13.7158 756 137.183 267.331 466.128
589 0 53.0735 13.2835 705 138.384 266.752 466.671
590 0 57.0747 12.107 691 138.942 265.997 466.722
591 0 56.04 12.277 688 130.001 264.959 466.583
592 0 60.1843 13.6913 824 135.756 264.715 462.066
593 0 62.0657 13.8724 861 137.418 264.43 459.846
594 0 64.1444 12.7681 819 139.491 263.998 459.145
595 0 67.1249 15.3892 1033 135.086 264.456 454.668
596 0 70.3412 16.0788 1131 132.189 265.073 455.449
597 0 71.1069 15.4415 1098 135.811 265.517 452.713
598 0 74.2559 13.2919 987 139.975 266.578 450.945
599 0 78.2814 13.8858 1087 137.413 267.817 454.513
600 1 39.2328 11.3171 444 137.709 271.349 472.196
601 0 38.1884 10.5006 401 142.796 272.461 470.631
602 0 41.2757 11.9441 493 139.99 272.491 468.187
603 0 44.0243 11.0621 487 137.68 273.639 471.407
604 0 44.0357 11.5815 510 133.867 274.459 470.598
605 0 44.1007 11.7005 516 133.851 273.977 469.632
606 0 48.1713 13.4727 649 133.119 273.877 471.267
607 0 50.2163 14.1189 709 133.395 273.386 471.151
608 0 51.1301 15.9984 818 129.681 272.923 472.225
609 0 52.0937 13.8404 721 135.714 273.024 468.723
610 0 53.0762 16.4292 872 132.244 272.39 469.155
611 0 55.2038 15.2707 843 134.356 271.854 470.623
612 0 59.1059 15.6837 927 133.453 270.814 470.077
613 0 60.0676 14.4837 870 137.077 269.229 470.367
614 0 62.0808 15.3026 950 136.183 268.494 468.603
615 0 63.1849 18.1056 1144 131.399 267.197 465.059
616 0 66.0451 14.2781 943 140.089 265.598 464.006
617 0 69.118 17.188 1188 132.593 264.072 463.87
618 0 69.1546 13.7084 948 142.015 263.387 461.386
619 0 72.2735 18.2916 1322 132.244 262.897 457.875
620 1 37.054 9.87748 366 145.424 261.869 475.036
621 0 40.0613 10.6087 425 143.948 262.212 471.682
622 0 43.0352 10.7354 462 142.242 261.543 471.634
623 0 42.0797 13.5695 571 141.186 260.695 466.545
624 0 42.2114 12.7217 537 144.179 261.382 463.307
625 0 43.1485 14.902 643 137.541 261.409 463.456
626 0 45.1431 11.6297 525 147.642 261.705 460.196
627 0 47.0663 15.5525 732 139.35 262.145 460.068
628 0 49.1642 16.4347 808 135.239 262.943 459.646
629 0 49.2581 14.9823 738 137.714 264.535 456.669
630 0 50.1451 15.5947 782 135.123 264.513 457.625
631 0 52.1158 15.0818 786 134.336 266.776 456.459
632 0 56.205 15.9238 895 131.76 267.857 455.228
633 0 55.3958 13.575 752 136.775 269.749 453.785
634 0 58.1187 19.5978 1139 123.251 271.353 453.165
635 0 58.3052 14.4241 841 136.834 273.427 454.304
636 0 61.3967 14.8216 910 125.374 275.475 458.008
637 0 63.2623 16.5027 1044 125.186 275.892 454.99
638 0 66.2693 15.8897 1053 125.905 276.949 457.337
639 0 67.2595 16.7114 1124 124.837 277.994 453.552
640 0 68.364 15.2858 1045 128.697 277.255 454.726
641 0 72.1929 14.9322 1078 129.913 276.603 454.288
642 0 72.1311 14.8757 1073 136.598 275.39 455.007
643 0 76.1936 15.5262 1183 142.571 274.924 453.014
644 0 77.1572 17.1987 1327 141.226 274.718 450.341
645 0 80.1711 14.943 1198 150.329 273.622 452.701
646 0 83.1418 16.55 1376 148.668 272.592 450.376
647 0 84.2169 15.1751 1278 152.412 271.691 446.691
648 0 88.2333 16.2977 1438 145.978 270.559 445.074
649 1 42.0522 10.487 441 152.317 269.918 468.59
650 0 46.0612 9.79133 451 151.37 269.49 468.155
651 0 48.0808 10.7943 519 150.197 268.455 467.017
652 0 48.0766 12.8753 619 147.192 267.047 463.871
653 0 48.0286 9.93158 477 153.753 266.631 460.946
654 0 52.1927 13.2011 689 143.64 266.578 462.086
655 0 55.1541 17.5146 966 134.095 265.879 460.997
656 0 57.3435 14.9799 859 138.974 264.839 456.68
657 0 58.1343 12.7119 739 143.736 264.407 454.618
658 0 59.3762 13.945 828 142.077 264.345 451.781
659 0 63.2411 12.7923 809 144.058 264.194 452.713
660 0 64.268 14.1439 909 140.034 264.583 450.212
661 0 63.2422 12.7447 806 143.805 265.086 447.711
662 0 69.206 13.9872 968 139.667 266.175 447.669
663 0 72.2752 18.1528 1312 128.886 267.348 449.697
664 0 72.2208 14.8018 1069 138.08 268.836 444.282
665 0 78.2771 14.3848 1126 136.547 270.75 446.155
666 0 83.6372 16.452 1376 122.839 273.32 447.572
667 0 83.3385 15.527 1294 122.229 275.08 447.661
668 0 85.2979 18.8516 1608 118.572 276.049 441.49
669 0 86.4349 13.7907 1192 120.969 278.262 442.742
670 0 90.6397 16.1408 1463 113.213 279.001 443.573
671 0 94.446 22.4255 2118 104.563 279.651 444.969
672 1 52.1355 12.8703 671 111.379 279.359 463.358
673 0 52.5306 12.7164 668 110.617 278.138 460.28
674 0 51.5472 12.4546 642 117.994 277.335 459.069
675 0 55.1062 15.334 845 125.03 279.043 465.041
676 0 55.1237 16.9074 932 119.727 278.079 461.456
677 0 58.1329 14.0712 818 127.23 277.373 464.652
678 0 58.0734 15.0327 873 132.789 275.754 460.989
679 0 62.0604 16.3873 1017 134.197 274.969 460.825
680 0 62.1657 14.9439 929 140.538 273.6 456.622
681 0 63.1258 12.8315 810 143.875 272.344 458.901
682 0 66.0603 12.1556 803 143.993 270.44 458.057
683 0 70.0795 14.0412 984 140.93 268.663 456.266
684 0 68.1283 12.1976 831 147.563 266.919 452.132
685 0 72.1463 14.9834 1081 141.73 266.006 450.21
686 0 77.0734 14.5186 1119 142.153 264.576 450.114
687 0 76.2359 13.3008 1014 144.569 263.103 445.783
688 0 79.2783 14.2031 1126 142.379 262.948 445.094
689 0 82.325 15.1837 1250 140.338 262.407 443.255
690 0 85.3498 14.8331 1266 142.61 262.103 440.206
691 0 88.268 15.4529 1364 137.974 261.378 441.242
692 0 89.3337 15.3693 1373 138.872 262.6 437.042
693 0 94.3135 13.6566 1288 141.522 262.481 436.53
694 0 96.1891 14.5651 1401 138.781 263.056 432.841
695 0 99.331 14.2352 1414 141.796 262.971 432.035
696 0 102.33 16.1634 1654 135.652 265.207 429.97
697 0 104.476 13.7927 1441 135.943 266.889 430.33
698 0 111.417 15.5991 1738 132.416 268.563 423.435
699 0 113.394 14.9303 1693 135.338 271.051 423.206
700 0 117.638 14.8506 1747 127.917 272.852 419.622
701 0 122.715 15.6134 1916 125.104 274.1 418.111
702 1 69.1797 11.2605 779 118.288 274.567 450.417
703 0 70.202 16.8371 1182 107.587 276.975 445.57
704 0 73.3682 13.3846 982 108.045 276.713 450.318
705 0 74.1486 15.2666 1132 114.124 279.565 447.57
706 0 79.3833 14.4489 1147 112.455 280.34 452.621
707 0 77.1783 13.5789 1048 131.198 278.323 448.523
708 0 83.1931 13.3665 1112 126.043 278.303 449.595
709 0 84.2898 15.162 1278 128.242 277.599 447.513
710 0 86.1696 14.6455 1262 130.939 276.766 447.964
711 0 88.2708 14.3422 1266 143.068 275.167 448.472
712 0 90.2131 12.5813 1135 148.841 274.17 445.676
713 0 95.3239 13.9629 1331 148.511 272.282 439.612
714 1 49.0779 9.23023 453 148.691 272.051 464.391
715 0 52.2579 8.72595 456 148.423 270.893 463.947
716 0 55.0832 12.8351 707 141.119 268.799 462.105
717 0 55.0958 10.636 586 144.986 267.712 458.282
718 0 58.1918 14.3663 836 135.053 264.511 454.989
719 0 58.1052 10.3949 604 147.089 264.457 457.606
720 0 61.2082 13.8544 848 138.531 264.156 457.191
721 0 63.1076 13.1997 833 141.297 263.633 453.035
722 0 65.1175 14.1283 920 138.352 264.21 455.932
723 0 67.0965 13.488 905 141.161 265.101 450.009
724 0 70.1554 15.3089 1074 137.045 265.427 448.872
725 0 70.0433 12.9491 907 142.312 265.282 448.15
726 0 73.1684 13.0931 958 140.113 266.075 449.83
727 0 76.1696 15.0454 1146 136.369 266.995 443.993
728 0 77.2042 14.0407 1084 137.853 267.711 442.176
729 0 81.3385 14.4335 1174 137.652 268.934 442.675
730 1 38.0833 12.6565 482 132.025 271.458 462.349
731 0 44.1312 9.04123 399 134.055 273.441 462.664
732 0 44.1058 11.223 495 125.952 275.507 464.99
733 0 42.2146 8.07778 341 132.337 276.988 461.774
734 0 44.131 7.56838 334 130.141 278.422 462.213
735 0 49.6717 12.1598 604 115.353 278.659 469.046
736 0 49.1644 10.7598 529 116.147 279.282 462.238
737 0 54.2378 14.6577 795 111.195 279.292 465.194
738 0 51.0786 11.4725 586 123.48 278.927 465.493
739 0 55.2275 14.3769 794 117.798 276.379 464.821
740 0 55.0797 14.7604 813 116.494 276.578 464.241
741 0 57.1377 14.8588 849 121.389 275.747 463.645
742 0 59.203 15.3877 911 128.281 274.283 465.14
743 0 59.1066 13.0104 769 133.954 272.494 463.796
744 0 65.301 15.2678 997 127.107 271.367 465.502
745 0 65.1561 15.2864 996 128.196 270.256 465.796
746 0 68.1792 14.3592 979 129.553 269.156 465.072
747 0 71.1854 14.1462 1007 129.945 267.672 461.553
748 1 35.0672 10.7223 376 128.912 266.12 481.564
749 0 37.0556 8.9865 333 136.796 264.541 476.814
750 0 36.0319 10.7682 388 134.82 262.93 477.119
751 0 38.1093 11.6245 443 134.357 262.196 474.655
752 0 42.0348 11.6332 489 133.245 261.924 474.611
753 0 41.1027 12.5296 515 133.905 260.796 471.468
754 0 40.0938 12.0218 482 137.253 260.068 469.494
755 0 41.1367 11.085 456 137.586 260.827 468.7
756 0 44.0262 13.5147 595 131.96 259.299 467.227
757 0 45.0818 13.7971 622 131.309 262.775 467.735
758 0 45.1223 13.0756 590 133.636 263.214 464.424
759 0 49.0786 18.6843 917 121.758 263.325 464.313
760 0 50.0871 13.2968 666 131.866 264.068 464.074
761 0 51.1123 13.3432 682 131.314 264.818 461.158
762 0 54.1256 15.7227 851 125.76 266.551 461.894
763 0 56.2102 16.1537 908 126.409 267.623 461.485
764 0 55.0831 12.0908 666 130.869 269.41 458.269
765 0 59.1199 13.0582 772 124.14 270.878 459.58
766 0 60.1811 14.6392 881 120.371 271.926 458.904
767 0 62.2517 13.5739 845 120.646 273.056 460.211
768 0 66.2838 15.4186 1022 117.084 274.348 460.022
769 0 64.1783 12.1381 779 129.793 274.831 457.225
770 0 69.291 17.8234 1235 119.058 275.097 457.921
771 0 72.3062 14.7014 1063 123.115 275.096 458.388
772 0 74.207 12.4112 921 134.929 275.483 462.592
773 0 75.1847 12.6356 950 138.006 275.082 459.814
774 1 38.3734 10.6584 409 138.469 274.333 477.885
775 0 41.2025 11.3828 469 134.8 273.994 479.874
776 0 43.0276 11.3648 489 138.17 272.135 477.331
777 0 43.1638 12.441 537 139.993 271.428 478.929
778 0 45.2239 14.8815 673 137.646 270.006 475.178
779 0 46.3372 16.2936 755 135.669 267.879 472.487
780 0 48.3433 11.6459 563 145.186 265.544 472.476
781 0 48.2203 13.4176 647 140.89 264.326 471.578
782 0 53.3786 16.8982 902 132.143 262.612 470.516
783 0 54.433 14.403 784 136.21 261.872 468.872
784 0 53.2172 13.0221 693 142.258 260.674 465
785 0 55.1808 13.4105 740 141.481 259.888 463.627
786 0 57.0913 14.5907 833 138.72 259.966 462.879
787 0 60.1685 15.0909 908 135.583 259.214 459.921
788 0 62.1683 13.3991 833 140.866 259.008 457.517
789 0 62.1747 12.6257 785 143.308 258.896 455.921
790 0 66.2137 14.3928 953 140.605 259.167 451.938
791 0 68.3932 14.519 993 138.084 259.804 452.568
792 0 68.1715 12.7179 867 144.642 259.836 447.429
793 0 75.305 16.8648 1270 132.043 260.855 448.258
794 0 74.2831 14.3371 1065 143.138 262.049 445.092
795 1 34.1853 11.3207 387 144.005 264.137 463.995
796 0 38.3771 10.7877 414 142.553 265.275 463.266
797 0 42.2219 11.108 469 142.29 267.305 461.117
798 0 44.3706 11.2237 498 135.857 269.137 463.837
799 0 45.2745 16.654 754 127.415 270.247 459.722
800 0 47.216 12.2628 579 134.193 272.009 462.99
801 0 46.2217 12.9593 599 132.907 272.733 461.826
802 0 50.0414 13.0092 651 129.074 273.223 464.369
803 0 53.1844 13.9514 742 122.721 275.515 463.704
804 0 51.3868 17.378 893 118.783 275.785 467.129
805 0 54.2452 13.1256 712 134.989 274.49 462.74
806 0 56.1149 15.9138 893 132.022 275.245 461.009
807 0 55.1829 14.606 806 133.846 275.605 463.132
808 0 60.1236 16.832 1012 126.237 276.67 464.787
809 0 62.1187 19.3501 1202 124.339 276.25 463.095
810 0 63.3056 15.9228 1008 134.425 275.12 460.921
811 0 65.2111 16.6076 1083 133.892 274.547 462.953
812 0 69.3837 16.6754 1157 137.38 273.688 461.866
813 0 70.3618 16.6568 1172 144.026 271.674 457.523
814 0 71.1933 17.3471 1235 145.855 270.27 454.121
815 0 73.369 15.6061 1145 149.857 269.21 455.466
816 0 78.6444 17.8907 1407 142.093 268.043 456.025
817 1 40.3431 13.9553 563 149.87 267.547 468.597
818 0 39.2067 14.1047 553 148.991 266.593 469.472
819 0 39.3918 13.2261 521 148.336 266.319 469.714
820 0 44.5277 12.6213 562 154.972 265.488 465.546
821 0 42.2875 12.3204 521 157.622 265.303 463.509
822 0 45.3775 12.5393 569 154.608 266.225 462.803
823 0 49.3584 14.1617 699 149.597 265.611 460.476
824 0 51.5169 14.3448 739 150.475 266.945 459.536
825 0 53.3989 14.9628 799 149.643 267.145 457.906
826 0 53.3879 16.9327 904 146.512 267.227 456.075
827 0 55.3377 14.9807 829 149.754 268.296 455.261
828 0 58.1978 15.602 908 145.039 269.591 455.38
829 0 62.7019 15.5179 973 134.542 271.683 457.791
830 0 61.479 15.6476 962 147.499 271.967 451.583
831 0 66.8166 19.0821 1275 128.109 274.598 453.388
832 0 65.529 16.1455 1058 134.833 275.578 451.288
833 0 71.7222 16.2014 1162 122.431 277.874 455.876
834 0 77.2921 20.6101 1593 114.601 278.812 456.48
835 0 78.3859 23.2695 1824 111.488 278.985 455.197
836 0 83.5726 16.5246 1381 113.897 280.786 454.651
837 0 87.1018 33.9144 2954 101.884 279.493 455.567
838 0 82.8864 23.6951 1964 109.377 280.085 457.382
839 0 86.0719 24.8746 2141 110.89 279.472 455.818
840 0 85.3626 17.1972 1468 122.328 279.341 456.215
841 0 88.2311 17.9075 1580 126.819 278.863 452.713
842 0 92.3473 18.3871 1698 136.787 278.257 450.741
843 1 44.2544 13.4676 596 154.193 277.255 472.987
844 0 47.2398 10.8383 512 152.865 275.83 474.986
845 0 48.2218 13.7904 665 155.777 274.786 473.43
846 0 50.1622 14.4332 724 164.369 272.851 469.258
847 0 52.1744 15.7357 821 161.638 271.605 469.034
848 0 54.1979 16.1999 878 160.756 270.419 466.328
849 0 52.1195 14.0638 733 170.543 268.731 464.997
850 0 58.0835 16.2697 945 161.504 268.087 466.649
851 0 60.0857 15.6443 940 166.028 267.043 464.818
852 0 62.0707 15.9657 991 165.658 266.114 462.906
853 0 63.0412 15.0854 951 170.712 265.096 460.313
854 0 66.1626 16.8978 1118 165.554 265.016 458.691
855 0 68.199 17.4343 1189 164.2 264.546 457.611
856 0 69.1173 16.5371 1143 171.185 263.947 451.817
857 0 73.19 17.3794 1272 165.581 264.528 453.47
858 0 75.2497 17.2094 1295 166.287 264.663 451.036
859 0 77.2728 14.3906 1112 175.031 265.058 450.275
860 0 80.3961 17.0406 1370 170.735 265.595 445.442
861 0 81.8288 17.9643 1470 167.366 266.375 443.101
862 0 85.4585 15.3876 1315 172.798 267.993 440.825
863 0 87.5117 16.8777 1477 163.718 269.596 442.384
864 0 91.6606 17.3357 1589 162.284 270.398 437.456
865 0 95.7851 17.8003 1705 153.324 272.857 439.586
866 0 97.7084 15.6691 1531 157.6 273.651 435.776
867 1 49.5117 10.9469 542 147.895 276.273 463.633
868 0 48.6864 12.6524 616 144.208 276.719 460.729
869 0 49.6626 12.2023 606 143.721 277.629 459.696
870 0 55.6615 19.3311 1076 133.607 277.171 459.999
871 0 56.1186 14.4159 809 145.215 276.211 457.298
872 0 58.1123 16.1068 936 141.487 275.384 455.449
873 0 59.0949 13.4868 797 154.804 275.939 457.046
874 0 62.2045 13.9701 869 148.626 276.291 455.308
875 0 64.2105 16.1189 1035 150.023 275.293 451.822
876 0 66.4094 14.9377 992 152.672 275.018 453.929
877 0 68.2807 16.9887 1160 162.153 273.221 452.071
878 0 70.3446 16.7746 1180 164.153 272.203 451.709
879 0 72.489 14.9816 1086 169.514 271.399 451.306
880 0 76.3491 16.4376 1255 164.007 269.83 451.801
881 0 76.4661 16.1902 1238 166.398 268.178 448.036
882 0 79.3782 14.7396 1170 169.939 266.334 447.789
883 0 81.5557 16.6757 1360 166.432 265.304 444.585
884 1 42.3633 9.98506 423 164.946 264.369 462.901
885 0 45.4066 11.9146 541 162.466 263.662 458.762
886 0 47.3935 10.7399 509 160.892 262.741 458.684
887 0 50.4479 12.726 642 155.486 263.117 456.34
888 0 50.3912 12.2442 617 162.984 262.611 456.374
889 0 51.2681 12.854 659 166.511 262.197 453.094
890 0 55.0949 13.4495 741 162.463 260.483 456.289
891 0 58.122 14.5556 846 156.052 260.814 455.518
892 0 58.0936 11.8085 686 164.048 261.927 454.19
893 0 60.1052 12.2785 738 162.976 261.879 454.6
894 0 65.1393 14.2003 925 158.079 263.248 451.954
895 0 67.1778 13.9629 938 158.103 264.894 450.237
896 0 68.1929 12.9632 884 157.644 265.803 448.843
897 0 72.2676 13.4777 974 152.735 267.821 446.308
898 0 74.2649 13.8154 1026 152.583 270.117 445.187
899 0 80.2809 15.8195 1270 144.039 272.055 444.997
900 0 81.4593 14.4367 1176 144.7 273.273 444.97
901 0 83.3616 13.9273 1161 145.767 274.277 443.768
902 0 87.4028 15.0453 1315 139.26 275.343 445.249
903 0 89.3711 10.3501 925 147.408 276.179 445.475
904 1 51.078 13.7437 702 126.775 278.291 465.207
905 0 50.0282 14.3919 720 127.546 277.301 465.443
906 0 48.0562 11.3201 544 134.678 278.085 468.842
907 0 52.0279 14.0309 730 127.411 277.241 467.289
908 0 53.1149 11.8611 630 133.135 276.435 466.533
909 0 54.1517 9.71345 526 140.937 275.671 466.867
910 0 54.0209 12.7173 687 137.166 274.815 467.734
911 0 58.0698 11.6928 679 148.412 273.524 462.962
912 0 61.1002 12.0131 734 146.195 272.999 463.119
913 0 62.0874 12.8368 797 143.262 271.829 464.453
914 0 64.159 11.3312 727 148.908 270.161 459.748
915 0 65.016 14.781 961 142.738 268.959 457.843
916 0 67.1308 11.0382 741 150.881 268.039 455.721
917 1 36.024 12.4084 447 143.49 267.351 470.347
918 0 36.0297 10.1028 364 146.168 266.321 470.736
919 0 35.0365 8.24854 289 156.073 265.671 466.969
920 0 39.0161 11.8925 464 148.567 265.127 463.636
921 0 39.0813 10.3886 406 149.978 264.825 465.672
922 0 41.0175 11.2879 463 148.408 265.032 463.981
923 0 42.1995 12.275 518 146.919 264.649 460.89
924 0 41.0393 12.0129 493 147.765 264.036 461.7
925 0 47.0548 12.4748 587 144.772 266.404 459.269
926 0 46.1233 12.8785 594 143.921 265.897 458.542
927 0 47.1202 11.1205 524 148.071 266.716 457.685
928 0 50.0204 10.3158 516 145.473 269.163 456.399
929 0 53.0311 11.6913 620 137.26 269.531 456.326
930 0 54.0441 13.674 739 129.043 271.064 455.721
931 0 54.0656 10.1173 547 130.079 273.166 456.43
932 0 56.1925 11.5852 651 125.602 274.075 458.899
933 0 61.2377 15.4643 947 114.862 275.813 457
934 1 122.757 16.6996 2050 114.794 277.079 420.72
935 0 125.926 13.5159 1702 113.271 278.833 423.764
936 1 195.978 16.7009 3273 115.659 278.085 395.746
937 0 204.971 18.6904 3831 115.039 278.512 385.948
938 0 210.976 14.1296 2981 120.78 279.191 383.033
939 0 217.428 11.2451 2445 121.778 278.796 398.708
940 0 227.146 13.0269 2959 127.221 277.853 379.52
941 1 117.71 13.2189 1556 125.632 277.211 435.891
942 1 81.3053 14.0335 1141 123.195 277.504 452.989
943 0 84.2089 15.3666 1294 125.175 278.162 444.977
944 0 89.1982 16.155 1441 124.32 277.275 446.702
945 0 90.306 13.2771 1199 131.726 276.514 446.864
946 1 46.0997 7.39701 341 141.537 275.927 468.276
947 0 49.0944 9.67523 475 145.789 274.124 468.804
948 0 49.2212 11.0115 542 144.594 272.004 462.786
949 0 53.0378 10.879 577 141.151 271.832 467.314
950 0 54.1208 11.8439 641 142.19 269.337 461.81
951 0 54.3238 9.99562 543 146.856 266.234 455.731
952 0 56.0452 12.7219 713 141.592 264.323 455.59
953 0 60.1482 13.8657 834 136.934 263.47 454.858
954 0 63.0585 13.7016 864 137.969 263.273 451.975
955 0 64.0481 12.2408 784 142.26 262.894 449.561
956 0 66.0415 16.2171 1071 132.295 263.13 451.935
957 0 70.0858 15.5096 1087 132.206 263.339 447.641
958 0 70.084 13.7692 965 137.618 263.704 442.944
959 0 72.1627 14.4396 1042 136.71 264.004 440.978
960 0 77.1659 14.1643 1093 134.758 264.567 445.92
961 0 77.0916 13.9963 1079 136.751 265.898 440.15
962 0 82.0369 15.6271 1282 127.995 267.72 440.68
963 0 85.1201 14.4032 1226 129.781 269.436 439.827
964 0 87.1046 13.2025 1150 124.934 272.025 438.157
965 0 90.1547 15.7618 1421 118.417 274.626 436.683
966 1 49.1958 15.3062 753 112.393 275.786 463.146
967 0 50.4771 14.6007 737 108.071 277.532 459.99
968 0 56.0927 14.3156 803 102.154 279.543 464.196
969 0 53.787 19.8747 1069 100.221 281.229 455.96
970 0 58.8409 20.6999 1218 97.8547 281.915 458.912
971 0 56.8039 16.9179 961 103.767 281.594 462.157
972 0 58.2288 18.2384 1062 105.831 281.7 463.653
973 0 61.5856 17.1144 1054 107.373 281.132 461.961
974 0 59.1957 14.7139 871 112.413 281.168 464.01
975 0 60.0673 14.4172 866 120.654 280.529 461.724
976 0 59.1853 13.0776 774 128.433 280.269 457.598
977 0 68.8209 17.0297 1172 119.394 278.823 462.694
978 0 65.0945 13.995 911 134.998 276.026 457.693
979 0 68.1903 18.727 1277 127 275.46 456.078
980 0 66.1341 12.9585 857 144.517 273.937 454.484
981 0 71.1813 14.3296 1020 141.375 271.988 454.157
982 0 72.2457 15.3504 1109 140.618 270.705 449.53
983 0 76.2369 17.4456 1330 135.971 269.547 446.475
984 0 77.1878 14.1862 1095 141.954 268.354 448.066
985 0 76.1585 13.1568 1002 146.97 266.637 442.194
986 0 82.279 14.8033 1218 140.512 266.14 446.039
987 1 46.0757 12.5663 579 138.114 266.149 461.292
988 0 43.1197 9.5548 412 145.59 265.847 460.442
989 0 52.232 10.7597 562 140.03 265.381 459.534
990 0 52.2331 14.5502 760 132.359 264.834 457.043
991 0 49.2172 12.0283 592 141.069 265.856 456.155
992 0 54.2619 12.5318 680 138.482 265.925 453.949
993 0 57.0367 12.9566 739 138.786 266.23 453.069
994 0 56.0563 11.4884 644 141.099 263.789 452.231
995 0 57.1365 12.2339 699 136.771 265.624 449.435
996 0 59.1693 14.8726 880 130.535 267.514 448.383
997 0 63.228 17.6188 1114 120.239 268.972 446.987
998 0 65.075 18.932 1232 115.162 271.54 450.71
999 0 66.1978 15.3026 1013 121.021 272.997 446.765
1000 0 69.1983 16.9657 1174 115.693 273.421 448.922
1001 0 72.1402 20.0304 1445 107.673 275.163 448.415
1002 0 72.2474 12.9416 935 112.229 275.452 448.834
1003 0 74.2201 19.4018 1440 106.062 276.517 447.849
1004 0 78.5452 19.1355 1503 108.011 276.591 447.166
1005 0 80.3396 17.7745 1428 107.478 276.327 453.236
1006 0 82.2478 14.2132 1169 114.211 276.973 444.956
1007 0 86.3711 18.4321 1592 111.605 277.408 447.446
1008 0 87.1917 15.6666 1366 120.024 276.764 448.619
1009 0 91.1419 14.845 1353 121.126 276.628 449.876
1010 0 94.1162 15.3959 1449 125.756 275.787 446.803
1011 0 97.163 15.5306 1509 131.645 275.502 442.663
1012 1 52.1467 12.1197 632 139.165 275.006 466.884
1013 0 54.2853 13.687 743 140.977 273.802 467.538
1014 0 54.0469 14.7279 796 141.045 273.196 465.457
1015 0 54.09 11.8321 640 149.052 271.736 464.747
1016 0 59.2304 16.5624 981 136.828 269.981 460.358
1017 0 59.1047 14.3982 851 141.781 269.033 463.043
1018 0 58.0871 13.0838 760 147.529 267.522 460.484
1019 0 63.1101 15.465 976 140.581 266.686 456.222
1020 0 64.0498 14.9259 956 142.719 266.331 456.498
1021 0 65.065 14.6623 954 145.528 265.514 454.306
1022 0 70.1482 15.1109 1060 141.4 265.099 454.48
1023 0 74.2464 17.2399 1280 135.32 264.627 450.509
1024 0 73.2119 15.8034 1157 140.793 265.106 452.06
1025 0 75.167 14.1685 1065 145.729 265.045 449.987
1026 0 79.0938 21.8601 1729 128.535 264.988 448.391
1027 0 80.1341 14.5007 1162 144.793 265.715 450.239
1028 0 83.1445 15.443 1284 144.06 266.622 445.72
1029 0 85.074 16.3505 1391 141.79 267.591 445.234
1030 1 41.0491 11.8882 488 146.758 270.002 467.908
1031 0 42.0956 11.854 499 150.17 270.727 464.894
1032 0 46.0989 12.7335 587 147.124 271.738 465.38
1033 0 48.0742 14.9976 721 138.51 274.032 464.947
1034 0 49.0981 14.6034 717 132.478 276.41 464.844
1035 0 52.0796 15.9756 832 129.254 277.48 464.398
1036 0 51.1303 11.8325 605 138.727 278.539 464.884
1037 0 54.1292 16.6269 900 127.549 278.653 466.331
1038 0 54.0843 15.7902 854 134.278 278.267 464.536
1039 0 60.0816 16.1614 971 134.757 278.931 466.541
1040 0 59.0919 11.406 674 145.981 278.507 467.711
1041 0 61.0637 15.1481 925 146.052 277.265 463.803
1042 0 64.099 15.8193 1014 146.142 276.214 464.234
1043 0 64.1258 14.2064 911 150.749 275.058 464.278
1044 0 68.0901 14.3486 977 150.009 273.564 462.621
1045 0 73.0937 19.1261 1398 137.31 272.227 463.999
1046 0 74.068 18.4695 1368 140.496 270.019 459.987
1047 0 77.095 15.9932 1233 145.841 268.295 457.969
1048 0 78.0707 15.7934 1233 147.69 266.688 456.001
1049 0 80.1983 19.3271 1550 140.856 265.769 454.911
1050 0 85.1953 17.9118 1526 142.645 264.617 451.583
1051 1 45.0342 12.5016 563 146.845 264.43 469.73
1052 0 49.0514 10.7846 529 148.21 263.34 468.284
1053 0 48.1617 13.8699 668 145.009 262.931 466.969
1054 0 47.0353 13.2666 624 148.197 263.046 465.345
1055 0 50.0341 12.7713 639 147.707 263.128 463.811
1056 0 52.0252 13.7818 717 145.25 262.156 460.833
1057 0 54.124 16.0557 869 139.319 263.316 461.235
1058 0 54.0235 15.5858 842 143.099 262.867 456.349
1059 0 56.0622 15.465 867 141.206 263.765 455.091
1060 0 59.0953 17.6833 1045 134.706 264.863 455.499
1061 0 59.1142 15.1571 896 141.212 265.559 452.752
1062 0 63.1681 15.9574 1008 137.502 266.583 453.479
1063 0 62.2006 13.8745 863 145.024 267.605 452.083
1064 0 68.1262 16.0878 1096 134.89 269.886 449.106
1065 0 69.2903 14.6052 1012 132.574 271.89 449.567
1066 0 72.1711 13.7728 994 131.338 273.39 448.678
1067 0 74.2241 14.8469 1102 128.442 274.47 447.564
1068 0 76.1671 16.7001 1272 124.211 276.071 446.498
1069 0 78.2717 17.9758 1407 119.124 277.414 443.478
1070 0 79.2825 13.7483 1090 123.021 278.246 445.371
1071 0 87.7551 19.6684 1726 110.056 278.591 446.182
1072 0 85.2524 16.3514 1394 115.09 279.196 447.217
1073 0 88.3092 14.5172 1282 120.492 279.071 445.882
1074 1 45.0441 10.6784 481 124.387 280.262 468.405
1075 0 51.0377 12.8728 657 126.606 277.552 468.05
1076 0 47.1634 10.7498 507 128.292 280.185 468.314
1077 0 50.1657 10.565 530 125.189 280.026 471.474
1078 0 50.1507 11.3259 568 130.32 279.106 468.276
1079 0 53.2798 12.7816 681 128.576 278.512 463.88
1080 0 56.4036 13.953 787 127.093 276.957 465.268
1081 0 57.3114 15.0755 864 131.27 275.127 460.353
1082 0 56.2229 13.0907 736 143.486 273.304 458.076
1083 0 59.1862 14.3108 847 141.662 272.096 456.181
1084 0 61.1236 13.35 816 143.167 271.377 455.853
1085 0 66.2384 14.7498 977 138.138 270.249 455.601
1086 0 66.1356 15.0297 994 138.331 268.596 452.368
1087 0 68.1163 14.7982 1008 139.302 267.968 450.143
1088 0 74.2568 14.8943 1106 136.6 267.794 447.363
1089 0 74.0697 14.4188 1068 138.589 267.328 443.32
1090 0 79.344 15.5147 1231 135.272 267.375 442.702
1091 0 80.1883 16.9476 1359 133.765 266.511 438.792
1092 1 42.1409 10.7971 455 137.121 267.78 459.651
1093 0 42.0919 10.6671 449 139.354 268.038 457.951
1094 0 43.0511 12.5665 541 132.638 268.776 459.035
1095 0 43.168 12.3471 533 135.174 269.36 456.576
1096 0 44.295 9.63991 427 124.658 269.773 451.85
1097 0 44.0455 11.6016 511 124.973 269.726 455.405
1098 0 44.0783 11.0712 488 127.922 269.854 455.459
1099 0 48.0638 14.5432 699 123.512 272.562 454.851
1100 0 49.0282 14.8078 726 119.556 274.358 459.479
1101 0 52.1412 12.5045 652 114.442 278.182 457.959
1102 0 53.242 15.0633 802 109.752 276.939 460.772
1103 0 57.2113 16.8848 966 106.988 278.064 457.866
1104 0 56.158 12.0019 674 113.34 278.206 457.717
1105 0 58.2339 13.9266 811 109.379 278.208 463.044
1106 0 57.1553 12.6497 723 110.982 279.378 462.234
1107 0 62.1841 13.5726 844 115.927 278.505 461.665
1108 0 63.0818 14.2355 898 124.313 277.394 460.306
1109 0 63.1353 14.7778 933 128.072 276.796 460.594
1110 0 67.073 14.4022 966 131.05 275.871 459.688
1111 0 67.0963 15.9472 1070 131.667 274.265 460.933
1112 0 72.1463 14.5815 1052 143.471 273.244 458.484
1113 0 73.1363 15.1498 1108 143.75 271.593 456.376
1114 1 38.0404 13.2754 505 137.717 269.487 475.453
1115 0 38.0579 8.5659 326 150.074 268.077 474.138
1116 0 42.0586 12.4826 525 143.501 266.75 472.156
1117 0 44.0595 9.19212 405 150.368 264.452 471.402
1118 0 41.0482 12.0103 493 148.686 263.497 467.698
1119 0 45.0784 17.6581 796 134.085 263.467 467.999
1120 0 43.2215 11.5683 500 141.072 263.96 463.328
1121 0 46.3172 9.34858 433 142.799 263.928 463.404
1122 0 48.273 12.5329 605 135.891 263.527 463.175
1123 0 49.3282 11.9202 588 138.078 263.053 461.204
1124 0 48.149 12.7936 616 135.817 262.544 460.955
1125 0 51.219 12.9639 664 136.16 262.289 457.443
1126 0 50.2566 11.7 588 140.665 262.143 453.946
1127 0 54.2248 14.1079 765 135.45 262.422 454.531
1128 0 54.1787 13.2709 719 136.887 263.633 457.366
1129 0 57.0986 14.3786 821 140.183 264.72 457.717
1130 0 57.1421 13.8252 790 143.934 266.318 454.591
1131 0 61.0747 15.391 940 140.665 267.199 452.347
1132 0 62.1052 13.0263 809 146.622 268.848 455.046
1133 0 66.0804 14.6791 970 143.206 270.209 454.461
1134 0 66.1686 10.1861 674 152.417 271.883 454.797
1135 0 66.0884 10.7583 711 147.585 272.823 452.076
1136 1 39.0645 10.1371 396 145.646 274.485 471.114
1137 0 38.0286 12.1751 463 141.987 275.568 473.069
1138 0 42.0336 10.3965 437 143.114 275.815 473.595
1139 0 41.0285 11.8454 486 140.774 276.208 473.058
1140 0 43.1313 12.5663 542 142.101 275.904 472.729
1141 0 43.1333 11.6847 504 146.587 275.411 470.688
1142 0 48.0324 12.6581 608 139.627 275.003 474.115
1143 0 47.1149 16.2581 766 134.708 274.112 470.311
1144 0 49.0741 15.0792 740 138.034 272.796 470.027
1145 0 52.1386 14.3272 747 138.487 271.34 469.086
1146 0 52.072 16.1507 841 136.062 269.449 468.096
1147 0 56.0884 15.9569 895 134.206 268.34 467.819
1148 0 52.1188 11.9535 623 144.47 266.591 465.681
1149 0 57.1098 12.8875 736 141.255 265.082 465.716
1150 0 62.0777 14.7557 916 138.141 263.681 461.51
1151 0 60.1806 13.0441 785 142.922 262.642 457.13
1152 0 63.0873 15.3438 968 137.945 261.478 458.492
1153 0 62.0983 13.5591 842 141.998 261.532 457.02
1154 0 67.1062 15.17 1018 136.944 260.742 457.066
1155 0 68.1628 14.48 987 139.261 261.447 453.152
1156 1 35.1315 9.96257 350 139.491 262.549 469.031
1157 0 37.0824 10.0047 371 139.42 263.17 467.817
1158 0 38.0463 11.118 423 141.551 263.418 465.083
1159 0 35.1112 8.48731 298 149.174 264.476 463.047
1160 0 42.0156 12.6382 531 138.819 265.753 462.84
1161 0 41.0114 10.4605 429 143.28 266.322 462.361
1162 0 42.0273 12.7774 537 136.369 266.421 461.814
1163 0 44.3476 13.4844 598 134.147 267.187 461.396
1164 0 43.1238 12.4061 535 135.611 267.31 461.486
1165 0 45.038 13.4775 607 127.147 268.14 461.534
1166 0 46.094 13.3206 614 133.002 271.45 459.425
1167 0 48.179 12.163 586 128.983 273.52 461.872
1168 0 49.104 14.8868 731 121.339 274.446 459.631
1169 0 52.2244 16.0844 840 117.733 277.154 462.87
1170 0 49.0736 12.0839 593 127.039 276.378 459.924
1171 0 56.1364 14.9279 838 118.111 279.26 461.859
1172 0 59.3776 15.292 908 117.621 279.025 464.149
1173 0 58.1256 13.8149 803 121.912 277.694 464.02
1174 0 56.2995 11.8651 668 127.404 279.481 460.88
1175 0 62.0972 14.7672 917 124.923 278.57 461.569
1176 0 63.2006 14.1613 895 128.359 278.634 462.229
1177 0 64.1443 14.7792 948 128.879 277.582 458.908
1178 0 66.1752 12.1798 806 138.443 276.855 461.036
1179 0 67.0816 13.3569 896 144.608 276.156 458.904
1180 0 73.1968 14.8367 1086 141.715 274.918 458.991
1181 0 71.1288 13.2717 944 149.13 273.383 455.754
1182 0 75.0928 15.927 1196 142.739 271.888 456.033
1183 0 78.0562 13.4775 1052 151.06 270.518 450.015
1184 0 81.1305 16.5906 1346 143.382 268.763 450.038
1185 0 82.2627 13.3232 1096 151.553 266.92 448.818
1186 1 42.0161 13.0664 549 153.186 266.829 464.282
1187 0 44.0276 9.99373 440 158.6 265.63 464.402
1188 0 48.03 13.3875 643 151.381 264.921 461.603
1189 0 46.0175 11.3218 521 159.34 264.359 460.106
1190 0 47.0608 11.7295 552 161.558 264.534 456.645
1191 0 53.1116 14.912 792 147.726 264.724 456.792
1192 0 54.0346 13.0472 705 153.939 265.155 455.484
1193 0 55.0396 16.0248 882 144.271 265.711 456.678
1194 0 57.0839 13.9969 799 148.768 265.526 453.493
1195 0 59.0722 14.8632 878 144.499 266.054 455.557
1196 0 61.1715 14.5329 889 143.686 267.267 454.458
1197 0 61.05 14.2342 869 141.33 268.86 449.132
1198 0 64.1697 15.5213 996 137.766 270.768 449.648
1199 0 68.0556 16.7804 1142 126.095 273.073 447.582
1200 0 69.0757 13.3477 922 138.156 274.729 448.8
1201 0 71.0652 17.3503 1233 126.133 275.431 448.424
1202 0 75.2259 15.5133 1167 116.533 276.888 450.187
1203 0 78.2354 18.8534 1475 112.653 277.671 453.134
1204 0 79.152 25.1794 1993 104.394 278.142 451.951
1205 0 82.1366 12.2966 1010 119.089 278.915 453.708
1206 0 87.136 11.132 970 120.286 278.57 453.833
1207 0 87.3232 13.8337 1208 127.256 277.936 448.445
1208 1 50.1217 13.4074 672 129.786 276.988 467.368
1209 0 49.0576 11.0686 543 139.674 276.659 467.691
1210 0 53.2282 13.1697 701 138.144 276.291 467.502
1211 0 52.1969 11.9356 623 145.23 275.138 467.648
1212 0 54.1747 14.6009 791 144.221 274.545 468.53
1213 0 58.0373 14.5596 845 150.077 273.488 467.572
1214 0 58.2425 15.7445 917 150.778 274.43 465.52
1215 0 59.3668 13.6945 813 156.18 272.451 462.872
1216 0 60.2298 13.7805 830 157.482 270.772 460.698
1217 0 61.3285 14.9196 915 153.446 269.426 463.179
1218 0 64.2731 14.7496 948 153.319 267.999 461.041
1219 0 67.2628 14.8968 1002 151.111 266.727 458.342
1220 0 66.2552 14.6102 968 154.933 265.738 453.893
1221 0 69.3218 16.1565 1120 150.42 264.403 454.336
1222 0 73.3242 16.3657 1200 148.148 263.793 451.484
1223 0 74.258 13.4262 997 152.177 264.174 453.681
1224 0 76.2337 14.4818 1104 151.301 264.043 449.598
1225 0 78.2485 13.2782 1039 154.884 263.771 447.594
1226 0 82.2657 15.0853 1241 149.245 264.716 447.114
1227 1 42.0944 10.9516 461 153.876 265.757 462.338
1228 0 41.0941 8.34669 343 157.478 266.02 464.668
1229 0 45.0702 9.69599 437 156.286 268.005 462.096
1230 0 49.0938 13.9732 686 145.939 269.2 460.143
1231 0 50.0856 12.7781 640 147.777 270.883 459.252
1232 0 52.0964 14.2044 740 144.716 272.149 459.131
1233 0 52.3309 15.7842 826 141.6 272.891 456.507
1234 0 56.473 16.3795 925 131.759 274.611 458.436
1235 0 55.4172 13.1006 726 137.145 276.157 456.923
1236 0 58.4117 19.4482 1136 122.305 276.886 461.957
1237 0 62.3978 15.7538 983 129.495 277.858 460.11
1238 0 64.5859 19.3696 1251 120.441 277.889 461.998
1239 0 66.5775 16.7324 1114 126.06 277.953 461.361
1240 0 63.5217 14.8611 944 134.411 277.869 458.091
1241 0 68.3933 16.873 1154 136.794 277.445 463.031
1242 0 69.4562 14.124 981 143.463 276.898 461.919
1243 0 72.345 14.5553 1053 147.894 276.302 463.699
1244 0 73.377 16.2585 1193 146.408 274.995 458.125
1245 0 75.2158 17.4033 1309 146.005 273.634 457.22
1246 0 80.2016 14.8625 1192 149.42 272.472 459.408
1247 0 83.3641 18.3892 1533 141.011 271.412 460.826
1248 0 85.2592 18.1212 1545 145.428 269.416 453.53
1249 0 89.2067 16.6692 1487 149.925 267.783 452.638
1250 0 90.301 18.6155 1681 145.924 266.73 453.341
1251 1 47.1549 13.8056 651 150.273 267.045 472.246
1252 0 48.0374 12.1364 583 153.647 265.53 471.022
1253 0 48.1357 9.99259 481 162.657 264.295 467.684
1254 0 52.1836 16.1928 845 146.802 263.908 467.355
1255 0 54.1348 12.044 652 152.739 263.818 468.868
1256 0 55.1029 15.3168 844 144.456 263.088 466.778
1257 0 55.1537 17.7323 978 140.31 262.612 461.42
1258 0 56.2646 11.9436 672 148.729 261.381 456.574
1259 0 58.2591 15.8945 926 140.271 260.824 453.367
1260 0 58.1032 10.8428 630 147.552 262.416 455.267
1261 0 61.1694 12.8986 789 141.869 262.336 454.408
1262 0 65.2294 13.3529 871 139.134 262.962 451.389
1263 0 66.2083 10.4066 689 143.549 264.418 452.039
1264 0 67.0867 12.0143 806 145.445 265.795 447.239
1265 0 70.2101 11.608 815 144.661 267.339 443.994
1266 0 73.3591 12.5002 917 142.73 269.368 444.178
1267 0 75.1444 12.6024 947 140.929 270.668 441.926
1268 0 76.1634 11.5672 881 136.627 271.572 439.505
1269 0 82.3391 12.3028 1013 128.208 273.596 446.86
1270 1 41.2566 7.82904 323 128.133 274.412 462.802
1271 0 45.1162 8.97683 405 122.437 276.198 465.38
1272 0 47.222 11.1177 525 117.429 275.8 467.021
1273 0 44.161 9.14834 404 125.423 275.295 465.611
1274 0 47.1414 12.7913 603 128.342 274.751 466.756
1275 0 51.2391 12.7832 655 131.09 277.076 470.05
1276 0 51.1771 12.9941 665 136.063 276.726 470.826
1277 0 50.3091 13.4568 677 137.126 275.343 471.044
1278 0 55.2893 15.3013 846 131.213 274.331 470.959
1279 0 56.2343 10.6697 600 140.543 273.405 469.922
1280 0 58.2156 13.742 800 135.446 271.012 467.328
1281 0 57.3826 11.4146 655 140.957 270.194 464.305
1282 0 64.2328 16.9384 1088 129.048 268.733 465.031
1283 0 65.2504 15.0191 980 133.08 267.047 463.172
1284 0 67.2556 12.6384 850 136.506 265.787 463.779
1285 0 69.4538 12.1808 846 137.61 264.83 461.221
1286 0 71.4371 13.0604 933 136.387 264.048 459.456
1287 1 35.1559 8.78942 309 138.631 264.32 474.838
1288 0 39.0951 9.48968 371 135.526 263.585 473.243
1289 0 43.3373 14.0064 607 127.142 262.926 472.71
1290 0 41.037 10.3078 423 136.203 262.709 468.563
1291 0 41.0605 12.3476 507 132.742 261.844 471.266
1292 0 44.1175 13.2147 583 132.762 262.364 467.566
1293 0 42.0666 11.5769 487 137.729 262.591 465.507
1294 0 45.0741 9.85045 444 135.827 262.617 466.7
1295 0 50.1747 15.8446 795 121.132 264.145 467.391
1296 0 49.1001 16.4562 808 123.175 264.287 465.066
1297 0 48.1144 9.93465 478 138.923 263.364 464.121
1298 0 52.1115 13.6054 709 131.016 264.467 464.629
1299 0 53.1488 13.2458 704 130.851 268.312 465.381
1300 0 55.0452 13.607 749 132.223 269.386 461.824
1301 0 53.0756 13.2829 705 135.211 270.505 459.532
1302 0 59.2184 15.8565 939 128.579 271.453 460.341
1303 0 59.2446 15.1069 895 131.713 272.548 460.244
1304 0 61.2172 13.5583 830 136.488 273.005 458.523
1305 0 61.3024 13.7678 844 136.355 273.825 459.397
1306 0 65.1669 15.3912 1003 134.287 273.524 457.594
1307 0 67.1591 17.1235 1150 132.703 273.775 459.047
1308 0 70.2138 14.5983 1025 138.372 274.067 458.041
1309 0 71.2313 15.0496 1072 139.434 273.314 458.531
1310 0 76.2513 16.0391 1223 137.201 272.692 459.81
1311 0 77.276 17.7804 1374 136.428 271.812 459.694
1312 0 78.3445 15.6105 1223 143.239 270.07 455.06
1313 0 82.1952 16.4243 1350 141.324 268.321 456.57
1314 0 85.2388 14.0077 1194 148.152 266.791 453.272
1315 1 42.0875 8.48232 357 151.507 262.555 471.787
1316 0 45.0666 11.4719 517 149.366 262.375 470.259
1317 0 48.251 12.3728 597 144.229 259.915 470.348
1318 0 50.1548 13.2191 663 142.735 259.296 470.216
1319 0 47.038 12.2029 574 150.145 257.993 466.956
1320 0 52.0705 12.6559 659 146.948 257.52 466.739
1321 0 50.0291 14.9713 749 146.031 256.72 465.348
1322 0 50.0497 14.4856 725 139.07 257.241 462.988
1323 0 49.264 11.2861 556 145.083 258.331 461.475
1324 0 51.216 13.16 674 141.604 258.197 459.016
1325 0 52.3123 12.5783 658 142.076 258.419 459.207
1326 0 55.4423 17.1169 949 129.411 259.512 459.625
1327 0 50.3169 13.6535 687 142.461 259.696 455.344
1328 0 53.2481 12.0004 639 144.421 260.027 456.743
1329 0 52.373 13.2129 692 142.434 260.834 453.374
1330 0 54.1701 13.3838 725 140.817 262.346 455.03
1331 0 54.268 15.0733 818 135.456 264.313 455.07
1332 0 53.2208 11.9314 635 144.485 265.488 455.361
1333 0 54.2092 13.2081 716 140.267 266.722 455.455
1334 0 52.193 12.8753 672 140.807 268.885 455.438
1335 0 55.2532 13.2662 733 136.423 270.911 457.068
1336 0 55.2035 13.3506 737 133.407 271.764 457.126
1337 0 55.2114 14.3811 794 134.521 272.89 459.301
1338 0 57.2982 14.73 844 124.532 273.736 460.592
1339 0 55.1322 13.3497 736 127.351 273.548 460.439
1340 0 55.2717 12.7552 705 130.377 273.851 460.617
1341 0 56.0815 14.9425 838 135.43 274.128 466.521
1342 0 56.1161 13.276 745 144.432 274.085 468.584
1343 0 55.1824 13.0476 720 148.119 274.11 466.415
1344 0 55.136 12.7503 703 148.228 273.377 466.394
1345 0 57.1088 14.1134 806 143.769 271.732 467.864
1346 0 57.1781 16.8946 966 137.224 271.081 468.287
1347 0 55.1236 12.3722 682 148.933 269.814 466.254
1348 0 56.1562 14.709 826 142.501 268.113 466.915
1349 0 57.2348 13.995 801 143.34 266.398 467.155
1350 0 56.1437 13.3408 749 145.622 265.521 465.752
1351 0 57.1982 15.9446 912 138.74 264.464 465.149
1352 0 58.1428 15.7027 913 137.255 263.446 466.434
1353 0 57.1686 15.4805 885 136.849 262.397 464.719
1354 0 57.1873 14.4438 826 138.168 261.696 462.978
1355 0 56.0876 12.534 703 143.869 260.977 461.02
1356 0 58.1114 17.2083 1000 132.372 260.366 459.779
1357 0 59.1489 15.4356 913 134 260.309 460.439
1358 0 57.0167 17.2406 983 131.502 260.108 457.245
1359 0 58.0986 13.5287 786 138.216 259.478 456.892
1360 0 60.0473 16.7035 1003 130.09 260.727 455.91
1361 0 58.1001 13.6833 795 137.567 261.557 455.942
1362 0 59.1211 13.5654 802 138.3 261.843 454.519
1363 0 58.0832 12.7748 742 138.019 264.528 455.584
1364 0 59.1216 15.6965 928 133.087 265.466 453.626
1365 0 59.1641 13.7753 815 135.957 267.395 453.618
1366 0 59.1335 14.053 831 134.351 268.697 454.588
1367 0 60.1397 16.5115 993 129.075 270.172 452.094
1368 0 59.1394 15.2352 901 125.212 272.988 455.794
1369 0 59.2264 12.9503 767 129.648 272.858 457.272
1370 0 65.2018 16.748 1092 117.7 274.776 457.18
1371 0 59.1362 16.1323 954 120.838 275.43 456.354
1372 0 60.1245 14.4201 867 125.343 275.413 458.614
1373 0 59.0662 15.7789 932 126.799 275.943 461.786
1374 0 57.0833 16.292 930 128.12 275.54 462.605
1375 0 58.1196 14.5046 843 136.47 275.429 462.945
1376 0 57.0737 14.858 848 138.665 275.276 464.605
1377 0 56.0942 13.2277 742 145.038 275.434 464.12
1378 0 55.0764 12.637 696 146.616 274.454 463.625
1379 0 57.1053 16.3382 933 137.834 272.913 463.004
