time division length width area intensity CMx CMy
0 0 189.968 22.1879 4215 121.086 669.532 394.127
1 1 98.0141 17.977 1762 121.297 670.927 424.248
2 0 100.231 17.3999 1744 120.096 670.826 427.563
3 0 101.505 24.1958 2456 113.55 671.55 425.52
4 0 106.515 24.7007 2631 112.914 671.555 424.247
5 0 104.207 17.7818 1853 114.201 671.62 437.339
6 0 109.804 17.1033 1878 113.942 671.625 436.215
7 0 114.663 22.274 2554 110.559 671.159 435.336
8 0 118.647 25.9003 3073 110.744 670.338 429.441
9 0 124.922 29.9308 3739 110.673 669.324 412.394
10 0 126.628 17.7923 2253 116.558 668.88 413.421
11 1 66.1185 10.9349 723 114.763 667.698 443.812
12 0 74.4026 14.0855 1048 108.29 667.928 450.466
13 0 75.4306 19.9919 1508 107.635 666.039 443.91
14 0 78.4796 14.8064 1162 110.485 665.27 450.296
15 0 80.1714 24.0609 1929 105.98 663.813 447.616
16 0 80.2037 13.7151 1100 121.695 661.893 436.677
17 0 82.4532 11.7885 972 123.123 660.443 442.074
18 0 91.328 24.2423 2214 113.055 659.369 437.948
19 0 88.3071 17.5977 1554 124.256 657.746 433.599
20 1 46.1865 9.93796 459 128.93 658.776 456.129
21 0 48.0974 10.3124 496 130.421 658.186 452.056
22 0 51.1855 11.8979 609 126.675 658.396 452.997
23 0 54.4619 12.5592 684 126.567 657.519 448.364
24 0 55.3151 15.1315 837 122.503 657.099 448.093
25 0 54.3646 11.6988 636 129.962 656.563 445.64
26 0 56.4445 10.9134 616 130.078 657.607 445.769
27 0 59.2951 17.9441 1064 119.201 656.88 438.33
28 0 59.2361 9.25112 548 129.723 656.951 438.834
29 0 64.3311 9.83972 633 122.384 659.166 441.67
30 0 68.3807 12.9423 885 115.049 660.697 440.224
31 0 68.4311 9.70319 664 115.425 661.718 440.586
32 0 72.6114 15.4934 1125 105.878 663.59 443.947
33 0 74.6047 17.7871 1327 101.387 664.528 450.142
34 0 75.6415 12.6915 960 107.081 666.29 445.834
35 0 81.7643 21.3907 1749 102.842 667.959 442.744
36 0 84.0127 21.223 1783 105.598 668.623 428.484
37 0 86.7359 19.8418 1721 105.044 668.778 442.192
38 0 96.4054 17.8413 1720 107.009 670.136 437.032
39 0 92.2667 11.716 1081 112.455 669.908 434.448
40 1 51.646 15.4707 799 102.054 670.454 462.841
41 0 54.4248 13.8724 755 101.967 670.52 463.293
42 0 52.472 16.1801 849 105.909 670.208 454.087
43 0 65.1518 16.1469 1052 102.716 668.799 459.32
44 0 62.5953 21.5671 1350 101.936 666.642 459.016
45 0 58.4719 10.4324 610 111.308 665.89 458.513
46 0 62.4601 29.9711 1872 98.2746 664.939 462.292
47 0 61.6732 21.8571 1348 103.809 663.283 459.649
48 0 62.1301 13.8741 862 110.767 661.245 460.2
49 0 65.4314 11.0039 720 117.242 659.207 456.76
50 0 64.4206 11.4404 737 124.852 657.507 456.626
51 0 71.3738 15.0055 1071 122.354 657.214 451.364
52 0 71.432 15.9312 1138 124.685 656.279 453.29
53 0 72.1714 14.6873 1060 135.713 656.916 448.546
54 0 77.1555 13.7126 1058 136.253 656.834 445.815
55 0 78.4563 13.6764 1073 138.972 654.929 443.422
56 1 39.1461 13.2069 517 135.573 655.586 459.074
57 0 44.1922 12.1062 535 130.901 655.744 459.867
58 0 45.2392 11.7376 531 134.475 655.458 455.475
59 0 47.1923 10.828 511 130.446 656.02 458.129
60 0 45.1408 9.19345 415 137.629 655.152 455.978
61 0 47.0338 9.82271 462 133.522 655.89 456.234
62 0 49.061 13.3304 654 128.573 655.315 453.567
63 0 53.7947 26.6383 1433 109.042 655.523 450.676
64 0 57.2308 14.3454 821 121.926 659.616 453.391
65 0 55.2712 19.2324 1063 113.998 660.013 453.418
66 0 56.4019 15.1059 852 115.797 663.315 451.205
67 0 58.5206 14.9178 873 114.473 665.569 452.326
68 0 61.4018 17.2471 1059 109.109 666.75 457.89
69 0 57.4006 25.3482 1455 105.496 667.034 457.063
70 0 61.3549 12.9248 793 114.588 669.172 456.296
71 0 65.3239 18.5996 1215 108.174 669.281 459.127
72 0 69.1958 21.0851 1459 108.634 670.062 453.448
73 0 67.1253 16.566 1112 114.535 670.724 451.504
74 0 68.344 12.32 842 116.312 669.28 455.646
75 0 73.2428 20.5344 1504 109.074 668.777 454.788
76 0 70.3316 13.6923 963 113.694 665.472 458.123
77 0 75.7915 18.8939 1432 112.483 665.566 452.339
78 0 78.7227 19.2067 1512 110.356 664.653 457.506
79 0 72.4431 16.4957 1195 110.436 664.803 458.323
80 0 80.4119 17.0373 1370 111.208 662.942 450.131
81 1 182.944 33.9557 6212 108.983 662.291 404.745
82 0 183.211 22.3568 4096 118.839 660.749 406.891
83 1 43.0258 8.48329 365 127.112 657.666 466.318
84 0 47.235 9.65387 456 115.605 656.02 470.98
85 0 45.0338 14.7445 664 119.008 655.384 462.745
86 0 46.1979 13.4855 623 130.377 656.604 457.547
87 0 50.2361 14.3323 720 126.188 656.067 460.239
88 0 50.1994 15.1595 761 126.928 655.51 459.815
89 0 51.4068 11.6522 599 134.743 655.144 457.818
90 0 52.2905 13.0425 682 132.691 654.108 454.689
91 0 55.219 13.3287 736 131.78 654.507 453.383
92 0 57.2433 17.0675 977 125.342 654.016 451.232
93 0 61.2071 19.2298 1177 121.41 653.471 451.109
94 0 57.3379 13.0455 748 133.167 653.896 452.086
95 0 63.0646 15.0639 950 126.176 654.178 448.185
96 0 59.2421 11.7484 696 130.616 654.981 449.606
97 0 62.3003 13.3868 834 133.432 655.837 444.504
98 0 69.1794 15.6839 1085 120.837 658.312 444.531
99 0 68.1372 13.6343 929 118.745 660.054 446.505
100 0 72.3783 11.8268 856 116.518 662.174 447.368
101 0 76.3143 15.6196 1192 110.182 663.16 450.323
102 0 75.6004 29.9205 2262 103.469 663.042 443.985
103 0 79.6444 27.9869 2229 101.287 663.448 450.989
104 0 84.9864 19.2619 1637 108.266 666.081 448.447
105 0 89.4967 20.7605 1858 106.853 665.815 446.088
106 0 88.4232 10.5855 936 116.968 666.168 439.58
107 0 98.8465 23.5314 2326 108 666.714 432.826
108 1 49.5115 10.5026 520 110.971 665.835 463.244
109 0 54.5648 17.6854 965 107.425 667.777 455.538
110 0 50.2437 12.2005 613 110.979 667.281 465.631
111 0 54.2573 31.664 1718 100.828 664.73 462.371
112 0 61.4902 22.6703 1394 102.204 665.958 466.141
113 0 59.2881 25.1484 1491 102.726 664.53 464.447
114 0 59.2881 25.1653 1492 113.366 664.564 464.474
115 0 62.2916 16.2301 1011 111.156 662.588 461.688
116 0 69.3363 24.922 1728 103.373 660.123 464.387
117 0 66.1485 15.7978 1045 116.694 659.244 453.355
118 0 67.0957 14.0396 942 121.775 658.344 451.893
119 0 69.289 13.0468 904 134.237 656.365 450.937
120 0 70.1303 13.5177 948 132.4 655.171 448.82
121 0 75.2982 13.6391 1027 135.324 654.038 449.502
122 0 78.2309 14.4955 1134 134.968 652.653 445.729
123 0 80.0604 14.9887 1200 132.629 649.628 442.793
124 0 81.137 13.1999 1071 138.489 649.643 437.598
125 1 44.0599 11.8021 520 138.665 648.54 457.971
126 0 45.1029 11.4849 518 137.749 650.925 457.558
127 0 47.0885 12.3809 583 135.803 650.825 457.794
128 0 48.0574 12.9221 621 136.443 650.193 453.137
129 0 51.0979 15.4605 790 127.8 651.761 453.938
130 0 52.2134 12.6596 661 128.298 652.464 454.808
131 0 51.1385 11.4786 587 127.426 654.44 454.513
132 0 57.0985 13.1177 749 120.04 655.084 453.118
133 0 59.4818 12.5921 749 117.019 657.885 453.836
134 0 57.0927 9.73854 556 116.833 661.201 453.959
135 0 61.5327 16.349 1006 109.864 662.665 451.186
136 0 59.2286 9.15098 542 115.292 663.978 455.162
137 0 65.32 16.3656 1069 110.787 664.654 448.77
138 0 67.3579 13.5545 913 112.704 665.366 446.422
139 0 66.3347 17.9544 1191 109.535 665.475 446.623
140 0 65.2365 9.01336 588 116.304 665.359 448.861
141 0 65.2365 8.84474 577 136.489 665.333 448.742
142 1 146.889 12.5809 1848 118.081 663.989 429.622
143 0 146.015 16.2175 2368 114.466 662.726 432.177
144 0 156.144 16.4912 2575 117.569 662.53 413.728
145 0 155.959 15.3309 2391 121.274 661.627 405.682
146 1 170.906 20.2157 3455 112.245 660.436 426.849
147 0 167.603 20.5664 3447 115.547 659.417 418.83
148 1 260.358 24.5354 6388 116.945 657.905 376.995
149 1 142.465 26.6803 3801 111.013 656.572 427.725
150 1 55.3685 16.038 888 115.957 655.193 464.598
151 0 56.3413 10.8801 613 124.16 653.093 463.282
152 0 57.5567 23.6984 1364 111.941 651.523 463.578
153 0 56.1586 12.803 719 128.875 650.146 461.236
154 0 59.0663 15.4403 912 128.087 648.795 456.758
155 0 61.0918 14.3882 879 129.237 647.804 458.398
156 0 61.4184 16.412 1008 128.27 646.947 457.947
157 0 60.2193 13.866 835 134.055 646.744 454.838
158 0 60.2193 13.783 830 151.935 645.699 454.993
159 0 67.1873 20.4056 1371 120.022 645.64 455.773
160 0 67.1466 15.1609 1018 131.662 646.395 447.74
161 0 68.2119 13.7953 941 132.938 646.368 445.852
162 0 72.1894 13.6724 987 130.018 646.687 446.082
163 0 74.258 16.6582 1237 122.11 647.258 448.884
164 0 79.488 16.8579 1340 121.999 649.052 442.584
165 0 88.1634 14.3484 1265 117.348 651.564 447.458
166 1 48.5413 13.3288 647 113.587 653.957 458.736
167 0 51.2415 9.64063 494 115.751 655.492 457.727
168 0 49.4583 18.1769 899 106.862 656.931 458.178
169 0 54.35 16.265 884 104.423 658.99 461.319
170 0 51.9269 15.7722 819 101.243 659.773 467.552
171 0 55.5425 12.5669 698 107.341 661.274 462.377
172 0 51.0937 9.82508 502 111.124 661.476 462.988
173 0 53.8093 20.1452 1084 104.386 661.074 459.878
174 0 55.4194 22.014 1220 103.976 660.355 455.861
175 0 57.1908 24.4969 1401 102.623 660.587 456.757
176 0 54.1297 12.4331 673 112.727 659.863 455.645
177 0 59.5596 11.266 671 110.766 658.869 462.139
178 0 60.6333 15.0907 915 110.741 659.049 456.527
179 0 68.1509 12.0908 824 109.613 657.336 463.538
180 0 66.0856 9.7752 646 112.997 657.006 466.057
181 0 65.7933 21.4003 1408 107.83 656.357 455.332
182 0 71.8306 16.9148 1215 111.591 654.732 454.825
183 0 68.4571 11.3648 778 119.284 653.648 454.235
184 0 73.6278 20.0468 1476 109.959 652.476 459.717
185 0 74.3975 23.2669 1731 111.688 651.047 454.7
186 1 38.1002 12.5983 480 118.671 648.312 470.046
187 0 43.2473 13.0644 565 118.533 650.881 470.051
188 0 44.9618 13.4559 605 117.641 648.476 470.423
189 0 46.8634 12.9952 609 119.736 646.924 464.002
190 0 49.081 15.9736 784 119.856 646.809 461.628
191 0 45.1188 12.5003 564 122.856 647.135 465.892
192 0 46.1926 10.2181 472 129.712 646.695 463.333
193 0 48.3245 14.0508 679 122.483 646.882 463.094
194 0 48.0388 15.3834 739 120.586 647.321 461.29
195 0 51.1246 16.939 866 121.12 646.602 454.044
196 0 50.0368 13.1104 656 125.29 646.793 455.642
197 0 59.3737 11.8908 706 117.248 651.479 459.064
198 0 56.0845 13.8719 778 116.188 652.653 456.21
199 0 55.3144 10.5759 585 119.239 654.398 453.501
200 0 59.5934 18.6095 1109 110.95 655.511 451.575
201 0 62.5698 15.8543 992 110.758 656.798 453.483
202 1 126.729 17.0916 2166 116.378 657.638 420.742
203 0 126.969 19.6978 2501 115.507 659.573 412.18
204 0 132.847 25.3375 3366 111.015 660.364 419.626
205 1 62.3468 18.0763 1127 111.315 662.546 450.146
206 0 67.2151 12.7799 859 115.858 662.626 446.945
207 0 73.369 26.9869 1980 104.611 662.254 450.612
208 0 70.316 21.1474 1487 110.759 662.337 443.367
209 0 75.3747 10.6667 804 116.499 662.264 454.854
210 0 75.3894 10.333 779 118.494 662.368 452.662
211 1 339.269 28.4819 9663 118.475 660.576 322.03
212 0 344.421 19.8216 6827 125.748 659.812 322.824
213 1 88.3313 13.3928 1183 117.495 659.687 451.02
214 0 92.8108 21.9263 2035 111.125 658.727 447.92
215 0 88.3841 19.2229 1699 114.8 657.99 447.77
216 0 94.3109 19.5948 1848 113.346 656.572 450.739
217 1 51.1833 13.5786 695 116.453 656.109 467.063
218 0 53.1755 11.415 607 120.012 655.074 464.183
219 0 53.1183 9.73299 517 123.352 653.795 463.913
220 0 53.2816 17.3794 926 118.49 649.001 461.984
221 0 56.128 11.26 632 128.384 647.517 460.142
222 0 61.3843 12.6417 776 127.718 645.948 458.719
223 0 59.2589 12.4201 736 134.599 645.22 454.624
224 0 62.1013 16.7951 1043 131.493 645.17 455.581
225 0 61.1299 15.7043 960 136.129 644.294 454.093
226 0 64.1572 14.6827 942 138.525 644.46 448.726
227 0 68.1757 15.0934 1029 136.682 644.377 445.875
228 0 68.16 12.2359 834 141.946 644.376 447.475
229 0 71.0849 17.4861 1243 131.225 645.501 445.393
230 0 72.0904 17.8664 1288 130.889 646.746 441.863
231 0 76.185 14.0185 1068 130.85 647.482 445.91
232 0 76.1496 9.73084 741 132.19 649.509 446.517
233 0 81.0786 14.5291 1178 125.313 651.196 442.093
234 0 82.2638 19.2187 1581 116.741 653.508 446.872
235 0 88.2605 18.7513 1655 114.963 655.468 445.674
236 0 88.4805 28.5939 2530 111.292 656.638 434.169
237 0 89.6984 15.3403 1376 120.057 658.182 436.468
238 0 94.2995 18.9184 1784 116.001 658.605 438.494
239 0 96.4643 20.3702 1965 111.608 660.124 444.015
240 0 99.9917 23.0419 2304 111.512 660.517 439.098
241 1 56.1438 11.9693 672 112.046 660.016 462.086
242 0 54.2265 9.86603 535 115.194 660.024 458.948
243 0 56.3278 18.2858 1030 109.693 659.984 456.528
244 0 55.0926 16.5721 913 109.526 659.061 462.078
245 0 64.2005 23.411 1503 105.057 659.029 463.478
246 0 60.1734 15.9871 962 111.417 657.678 459.9
247 0 62.2168 24.7843 1542 107.706 657.39 456.097
248 0 62.1715 24.7058 1536 106.538 655.963 462.979
249 0 72.2634 17.8929 1293 113.765 655.135 453.015
250 0 70.2196 13.4008 941 118.333 653.323 457.781
251 0 72.318 22.4149 1621 113.643 652.563 450.738
252 0 72.1397 17.9236 1293 118.254 650.591 458.916
253 0 73.2213 13.8348 1013 131.265 649.471 448.954
254 0 77.2899 18.1524 1403 127.621 648.358 447.215
255 0 78.3941 14.8608 1165 133.372 646.937 448.406
256 0 78.5421 14.2599 1120 141.782 646.089 440.396
257 0 86.5306 14.804 1281 139.767 645.79 444.166
258 0 88.3462 16.3335 1443 137.636 644.798 439.772
259 0 89.2748 16.6116 1483 138.639 644.652 435.26
260 0 95.6847 17.9026 1713 136.013 644.825 434.577
261 0 95.4891 16.515 1577 132.909 645.238 434.055
262 1 54.3393 13.6181 740 127.37 645.331 455.453
263 0 55.2594 12.3056 680 128.231 645.716 454.779
264 0 54.4558 15.9579 869 123.377 646.586 449.283
265 0 59.9433 17.8836 1072 116.042 648.689 453.884
266 0 61.2527 18.5135 1134 115.671 650.103 450.601
267 0 62.5051 14.5588 910 116.278 652.276 453.442
268 0 60.435 14.8093 895 115.322 654.21 451.845
269 0 65.597 31.8002 2086 101.484 654.951 454.889
270 0 64.2457 20.8263 1338 108.404 657.661 456.877
271 0 70.4478 17.8146 1255 110.912 658.4 454.949
272 0 76.7775 10.2113 784 117.202 660.092 454.291
273 0 79.6989 26.1484 2084 106.847 660.134 452.073
274 0 79.3684 24.1028 1913 109.945 660.454 449.234
275 0 72.4329 16.9812 1230 116.65 660.126 451.393
276 0 80.756 16.5313 1335 115.557 660.531 454.187
277 0 78.519 13.7292 1078 120.455 659.357 452.143
278 0 92.221 21.0256 1939 110.903 659.665 455.955
279 0 89.5039 18.7478 1678 115.423 658.703 451.843
280 0 89.3021 16.0131 1430 120.678 656.99 441.871
281 0 93.4495 14.9599 1398 118.797 655.436 448.188
282 0 94.3635 16.2987 1538 121.852 655.535 438.008
283 1 50.1941 8.68627 436 122.264 654.722 460.133
284 0 51.3659 10.1624 522 122.142 653.477 460.958
285 0 51.3545 17.5058 899 116.103 652.175 462.076
286 0 54.1173 12.4175 672 124.327 651.332 460.671
287 0 61.839 13.616 842 122.089 650.949 461.514
288 0 58.184 14.6776 854 127.994 648.697 455.605
289 0 58.0912 12.4287 722 133.434 647.835 455.094
290 0 60.0514 12.1396 729 139.251 646.527 450.501
291 0 64.1842 16.1878 1039 127.337 646.044 449.759
292 0 66.2608 13.6883 907 131.815 646.269 448.808
293 0 66.5977 12.7032 846 132.618 645.848 447.917
294 0 69.3407 12.7631 885 133.489 645.427 447.063
295 0 72.1362 12.5457 905 129.678 645.58 446.31
296 0 74.3338 21.0402 1564 115.285 645.389 450.219
297 0 74.3866 12.8383 955 126.906 647.664 442.026
298 0 74.3866 12.8249 954 150.959 649.677 441.861
299 0 84.3069 21.0303 1773 113.311 650.418 440.023
300 0 88.9987 20.2587 1803 107.606 652.056 446.409
301 1 49.3668 14.8278 732 117.221 652.637 458.314
302 0 52.4006 13.1105 687 116.074 654.384 456.771
303 0 54.4409 21.4361 1167 105.467 656.033 461.015
304 0 59.1935 18.7183 1108 108.496 657.609 455.686
305 0 59.3078 21.38 1268 105.021 658.512 459.52
306 0 59.337 16.2799 966 111.308 658.807 454.941
307 0 63.3324 9.18962 582 115.146 658.955 460.811
308 0 61.054 8.53342 521 117.288 658.449 458.871
309 0 63.2266 10.6442 673 110.863 659.091 467.77
310 0 67.838 23.7772 1613 105.112 658.69 460.322
311 0 71.2919 29.4564 2100 100.863 657.415 464.996
312 0 67.2875 17.2097 1158 115.13 657.503 457.553
313 0 68.2745 15.9503 1089 121.029 655.847 457.967
314 0 73.2917 24.2592 1778 112.575 655.417 461.684
315 0 75.1254 16.945 1273 129.497 653.812 455.306
316 0 76.1958 18.4262 1404 128.182 652.595 451.915
317 0 77.292 14.2964 1105 140.608 650.616 446.947
318 0 80.2113 18.0773 1450 133.152 649.477 443.9
319 1 42.1014 10.261 432 143.683 652.312 467.042
320 0 42.0619 11.2691 474 148.778 650.865 465.802
321 0 45.0317 13.2129 595 138.892 650.449 465.548
322 0 47.1612 13.6129 642 134.589 649.039 464.526
323 0 48.0246 16.4083 788 132.353 648.868 462.124
324 0 50.0348 13.3507 668 139.202 648.238 460.549
325 0 52.1287 15.3275 799 138.073 646.673 458.642
326 0 51.0467 14.4182 736 139.247 647.167 456.196
327 0 53.0933 15.2938 812 141.143 646.986 454.908
328 0 53.1226 12.8382 682 145.906 648.176 454.05
329 0 56.2304 14.5117 816 137.35 648.076 455.382
330 0 58.1563 13.2574 771 140.143 648.817 451.798
331 0 59.0827 13.1849 779 144.714 650.481 452.042
332 0 59.0542 13.8009 815 135.399 651.703 449.41
333 0 65.2585 16.3657 1068 126.159 653.297 450.836
334 0 65.1786 14.6521 955 127.621 655.419 447.711
335 0 70.2474 17.1821 1207 118.308 656.849 449.722
336 0 72.2489 27.862 2013 105.412 657.572 450.92
337 0 81.8881 19.2824 1579 110.454 659.127 450.139
338 0 79.4033 27.6185 2193 104.668 659.704 450.6
339 0 76.2678 19.6938 1502 113.146 660.938 448.256
340 0 82.5391 20.148 1663 110.37 661.203 449.095
341 0 84.4975 17.2194 1455 114.566 660.945 448.81
342 1 49.5654 16.5841 822 110.405 661.314 468.101
343 0 49.5654 16.4631 816 139.208 660.257 468.024
344 0 47.229 15.3719 726 119.767 659.979 466.503
345 0 48.2605 14.7118 710 123.417 659.18 468.132
346 0 50.149 13.3602 670 139.291 657.66 469.794
347 0 54.1443 17.6935 958 128.304 657.716 467.2
348 0 51.4454 14.3453 738 139.751 655.741 466.664
349 0 54.159 15.4176 835 140.125 651.872 464.392
350 0 56.0928 14.69 824 146.001 650.263 464.147
351 0 55.223 15.1205 835 149.811 650.192 463.599
352 0 55.223 15.1386 836 144.763 649.197 463.512
353 0 56.3278 13.2794 748 155.108 648.628 458.544
354 0 58.1772 12.8229 746 155.822 647.55 457.999
355 0 62.2365 14.5092 903 149.628 647.012 457.262
356 0 64.3482 14.8878 958 150.435 645.861 453.564
357 0 65.2607 15.1546 989 148.296 645.627 452.199
358 0 69.4162 13.0517 906 153.143 645.208 449.253
359 0 71.2953 13.1565 938 150.479 644.947 451.099
360 0 76.3842 16.3777 1251 140.442 645.098 447.071
361 0 73.5337 13.5992 1000 150.16 645.16 443.873
362 0 80.3797 16.8202 1352 139.369 645.365 443.484
363 0 84.4311 16.2263 1370 138.363 647.066 443.736
364 1 45.403 12.0477 547 137.276 647.768 461.653
365 0 45.3113 12.05 546 141.374 649.434 454.905
366 0 48.6397 11.3487 552 135.025 649.348 456.301
367 0 47.2221 8.42826 398 135.465 650.485 457.146
368 0 54.3375 21.7714 1183 109.556 652.784 459.294
369 0 53.0958 12.1855 647 117.097 654.927 458.666
370 0 59.3467 13.4633 799 110.969 656.806 458.357
371 0 59.2509 15.4259 914 110.979 659.248 456.958
372 0 61.2451 14.4828 887 107.967 659.662 464.389
373 0 62.6907 17.4986 1097 103.78 660.481 468.833
374 0 63.4248 16.0505 1018 108.603 660.927 460.896
375 0 62.4012 18.6054 1161 108.189 660.352 460.994
376 0 68.4436 21.536 1474 106.809 660.012 458.25
377 0 71.1786 29.4892 2099 101.997 659.176 460.132
378 0 72.2989 15.4221 1115 121.461 658.368 458.005
379 0 75.3985 15.4645 1166 123.19 657.72 455.927
380 0 81.4471 16.0227 1305 123.593 657.018 456.852
381 0 79.1965 15.0259 1190 129.664 655.678 454.395
382 1 42.0751 13.4997 568 130.993 654.951 474.63
383 0 42.0156 9.80589 412 141.235 653.41 474.053
384 0 44.0346 12.3766 545 141.681 651.919 470.114
385 0 45.116 11.681 527 143.814 650.351 468.772
386 0 45.0313 12.6135 568 143.438 648.329 464.428
387 0 47.0801 15.4842 729 136.569 646.246 464.576
388 0 50.2092 15.9134 799 135.791 645.562 463.414
389 0 52.2015 14.7314 769 138.1 645.103 461.072
390 0 54.14 15.109 818 136.161 644.851 460.82
391 0 55.1952 14.9107 823 135.841 643.456 459.509
392 0 55.1493 13.6538 753 140.955 643.165 457.79
393 0 55.1602 13.1617 726 140.401 643.333 457.12
394 0 60.2574 14.1227 851 138.036 644.267 454.213
395 0 60.1076 13.7587 827 137.363 644.648 453.538
396 0 61.1512 13.0006 795 142.255 644.974 449.946
397 0 65.1421 13.0484 850 136.24 646.219 448.461
398 0 67.0821 15.25 1023 131.67 647.282 445.979
399 0 70.3385 13.0227 916 131.633 648.807 447.838
400 0 74.1359 15.5121 1150 125.523 651.371 443.991
401 0 76.1786 13.3765 1019 125.257 653.186 446.287
402 0 75.4464 11.0675 835 123.938 655.717 445.043
403 0 79.2296 18.4653 1463 111.357 657.876 446.891
404 0 86.5061 13.8025 1194 112.482 658.784 446.729
405 0 88.3794 11.5412 1020 114.561 659.001 449.085
406 0 84.3643 11.3199 955 118.581 658.977 446.673
407 0 90.4151 17.0547 1542 109.967 659.931 450.44
408 0 97.2742 28.2089 2744 103.791 659.066 448.626
409 1 48.1799 8.77959 423 119.184 657.891 465.374
410 0 48.247 12.4567 601 125.151 657.246 460.609
411 0 52.0315 13.1267 683 126.344 657.776 463.022
412 0 55.0812 12.0912 666 129.806 657.156 467.126
413 0 56.116 15.0403 844 126.308 654.91 463.667
414 0 60.1788 13.4765 811 133.654 653.779 462.921
415 0 62.1491 14.063 874 132.275 652.998 459.422
416 0 65.327 14.2514 931 132.503 651.46 461.669
417 0 63.2145 12.8135 810 142.058 649.611 459.252
418 0 67.2146 14.4611 972 141.118 648.395 456.571
419 0 68.0698 14.3235 975 142.503 647.091 451.361
420 0 73.1708 15.7986 1156 138.254 645.863 450.384
421 0 74.1849 15.367 1140 139.392 645.018 445.903
422 0 76.2178 13.4745 1027 143.216 644.765 443.992
423 0 79.3097 14.7019 1166 141.136 644.171 444.025
424 0 85.2937 16.0035 1365 137.919 644.337 441.669
425 0 85.18 11.7751 1003 145.668 643.632 440.637
426 0 89.4662 15.9166 1424 137.178 645.414 441.02
427 0 90.2356 14.3181 1292 141.218 645.579 439.905
428 1 46.0897 10.3494 477 147.338 645.145 457.394
429 0 49.2285 13.0412 642 140.265 645.998 458.213
430 0 53.2787 13.8705 739 137.468 645.788 456.586
431 0 53.2603 12.2981 655 138.411 647.432 454.856
432 0 56.2057 16.0126 900 131.479 649.03 452.422
433 0 56.2057 15.977 898 124.146 650.993 452.353
434 0 59.242 15.0738 893 131.571 653.299 448.89
435 0 61.5033 13.544 833 126.502 655.104 453.861
436 0 67.5775 17.9794 1215 113.741 656.104 456.38
437 0 69.2722 12.9056 894 112.201 657.744 459.848
438 0 70.2333 15.9896 1123 133.532 660.195 452.573
439 0 66.3222 15.9374 1057 116.613 658.954 453.053
440 0 72.4408 25.0135 1812 107.295 658.701 456.006
441 0 75.2382 18.3949 1384 114.671 659.931 448.184
442 0 76.4018 21.4785 1641 113.017 659.278 453.383
443 0 80.4342 22.1672 1783 116.113 658.3 453.119
444 0 83.4486 17.2442 1439 123.846 658.313 452.871
445 0 84.3254 19.4485 1640 126.601 657.655 449.868
446 0 85.1638 16.3684 1394 134.141 656.71 448.748
447 0 90.4374 16.5086 1493 134.552 654.888 449.007
448 0 93.0631 17.9878 1674 138.374 653.651 445.441
449 0 93.2797 16.6381 1552 139.661 652.799 447.575
450 0 97.2442 14.8389 1443 146.091 651.009 442.326
451 1 51.1166 14.1637 724 145.587 648.905 466.402
452 0 54.1573 15.972 865 144.301 647.49 462.555
453 0 55.1002 13.0852 721 149.252 646.305 464.196
454 0 59.4936 14.1696 843 145.679 644.977 463.784
455 0 55.1707 14.5186 801 152.191 645.363 460.361
456 0 58.2909 14.4105 840 152.973 644.512 456.064
457 0 63.3695 17.2165 1091 143.626 643.775 456.346
458 0 62.2334 16.1167 1003 148.141 643.848 452.404
459 0 64.1477 14.9655 960 154.169 643.706 452.547
460 0 68.1748 14.0668 959 153.075 643.742 452.906
461 0 68.0821 14.6735 999 153.808 644.074 449.051
462 0 70.1496 14.5831 1023 156.561 644.399 446.936
463 0 74.2735 17.7991 1322 145.375 645.485 447.543
464 0 76.3433 15.6137 1192 149.827 646.782 444.473
465 0 80.1835 15.901 1275 145.83 648.217 444.393
466 0 82.441 19.4927 1607 137.658 649.833 442.034
467 1 42.0211 11.8274 497 148.823 651.095 460.63
468 0 41.0704 10.762 442 143.489 653.285 457.609
469 0 45.0551 12.4958 563 128.725 657.211 463.531
470 0 47.1784 9.87741 466 132.637 657.416 463.148
471 0 51.0749 17.8561 912 119.521 659.212 461.169
472 0 55.0757 15.3062 843 120.435 658.935 461.165
473 0 52.1475 14.6316 763 124.704 658.149 463.262
474 0 59.1723 14.3479 849 120.145 659.535 464.339
475 0 58.1756 17.9629 1045 119.084 658.868 463.998
476 0 58.1266 14.0039 814 128.958 658.319 463.559
477 0 60.1064 15.9551 959 136.025 657.964 459.324
478 0 66.2815 17.3201 1148 132.248 656.949 462.279
479 0 65.1428 16.0877 1048 140.797 656.173 457.785
480 0 65.099 14.8697 968 151.39 655.289 457.683
481 0 69.2247 14.8502 1028 150.135 654.103 457.86
482 0 72.1112 15.906 1147 149.8 653.242 456.217
483 0 73.1677 14.7606 1080 155.709 651.684 455.456
484 0 78.142 17.8009 1391 151.185 650.385 450.537
485 0 80.2146 17.5778 1410 152.802 649.43 447.092
486 0 84.1717 17.4881 1472 152.317 648.175 446.019
487 1 42.0141 11.9484 502 159.94 646.376 468.094
488 0 45.0376 12.4563 561 158.358 645.431 465.991
489 0 45.0329 10.6367 479 160.265 645.134 465.585
490 0 47.1296 12.0094 566 158.56 645.435 462.678
491 0 50.112 15.5651 780 151.326 644.022 460.354
492 0 51.0522 13.6331 696 153.918 644.869 458.996
493 0 52.164 15.1445 790 148.685 644.787 455.694
494 0 54.0691 15.1658 820 150.323 644.612 455.407
495 0 56.0335 15.455 866 148.707 645.77 454.398
496 0 58.1185 15.6577 910 145.823 646.896 452.207
497 0 61.1712 14.8436 908 146.879 648.031 451.761
498 0 62.1533 14.6573 911 147.926 649.979 451.289
499 0 65.0558 16.97 1104 134.257 652.317 448.083
500 0 66.273 14.742 977 136.595 654.754 449.933
501 0 69.3003 17.6767 1225 130.436 655.681 451.06
502 0 71.2785 16.0497 1144 126.809 657.546 443.788
503 0 76.4654 24.7171 1890 113.066 658.601 447.13
504 0 76.1445 18.675 1422 118.402 659.391 441.589
505 0 80.4295 18.5255 1490 115.148 659.851 450.246
506 0 80.2956 13.3631 1073 119.938 660.044 451.624
507 0 87.1579 21.5586 1879 114.044 659.57 449.093
508 0 93.5619 23.6528 2213 112.434 660.291 444.287
509 0 92.3757 18.4572 1705 121.646 659.811 440.091
510 0 98.4474 29.9145 2945 110.077 658.92 450.708
511 0 99.292 18.3096 1818 129.406 658.941 444.732
512 0 103.482 20.0712 2077 130.014 657.734 440.941
513 1 58.134 12.626 734 138.952 657.272 466.974
514 0 61.1186 14.8073 905 140.329 655.872 462.204
515 0 58.1536 13.6191 792 148.221 654.538 461.896
516 0 62.2394 15.3601 956 150.799 653.448 455.691
517 0 65.1512 15.6559 1020 151.528 651.683 450.589
518 0 67.3459 13.646 919 152.032 650.444 455.859
519 0 69.1524 14.6488 1013 151.136 649.199 452.278
520 0 72.1491 15.8422 1143 148.166 648.565 448.99
521 0 75.2501 13.6212 1025 152.893 647.307 446.608
522 0 76.1842 12.9161 984 151.058 646.574 450.342
523 0 78.1683 14.1745 1108 152.127 646.049 445.121
524 0 81.158 13.7633 1117 150.058 644.811 440.978
525 0 82.1627 13.3516 1097 150.406 644.576 435.802
526 0 88.2006 13.5373 1194 147.673 644.493 435.959
527 0 90.1515 16.5166 1489 141.598 644.71 433.565
528 1 51.1691 9.06797 464 143.72 645.123 457.099
529 0 52.2507 9.9903 522 142.644 645.167 455.546
530 0 50.1385 11.189 561 141.693 647.11 453.31
531 0 54.2638 10.7254 582 137.251 648.692 452.082
532 0 55.1163 11.3397 625 136.317 649.326 452.446
533 0 60.2266 13.2832 800 127.602 651.715 451.498
534 0 63.1414 15.0139 948 127.658 653.036 448.561
535 0 62.0524 14.1655 879 123.333 654.565 449.303
536 0 67.2266 20.1557 1355 112.841 655.489 453.535
537 0 74.7133 17.1054 1278 109.966 657.7 455.916
538 0 72.5748 19.2491 1397 110.354 657.933 449.827
539 0 75.2196 14.3181 1077 116.526 657.747 448.565
540 0 76.2802 21.1195 1611 108.032 658.374 455.009
541 0 79.2034 13.2696 1051 117.078 658.341 452.665
542 0 84.2954 15.4101 1299 120.774 657.6 447.122
543 0 85.2814 13.2385 1129 128.946 657.376 446.779
544 0 92.4261 22.5153 2081 116.354 656.819 443.82
545 1 48.0861 10.3772 499 131.325 654.409 468.577
546 0 52.6646 13.7094 722 128.094 652.981 467.849
547 0 52.0926 11.4796 598 135.013 652.142 463.505
548 0 52.0379 11.9913 624 138.764 651.231 464.067
549 0 55.0348 14.5908 803 134.933 650.324 461.091
550 0 58.0978 14.9575 869 136.12 649.104 461.588
551 0 57.0562 12.9171 737 143.178 647.236 460.045
552 0 60.2288 15.0094 904 138.643 646.967 458.132
553 0 63.0826 15.2023 959 136.986 645.511 458.537
554 0 62.0808 15.0932 937 135.196 646.996 458.197
555 0 65.1486 15.6872 1022 133.938 645.808 457.776
556 0 68.0665 14.809 1008 136.555 645.929 454.089
557 0 69.0564 13.7714 951 137.741 643.261 451.942
558 0 71.0969 14.0091 996 135.476 644.054 448.389
559 0 74.3117 13.5914 1010 135.446 643.499 448.385
560 0 76.153 13.9193 1060 135.603 643.976 445.425
561 1 39.0721 11.3892 445 138.479 643.822 463.937
562 0 40.0466 13.8089 553 133.812 644.062 463.731
563 0 41.0624 10.618 436 142.587 645.232 461.936
564 0 47.1407 12.0278 567 131.471 646.557 461.762
565 0 44.0481 12.9858 572 131.867 648.615 460.552
566 0 47.1489 12.1318 572 126.916 650.465 454.369
567 0 49.0951 11.4675 563 125.847 653.105 454.11
568 0 52.2413 11.8297 618 114.286 656.469 455.872
569 0 51.2391 20.9606 1074 103.731 657.905 457.214
570 0 56.2953 16.0226 902 105.337 658.616 458.355
571 0 55.1611 16.9322 934 105.533 659.273 455.79
572 0 58.3504 21.2509 1240 101.609 659.823 457.452
573 0 62.2493 20.7713 1293 101.268 659.737 461.539
574 0 62.2566 11.1956 697 111.146 659.062 457.723
575 0 65.1353 24.5028 1596 102.455 659.077 458.323
576 0 68.3168 20.4488 1397 110.541 658.323 459.067
577 0 68.1273 16.1462 1100 119.312 657.718 462.345
578 1 33.0381 11.8348 391 129.619 656.675 477.923
579 0 33.0757 13.3028 440 129.039 656.486 478.982
580 0 36.0241 14.8234 534 131.419 656.397 477.268
581 0 38.0695 14.0532 535 137.417 655.174 475.355
582 0 38.0203 12.5985 479 144.509 653.58 476.447
583 0 38.0706 10.2441 390 154.338 652.52 475.79
584 0 42.0487 14.4356 607 141.725 650.868 476.809
585 0 41.0895 13.5801 558 147.179 650.844 475.19
586 0 43.2389 13.2751 574 148.888 647.801 473.967
587 0 46.1192 13.9421 643 144.425 648.575 474.372
588 0 47.3593 13.7671 652 145.42 647.374 471.42
589 0 47.2118 14.5303 686 145.102 646.43 469.408
590 0 50.123 15.4819 776 141.673 645.226 469.696
591 0 50.123 15.3622 770 136.899 643.227 469.63
592 0 49.1569 13.223 650 149.226 644.165 466.268
593 0 53.0472 13.5163 717 146.9 644.006 465.093
594 0 55.1411 15.8865 876 143.289 643.651 461.182
595 0 57.2391 15.7934 904 142.626 644.325 461.987
596 0 61.5687 16.372 1008 136.008 645.269 467.196
597 0 58.2327 12.7763 744 150.788 646.036 460.78
598 0 64.1241 15.6259 1002 143.168 646.987 457.681
599 0 65.2575 13.8068 901 147.686 648.182 459.562
600 0 71.3236 15.7592 1124 144.763 650.631 456.31
601 0 71.3496 15.361 1096 147.31 651.835 455.735
602 1 36.2321 17.8571 647 144.082 652.901 472.49
603 0 37.5212 15.1914 570 146.019 654.286 473.544
604 0 39.6097 12.6989 503 146.535 654.97 472.531
605 0 40.7408 14.7518 601 143.233 654.779 471.343
606 0 43.2706 15.8075 684 143.912 654.731 471.93
607 0 44.4322 15.2367 677 150.117 655.072 473.582
608 0 44.4338 14.0209 623 155.766 654.295 472.791
609 0 45.2765 17.625 798 148.132 654.278 471.546
610 0 47.3043 20.125 952 142.73 653.762 472.58
611 0 47.3401 16.0118 758 154.541 653.4 475.26
612 0 49.5762 20.3122 1007 146.229 652.267 471.677
613 0 53.5198 17.5262 938 149.641 651.074 474.006
614 0 53.4718 14.2879 764 158.589 650.128 473.398
615 0 54.3993 17.0039 925 154.471 648.561 467.343
616 0 56.1603 16.5419 929 156.006 647.235 468.818
617 0 57.482 16.9966 977 155.594 645.288 467.555
618 0 57.2593 17.9709 1029 154.486 644.429 464.923
619 0 61.2211 19.0294 1165 151.902 643.266 464.022
620 0 65.3415 18.212 1190 150.957 642.438 463.192
621 0 66.3187 18.396 1220 151.989 641.399 459.688
622 0 65.2767 16.5143 1078 159.393 641.218 457.82
623 0 69.4138 18.8867 1311 152.609 641.249 454.866
624 0 71.2373 17.3224 1234 156.28 640.923 452.723
625 0 73.415 17.0674 1253 157.958 640.946 451.545
626 0 75.3589 17.3835 1310 157.592 641.223 448.752
627 0 79.3356 18.4281 1462 153.307 641.764 447.843
628 0 82.3598 18.7956 1548 150.396 642.942 446.105
629 0 84.3929 19.8832 1678 146.523 644.592 439.641
630 0 86.3941 16.471 1423 153.384 644.616 439.83
631 1 43.3895 14.0818 611 157.052 647.355 458.619
632 0 48.2849 15.5535 751 152.582 648.848 457.37
633 0 48.1854 12.9085 622 155.625 650.437 456.836
634 0 48.2436 13.805 666 151.426 652.458 458.824
635 0 53.2904 16.6446 887 148.312 654.144 458.464
636 0 56.2891 18.1385 1021 136.207 655.967 457.732
637 0 58.5436 15.9881 936 140.8 656.459 459.115
638 0 59.2892 18.8736 1119 136.541 657.787 460.167
639 0 59.6023 18.5228 1104 135.825 658.732 459.872
640 0 63.4571 16.7987 1066 138.328 658.308 461.935
641 0 65.4279 16.3845 1072 141.798 657.621 459.768
642 0 65.3555 18.3611 1200 146.862 655.978 457.321
643 0 67.6074 18.282 1236 154.077 655.418 457.137
644 0 71.4681 18.148 1297 154.284 655.266 457.021
645 0 73.2942 17.3001 1268 160.582 654.097 455.896
646 0 74.3149 19.7269 1466 157.169 653.299 456.767
647 0 77.2607 15.8425 1224 164.535 652.392 458.63
648 0 77.3592 18.9893 1469 161.383 651.231 451.12
649 0 83.4793 20.7117 1729 153.553 650.229 455.44
650 0 83.4922 18.9479 1582 159.571 649.407 451.302
651 0 87.2888 18.6164 1625 161.237 648.422 447.792
652 0 91.2538 17.8842 1632 163.74 647.456 446.418
653 0 94.2872 20.5967 1942 156.998 646.987 442.319
654 0 97.5646 18.4493 1800 161.999 646.215 439.971
655 1 46.1656 9.8125 453 174.616 646.082 461.6
656 0 50.3646 14.5539 733 161.513 645.468 460.366
657 0 51.3943 11.441 588 170.796 645.048 457.201
658 0 54.4127 14.776 804 159.909 644.913 457.785
659 0 55.2758 14.491 801 164.418 644.83 453.739
660 0 58.4617 13.7013 801 163.295 645.216 452.879
661 0 61.5518 15.3692 946 160.776 645.398 449.437
662 0 64.2265 17.2826 1110 154.042 646.885 449.834
663 0 67.6612 17.292 1170 152.373 648.156 450.897
664 0 68.6561 18.2504 1253 153.682 649.484 446.04
665 0 67.3887 13.845 933 165.603 651.551 444.059
666 0 69.5136 14.1124 981 155.077 653.835 442.093
667 0 77.436 14.7218 1140 143.659 655.782 448.656
668 0 80.3945 17.7624 1428 138.513 656.943 445.291
669 0 80.1962 19.153 1536 132.999 658.883 441.292
670 0 83.7819 17.7604 1488 129.774 659.688 441.631
671 0 87.1454 19.1748 1671 124.13 660.73 443.035
672 0 87.0746 17.4448 1519 129.352 660.085 443.019
673 0 88.017 16.5309 1455 129.287 660.474 443.568
674 0 94.8516 16.9633 1609 136.413 659.51 436.423
675 0 94.6538 14.7591 1397 157.2 658.956 439.853
676 0 100.884 19.23 1940 140.627 658.279 441.028
677 0 102.731 18.1347 1863 149.178 657.009 433.744
678 0 106.557 17.8683 1904 154.686 655.215 434.258
679 0 107.406 15.2971 1643 168.001 654.588 430.563
680 0 111.46 16.5171 1841 166.672 653.331 429.817
681 0 112.431 14.2488 1602 174.782 651.821 422.939
682 0 121.44 15.7938 1918 168.639 650.093 424.519
683 0 125.776 18.1831 2287 162.281 648.391 420.668
684 0 126.446 16.1808 2046 169.177 646.608 414.4
685 0 132.292 15.8665 2099 168.333 645.972 417.87
686 0 136.47 17.7475 2422 164.542 644.422 413.427
687 0 140.608 19.5224 2745 161.076 643.442 407.922
688 0 146.54 17.2718 2531 166.309 643.405 408.145
689 1 84.5143 8.36544 707 167.738 644.127 439.584
690 0 86.5064 8.93576 773 171.008 643.674 434.244
691 0 86.4601 8.16562 706 177.778 643.303 425.725
692 0 93.566 10.848 1015 167.339 644.586 428.133
693 0 97.6636 12.8502 1255 160.673 644.524 428.143
694 0 103.434 13.777 1425 156.916 645.335 426.017
695 0 104.583 15.1841 1588 157.197 645.974 421.338
696 0 108.578 12.6453 1373 160.503 648.052 419.168
697 0 111.864 14.169 1585 153.19 649.036 418.063
698 0 115.741 16.0099 1853 147.978 651.002 416.893
699 0 118.73 13.1475 1561 156.053 653.753 416.356
700 1 75.3631 8.12068 612 136.977 656.959 441.848
701 0 73.372 8.05485 591 133.689 658.21 444.772
702 0 78.3284 7.46855 585 131.61 659.08 444.747
703 0 76.3331 10.3756 792 122.828 660.798 436.128
704 0 79.4764 9.94006 790 121.809 660.637 439.253
705 0 84.2472 10.2437 863 119.703 660.566 442.548
706 0 85.4355 10.464 894 119.198 660.778 444.386
707 0 86.3932 8.69282 751 135.959 659.246 445.586
708 0 89.1961 13.8347 1234 124.352 659.189 443.907
709 0 93.2773 11.2889 1053 133.774 658.187 437.789
710 0 91.2556 7.25435 662 141.705 654.284 439.068
711 0 94.1791 8.62187 812 151.319 653.181 436.878
712 0 96.1546 9.78632 941 149.998 652.12 434.117
713 1 53.1383 5.68328 302 142.268 652.725 464.063
714 0 56.5005 8.14152 460 138.82 652.239 458.476
715 0 56.218 9.89008 556 136.714 650.872 457.147
716 0 56.4005 10.0176 565 140.138 649.531 459.28
717 0 57.5372 8.13387 468 144.556 648.897 459.472
718 0 58.405 8.54379 499 144.186 646.471 456.21
719 0 64.421 9.06536 584 140.94 646.041 454.444
720 0 62.4304 9.86699 616 139.195 645.632 455.601
721 0 63.5493 8.60749 547 143.971 645.132 452.15
722 0 66.5046 11.9089 792 138.443 645.213 452.718
723 0 66.5493 10.1278 674 143.427 645.619 447.553
724 0 67.4166 7.62424 514 146.695 645.998 448.842
725 0 67.6715 8.09794 548 147.12 645.976 446.925
726 0 70.661 7.33077 518 147.811 646.786 448.832
727 0 74.436 9.78021 728 142.518 647.622 444.786
728 0 76.8272 10.3479 795 140.313 648.259 441.447
729 1 44.2322 6.39805 283 143.65 650.378 457.272
730 0 43.1814 5.32637 230 141.635 652.752 456.73
731 0 43.0777 8.68198 374 133.944 654.586 456.698
732 0 47.0835 8.07076 380 130.534 656.745 460.213
733 0 49.1231 7.85782 386 126.92 658.197 457.264
734 0 48.1141 7.64848 368 125.671 659.356 461.353
735 0 48.1284 9.74478 469 122.859 657.925 458.264
736 0 50.1863 10.9193 548 119.9 658.985 459.681
737 0 49.1131 6.59701 324 128.506 658.948 464.358
738 0 51.131 8.23375 421 131.47 658.314 459.867
739 0 52.1841 9.14071 477 127.985 658.434 465.635
740 0 52.4139 7.45985 391 130.974 658.657 463.972
741 0 55.086 9.31271 513 135.119 657.618 463.456
742 0 55.2039 5.94161 328 151.75 656.223 464.125
743 0 60.1124 9.63196 579 143.572 654.725 466.85
744 0 62.1801 10.5339 655 141.695 653.924 467.618
745 0 64.138 13.4554 863 139.488 652.505 460.964
746 0 64.2948 7.74557 498 148.227 651.695 463.512
747 0 66.3295 11.0509 733 143.925 649.838 457.774
748 0 71.2759 10.5505 752 141.814 649.028 460.12
749 0 73.2943 14.1484 1037 136.071 647.334 457.989
750 0 75.2716 12.1028 911 141.967 645.774 454.612
751 0 78.2968 13.1423 1029 138.88 645.468 454.492
752 0 83.3046 14.3569 1196 135.609 645.189 454.535
753 1 44.1021 13.0153 574 134.714 645.359 471.134
754 0 44.1762 11.9295 527 137.759 644.524 468.935
755 0 46.1363 11.6828 539 139.327 644.36 466.408
756 0 46.0329 11.318 521 140.649 643.378 466.372
757 0 47.1658 10.0921 476 144.475 643.788 464.798
758 0 48.0866 11.5833 557 142.553 644.517 461.833
759 0 49.0397 10.5221 516 144.897 644.494 463.143
760 0 49.1273 11.2158 551 145.583 645.368 461.096
761 0 54.1294 14.5392 787 137.526 646.061 460.541
762 0 58.0668 13.6911 795 137.702 647.728 459.239
763 0 58.0405 14.197 824 138.271 648.728 460.803
764 0 61.1489 16.2227 992 133.878 651.272 459.278
765 0 59.3954 14.5971 867 137.377 652.749 459.029
766 0 62.1304 14.7915 919 134.048 653.827 461.22
767 0 65.1499 14.6892 957 132.911 654.621 459.914
768 0 65.0577 14.1413 920 134.003 656.049 462.921
769 0 66.0635 13.4265 887 141.183 656.507 461.377
770 0 68.1316 15.0444 1025 137.439 656.753 460.013
771 0 68.0333 15.463 1052 135.798 657.107 459.165
772 0 70.1806 17.5832 1234 138.946 656.839 461.355
773 0 72.0669 15.9852 1152 143.701 656.826 459.163
774 0 76.0723 15.4984 1179 142.546 655.853 464.244
775 1 41.0588 13.1519 540 139.8 655.611 482.413
776 0 41.0497 13.4471 552 140.572 653.77 481.625
777 0 41.0944 11.5101 473 148.505 652.693 479.924
778 0 42.0836 13.0692 550 148.74 651.9 475.875
779 0 45.0776 14.1755 639 143.687 649.757 476.812
780 0 45.0608 13.6926 617 145.627 643.78 476.418
781 0 47.1 11.2739 531 153.234 642.593 473.832
782 0 47.2277 14.7159 695 146.976 641.266 473.542
783 0 49.1333 14.593 717 146.432 640.29 471.092
784 0 48.1565 13.4354 647 149.352 639.628 471.283
785 0 49.1968 11.5658 569 155.657 638.779 468.141
786 0 51.0918 13.4268 686 151.328 637.81 464.663
787 0 53.1343 13.2118 702 148.56 637.393 465.989
788 0 55.1201 17.7431 978 139.949 637.086 461.981
789 0 56.1086 13.2065 741 148.03 637.327 463.001
790 0 60.0507 15.7367 945 142.42 637.903 461.256
791 0 60.0813 19.6068 1178 132.553 638.296 460.509
792 0 61.0851 18.597 1136 137.128 638.783 455.603
793 0 60.112 13.9739 840 146.635 639.623 454.619
794 0 65.1292 14.31 932 146.431 640.846 453.497
795 0 65.1111 13.8993 905 145.115 642.004 450.957
796 0 67.2567 13.3221 896 143.602 643.463 451.369
797 0 71.1234 16.2675 1157 136.147 645.778 450.13
798 0 75.86 17.2818 1311 129.401 647.842 452.83
799 0 72.2727 12.951 936 138.623 649.112 450.387
800 0 78.3033 20.8676 1634 121.968 650.763 453.173
801 0 79.1375 15.5173 1228 131.736 652.156 448.235
802 1 44.1773 13.6043 601 127.136 654.383 466.925
803 0 41.2018 14.0528 579 123.762 656.525 466.855
804 0 43.109 13.8486 597 121.606 656.767 471.616
805 0 42.0306 11.0396 464 135.144 657.696 469.474
806 0 45.1087 13.7446 620 131.227 657.713 469.152
807 0 47.2028 16.2278 766 126.533 657.933 469.369
808 0 48.1263 12.4672 600 129.593 656.01 469.322
809 0 49.0879 12.6915 623 130.57 655.48 470.273
810 0 52.357 17.5335 918 125.285 654.325 468.379
811 0 50.1399 13.1033 657 136.574 653.502 467.218
812 0 50.051 14.745 738 138.831 652.649 469.264
813 0 53.0973 14.4452 767 143.836 650.949 465.528
814 0 53.0742 12.7934 679 147.892 649.468 466.243
815 0 58.0573 15.8464 920 140.677 648.378 462.764
816 0 57.2166 13.1605 753 148.098 647.024 461.534
817 0 60.0893 15.9429 958 141.183 645.897 461.495
818 0 61.1174 13.8095 844 147.498 644.802 458.652
819 0 64.1747 13.993 898 146.96 644.473 455.709
820 0 65.14 14.3997 938 146.306 644.098 457.401
821 0 70.21 16.3225 1146 139.644 644.21 454.813
822 0 71.1228 13.2025 939 147.066 644.915 453.198
823 0 73.0548 13.7157 1002 146.837 644.754 449.582
824 0 75.1382 14.653 1101 145.383 646.069 448.502
825 1 40.0596 11.1334 446 147.289 645.975 464.682
826 0 41.2735 11.8963 491 147.326 646.104 463.081
827 0 43.0682 10.7504 463 148.95 647.201 462.436
828 0 42.1273 11.1092 468 144.624 648.021 462.205
829 0 46.1559 12.9344 597 132.362 650.171 460.523
830 0 46.1481 12.6116 582 140.005 650.854 460.378
831 0 48.1191 15.8149 761 126.84 653.218 458.183
832 0 52.147 12.9825 677 127.56 654.499 460.616
833 0 55.0829 13.7248 756 115.919 656.772 461.09
834 0 54.2749 19.3275 1049 108.827 658.135 462.119
835 0 57.5611 18.8669 1086 107.012 658.489 462.579
836 0 57.136 18.2547 1043 105.548 659.481 461.669
837 0 66.6869 21.4585 1431 101.621 660.02 465.376
838 0 61.0937 16.4829 1007 108.457 659.398 459.902
839 0 61.2508 12.5223 767 114.125 660.735 458.291
840 0 68.1092 17.1783 1170 111.092 660.08 460.506
841 0 68.1143 12.479 850 117.505 660.399 463.996
842 0 68.0854 15.3778 1047 121.453 659.825 464.962
843 0 68.1673 11.8972 811 135.148 658.034 460.017
844 0 70.0819 14.0122 982 129.89 656.687 460.128
845 0 75.1491 14.7573 1109 132.656 655.522 458.719
846 1 38.0805 11.7908 449 137.659 654.33 476.474
847 0 40.0448 14.309 573 134.749 653.182 476
848 0 38.0761 9.42848 359 144.967 651.677 475.51
849 0 41.0649 8.98578 369 148.854 648.743 472.206
850 0 47.1637 13.0609 616 140.593 648.011 471.151
851 0 46.1373 12.2461 565 141.72 647.207 471.126
852 0 47.2686 10.9375 517 145.495 645.992 468.017
853 0 48.0482 12.9037 620 144.915 644.208 465.881
854 0 52.0416 14.008 729 140.927 644.269 464.624
855 0 52.1481 12.1385 633 144.265 643.498 464.575
856 0 56.1498 14.4791 813 139.945 643.23 462.615
857 0 56.0974 15.7048 881 137.644 643.956 460.269
858 0 57.0684 15.2974 873 140.92 644.097 455.028
859 0 59.098 15.3812 909 140.646 644.714 456.034
860 0 59.1077 12.4857 738 146.094 645.145 456.481
861 0 63.0743 14.1738 894 141.202 646.072 454.498
862 0 64.1683 10.1764 653 147.856 647.714 453.115
863 0 66.0181 11.8604 783 141.87 649.189 449.702
864 0 69.0353 11.6317 803 141.927 650.311 448.661
865 0 72.2317 12.3076 889 134.954 652.678 453.148
866 1 36.0724 8.51066 307 136.059 653.27 468.814
867 0 39.0814 13.4847 527 126.6 654.319 467.571
868 0 43.2126 12.2881 531 122.151 655.667 469.247
869 0 43.0699 12.3984 534 122.18 656.912 469.204
870 0 44.0861 11.7951 520 126.638 656.131 468.063
871 0 44.0374 12.3077 542 128.897 656.773 466.197
872 0 47.395 15.1493 718 123.297 655.79 466.797
873 0 49.0555 15.4315 757 127.066 656.424 467.954
874 0 50.4086 15.6521 789 120.758 656.383 472.028
875 0 53.1222 16.6221 883 124.514 655.132 467.139
876 0 51.2418 14.1096 723 131.147 655.208 466.787
877 0 55.1328 13.3859 738 140.322 653.354 469.28
878 0 57.2372 15.6716 897 137.712 652.758 464.593
879 0 56.1859 13.2062 742 143.566 651.637 466.298
880 0 60.1188 16.7834 1009 137.023 650.309 463.527
881 0 63.2276 14.8827 941 137.812 648.647 466.49
882 0 63.0944 12.7111 802 145.223 646.777 461.934
883 0 65.0968 13.1343 855 145.612 645.697 460.152
884 0 69.0584 17.087 1180 135.862 644.575 454.758
885 0 73.1058 15.6485 1144 138.554 644.008 456.906
886 0 73.256 15.7666 1155 140.719 642.889 451.282
887 0 72.1023 13.3838 965 148.803 642.463 447.829
888 1 37.0475 11.9576 443 145.673 641.727 467.023
889 0 39.0619 11.1618 436 144.294 641.688 467.424
890 0 41.0384 14.8885 611 140.578 641.154 463.846
891 0 41.0455 14.1794 582 143.531 641.825 462.589
892 0 43.0673 12.6546 545 146.723 644.442 462.572
893 0 47.168 12.9325 610 144.41 644.015 462.375
894 0 44.1283 13.3248 588 146.871 645.486 461.779
895 0 48.0592 13.7955 663 146.27 647.213 459.397
896 0 49.0588 13.1067 643 145.575 648.115 458.025
897 0 50.1821 12.1557 610 144.161 649.574 459.433
898 0 53.0745 15.0355 798 136.291 651.759 456.51
899 0 55.1087 17.2205 949 131.1 653.625 458.52
900 0 57.0732 16.4701 940 132.885 655.132 455.893
901 0 59.0778 14.5571 860 136.434 656.223 457.945
902 0 60.233 13.5142 814 137.05 657.111 458.741
903 0 61.149 14.8653 909 136.959 657.93 458.113
904 0 64.2499 17.3386 1114 128.939 658.914 459.724
905 0 62.1903 13.3622 831 143.041 658.566 459.503
906 0 68.1467 14.9384 1018 139.368 658.635 458.814
907 0 68.076 16.555 1127 137.03 658.047 456.466
908 0 72.0596 17.9712 1295 133.063 657.387 461.611
909 0 72.0734 16.2473 1171 143.36 656.308 458.983
910 0 74.0913 16.6551 1234 146.173 655.569 455.594
911 0 75.117 12.9265 971 160.175 653.926 454.903
912 0 79.2134 17.4087 1379 149.334 653.657 452.15
913 0 85.1316 17.4318 1484 146.551 652.821 454.931
914 0 83.1244 15.6512 1301 154.248 650.828 451.563
915 0 87.0566 15.6909 1366 154.264 649.291 449.584
916 0 90.138 17.8948 1613 149.466 648.726 447.026
917 0 94.1688 17.9465 1690 149.494 647.249 442.652
918 0 98.1857 16.7845 1648 148.902 646.695 445.181
919 1 53.1409 11.9117 633 154.957 646.874 463.141
920 0 55.2735 11.7959 652 154.96 646.209 461.788
921 0 55.1 13.6116 750 152.677 645.787 460.515
922 0 57.1019 16.4268 938 145.973 646.324 457.875
923 0 58.2995 13.8938 810 153.485 645.377 454.363
924 0 60.4748 14.9318 903 150.537 645.111 452.471
925 0 62.209 15.464 962 149.38 646.476 452.641
926 0 64.2577 15.8892 1021 147.647 646.543 450.15
927 0 67.2895 14.2073 956 152.018 647.236 448.291
928 0 70.2218 15.5507 1092 146.44 648.584 447.91
929 0 71.3815 16.685 1191 141.291 650.495 445.444
930 0 73.1959 14.8096 1084 141.604 652.235 446.666
931 0 79.3344 14.6217 1160 135.296 654.434 446.157
932 0 78.3222 15.2702 1196 136.998 655.625 444.149
933 0 82.3989 16.1046 1327 130.354 657.382 442.872
934 1 166.509 22.5033 3747 118.519 658.286 406.248
935 0 174.686 20.6542 3608 115.702 659.812 408.108
936 1 138.998 17.8636 2483 117.647 659.371 420.328
937 1 96.7462 15.2047 1471 116.239 659.288 441.058
938 0 99.4624 23.4561 2333 108.929 659.856 443.73
939 0 99.256 12.7247 1263 122.196 659.37 440.629
940 1 54.256 15.132 821 117.245 658.248 462.693
941 0 54.219 16.5809 899 124.269 657.861 460.11
942 0 54.3698 11.8816 646 135.37 658.009 464.051
943 0 56.155 12.5367 704 134.855 658.595 464.023
944 0 60.3636 16.2018 978 129.54 657.388 460.416
945 0 61.1568 14.6182 894 134.714 656.734 461.917
946 0 62.3853 13.2082 824 143.373 655.592 462.323
947 0 66.1852 14.3537 950 148.213 653.636 460.98
948 0 64.1176 13.444 862 153.745 651.847 457.428
949 0 69.19 17.358 1201 144.094 651.629 456.472
950 0 70.1844 14.1199 991 152.207 650.431 455.809
951 0 72.2497 14.7129 1063 152.564 649.62 451.359
952 0 74.1621 14.8189 1099 152.094 648.378 451.045
953 0 75.1182 17.6788 1328 145.288 647.639 450.035
954 0 79.1408 16.4011 1298 150.119 647.111 444.842
955 0 83.1806 16.7948 1397 147.978 646.93 444.671
956 0 86.062 16.43 1414 148.2 646.728 442.497
957 1 46.1473 9.12296 421 159.473 647.979 459.413
958 0 50.077 16.4147 822 145.249 648.364 455.73
959 0 50.2142 14.4979 728 150.159 648.61 454.718
960 0 51.1408 12.6122 645 154.397 649.026 454.45
961 0 53.0762 13.735 729 150.647 650.32 454.428
962 0 55.0305 13.4289 739 145.514 651.732 452.568
963 0 55.1614 12.6357 697 143.37 653.45 455.687
964 0 57.1468 15.9589 912 130.191 656.155 450.266
965 0 60.0352 16.0406 963 124.494 658.206 454.315
966 0 60.3403 14.7497 890 125.03 658.792 455.392
967 0 64.1854 14.4737 929 117.041 660.262 450.153
968 0 68.1484 18.7679 1279 109.337 661.296 453.113
969 0 68.3352 13.463 920 113.732 662.622 449.665
970 0 75.2734 12.3815 932 112.164 662.716 453.681
971 0 74.2648 14.7849 1098 111.13 661.844 456.958
972 0 77.2449 19.6388 1517 111.874 661.836 449.171
973 0 78.4598 16.4415 1290 111.957 660.515 447.149
974 0 80.1781 14.4803 1161 114.796 660.573 451.705
975 0 83.3054 15.6893 1307 121.767 659.653 447.471
976 0 86.336 15.8566 1369 126.24 658.759 445.01
977 1 46.2031 9.8911 457 132.825 657.438 466.306
978 0 46.3164 11.9396 553 135.658 655.479 465.81
979 0 48.4281 9.93225 481 142.507 654.468 464.659
980 0 49.063 14.3285 703 151.865 651.009 463.461
981 0 50.1816 13.212 663 156.182 649.692 463.302
982 0 52.0427 13.9309 725 152.93 647.545 462.183
983 0 55.2857 13.9819 773 152.805 646.865 462.016
984 0 56.0305 13.7961 773 153.987 645.604 460.37
985 0 57.1211 16.8589 963 147.265 644.317 458.677
986 0 60.0625 15.3007 919 150.282 643.457 456.057
987 0 61.4464 14.1587 870 152.847 644.916 453.617
988 0 65.168 14.5317 947 152.389 643.11 451.162
989 0 66.1767 14.3706 951 153.243 642.783 447.21
990 0 66.267 13.3853 887 155.551 643.786 444.688
991 1 35.1407 9.33392 328 158.832 646.259 460.451
992 0 39.1214 9.40661 368 148.543 646.698 463.122
993 0 39.108 9.63997 377 149.87 647.342 462.106
994 0 40.0632 10.2089 409 145.408 648.308 462.836
995 0 40.1138 10.9937 441 146.252 649.882 458.281
996 0 44.196 13.7569 608 135.321 651.378 457.554
997 0 47.0992 13.6308 642 130.477 652.414 457.637
998 0 44.292 12.553 556 132.068 654.714 457.322
999 0 49.053 16.0643 788 120.555 656.313 459.308
1000 0 53.3992 17.2474 921 116.649 656.66 457.548
1001 0 53.3122 14.8371 791 117.453 658.071 455.809
1002 0 51.2936 13.6469 700 115.366 658.156 455.996
1003 0 55.6696 24.376 1357 102.252 658.727 460.015
1004 0 54.5788 15.0425 821 115.616 658.895 456.663
1005 0 54.3139 14.1584 769 118.642 659.36 462.029
1006 0 55.3296 17.4048 963 114.449 659.428 457.258
1007 0 57.4399 13.179 757 121.188 659.708 463.478
1008 0 55.1015 12.3953 683 129.001 659.606 464.968
1009 0 60.2138 20.6929 1246 115.404 659.392 468.222
1010 0 61.1345 14.4109 881 132.81 657.966 462.664
1011 0 63.2218 13.7136 867 138.135 656.479 464.324
1012 0 64.1629 16.162 1037 140.324 655.079 463.623
1013 0 67.2747 14.1658 953 148.876 653.848 461.832
1014 0 70.1184 16.4436 1153 144.654 653.215 460.112
1015 0 70.2403 14.0802 989 151.392 651.611 459.556
1016 0 72.2708 14.1828 1025 149.683 650.323 459.567
1017 0 78.1655 17.1431 1340 141.319 648.759 455.98
1018 0 79.3126 16.4034 1301 144.324 647.307 455.323
1019 0 83.3287 16.4289 1369 144.914 646.709 453.19
1020 0 82.4169 13.3832 1103 154.232 646.231 447.483
1021 1 45.1962 11.7488 531 157.294 645.915 466.789
1022 0 47.236 13.0409 616 153.862 645.739 465.058
1023 0 50.1703 13.4542 675 151.502 644.984 464.05
1024 0 48.088 13.4545 647 155.286 645.461 461.391
1025 0 53.4726 15.1106 808 149 644.27 457.603
1026 0 56.3109 15.1836 855 147.574 644.244 458.974
1027 0 57.2774 15.7828 904 147.415 644.932 458.836
1028 0 59.1777 17.608 1042 144.41 646.244 457.406
1029 0 59.1912 15.6104 924 149.82 647.127 456.579
1030 0 64.1899 16.5291 1061 145.892 649.389 455.434
1031 0 64.2102 15.3091 983 148.444 650.482 456.224
1032 0 66.2637 15.9816 1059 148.466 651.587 455.201
1033 0 66.1025 15.3701 1016 147.992 653.35 454.424
1034 0 71.3182 20.8082 1484 129.262 654.933 454.197
1035 0 74.1663 21.7484 1613 124.143 656.162 453.737
1036 0 77.2401 20.4557 1580 128.504 657.071 457.732
1037 0 81.1101 17.7167 1437 133.488 657.292 457.746
1038 0 78.1963 19.093 1493 132.817 657.023 459.904
1039 0 81.1505 14.6025 1185 146.858 657.934 456.727
1040 0 83.3226 15.386 1282 146.631 657.633 454.322
1041 0 86.266 17.8054 1536 146.636 656.592 459.624
1042 0 91.152 16.9497 1545 152.691 655.468 454.969
1043 0 93.1417 17.7579 1654 151.417 653.947 452.577
1044 0 97.4898 17.3351 1690 150.936 652.449 451.395
1045 1 53.1238 11.5014 611 154.054 651.198 472.705
1046 0 53.2391 11.0069 586 157.783 649.389 469.019
1047 0 56.2298 12.6268 710 148.931 647.524 472.341
1048 0 57.0955 11.437 653 156.867 646.19 466.732
1049 0 61.147 12.5926 770 153.8 645.517 464.517
1050 0 62.0977 14.6221 908 147.457 644.72 464.89
1051 0 62.0838 13.1113 814 154.366 644.005 457.092
1052 0 64.1847 15.1438 972 148.96 643.167 457.257
1053 0 67.1005 16.9298 1136 145.129 642.671 456.401
1054 0 67.1108 14.0514 943 151.813 642.722 453.611
1055 0 69.079 12.8259 886 153.975 642.968 452.985
1056 0 74.1785 15.1661 1125 147.62 641.863 450.06
1057 0 74.1525 13.1486 975 153.484 643.291 449.441
1058 0 78.1397 14.0901 1101 149.729 643.366 446.928
1059 0 81.1855 15.9634 1296 146.779 643.602 444.089
1060 0 83.161 13.2274 1100 153.002 644.495 441.235
1061 0 88.1842 16.2274 1431 144.874 645.482 438.834
1062 0 91.189 15.9339 1453 144.6 646.169 436.37
1063 0 93.2131 14.086 1313 149.142 647.758 438.702
1064 0 99.1878 15.4354 1531 141.907 649.801 434.389
1065 0 102.152 15.8294 1617 135.865 651.628 432.421
1066 0 104.392 15.7676 1646 132.359 653.199 431.705
1067 1 54.0837 12.7765 691 127.787 655.185 458.654
1068 0 54.0557 12.8386 694 126.019 656.827 457.259
1069 0 59.197 14.1899 840 116.114 658.51 459.375
1070 0 57.4014 11.7941 677 122.072 658.697 456.962
1071 0 61.725 18.0964 1117 108.045 660.005 458.414
1072 0 58.3724 11.8721 693 118.799 659.931 460.817
1073 0 58.2892 14.9084 869 117.613 659.779 457.667
1074 0 59.3445 12.419 737 122.11 659.974 463.429
1075 0 62.3536 14.2895 891 123.164 659.56 462.692
1076 0 61.3129 15.4128 945 121.423 659.836 463.543
1077 0 57.2705 11.2973 647 130.382 659.595 462.155
1078 0 62.296 14.5595 907 126.39 658.966 462.974
1079 0 64.3687 15.1005 972 124.015 658.571 463.81
1080 0 63.3078 15.8906 1006 126.848 657.031 461.261
1081 0 59.2883 11.9416 708 138.948 655.496 459.804
1082 0 61.1766 14.5154 888 140.886 653.249 458.333
1083 0 61.1591 14.5195 888 143.134 651.981 457.825
1084 0 62.2736 16.3472 1018 138.647 651.329 458.585
1085 0 64.3701 14.6652 944 138.908 650.346 460.645
1086 0 62.22 16.4899 1026 135.513 648.564 458.771
1087 0 63.1876 12.724 804 142.54 648.072 458.167
1088 0 63.1382 13.8268 873 141.359 647.836 454.195
1089 0 62.3149 13.9613 870 141.03 647.522 451.438
1090 0 63.1013 17.4164 1099 134.247 647.584 450.662
1091 0 63.4143 15.0755 956 139.901 646.532 450.834
1092 0 62.3104 16.498 1028 135.006 647.139 454.005
1093 0 59.197 13.3791 792 145.047 647.258 451.465
1094 0 59.2605 12.7066 753 143.813 648.125 450.891
1095 0 60.2209 14.5464 876 140.438 649.196 451.935
1096 0 60.2118 15.0303 905 131.606 650.968 451.061
1097 0 64.322 16.0443 1032 129.821 652.202 452.536
1098 0 63.38 13.9476 884 128.23 653.476 453.437
1099 0 61.3533 14.4572 887 129.176 655.993 451.577
1100 0 61.2933 15.3687 942 126.759 656.876 450.928
1101 0 66.3654 12.1901 809 117.682 659.754 454.805
1102 0 65.4545 15.4764 1013 113.814 660.215 453.825
1103 0 63.3293 14.7641 935 113.256 660.628 455.307
