time division length width area intensity CMx CMy
0 0 66.2149 11.1757 740 125.738 507.882 441.923
1 0 63.1139 11.2495 710 127.03 508.921 435.721
2 0 63.1139 11.3446 716 133.846 509.888 435.677
3 1 143.415 15.8491 2273 127.063 509.973 402.768
4 1 74.413 11.9334 888 121.139 510.627 438.021
5 0 76.257 12.3005 938 120.733 510.022 437.935
6 0 82.3946 15.5835 1284 116.157 509.558 444.009
7 0 84.3758 14.0325 1184 119.369 509.337 438.791
8 0 88.8114 17.1937 1527 116.042 508.187 439.031
9 1 180.427 22.8624 4125 122.871 506.696 390.619
10 0 184.426 26.2111 4834 122.815 505.878 381.273
11 1 99.3527 16.7484 1664 119.587 504.897 441.087
12 1 47.2491 9.56632 452 132.374 504.062 454.613
13 0 52.4501 15.4051 808 119.017 504.145 459.678
14 0 50.4757 10.2624 518 129.332 502.369 447.141
15 0 54.2586 16.3476 887 129.717 500.548 454.156
16 0 54.0564 14.6699 793 134.32 497.811 451.788
17 0 54.0664 12.7251 688 139.464 496.5 454.996
18 0 57.173 14.15 809 137.376 495.509 451.163
19 0 56.1449 13.8926 780 141.487 494.587 450.27
20 0 59.0704 13.3062 786 139.809 494.014 445.812
21 0 63.1387 15.2046 960 135.543 493.584 443.461
22 0 65.4172 13.7578 900 136.973 493.547 446.28
23 0 64.1936 12.3688 794 141.077 493.416 444.669
24 0 68.1066 15.3876 1048 134.244 493.132 441.024
25 0 70.1639 15.5493 1091 134.792 492.952 439.685
26 0 72.3197 13.3574 966 138.404 493.576 439.095
27 0 71.199 12.3035 876 140.623 493.532 435.812
28 0 74.2018 11.9943 890 141.899 493.398 437.252
29 0 74.1642 12.0813 896 135.296 493.396 437.002
30 0 81.2881 15.0452 1223 133.628 497.249 433.767
31 0 84.3783 15.7149 1326 129.108 499.72 431.193
32 0 88.6134 14.4335 1279 121.921 502.137 429.647
33 0 93.5712 19.226 1799 110.862 503.698 430.548
34 0 97.1697 15.0767 1465 110.03 505.464 437.919
35 0 96.2267 16.0662 1546 112.458 507.406 428.857
36 1 164.437 31.1121 5116 105.658 506.172 405.74
37 0 164.006 16.5299 2711 114.586 508.254 406.083
38 1 109.005 15.7057 1712 109.077 508.349 437.919
39 0 112.486 21.9405 2468 104.34 507.887 440.686
40 0 109.762 22.1297 2429 107.504 507.594 428.259
41 0 114.446 11.7872 1349 113.551 507.365 436.308
42 1 61.426 19.6171 1205 106.435 506.556 457.74
43 0 72.0422 21.4874 1548 105.82 505.567 455.704
44 0 63.1266 10.2492 647 123.845 504.428 455.422
45 0 69.2662 12.8201 888 115.03 503.869 457.286
46 0 72.1785 25.0629 1809 108.876 502.392 452.563
47 0 71.1875 14.3283 1020 125.727 501.335 452.647
48 0 72.2135 12.92 933 134.317 499.906 452.972
49 0 79.5409 19.864 1580 122.428 497.703 454.355
50 0 79.21 14.8087 1173 140.061 496.647 446.431
51 1 36.0821 8.31438 300 148.523 494.713 465.317
52 0 39.0481 9.52672 372 145.503 493.008 465.538
53 0 43.0605 9.38215 404 143.646 493.064 465.275
54 0 46.0558 13.1797 607 133.842 492.87 462.338
55 0 48.1671 10.1106 487 136.368 491.885 462.199
56 0 49.0283 12.3194 604 135.315 490.548 457.495
57 0 48.2033 12.9244 623 136.364 491.16 454.018
58 0 54.0499 15.7077 849 125.781 490.576 454.779
59 0 52.0821 16.2436 846 129.134 492.903 451.974
60 0 54.2143 13.6864 742 131.266 493.561 453.284
61 0 58.08 14.2046 825 131.773 493.839 451.127
62 0 57.1334 14.3524 820 131.82 494.24 450.043
63 0 60.1265 16.7647 1008 124.496 495.436 443.942
64 0 62.0789 14.0144 870 124.715 497.375 448.333
65 0 65.1632 17.9703 1171 115.523 498.253 449.846
66 0 66.3222 11.9115 790 118.444 501.862 448.11
67 0 71.2795 17.1157 1220 109.27 504.639 447.137
68 0 73.1196 12.924 945 112.377 505.893 448.146
69 0 77.2951 19.4967 1507 104.257 506.35 451.691
70 0 77.1871 14.4454 1115 110.67 507.807 447.469
71 0 82.2953 17.5466 1444 105.56 508.603 448.544
72 0 84.1376 13.2164 1112 108.577 509.053 447.29
73 0 84.2481 12.1783 1026 111.94 508.621 445.639
74 0 91.6303 12.8014 1173 111.606 507.978 445.866
75 1 50.0218 8.33636 417 110.748 507.679 465.429
76 0 47.1833 9.24055 436 113.897 506.333 466.867
77 0 48.0693 15.8313 761 114.158 505.163 461.953
78 0 49.0783 13.0811 642 119.364 505.522 461.969
79 0 53.0577 17.3585 921 113.537 504.152 462.873
80 0 52.2274 12.1009 632 121.57 501.589 464.153
81 0 53.2487 11.8501 631 128.813 499.623 464.3
82 0 56.0959 12.6391 709 124.262 500.223 458.475
83 0 59.0912 15.1291 894 123.805 497.905 457.704
84 0 59.068 10.8011 638 130.425 496.025 458.815
85 0 63.0602 13.1462 829 126.486 494.849 455.273
86 0 64.2365 15.1472 973 126.061 493.316 454.936
87 0 66.2848 13.8795 920 127.75 492.322 454.713
88 0 68.179 12.7019 866 133.04 491.794 446.714
89 0 71.2054 14.5635 1037 129.278 490.928 447.428
90 0 75.2142 17.4568 1313 124.601 489.957 446.448
91 0 76.142 14.7619 1124 130.464 490.094 443.873
92 0 77.1093 14.8361 1144 132.147 490.356 441.421
93 0 79.2002 15.8712 1257 134.62 489.706 436.185
94 0 85.1996 14.3428 1222 135.325 490.069 440.621
95 1 42.1844 8.81843 372 141.255 489.242 459.804
96 0 47.1074 12.6519 596 129.087 490.158 458.965
97 0 45.1989 10.1994 461 140.141 492.716 455.85
98 0 47.1668 8.58654 405 133.052 495.469 455.291
99 0 49.1374 15.8128 777 122.041 498.529 456.477
100 0 50.0701 9.78629 490 128.39 498.763 458.19
101 0 55.2544 10.6055 586 122.637 502.466 455.039
102 0 53.2146 14.62 778 114.26 504.886 454.49
103 0 59.4172 11.0238 655 118.371 505.692 454.026
104 0 56.5095 11.3786 643 117.596 507.504 450.919
105 0 62.7903 13.2664 833 113.691 507.651 452.348
106 0 67.6469 20.6661 1398 106.72 506.488 453.461
107 0 62.3128 10.5757 659 117.807 508.091 450.27
108 0 69.4409 25.7341 1787 104.232 506.918 454.398
109 0 64.1907 16.1861 1039 115.133 504.891 451.338
110 0 74.4259 19.4422 1447 112.223 504.308 456.869
111 0 70.0879 14.0538 985 127.724 503.332 450.455
112 0 75.4119 18.6177 1404 121.194 502.415 455.992
113 0 74.4961 15.1686 1130 129.297 501.27 454.642
114 0 74.4961 15.0209 1119 138.88 500.259 454.665
115 0 81.2353 14.9935 1218 130.602 498.836 450.491
116 0 83.1415 18.4505 1534 127.216 497.427 449.164
117 0 85.3775 13.739 1173 136.033 496.198 449.257
118 0 88.2707 15.9736 1410 136.255 494.462 444.172
119 0 89.2719 14.7079 1313 137.424 493.495 441.353
120 0 92.3748 14.4628 1336 139.097 492.111 442.405
121 1 49.0908 11.0408 542 139.391 490.43 465.111
122 0 54.4042 10.9918 598 138.467 489.398 461.217
123 0 50.2887 9.80339 493 138.617 489.223 459.834
124 0 53.3509 10.7964 576 144.278 487.684 455.623
125 0 57.5526 15.134 871 132.09 488.204 453.319
126 0 54.2394 10.933 593 139.921 487.056 451.814
127 0 57.1119 15.0406 859 131.204 487.156 451.043
128 0 60.2121 14.8807 896 130.16 487.109 449.882
129 0 63.1742 14.1197 892 132.396 488.168 445.885
130 0 65.1137 14.3134 932 130.706 488.521 448.6
131 0 65.1314 13.6493 889 132.461 490.236 445.882
132 0 70.1468 14.6122 1025 124.528 491.568 444.003
133 0 73.1768 15.5787 1140 125.196 494.468 443.498
134 0 77.5392 15.9403 1236 118.82 496.369 445.592
135 0 73.3494 12.5018 917 122.457 497.624 444.565
136 0 82.2053 13.0527 1073 119.44 499.472 445.53
137 0 83.1819 18.3694 1528 114.031 500.74 445.928
138 0 83.1819 18.165 1511 124.668 501.772 445.794
139 1 48.0894 10.2933 495 117.145 501.79 461.055
140 0 45.0455 10.9445 493 119.627 501.742 459.903
141 0 44.0589 6.74097 297 123.788 500.71 461.724
142 0 49.0665 6.64404 326 125.752 500.88 459.702
143 0 51.1096 7.84589 401 130.681 499.778 455.823
144 0 51.2754 14.1393 725 121.777 499.887 459.652
145 0 51.2754 14.1588 726 118.08 498.875 459.639
146 0 54.0843 11.1123 601 139.236 497.373 462.303
147 0 60.0594 13.3368 801 133.82 496.762 463.117
148 0 60.2009 14.1692 853 134.171 495.31 461.21
149 0 64.4014 13.8351 891 135.236 493.778 460.578
150 0 64.1151 15.363 985 136.018 491.874 457.876
151 0 64.1282 10.5726 678 145.855 491.227 458.633
152 0 70.2847 16.234 1141 135.477 489.469 457.053
153 0 69.1628 13.6056 941 141.492 488.404 456.412
154 0 71.1124 13.6966 974 142.363 486.945 452.237
155 0 76.1107 15.7928 1202 141.141 486.715 450.901
156 0 76.3189 14.2953 1091 138.502 486.846 449.525
157 0 80.2225 12.4778 1001 141.662 485.86 448.796
158 0 84.501 16.2838 1376 136.698 485.153 442.935
159 0 85.5561 14.6337 1252 141.36 485.061 440.648
160 0 89.2565 15.3378 1369 140.546 485.053 439.964
161 1 46.1151 12.0785 557 143.959 485.054 458.188
162 0 46.3086 13.7555 637 139.808 485.688 456.925
163 0 53.3611 14.1114 753 136.744 485.963 455.437
164 0 53.4307 13.3444 713 138.411 488.08 456.798
165 0 52.3249 11.3904 596 139.421 489.97 455.461
166 0 53.1731 13.0893 696 140.382 491.512 451.003
167 0 58.2094 15.8566 923 134.935 494.173 451.994
168 0 62.2935 17.6423 1099 129.404 496.425 456.106
169 0 64.3308 12.7933 823 128.802 497.973 457.333
170 0 63.2536 17.169 1086 129.042 498.608 454.777
171 0 69.283 14.4624 1002 129.944 500.025 456.192
172 0 69.2671 16.458 1140 130.729 499.114 451.36
173 0 72.3879 18.5666 1344 126.869 499.946 455.668
174 0 78.4257 16.3849 1285 129.528 500.732 457.7
175 0 76.3269 13.3505 1019 137.535 500.847 458.512
176 0 79.3464 16.2326 1288 138.873 499.663 456.617
177 0 80.2434 15.3408 1231 145.047 498.236 452.011
178 0 84.5578 15.788 1335 145.255 497.813 447.396
179 0 86.6171 15.7821 1367 147.302 496.19 443.596
180 1 44.0942 9.5931 423 165.151 495.085 465.764
181 0 50.3399 11.919 600 151.683 494.303 467.232
182 0 50.3493 13.0687 658 148.117 492.836 466.533
183 0 52.2221 16.3915 856 144.27 491.822 465.035
184 0 52.1854 13.8161 721 152.535 490.533 463.431
185 0 52.1237 10.2832 536 162.55 489.174 463.45
186 0 58.0927 15.6646 910 141.794 487.258 462.525
187 0 57.1203 14.1456 808 147.251 486.392 463.887
188 0 59.0715 17.7581 1049 137.985 485.291 462.958
189 0 64.2535 12.653 813 147.172 485.212 460.522
190 0 62.0971 13.2534 823 144.919 484.245 460.309
191 0 66.136 14.954 989 139.925 483.581 455.766
192 0 68.227 14.1 962 142.088 483.175 453.486
193 0 67.1117 11.7714 790 146.239 482.96 450.129
194 0 72.0806 13.9705 1007 138.302 484.151 445.854
195 0 75.1356 15.4787 1163 135.156 483.977 448.261
196 0 76.1691 14.5991 1112 139.376 484.932 441.938
197 0 81.1902 13.2036 1072 137.759 486.988 440.624
198 1 41.2385 10.4999 433 137.552 487.732 461.379
199 0 43.0411 12.3603 532 131.654 489.861 462.291
200 0 46.1008 11.2146 517 132.629 490.528 459.859
201 0 46.0599 11.6804 538 130.336 493.035 458.803
202 0 49.2475 12.1834 600 127.85 497.06 459.628
203 0 48.2932 13.211 638 127.127 498.502 459.602
204 0 52.1307 16.8806 880 122.018 499.408 460.638
205 0 49.0539 13.1284 644 129.474 500.45 462.174
206 0 55.1233 13.5877 749 125.509 500.616 461.254
207 0 55.2937 13.2926 735 124.414 501.069 461.192
208 0 57.072 13.702 782 130.012 500.908 461.221
209 0 60.3025 15.0408 907 128.746 499.705 460.679
210 0 61.2416 12.965 794 132.992 500.196 460.511
211 0 62.203 15.2404 948 135.558 499.245 460.803
212 0 64.3259 14.9396 961 137.43 498.907 460.179
213 0 67.2791 15.5323 1045 139.46 496.691 457.467
214 0 66.2404 12.9981 861 144.555 496.25 456.311
215 0 72.2019 14.598 1054 142.391 495.103 456.703
216 1 36.0977 9.7513 352 146.744 494.926 475.864
217 0 36.0387 8.1024 292 149.764 493.613 474.795
218 0 36.0099 10.4138 375 149.349 491.979 472.504
219 0 40.0958 12.4452 499 140.501 490.01 468.828
220 0 41.04 12.2563 503 140.408 488.539 470.135
221 0 43.0405 13.4292 578 141.832 487.206 466.926
222 0 45.1116 14.4309 651 140.189 485.843 465.367
223 0 47.1219 13.1574 620 144.658 483.982 461.642
224 0 47.1747 12.9731 612 142.962 482.913 464.552
225 0 48.1851 14.6103 704 141.835 482.334 459.999
226 0 50.1515 14.1372 709 143.236 482.889 457.045
227 0 53.1205 14.2318 756 142.009 482.624 457.288
228 0 53.0793 13.4139 712 144.333 483.514 456.455
229 0 56.0635 14.4301 809 140.111 483.957 458.897
230 0 58.1739 13.5456 788 138.99 485.01 456.541
231 0 57.2022 11.7828 674 140.804 486.743 455.236
232 0 62.2097 13.776 857 132.967 488.399 454.981
233 0 64.1877 14.8159 951 130.707 490.015 452.801
234 0 64.1386 13.3773 858 138.403 492.23 451.763
235 0 68.317 15.4281 1054 128.799 493.991 451.51
236 0 69.3064 13.4042 929 136.149 495.765 451.597
237 0 72.0705 16.0537 1157 126.705 497.83 451.932
238 0 75.1965 13.9102 1046 131.711 498.177 449.304
239 0 78.2916 15.9149 1246 127.05 499.843 450.367
240 1 38.0275 10.3872 395 130.289 499.694 470.354
241 0 40.0878 12.3978 497 130.547 499.02 468.513
242 0 48.7204 12.3562 602 126.849 500.909 468.963
243 0 39.1674 9.29343 364 138.926 499.448 468.453
244 0 45.3005 12.5385 568 133.954 499.22 469.683
245 0 47.3028 12.198 577 138.745 497.562 468.237
246 0 49.1429 17.561 863 129.096 496.671 465.277
247 0 52.3772 13.6892 717 137.457 495.916 466.014
248 0 52.4186 14.4224 756 138.25 495.418 466.573
249 0 52.4053 12.2507 642 146.382 493.782 464.227
250 0 53.365 10.8873 581 150.485 492.592 462.571
251 0 59.3127 12.1053 718 146.052 490.982 463.454
252 0 57.3356 13.5867 779 146.095 488.918 459.701
253 0 59.223 12.664 750 149.604 487.456 454.768
254 0 63.2762 13.7809 872 145.3 487.749 454.766
255 0 64.1639 16.0059 1027 140.929 486.527 453.987
256 0 67.3582 14.1334 952 144.408 485.789 452.762
257 0 68.5561 12.7924 877 148.254 485.9 450.333
258 0 73.545 13.298 978 143.963 484.637 448.469
259 0 75.5284 14.948 1129 144.076 483.987 445.322
260 0 74.57 12.8872 961 149.67 483.741 443.873
261 0 80.8981 15.2908 1237 140.857 484 441.607
262 0 83.8448 14.3718 1205 143.621 484.945 438.127
263 0 84.656 13.2655 1123 145.24 485.175 436.596
264 0 87.7405 14.3833 1262 142.063 486.116 433.047
265 1 45.5301 13.4636 613 133.67 488.088 454.527
266 0 44.7352 15.0441 673 129.189 490.415 455.174
267 0 47.5709 14.2314 677 131.928 491.465 452.346
268 0 47.5696 12.3398 587 131.092 493.915 452.981
269 0 50.1026 10.8777 545 136.839 495.853 457.402
270 0 53.0996 14.1432 751 130.577 497.614 459.216
271 0 52.2678 13.5456 708 134.593 498.784 456.537
272 0 54.1548 11.7256 635 139.28 499.58 456.187
273 0 56.3411 12.9923 732 138.85 499.693 457.014
274 0 60.3668 13.302 803 132.224 500.194 459.65
275 0 58.2353 14.6818 855 133.234 499.877 459.84
276 0 60.2234 11.3245 682 141.361 499.611 455.714
277 0 62.2174 11.733 730 141.342 499.434 457.822
278 0 65.3466 14.4154 942 138.89 498.635 455.865
279 0 66.4996 12.6317 840 145.839 497.181 455.501
280 0 68.2128 14.66 1000 141.235 495.801 458.226
281 0 68.2187 11.6977 798 150.005 495.415 453.426
282 0 68.1883 11.7616 802 130.643 494.415 453.419
283 0 72.3181 12.0025 868 150.199 492.967 448.692
284 0 77.3148 12.0546 932 150.136 491.035 449.562
285 0 79.4133 12.6301 1003 147.975 489.162 448.887
286 0 78.4212 12.4966 980 141.701 486.164 448.533
287 1 41.0258 9.45746 388 149.046 487.541 465.472
288 0 47.1034 14.7123 693 134.525 486.374 466.019
289 0 48.0986 10.1666 489 141.847 485.221 465.528
290 0 46.0832 11.0452 509 144.187 485.077 460.22
291 0 51.0454 12.675 647 138.553 484.989 461.003
292 0 52.1493 11.026 575 141.617 483.438 456.315
293 0 53.0366 12.8402 681 139.593 485 457.557
294 0 55.0498 16.2217 893 132.409 484.532 456.595
295 0 58.0921 14.4082 837 135.956 485.239 452.599
296 0 59.0596 12.6482 747 139.296 485.6 453.376
297 0 62.0345 14.1695 879 135.523 487.329 452.902
298 0 63.0506 15.5748 982 132.052 488.927 451.943
299 0 63.061 12.2897 775 140.735 490.374 448.657
300 0 66.0474 16.4276 1085 133.063 491.461 444.56
301 0 70.2489 14.4771 1017 136.687 493.33 445.234
302 0 68.0478 12.55 854 141.494 495.263 445.549
303 0 73.1017 12.5715 919 141.135 497.408 446.586
304 0 77.3488 16.7165 1293 130.374 498.306 445.932
305 0 78.1892 13.7743 1077 138.177 499.417 444.451
306 0 81.1337 14.4206 1170 134.85 499.655 446.637
307 0 81.1337 14.433 1171 135.225 499.671 446.621
308 1 46.0519 8.70757 401 139.172 499.514 466.84
309 0 46.1149 10.3871 479 136.165 500.357 466.994
310 0 47.1948 11.4207 539 137.019 498.032 467.02
311 0 49.601 12.8223 636 137.835 496.376 462.704
312 0 50.0804 15.9943 801 130.87 498.422 467.943
313 0 52.0801 13.6712 712 136.178 497.048 468.573
314 0 50.0561 11.1275 557 143.537 496.497 467.373
315 0 53.0367 12.5762 667 142.729 495.031 464.133
316 0 54.0655 12.8733 696 140.763 494.198 464.595
317 0 53.0361 11.5582 613 145.305 492.292 462.754
318 0 58.0419 10.1995 592 146.269 490.681 462.015
319 0 59.0838 15.148 895 136.894 489.398 459.13
320 0 61.136 11.548 706 144.137 488.187 456.292
321 0 63.0423 15.5293 979 135.874 487.396 454.027
322 0 67.1485 13.969 938 136.545 486.39 456.693
323 0 68.0602 13.0473 888 139.927 486.066 450.848
324 0 69.1116 12.4581 861 141.215 485.566 451.584
325 0 71.1502 14.5045 1032 137.885 484.908 447.359
326 1 39.0436 7.47883 292 144.959 485.5 464.137
327 0 43.0851 12.1852 525 134.731 485.516 463.375
328 0 43.2034 9.30482 402 142.595 485.555 460.692
329 0 46.0467 9.7944 451 137.681 482.958 462.397
330 0 44.1661 13.5172 597 133.283 484.268 460.752
331 0 47.0778 13.552 638 133.951 488.158 459.146
332 0 50.1023 14.0912 706 127.248 489.698 458.31
333 0 51.1776 11.4308 585 132.053 490.144 457.624
334 0 53.285 13.7374 732 127.221 493.735 456.544
335 0 54.1897 12.3455 669 132.027 494.771 453.735
336 0 57.2339 14.5368 832 128.165 497.083 457.709
337 0 56.3445 13.5062 761 130.748 496.841 457.226
338 0 58.207 11.4935 669 133.97 498.758 456.565
339 0 61.3976 13.437 825 129.079 498.993 459.073
340 0 63.1831 14.9882 947 127.177 498.614 458.591
341 0 62.2359 13.7541 856 132.778 499.38 458.878
342 0 66.2789 14.2127 942 131.052 498.7 461.072
343 0 64.1569 12.9215 829 139.211 498.387 458.084
344 0 66.2132 15.5256 1028 134.218 497.787 458.089
345 0 67.2476 14.4094 969 137.05 497.079 457.223
346 0 70.2306 15.1643 1065 136.835 495.907 458.323
347 0 71.132 15.183 1080 139.465 494.537 454.108
348 0 74.2618 15.7955 1173 138.728 492.558 452.883
349 0 76.1594 14.1808 1080 142.77 492.158 456.149
350 0 78.2933 14.1391 1107 142.262 490.456 454.814
351 1 41.0397 11.5254 473 142.924 488.939 471.142
352 0 45.1626 14.171 640 136.464 485.764 468.625
353 0 45.1405 10.3676 468 145.722 484.41 464.329
354 0 46.2159 11.2948 522 143.057 483.341 466.132
355 0 49.2112 11.5218 567 141.755 483.201 463.217
356 0 49.154 12.349 607 141.015 482.265 462.176
357 0 52.107 14.2207 741 135.281 482.113 459.432
358 0 54.224 13.4258 728 136.422 481.712 458.933
359 0 55.0772 14.5795 803 134.945 481.34 457.007
360 0 55.0751 12.1289 668 139.611 481.639 456.934
361 0 59.0843 16.2818 962 129.313 482.193 455.021
362 0 61.0736 15.031 918 132.683 481.629 451.556
363 0 59.2394 14.6693 869 135.8 483.992 452.15
364 0 64.093 16.6165 1065 130.258 484.602 450.655
365 0 64.0954 14.1352 906 135.611 486.615 451.653
366 0 66.3679 15.4141 1023 132.803 487.243 449.282
367 0 69.208 12.8453 889 137.26 489.668 448.627
368 0 70.1614 14.5949 1024 134.881 491.517 446.129
369 0 72.097 13.0935 944 137.618 493.443 448.662
370 0 73.0347 16.143 1179 131.556 495.036 453.081
371 0 78.1064 15.4533 1207 131.761 496.138 450.413
372 0 79.1241 14.2561 1128 135.966 496.738 450.15
373 0 80.0625 17.0242 1363 133.263 496.696 450.882
374 0 83.0892 15.4653 1285 135.276 497.177 445.884
375 0 86.0788 15.5207 1336 137.338 497.187 451.576
376 1 49.0776 11.8588 582 140.619 497.18 468.646
377 0 52.0506 11.3735 592 143.111 496.811 468.449
378 0 53.0363 9.95545 528 144.377 496.663 469.833
379 0 50.1108 10.4369 523 146.927 494.759 467.6
380 0 54.0131 10.5345 569 143.852 493.58 470.933
381 0 56.075 12.6259 708 142.405 492.243 467.239
382 0 59.1983 13.6153 806 140.466 491.251 464.3
383 0 60.1699 16.254 978 134.042 489.354 466.49
384 0 64.118 17.1559 1100 133.56 488.162 459.787
385 0 64.0802 14.5755 934 140.434 486.823 459.995
386 0 64.202 13.2239 849 143.518 485.396 460.412
387 0 67.1188 16.6868 1120 138.539 484.92 455.214
388 0 69.1752 15.6415 1082 142.093 484.21 457.068
389 0 72.1678 16.3092 1177 140.767 483.666 451.784
390 0 75.2879 14.4645 1089 142.803 482.837 456.013
391 0 76.0907 16.6512 1267 140.673 482.79 448.979
392 0 81.0545 17.186 1393 139.276 482.984 451.291
393 0 80.1544 15.3953 1234 146.757 482.548 444.411
394 0 83.2975 16.5671 1380 143.114 483.078 443.375
395 0 87.1094 19.1828 1671 138.466 483.395 444.911
396 0 90.3295 18.3218 1655 139.063 483.77 441.583
397 0 92.1874 18.3539 1692 138.949 485.306 441.784
398 1 51.112 13.128 671 143.173 486.145 461.398
399 0 49.0812 12.7748 627 143.555 489.115 461.161
400 0 50.1638 12.5389 629 143.283 491.534 459.607
401 0 52.0891 11.5187 600 148.738 493.607 460.912
402 0 53.1614 13.4872 717 141.416 495.442 458.976
403 0 56.0339 14.0451 787 138.53 496.726 458.675
404 0 57.0655 14.8776 849 138.201 497.87 460.305
405 0 56.0387 11.2601 631 147.117 497.271 461.472
406 0 64.1184 14.5512 933 139.226 497.626 462.011
407 0 60.2872 13.4357 810 146.772 497.89 459.842
408 0 65.1302 13.7264 894 144.211 497.823 462.32
409 0 68.0837 14.1003 960 141.756 497.983 462.239
410 0 69.2011 14.9998 1038 143.683 497.065 460.949
411 0 71.0731 14.675 1043 143.965 496.443 462.051
412 0 73.0956 13.5302 989 149.991 495.037 456.206
413 0 79.1006 15.2717 1208 143.133 494.327 458.874
414 0 77.156 12.9737 1001 145.832 493.162 461.724
415 0 81.084 13.5292 1097 146.583 492.478 455.294
416 0 83.176 14.0064 1165 146.676 491.417 455.211
417 0 83.1381 12.5694 1045 150.646 489.652 453.084
418 0 89.1489 13.2924 1185 149.148 488.402 451.898
419 0 94.0805 15.8375 1490 141.868 486.68 450.087
420 1 51.0903 9.27769 474 144.011 486.312 474.456
421 0 50.0692 11.0447 553 144.269 484.801 471.199
422 0 54.0726 14.0552 760 140.257 483.596 465.191
423 0 53.0832 12.3956 658 145.397 483.213 464.308
424 0 56.0815 12.4283 697 146.707 482.558 461.692
425 0 58.1231 13.6951 796 144.286 482.466 456.727
426 0 60.083 13.6644 821 138.418 483.021 458.211
427 0 63.0943 15.77 995 134.799 483.226 456.755
428 0 64.1184 13.0852 839 140.628 483.358 454.62
429 0 67.0642 12.6744 850 141.212 484.372 453.082
430 0 69.1013 13.2125 913 141.676 485.277 452.02
431 0 72.2326 13.8165 998 139.807 486.444 451.032
432 0 74.118 16.2444 1204 134.858 487.762 450.164
433 0 77.1122 14.4205 1112 140.772 489.363 447.034
434 0 79.1528 11.0672 876 147.884 491.667 444.965
435 0 82.132 13.6731 1123 142.775 493.592 443.628
436 0 86.1889 14.4914 1249 138.845 494.669 446.35
437 1 43.0215 9.34417 402 144.493 497.734 465.418
438 0 47.1142 13.2232 623 132.177 497.074 469.945
439 0 47.0562 12.9845 611 137.81 498.177 467.137
440 0 49.0342 13.8067 677 138.31 498.598 465.526
441 0 51.0572 13.1029 669 144.185 499.296 465.647
442 0 50.0817 15.295 766 137.258 499.381 467.555
443 0 54.0607 11.6721 631 144.273 498.77 469.189
444 0 56.0925 12.4081 696 145.879 498.455 467.069
445 0 57.2037 12.8488 735 147.184 497.709 468.25
446 0 58.1088 12.8896 749 149.34 496.555 466.494
447 0 59.0562 12.8522 759 151.491 494.669 465.543
448 0 61.0998 12.5532 767 152.261 493.954 466.154
449 0 64.1105 14.3658 921 147.666 492.488 465.579
450 0 66.149 16.5687 1096 145.274 490.928 459.172
451 0 67.0398 15.1552 1016 151.311 490.173 459.462
452 0 68.1504 14.9669 1020 152.977 488.758 460.386
453 0 71.1926 16.2376 1156 150.536 487.522 458.234
454 0 72.1212 14.2538 1028 153.275 486.195 460.661
455 0 75.0814 13.9182 1045 158.373 485.28 454.112
456 0 76.4092 13.9119 1063 158.531 484.37 453.027
457 0 79.172 15.6242 1237 155.202 484.036 449.603
458 0 82.1552 16.6027 1364 149.954 484.079 451.301
459 0 84.19 17.0923 1439 150.714 483.211 446.621
460 0 85.2281 15.6404 1333 156.184 483.681 444.653
461 0 89.208 17.8459 1592 147.977 483.523 442.567
462 0 90.1804 16.0678 1449 155.428 483.932 438.185
463 0 93.215 14.3861 1341 159.705 485.134 440.984
464 1 54.0473 12.8036 692 154.679 487.113 460.517
465 0 53.224 13.4338 715 155.874 488.499 459.316
466 0 57.2975 13.3339 764 155.899 489.834 457.419
467 0 56.2552 16.2296 913 145.677 491.191 455.356
468 0 58.3105 15.2288 888 146.592 493.637 451.092
469 0 62.1239 15.8876 987 139.23 495.462 456.583
470 0 61.1318 14.3297 876 143.453 496.296 457.769
471 0 64.043 13.4753 863 147.074 497.75 456.958
472 0 66.4047 14.6074 970 146.566 498.03 456.715
473 0 69.2069 14.0304 971 147.976 498.273 452.646
474 0 69.1365 12.2222 845 154.662 498.731 455.03
475 0 75.1671 14.9933 1127 151.18 498.188 455.831
476 0 76.1378 15.6295 1190 150.608 498.04 454.486
477 0 78.1393 14.8965 1164 152.114 497.798 457.784
478 0 81.2781 14.8749 1209 153.75 496.701 453.901
479 1 42.1138 12.49 526 155.892 495.241 471.914
480 0 46.2551 12.2797 568 159.227 494.535 470.664
481 0 45.2712 10.7132 485 164.977 493.039 467.309
482 0 49.4338 14.8684 735 152.246 491.082 467.003
483 0 50.2907 11.9505 601 160.128 489.722 465.797
484 0 52.2549 11.8075 617 161.697 488.395 464.381
485 0 53.3438 14.2472 760 158.33 487.358 459.782
486 0 57.1191 14.6536 837 154.631 485.272 462.09
487 0 59.2516 16.6409 986 147.279 485.25 464.509
488 0 59.1872 15.5101 918 153.136 484.498 461.662
489 0 61.168 14.1904 868 156.303 484.37 460.566
490 0 66.4085 15.9467 1059 149.61 484.225 457.843
491 0 64.3895 14.1793 913 157.149 483.924 454.563
492 0 67.2553 15.7162 1057 152.255 483.992 453.049
493 0 71.2003 16.1657 1151 150.234 483.803 451.792
494 0 72.2284 16.434 1187 149.545 483.707 449.279
495 0 76.2581 15.7623 1202 151.491 484.787 448.01
496 0 76.09 14.7063 1119 157.464 485.819 446.037
497 0 80.092 18.7909 1505 147.267 487.1 442.865
498 0 79.2675 15.6054 1237 155.371 488.923 439.32
499 0 84.2323 15.1011 1272 152.493 491.187 443.92
500 0 92.6713 16.5963 1538 147.108 493.73 441.773
501 1 44.2535 10.8918 482 148.268 495.749 467.004
502 0 47.206 12.4349 587 146.492 497.026 466.245
503 0 45.1601 13.3303 602 151.646 498.101 460.982
504 0 50.2569 14.207 714 147.078 499.004 461.717
505 0 52.1451 13.7693 718 150.762 500.194 462.063
506 0 54.152 13.9976 758 149.178 499.905 462.439
507 0 55.1355 15.4528 852 147.442 499.308 463.33
508 0 58.1118 15.5906 906 145.447 499.56 464.544
509 0 57.1005 13.0822 747 154.369 499.6 465.491
510 0 61.2346 16.1347 988 146.273 499.08 463.878
511 0 60.1089 12.1945 733 157.734 497.794 465.409
512 0 62.1341 11.6683 725 157.974 496.832 465.177
513 0 67.1321 15.9387 1070 148.504 495.759 463.463
514 0 67.0858 13.6542 916 155.988 494.441 458.646
515 0 71.1475 16.009 1139 150.534 493.127 459.349
516 0 76.2458 15.791 1204 149.679 491.267 459.091
517 0 76.1442 14.7089 1120 154.836 489.733 455.938
518 0 78.1973 14.7575 1154 153.2 488.73 453.575
519 0 80.2086 14.6992 1179 153.131 486.827 453.635
520 1 40.0145 13.4201 537 154.246 487.149 471.713
521 0 43.0669 12.9798 559 153.478 486.515 470.707
522 0 44.0557 14.5271 640 146.172 485.567 470.395
523 0 44.1103 12.174 537 150.708 484.216 464.799
524 0 47.1844 14.5599 687 146.282 482.754 463.606
525 0 48.3455 16.2166 784 142.358 482.722 462.681
526 0 49.1323 14.3083 703 148.306 482.73 462.22
527 0 50.1676 12.7572 640 150.116 482.759 462.022
528 0 53.1145 13.9887 743 146.502 484.19 459.96
529 0 55.2051 15.7775 871 141.17 484.444 458.561
530 0 57.1453 14.6119 835 142.837 486.037 457.034
531 0 56.1281 13.6295 765 146.967 487.565 455.948
532 0 59.2199 13.948 826 144.222 489.058 454.643
533 0 61.2291 14.8296 908 146.349 491.003 454
534 0 66.1751 18.1488 1201 135.339 492.795 454.907
535 0 67.0838 17.5452 1177 137.094 494.404 456.584
536 0 70.1908 16.0277 1125 140.373 496.191 454.473
537 0 71.42 15.7799 1127 140.854 497.41 452.16
538 0 75.1164 15.7489 1183 139.285 497.676 453.603
539 0 78.182 17.5232 1370 133.485 499.298 453.69
540 1 39.2658 12.8101 503 146.02 500.086 470.899
541 0 39.0239 10.4295 407 157.174 499.988 473.049
542 0 43.037 10.8744 468 151.468 499.006 474.382
543 0 45.1319 13.9148 628 149.248 498.685 470.513
544 0 46.0676 13.1763 607 150.675 497.511 471.593
545 0 48.1342 12.9845 625 152.486 496.432 469.678
546 0 51.0809 15.5244 793 144.39 495.309 471.544
547 0 54.1687 15.7286 852 143.435 493.927 469.685
548 0 52.23 13.7086 716 151.394 492.468 467.425
549 0 54.2139 15.0884 818 148.169 491.566 465.175
550 0 55.1523 15.5932 860 146.956 490.056 463.958
551 0 56.1574 14.8867 836 147.403 489.061 463.169
552 0 59.2891 15.9557 946 144.335 487.753 462.101
553 0 60.1866 13.9732 841 149.018 486.27 459.42
554 0 64.1553 15.2443 978 144.458 485.486 457.856
555 0 66.2146 15.4045 1020 144.027 484.898 455.944
556 0 68.0796 15.1 1028 145.005 484.425 453.853
557 0 71.2927 15.6818 1118 142.407 483.76 453.145
558 0 75.3548 18.3399 1382 136.926 483.708 447.757
559 1 39.2687 10.2372 402 149.637 483.689 465.925
560 0 42.1392 10.9637 462 146.221 483.563 464.641
561 0 39.1099 10.8413 424 145.382 483.998 460.962
562 0 42.0625 12.9094 543 143.013 484.668 460.762
563 0 44.1501 11.5515 510 143.355 485.141 462.396
564 0 47.1857 14.4959 684 137.146 487.007 459.02
565 0 47.1169 13.2224 623 141.968 488.88 458.748
566 0 50.1961 11.8734 596 143.379 490.398 457.965
567 0 51.3256 12.5279 643 140.423 492.925 457.459
568 0 52.1545 13.901 725 137.868 494.661 458.767
569 0 56.186 14.8436 834 135.203 496.697 459.195
570 0 56.1689 14.5988 820 134.896 498.037 457.985
571 0 59.2352 12.8302 760 137.361 497.967 458.518
572 0 61.1907 21.8824 1339 122.535 498.63 458.946
573 0 65.3665 14.6405 957 132.94 499.514 459.982
574 0 63.1664 14.4697 914 138.393 498.652 456.775
575 0 68.17 15.7107 1071 135.891 498.252 460.955
576 0 71.1049 15.878 1129 140.033 497.803 457.45
577 0 71.2848 16.5954 1183 138.962 497.382 460.685
578 0 76.1607 15.2047 1158 144.406 496.573 456.594
579 0 76.119 14.6481 1115 146.172 495.761 457.94
580 1 43.037 13.7091 590 143.653 494.136 474.07
581 0 40.1651 12.5731 505 146.62 493.192 474.762
582 0 46.0829 12.3907 571 145.161 492.075 473.189
583 0 47.0952 14.7149 693 141.916 490.605 472.867
584 0 48.0975 14.637 704 142.571 489.115 470.812
585 0 50.3746 13.618 686 142.101 487.211 472.802
586 0 53.1782 15.89 845 139.484 486.409 467.569
587 0 52.2156 14.5167 758 144.865 485.343 463.851
588 0 53.1226 14.5136 771 144.293 484.249 467.96
589 0 57.1056 16.4082 937 138.984 483.414 465.723
590 0 58.2051 15.222 886 142.516 483.437 462.175
591 0 59.1351 13.782 815 144.952 482.312 462.512
592 0 62.1754 14.0409 873 143.158 482.005 462.349
593 0 65.1264 15.539 1012 139.82 482.179 458.795
594 0 68.2156 14.9379 1019 140.865 481.961 457.687
595 0 69.074 13.4059 926 144.227 482.558 456.324
596 0 71.2897 14.8128 1056 141.51 483.435 455.325
597 0 75.1945 14.2564 1072 142.108 483.854 454.876
598 0 76.239 14.284 1089 142.758 485.527 455.064
599 0 79.1312 16.5422 1309 138.481 486.956 455.086
600 0 82.0994 16.1755 1328 139.799 488.81 450.966
601 0 85.2646 14.8831 1269 141.846 490.229 452.38
602 0 90.4747 16.9219 1531 137.88 490.628 448.022
603 0 90.4747 17.0324 1541 140.474 491.639 448.033
604 1 45.2866 13.1165 594 144.328 491.973 469.668
605 0 49.2448 12.4074 611 142.681 492.19 468.736
606 0 49.1943 12.5421 617 143.943 492.405 469.169
607 0 51.0808 14.526 742 141.013 492.294 467.671
608 0 53.1326 14.9249 793 140.836 491.383 469.579
609 0 55.1464 12.8023 706 141.839 493.127 466.371
610 0 57.126 14.6693 838 136.455 492.282 465.623
611 0 57.1133 14.2524 814 138.622 491.327 466.05
612 0 58.1081 13.1135 762 143.108 490.286 463.908
613 0 63.0988 17.9243 1131 132.733 489.331 464.599
614 0 65.0994 14.1937 924 140.044 488.01 462.829
615 0 66.1268 16.8918 1117 136.336 486.406 457.15
616 0 70.1075 15.6759 1099 139.461 484.869 459.24
617 0 72.2007 16.1494 1166 138.34 483.476 456.985
618 0 74.1536 15.36 1139 140.263 482.423 455.495
619 0 75.1472 16.3013 1225 139.309 481.278 452.945
620 0 80.3204 16.5089 1326 138.884 480.535 449.051
621 0 83.2913 18.1652 1513 134.782 480.035 447.816
622 0 85.1801 16.6823 1421 140.331 479.552 445.437
623 0 87.267 17.0626 1489 138.822 479.319 444.071
624 0 89.1837 16.1128 1437 140.919 478.724 442.603
625 0 93.2233 15.9831 1490 141.577 479.755 439.145
626 0 94.2201 15.5699 1467 144.421 479.406 436.566
627 0 98.2592 16.1613 1588 141.73 479.294 436.118
628 1 53.252 12.6944 676 138.68 480.784 458.17
629 0 57.1381 10.3609 592 140.907 482.78 456.922
630 0 58.0577 11.4369 664 139.934 482.449 455.643
631 0 63.1666 12.8232 810 138.349 484.738 452.801
632 0 65.1406 16.0115 1043 135.02 486.459 452.824
633 0 65.0606 17.1071 1113 134.679 487.637 451.832
634 0 68.2731 15.4234 1053 141.822 488.955 450.787
635 0 70.317 16.4541 1157 140.394 491.004 452.339
636 0 72.3368 14.861 1075 146.833 493.399 451.386
637 0 72.0492 14.1709 1021 151.939 493.944 450.307
638 0 78.3789 17.0071 1333 143.711 495.136 450.078
639 0 80.0872 17.6433 1413 142.803 495.432 450.003
640 0 81.0949 15.0688 1222 149.553 495.867 450.114
641 0 84.3239 15.476 1305 152.195 495.094 449.395
642 0 88.0874 16.2566 1432 152.29 494.131 445.415
643 0 90.3509 16.9118 1528 150.086 493.845 450.036
644 0 92.2823 15.3334 1415 155.945 493.081 446.001
645 0 97.241 17.6263 1714 149.37 491.805 446.824
646 0 99.2954 18.7823 1865 148.663 490.97 445.281
647 0 102.099 15.9257 1626 155.982 490.327 443.557
648 0 105.244 15.3073 1611 157.065 488.908 442.133
649 0 110.364 17.7776 1962 152.013 488.072 439.131
650 0 113.362 15.2696 1731 159.101 487.017 436.556
651 0 118.258 16.853 1993 154.332 485.837 435.594
652 1 70.2692 12.4094 872 161.616 485.008 455.687
653 0 72.433 13.6954 992 157.61 483.919 454.552
654 0 73.2192 11.6636 854 163.211 483.502 448.961
655 0 76.3635 13.5536 1035 159.842 482.923 447.75
656 0 78.4709 13.5209 1061 159.128 482.661 445.047
657 0 82.3236 13.8842 1143 153.178 482.276 443.793
658 0 85.2827 13.039 1112 156.049 482.654 443.906
659 0 89.3183 13.9389 1245 157.362 483.218 441.128
660 0 91.4295 17.3358 1585 151.859 483.014 435.209
661 0 94.5145 13.5323 1279 157.439 483.83 435.682
662 0 98.4474 14.6169 1439 158.366 485.206 432.846
663 0 100.472 16.4025 1648 153.595 487.201 430.744
664 0 103.657 15.5898 1616 156.303 488.321 425.499
665 0 109.515 16.4361 1800 153.567 490.564 427.736
666 0 110.284 14.9523 1649 159.383 492.464 422.545
667 0 114.467 15.2183 1742 159.32 494.41 421.979
668 0 118.324 17.4944 2070 153.538 495.639 418.494
669 0 123.401 16.6125 2050 154.232 496.601 420.185
670 0 128.372 15.5019 1990 159.57 497.902 416.96
671 0 130.457 13.1998 1722 166.332 498.372 417.386
672 1 69.5056 10.5603 734 149.267 499.454 458.06
673 0 70.4102 11.8307 833 153.603 499.266 452.023
674 0 73.3337 12.8181 940 153.928 497.682 451.65
675 0 77.2723 12.7212 983 153.823 497.192 451.62
676 0 78.3817 12.8984 1011 155.066 496.73 449.749
677 0 78.4285 11.6794 916 159.098 495.996 449.37
678 0 82.5568 11.1802 923 159.943 494.641 449.295
679 0 84.4924 13.232 1118 155.763 493.215 448.948
680 0 89.4473 14.679 1313 150.697 492.154 446.887
681 0 90.4342 12.1414 1098 157.967 490.163 442.655
682 0 96.433 14.9223 1439 149.498 488.45 443.051
683 0 98.2652 12.9039 1268 154.694 487.214 438.659
684 0 100.503 14.1091 1418 153.366 485.52 435.801
685 1 44.1002 10.1133 446 147.419 485.863 465.365
686 0 45.0976 8.80313 397 149.577 484.695 465.343
687 0 47.1635 12.0008 566 143.104 483.776 462.035
688 0 50.0995 10.2197 512 146.449 482.857 459.522
689 0 53.0582 13.7208 728 135.905 482.437 461.147
690 0 56.2433 14.7573 830 133.665 480.488 459.654
691 0 53.1532 13.113 697 138.961 480.419 457.329
692 0 57.0583 12.5836 718 140.114 480.951 455.423
693 0 57.2451 14.5515 833 133.801 481.349 455.297
694 0 57.2451 14.534 832 116.542 482.318 455.327
695 0 60.2412 12.6326 761 133.127 483.271 455.649
696 0 63.1143 13.6419 861 132.279 485.59 452.575
697 0 66.1918 13.2343 876 131.682 486.567 453.74
698 0 68.3301 12.2494 837 133.615 488.381 451.953
699 0 69.5501 12.5665 874 131.851 490.962 453.694
700 1 33.1898 10.4852 348 134.647 492.934 469.362
701 0 34.2836 11.259 386 132.396 494.023 471.073
702 0 38.2346 12.6848 485 134.429 494.969 468.394
703 0 43.2034 11.3417 490 126.7 496.751 471.082
704 0 41.4218 16.2475 673 122.052 495.915 470.939
705 0 38.0982 13.9377 531 130.904 496.539 468.846
706 0 38.0195 11.6782 444 138.155 496.935 470.354
707 0 40.0839 14.295 573 132.801 495.878 468.974
708 0 42.1086 13.4889 568 136.292 495.162 468.542
709 0 46.0198 15.3847 708 131.657 494.175 469.77
710 0 46.1217 14.4617 667 135.904 493.549 468.004
711 0 46.2641 13.0771 605 141.886 491.985 468.957
712 0 50.0271 14.1723 709 138.866 491.147 467.591
713 0 50.1059 12.274 615 141.961 490.075 468.634
714 0 51.1498 12.9033 660 141.973 488.403 465.411
715 0 52.1375 15.0755 786 136.94 487.861 463.294
716 0 54.1432 14.0368 760 139.376 485.787 463.568
717 0 56.1582 13.4798 757 138.904 485.046 462.868
718 0 55.1638 14.1578 781 139.213 483.677 458.339
719 0 59.2942 12.8512 762 139.133 483.035 460.581
720 0 61.193 16.4071 1004 132.593 482.45 455.981
721 1 29.0698 15.2736 444 140.768 483.081 468.532
722 0 30.0855 14.5253 437 141.458 482.636 467.638
723 0 31.1724 12.7998 399 142.94 482.441 467.712
724 0 33.2269 16.4626 547 134.899 483.322 466.117
725 0 31.2704 13.815 432 142.025 483.273 463.697
726 0 34.1277 17.2587 589 132.905 484.131 465.902
727 0 41.8728 18.2457 764 128.835 485.084 464.351
728 0 37.4262 14.8559 556 139.833 485.782 463.487
729 0 40.3257 16.6147 670 133.002 486.909 464.03
730 0 36.2652 13.5392 491 143.607 488.503 462.179
731 0 42.4428 16.0451 681 136.568 490.819 461.975
732 0 44.5981 18.8349 840 128.833 493.296 463.527
733 0 45.5324 20.2493 922 125.493 494.368 465.809
734 0 44.3724 21.3872 949 126.812 495.474 465.24
735 0 43.4423 17.9318 779 139.561 495.859 466.202
736 0 47.3654 19.6135 929 134.321 497.202 466.18
737 0 46.298 17.625 816 140.074 496.838 466.224
738 0 49.2104 17.1305 843 139.403 496.89 469.075
739 0 49.2684 15.9331 785 146.59 496.11 469.4
740 0 50.1493 14.7958 742 149.509 496.183 469.598
741 0 51.1262 15.8823 812 148.352 494.935 469.836
742 0 54.1569 18.8157 1019 142.221 493.748 468.279
743 0 56.0904 18.8446 1057 143.723 492.516 470.114
744 0 58.2965 17.7712 1036 147.13 491.429 468.498
745 0 60.2614 18.0381 1087 145.351 489.99 470.007
746 0 62.2143 16.7486 1042 148.881 488.605 468.679
747 0 66.0539 20.4984 1354 141.953 487.145 465.847
748 0 67.0872 20.0485 1345 143.833 485.732 464.717
749 0 69.1934 18.1665 1257 149.809 483.902 460.793
750 0 71.2372 18.3752 1309 149.52 483.778 461.999
751 0 72.202 18.9053 1365 149.37 482.536 458.625
752 0 74.1226 18.7662 1391 150.919 481.56 458.725
753 0 75.2544 18.7232 1409 148.952 481.084 460.092
754 0 79.3882 17.786 1412 151.802 480.842 455.11
755 0 82.421 17.9687 1481 150.469 480.649 455.735
756 1 37.17 15.3888 572 160.998 480.767 472.568
757 0 38.047 14.6135 556 161.518 480.806 472.243
758 0 43.1058 17.8166 768 156.007 481.169 470.441
759 0 46.0516 17.8061 820 155.568 481.898 468.48
760 0 46.2676 16.6855 772 159.293 482.352 467.921
761 0 49.637 18.3734 912 153.702 483.778 467.134
762 0 51.1624 16.8092 860 159.003 484.65 464.399
763 0 53.5212 17.4884 936 157.153 486.171 464.106
764 0 55.135 17.7383 978 159.984 488.781 462.554
765 0 57.1716 22.0389 1260 151.161 489.575 461.81
766 0 59.1119 17.7799 1051 162.147 490.774 462.015
767 0 60.309 20.7598 1252 157.899 491.768 461.814
768 0 64.4402 20.4841 1320 158.003 493.134 462.126
769 0 65.1763 23.7049 1545 152.544 493.75 460.852
770 0 67.169 21.5725 1449 159.067 494.129 460.016
771 0 71.52 21.6163 1546 155.739 494.415 463.038
772 0 70.1981 18.3766 1290 165.562 494.328 462.886
773 0 74.5449 19.1428 1427 164.189 493.594 463.638
774 0 74.5748 16.8958 1260 172.929 493.291 463.987
775 0 79.5211 18.297 1455 168.595 492.152 463.268
776 0 83.3348 18.2877 1524 168.132 490.425 463.811
777 1 34.2932 13.3262 457 180.851 489.254 483.236
778 0 39.1861 16.5875 650 169.498 487.372 483.197
779 0 39.0645 15.5128 606 177.361 485.535 479.838
780 0 41.2601 14.6873 606 171.591 484.361 482.281
781 0 45.1393 20.3149 917 162.272 482.895 477.69
782 0 44.1948 17.9207 792 170.561 480.784 475.097
783 0 44.2742 18.6113 824 168.244 480.695 474.799
784 0 48.2094 17.3203 835 167.806 479.66 474.204
785 0 50.3168 15.8595 798 173.422 478.837 470.95
786 0 52.1923 19.5814 1022 162.704 477.992 469.763
787 0 53.2728 18.2082 970 165.037 477.357 467.857
788 0 56.3857 17.2207 971 166.837 477.498 466.067
789 0 55.7095 17.322 965 169.199 477.017 462.205
790 0 59.3499 17.6243 1046 168.188 477.593 460.479
791 0 61.4595 16.8404 1035 165.539 478.461 459.836
792 0 62.4052 17.2101 1074 164.761 479.062 457.71
793 0 66.4772 17.5549 1167 160.396 479.628 456.638
794 0 66.3328 17.4876 1160 165.738 480.696 454.985
795 0 70.3765 18.3868 1294 159.383 481.731 452.853
796 1 35.6219 15.833 564 158.363 484.333 469.592
797 0 33.1271 14.067 466 164.747 485.925 468.311
798 0 38.2347 14.9341 571 159.37 487.704 468.618
799 0 36.2971 14.1609 514 171.811 489.418 467.844
800 0 38.3677 16.4461 631 163.441 490.772 467.883
801 0 39.302 14.4013 566 166.864 491.878 469.643
802 0 40.0659 16.0486 643 164.927 493.532 469.533
803 0 44.1119 17.1609 757 160.921 494.576 469.682
804 0 41.3028 14.8416 613 175.253 494.969 471.305
805 0 45.1494 15.4155 696 169.034 495.259 473.014
806 0 49.2365 17.5683 865 164.842 495.518 473.05
807 0 47.0661 18.5484 873 166.443 495.737 473.604
808 0 51.3438 18.7754 964 164.911 495.502 472.792
809 0 50.3177 18.8403 948 169.489 494.678 471.208
810 0 53.2171 19.1104 1017 167.558 494.182 473.574
811 0 53.2211 17.7749 946 173.451 493.69 471.196
812 0 52.0923 15.8565 826 181.253 492.672 470.771
813 0 55.1554 15.3385 846 182.099 492.744 470.011
814 0 57.2229 20.2891 1161 169.705 491.506 467.761
815 0 59.1971 18.2104 1078 176.052 489.959 466.645
816 0 62.137 16.6406 1034 179.543 489.327 465.652
817 0 63.2939 17.9164 1134 175.833 487.733 459.101
818 0 67.6337 18.6445 1261 172.647 486.814 457.025
819 0 68.4738 17.0576 1168 178.074 485.893 455.658
820 0 69.3352 18.0139 1249 177.412 485.551 453.21
821 0 71.2906 18.4596 1316 175.412 484.986 452.993
822 0 74.147 18.288 1356 175.989 484.537 449.356
823 0 75.2954 17.0263 1282 181.826 484.617 446.838
824 0 79.2971 19.0675 1512 177.722 485.509 445.48
825 0 78.2669 18.5391 1451 178.414 485.875 442.001
826 0 84.2707 19.829 1671 171.958 486.409 442.934
827 0 85.4735 18.9415 1619 180.099 487.406 441.109
828 0 87.4332 19.2947 1687 177.341 488.484 440.287
829 0 91.459 21.2336 1942 171.16 489.986 437.768
830 0 93.4753 19.1067 1786 177.711 491.184 436.211
831 0 95.7087 17.8563 1709 177.844 492.78 437.114
832 0 98.3622 18.5844 1828 181.912 494.129 435.914
833 0 104.417 20.8779 2180 171.596 495.917 439.793
834 0 108.411 21.5569 2337 174.081 496.791 431.659
835 0 108.794 16.8025 1828 184.61 497.82 433.351
836 0 114.646 19.8524 2276 171.198 499.226 431.902
837 0 119.363 19.8469 2369 175.493 498.579 429.211
838 0 123.553 22.2738 2752 171.189 498.416 429.122
839 0 126.415 22.4657 2840 173.977 497.784 427.85
840 0 131.578 18.9014 2487 188.998 497.964 431.177
841 0 137.546 23.2868 3203 176.375 497.497 426.201
842 0 137.662 18.9449 2608 193.33 496.761 427.227
843 0 145.447 22.1111 3216 183.897 495.624 422.85
844 0 148.336 20.2715 3007 190.258 494.001 424.208
845 1 76.5072 14.2732 1092 193.535 493.19 462.18
846 0 79.3305 15.3913 1221 192.493 491.67 458.736
847 0 80.6478 14.8919 1201 193.316 490.293 458.556
848 0 83.4693 15.323 1279 192.99 488.281 455.457
849 0 83.3864 13.7432 1146 199.977 486.849 453.215
850 0 91.4651 20.926 1914 175.179 485.9 446.736
851 0 94.5083 18.3158 1731 182.998 484.724 445.506
852 0 98.3608 17.934 1764 182.992 483.836 443.029
853 1 50.1254 13.5859 681 194.571 482.985 463.744
854 0 53.1566 14.8053 787 187.342 482.817 462.682
855 0 51.1012 13.8157 706 190.695 482.159 461.822
856 0 54.1545 15.0495 815 186.269 481.934 460.266
857 0 57.1782 15.2156 870 184.776 482.118 457.53
858 0 60.2563 17.9566 1082 178.671 483.023 454.81
859 0 62.1268 16.2249 1008 180.521 483.592 456.601
860 0 62.3999 16.3141 1018 183.219 484.154 453.423
861 0 65.3592 17.3197 1132 180.015 484.89 453.33
862 0 67.298 15.944 1073 182.635 486.54 450.769
863 0 71.253 18.301 1304 172.749 487.945 449.521
864 0 73.3503 16.8916 1239 179.692 489.139 447.556
865 0 76.2009 17.0339 1298 177.525 491.287 446.698
866 0 79.1635 16.7628 1327 181.493 491.956 446.414
867 0 80.2832 15.109 1213 183.954 493.429 444.702
868 0 85.2559 15.8229 1349 175.688 493.967 445.289
869 1 43.2561 13.894 601 179.128 495.105 466.554
870 0 43.0631 14.3046 616 182.888 495.334 466.33
871 0 46.0596 15.9793 736 177.349 494.958 464.162
872 0 48.0691 15.873 763 178.497 495.396 464.225
873 0 48.0196 14.2234 683 184.54 494.924 465.447
874 0 51.1498 14.6042 747 182.448 494.604 466.131
875 0 55.0808 15.9765 880 177.815 494.092 464.089
876 0 55.1187 16.9271 933 177.032 493.131 463.844
877 0 56.1677 15.5605 874 183.72 491.093 463.468
878 0 60.1274 15.6335 940 180.4 490.026 463.994
879 0 62.1197 16.0336 996 179.881 489.035 461.976
880 0 62.1282 14.6793 912 185.038 487.257 462.508
881 0 67.1143 17.0009 1141 177.232 486 457.901
882 0 67.0418 16.0049 1073 181.154 484.395 456.215
883 0 71.1978 16.2786 1159 178.264 483.356 456.26
884 0 72.1317 14.5983 1053 180.941 482.013 454.504
885 1 35.0215 11.5929 406 186.631 481.264 468.613
886 0 39.0455 11.6275 454 182.194 480.564 466.515
887 0 41.0964 13.2858 546 177.41 480.363 466.121
888 0 39.1123 13.3973 524 185.25 479.742 461.552
889 0 43.1075 15.1714 654 172.203 480.06 462.174
890 0 43.213 15.9905 691 170.944 480.266 458.974
891 0 47.1621 16.2842 768 164.763 480.148 457.832
892 0 45.0975 14.5906 658 173.682 480.915 457.918
893 0 52.2512 15.6934 820 163.183 481.807 456.196
894 0 50.1715 15.6065 783 164.654 482.623 455.81
895 0 53.0736 13.9241 739 175.06 484.12 454.655
896 0 56.2504 15.1999 855 170.26 485.374 454.301
897 0 58.1637 17.0209 990 166.198 487.336 452.175
898 0 59.0824 18.2796 1080 162.935 489.149 451.631
899 0 62.1891 18.4116 1145 157.255 490.883 453.887
900 0 63.1401 16.5188 1043 166.727 492.313 452.193
901 0 64.2469 16.421 1055 172.646 493.584 450.279
902 0 65.0888 16.8846 1099 171.573 494.134 451.176
903 0 70.0822 16.5663 1161 172.175 494.62 453.409
904 0 71.2182 15.5859 1110 174.111 495.337 454.668
905 0 75.166 18.6387 1401 166.764 494.62 453.284
906 0 76.1626 16.9243 1289 172.185 495.231 453.376
907 0 76.1026 16.8063 1279 175.544 494.739 451.715
908 0 77.1709 14.5262 1121 184.943 494.388 451.348
909 0 84.1162 16.1562 1359 177.453 493.702 453.625
910 0 83.1524 14.9004 1239 184.954 492.593 452.288
911 0 87.2089 14.8609 1296 184.881 491.54 450.02
912 0 94.1645 21.2288 1999 163.78 490.749 445.777
913 0 95.225 17.1279 1631 175.92 490.243 447.716
914 0 98.4009 16.0873 1583 180.495 489.366 444.479
915 0 100.207 17.4739 1751 176.26 487.789 442.433
916 0 102.414 17.4391 1786 175.732 487.122 438.015
917 0 107.403 16.6476 1788 179.31 485.781 431.153
918 0 110.322 16.5244 1823 178.948 484.37 426.914
919 0 115.216 18.3482 2114 169.603 484.588 426.287
920 1 62.183 13.203 821 170.73 484.652 453.667
921 0 65.2801 13.0821 854 175.493 484.71 450.422
922 0 70.4462 14.0675 991 166.427 484.762 450.591
923 0 69.4059 15.7191 1091 144.83 485.706 449.554
924 0 71.3108 13.7847 983 171.551 484.287 442.968
925 0 74.2513 14.7337 1094 169.788 485.166 444.679
926 0 77.3178 15.598 1206 165.028 485.63 442.874
927 0 80.3981 16.9656 1364 158.235 486.534 438.336
928 0 84.5278 13.9836 1182 164.182 487.72 440.826
929 0 83.3299 14.5926 1216 165.178 489.781 440.188
930 0 88.3535 14.4533 1277 162.364 491.632 436.312
931 0 92.2635 15.6725 1446 157.607 493.71 436.767
932 0 93.5518 13.1799 1233 162.878 494.878 435.8
933 1 55.2218 11.3904 629 149.316 496.695 460.417
934 0 54.0956 12.1636 658 147.866 496.503 460.725
935 0 51.1361 8.2916 424 156.3 497.193 450.304
936 0 58.2551 10.1622 592 143.502 497.855 455.873
937 0 60.1298 12.5562 755 141.101 500.083 459.947
938 0 59.3007 11.5007 682 144.182 499.924 459.284
939 0 63.2399 12.5554 794 143.316 499.467 461.683
940 0 65.449 12.9872 850 143.691 498.848 459.819
941 0 67.4246 12.7105 857 146.205 498.413 459.893
942 0 69.1344 12.4106 858 143.974 498.205 465.886
943 0 67.1655 9.45426 635 163.194 496.477 458.879
944 0 75.2307 11.1657 840 152.504 495.824 460.468
945 0 77.188 12.6833 979 153.766 494.729 457.765
946 0 79.1373 13.7862 1091 151.219 494.115 454.232
947 0 81.1372 13.2738 1077 152.73 492.344 454.595
948 0 84.1541 12.9643 1091 153.338 491.182 452.798
949 1 46.0621 11.9838 552 146.145 490.649 471.319
950 0 46.0159 10.5616 486 147.936 489.689 469.523
951 0 47.0213 11.2502 529 147.138 488.329 469.142
952 0 49.0345 12.5218 614 140.798 487.155 465.764
953 0 50.208 12.2291 614 141.235 486.764 462.492
954 0 49.1077 10.0799 495 147.796 486.515 462.331
955 0 52.0678 13.1367 684 139.048 486.175 461.234
956 0 53.1867 11.7135 623 140.13 487.037 459.682
957 0 54.1569 13.3501 723 140.517 486.097 458.916
958 0 57.2997 14.3631 823 132.824 486.335 456.293
959 0 57.178 10.5635 604 141.296 487.649 456.634
960 0 59.2403 11.3267 671 138.268 488.01 452.487
961 0 63.2126 13.5258 855 133.132 489.209 452.86
962 0 65.2541 11.3863 743 136.697 491.314 455.384
963 0 65.2558 11.0641 722 137.011 491.813 452.079
964 0 68.2613 12.7158 868 132.548 493.548 448.438
965 0 71.3121 13.3498 952 131.673 495.64 449.392
966 0 72.3797 11.8956 861 134.6 497.153 447.334
967 0 75.3531 13.669 1030 130.84 498.216 447.01
968 0 78.2662 13.8629 1085 129.713 499.043 447.125
969 0 81.3614 12.1679 990 131.095 500.616 450.088
970 1 43.0858 12.4403 536 124.978 501.5 469.478
971 0 43.0818 9.26144 399 137.13 501.338 470.612
972 0 43.0851 10.6301 458 128.703 501.563 471.179
973 0 43.0356 11.3859 490 130.849 500.196 471.014
974 0 47.0164 12.0171 565 128.743 499.842 471.37
975 0 48.1293 12.9651 624 130.822 496.779 467.601
976 0 52.3221 13.1684 689 135.778 495.602 470.112
977 0 49.2549 12.4252 612 144.498 495.162 466.714
978 0 51.2534 12.1748 624 141.196 492.707 469.269
979 0 51.1005 12.2112 624 142.838 491.091 467.08
980 0 53.1688 13.128 698 140.403 489.14 466.466
981 0 56.2238 17.3948 978 130.725 487.881 466.95
982 0 58.165 14.9231 868 137.341 486.532 461.353
983 0 59.3973 14.3946 855 138.986 485.174 462.441
984 0 60.2961 14.9098 899 139.621 484.802 459.843
985 0 62.3129 12.1002 754 145.432 483.668 457.412
986 0 66.3362 15.4064 1022 136.766 483.153 455.65
987 0 65.1776 12.0747 787 146.971 482.311 452.009
988 0 68.2379 11.1522 761 144.389 481.89 454.114
989 0 71.2496 14.1194 1006 141.791 481.928 449.444
990 0 73.276 13.5379 992 139.152 481.746 447.466
991 0 75.1733 14.5929 1097 137.741 482.412 445.984
992 0 78.1413 18.7097 1462 129.469 482.667 445.762
993 0 81.1319 15.4193 1251 137.082 483.322 444.414
994 1 44.0655 13.548 597 137.129 484.1 461.079
995 0 46.039 12.6197 581 138.618 485.637 460.544
996 0 45.0823 10.5585 476 145.723 490.221 459.666
997 0 47.1057 14.1172 665 131.589 490.325 458.82
998 0 48.332 14.3797 695 131.14 491.176 460.414
999 0 49.0536 14.372 705 131.474 493.061 459.487
1000 0 50.0531 12.0872 605 135.774 494.532 459.655
1001 0 51.1611 13.1545 673 134.906 496.342 460.559
1002 0 53.1569 13.6201 724 132.279 497.271 458.077
1003 0 53.0757 13.8293 734 131.563 497.672 462.606
1004 0 56.0982 14.0824 790 132.44 497.604 459.81
1005 0 58.1446 13.0365 758 139.842 498.096 462.172
1006 0 61.171 14.9417 914 133.577 498.736 461.689
1007 0 62.157 15.2678 949 133.066 498.76 462.966
1008 0 65.1265 14.1264 920 136.942 497.649 462.301
1009 0 65.1118 13.6381 888 141.291 498.26 460.819
1010 0 68.1245 11.6992 797 145.69 496.713 460.484
1011 0 70.2159 13.4585 945 142 495.357 459.485
1012 0 71.1935 13.0068 926 144.644 494.289 457.942
1013 0 76.1718 13.8503 1055 142.169 492.867 456.833
1014 1 41.165 10.0814 415 144.687 491.06 474.431
1015 0 43.3561 10.8405 470 143.068 488.447 470.73
1016 0 44.288 9.28018 411 148.703 487.299 465.847
1017 0 47.1904 11.6337 549 143.146 486.763 464.557
1018 0 49.2903 11.767 580 141.583 485.481 466.438
1019 0 50.0819 12.4396 623 139.494 485.648 467.568
1020 0 53.1795 12.6176 671 138.507 485.207 463.222
1021 0 54.0879 13.4596 728 138.273 484.279 463.966
1022 0 55.26 12.5226 692 139.019 483.909 459.29
1023 0 56.1892 11.4969 646 140.497 483.3 461.152
1024 0 61.1144 12.5502 767 138.758 483.837 459.123
1025 0 60.2389 13.2306 797 139.059 484.132 456.035
1026 0 62.3676 12.5706 784 140.895 484.858 454.588
1027 0 66.0312 13.6905 904 138.238 485.674 456.603
1028 0 69.0348 14.2827 986 138.438 486.655 453.665
1029 0 69.1556 12.9997 899 140.792 487.798 450.088
1030 0 72.444 12.1887 883 140.587 489.364 446.536
1031 0 77.2453 14.5899 1127 136.589 490.989 443.043
1032 0 80.3758 15.8879 1277 135.5 493.084 444.169
1033 1 39.1015 9.28352 363 144.201 494.399 462.028
1034 0 38.1758 12.1281 463 137.352 495.352 463.318
1035 0 41.116 9.8745 406 141.741 496.116 462.953
1036 0 43.4566 14.9344 649 131.237 496.949 463.419
1037 0 43.1578 12.1183 523 140.195 496.222 462.099
1038 0 45.3353 13.3891 607 138.801 496.708 468.613
1039 0 44.4724 13.0418 580 142.234 496.514 466.041
1040 0 47.326 11.9173 564 144.271 496.034 469.692
1041 0 51.3752 13.6058 699 139.88 495.476 468.087
1042 0 52.3536 13.3515 699 140.605 494.549 469.824
1043 0 54.2769 13.1916 716 147.485 493.401 468.846
1044 0 53.4879 12.7318 681 149.019 492.33 468.11
1045 0 57.1681 15.9005 909 139.635 490.893 470.432
1046 0 58.3551 12.561 733 147.454 489.035 466.319
1047 0 61.4312 12.2576 753 146.792 487.222 464.32
1048 0 61.3308 15.1311 928 142.171 485.904 459.744
1049 0 66.3777 13.9203 924 141.1 484.788 462.741
1050 0 68.2918 15.5363 1061 137.409 483.393 461.713
1051 0 71.392 14.8476 1060 138.508 482.498 457.944
1052 0 72.229 14.5648 1052 139.893 481.703 453.632
1053 0 73.1942 15.411 1128 133.59 482.052 456.425
1054 0 73.2133 12.7026 930 141.26 481.965 453.466
1055 0 78.2729 14.7177 1152 134.533 481.826 454.164
1056 1 43.0372 10.9673 472 135.271 483.025 468.987
1057 0 43.1655 9.82265 424 137.83 484.236 466.083
1058 0 46.1104 10.258 473 134.687 483.799 467.655
1059 0 47.0916 11.4033 537 138.773 483.821 458.87
1060 0 48.0822 11.1892 538 134.258 484.888 464.323
1061 0 51.0777 14.6639 749 129.198 486.459 460.77
1062 0 51.1538 12.1399 621 134.882 488.005 461.043
1063 0 54.1694 11.501 623 137.673 489.061 457.718
1064 0 55.0641 14.2561 785 132.236 486.953 457.24
1065 0 55.0727 13.9997 771 134.8 488.682 453.948
1066 0 61.1151 17.2625 1055 124.971 489.834 456.494
1067 0 61.0941 14.093 861 132.163 491.318 456.063
1068 0 62.0869 15.4783 961 129.884 492.871 451.831
1069 0 64.0646 14.3761 921 130.642 494.367 450.516
1070 0 67.0784 15.1316 1015 127.837 495.131 454.44
1071 0 67.1565 17.5709 1180 125.83 495.549 450.726
1072 0 68.1041 13.2591 903 138.539 496.051 453.362
1073 0 73.296 13.6706 1002 134.23 496.004 454.55
1074 0 74.2339 14.1445 1050 133.671 496.23 452.659
1075 0 78.1047 15.3896 1202 132.74 495.972 453.21
1076 0 78.31 13.8041 1081 139.131 495.868 449.874
1077 0 81.1225 16.0621 1303 133.604 495.166 448.848
1078 0 83.1293 18.79 1562 129.659 494.234 446.043
1079 0 86.3997 15.4399 1334 135.911 493.376 447.206
1080 0 87.2519 13.0656 1140 142.626 492.488 443.811
1081 0 91.4765 12.8995 1180 140.885 492.898 445.986
1082 1 48.1218 11.1592 537 137.458 492.497 465.646
1083 0 51.2392 12.8417 658 132.804 490.442 465.733
1084 0 52.1077 14.47 754 132.752 489.544 461.622
1085 0 52.1555 10.9672 572 138.463 487.996 462.138
1086 0 57.329 13.2394 759 131.706 486.825 460.242
1087 0 58.1522 12.3813 720 133.836 486.601 455.303
1088 0 59.1824 13.7203 812 132.339 486.342 452.807
1089 0 62.1183 11.9611 743 132.935 486.771 451.096
1090 0 62.1222 13.4252 834 133.026 485.412 448.409
1091 0 66.3192 13.7818 914 128.375 486.543 450.349
1092 0 67.1501 12.0476 809 130.897 486.043 446.534
1093 0 70.2884 12.3634 869 130.099 486.334 448.121
1094 0 72.1522 14.6912 1060 126.558 487.351 443.62
1095 0 74.3698 14.8313 1103 124.602 488.68 443.82
1096 0 77.2495 16.3496 1263 121.241 489.911 441.998
1097 0 79.1818 13.93 1103 125.124 491.264 436.123
1098 0 83.2755 16.2593 1354 124.175 492.031 441.643
1099 0 85.2104 16.2539 1385 121.334 494.513 439.339
1100 0 87.2259 14.7089 1283 125.959 496.07 438.932
1101 0 91.3684 16.9862 1552 120.227 497.772 433.311
1102 0 93.5217 14.4245 1349 125.01 497.925 430.679
1103 0 95.3484 12.5854 1200 127.821 498.506 434.095
1104 1 48.3636 10.6485 515 125.722 498.249 455.551
1105 0 49.2223 13.6727 673 118.649 498.645 453.348
1106 0 48.0415 9.3669 450 120.689 499.816 456.698
1107 0 50.1495 10.1297 508 123.179 498.852 456.673
1108 0 52.0507 14.5627 758 120.077 499.046 458.245
1109 0 53.0609 11.5151 611 133.234 497.65 462.193
1110 0 58.1087 13.4059 779 127.403 495.851 458.54
1111 0 59.1503 15.4353 913 125.61 494.05 459.528
1112 0 63.193 17.043 1077 122.786 492.688 458.833
1113 0 64.0942 16.7254 1072 124.183 491.235 457.616
1114 0 65.0832 14.8425 966 128.057 489.714 458.392
1115 0 67.1717 13.2496 890 130.97 488.399 455.211
1116 0 71.2138 15.3201 1091 127.913 486.38 456.583
1117 0 71.2213 15.7958 1125 129.666 484.818 452.94
1118 0 71.167 13.4332 956 134.754 483.779 450.212
1119 0 76.1953 14.6991 1120 130.665 482.888 454.932
1120 0 77.1392 16.2045 1250 127.49 481.761 451.922
1121 0 78.3163 15.0033 1175 130.881 481.333 452.025
1122 0 80.1056 15.0052 1202 133.025 481.4 445.67
1123 0 83.3141 15.4116 1284 132.109 481.136 450.47
1124 0 87.1596 14.7086 1282 134.388 480.507 445.955
1125 0 93.2024 20.2355 1886 123.446 480.68 441.056
1126 0 91.1967 14.7812 1348 135.971 481.125 442.707
1127 0 93.2254 13.8482 1291 138.969 481.747 441.152
1128 0 100.429 18.3412 1842 130.459 482.034 428.327
1129 0 99.1872 17.4418 1730 133.072 483.216 427.292
1130 0 103.56 17.7384 1837 131.68 484.97 430.755
1131 0 103.286 17.1272 1769 133.714 487.028 428.382
1132 0 108.393 15.8313 1716 135.81 488.351 430.195
1133 1 60.2931 11.2782 680 132.993 491.004 460.751
1134 0 61.1925 12.8447 786 131.291 493.025 460.083
1135 0 62.0879 13.2232 821 129.487 493.24 450.865
1136 0 65.2005 13.4815 879 130.414 493.257 452.522
1137 0 66.2963 11.9011 789 133.49 493.786 453.956
1138 0 67.2232 11.4246 768 137.025 494.161 450.065
1139 0 72.1632 16.4211 1185 128.332 494.745 451.994
1140 0 70.1592 14.125 991 136.394 494.48 449.607
1141 0 74.1295 13.0447 967 136.312 493.963 452.145
1142 0 76.2139 11.822 901 140.277 493.03 451.466
1143 0 80.1004 12.6841 1016 138.603 492.073 450.07
1144 0 83.1004 13.6582 1135 140.072 492.119 454.981
1145 0 88.2054 15.9174 1404 135.226 490.475 454.798
1146 0 91.1519 12.5505 1144 139.522 489.056 455.999
1147 0 92.0866 14.4104 1327 136.684 486.854 452.692
1148 0 96.1654 15.6085 1501 134.887 483.691 444.756
1149 0 98.2823 16.8291 1654 133.773 482.426 440.096
1150 1 53.2346 8.7537 466 138.554 479.976 466.204
1151 0 53.1314 5.4958 292 139.983 478.945 467.476
1152 0 55.2088 10.0709 556 137.367 478.552 459.342
1153 0 57.0857 9.84485 562 133.968 479.415 458.055
1154 0 60.1737 11.2175 675 132.184 481.452 459.33
1155 0 62.1333 18.0901 1124 124.178 481.767 458.535
1156 0 67.3015 17.221 1159 121.952 482.071 459.203
1157 0 66.2106 13.3362 883 132.108 482.244 454.08
1158 0 66.1659 15.2042 1006 131.442 481.911 451.381
1159 0 69.2046 14.4788 1002 133.244 483.216 449.606
1160 0 69.2107 13.6973 948 134.506 484.189 448.512
1161 0 74.1647 15.2364 1130 130.173 485.434 449.055
1162 0 77.2448 14.7583 1140 129.354 486.272 447.696
1163 0 77.173 13.4503 1038 131.796 487.953 445.155
1164 0 79.2606 11.4054 904 135.251 489.116 441.645
1165 0 83.2707 13.9185 1159 131.661 491.057 441.52
1166 0 85.2154 15.4315 1315 127.069 492.439 443.827
1167 0 86.3249 13.7967 1191 133.016 494.348 438.332
1168 0 90.3906 13.9284 1259 131.012 495.763 444.909
1169 1 46.1532 8.49346 392 135.824 498.329 465.184
1170 0 49.0259 10.5454 517 134.985 498.625 460.244
1171 0 49.1135 9.28461 456 132.917 499 465.384
1172 0 49.1017 9.51088 467 136.707 498.951 460.73
1173 0 54.3271 13.9157 756 128.455 498.44 461.253
1174 0 54.1295 10.6411 576 129.701 497.403 464.403
1175 0 55.1013 10.7801 594 133.416 496.216 461.811
1176 0 57.2391 13.1204 751 128.37 495.233 464.679
1177 0 57.0736 11.0384 630 134.256 494.406 461.646
1178 0 62.2826 15.5902 971 125.501 493.933 462.213
1179 0 64.178 14.2728 916 128.162 492.73 461.562
1180 0 66.1219 15.2899 1011 126.955 491.299 462.105
1181 0 66.3006 14.4493 958 131.634 490.173 459.444
1182 0 71.207 13.9031 990 130.918 489.254 458.804
1183 0 71.3772 13.0294 930 133.641 487.422 456.301
1184 0 73.1429 12.168 890 137.137 486.285 450.062
1185 1 38.1424 10.9327 417 132.892 484.242 467.288
1186 0 38.1321 9.17861 350 135.986 483.097 465.994
1187 0 37.3154 6.96764 260 139.454 484.242 465.862
1188 0 38.4034 9.13981 351 132.86 484.758 466.516
1189 0 41.3807 10.5605 437 127.934 484.563 464.513
1190 0 44.3943 12.5241 556 124.935 484.029 460.205
1191 0 45.09 13.8168 623 124.774 484.754 459.332
1192 0 45.1222 10.0616 454 133.004 486.002 458.502
1193 0 47.0764 12.4691 587 128.141 486.196 458.773
1194 0 45.113 11.7261 529 132.442 486.514 456.021
1195 0 49.158 14.0364 690 127.391 488.486 456.97
1196 0 51.0285 13.1887 673 127.902 489.97 455.284
1197 0 54.1473 13.2417 717 124.775 491.806 454.884
1198 0 55.0356 16.0623 884 120.035 493.298 453.835
1199 0 53.0919 13.9569 741 125.258 495.479 454.435
1200 0 57.1361 15.6294 893 121.345 496.356 454.432
1201 0 58.0892 13.858 805 128.358 497.858 453.957
1202 0 61.0467 15.3653 938 122.095 498.768 452.861
1203 0 61.0838 12.2291 747 129.756 499.084 456.011
1204 0 64.0876 14.6674 940 122.71 500.001 461.074
1205 0 64.0744 14.6392 938 128.577 499.682 457.264
1206 0 67.0976 15.321 1028 126.332 500.405 458.007
1207 0 70.1825 17.8535 1253 126.646 499.692 456.901
1208 0 70.061 14.9441 1047 132.494 498.867 458.191
1209 0 73.1409 14.5609 1065 133.875 498.36 458.008
1210 1 38.1114 10.4955 400 137.152 498.25 474.048
1211 0 38.1 10.7349 409 136.736 497.176 476.406
1212 0 41.1338 17.4309 717 124.598 495.321 476.186
1213 0 42.0556 11.0806 466 134.44 493.86 476.863
1214 0 44.2025 14.6824 649 127.849 490.582 470.419
1215 0 42.2978 18.3934 778 122.728 488.825 469.264
1216 0 46.1228 15.8707 732 125.638 488.157 470.316
1217 0 44.1643 11.7969 521 135.157 485.996 468.445
1218 0 47.1152 12.8409 605 131.602 484.939 466.82
1219 0 47.2169 12.6438 597 131.554 483.869 463.94
1220 0 49.2286 11.0099 542 132.535 482.705 466.382
1221 0 52.1766 15.275 797 125.103 481.977 463.619
1222 0 51.2944 9.82563 504 131.909 481.038 463.288
1223 0 56.2195 12.1666 684 126.173 481.469 460.387
1224 0 53.1832 10.1724 541 131.214 481.641 456.641
1225 0 58.1611 15.5258 903 119.836 481.302 457.751
1226 0 58.1515 13.1209 763 124.982 482.304 456.328
1227 0 59.1927 15.8465 938 121.32 482.139 453.803
1228 0 63.4422 13.6344 865 122.897 482.761 453.458
1229 0 62.1424 10.4599 650 128.894 484.52 452.24
1230 0 64.2896 12.7548 820 127.615 485.712 453.044
1231 0 66.325 13.6751 907 124.965 487.814 452.478
1232 0 69.2604 11.5217 798 127.605 488.62 452.43
1233 0 71.1303 12.1889 867 125.768 490.353 453.338
1234 0 74.1018 12.7527 945 125.721 491.858 450.86
1235 1 38.0143 9.78579 372 127.672 493.616 468.841
1236 0 39.0523 11.7023 457 123.991 494.346 469.79
1237 0 43.2576 9.7324 421 122.57 495.772 473.993
1238 0 42.0382 12.0367 506 124.113 494.955 469.128
1239 0 44.0186 11.5633 509 123.914 495.375 470.342
1240 0 44.2346 13.1345 581 122.298 497.303 468.079
1241 0 48.2212 16.4658 794 116.898 495.932 463.257
1242 0 47.2821 14.9951 709 120.004 495.142 461.018
1243 0 51.3038 12.5527 644 123.166 494.516 465.017
1244 0 50.1503 14.6958 737 120.015 493.037 467.327
1245 0 52.2906 15.0123 785 119.645 491.82 467.41
1246 0 54.1288 15.888 860 119.96 490.251 465.15
1247 0 56.281 13.095 737 123.697 488.73 467.727
1248 0 57.2218 12.8448 735 124.996 487.744 466.404
1249 0 59.1555 14.9944 887 123.338 486.435 462.202
1250 0 61.1709 10.5606 646 132.08 485.13 462.768
1251 0 67.2774 15.8746 1068 123.27 483.847 462.071
1252 0 66.2332 12.6372 837 129.706 482.468 460.401
1253 0 69.0999 18.8568 1303 119.622 483.295 464.524
1254 0 73.1016 17.0174 1244 124.575 482.51 459.834
1255 0 75.1896 15.175 1141 127.546 482.122 458.528
1256 0 77.1497 16.7078 1289 125.133 482.258 453.705
1257 0 79.2062 20.5161 1625 119.646 481.437 456.821
1258 1 43.0479 14.3096 616 128.584 482.029 470.661
1259 0 43.0539 14.5631 627 127.593 481.774 471.522
1260 0 43.0181 11.9717 515 135.394 482.006 467.297
1261 0 46.015 9.95328 458 137.585 482.127 468.926
1262 0 45.0996 12.4391 561 134.993 483.264 468.059
1263 0 48.1865 13.0949 631 134.851 484.216 466.526
1264 0 50.0578 14.3834 720 137.021 486.029 465.235
1265 0 50.1578 14.9329 749 136.737 486.992 464.765
1266 0 50.2017 12.9478 650 143.428 489.049 464.675
1267 0 47.0566 12.2193 575 149.47 490.15 465.697
1268 0 50.1961 14.2242 714 144.514 492.773 467.514
1269 0 56.1607 17.6102 989 135.537 493.363 469.754
1270 0 53.1349 16.0347 852 145.398 493.81 468.338
1271 0 55.2526 15.9088 879 144.397 494.562 468.81
1272 0 56.2942 16.5381 931 146.839 495.206 465.299
1273 0 55.2276 18.5052 1022 146.023 494.877 464.685
1274 0 54.2865 15.7866 857 157.964 493.445 463.559
1275 0 55.1296 15.2731 842 158.228 493.156 470.396
1276 0 56.101 19.1084 1072 152.813 492.575 472.748
1277 0 53.118 15.2867 812 166.356 491.714 472.257
1278 1 26.0696 10.7789 281 169.932 489.826 487.851
1279 0 29.0285 9.57678 278 168.356 487.996 487.09
1280 0 29.0283 11.9539 347 161.847 487.133 488.34
1281 0 28.2634 12.4543 352 165.514 486.375 488.102
