time division length width area intensity CMx CMy
0 0 57.4688 9.50081 546 131.119 586.2 447.98
1 0 57.1276 15.4391 882 121.58 587.13 450.23
2 0 56.1687 12.3556 694 137.555 588.226 447.901
3 1 65.1652 7.28917 475 129.768 586.672 448.255
4 0 67.1012 13.04 875 122.928 587.402 442.976
5 0 67.1213 16.1499 1084 116.492 587.543 449.768
6 0 73.4702 21.8728 1607 116.881 586.436 442.249
7 0 73.305 22.345 1638 113.786 586.104 449.767
8 0 69.3123 10.2868 713 123.084 585.436 448.776
9 0 72.1091 14.8525 1071 121.194 583.487 448.171
10 0 76.2211 20.0732 1530 119.185 583.191 445.648
11 0 77.3929 12.611 976 128.749 581.985 444.606
12 0 82.3064 21.177 1743 122.939 581.326 444.398
13 0 86.1815 16.999 1465 126.999 580.175 442.968
14 0 85.2308 15.7689 1344 137.082 578.85 439.443
15 0 90.24 14.5279 1311 145.043 577.174 439.975
16 1 48.1159 11.6178 559 148.621 575.542 458.263
17 0 49.1124 12.4612 612 143.608 573.626 459.73
18 0 48.0555 14.0255 674 147.855 572.892 455.128
19 0 52.2904 14.2665 746 148.42 571.599 453.342
20 0 52.1712 11.8648 619 152.985 571.207 449.191
21 0 54.1713 14.8972 807 149.226 570.595 446.731
22 0 59.2538 13.2819 787 150.33 570.221 446.654
23 0 61.3876 14.4003 884 146.258 569.913 445.351
24 0 63.4596 15.632 992 144.417 569.641 440.22
25 0 64.58 14.0911 910 146.991 569.54 438.837
26 0 71.9857 19.9067 1433 132.539 570.336 439.65
27 0 69.3127 15.2642 1058 143.509 570.329 436.737
28 0 70.5862 15.2863 1079 146.523 570.126 433.834
29 0 69.56 14.5773 1014 143.269 569.185 432.96
30 0 75.7148 13.4848 1021 147.529 573.48 432.893
31 0 79.7616 15.2329 1215 139.419 575.645 427.735
32 0 82.9777 16.9564 1407 127.185 577.659 428.65
33 0 84.8042 13.0654 1108 124.675 579.497 426.018
34 0 87.8199 17.6156 1547 117.577 581.223 425.31
35 0 97.2866 21.1334 2056 112.623 582.925 427.238
36 0 105.436 27.078 2855 107.64 582.897 431.777
37 0 110.72 22.8053 2525 109.082 583.052 435.79
38 1 53.0366 14.9708 794 113.261 584.079 453.038
39 0 51.0063 13.3121 679 114.719 583.91 455.623
40 0 55.3834 19.9879 1107 105.225 582.992 460.844
41 0 53.3997 16.4795 880 110.639 583.565 460.158
42 0 57.2646 22.5969 1294 108.765 582.791 457.938
43 0 55.3721 16.7413 927 116.82 581.336 456.822
44 0 59.1964 16.0483 950 123.504 580.132 456.855
45 0 59.338 14.8808 883 122.803 579.728 454.904
46 0 62.9269 22.6612 1426 118.548 578.204 453.849
47 0 62.9379 22.9274 1443 128.376 577.18 453.869
48 0 63.4429 15.242 967 143.2 575.674 450.641
49 0 64.4165 14.577 939 148.928 573.657 450.931
50 0 66.3429 15.9474 1058 152.7 572.242 450.735
51 0 70.5142 17.8546 1259 149.198 570.821 447.646
52 0 70.4189 17.0835 1203 153.012 568.824 447.311
53 0 69.3853 14.542 1009 158.492 568.172 444.683
54 0 75.2945 16.1499 1216 151.133 568.285 440.083
55 0 79.8361 16.822 1343 146.09 567.278 442.646
56 0 82.5486 17.7592 1466 146.252 566.252 435.41
57 0 84.4335 17.4812 1476 145.83 566.278 439.61
58 0 87.5145 14.8661 1301 151.632 566.559 432.855
59 0 89.5079 14.4345 1292 152.543 566.249 431.885
60 0 95.546 15.8248 1512 147.022 566.64 429.278
61 0 95.505 16.2086 1548 148.048 567.09 428.702
62 0 99.5424 14.6671 1460 149.758 567.614 425.923
63 0 102.398 16.807 1721 143.231 568.901 422.916
64 0 106.504 14.497 1544 141.717 570.866 425.007
65 1 54.2068 11.9911 650 142.572 571.788 447.491
66 0 57.5925 19.9853 1151 121.911 575.172 447.44
67 0 60.1685 14.3098 861 125.555 578.22 447.251
68 0 63.3643 15.3714 974 124.24 579.061 448.301
69 0 64.4969 23.7531 1532 115.294 580.307 445.206
70 0 67.241 13.8011 928 124.182 581.031 450.348
71 0 66.2194 14.9352 989 123.3 582.673 446.727
72 0 70.4122 14.5429 1024 123.985 583.106 446.155
73 0 72.3921 25.279 1830 115.583 582.81 445.04
74 0 79.0002 25.1898 1990 113.677 581.827 450.852
75 0 77.3547 19.2102 1486 121.038 581.874 453.252
76 0 89.4418 21.3211 1907 121.074 580.049 451.634
77 0 78.1254 15.6287 1221 147.085 580.018 445.136
78 0 82.0682 14.2808 1172 151.898 579.876 444.311
79 0 85.1337 15.458 1316 151.498 578.901 443.019
80 0 87.1953 17.0307 1485 150.105 577.821 441.238
81 0 87.184 16.9297 1476 147.793 575.814 441.122
82 0 94.3509 15.7815 1489 155.641 575.071 438.69
83 0 96.1563 15.5996 1500 163.702 573.829 435.571
84 0 99.4004 16.3581 1626 159.745 572.319 433.491
85 0 101.312 14.5097 1470 164.562 571.063 429.079
86 0 106.477 16.3791 1744 160.027 569.825 427.838
87 1 57.352 9.81657 563 157.661 569.428 446.306
88 0 58.2812 10.2091 595 159.264 568.766 443.817
89 0 64.2376 10.648 684 152.579 568.481 445.254
90 0 66.2558 9.37276 621 156.101 567.303 442.092
91 0 68.2984 11.9329 815 152.384 568.56 442.51
92 0 71.1694 12.5475 893 150.422 567.23 443.475
93 0 74.1407 12.22 906 150.694 566.748 442.51
94 0 77.1078 14.175 1093 146.544 567.108 441.197
95 0 77.2099 12.9129 997 152.815 566.945 437.914
96 0 80.158 9.49375 761 150.792 567.247 438.649
97 0 84.1005 11.4981 967 149.685 569.131 433.866
98 0 87.4466 14.0314 1227 137.331 571.622 431.337
99 0 89.2061 11.8826 1060 139.342 573.837 434.147
100 0 92.1806 9.01491 831 138.856 575.319 437.196
101 0 97.4167 11.692 1139 131.442 577.585 430.799
102 0 99.238 8.64588 858 128.031 579.723 436.237
103 0 106.323 10.2612 1091 128.22 580.488 429.463
104 0 107.446 6.83136 734 129.166 582.166 430.455
105 0 109.54 9.1291 1000 127.793 582.242 434.159
106 0 113.489 14.4772 1643 122.225 582.055 435.329
107 0 113.56 15.472 1757 121.166 583.259 430.612
108 1 65.1389 9.76375 636 119.638 581.761 456.813
109 0 66.1229 8.55982 566 120.67 581.424 456.231
110 0 69.112 12.704 878 122.572 580.478 451.468
111 0 71.1847 9.62285 685 133.327 579.52 451.055
112 0 71.097 11.7867 838 134.148 578.951 452.011
113 0 74.1321 10.4273 773 139.188 577.695 450.799
114 0 73.1238 9.50443 695 129.724 575.672 449.222
115 0 73.1259 9.4768 693 129.291 573.671 449.258
116 0 80.2639 10.9389 878 148.108 573.364 446.715
117 0 87.2181 14.5153 1266 140.331 572.099 444.618
118 1 48.1252 11.5116 554 144.276 570.601 462.143
119 0 48.3357 9.47539 458 148.002 569.223 459.151
120 0 46.0687 5.40498 249 157.691 567.956 460.386
121 0 51.0767 6.5196 333 155.414 566.658 457.237
122 0 53.0859 10.6808 567 146.369 565.584 455.074
123 0 54.0644 10.0806 545 141.295 566.633 456.462
124 0 56.0504 10.2943 577 144.626 564.579 455.409
125 0 57.0483 11.2712 643 141.274 565.062 452.216
126 0 57.1066 10.8044 617 142.251 564.133 448.483
127 0 60.0359 13.1755 791 136.952 564.308 450.178
128 0 60.0728 12.2851 738 139.05 564.16 446.965
129 0 62.0963 10.7736 669 143.019 565.161 447.472
130 0 63.131 10.1535 641 143.76 565.593 445.356
131 0 67.0649 10.8402 727 141.868 567.525 441.437
132 0 68.3582 9.09913 622 137.889 569.032 442.492
133 0 70.1241 11.2657 790 136.885 571.649 443.282
134 0 73.2346 11.6612 854 128.46 573.978 445.176
135 0 77.1894 11.3617 877 126.983 575.927 440.393
136 0 78.6893 13.0767 1029 123.741 577.611 436.161
137 0 79.2392 6.39835 507 131.937 578.876 446.621
138 1 45.1998 13.9824 632 116.764 580.201 460.255
139 0 44.0999 4.33107 191 130.047 581.094 461.23
140 0 44.0478 8.33186 367 126.632 580.905 462.245
141 0 50.1715 12.6765 636 116.234 580.415 466.687
142 0 50.1156 13.9478 699 115.239 580.133 462.092
143 0 50.1772 12.3164 618 130.503 579.206 461.409
144 0 52.2476 11.8092 617 133.42 578.574 461.032
145 0 52.2476 11.8283 618 129.094 578.596 460.989
146 0 54.0501 11.3413 613 143.127 577.791 459.215
147 0 58.0869 13.1183 762 137.593 577.116 462.458
148 0 58.222 14.5134 845 136.959 575.317 459.321
149 0 60.0676 12.3361 741 143.12 573.788 459.698
150 0 61.0554 11.9891 732 146.949 571.866 459.048
151 0 62.0634 14.8074 919 140.1 571.345 460.264
152 0 64.1517 13.3434 856 145.886 569.236 458.787
153 0 65.1109 13.0854 852 146.38 568.37 455.022
154 0 68.1149 14.1526 964 141.761 566.759 455.377
155 0 69.1037 13.5449 936 149.187 566.276 450.802
156 0 72.1738 13.2597 957 146.302 565.686 450.072
157 0 73.209 13.7415 1006 146.012 564.922 449.009
158 0 74.159 13.498 1001 148.269 563.977 445.329
159 0 75.1119 14.272 1072 148.202 563.808 444.931
160 0 79.1802 15.9131 1260 143.018 563.76 445.325
161 0 83.2053 13.9294 1159 146.998 563.626 443.398
162 0 84.1353 13.9775 1176 146.273 564.249 442.372
163 1 49.0259 10.4231 511 148.659 564.888 458.084
164 0 48.082 9.87896 475 144.674 566.832 460.528
165 0 51.0351 11.737 599 138.815 569.01 457.678
166 0 51.0421 9.77624 499 145.088 570.527 457.455
167 0 54.0802 12.7773 691 140.896 572.829 456.259
168 0 56.2394 15.0606 847 135.432 574.125 457.222
169 0 58.1139 12.3034 715 133.773 575.512 455.252
170 0 59.0653 14.9665 884 127.802 575.528 456.087
171 0 59.1256 15.6447 925 125.829 577.054 459.643
172 0 60.0653 13.3854 804 133.301 576.889 455.874
173 0 62.1254 13.5371 841 133.683 577.669 456.708
174 0 65.1707 18.8582 1229 125.007 577.727 458.409
175 0 64.0971 12.9023 827 139.193 578.056 457.713
176 0 69.295 15.7731 1093 137.564 576.849 457.659
177 0 68.0998 15.7122 1070 140.864 576.105 454.636
178 0 71.1869 17.2785 1230 137.805 575.956 456.211
179 0 77.4685 17.2328 1335 136.983 574.7 457.024
180 0 76.0743 16.6942 1270 147.591 573.668 457.583
181 0 78.1864 15.0921 1180 146.453 572.248 456.509
182 0 78.2271 15.455 1209 146.453 570.477 450.26
183 0 82.1421 16.8854 1387 145.871 569.835 454.787
184 1 46.0844 9.93828 458 160.148 569.042 469.371
185 0 47.0673 10.0494 473 159.994 566.987 467.958
186 0 48.0386 14.8214 712 148.303 565.084 467.444
187 0 50.0576 10.9474 548 158.584 564.839 465.036
188 0 51.0549 10.1851 520 157.548 563.915 465.652
189 0 51.0299 10.8172 552 159.19 564.382 461.692
190 0 53.0456 11.6315 617 155.65 563.185 461.148
191 0 58.1145 17.2934 1005 140.366 562.057 456.026
192 0 57.0685 13.0194 743 147.768 561.703 456.708
193 0 58.117 13.1631 765 147.557 561.384 455.352
194 0 62.2833 15.1565 944 140.597 562.077 453.071
195 0 62.3942 13.575 847 146.867 561.785 450.483
196 0 63.1225 13.7352 867 146.158 562.9 449.582
197 0 67.3291 14.5257 978 139.276 565.157 448.984
198 0 68.1141 13.8297 942 140.797 566.148 447.645
199 0 68.0804 12.2208 832 141.8 567.737 448.927
200 0 72.3486 14.8724 1076 135.562 568.668 443.692
201 0 77.2139 17.1601 1325 127.157 571.579 447.604
202 0 77.1461 14.8938 1149 133.966 572.988 444.929
203 0 77.1421 12.4575 961 138.613 574.39 444.835
204 0 82.171 15.0175 1234 135.27 575.194 441.11
205 0 85.433 16.4925 1409 130.899 575.996 442.064
206 1 48.0791 12.209 587 132.458 576.816 464.049
207 0 44.0444 10.7619 474 136.3 577.631 465.629
208 0 49.1027 9.99945 491 140.489 578.014 462.847
209 0 50.1914 13.1298 659 137.46 576.46 460.862
210 0 50.1079 12.2735 615 132.423 574.779 457.086
211 0 53.1162 14.986 796 133.107 576.01 461.236
212 0 53.1664 14.6897 781 138.009 575.529 461.68
213 0 56.0825 13.7298 770 139.796 573.647 466.517
214 0 54.1844 11.3871 617 146.89 573.084 461.524
215 0 56.1163 11.7969 662 147.786 571.76 459.598
216 0 58.1704 13.5464 788 144.85 570.551 457.414
217 0 57.0854 11.5441 659 149.766 569.164 459.807
218 0 59.1398 11.1431 659 152.492 567.759 455.835
219 0 64.1625 15.2581 979 141.564 566.152 455.348
220 0 64.1062 12.2141 783 149.768 564.669 455.132
221 0 68.1431 15.174 1034 143.587 563.243 452.624
222 0 71.1171 16.2268 1154 140.393 561.935 450.369
223 0 73.0647 14.6856 1073 144.187 561.243 449.706
224 0 73.0665 11.7975 862 151.448 561.027 449.372
225 0 79.1174 13.6 1076 145.737 560.031 446.496
226 0 80.1416 13.1642 1055 148.662 560.08 439.297
227 0 84.1785 15.182 1278 143.031 560.158 444.137
228 0 83.1231 13.8349 1150 147.192 560.91 441.326
229 0 88.3014 16.8174 1485 140.547 561.288 439.945
230 0 92.1881 15.924 1468 137.568 562.136 441.311
231 0 93.2147 15.8451 1477 136.568 563.523 435.733
232 0 100.218 22.9102 2296 120.889 564.827 437.478
233 1 51.0504 12.4583 636 134.498 567.678 456.832
234 0 51.0481 13.595 694 138.287 569.988 456.134
235 0 54.046 12.0268 650 137.208 571.84 454.883
236 0 56.0977 11.8722 666 139.548 570.659 452.402
237 0 60.2136 19.0655 1148 120.655 572.406 454.672
238 0 61.204 13.3488 817 134.973 572.923 455.644
239 0 64.0656 16.249 1041 127.897 574.611 457.098
240 0 66.0527 15.1546 1001 130.949 574.829 456.471
241 0 66.2971 16.6976 1107 131.503 574.127 454.257
242 0 69.0839 15.6766 1083 133.018 573.656 453.241
243 0 73.1468 16.1046 1178 133.232 573.176 453.25
244 0 74.2213 15.8849 1179 135.296 572.45 457.043
245 0 76.2743 16.1129 1229 137.111 571.951 454.675
246 0 79.0939 15.2224 1204 139.883 570.471 452.27
247 0 81.1737 13.8961 1128 143.081 569.713 451.718
248 0 86.1608 15.5755 1342 139.283 569.068 449.945
249 0 87.1763 16.3347 1424 139.645 567.579 448.206
250 0 88.1748 14.4939 1278 143.495 566.769 446.895
251 0 91.309 16.5373 1510 139.27 564.896 445.948
252 0 93.1077 15.7345 1465 140.85 563.047 443.681
253 0 95.1399 14.8413 1412 141.196 562.231 442.353
254 0 100.219 16.4539 1649 135.822 561.216 440.532
255 0 102.364 13.6181 1394 142.222 559.964 437.461
256 0 106.473 13.7782 1467 142.917 559.294 435.25
257 1 60.1412 12.5039 752 134.507 559.054 458.912
258 0 62.1856 13.1059 815 131.998 558.144 457.058
259 0 65.236 13.6888 893 133.518 557.683 454.158
260 0 66.2623 12.2241 810 138.975 557.902 450.838
261 0 68.1121 13.9476 950 131.912 558.39 448.832
262 0 72.1017 13.7583 992 130.301 559.164 451.271
263 0 72.1039 13.7995 995 139.284 560.157 451.242
264 0 73.2782 11.6815 856 133.707 560.293 448.037
265 0 79.2388 15.5858 1235 127.654 562.068 442.287
266 0 81.151 15.2062 1234 127.507 564.256 443.481
267 0 83.2211 15.0683 1254 129.91 565.892 439.442
268 0 84.2987 13.7013 1155 129.95 568.135 441.339
269 0 88.3065 16.6466 1470 125.55 569.421 439.382
270 0 93.3514 18.5 1727 123.708 571.156 437.277
271 0 94.2251 12.8098 1207 134.13 572.35 438.554
272 0 97.2818 13.9183 1354 132.495 573.668 442.665
273 1 51.1155 9.9774 510 137.104 572.469 460.79
274 0 55.2225 13.183 728 124.477 572.986 463.569
275 0 57.2774 11.5752 663 128.76 572.756 463.876
276 0 58.4687 14.2469 833 126 573.034 461.616
277 0 59.0543 11.0068 650 132.338 572.551 463.378
278 0 60.1092 13.4256 807 130.518 572.326 460.612
279 0 60.1258 12.5736 756 135.517 570.724 461.574
280 0 65.1558 13.4294 875 133.762 569.201 459.746
281 0 67.1065 14.9464 1003 130.454 569.104 459.157
282 0 67.1065 15.0507 1010 127.407 568.132 459.085
283 0 71.2233 14.4054 1026 132.446 566.615 458.307
284 0 75.2012 16.4625 1238 130.095 564.57 454.775
285 0 75.2105 12.8838 969 137.801 563.038 451.166
286 0 75.213 12.8967 970 136.785 561.011 451.239
287 0 78.2307 12.4376 973 140.975 560.722 448.374
288 0 83.2653 13.7032 1141 138.317 560.441 445.485
289 1 45.0458 13.7638 620 132.384 558.423 466.69
290 0 47.139 10.8403 511 140.853 559.464 462.626
291 0 47.036 8.69547 409 143.792 557.597 462.487
292 0 49.0662 11.8411 581 133.224 557.386 464.022
293 0 51.1466 11.8483 606 137.259 557.878 459.097
294 0 50.2544 11.3821 572 137.334 558.163 459.649
295 0 53.1479 11.6656 620 137.265 558.826 455.063
296 0 55.321 12.2738 679 134.551 559.072 457.159
297 0 58.1511 13.5509 788 132.765 559.824 454.374
298 0 59.2357 11.0238 653 138.464 561.685 452.897
299 0 60.1243 13.8879 835 131.754 562.752 450.254
300 0 61.2002 14.5751 892 131.02 564.015 450.285
301 0 63.1876 15.1137 955 130.198 565.673 449.132
302 0 66.1665 12.3325 816 133.11 567.545 453.213
303 0 67.1236 14.4659 971 130.586 570.052 451.228
304 0 70.0592 16.4861 1155 126.924 570.981 449.455
305 0 69.1442 12.3944 857 136.642 572.122 454.653
306 0 73.1328 14.3574 1050 131.144 572.617 450.585
307 0 73.1328 14.4258 1055 136.827 573.624 450.545
308 0 78.1134 16.0408 1253 130.439 572.958 451.326
309 1 37.0412 9.15198 339 137.018 572.614 471.528
310 0 43.0475 8.15379 351 140.177 572.225 470.433
311 0 41.1282 9.60411 395 141.387 572.299 470.471
312 0 42.1191 7.78744 328 148.488 571.396 468.421
313 0 45.1756 11.0458 499 142.154 572.206 468.892
314 0 47.1492 9.6078 453 136.876 569.834 465.87
315 0 52.0731 11.5607 602 137.468 569.625 468.713
316 0 51.1775 12.2124 625 136.998 567.512 468.458
317 0 49.1683 10.1081 497 144.02 565.59 465.386
318 0 52.1088 11.476 598 140.846 564.018 462.52
319 0 55.0739 12.3471 680 137.509 562.828 465.004
320 0 55.0828 14.4691 797 133.23 561.543 464.768
321 0 58.1574 11.5033 669 139.686 561.091 461.718
322 0 61.1571 14.1276 864 132.859 559.852 461.33
323 0 60.2311 13.2822 800 135.084 559.558 459.316
324 0 66.2343 15.9283 1055 127.791 559.443 458.479
325 0 65.1308 13.281 865 133.798 558.807 456.555
326 0 69.0728 12.3783 855 135.623 558.944 453.22
327 0 70.2147 13.9002 976 130.995 559.008 453.614
328 0 71.1275 10.3617 737 139.406 559.155 449.81
329 0 74.2667 14.0305 1042 131.329 559.56 448.224
330 0 77.1189 14.8991 1149 129.73 560.82 444.428
331 0 79.1844 14.7125 1165 132.51 562.566 441.867
332 0 81.4866 14.0391 1144 131.878 563.927 442.975
333 1 42.1033 8.12287 342 136.69 564.21 463.219
334 0 45.114 11.2604 508 132.809 566.563 460.62
335 0 45.0249 8.77293 395 133.42 567.572 465.306
336 0 47.0378 8.31247 391 137.11 569.785 463.389
337 0 47.1084 11.6115 547 131.642 569.892 463.21
338 0 50.1778 12.6948 637 129.105 572.292 462.962
339 0 53.156 13.9589 742 126.925 572.73 461.853
340 0 53.0968 12.0535 640 128.281 572.652 461.388
341 0 56.1717 13.1205 737 130.839 573.019 461.617
342 0 56.0723 10.8788 610 135.897 572.587 463.556
343 0 59.1342 13.2072 781 134.018 572.146 461.56
344 0 61.0453 9.91068 605 139.94 570.977 456.283
345 0 61.0578 12.6274 771 135.747 570.546 457.669
346 0 64.0816 12.921 828 136.488 569.442 460.207
347 0 65.1204 11.21 730 140.892 568.218 456.336
348 0 68.0722 14.1761 965 135.714 567.45 457.972
349 0 70.0944 11.6985 820 141.393 565.566 456.138
350 0 73.0857 11.3565 830 141.9 563.804 454.177
351 0 76.0534 13.1092 997 137.486 562.538 456.647
352 0 79.2219 16.6999 1323 131.255 562.8 454.496
353 0 82.1953 14.5629 1197 135.921 561.137 453.725
354 0 83.0603 12.4368 1033 141.781 559.192 446.821
355 0 84.1199 11.65 980 143.047 558.655 447.092
356 0 90.1491 16.0401 1446 132.299 557.922 447.093
357 0 92.1722 13.0191 1200 139.018 557.884 443.366
358 1 49.0951 10.9991 540 137.956 556.948 462.781
359 0 47.0502 9.09666 428 139.138 556.794 463.914
360 0 50.1025 9.60032 481 137.216 557.102 463.206
361 0 52.1194 10.9748 572 136.371 557.496 460.292
362 0 53.0658 10.7414 570 137.019 557.093 459.83
363 0 55.1872 11.6513 643 136.407 559.044 458.026
364 0 59.052 14.8682 878 129.761 559.752 456.937
365 0 56.2193 12.2734 690 137.801 565.022 453.839
366 0 59.2772 13.4116 795 134.195 565.87 454.34
367 0 60.1927 13.3239 802 133.882 567.47 454.17
368 0 65.3764 14.2559 932 131.195 569.163 454.194
369 0 66.4138 13.3858 889 133.417 571.183 453.507
370 0 67.3053 17.8886 1204 126.278 572.818 453.283
371 0 69.1758 14.0512 972 126.794 574.859 456.09
372 0 69.158 10.8881 753 134.085 575.505 457.574
373 0 71.1821 11.4495 815 134.961 575.298 454.703
374 0 75.444 14.1297 1066 129.206 575.373 453.814
375 0 77.2233 15.6818 1211 130.072 575.37 455.813
376 0 79.278 13.4842 1069 133.029 575.081 457.085
377 0 80.0809 11.4135 914 140.821 574.292 452.874
378 0 84.1856 13.8266 1164 134.476 573.368 454.888
379 0 88.1972 13.6285 1202 135.483 572.313 452.935
380 0 89.0998 10.5275 938 141.52 571.712 454.615
381 1 49.0138 12.6087 618 134.134 570.884 472.612
382 0 48.1243 13.5067 650 129.662 569.455 470.694
383 0 54.2335 12.0221 652 134.282 568.42 469.752
384 0 52.1217 10.0918 526 139.447 566.981 467.648
385 0 53.1041 11.2421 597 139.951 565.697 464.352
386 0 56.0944 11.748 659 137.469 564.646 463.958
387 0 59.0799 12.2038 721 141.351 563.882 462.105
388 0 59.0868 12.2701 725 140.532 563.037 461.956
389 0 60.2431 12.0014 723 136.232 561.61 457.261
390 0 64.2569 10.2557 659 139.012 560.977 457.341
391 0 64.304 9.22182 593 139.789 560.14 454.002
392 0 68.2127 13.883 947 131.529 560.126 452.183
393 0 69.2285 12.0615 835 135.502 559.907 450.103
394 0 72.1374 12.9752 936 132.058 560.509 448.028
395 0 74.0965 12.7401 944 133.952 561.271 445.641
396 0 79.1745 15.8637 1256 125.762 561.717 447.541
397 1 41.0453 9.4286 387 131.649 564.222 466.63
398 0 43.0685 9.68225 417 131.808 564.806 463.571
399 0 45.0608 10.386 468 133.524 566.359 460.026
400 0 46.2199 13.1112 606 127.129 568.757 460.005
401 0 50.144 11.806 592 129.319 570.412 463.387
402 0 50.1153 14.0875 706 124.925 572.56 461.523
403 0 55.1965 15.1459 836 118.9 574.023 462.499
404 0 56.3226 12.8723 725 123.75 575.295 463.6
405 0 55.0768 13.3268 734 130.191 572.004 462.037
406 0 54.0409 12.0464 651 135.249 572.149 463.172
407 0 56.1288 11.9012 668 135.714 572.512 464.805
408 0 60.1713 12.4146 747 135.637 572.419 461.909
409 0 60.0504 13.1223 788 134.062 572.555 459.755
410 0 62.0248 12.1403 753 137.891 571.704 460.367
411 0 63.2959 12.5127 792 138.194 570.934 460.708
412 0 67.104 13.0246 874 138.257 569.676 460.767
413 0 69.0879 14.6191 1010 134.766 568.862 460.291
414 0 69.1972 14.8994 1031 134.956 567.458 457.055
415 0 74.3249 15.0286 1117 133.03 567.046 458.687
416 0 78.3174 15.4244 1208 132.723 566.063 457.198
417 0 79.1618 17.5211 1387 129.228 564.577 457.032
418 0 80.2269 14.6958 1179 136.634 563.277 453.937
419 0 85.5017 17.2394 1474 129.55 561.924 453.702
420 0 84.3188 12.9034 1088 140.331 560.608 447.835
421 0 88.7872 16.4438 1460 133.034 560.019 446.776
422 1 45.316 9.40065 426 139.305 560.216 467.146
423 0 49.1455 11.9645 588 136.878 559.611 461.628
424 0 50.17 10.584 531 139.574 559.047 462.915
425 0 52.0858 12.825 668 135.629 558.846 459.644
426 0 51.2386 12.92 662 137.606 558.27 456.337
427 0 53.1744 12.2615 652 131.232 559.728 459.718
428 0 58.2511 14.7808 861 126.319 560.121 456.607
429 0 61.2347 15.6937 961 125.065 561.401 456.14
430 0 58.0604 12.487 725 133.302 562.01 455.161
431 0 63.453 12.4344 789 131.548 563.032 454.835
432 0 63.1826 12.82 810 132.849 564.446 451.065
433 0 67.2134 14.5804 980 128.901 566.186 453.686
434 0 67.2298 13.0151 875 133.61 568.302 449.958
435 0 71.2707 15.392 1097 128.763 570.242 449.818
436 0 73.409 12.0149 882 132.89 571.605 452.498
437 0 76.1977 14.633 1115 127.741 574.473 451.078
438 0 78.0848 15.4575 1207 127.714 574.528 450.102
439 0 80.0883 16.9063 1354 126.024 575.228 448.527
440 0 85.229 14.2674 1216 130.235 575.314 450.469
441 0 84.208 16.7917 1414 130.533 574.914 447.196
442 0 88.6213 14.6804 1301 134.98 574.54 446.415
443 0 94.4547 14.4726 1367 133.804 574.158 448.871
444 1 48.2218 9.35262 451 138.477 574.322 468.543
445 0 49.3368 8.79667 434 139.696 573.848 469.007
446 0 51.4084 10.5041 540 137.165 572.422 467.67
447 0 52.3411 13.3165 697 134.195 570.317 463.499
448 0 55.2348 13.7594 760 131.032 569.596 464.317
449 0 57.3262 16.2927 934 125.529 568.139 464.61
450 0 58.177 12.8229 746 130.767 566.956 465.818
451 0 58.1109 15.1607 881 129.781 565.389 462.431
452 0 60.2253 13.8978 837 131.783 563.781 460.541
453 0 59.2051 13.0225 771 134.523 562.843 459.244
454 0 65.4774 14.0048 917 130.008 561.963 458.436
455 0 64.5284 12.4131 801 134.759 560.534 456.117
456 0 67.3996 14.5995 984 129.447 560.053 453.895
457 0 73.8458 18.8772 1394 119.592 559.826 451.459
458 0 72.3252 14.4486 1045 128.081 559.987 451.453
459 0 72.1593 12.4863 901 135.555 559.586 448.652
460 0 77.1023 14.8374 1144 132.202 559.413 447.235
461 0 77.2046 12.5381 968 135.747 559.488 445.865
462 0 81.6626 15.809 1291 129.19 559.643 441.731
463 0 85.6499 17.805 1525 125.913 560.955 440.89
464 0 82.4225 15.1051 1245 131.457 562.324 441.083
465 0 89.7662 17.8464 1602 125.985 563.794 439.618
466 0 93.5448 22.2353 2080 120.032 565.252 438.973
467 0 95.7522 22.3285 2138 118.585 567.447 431.782
468 0 97.4722 20.7444 2022 122.955 569.55 429.982
469 0 100.363 19.2301 1930 124.257 572.114 428.182
470 0 104.576 18.3407 1918 125.697 572.981 428.42
471 0 107.715 20.285 2185 123.228 573.942 427.448
472 0 111.453 20.6724 2304 123.611 574.046 427.977
473 0 113.674 14.8583 1689 134.048 574.504 430.914
474 0 123.005 22.5763 2777 121.231 574.682 425.528
475 0 123.599 19.9921 2471 129.003 574.297 421.192
476 0 128.404 18.2549 2344 132.677 573.968 419.894
477 0 132.481 20.0707 2659 131.16 573.302 419.379
478 1 62.3637 7.42419 463 143.87 573.428 461.717
479 0 68.4214 13.2853 909 139.069 572.031 456.065
480 0 70.5433 10.3908 733 146.105 571.036 456.655
481 0 77.7067 14.9923 1165 137.123 569.92 455.446
482 0 77.6393 17.4268 1353 134.997 568.517 453.972
483 0 79.489 15.7129 1249 140.894 566.898 449.484
484 0 80.3541 14.0005 1125 145.948 565.369 447.017
485 0 83.6237 13.0465 1091 148.307 564.413 446.888
486 0 87.3236 15.5743 1360 144.149 562.475 442.607
487 0 89.3132 14.0965 1259 146.849 562.02 444.394
488 0 94.4922 16.1177 1523 143.677 561.122 438.351
489 0 96.5008 14.9843 1446 147.129 560.526 433.823
490 0 101.556 16.5525 1681 143.362 560.296 431.481
491 0 105.474 14.9989 1582 146.659 560.02 431.004
492 0 114.858 20.0683 2305 131.239 560.141 436.396
493 1 60.4028 9.30421 562 143.214 560.843 457.45
494 0 65.5205 14.5145 951 135.494 560.678 453.701
495 0 62.3385 8.74259 545 149.701 561.229 452.226
496 0 65.3308 11.9239 779 146.822 561.594 449.157
497 0 68.3961 13.8312 946 142.555 563.196 446.645
498 0 67.0819 12.7307 854 146.311 565.626 448.722
499 0 72.0999 14.147 1020 140.607 567.434 450.439
500 0 76.0634 13.1864 1003 141.884 570.018 447.864
501 0 79.1461 16.16 1279 136.493 570.469 447.421
502 0 80.3603 13.4893 1084 142.774 572.468 445.398
503 0 84.2375 15.9549 1344 135.844 573.795 444.106
504 0 84.3208 10.5668 891 147.318 574.882 445.82
505 0 89.3545 13.4408 1201 145.182 576.023 441.579
506 0 93.2883 14.1497 1320 143.137 575.567 440.541
507 0 96.3793 14.3392 1382 144.706 574.829 437.911
508 1 52.1491 10.911 569 141.337 576.949 464.782
509 0 52.2109 10.8598 567 144.626 576.612 463.444
510 0 56.2372 10.7224 603 144.093 575.968 464.554
511 0 57.2024 14.0728 805 139.783 574.601 461.955
512 0 59.1839 13.7706 815 138.735 573.647 464.282
513 0 61.3202 13.5192 829 140.179 572.596 461.44
514 0 63.1319 13.9074 878 140.039 569.05 462.713
515 0 66.1636 13.3306 882 141.011 567.719 462.756
516 0 69.1826 12.8501 889 141.091 566.009 462.567
517 0 69.2555 14.8291 1027 142.818 564.461 457.348
518 0 69.1618 12.637 874 146.739 563.966 457.403
519 0 74.344 16.9752 1262 134.74 563.472 452.668
520 0 74.1474 12.9876 963 141.481 562.541 456.584
521 0 78.5462 13.9154 1093 140.527 562.306 450.951
522 0 82.2555 14.8926 1225 135.779 561.42 450.933
523 0 84.2839 17.2275 1452 134.202 561.052 445.49
524 0 87.3603 15.1213 1321 136.089 560.391 445.792
525 0 88.272 13.9342 1230 139.465 560.432 441.902
526 0 90.1825 12.386 1117 143.905 559.898 439.334
527 0 93.3318 13.2216 1234 140.723 559.822 439.448
528 0 95.2427 11.8329 1127 142.834 561.288 438.343
529 0 99.1524 13.4238 1331 138.092 561.181 437.784
530 0 102.167 14.212 1452 137.525 562.726 434.513
531 0 105.187 13.4427 1414 138.204 564.15 428.888
532 0 109.259 15.6509 1710 132.601 565.784 429.003
533 0 116.185 15.3548 1784 134.135 567.459 428.408
534 1 63.106 9.88812 624 136.595 571.514 453.114
535 0 66.2572 14.2173 942 127.106 569.551 453.252
536 0 68.2563 15.2367 1040 126.618 571.789 448.962
537 0 68.2448 14.5066 990 127.545 572.96 448.617
538 0 73.1718 14.6778 1074 124.439 572.485 452.777
539 0 74.1538 14.888 1104 125.748 573.244 449.684
540 0 77.3197 14.149 1094 127.816 573.57 447.766
541 0 81.1314 14.039 1139 131.121 573.066 454.204
542 0 84.0393 14.2552 1198 131.201 572.452 453.674
543 0 90.3534 13.6243 1231 132.66 574.701 452.591
544 0 88.188 14.0155 1236 134.388 573.244 447.949
545 0 92.2138 14.4555 1333 134.566 571.886 449.514
546 0 91.3099 12.1345 1108 140.826 570.733 447.444
547 0 96.2061 13.3152 1281 138.11 569.567 446.485
548 0 101.306 14.1058 1429 137.727 568.512 441.555
549 0 103.343 13.3729 1382 139.192 567.548 439.844
550 0 108.298 15.208 1647 134.067 566.307 442.505
551 0 113.294 14.6962 1665 135.832 565.147 436.034
552 1 57.0728 12.9484 739 137.771 565.359 462.29
553 0 60.1283 13.9701 840 134.807 563.712 461.404
554 0 63.1991 13.5603 857 134.819 562.864 458.469
555 0 64.1376 11.0232 707 141.586 562.446 456.594
556 0 68.138 13.6341 929 138.48 561.906 451.323
557 0 70.2479 14.6339 1028 136.258 561.225 450.295
558 0 71.3177 12.8299 915 139.878 560.448 448.067
559 0 72.4911 12.774 926 139.875 560.343 448.83
560 0 80.3984 17.8113 1432 127.856 560.439 447.779
561 0 81.3556 16.7167 1360 130.314 560.786 446.212
562 0 85.3778 16.9599 1448 131.979 562.012 442.406
563 0 85.4121 12.6563 1081 139.929 563.144 441.685
564 0 93.3376 19.0598 1779 124.955 564.704 441.904
565 0 94.306 14.6438 1381 135.29 566.379 438.261
566 0 103.898 14.7838 1536 131.981 567.929 440.216
567 1 51.363 15.186 780 127.335 571.514 460.531
568 0 50.3611 13.5819 684 129.522 570.225 460.768
569 0 50.1492 11.9045 597 132.787 572.611 463.632
570 0 52.1343 12.8706 671 128.946 573.751 465.365
571 0 53.031 11.1633 592 130.968 573.627 465.755
572 0 54.048 11.7303 634 133.397 574.263 465.519
573 0 58.1657 14.0117 815 127.063 575.099 465.622
574 0 60.1255 15.2182 915 126.689 574.479 466.701
575 0 61.1108 14.1546 865 133.557 573.896 464.22
576 0 65.2994 14.8853 972 131.035 573.333 467.657
577 0 62.1487 13.1781 819 139.532 573.195 465.269
578 0 66.2342 13.6485 904 139.071 572.493 465.646
579 0 69.1935 13.455 931 139.143 571.808 467.376
580 0 71.0492 14.5251 1032 136.932 570.869 464.36
581 1 38.0805 11.3969 434 142.811 570.118 477.756
582 0 33.1574 10.5557 350 145.697 569.143 478.917
583 0 36.0293 14.738 531 134.503 568.382 479.552
584 0 41.1214 12.1348 499 140.677 566.772 477.9
585 0 41.0722 11.9789 492 143.118 564.455 475.283
586 0 42.1028 14.0371 591 137.677 563.438 477.592
587 0 44.1077 14.3966 635 137.745 563.107 475.115
588 0 44.0557 11.0088 485 146.324 561.247 473.377
589 0 47.0769 13.8709 653 139.09 561.225 470.061
590 0 50.1686 14.4712 726 135.551 561.212 471.264
591 0 49.1767 15.4951 762 135.299 559.842 467.476
592 0 52.2309 15.5272 811 134.072 559.474 467.266
593 0 55.1267 15.2558 841 135.376 559.188 465.816
594 0 53.178 14.4609 769 139.33 558.8 463.888
595 0 57.1063 15.0946 862 135.372 560.051 464.536
596 0 57.1278 14.6514 837 138.34 560.748 463.928
597 0 59.0922 14.6551 866 137.575 561.516 463.775
598 0 63.1588 15.9439 1007 134.062 563.023 464.341
599 0 63.1839 18.3275 1158 131.668 564.314 461.508
600 0 65.1358 16.1048 1049 136.749 566.129 461.378
601 0 70.122 16.7423 1174 134.302 567.612 461.866
602 0 69.0426 18.2206 1258 134.211 568.711 460.097
603 0 69.0426 18.2061 1257 131.813 569.708 460.223
604 0 75.0914 15.7675 1184 140.073 569.783 461.17
605 1 36.0128 9.44109 340 152.997 570.388 477.856
606 0 36.0595 11.1205 401 151.09 570.753 478.476
607 0 44.1352 13.8212 610 142.069 570.118 477.687
608 0 41.1133 11.8453 487 152.111 569.228 476.25
609 0 43.04 13.6849 589 149.849 569.433 474.314
610 0 44.0477 17.1405 755 145.445 568.819 473.174
611 0 45.1859 14.7613 667 151.088 567.904 473.918
612 0 47.2011 16.7157 789 145.105 566.446 471.758
613 0 50.1121 16.2635 815 144.76 565.153 472.094
614 0 52.1906 18.6432 973 141.136 563.999 470.468
615 0 54.1227 17.0354 922 143.064 562.283 469.441
616 0 53.2086 15.2795 813 149.017 560.827 469.282
617 0 56.07 14.7316 826 147.368 559.57 467.84
618 0 57.4386 16.8876 970 143.447 558.487 464.747
619 0 60.1057 18.8002 1130 137.883 557.106 463.232
620 0 62.1837 17.593 1094 140.547 556.627 461.213
621 0 63.092 18.1323 1144 139.283 555.902 458.004
622 0 65.2541 15.6772 1023 145.154 555.399 455.847
623 0 70.5255 16.8592 1189 139.622 554.998 453.077
624 0 70.2448 16.8696 1185 140.405 554.331 449.431
625 0 72.3648 16.1128 1166 141.281 555.31 449.807
626 0 77.2477 17.774 1373 136.375 555.219 448.882
627 0 78.3782 17.8366 1398 138.278 554.889 442.557
628 1 38.1793 10.9222 417 147.875 556.784 464.082
629 0 35.0838 11.7148 411 148.572 558.737 462.937
630 0 39.067 13.2081 516 143.037 559.124 461.426
631 0 40.2851 16.4825 664 137.994 561.03 460.58
632 0 40.2318 14.4662 582 147.112 562.665 459.375
633 0 43.7099 15.6715 685 142.063 563.81 458.707
634 0 44.0863 13.8365 610 148.611 565.493 459.054
635 0 46.4186 15.1879 705 145.982 567.555 459.776
636 0 48.4697 16.01 776 144.914 569.625 460.245
637 0 51.193 16.7406 857 143.166 570.343 461.406
638 0 52.3038 16.213 848 144.77 571.304 462.029
639 0 55.4791 16.5468 918 143.082 571.735 461.423
640 0 53.1985 15.4516 822 148.777 571.86 460.772
641 0 58.3513 16.4007 957 147.378 571.153 459.524
642 0 59.2716 17.6644 1047 143.888 570.322 463.043
643 0 62.2244 17.1155 1065 147.021 569.912 459.01
644 0 64.416 18.0856 1165 144.892 569.075 459.024
645 0 62.1231 16.1615 1004 151.204 567.924 456.747
646 0 68.2116 19.3955 1323 142.411 567.265 458
647 0 70.2815 16.1636 1136 149.799 566.43 457.369
648 0 72.2083 18.2389 1317 144.418 564.98 457.903
649 0 74.3114 16.4174 1220 149.681 564.17 454.024
650 0 77.1904 16.8285 1299 148.089 563.062 454.265
651 0 79.3978 16.1591 1283 149.227 561.726 454.041
652 0 80.2193 15.0837 1210 152.244 560.893 452.035
653 0 85.4466 17.7538 1517 147.175 559.817 446.331
654 0 88.3249 16.7223 1477 147.21 559.371 443.49
655 0 92.1544 18.5341 1708 144.806 558.646 441.696
656 0 94.2681 16.6865 1573 146.64 558.287 443.69
657 0 98.2345 17.3972 1709 147.669 557.683 434.791
658 0 101.572 15.1419 1538 152.34 557.784 434.173
659 0 105.237 15.8785 1671 150.269 558.467 433.256
660 0 109.19 16.1462 1763 151.546 558.292 431.432
661 0 112.253 16.4718 1849 147.592 559.051 430.354
662 0 114.31 15.7028 1795 154.237 560.494 424.277
663 0 119.401 14.958 1786 154.263 562.399 421.992
664 0 126.286 16.8428 2127 150.353 563.549 421.189
665 0 131.288 17.9605 2358 149.364 565.729 418.779
666 1 65.1025 15.2529 993 154.407 567.819 452.509
667 0 64.0791 13.3741 857 162.42 569.73 450.937
668 0 67.252 15.6873 1055 156.229 571.038 450.557
669 0 69.0912 17.0499 1178 153.677 572.055 451.075
670 0 72.3388 19.2151 1390 150.302 573.428 451.199
671 0 74.1689 14.9389 1108 161.253 573.877 450.625
672 0 77.1527 15.6961 1211 160.394 573.884 451.742
673 0 79.0952 15.2095 1203 164.408 574.288 450.855
674 0 82.2258 16.5763 1363 164.092 572.927 450.294
675 0 85.2177 16.2525 1385 164.557 572.427 447.717
676 0 89.2884 17.2139 1537 161.172 572.073 447.515
677 0 89.2166 13.6298 1216 173.728 571.588 446.41
678 0 98.3732 17.5759 1729 160.966 570.332 446.019
679 1 49.1317 8.99623 442 158.018 569.81 469.993
680 0 55.2348 9.70403 536 154.547 569.211 468.267
681 0 56.212 13.5202 760 149.529 566.84 464.137
682 0 59.2352 12.1043 717 151.82 564.654 463.596
683 0 61.1999 14.3301 877 149.115 563.551 463.401
684 0 62.1182 11.3654 706 160.026 562.272 459.786
685 0 66.2167 14.5885 966 152.274 560.728 458.638
686 0 67.2736 13.8985 935 154.399 559.532 457.298
687 0 67.2941 10.7736 725 162.026 558.938 453.639
688 0 73.2776 12.8279 940 154.896 558.71 452.561
689 0 74.4358 12.6418 941 154.474 558.371 449.952
690 0 76.3326 13.4674 1028 153.212 558.412 447.967
691 0 78.2504 13.2395 1036 154.917 558.128 443.904
692 0 81.6223 12.2883 1003 157.17 558.502 440.969
693 0 85.4809 13.7809 1178 148.736 558.518 442.007
694 0 86.4818 13.5173 1169 135.172 557.536 442.243
695 0 88.1588 10.7306 946 146.785 560.428 437.172
696 0 92.2633 12.0091 1108 145.034 562.409 432.851
697 0 97.2181 11.6336 1131 144.093 563.308 433.05
698 1 50.1665 13.3156 668 129.018 565.211 457.726
699 0 49.146 8.91222 438 135.361 567.897 456.03
700 0 55.1257 15.1291 834 122.898 569.335 456.153
701 0 55.1003 12.6678 698 130.312 571.318 459.377
702 0 55.1406 13.2752 732 134.68 572.478 455.388
703 0 56.1238 11.1539 626 131.625 573.966 459.278
704 0 58.1038 11.359 660 134.364 573.091 457.273
705 0 60.2398 10.6408 641 136.346 573.68 457.666
706 0 63.1872 13.7686 870 133.662 573.344 454.521
707 0 65.2557 12.3514 806 135.159 572.047 454.445
708 0 66.2687 10.9554 726 140.989 571.426 451.931
709 0 69.2078 12.5419 868 139.09 570.634 453.98
710 1 36.3241 10.544 383 138.272 570.266 470.159
711 0 35.127 9.56528 336 143.357 568.661 469.208
712 0 36.1486 8.21608 297 144.195 567.852 470.067
713 0 40.1535 10.933 439 139.273 566.702 468.986
714 0 41.3618 10.6378 440 139.248 564.88 468.159
715 0 43.2539 13.4092 580 134.526 563.972 464.117
716 0 42.3051 9.52603 403 142.859 562.633 467.146
717 0 40.1391 6.92591 278 144.414 563.266 468.191
718 0 45.0752 10.3161 465 137.245 561.738 463.931
719 0 48.0495 13.3196 640 130.734 561.13 462.852
720 0 50.0583 11.4666 574 132.645 560.516 463.702
721 0 50.1104 10.3372 518 137.944 560.596 460.338
722 0 53.2828 10.2472 546 137.54 560.282 459.084
723 0 54.1865 9.37503 508 135.844 560.079 461.587
724 0 56.1353 9.28114 521 137.656 560.585 458.415
725 0 57.1634 9.34165 534 136.142 560.803 458.008
726 0 59.243 11.8833 704 133.463 561.17 452.489
727 0 62.3047 11.3635 708 135.667 562.208 449.922
728 0 63.2026 12.6261 798 133.476 562.526 450.554
729 0 64.3141 9.59354 617 139.679 563.498 448.558
730 0 67.4157 8.5885 579 141.23 565.827 451.218
731 0 70.2541 11.5011 808 138.693 567.693 447.097
732 0 73.4069 10.8709 798 139 569.92 446.347
733 1 41.095 8.97919 369 136.512 572.526 468.886
734 0 40.1681 11.0784 445 135.822 573.607 466.73
735 0 41.089 10.027 412 143.752 574.291 468.757
736 0 43.2702 12.0175 520 140.612 575.183 469.763
737 0 45.2618 11.8643 537 141.78 574.767 469.548
738 0 44.5444 11.1574 497 145.724 573.909 469.946
739 0 45.4566 12.7814 581 147.542 572.986 467.806
740 0 47.5494 13.7752 655 145.786 572.744 468.573
741 0 49.3168 15.8161 780 143.118 571.965 471.197
742 0 50.4427 13.9762 705 147.167 570.847 473.295
743 0 53.4031 16.9653 906 142.475 569.251 471.905
744 0 51.295 12.4768 640 156.93 567.884 471.081
745 0 51.3593 11.9939 616 158.992 566.87 472.161
746 0 55.3488 14.6706 812 152.291 565.202 471.086
747 0 55.308 13.9582 772 156.36 563.681 470.199
748 0 58.4419 14.7839 864 153.196 561.903 468.053
749 0 58.4293 13.5377 791 160.412 560.727 466.802
750 0 61.2914 16.2013 993 153.886 560.149 466.145
751 0 59.2786 13.4281 796 162.431 559.018 465.52
752 0 62.2502 14.3132 891 161.097 557.832 463.389
753 0 66.2491 16.0455 1063 153.051 557.219 462.65
754 0 65.2223 14.5196 947 160.048 556.92 459.777
755 0 67.2164 12.4523 837 164.014 556.826 462.134
756 0 69.1994 16.6909 1155 155.734 556.046 454.597
757 0 72.2188 14.913 1077 159.433 556.417 456.551
758 1 38.0787 10.846 413 165.179 557.906 472.378
759 0 40.0458 9.71389 389 159.113 558.82 475.627
760 0 39.1121 8.18162 320 170.153 559.338 473.003
761 0 43.1124 9.99711 431 159.206 560.448 474.128
762 0 41.1451 11.3987 469 163.143 561.646 468.797
763 0 45.1672 11.8449 535 159.564 563.116 469.574
764 0 47.0568 15.4707 728 151.523 565.514 468.971
765 0 47.2416 14.7751 698 156.43 566.11 467.16
766 0 48.1167 13.488 649 159.931 567.639 464.854
767 0 49.1269 14.7984 727 159.739 568.536 469.106
768 0 49.2058 12.4172 611 165.7 570.1 470.805
769 0 52.4636 15.363 806 158.46 570.46 468.367
770 0 53.1072 15.1392 804 158.532 570.779 470.716
771 0 53.1593 12.9987 691 162.603 571.221 471.674
772 0 55.2364 14.6823 811 158.916 571.205 470.237
773 0 56.1455 13.5363 760 162.449 570.291 472.299
774 0 58.0872 15.0464 874 160.489 570.033 470.203
775 0 62.2039 16.5263 1028 152.377 568.609 473.712
776 0 64.1091 16.9867 1089 153.436 566.919 470.219
777 0 67.1405 17.158 1152 153.214 565.261 470.745
778 0 69.1831 16.4635 1139 155.849 563.259 468.693
779 0 70.1269 17.8248 1250 154.449 561.768 465.073
780 0 71.1334 14.7891 1052 161.994 560.106 463.677
781 0 77.2734 16.9528 1310 155.478 558.55 462.014
782 0 75.1287 14.4818 1088 163.015 556.945 461.985
783 0 78.1465 15.0359 1175 162.369 556.961 458.755
784 0 79.07 14.4935 1146 164.08 555.863 457.62
785 0 82.181 16.4028 1348 159.392 555.219 454.46
786 0 82.1931 16.0111 1316 161.079 554.078 450.777
787 0 87.1441 14.8719 1296 160.566 553.549 449.779
788 1 46.0661 11.8091 544 161.217 552.792 470.167
789 0 47.0584 11.5601 544 164.268 552.88 465.151
790 0 50.1802 13.2722 666 157.302 554.185 462.631
791 0 52.3156 13.9729 731 151.878 555.278 459.477
792 0 53.0269 15.2375 808 149.962 554.454 458.916
793 0 55.0549 14.204 782 148.173 553.839 459.124
794 0 56.0988 14.1179 792 151.826 555.016 460.069
795 0 58.0707 15.2917 888 147.47 556.198 456.309
796 0 61.2573 13.7616 843 152.097 557.624 455.52
797 0 63.2021 14.7622 933 147.209 559.841 452.956
798 0 65.0924 14.7636 961 145.947 561.261 453.87
799 0 66.0884 13.6786 904 153.788 563.468 453.234
800 0 70.0624 16.5281 1158 144.934 564.745 452.416
801 0 73.1649 13.3397 976 152.327 565.835 452.047
802 0 76.1166 14.6749 1117 149.445 567.396 452.019
803 0 79.1705 16.2434 1286 146.719 568.154 449.768
804 1 39.0663 9.77825 382 157.126 567.971 473.39
805 0 42.0085 10.7121 450 157.987 568.007 471.729
806 0 43.1058 12.6897 547 159.208 568.728 469.192
807 0 46.1275 15.132 698 150.328 569.411 469.384
808 0 46.1541 13.5849 627 149.1 569.616 470.242
809 0 49.2416 15.0686 742 149.633 568.501 472.427
810 0 49.3704 15.6572 773 151.138 567.852 472.074
811 0 49.1524 12.8173 630 158.132 567.451 473.111
812 0 50.1035 12.4143 622 158.997 566.609 472.328
813 0 53.1938 15.3025 814 152.799 566.926 468.91
814 0 54.1097 16.6514 901 150.233 565.453 468.446
815 0 56.1146 14.809 831 154.462 564.101 467.326
816 0 57.1048 14.0093 800 157.36 563.622 464.831
817 0 60.232 15.3905 927 151.728 562.245 463.639
818 0 62.3676 14.5749 909 153.428 561.783 461.418
819 0 64.1555 16.7562 1075 147.15 560.726 461.269
820 0 64.2186 14.3728 923 155.022 560.335 456.973
821 0 67.1746 17.1493 1152 146.099 559.757 456.978
822 0 68.2253 14.5254 991 151.358 559.562 454.971
823 0 73.3528 16.073 1179 146.18 559.754 451.66
824 0 74.2342 15.478 1149 149.125 560.794 451.038
825 0 76.1134 15.582 1186 147.35 561.191 447.665
826 0 81.3974 18.4035 1498 136.589 561.84 451.075
827 0 81.1258 14.8165 1202 148.688 563.145 446.897
828 1 44.0637 12.5273 552 146.817 563.888 464.364
829 0 46.0345 12.773 588 146.061 565.139 463.561
830 0 46.1825 12.5805 581 140.446 567.036 459.867
831 0 47.1816 11.7207 553 143.882 568.53 462.307
832 0 48.2439 13.639 658 143.647 571.214 458.173
833 0 52.3974 13.2258 693 140.147 573.1 458.864
834 0 54.155 15.0309 814 135.561 574.655 462.861
835 0 54.1607 16.0449 869 131.069 575.372 462.654
836 0 56.1364 13.9838 785 130.679 576.902 464.327
837 0 58.2015 16.3742 953 130.05 576.004 460.781
838 0 61.2569 15.133 927 130.168 575.777 464.139
839 0 61.1453 13.2962 813 137.544 575.215 460.865
840 0 63.3954 13.5499 859 141.109 575.191 462.413
841 0 65.0646 15.8612 1032 136.004 574.526 460.207
842 0 68.1177 15.0915 1028 139.052 573.851 461.302
843 0 69.3523 15.1401 1050 139.982 572.676 461.075
844 0 72.1972 16.1225 1164 139.643 571 459.686
845 0 74.1822 15.3136 1136 141.467 569.607 457.485
846 0 77.1931 15.8952 1227 140.165 568.003 456.901
847 0 78.23 16.3364 1278 141.408 566.7 455.268
848 0 81.3147 17.7336 1442 138.051 564.758 454.185
849 0 83.2819 14.6971 1224 143.761 563.294 454.385
850 0 85.4813 13.0906 1119 146.487 562.534 453.169
851 0 88.2096 13.5586 1196 147.773 561.477 448.574
852 1 42.0684 11.0772 466 144.21 561.708 472.152
853 0 43.1293 10.7815 465 143.942 560.763 470.525
854 0 44.2165 9.6118 425 146.424 560.889 468.068
855 0 48.3145 11.9219 576 142.604 559.724 464.181
856 0 49.2042 11.9502 588 142.276 559.634 463.471
857 0 50.1055 16.7247 838 130.704 559.474 464.171
858 0 52.1408 13.2909 693 139.118 560.499 461.818
859 0 55.1965 13.7871 761 135.899 559.503 460.648
860 0 56.1502 15.1202 849 133.463 560.426 456.841
861 0 59.0993 17.5637 1038 128.966 561.37 459.066
862 0 62.2936 15.2183 948 132.371 563.959 456.621
863 0 64.1427 13.7506 882 136.604 565.096 457.4
864 0 65.0846 12.6451 823 142.027 566.598 456.142
865 0 65.1614 14.1341 921 139.987 569.072 455.907
866 0 68.0798 13.7192 934 144.318 569.741 454.622
867 0 72.1113 16.7657 1209 136.948 571.115 455.047
868 0 70.1105 11.7814 826 146.975 571.464 452.553
869 0 76.3542 15.8079 1207 139.66 572.232 450.851
870 0 75.2265 13.7319 1033 146.401 572.494 453.135
871 0 79.2433 15.1559 1201 144.686 572.121 450.947
872 0 82.1616 15.2139 1250 145.658 572.503 450.086
873 0 83.258 15.9144 1325 145.611 572.106 446.965
874 0 89.2539 18.2401 1628 139.646 571.799 451.024
875 0 90.1363 16.586 1495 146.328 571.138 449.058
876 0 94.3174 16.4869 1555 146.129 570.255 450.678
877 0 98.3633 16.7135 1644 145.602 568.429 451.117
878 0 100.349 16.4825 1654 148.938 567.142 447.706
879 0 101.29 15.0953 1529 154.695 566.106 443.625
880 0 106.416 15.4582 1645 153.786 564.567 445.096
881 0 105.413 15.3206 1615 156.617 562.543 444.565
882 0 112.358 15.1479 1702 156.32 561.273 436.153
883 0 120.395 17.7084 2132 150.768 560.455 433.328
884 0 119.481 15.0401 1797 157.968 559.162 430.386
885 0 124.43 16.6118 2067 154.9 558.157 425.623
886 0 128.429 17.0522 2190 152.272 557.562 425.39
887 0 132.562 15.4645 2050 156.789 557.322 425.819
888 0 134.453 15.0982 2030 161.396 556.75 417.832
889 0 141.454 16.3022 2306 156.584 557.052 414.6
890 0 142.465 14.951 2130 161.603 557.152 408.307
891 0 147.723 14.9401 2207 158.821 557.085 412.494
892 0 154.756 16.8976 2615 155.592 557.62 404.538
893 0 156.45 15.4106 2411 157.158 558.444 405.565
894 0 162.683 16.6766 2713 153.967 559.336 400.222
895 0 169.637 19.1644 3251 150.03 560.696 396.624
896 0 171.538 15.7924 2709 158.434 561.994 397.421
897 1 89.4439 11.728 1049 155.397 564.569 440.762
898 0 92.442 14.3333 1325 154.317 566.047 432.983
899 0 92.3794 12.7409 1177 154.645 567.549 433.09
900 0 100.503 14.0195 1409 151.463 569.054 430.713
901 0 104.782 15.2221 1595 151.349 570.357 429.2
902 0 106.534 13.9111 1482 153.719 570.818 429.329
903 0 113.663 16.4609 1871 147.109 571.717 429.52
904 0 117.591 16.1662 1901 147.036 572.369 430.041
905 0 121.619 15.9679 1942 148.446 571.618 428.975
906 1 68.6011 9.56253 656 146.698 572.843 457.441
907 0 71.4433 11.6456 832 143.351 572.328 457.363
908 0 74.4165 10.1053 752 148.237 571.725 454.467
909 0 76.4176 12.1438 928 145.944 570.674 453.992
910 0 81.4793 14.924 1216 143.549 569.15 451.542
911 0 80.1279 10.608 850 152.196 568.027 454.551
912 0 83.3293 13.9447 1162 144.725 568.304 448.622
913 0 87.7371 12.6514 1110 148.928 566.73 442.106
914 0 90.5814 13.5237 1225 147.277 565.668 440.33
915 0 92.8772 12.2312 1136 148.583 564 439.651
916 0 96.7016 14.1259 1366 145.879 563.392 434.69
917 0 100.479 13.3062 1337 146.61 562.096 434.26
918 0 103.737 13.6692 1418 146.884 560.574 429.901
919 0 103.626 11.5512 1197 151.762 560.455 424.058
920 1 63.6355 11.613 739 136.164 560.723 451.919
921 0 62.6522 11.8272 741 138.142 560.784 452.501
922 0 65.3957 13.0895 856 131.784 560.549 451.832
923 0 69.4816 12.1039 841 132.621 560.369 451.674
924 0 68.4905 10.6584 730 135.89 560.327 451.556
925 0 71.2524 13.4452 958 136.662 560.57 447.241
926 0 72.3285 12.7889 925 138.001 560.976 444.027
927 0 76.4351 11.042 844 136.8 562.344 443.102
928 0 79.4088 13.0086 1033 133.661 563.847 444.073
929 0 80.5094 16.023 1290 129.685 566.529 439.046
930 0 84.3538 13.8346 1167 132.794 567.818 437.155
931 0 87.72 12.9275 1134 134.593 569.722 438.2
932 0 86.4957 14.0123 1212 134.993 570.904 434.849
933 0 92.9827 15.4545 1437 129.583 572.475 436.329
934 0 95.731 13.5902 1301 133.728 573.015 435.444
935 0 98.9866 14.9717 1482 131.312 574.244 436.808
936 0 101.169 14.7872 1496 131.826 574.564 433.511
937 0 104.056 14.5979 1519 133.08 575.494 435.632
938 0 107.512 11.4964 1236 138.576 575.936 432.881
939 1 55.3542 9.2676 513 136.524 576.62 459.706
940 0 61.3428 11.9818 735 130.174 575.075 465.301
941 0 60.0983 10.4995 631 138.75 574.531 459.143
942 0 62.1496 12.2929 764 136.707 572.935 461.004
943 0 63.1729 14.8481 938 138.212 571.587 459.828
944 0 65.3661 11.535 754 140.981 571.406 461.363
945 0 67.1322 14.0618 944 140.45 570.362 458.146
946 0 69.1794 12.0267 832 143.925 571.339 458.502
947 0 73.2282 15.1308 1108 138.308 569.641 453.905
948 0 76.1477 14.8659 1132 137.9 568.4 452.603
949 0 78.3531 13.8859 1088 141.218 566.904 448.993
950 0 79.283 14.8077 1174 138.424 565.544 447.335
951 0 83.5114 14.5609 1216 140.095 563.925 444.289
952 0 86.8389 13.7611 1195 140.095 563.41 442.5
953 0 86.8595 12.7447 1107 141.765 562.498 439.246
954 0 90.7902 13.2834 1206 142.253 562.097 435.688
955 0 93.7145 13.9466 1307 139.195 561.824 432.968
956 1 53.6191 12.4396 667 125.511 564.303 459.592
957 0 52.4798 7.54576 396 141.639 562.783 455.745
958 0 55.6625 12.1087 674 130.579 562.795 452.169
959 0 54.5071 10.439 569 134.294 564.032 453.738
960 0 56.4335 10.9509 618 131.078 564.628 453.481
961 0 59.4306 10.7689 640 132.178 566.456 450.925
962 0 63.3691 13.4766 854 127.225 567.615 449.082
963 0 62.3548 12.5091 780 128.881 568.462 448.506
964 0 68.462 12.5471 859 123.867 570.354 449.861
965 0 68.3234 14.6656 1002 122.957 572.227 448.016
966 0 70.2584 12.9949 913 125.501 573.63 446.641
967 0 70.3856 10.1157 712 130.881 574.869 445.503
968 0 73.3694 12.7028 932 123.631 576.001 450.411
969 0 76.4343 9.36752 716 127.858 577.434 450.189
970 0 77.3449 14.1056 1091 122.566 576.751 447.887
971 0 79.251 12.4541 987 131.661 576.43 445.733
972 0 83.331 15.1924 1266 122.412 576.779 444.548
973 0 85.185 12.1383 1034 129.964 576.486 446.546
974 0 84.421 11.2768 952 131.356 575.841 445.64
975 0 89.724 14.7341 1322 128.821 575.016 443.273
976 1 46.3617 11.3887 528 128.235 574.559 465.769
977 0 50.3605 11.934 601 127.596 573.045 464.918
978 0 49.2938 10.9344 539 130.08 571.017 464.319
979 0 49.2794 10.7347 529 132.915 569.645 459.42
980 0 53.2623 10.683 569 130.515 568.007 461.656
981 0 55.3336 13.0301 721 126.351 566.355 458.212
982 0 56.2639 13.3478 751 123.032 565.009 455.639
983 0 57.1504 12.4583 712 125.126 563.959 458.303
984 0 58.2447 11.5719 674 126.499 563.574 457.058
985 0 60.1758 11.3667 684 126.491 562.389 453.045
986 0 62.3553 11.7552 733 124.588 561.864 454.168
987 0 65.24 12.1551 793 122.918 560.903 453.288
988 0 65.1766 9.74276 635 126.649 560.668 446.066
989 0 69.1856 12.1557 841 123.1 560.537 446.409
990 0 71.252 12.954 923 118.311 560.242 444.84
991 0 72.171 10.7938 779 121.496 560.869 445.225
992 0 74.3052 11.7488 873 119.908 560.716 437.908
993 0 76.136 16.0371 1221 114.181 561.6 440.157
994 0 78.3232 10.6865 837 120.989 562.867 436.973
995 0 82.4512 15.5001 1278 112.516 564.032 436.059
996 0 83.236 14.9695 1246 114.642 566.278 435.522
997 0 84.3119 11.493 969 118.256 567.016 434.522
998 0 85.5114 12.7351 1089 116.035 568.505 437.149
999 0 90.2773 13.2481 1196 114.186 569.347 439.833
1000 0 91.704 13.2928 1219 114.935 570.669 435.504
1001 0 92.5617 8.11351 751 122.666 571.835 430.29
1002 0 97.24 12.3303 1199 114.849 573.067 433.429
1003 0 101.491 14.0899 1430 113.104 573.386 426.786
1004 1 57.0512 9.7281 555 116.674 575.011 458.359
1005 0 58.2184 10.9759 639 116.518 575.075 454.236
1006 0 57.0939 11.9803 684 113.557 576.054 457.304
1007 0 60.2085 11.0449 665 113.86 575.702 459.457
1008 0 62.1669 14.5093 902 111.161 574.304 457.906
1009 0 63.189 14.1797 896 112.263 575.17 457.365
1010 0 66.1036 11.5879 766 116.768 573.48 455.679
1011 0 70.3537 12.295 865 115.297 572.153 456.932
1012 0 72.2813 14.8033 1070 112.944 571.129 454.834
1013 0 74.3093 15.2605 1134 113.001 569.701 450.52
1014 0 77.5626 12.4158 963 117.665 567.586 450.784
1015 0 79.2845 11.5533 916 118.967 566.274 446.737
1016 0 82.2716 13.0543 1074 117.505 564.756 445.274
1017 0 86.3358 14.9532 1291 114.274 564.126 445.459
1018 0 88.3926 12.8857 1139 117.552 563.273 440.562
1019 0 92.2001 16.334 1506 113.815 562.343 442.446
1020 0 96.2618 13.9723 1345 120.491 561.454 437.375
1021 1 48.0779 11.9598 575 119.633 562.32 464.946
1022 0 48.0471 10.5938 509 119.255 562.041 466.621
1023 0 49.1068 8.4917 417 124.861 561.655 461.388
1024 0 52.1193 15.0808 786 116.827 561.005 458.831
1025 0 54.3743 11.4392 622 121.119 559.186 459.461
1026 0 54.295 14.5133 788 117.801 559.704 454.332
1027 0 57.0561 17.8596 1019 114.147 563.21 458.778
1028 0 59.1654 14.4172 853 120.171 564.175 458.491
1029 0 62.0976 10.5479 655 124.302 565.344 460.417
1030 0 62.069 13.05 810 122.016 566.672 456.343
1031 0 66.0648 12.2758 811 123.707 568.651 456.197
1032 0 69.0902 16.2107 1120 117.653 570.069 455.482
1033 0 69.0943 13.1125 906 124.917 571.391 455.215
1034 0 72.2809 14.5267 1050 119.308 572.01 457.795
1035 0 77.159 14.0619 1085 118.329 573.037 458.912
1036 0 78.2548 14.8873 1165 118.648 574.31 458.353
1037 1 41.0749 10.1035 415 124.749 574.749 473.145
1038 0 42.0998 12.0428 507 122.921 574.663 473.611
1039 0 46.0785 13.1298 605 121.479 574.605 474.298
1040 0 45.056 12.0517 543 123.122 573.711 476.541
1041 0 45.0327 13.146 592 122.718 573.365 473.878
1042 0 49.2838 16.8412 830 116.977 571.358 473.698
1043 0 50.1101 12.0534 604 118.373 568.67 469.493
1044 0 51.1033 9.33404 477 122.363 568.031 469.845
1045 0 53.2157 10.4292 555 120.741 566.335 470.771
1046 0 55.2446 11.9469 660 119.977 565.108 470.095
1047 0 56.2008 11.8148 664 119.801 563.375 469.869
1048 0 55.1944 11.0156 608 124.368 561.969 465.136
1049 0 57.1177 11.6076 663 125.902 559.222 466.667
1050 0 59.1058 12.4353 735 126.078 557.792 463.306
1051 0 61.072 13.3613 816 123.349 557.1 464.8
1052 0 66.2895 14.6026 968 121.421 556.345 462.915
1053 0 66.1449 11.6865 773 123.308 556.286 465.088
1054 0 69.1279 12.8024 885 124.293 556.532 459.01
1055 0 69.1227 12.3404 853 127.103 556.211 456.025
1056 0 70.0946 12.369 867 125.91 556.325 457.279
1057 1 36.1935 11.3833 412 127.354 556.964 465.755
1058 0 40.0387 9.54077 382 130.78 557.118 466.505
1059 0 42.173 8.15688 344 130.956 558.017 467.331
1060 0 44.0455 10.6708 470 127.672 558.306 465.911
1061 0 44.161 13.6999 605 123.126 559.549 464.764
1062 0 46.2817 10.2848 476 130.742 562.038 460.405
1063 0 46.5981 12.1035 564 128.716 564.128 451.876
1064 0 49.1243 13.7406 675 125.572 563.61 458.841
1065 0 52.0814 13.0565 680 125.935 565.512 459.478
1066 0 54.1122 15.8929 860 121.512 566.548 459.879
1067 0 52.0788 13.5756 707 127.977 568.17 457.1
1068 0 56.0684 13.5905 762 125.236 569.652 460.266
1069 0 57.145 15.4869 885 121.711 571.351 460.237
1070 0 59.3513 15.5346 922 122.772 572.645 458.463
1071 0 59.1986 13.0071 770 128.252 572.936 460.195
1072 0 59.2641 14.7475 874 131.498 573.423 459.196
1073 0 63.231 12.8576 813 130.351 573.101 461.009
1074 0 66.2859 12.9439 858 131.576 573.248 459.973
1075 0 66.239 12.2737 813 136.011 573.016 459.581
1076 0 68.2419 14.053 959 134.903 572.985 457.908
1077 0 71.1692 14.332 1020 129.047 572.382 456.777
1078 0 74.1602 13.1607 976 131.923 571.326 457.392
1079 1 41.1275 8.9721 369 136.734 569.374 471.203
1080 0 43.059 11.4262 492 130.087 568.374 471.406
1081 0 42.145 12.3146 519 131.644 567.064 468.037
1082 0 42.08 9.577 403 137.677 565.816 467.01
1083 0 45.1458 10.1892 460 134.411 564.05 468.817
1084 0 49.2649 14.1683 698 128.617 563.86 463.817
1085 0 49.3997 14.9394 738 129.198 562.317 461.87
1086 0 49.2026 9.45071 465 133.888 562.028 460.6
1087 0 52.1168 12.3952 646 129.642 563.333 455.615
1088 0 52.1579 11.561 603 133.408 563.224 456.287
1089 0 54.0846 13.257 717 130.293 563.078 452.3
1090 0 54.0343 12.8807 696 133.648 562 453.33
1091 0 59.2178 13.5094 800 125.371 562.965 453.406
1092 0 60.112 12.7096 764 129.424 562.64 450.297
1093 0 62.0666 15.4995 962 124.479 562.728 448.897
1094 0 67.3397 15.4886 1043 121.757 563.73 448.612
1095 0 65.1022 14.1931 924 125.999 565.274 447.131
1096 0 67.1297 13.5409 909 126.769 566.613 444.634
1097 0 68.1845 12.0849 824 128.635 568.027 445.144
1098 0 72.1874 12.994 938 130.253 568.808 446.435
1099 0 73.0906 12.505 914 127.501 571.257 445.871
1100 0 74.3112 12.5957 936 131.975 572.988 441.23
1101 0 76.3652 13.2652 1013 128.657 574.123 440.201
1102 0 79.3766 12.3084 977 131.947 575.321 439.395
1103 0 82.3511 11.3903 938 131.167 576.097 442.517
1104 0 86.2261 14.1257 1218 126.858 576.582 441.048
1105 0 87.3842 13.4693 1177 131.307 576.822 442.635
1106 0 92.26 14.2424 1314 129.507 577.703 444.608
1107 0 93.4114 15.8974 1485 131.152 576.535 443.519
1108 1 50.2181 9.95656 500 138.806 577.858 467.77
1109 0 52.3248 12.6518 662 135.586 576.659 468.027
1110 0 54.1206 11.9178 645 136.068 575.792 467.909
1111 0 56.0603 12.5936 706 136.212 573.924 467.183
1112 0 57.3448 14.282 819 135.089 571.835 462.645
1113 0 59.1204 12.5676 743 138.069 571.015 466.223
1114 0 60.0566 12.6547 760 137.905 569.632 466.547
1115 0 61.049 14.4638 883 134.194 568.368 467.527
1116 0 63.1575 13.3159 841 140.723 566.038 462.467
1117 0 66.0821 13.9372 921 139.458 564.077 460.043
1118 0 69.1572 13.0283 901 138.888 562.687 460.82
1119 0 72.1028 14.618 1054 136.423 561.548 458.217
1120 0 71.1481 11.5815 824 143.3 560.278 456.357
1121 0 77.1326 14.0148 1081 136.835 559.988 456.231
1122 0 75.1986 12.7795 961 142.678 559.662 450.875
1123 1 41.0943 8.44399 347 146.314 559.672 468.415
1124 0 47.1892 9.9811 471 142.527 558.817 465.837
1125 0 48.3506 10.2998 498 139.169 558.825 466.108
1126 0 47.1305 7.78688 367 141.542 559.03 468.371
1127 0 49.1406 8.62831 424 142.882 559.792 465.571
1128 0 52.0887 11.2692 587 136.549 559.937 464.738
1129 0 52.1163 11.2441 586 139.86 561.63 462.616
1130 0 57.1913 13.7434 786 131.813 562.564 461.35
1131 0 58.1494 14.0156 815 129.364 564.768 459.746
1132 0 58.236 14.4069 839 130.709 565.839 455.695
1133 0 62.1495 14.095 876 130.495 567.127 456.634
1134 0 65.163 14.3333 934 131.98 569.183 459.933
1135 0 65.2401 16.0331 1046 129.676 570.34 459.289
1136 0 66.1419 12.8965 853 138.08 571.258 456.518
1137 0 68.2379 12.8228 875 137.63 571.757 456.211
1138 0 68.2394 11.6941 798 141.023 569.891 456.291
1139 0 71.2686 16.1221 1149 132.753 569.386 458.842
1140 0 75.3515 13.7356 1035 137.068 569.339 457.593
1141 0 78.2346 15.2746 1195 136.519 569.404 456.743
1142 0 81.35 14.7879 1203 137.655 568.594 457.176
1143 0 82.5069 11.5869 956 142.516 567.461 457.854
1144 0 85.4369 16.3864 1400 133.169 566.484 459.089
1145 0 90.2914 14.5861 1317 138.759 564.92 452.711
1146 1 47.1011 10.4881 494 136.54 563.128 475.579
1147 0 48.1493 10.779 519 139.218 561.674 471.04
1148 0 52.1705 9.48812 495 136.956 560.39 472.158
1149 0 53.2384 12.9418 689 134.639 559.128 466.282
1150 0 53.5091 11.6616 624 138.021 558.909 463.519
1151 0 57.3083 13.2616 760 128.501 558.593 463.516
1152 0 57.3327 12.9071 740 129.676 558.023 463.642
1153 0 59.3394 13.566 805 126.827 557.663 460.475
1154 0 58.2768 12.6122 735 130.342 557.376 457.6
1155 0 64.3858 15.4848 997 122.891 557.388 457.045
1156 0 59.3003 10.6576 632 134.377 557.979 457.133
1157 0 64.2403 12.0329 773 129.937 558.239 456.56
1158 0 64.1759 12.8397 824 129.716 558.277 455.792
1159 0 67.2811 14.105 949 128.314 559.215 454.05
1160 0 70.1982 15.7269 1104 124.327 560.753 452.169
1161 0 70.1186 12.9352 907 130.847 561.802 449.195
1162 0 76.1366 15.7217 1197 121.768 562.718 450.565
1163 0 76.2665 12.8235 978 126.196 564.041 448.145
1164 0 77.1582 13.1807 1017 125.721 565.229 448.017
1165 1 43.1203 8.99808 388 131.863 568.144 463.863
1166 0 46.0996 10.4122 480 126.408 569.338 465.225
1167 0 48.1362 13.6488 657 124.003 571.129 463.63
1168 0 50.1133 12.4318 623 126.161 572.642 463.78
1169 0 48.0235 16.2629 781 122.06 573.835 464.88
1170 0 48.1851 10.2106 492 129.898 574.433 461.801
1171 0 52.1747 10.2348 534 126.974 575.058 466.83
1172 0 55.1946 14.1137 779 121.1 574.796 465.345
1173 0 52.1845 12.6666 661 127.773 574.39 462.165
1174 0 58.2686 13.7124 799 124.329 574.847 463.792
1175 0 57.2358 13.1386 752 128.223 574.203 460.585
1176 0 58.2089 14.5339 846 126.424 573.859 464.583
1177 0 60.2608 13.4748 812 129.267 572.406 461.865
1178 0 63.1284 12.2924 776 131.982 571.651 459.381
1179 0 65.1273 19.4235 1265 119.999 570.788 465.514
1180 0 67.1592 12.3885 832 134.165 569.182 458.975
1181 0 69.3075 12.798 887 133.612 567.921 457.299
1182 1 37.1232 11.0174 409 129.09 568.196 476.306
1183 0 37.0445 12.3905 459 131.257 566.257 472.148
1184 0 39.0378 9.24745 361 133.917 564.909 473.557
1185 0 43.0666 10.6811 460 130.239 562.022 471.448
1186 0 44.0314 10.1746 448 131.685 560.422 470.317
1187 0 43.0549 11.1021 478 130.642 559.874 468.927
1188 0 48.0465 12.925 621 125.219 560.097 467.306
1189 0 46.1437 10.1639 469 133.072 558.286 463.591
1190 0 49.2657 13.3562 658 127.403 557.708 456.457
1191 0 51.4902 11.9634 616 127.917 558.044 460.461
1192 0 52.1224 12.3172 642 127.763 560.201 458.916
1193 0 52.1756 13.6462 712 125.211 560.912 454.031
1194 0 53.1741 11.0204 586 130.167 561.894 454.447
1195 0 56.2726 13.1858 742 128.039 563.757 455.577
1196 0 58.1317 12.162 707 127.839 565.982 453.894
1197 0 60.2492 13.9255 839 124.02 567.184 451.752
1198 0 64.3882 18.14 1168 115.842 568.541 450.292
1199 0 63.4141 14.1294 896 122.232 571.103 453.183
1200 0 70.8994 17.0946 1212 115.939 571.823 453.068
1201 0 67.107 15.4827 1039 126.012 573.23 447.726
1202 0 70.175 13.1813 925 129.731 574.298 449.409
1203 0 71.3638 15.0917 1077 125.552 574.583 454.674
1204 0 77.3665 15.9759 1236 123.673 575.19 451.955
1205 0 76.431 14.8238 1133 130.361 575.193 451.62
1206 0 81.4888 17.4748 1424 125.099 575.677 448.883
1207 0 81.4067 14.36 1169 136.178 575.203 450.472
1208 1 46.6789 12.1254 566 133.286 575.016 468.769
1209 0 44.3107 12.5252 555 135.286 574.584 469.661
1210 0 44.5568 11.6705 520 140.158 573.663 467.977
1211 0 48.4644 13.8246 670 135.107 572.552 468.406
1212 0 48.2986 13.0853 632 138.111 570.983 468.875
1213 0 51.2292 14.0935 722 133.533 569.126 472.373
1214 0 52.4593 12.5812 660 135.418 567.18 465.202
1215 0 52.2942 13.5388 708 136.364 566.185 458.799
1216 0 54.1209 13.322 721 137.917 565.179 462.445
1217 0 59.1492 14.9622 885 133.625 563.524 466.06
1218 0 61.2421 12.9976 796 137.616 562.798 461.034
1219 0 61.43 13.6741 840 136.593 561.395 460.093
1220 0 63.2713 14.9357 945 134.584 560.685 459.975
1221 0 63.1588 15.1365 956 135.015 560.469 454.684
1222 0 65.1522 12.5092 815 138.315 559.498 454.025
1223 0 67.3314 13.1885 888 135.373 559.778 454.036
1224 0 69.2256 11.2964 782 140.031 559.634 452.345
1225 0 75.5025 12.4499 940 136.995 559.776 449.355
1226 0 76.5121 14.0239 1073 134.876 560.47 448.785
1227 0 77.2415 14.1375 1092 138.448 559.788 446.92
1228 1 39.2049 12.2689 481 135.711 561.482 462.168
1229 0 43.2408 12.5807 544 134.904 563.178 462.575
1230 0 44.1268 8.90615 393 140.695 564.763 463.473
1231 0 46.1922 14.3747 664 131.069 566.792 461.157
1232 0 46.1244 10.2332 472 139.564 567.489 461.636
1233 0 48.1516 11.6092 559 134.458 568.853 466.445
1234 0 51.1095 12.9917 664 135.523 570.545 462.482
1235 0 51.2379 13.9545 715 132.38 572.14 464.122
1236 0 51.2928 11.7365 602 139.085 572.59 463.046
1237 0 53.1421 13.3416 709 135.42 573.594 465.48
1238 0 53.1441 12.5132 665 139.009 573.585 462.397
1239 0 57.1652 13.8546 792 139.552 571.808 463.403
1240 0 56.07 15.1953 852 138.316 571.285 463.481
1241 0 57.0754 13.1931 753 141.912 570.886 464.048
1242 0 64.1359 12.4891 801 141.357 569.975 464.477
1243 0 64.1277 12.5999 808 141.887 570.598 465.395
1244 0 65.2069 13.9402 909 138.111 570.333 462.607
1245 0 71.163 14.8392 1056 136.201 568.928 460.641
1246 0 73.2532 15.7399 1153 134.767 567.408 459.099
1247 0 73.2737 14.2343 1043 137.825 565.876 460.056
1248 0 77.3001 14.7089 1137 135.318 564.96 460.154
1249 0 79.2615 14.8496 1177 136.306 563.126 454.782
1250 1 43.1851 11.115 480 131.488 564.229 477.406
1251 0 44.087 10.5927 467 135.131 562.015 475.981
1252 0 45.1488 10.7201 484 135.919 561.486 471.659
1253 0 45.195 11.6385 526 133.854 560.359 471.553
1254 0 45.3126 12.7558 578 133.498 559.296 467.952
1255 0 47.4208 10.8602 515 135.567 558.837 467.161
1256 0 47.5569 10.7871 513 133.92 558.889 466.626
1257 0 49.4131 12.8306 634 131.498 556.991 462.516
1258 0 51.4905 13.5947 700 129.19 557.527 462.18
1259 0 53.3265 12.6204 673 132.172 556.853 459.244
1260 0 53.5844 12.4103 665 131.687 557.472 458.678
1261 0 55.4707 11.5376 640 132.333 557.933 461.428
1262 0 56.2844 11.6196 654 134.613 558.862 457.48
1263 0 60.4637 14.0746 851 127.619 560.182 459.727
1264 1 127.588 13.6533 1742 140.065 561.129 426.336
1265 1 62.3252 12.2422 763 136.252 562.729 453.672
1266 0 64.3855 13.4813 868 134.601 564.963 454.233
1267 0 65.4378 12.8519 841 136.935 565.734 450.766
1268 0 68.2423 10.0231 684 142.164 568.298 449.567
1269 0 71.3273 14.5947 1041 133.614 568.856 450.247
1270 0 76.4871 13.0349 997 136.837 569.63 454.194
1271 0 74.327 13.5886 1010 136.059 570.658 454.015
1272 0 78.4238 14.5747 1143 134.456 570.762 454.829
1273 0 79.5167 12.2238 972 139.456 570.142 451.855
1274 0 84.3712 17.4586 1473 130.25 570.669 454.252
1275 0 87.2671 12.7425 1112 138.277 570.698 454.535
1276 0 88.3234 13.6997 1210 134.043 569.301 451.896
1277 0 90.3444 12.6184 1140 136.337 567.936 446.875
1278 0 94.2888 12.8859 1215 131.921 566.367 456.213
1279 0 100.546 15.0478 1513 129.506 565.015 449.069
1280 0 102.476 14.0033 1435 133.19 563.747 443.962
1281 0 106.265 20.0725 2133 123.831 561.01 441.022
1282 0 109.367 16.3212 1785 130.752 560.02 439.185
1283 0 112.303 15.4226 1732 131.192 558.264 442.092
1284 0 113.459 14.3841 1632 134.403 557.544 435.701
1285 0 117.477 13.4239 1577 134.775 556.767 441.434
1286 0 120.755 14.9228 1802 134.751 556.621 427.69
1287 0 128.648 14.9944 1929 131.654 555.059 433.72
1288 0 132.366 16.8169 2226 129.464 554.527 428.018
1289 0 133.408 13.9347 1859 136.081 554.072 423.304
1290 0 138.521 14.5537 2016 134.517 554.048 421.534
1291 0 143.451 15.2874 2193 134.675 554.072 417.442
1292 0 148.513 14.2681 2119 135.34 554.084 423.749
1293 0 152.816 17.0663 2608 132.96 554.002 414.712
1294 0 156.415 13.8158 2161 139.213 555.011 413.473
1295 0 162.692 14.7395 2398 137.952 556.526 409.354
1296 1 91.4428 12.3356 1128 133.658 557.728 445.741
1297 0 96.1374 12.6902 1220 131.387 557.793 448.593
1298 0 97.3599 12.1302 1181 135.22 558.917 442.498
1299 0 100.68 15.9416 1605 130.653 561.16 440.169
1300 0 102.422 15.2409 1561 132.19 562.124 433.537
1301 0 104.379 12.6463 1320 137.811 563.933 435.68
1302 0 108.204 14.4634 1565 134.623 565.126 436.666
1303 0 115.248 15.792 1820 131.098 565.343 437.096
1304 0 117.361 16.7688 1968 129.809 566.863 432.411
1305 0 118.198 12.3775 1463 136.926 567.356 431.963
1306 1 72.0625 10.7268 773 129.111 568.04 465.288
1307 0 69.1818 11.0145 762 133.44 566.627 459.009
1308 0 70.4437 12.0238 847 130.946 567.066 459.365
1309 0 73.3096 14.1182 1035 127.391 566.49 459.391
1310 0 74.2176 12.7867 949 129.459 565.903 459.764
1311 0 75.1904 13.5789 1021 130.017 564.815 456.192
1312 0 78.1925 13.0831 1023 130.933 563.986 453.619
1313 0 82.3974 15.2068 1253 127.36 562.61 453.962
1314 0 85.2888 13.7181 1170 129.785 561.565 450.491
1315 0 88.0887 13.3161 1173 132.875 561.548 450.662
1316 1 43.2287 8.30467 359 137.382 557.485 470.627
1317 0 48.1688 11.003 530 134.221 558.706 467.566
1318 0 53.0689 12.7382 676 128.37 557.414 467.786
1319 0 53.2635 12.7479 679 127.813 555.367 467.034
1320 0 54.2093 10.0905 547 132.934 556.762 461.662
1321 0 57.337 13.2724 761 128.222 555.947 460.202
1322 0 59.1876 11.641 689 132.215 555.766 462.228
1323 0 59.1494 12.7136 752 129.431 555.073 458.592
1324 0 60.1518 12.4352 748 132.71 553.213 457.638
1325 0 59.35 11.39 676 134.098 554.222 454.959
1326 0 64.4002 11.3043 728 134.049 555.026 453.077
1327 0 66.4087 14.0945 936 127.95 555.479 451.59
1328 0 70.2528 15.4442 1085 126.071 554.409 451.077
1329 0 70.2558 13.4793 947 131.53 556.619 449.709
1330 0 75.3359 16.4729 1241 124.51 557.565 448.223
1331 0 75.3442 13.7901 1039 129.518 560.178 449.001
1332 0 77.3305 12.9444 1001 132.667 561.15 447.243
1333 0 80.1826 12.3219 988 133.622 563.01 447.221
1334 0 81.3607 11.2954 919 135.976 565.688 445.718
1335 1 44.2212 11.6686 516 130.614 566.287 463.872
1336 0 49.3023 10.9326 539 126.878 567.649 467.801
1337 0 51.441 10.478 539 130.367 568.497 465.327
1338 0 49.2839 12.8237 632 125.736 569.122 467.449
1339 0 49.226 9.77126 481 133.611 569.505 464.925
1340 0 53.0973 11.3188 601 129.454 570.286 467.414
1341 0 56.2047 12.7925 719 128.709 567.21 464.23
1342 0 55.3505 11.2013 620 130.377 568.116 461.074
1343 0 54.2101 10.3855 563 134.076 569.213 461.634
1344 0 56.0764 10.7532 603 132.723 568.914 460.784
1345 0 58.1132 10.101 587 132.511 567.591 462.901
1346 0 61.0981 12.93 790 133.042 564.56 465.296
1347 0 63.0326 13.9928 882 131.418 561.404 460.344
1348 0 66.1323 13.0647 864 132.492 560.157 459.925
1349 0 68.0605 14.2961 973 131.305 558.48 457.669
1350 0 70.1927 12.9786 911 133.731 557.548 456.34
1351 0 74.1414 15.9155 1180 126.119 556.642 458.974
1352 0 72.3 11.6182 840 136.274 555.525 454.027
1353 0 75.0885 14.0234 1053 130.131 554.923 451.209
1354 0 77.0463 13.719 1057 128.209 554.093 454.175
1355 1 37.0718 11.4642 425 124.569 552.969 470.628
1356 0 41.1303 8.80129 362 126.064 552.472 470.779
1357 0 40.0275 8.06946 323 132.854 552.474 465.663
1358 0 43.0262 6.34498 273 131.385 552.78 466.077
1359 0 44.1015 12.0631 532 122.921 552.459 462.229
1360 0 46.0296 8.75523 403 126.799 553.027 464.417
1361 0 46.0824 12.2389 564 122.652 554.475 461.02
1362 0 49.32 11.03 544 126.498 556.178 459.84
1363 0 51.1043 13.7171 701 123.334 556.411 456.795
1364 0 51.0947 12.7606 652 123.583 557.535 457.983
1365 0 52.0755 14.5558 758 120.883 559.499 452.153
1366 0 53.0882 13.6188 723 123.057 560.58 456.653
1367 0 51.1375 12.5544 642 128.259 562.838 453.664
1368 0 56.1233 14.2009 797 122.639 564.379 456.144
1369 0 57.1438 15.4872 885 123.737 564.892 454.019
1370 0 61.2305 14.2576 873 123.651 567.017 457.821
1371 0 60.0829 13.2816 798 127.822 570.312 460.023
1372 0 61.037 12.0255 734 131.755 570.012 459.989
1373 0 64.081 14.5909 935 127.653 571.17 458.337
1374 0 65.0666 13.9857 910 128.518 571.475 457.731
1375 0 68.0988 14.479 986 127.564 571.142 458.901
1376 0 69.2788 15.5314 1076 127.59 570.343 454.955
1377 0 70.0909 12.07 846 135.506 569.637 455.338
1378 0 74.1027 11.3896 844 135.504 568.956 455.376
1379 0 77.1961 13.4592 1039 131.739 567.077 458.767
1380 0 79.1076 12.8433 1016 134.612 566.174 452.507
1381 0 86.3424 16.921 1461 124.855 564.05 456.968
1382 1 46.1241 10.6669 492 134.644 563.398 472.132
1383 0 43.0633 7.15227 308 141.386 561.935 472.666
1384 0 49.1398 12.495 614 131.453 561.147 470.049
1385 0 50.0851 11.9796 600 134.542 560.052 468.007
1386 0 49.0491 11.988 588 136.434 559.031 466.667
1387 0 52.0724 16.2658 847 128.593 557.426 462.718
1388 0 52.0934 11.9401 622 137.82 558.535 462.169
1389 0 53.0418 12.707 674 136.585 557.846 461.277
1390 0 54.0174 14.8286 801 134.007 557.931 458.125
1391 0 57.0291 15.5009 884 131.491 558.08 456.919
1392 0 59.0919 15.349 907 131.376 558.438 457.45
1393 0 61.0447 15.7426 961 130.459 558.774 455.654
1394 0 63.0665 17.7749 1121 126.541 559.898 456.183
1395 0 63.0661 13.2242 834 136.591 560.379 455.452
1396 0 65.0396 12.7 826 138.26 561.372 455.462
1397 0 65.0722 13.0471 849 140.701 563.32 451.057
1398 0 70.0546 16.3872 1148 133.409 564.753 450.327
1399 0 70.09 15.0235 1053 135.424 566.27 451.178
1400 0 74.1387 14.3785 1066 136.222 568.403 448.795
1401 0 75.195 15.6925 1180 135.36 569.02 451.37
1402 0 80.1781 15.715 1260 135.374 570.655 451.628
1403 0 78.0991 14.9682 1169 140.191 571.648 452.056
1404 0 81.2182 19.2198 1561 131.909 572.559 450.2
1405 0 83.1876 17.5868 1463 137.59 572.539 452.556
1406 0 87.3027 16.1851 1413 139.769 571.748 454.082
1407 0 89.3278 15.1017 1349 142.814 571.288 453.688
1408 0 92.1633 15.8414 1460 141.991 570.859 454.488
1409 0 95.1158 17.2421 1640 141.933 570.434 451.204
1410 0 101.098 15.3514 1552 144.61 569.014 454.448
1411 0 103.149 16.3162 1683 145.377 567.615 451.399
1412 1 62.1098 9.57981 595 154.027 565.489 472.435
1413 0 66.2006 11.9787 793 149.395 564.869 471.68
1414 0 66.0416 12.6738 837 150.06 563.735 469.903
1415 0 69.1017 12.6914 877 146.906 560.51 471.268
1416 0 72.3134 13.9808 1011 148.247 560.536 463.24
1417 0 75.4157 13.419 1012 145.29 559.988 462.654
1418 0 78.2667 14.8467 1162 141.302 558.445 461.262
1419 0 78.1446 12.5537 981 148.615 557.526 460.143
1420 0 82.39 15.3295 1263 141.572 557.138 459.128
1421 0 84.1369 15.249 1283 142.136 556.609 456.242
1422 0 86.2235 14.4276 1244 143.504 555.622 454.109
1423 0 89.2909 12.3641 1104 146.591 555.431 451.92
1424 0 90.1584 14.1418 1275 143.701 555.236 450.067
1425 0 93.1553 16.4993 1537 135.612 555.494 450.723
1426 0 93.1687 12.1822 1135 146.323 555.096 445.037
1427 0 96.318 11.6074 1118 145.4 556.039 449.52
1428 0 100.237 13.3285 1336 142.999 556.279 446.426
1429 0 103.286 13.4191 1386 141.028 556.542 445.865
1430 0 105.381 15.1071 1592 139.048 557.795 443.982
1431 0 110.23 14.497 1598 140.956 559.164 439.284
1432 1 58.0621 11.8494 688 136.696 561.589 468.262
1433 0 61.0912 9.23209 564 146.183 562.961 463.53
1434 0 64.1361 11.803 757 137.766 564.585 463.741
1435 0 65.0611 11.251 732 140.798 565.837 461.152
1436 0 66.075 12.6674 837 137.023 566.912 461.263
1437 0 70.1583 14.339 1006 134.178 564.613 452.952
1438 0 75.1703 14.1013 1060 133.895 564.498 456.717
1439 0 75.1533 13.0533 981 136.781 564.694 454.806
1440 0 77.1604 15.4224 1190 132.245 564.676 455.713
1441 0 80.2943 12.7904 1027 136.034 564.298 457.925
1442 0 83.2059 17.4387 1451 128.774 564.001 451.908
1443 0 85.1752 17.3759 1480 127.723 563.383 453.47
1444 0 88.2446 13.8592 1223 132.63 562.04 455.069
1445 0 92.2705 12.4308 1147 137.847 561.411 448.041
1446 0 93.0986 12.4599 1160 138.67 562.124 451.355
1447 0 98.2898 15.4238 1516 132.889 560.838 448.266
1448 0 99.253 18.1053 1797 127.982 559.22 448.384
1449 0 103.223 14.9773 1546 132.133 557.921 448.034
1450 0 106.256 16.6297 1767 128.534 556.32 445.059
1451 0 107.252 11.9997 1287 137.572 555.426 435.228
1452 1 55.0842 9.73055 536 133.614 555.769 468.821
1453 0 57.0785 11.0374 630 134.221 555.552 463.66
1454 0 60.179 10.3358 622 133.082 554.902 461.748
1455 0 62.131 10.2203 635 134.143 554.624 459.409
1456 0 63.3161 14.7356 933 126.296 553.643 451.638
1457 0 66.1103 13.3111 880 128.523 555.618 453.547
1458 0 66.1849 10.5462 698 134.597 555.182 448.828
1459 0 69.1502 13.8105 955 126.753 555.405 451.152
1460 0 72.1728 13.8418 999 125.544 555.908 451.052
1461 0 74.208 12.7614 947 128.214 556.769 450.149
1462 0 73.396 11.254 826 133.835 557.222 445.225
1463 1 37.043 7.01888 260 131.515 559.315 467.727
1464 0 39.0977 4.14346 162 133.963 560.444 468.796
1465 0 46.2146 9.32607 431 125.724 561.137 466.731
1466 0 47.1397 13.7464 648 120.295 563.248 466.122
1467 0 46.1508 8.38555 387 130.395 564.76 466.072
1468 0 48.263 9.57255 462 129.303 567.362 464.325
1469 0 49.0657 10.863 533 128.861 569.499 465.355
1470 0 50.2407 12.4401 625 127.227 569.323 463.944
1471 0 50.0734 11.6629 584 128.423 572.675 463.909
1472 0 52.1125 13.7587 717 122.233 572.848 464.816
1473 0 53.1615 11.3804 605 127.833 572.762 463.319
1474 0 57.182 11.5771 662 125.14 572.873 465.254
1475 0 59.0954 15.8219 935 117.568 572.966 466.191
1476 0 56.0792 8.41666 472 131.136 572.72 468.396
1477 0 60.0393 14.324 860 120.537 571.896 467.172
1478 0 66.1836 19.7783 1309 110.481 571.005 466.727
1479 0 64.1474 15.0279 964 120.081 570.194 464.679
1480 0 67.1978 16.2654 1093 117.784 569.322 464.188
1481 0 69.1009 13.2994 919 124.108 567.641 462.863
1482 0 71.1502 14.7716 1051 121.704 566.562 463.46
1483 0 73.1018 13.3239 974 124.67 565.616 459.25
1484 0 74.1092 15.8415 1174 120.679 564.235 456.478
1485 1 36.0489 10.2638 370 130.854 563.9 472.762
1486 0 39.0505 9.96145 389 128.936 562.517 471.026
1487 0 45.1399 11.564 522 122.341 561.339 472.648
1488 0 44.0076 10.1119 445 128.115 560.874 469.876
1489 0 46.0735 10.6135 489 125.779 560.393 467.828
1490 0 49.1036 14.2556 700 119.99 560.136 466.463
1491 0 49.1423 13.4304 660 121.327 559.824 465.471
1492 0 48.0394 12.6146 606 124.776 559.318 462.914
1493 0 50.0489 12.6077 631 126.436 560.185 461.044
1494 0 54.0454 13.7847 745 123.361 560.04 458.263
1495 0 54.1269 13.4499 728 124.163 560.647 457.672
1496 0 55.0889 13.7233 756 124.221 560.909 455.525
1497 0 57.1046 14.5172 829 121.012 561.765 454.569
1498 0 56.1058 14.7044 825 122.942 563.61 456.297
1499 0 60.1456 14.5148 873 121.715 564.464 455.514
1500 0 61.1232 16.9494 1036 119.193 566.076 455.472
1501 0 62.2185 12.7454 793 122.841 567.943 455.781
1502 0 64.2866 11.8687 763 122.912 569.404 455.282
1503 0 64.2446 12.9505 832 127.256 570.418 453.897
1504 0 68.207 13.1365 896 124.561 571.962 452.864
1505 0 70.1688 16.6883 1171 120.574 572.486 453.143
1506 0 72.2191 13.6806 988 125.185 572.797 457.018
1507 0 76.2875 18.0239 1375 120.385 572.58 454.276
1508 0 76.4654 15.3926 1177 125.778 573.104 457.259
1509 0 80.413 15.0349 1209 127.399 572.327 456.415
1510 0 83.1807 17.2636 1436 124.783 572.453 452.202
1511 0 86.2686 16.7384 1444 124.108 571.501 460.038
1512 1 43.0454 12.2893 529 131.552 570.79 473.716
