time division length width area intensity CMx CMy
0 0 84.4014 17.6537 1490 129.953 289.961 441.279
1 1 45.0817 11.0022 496 136.72 291.97 458.222
2 0 49.0467 9.84776 483 137.76 292.441 457.155
3 0 50.089 12.358 619 132.816 292.675 459.795
4 0 52.0267 14.3964 749 129.244 292.773 460.268
5 0 51.1693 11.5303 590 137.332 292.666 458.539
6 0 53.2365 14.0881 750 134.011 291.611 456.033
7 0 56.3049 12.3613 696 134.3 291.273 459.355
8 0 58.1701 14.1482 823 132.282 290.079 455.101
9 0 59.2631 13.651 809 131.681 288.916 458.576
10 0 61.1362 17.2565 1055 130.29 287.715 455.291
11 0 63.194 15.8085 999 136.164 287.235 454.671
12 0 64.1765 13.1201 842 148.368 286.181 454.195
13 0 64.1963 12.8356 824 148.177 285.482 451.937
14 0 69.2447 16.81 1164 142.613 284.434 454.36
15 0 75.9268 19.9798 1517 133.523 283.337 456.703
16 0 73.2455 15.1272 1108 150.983 281.639 450.978
17 0 73.1434 15.0253 1099 159.445 279.679 447.889
18 0 76.0835 15.207 1157 158.101 278.166 448.458
19 0 80.1518 15.1213 1212 158.042 277.5 446.871
20 0 81.1552 16.4869 1338 157.054 276.494 442.679
21 0 83.2007 17.7282 1475 153.736 276.254 444.534
22 0 87.2283 15.1442 1321 160.318 275.608 440.015
23 0 90.3013 16.0241 1447 152.969 275.345 440.079
24 0 91.1835 15.4743 1411 158.975 274.753 434.071
25 1 46.1381 9.25483 427 161.468 274.984 457.787
26 0 48.055 11.3204 544 155.8 275.454 456.158
27 0 48.1156 11.4516 551 153.628 275.779 454.964
28 0 53.1445 14.8087 787 142.375 275.136 450.849
29 0 52.1286 12.7377 664 146.703 276.873 448.706
30 0 55.1726 12.2525 676 143.984 278.009 451.617
31 0 63.2304 16.3054 1031 129.326 279.808 452.342
32 0 60.1772 13.2276 796 139.927 281.834 451.837
33 0 63.1123 12.8343 810 132.291 283.254 449.323
34 0 65.1624 13.7503 896 129.129 284.749 450.533
35 0 69.2578 16.287 1128 120.691 287.012 451.215
36 0 69.1537 12.8843 891 126.146 287.453 452.198
37 0 71.1216 16.8022 1195 120.922 288.348 453.799
38 0 73.1753 14.8821 1089 126.338 288.404 447.174
39 0 77.1563 15.1511 1169 127.608 288.395 447.902
40 0 78.2704 18.3083 1433 120.306 287.593 455.202
41 0 81.1071 15.9665 1295 128.625 287.815 452.056
42 0 83.3138 16.948 1412 131.218 286.592 448.558
43 0 83.2778 13.2809 1106 143.382 285.896 444.765
44 1 44.0774 10.6404 469 139.646 285.292 472.064
45 0 45.4119 14.1152 641 135.345 284.109 468.574
46 0 45.3983 12.3132 559 141.327 283.152 465.501
47 0 47.2366 13.7605 650 141.877 281.22 465.525
48 0 49.2659 12.3818 610 147.146 280.072 464.705
49 0 48.1548 12.1276 584 148.363 278.887 468.015
50 0 52.0829 11.2705 587 150.14 277.571 467.617
51 0 55.0638 12.9849 715 146.45 276.064 464.803
52 0 53.0441 13.5171 717 147.057 274.768 463.975
53 0 55.1128 13.5359 746 149.413 274.361 459.66
54 0 59.1326 17.0972 1011 140.226 273.859 458.479
55 0 61.0896 14.7979 904 144.562 273.025 457.5
56 0 63.0583 14.447 911 144.805 272.767 458.706
57 0 61.0947 13.1435 803 151.144 272.614 453.568
58 0 65.1035 14.8379 966 146.504 272.786 453.436
59 0 67.1074 14.1862 952 148.199 272.091 453.779
60 0 70.0947 12.369 867 152.804 273.134 451.912
61 1 38.1842 9.53274 364 154.374 273.588 464.505
62 0 41.2047 8.88248 366 150.721 274.473 465.653
63 0 41.207 9.19746 379 149.807 276.077 464.802
64 0 43.2112 12.4736 539 147.95 277.544 459.827
65 0 43.5098 10.5264 458 148.234 280.087 459.81
66 0 45.5397 13.8341 630 142.086 282.222 459.278
67 0 50.8588 13.9012 707 133.119 285.249 458.156
68 0 51.1361 15.1752 776 127.222 285.318 464.736
69 0 51.0693 12.6691 647 131.243 285.037 461.219
70 0 53.1179 12.0863 642 128.911 286.079 463.294
71 0 57.2583 14.3735 823 120.604 288.067 462.976
72 0 56.2914 15.0112 845 121.988 287.457 464.585
73 0 61.351 14.197 871 122.206 287.754 465.789
74 0 61.3965 13.3558 820 128.601 286.891 461.763
75 0 63.241 14.7847 935 127.542 285.989 463.519
76 0 65.2467 17.0277 1111 126.455 284.966 461.968
77 0 67.1791 16.0467 1078 131.896 284.67 462.332
78 0 69.1749 15.7138 1087 134.452 284.13 461.891
79 0 70.0638 16.2994 1142 133.433 283.239 464.475
80 0 73.0722 13.8904 1015 140.399 282.052 464.387
81 1 37.0082 8.64672 320 149.738 280.862 477.625
82 0 40.1918 14.381 578 137.675 278.465 475.36
83 0 41.1942 11.7735 485 143.806 276.979 475.01
84 0 41.1071 12.7958 526 142.395 274.722 475.154
85 0 42.0178 11.8045 496 146.577 274.115 473.282
86 0 43.0743 13.0472 562 143.952 272.888 470.689
87 0 45.0405 12.7441 574 144.878 272.62 473.044
88 0 42.1455 13.0738 551 147.793 271.552 465.653
89 0 45.0538 9.74391 439 153.109 270.868 466.062
90 0 48.0802 13.4151 645 144.194 270.833 465.273
91 0 49.0258 15.1145 741 139.571 270.59 463.802
92 0 51.0727 16.0556 820 136.271 270.077 463.913
93 0 52.2509 15.6935 820 139.191 270.143 459.389
94 0 54.0697 14.6108 790 142.151 270.558 458.886
95 0 52.0914 14.5129 756 143.844 270.606 457.597
96 0 54.1571 13.1285 711 145.567 271.129 458.173
97 0 56.0892 13.532 759 143.968 273.152 457.046
98 0 58.2295 14.065 819 141.505 274.802 456.339
99 0 59.124 13.514 799 138.257 277.678 455.253
100 0 63.0724 16.1719 1020 129.686 279.5 454.496
101 0 66.5136 14.8992 991 128.15 280.734 455.776
102 0 65.1538 14.059 916 131.723 282.596 455.594
103 0 67.2071 15.6977 1055 128.641 283.84 453.145
104 0 70.1421 14.1855 995 128.159 284.839 450.588
105 0 75.3173 15.4413 1163 122.416 284.952 455.268
106 0 77.3735 13.7515 1064 127.797 286.361 455.159
107 0 81.4076 19.7033 1604 115.299 287.37 460.185
108 0 82.1545 15.6778 1288 125.145 286.905 453.913
109 0 83.3832 16.646 1388 124.995 287.145 450.475
110 0 84.2705 13.5397 1141 135.95 286.462 450.247
111 0 89.1993 15.3364 1368 132.666 285.594 453.673
112 1 48.1835 10.2732 495 134.477 284.933 472.37
113 0 49.0806 14.8939 731 125.341 283.405 472.406
114 0 47.0721 13.8086 650 132.283 279.251 468.534
115 0 47.0817 11.2783 531 133.573 279.021 469.305
116 0 50.1691 14.6903 737 126.859 278.16 466.844
117 0 52.1502 11.8504 618 130.272 277.796 468.259
118 0 51.1313 10.3459 529 139.745 277.503 469.94
119 0 51.1111 11.9348 610 137.513 275.869 467.975
120 0 53.1643 13.3924 712 134.867 274.372 468.126
121 0 55.0996 14.9366 823 134.06 273.315 464.708
122 0 57.1111 14.4105 823 134.368 272.045 461.216
123 0 62.1745 14.0733 875 132.369 271.098 461.362
124 0 62.1542 15.1398 941 132.792 270.275 459.541
125 0 60.2767 11.1818 674 141.714 270.782 459.641
126 0 64.1732 13.2298 849 138.028 270.135 454.322
127 0 65.0997 13.1337 855 137.761 269.973 455.283
128 0 64.1739 8.86654 569 147.942 270.176 450.146
129 1 36.0395 9.15662 330 140.685 272.548 468.67
130 0 36.0158 7.69108 277 140.78 272.513 469.032
131 0 37.0785 8.11792 301 145.488 273.475 465.558
132 0 39.0608 12.4677 487 133.333 275.24 467.723
133 0 40.0451 11.0376 442 136.319 277.814 466.486
134 0 39.0697 9.80298 383 136.462 279.634 467.146
135 0 42.0174 9.94826 418 134.388 281.404 465.462
136 0 47.2169 10.8859 514 130.8 281.661 465.056
137 0 47.1098 14.6466 690 122.843 282.826 469.43
138 0 47.0409 12.521 589 127.024 282.329 468.852
139 0 47.053 13.0916 616 126.955 282.529 465.807
140 0 49.0642 14.1651 695 124.573 282.872 468.396
141 0 52.0331 10.7239 558 128.654 282.163 471.14
142 0 53.0882 12.6582 672 129.926 283.772 467.216
143 0 54.12 11.2528 609 130.558 282.939 469.207
144 0 54.0385 11.5473 624 131.228 281.048 469.902
145 0 54.1717 10.5036 569 135.547 280.77 468.329
146 0 60.2152 14.0662 847 131.42 279.161 469.179
147 0 61.0745 16.1278 985 127.487 278.251 471.246
148 0 63.1412 16.3601 1033 128.778 276.833 467.055
149 0 64.0662 14.1885 909 134.259 275.348 463.226
150 0 67.1889 14.7792 993 133.77 273.85 464.275
151 0 69.1072 15.6134 1079 131.029 273.084 467.59
152 0 70.1652 14.8079 1039 136.594 271.121 463.393
153 0 75.0794 12.0672 906 140.674 269.67 462.819
154 0 78.1824 17.3824 1359 131.781 268.125 457.541
155 0 79.0966 13.7553 1088 140.574 267.634 453.332
156 1 44.0205 12.9712 571 134.653 267.483 473.34
157 0 41.1604 11.1758 460 140.243 269.346 470.828
158 0 43.1098 12.4334 536 140.715 268.347 467
159 0 44.0534 10.51 463 141.95 268.622 468.227
160 0 45.0377 13.0335 587 140.189 268.45 465.089
161 0 48.1325 14.4601 696 136.046 267.626 465.046
162 0 51.1311 15.3136 783 134.031 267.939 463.757
163 0 50.1359 13.603 682 138.513 269.286 462.191
164 0 51.0334 14.3631 733 138.007 269.014 461.948
165 0 53.0809 13.2628 704 140.615 272.216 460.129
166 0 54.1283 12.1009 655 143.479 273.855 458.508
167 0 59.1014 14.4836 856 136.993 275.481 458.446
168 0 58.0261 12.9425 751 140.437 276.707 461.056
169 0 61.2695 14.2649 874 134.167 278.414 460.836
170 0 63.1384 12.0529 761 138.445 279.765 458.876
171 0 66.1733 12.7393 843 137.467 280.851 459.165
172 0 67.0948 12.1172 813 138.491 281.223 460.761
173 0 68.0976 14.2736 972 137.624 281.746 457.023
174 0 73.0805 14.874 1087 138.762 281.822 459.927
175 0 75.1724 13.1697 990 139.738 282.082 461.968
176 0 77.1446 14.4145 1112 140.405 281.379 459.696
177 0 80.1311 14.9255 1196 142.578 280.217 457.502
178 0 84.3024 17.4847 1474 138.377 279.948 457.385
179 1 41.0375 11.4042 468 148.919 279.137 476.59
180 0 40.0451 10.8877 436 152.661 278.539 474.667
181 0 44.091 9.63915 425 149.318 276.649 478.099
182 0 49.3084 14.0747 694 143.461 275.483 473.656
183 0 47.1293 11.373 536 150.759 273.84 473.595
184 0 48.0991 15.0938 726 141.353 271.342 473.14
185 0 51.1054 14.0103 716 143.464 267.93 475.351
186 0 53.0142 11.2989 599 149.339 266.748 473.788
187 0 54.106 17.4842 946 139.132 265.751 471.281
188 0 55.1515 15.539 857 143.246 264.711 468.273
189 0 57.1643 11.7731 673 149.394 264.724 468.764
190 0 61.1601 16.1543 988 139.184 264.038 467.11
191 0 60.1419 13.9836 841 146.661 263.687 462.498
192 0 61.1343 16.2757 995 142.11 263.682 461.08
193 0 64.2502 14.9572 961 143.385 263.234 460.364
194 0 66.3852 11.6442 773 150.448 263.825 456.523
195 0 69.1381 14.5217 1004 144.198 263.732 457.107
196 0 70.1883 15.6009 1095 143.1 264.716 454.483
197 0 73.1993 13.593 995 147.131 266.159 452.275
198 0 73.2527 13.4193 983 149.217 267.542 451.215
199 1 39.153 11.289 442 147.238 269.64 467.991
200 0 38.1385 9.64904 368 153.837 270.34 463.704
201 0 41.3714 11.143 461 148.004 272.863 464.473
202 0 40.1883 11.4212 459 143.059 274.895 461.068
203 0 45.3278 13.4575 610 132.149 277.492 461.767
204 0 46.3233 12.0674 559 135.36 278.623 461.696
205 0 47.183 11.6991 552 136.368 278.641 464.58
206 0 49.2574 12.6072 621 135.733 278.823 463.85
207 0 49.3353 11.9387 589 135.46 280.024 464.686
208 0 55.348 14.9057 825 129.476 280.133 464.336
209 0 52.2958 15.2594 798 133.192 278.64 463.736
210 0 54.1993 10.5905 574 140.709 279.115 463.43
211 0 54.1905 13.471 730 140.466 278.148 462.475
212 0 57.352 13.2341 759 137.92 277.73 466.174
213 0 59.1713 12.3202 729 138.857 276.243 467.45
214 0 61.3219 11.1379 683 139.88 275.086 463.643
215 0 61.2701 12.6326 774 137.499 273.776 464.749
216 0 65.1752 11.4 743 139.836 272.338 462.315
217 0 65.2767 12.1636 794 139.287 271.608 461.024
218 0 67.1938 13.2155 888 138.464 270.979 457.721
219 0 69.1866 12.5891 871 139.162 269.238 456.87
220 0 72.151 11.7531 848 141.739 267.568 456.403
221 0 75.2261 13.2268 995 138.576 266.625 456.096
222 0 79.1958 13.5487 1073 138.842 265.171 452.521
223 0 82.188 17.0463 1401 135.889 265.149 452.714
224 0 84.1472 15.0332 1265 141.293 263.953 449.426
225 0 86.1714 15.0978 1301 138.254 263.817 453.67
226 1 52.1141 12.7413 664 135.901 265.709 467.444
227 0 51.0399 8.65989 442 143.061 264.767 467.548
228 0 50.0286 11.7733 589 141.319 266.321 463.674
229 0 54.0513 13.8757 750 136.604 266.973 463.56
230 0 56.1471 14.8717 835 135.03 267.317 461.568
231 0 58.0731 14.3784 835 131.762 266.625 461.751
232 0 57.1819 14.9872 857 133.145 267.658 457.464
233 0 58.0641 15.6551 909 131.067 272.375 457.55
234 0 63.0746 14.3798 907 131.02 274.29 462.369
235 0 62.2108 13.9204 866 134.315 275.752 459.126
236 0 64.0615 12.3631 792 136.827 277.604 459.275
237 0 67.1259 16.7 1121 127.429 279.069 456.011
238 0 67.1466 12.7929 859 138.851 279.432 456.007
239 0 72.2212 14.4417 1043 130.873 280.877 459.535
240 0 74.1514 14.7941 1097 130.889 280.708 456.557
241 0 77.1776 15.1987 1173 132.633 280.283 457.923
242 0 78.1221 15.463 1208 133.849 280.291 458.813
243 0 81.2703 15.6515 1272 134.862 279.992 460.222
244 0 82.1737 14.3233 1177 140.875 278.844 456.585
245 1 45.0964 12.5731 567 136.414 279.175 478.427
246 0 47.024 11.8663 558 142.962 277.629 474.188
247 0 51.0878 14.1521 723 134.917 276.852 476.492
248 0 52.0654 13.387 697 138.534 276.311 474.753
249 0 50.0286 12.4929 625 143.162 274.574 472.446
250 0 54.1252 14.7066 796 136.103 273.624 473.521
251 0 53.0701 13.0959 695 140.14 272.004 471.99
252 0 56.04 15.2213 853 133.795 270.408 472.753
253 0 56.0595 13.2181 741 140.39 269.251 467.821
254 0 57.108 15.2168 869 137.847 268.112 468.074
255 0 61.1212 13.0397 797 141.054 265.937 468.004
256 0 61.1032 12.7653 780 142.864 265.971 462.66
257 0 64.1231 14.9088 956 138.11 265.973 462.477
258 0 63.1501 12.304 777 143.974 265.335 462.794
259 0 66.0642 14.6675 969 140.014 264.641 460.829
260 0 70.1641 12.8556 902 143.569 264.53 458.252
261 0 71.1966 16.2508 1157 136.712 264.417 455.524
262 0 72.3072 12.2533 886 144.707 265.058 454.436
263 0 76.2577 12.3528 942 141.748 265.559 456.029
264 0 78.2095 14.6913 1149 138.885 266.508 451.533
265 0 80.1245 14.3652 1151 141.253 267.831 445.348
266 0 83.2011 13.4854 1122 142.55 270.291 451.638
267 1 45.0259 10.8604 489 142.389 272.693 466.294
268 0 48.0301 12.0758 580 136.993 274.645 468.593
269 0 49.1581 12.1445 597 135.181 276.415 469.149
270 0 48.1435 11.3411 546 139.85 277.738 468.255
271 0 51.3057 11.6166 596 135.611 277.277 465.956
272 0 54.167 14.363 778 130.648 279.12 467.183
273 0 55.0762 13.9806 770 132.344 279.606 467.478
274 0 57.0384 15.0425 858 128.825 280.232 467.739
275 0 55.1174 12.4099 684 137.02 279.842 470.035
276 0 59.0928 13.9611 825 130.698 278.124 473.21
277 0 60.0738 12.8509 772 136.152 278.306 469.225
278 0 61.0826 14.1448 864 134.064 277.652 467.249
279 0 65.0719 15.4598 1006 130.681 277.25 466.63
280 0 67.1181 13.5135 907 133.868 276.611 467.854
281 0 67.1549 16.3652 1099 131.222 276.508 465.551
282 0 68.068 13.5306 921 135.041 273.717 464.726
283 0 73.2247 14.1755 1038 132.386 272.936 465.23
284 0 76.1792 14.7022 1120 131.117 271.626 464.746
285 0 76.1221 14.595 1111 131.839 269.323 465.356
286 0 77.1239 13.4718 1039 136.327 268.427 461.605
287 0 80.1232 13.5417 1085 135.234 267.114 460.996
288 0 81.1669 13.1827 1070 136.479 266.426 460.459
289 1 44.055 9.32925 411 132.601 266.384 478.949
290 0 43.1117 9.11584 393 141.321 265.794 472.776
291 0 48.0986 12.8694 619 132.191 265.383 471.885
292 0 49.0504 15.2496 748 131.425 264.735 467.717
293 0 49.0227 15.1154 741 131.507 264.772 468.161
294 0 51.1247 13.4377 687 133.08 264.389 466.888
295 0 52.0525 14.9464 778 131.712 265.693 464.692
296 0 55.0655 13.8017 760 129.558 265.78 463.618
297 0 57.0963 13.4685 769 128.921 267.061 465.443
298 0 59.0918 15.6198 923 125.469 268.605 461.68
299 0 59.0829 12.1186 716 133.473 269.757 457.877
300 0 62.1858 14.4406 898 128.057 271.261 458.458
301 0 62.1727 11.8219 735 131.921 273.052 459.518
302 0 64.0751 13.4061 859 127.673 275.024 457.166
303 0 66.1647 13.2246 875 127.614 275.278 459.257
304 0 69.1081 15.483 1070 121.555 277.153 457.737
305 0 73.1363 15.601 1141 119.199 277.965 459.495
306 0 73.0532 15.2902 1117 120.491 278.082 461.062
307 0 77.3335 13.4482 1040 123.895 279.464 457.807
308 0 78.2326 13.805 1080 127.213 278.639 455.989
309 0 78.1837 13.852 1083 127.796 277.72 452.802
310 0 84.3619 12.2449 1033 131.607 277.15 452.584
311 0 86.4049 12.7886 1105 130.91 276.361 454.538
312 1 45.1524 10.1656 459 126.902 275.976 479.418
313 0 48.1548 10.9231 526 129.226 274.555 476.447
314 0 50.2176 10.2155 513 130.006 272.979 476.517
315 0 49.1742 11.2661 554 131.928 272.287 474.282
316 0 52.0916 9.69446 505 131.636 271.525 476.301
317 0 56.0906 13.8704 778 126.542 270.63 474.512
318 0 54.0785 14.442 781 127.193 269.297 469.401
319 0 58.1482 9.90573 576 134.252 268.189 470.837
320 0 58.1866 12.563 731 130.306 266.744 468.661
321 0 61.2068 13.3645 818 128.947 266.539 467.071
322 0 62.17 13.9135 865 128.808 264.946 463.281
323 0 67.2518 14.5721 980 126.551 265.407 465.463
324 0 66.1849 16.2273 1074 125.996 264.9 461.73
325 0 67.2961 10.9813 739 136.541 264.668 459.666
326 0 71.2744 13.9882 997 131.578 264.624 456.688
327 0 71.2686 13.8631 988 134.381 265.681 456.759
328 0 74.2425 12.3379 916 137.229 264.646 454.678
329 0 79.2802 14.4803 1148 131.082 264.799 453.902
330 0 80.2798 10.5132 844 139.826 265.975 453.977
331 1 47.0806 9.55808 450 135.751 268.48 471.191
332 0 48.1534 14.703 708 128.126 268.939 467.777
333 0 52.1422 12.1207 632 135.041 270.728 464.756
334 0 53.2974 13.7905 735 129.82 271.66 464.124
335 0 54.329 14.1729 770 131.182 273.274 461.857
336 0 55.0821 16.1396 889 126.845 277.048 464.405
337 0 55.1566 14.0328 774 132.978 277.652 462.494
338 0 59.3314 14.9499 887 128.038 279.198 465.1
339 0 60.1569 15.2601 918 128.07 280.126 466.819
340 0 64.2753 15.6203 1004 124.265 280.065 466.933
341 0 64.23 16.4565 1057 128.39 280.101 462.92
342 0 66.1079 16.6243 1099 127.841 279.567 464.709
343 0 66.2382 16.4407 1089 130.666 279.053 463.328
344 0 70.229 15.3071 1075 131.66 278.426 464.76
345 0 70.364 14.9508 1052 135.394 277.611 464.195
346 0 74.2822 18.0662 1342 130.078 276.422 463.811
347 0 73.3036 14.8015 1085 138.103 275.186 459.262
348 0 77.3334 17.806 1377 129.525 273.834 463.968
349 0 76.25 15.7377 1200 134.726 272.386 462.594
350 0 78.3685 16.8946 1324 133.926 270.739 460.437
351 0 81.3299 16.0581 1306 134.859 268.879 458.693
352 0 85.2591 15.2359 1299 134.565 267.864 459.725
353 0 89.3438 14.9199 1333 135.617 265.927 454.564
354 0 89.2863 14.7615 1318 136.832 265.524 454.261
355 0 91.3932 16.5767 1515 133.331 264.799 450.781
356 1 37.0152 9.91486 367 135 265.493 476.134
357 0 41.138 11.5708 476 129.712 265.613 474.324
358 0 43.0637 10.5657 455 133.33 264.556 472.358
359 0 43.093 8.86455 382 136.935 265.325 470.806
360 0 48.1154 11.0775 533 131.214 264.871 470.876
361 0 49.0948 12.9749 637 129.797 263.496 468.262
362 0 48.0969 11.2897 543 130.637 265.615 468.247
363 0 51.1844 15.1022 773 124.041 267.235 466.472
364 0 53.1591 14.165 753 122.924 268.085 469.996
365 0 53.0651 12.9652 688 129.839 269.73 464.674
366 0 55.0546 13.2959 732 128.214 270.571 463.82
367 0 59.1757 14.6513 867 125.476 272.854 463.833
368 0 58.2281 12.5712 732 130.092 274.914 465.219
369 0 58.0701 16.7901 975 120.991 277.224 469.348
370 0 61.1025 12.3563 755 131.07 278.061 468.695
371 0 61.1234 11.6158 710 135.442 279.03 462.506
372 0 64.1025 12.6828 813 131.316 279.593 466.172
373 0 65.1531 15.7322 1025 127.298 278.333 467.257
374 0 64.063 12.8311 822 134.768 278.049 465.573
375 0 70.0979 15.7209 1102 128.431 278.122 466.476
376 0 73.1488 11.9209 872 135.425 278.845 464.626
377 0 76.1278 16.4854 1255 124.195 278.11 468.491
378 1 38.0109 9.2342 351 135.695 277.932 480.125
379 0 40.0627 10.3088 413 130.613 276.814 483.385
380 0 43.1486 11.9123 514 128.753 275.72 481.3
381 0 44.1032 11.0876 489 128.503 275.18 483.055
382 0 45.0424 11.7667 530 131.987 274.374 481.221
383 0 47.0428 13.137 618 130.837 271.883 478.62
384 0 46.0675 13.7841 635 127.674 268.852 477.89
385 0 48.0167 11.3086 543 131.705 267.56 476.506
386 0 50.0698 16.477 825 122.958 266.207 475.548
387 0 51.1244 12.1273 620 131.061 265.4 472.576
388 0 53.109 14.8186 787 126.506 265.4 471.095
389 0 54.1315 13.6704 740 127.545 263.693 469.622
390 0 54.084 13.1647 712 129.216 263.33 470.025
391 0 57.2233 17.3531 993 121.554 261.564 467.844
392 0 57.1171 12.7457 728 129.201 261.775 467.081
393 0 61.0692 15.9982 977 123.314 261.853 464.754
394 0 60.144 15.7289 946 123.83 262.798 464.495
395 0 61.1578 15.272 934 126.753 262.981 462.648
396 0 65.093 15.4241 1004 123.926 263.657 460.499
397 0 65.0878 13.7507 895 126.974 265.244 459.921
398 0 67.3504 16.8819 1137 121.339 266.003 460.136
399 0 69.2365 16.9708 1175 122.339 268.42 454.803
400 0 72.3457 14.6933 1063 124.337 269.665 456.675
401 0 75.2422 17.4636 1314 119.798 272.126 456.647
402 0 76.1866 16.9846 1294 120.644 273.895 457.963
403 0 79.3402 14.1542 1123 126.229 275.669 454.24
404 0 81.2354 12.5807 1022 129.159 277.151 453.987
405 0 84.3503 19.6443 1657 118.488 276.675 451.179
406 0 85.2689 12.5134 1067 131.357 277.377 454.243
407 0 88.2407 14.7438 1301 128.414 277.367 454.64
408 0 93.4614 16.1243 1507 125.755 277.2 455.752
409 0 94.1866 13.4733 1269 132.853 277.104 450.332
410 1 47.215 10.6958 505 132.321 276.715 475.828
411 0 50.0767 13.2197 662 128.227 276.261 475.721
412 0 51.128 14.0041 716 127.5 275.103 475.693
413 0 55.1269 15.4008 849 124.857 273.582 475.577
414 0 53.1681 12.3947 659 131.769 272.373 471.483
415 0 56.0784 15.1574 850 128.127 271.616 468.999
416 0 59.0373 12.2126 721 131.596 270.515 473.067
417 0 62.1259 13.9716 868 125.939 268.817 474.419
418 0 64.149 16.0564 1030 123.805 267.726 469.768
419 0 65.0434 14.1598 921 128.145 266.508 469.541
420 0 66.0939 14.7063 972 129.43 265.414 466.553
421 0 69.0941 14.2849 987 128.81 263.811 466.041
422 0 71.0944 16.5133 1174 126.863 263.442 462.579
423 0 74.1334 16.7941 1245 128.127 262.987 459.325
424 0 74.1511 12.6633 939 137.624 262.424 461.829
425 0 77.0912 16.6945 1287 131.641 262.037 452.782
426 0 80.2644 14.988 1203 135.776 261.789 455.426
427 0 83.2202 13.975 1163 139.519 262.39 453.605
428 0 86.332 15.8921 1372 135.938 262.696 451.136
429 1 41.1595 11.1274 458 141.046 263.878 469.282
430 0 46.2902 12.8105 593 136.216 265.914 468.196
431 0 46.329 11.5694 536 139.573 267.604 465.806
432 0 49.1917 11.1401 548 137.057 269.513 467.515
433 0 50.0259 11.474 574 138.328 268.605 466.376
434 0 52.0597 12.5625 654 136.269 270.797 468.243
435 0 52.0589 11.7175 610 140.91 272.684 468.264
436 0 57.1804 14.6029 835 134.354 274.493 467.24
437 0 56.0618 16.4283 921 132.23 276.221 467.155
438 0 58.2366 13.2563 772 137.675 276.139 469.025
439 0 59.1405 15.9789 945 135.156 277.249 464.321
440 0 62.1885 14.2309 885 135.908 277.72 468.456
441 0 65.1423 12.6492 824 140.329 277.305 468.865
442 0 66.1708 14.659 970 138.065 276.772 468.497
443 0 68.2268 16.2253 1107 135.77 276.208 466.138
444 0 69.2059 14.3051 990 139.555 276.031 467.345
445 0 69.1851 14.3383 992 142.025 275.876 465.04
446 0 74.4304 15.5985 1161 138.63 274.725 464.434
447 0 74.1577 13.2151 980 144.701 272.969 463.294
448 0 77.1627 14.3074 1104 140.84 272.412 463.05
449 0 80.1882 14.0669 1128 139.98 271.081 463.491
450 0 84.1538 17.3017 1456 135.726 270.126 460.149
451 0 84.1861 17.1525 1444 135.823 268.935 461.618
452 0 88.3054 15.0727 1331 141.165 267.281 456.732
453 0 88.2941 15.5163 1370 138.488 267.188 453.849
454 0 92.2153 15.9952 1475 138.765 265.639 452.315
455 0 95.1749 15.4768 1473 140.178 265.36 451.551
456 1 47.1515 11.41 538 141.928 265.593 472.121
457 0 52.2406 11.7533 614 139.187 265.653 469.463
458 0 52.2507 12.6697 662 138.879 265.571 468.671
459 0 54.0888 15.0678 815 136.187 264.294 464.972
460 0 56.2649 13.7741 775 137.858 264.028 463.694
461 0 57.1957 14.4941 829 137.772 265.054 461.456
462 0 60.3078 19.6658 1186 126.994 265.809 461.585
463 0 62.1266 15.1626 942 135.658 266.934 459.966
464 0 63.2029 14.762 933 138.741 267.88 457.974
465 0 64.1544 14.5119 931 140.759 269.207 454.939
466 0 67.1744 15.6905 1054 134.95 270.622 458.269
467 0 70.2434 15.8449 1113 136.464 272.739 455.135
468 0 73.2844 14.9964 1099 137.253 274.954 453.924
469 0 73.1288 14.6317 1070 140.629 276.54 452.115
470 0 76.3494 15.7434 1202 137.132 277.482 450.389
471 0 79.2379 15.6365 1239 135.786 278.697 450.817
472 0 80.3442 13.6413 1096 140.56 278.609 451.953
473 0 83.315 13.479 1123 140.926 278.359 452.946
474 0 85.2847 14.2816 1218 139.274 278.651 452.548
475 0 89.2195 16.0503 1432 135.502 278.372 453.862
476 0 92.335 14.794 1366 138.381 277.66 451.914
477 1 49.1013 12.1993 599 140.541 275.651 474.539
478 0 51.1644 10.476 536 141.011 275.772 476.976
479 0 54.0759 14.6276 791 134.918 274.683 474.981
480 0 53.2848 10.6409 567 139.497 274.173 473.728
481 0 55.1686 9.75193 538 141.268 273.143 469.706
482 0 57.2347 13.5407 775 133.261 271.868 470.801
483 0 60.1154 12.2764 738 137.524 270.138 467.108
484 0 62.1801 14.8922 926 131.879 268.639 464.499
485 0 62.0988 11.4173 709 139.152 268.051 465.986
486 0 63.0541 13.2267 834 138.61 265.868 460.095
487 0 69.1246 17.8518 1234 130.092 266.143 467.635
488 0 70.2126 15.6667 1100 136.66 265.285 461.711
489 0 76.1578 16.0588 1223 133.325 264.961 462.477
490 0 77.2853 15.4363 1193 134.258 264.977 463.07
491 0 80.3735 18.526 1489 130.752 264.177 455.015
492 0 81.1512 14.8735 1207 138.157 264.351 456.195
493 0 83.2166 15.6459 1302 137.32 264.209 452.761
494 0 87.3939 14.5662 1273 139.736 264.355 451.804
495 0 91.3969 18.1954 1663 131.467 264.728 449.567
496 1 46.1644 11.589 535 138.129 266.845 471.52
497 0 47.3027 13.5088 639 135.609 268.074 469.232
498 0 48.2396 14.9255 720 136.071 269.217 466.518
499 0 52.0886 14.9169 777 133.728 271.069 467.501
500 0 53.3198 16.8793 900 130.616 273.332 464.832
501 0 53.2393 13.1482 700 139.32 274.306 465.393
502 0 56.1729 13.0134 731 132.472 274.84 466.391
503 0 58.232 15.9878 931 126.64 275.794 465.305
504 0 59.1986 12.7368 754 132.034 277.745 465.684
505 0 59.1738 14.5673 862 130.188 278.89 464.908
506 0 62.1633 12.8532 799 133.357 278.544 463.487
507 0 65.1192 14.5272 946 130.081 277.837 463.912
508 0 68.2793 15.3194 1046 127.469 278.034 466.808
509 0 71.2053 14.1703 1009 130.776 278.196 461.739
510 0 73.1737 16.1123 1179 127.869 277.95 463.175
511 0 76.2177 15.1933 1158 129.413 277.548 463.702
512 0 80.124 19.4698 1560 121.523 275.937 467.083
513 1 40.0264 7.91978 317 138.256 274.492 484.991
514 0 43.1206 12.9637 559 132.984 273.03 480.998
515 0 47.0841 12.3609 582 131.768 271.959 482.141
516 0 44.1155 10.7445 474 131.169 270.669 485.768
517 0 47.0563 11.6669 549 136.88 270.667 479.678
518 0 48.0387 13.385 643 131.757 269.068 480.672
519 0 47.0433 13.7745 648 135.671 266.608 475.054
520 0 52.0476 15.9854 832 129.891 267.306 474.868
521 0 53.132 15.4144 819 132.28 266.753 473.063
522 0 53.1185 14.8347 788 133.749 265.659 472.78
523 0 54.1251 16.388 887 132.127 265.185 469.635
524 0 57.1126 15.9334 910 131.71 264.643 469.214
525 0 59.0832 16.5699 979 130.463 264.966 466.644
526 0 61.1838 14.6771 898 134.429 264.633 465.352
527 0 64.3842 18.1256 1167 127.517 264.851 463.919
528 0 64.1779 15.9712 1025 132.733 265.958 464.535
529 0 65.3007 16.5848 1083 133.854 265.759 460.325
530 0 69.2307 16.1345 1117 134.077 267.515 459.883
531 0 71.1939 16.3497 1164 130.626 269.197 462.229
532 0 76.3399 17.9854 1373 129.065 270.578 457.111
533 0 78.0808 21.0935 1647 124.275 272.638 455.319
534 0 81.3074 20.8345 1694 125.174 274.475 455.464
535 0 82.2758 16.2502 1337 135.539 275.713 452.891
536 1 43.0827 13.0911 564 140.131 277.262 473.885
537 0 44.0457 13.0319 574 136.878 278.514 476.066
538 0 48.0453 12.3009 591 137.599 277.865 474.807
539 0 46.0428 12.3363 568 140.417 277.967 473.276
540 0 47.0607 12.792 602 142.02 279.46 473.95
541 0 49.31 12.2693 605 144.243 279.693 473.668
542 0 52.11 14.6997 766 139.752 278.816 473.57
543 0 54.1233 15.3169 829 138.274 278.648 474.134
544 0 55.1418 17.5729 969 133.994 277.581 473.283
545 0 57.2172 15.5198 888 139.339 276.18 471.486
546 0 58.2032 16.4596 958 137.647 275.267 469.731
547 0 61.1348 15.245 932 139.118 274.532 471.166
548 0 63.2594 15.9186 1007 137.105 272.913 471.946
549 0 66.1507 16.024 1060 136.575 271.932 470.305
550 0 69.2409 15.641 1083 138.981 270.408 467.631
551 0 70.2262 16.276 1143 138.975 269.319 466.529
552 0 70.2053 15.4404 1084 141.425 268.259 466.071
553 0 75.2016 16.9677 1276 136.536 266.874 464.247
554 0 77.2548 16.6333 1285 138.195 266.067 459.76
555 1 37.1663 14.6638 545 144.906 265.82 477.983
556 0 41.0684 12.5157 514 149.66 265.749 477.14
557 0 43.033 14.4075 620 145.216 265.647 474.219
558 0 43.0202 16.132 694 140.376 265.115 474.86
559 0 41.262 14.5655 601 147.928 264.454 470.576
560 0 45.2545 15.0261 680 146.231 264.341 466.806
561 0 46.0593 15.632 720 143.043 266.332 469.386
562 0 47.0164 17.781 836 138.754 267.633 469.635
563 0 48.0415 16.0486 771 142.361 268.599 467.885
564 0 50.1252 16.4788 826 141.714 269.241 465.757
565 0 53.0907 17.4984 929 137.177 271.628 466.955
566 0 55.0853 16.302 898 140.908 273.037 465.038
567 0 53.0288 13.9358 739 149.177 274.969 465.196
568 0 55.0285 17.2093 947 142.452 276.545 460.863
569 0 58.2007 15.3606 894 144.272 278.111 465.258
570 0 59.1267 16.2194 959 141.97 279.444 462.837
571 0 63.2465 18.5148 1171 135.395 280.026 462.661
572 0 63.107 19.4907 1230 137.597 280.482 463.072
573 0 67.0991 18.346 1231 135.31 281.22 464.165
574 0 69.0699 19.3138 1334 136.219 279.738 463.412
575 0 69.1263 17.9092 1238 141.988 279.606 463.396
576 0 73.1411 17.2406 1261 142.714 279.103 464.934
577 1 36.022 14.741 531 149.631 278.23 482.089
578 0 36.1244 13.8134 499 155.387 276.832 481.882
579 0 38.082 14.0224 534 151.463 276.519 484.412
580 0 42.1343 16.661 702 148.188 275.839 480.449
581 0 41.1646 18.1224 746 143.487 274.279 482.764
582 0 43.0146 16.4595 708 148.422 273.008 481.169
583 0 44.0775 19.7153 869 141.982 271.009 479.794
584 0 46.1441 17.7054 817 145.184 269.756 479.706
585 0 46.0147 17.4944 805 147.056 268.489 479.557
586 0 47.1951 15.6796 740 151.405 267.218 478.22
587 0 54.3539 21.4704 1167 133.461 265.959 478.214
588 0 53.116 19.4668 1034 141.831 264.812 474.067
589 0 54.2239 20.692 1122 139.595 264.489 474.784
590 0 56.0693 20.4746 1148 140.842 263.884 472.941
591 0 58.0614 21.5117 1249 139.079 263.485 471.392
592 0 58.1009 18.1925 1057 148.078 262.651 469.512
593 0 61.1209 20.0586 1226 143.958 262.564 469.331
594 0 62.1887 17.2218 1071 152.457 262.913 467.622
595 0 66.1025 20.3623 1346 143.678 263.554 468.076
596 0 67.169 19.1606 1287 148.983 264.327 465.869
597 0 67.1107 19.4157 1303 151.149 264.721 463.815
598 0 70.1429 16.7087 1172 157.398 266.521 464.554
599 0 73.0935 20.0976 1469 149.223 267.859 464.359
600 0 75.1834 18.3684 1381 154.364 269.261 459.87
601 1 36.1266 16.3591 591 166.083 271.599 479.761
602 0 41.0819 15.9681 656 164.608 272.247 479.334
603 0 43.1368 18.6384 804 159.713 272.449 478.05
604 0 43.046 17.9807 774 164.022 274.065 477.673
605 0 44.16 18.8406 832 160.898 273.502 477.749
606 0 46.2183 18.2828 845 163.036 273.381 477.632
607 0 45.2069 20.749 938 157.439 273.602 479.789
608 0 48.1451 17.9665 865 165.299 273.201 477.491
609 0 50.2591 17.5093 880 165.372 272.962 478.164
610 0 53.0817 18.594 987 162.155 272.64 478.233
611 0 54.0543 16.8904 913 167.306 271.239 478.746
612 0 56.1161 18.8716 1059 163.991 270.481 477.524
613 0 60.1728 18.3471 1104 163.034 268.899 477.438
614 0 58.1584 17.1428 997 169.734 268.233 476.284
615 0 60.0819 17.7424 1066 169.704 266.668 471.811
616 0 61.1392 18.7441 1146 168.289 264.575 473.375
617 0 63.3431 18.4708 1170 168.777 263.402 470.107
618 0 65.1471 20.4767 1334 163.384 262.363 469.845
619 0 66.0818 18.6436 1232 168.341 261.203 468.107
620 0 69.234 17.8236 1234 169.323 260.257 467.617
621 0 72.2391 20.9997 1517 162.115 259.669 461.715
622 0 74.349 18.3728 1366 168.629 259.335 461.708
623 0 76.1047 17.6862 1346 170.825 259.091 458.024
624 1 36.1827 15.1177 547 176.885 259.018 475.152
625 0 40.1291 16.7709 673 171.89 259.774 472.614
626 0 38.0961 13.2035 503 186.455 259.839 470.922
627 0 40.225 14.3195 576 181.035 260.578 469.436
628 0 40.0768 15.3455 615 178.356 261.813 469.304
629 0 44.3302 17.3245 768 169.928 263.509 468.026
630 0 46.0772 17.4707 805 169.448 264.422 466.157
631 0 46.0923 15.1869 700 178.35 265.617 466.449
632 0 47.1266 18.6095 877 171.434 267.619 465.316
633 0 48.0584 20.4127 981 168.115 268.584 464.792
634 0 51.0594 18.4099 940 168.297 270.264 467.728
635 0 57.3686 20.4816 1175 158.717 272.797 468.698
636 0 54.1545 18.4657 1000 171.798 274.147 466.603
637 0 57.1279 19.08 1090 169.712 274.989 465.968
638 0 57.0546 17.7199 1011 173.801 275.564 468.531
639 0 57.0726 17.6792 1009 176.519 275.717 467.381
640 0 61.1241 20.2212 1236 168.466 276.136 467.014
641 0 62.2583 17.2668 1075 177.259 275.166 467.804
642 0 64.0877 18.0534 1157 175.99 274.722 465.884
643 0 67.1793 21.5096 1445 167.249 273.987 463.52
644 0 70.1146 18.3984 1290 172.049 273.727 467.127
645 0 75.092 20.375 1530 164.64 272.658 465.475
646 0 75.178 18.822 1415 171.258 271.054 461.952
647 0 79.161 20.1993 1599 166.227 270.61 462.201
648 1 37.2031 13.9505 519 172.861 270.013 481.127
649 0 38.1459 12.9503 494 175.735 268.753 479.128
650 0 41.2172 14.2659 588 169.934 267.111 478.196
651 0 40.0937 13.8176 554 168.758 266.59 480.135
652 0 43.0779 16.3425 704 163.277 265.193 477.744
653 0 48.3015 18.4052 889 156.55 264.857 474.724
654 0 45.1003 18.2704 824 161.24 264.012 471.873
655 0 48.0506 18.8759 907 157.708 263.365 472.891
656 0 51.059 18.2926 934 157.088 262.964 469.998
657 0 52.1013 22.034 1148 147.933 262.38 466.771
658 0 54.0747 18.1786 983 157.514 262.276 465.907
659 0 57.1877 17.7136 1013 156.729 263.246 463.808
660 0 59.1802 20.7164 1226 149.732 262.965 463.381
661 0 62.4527 23.4577 1465 141.686 263.818 460.031
662 0 61.3745 20.0572 1231 152.429 265.524 460.106
663 0 63.16 25.7283 1625 138.015 267.156 454.902
664 0 69.1296 21.9298 1516 144.595 268.666 455.992
665 0 72.2436 24.5143 1771 138.037 270.939 455.198
666 0 72.3439 22.5313 1630 145.025 272.431 457.342
667 0 74.6494 23.885 1783 142.815 274.292 457.816
668 0 79.5297 31.8749 2535 125.594 275.357 451.717
669 0 81.3565 27.5454 2241 131.934 276.741 451.709
670 0 82.5963 22.6402 1870 143.179 278.217 455.135
671 0 81.7516 27.9872 2288 133.309 278.589 453.668
672 0 88.4457 22.0248 1948 146.994 278.643 454.099
673 0 90.6097 26.5424 2405 138.347 278.672 450.523
674 0 88.7078 24.3947 2164 147.894 277.706 452.102
675 1 102.567 19.4117 1991 153.997 276.93 449.211
676 0 103.585 22.5806 2339 147.681 276.487 446.168
677 0 104.464 32.4132 3386 129.488 275.903 443.673
678 0 109.309 25.1673 2751 144.171 274.149 447.982
679 0 109.308 23.6396 2584 150.164 272.741 446.405
680 0 111.965 29.6701 3322 136.901 271.757 438.675
681 1 52.3475 15.6263 818 152.895 270.423 472.106
682 0 53.8052 14.3109 770 155.345 268.59 471.462
683 0 53.3165 15.3799 820 153.388 267.62 473.434
684 0 53.3839 12.4195 663 165.584 265.641 469.857
685 0 57.2617 14.8092 848 158.584 264.113 467.867
686 0 57.902 18.1514 1051 151.765 263.419 467.026
687 0 58.4468 14.0127 819 162.133 262.363 467.117
688 0 60.3177 17.8886 1079 151.96 262.183 461.761
689 0 64.3103 21.6139 1390 141.147 262.124 461.451
690 0 63.4247 16.7443 1062 156.614 261.666 457.067
691 1 32.2876 10.1587 328 164.146 263.784 473.381
692 0 33.2083 9.36512 311 162.434 264.363 473.92
693 0 35.2591 10.8341 382 162.453 263.846 470.147
694 0 33.2965 9.19016 306 167.203 265.173 470.062
695 0 38.5695 11.9525 461 157.631 266.542 467.67
696 0 38.4277 12.9073 496 154.113 268.26 468.308
697 0 39.371 12.6235 497 155.767 268.463 463.889
698 0 42.3267 12.4035 525 152.594 270.737 464.288
699 0 42.2633 15.3324 648 147.086 272.679 461.861
700 0 46.4121 15.2115 706 142.421 274.571 461.762
701 0 46.2798 15.6224 723 144.065 275.289 461.55
702 0 47.241 13.5052 638 148.611 276.856 462.574
703 0 48.2005 13.6513 658 148.731 277.573 462.12
704 0 49.2792 13.596 670 149.615 277.349 462.534
705 0 52.2648 18.7316 979 138.059 277.808 460.845
706 0 52.2926 15.4133 806 146.609 277.615 463
707 0 55.297 14.5758 806 149.318 276.421 460.763
708 0 56.3883 14.5598 821 149.613 276.669 464.43
709 0 57.2984 15.0091 860 150.562 276.079 464.829
710 1 29.0349 10.1258 294 153.398 277.105 480.088
711 0 27.1051 8.19033 222 158.239 274.887 473.937
712 0 31.1143 12.1809 379 149.855 273.269 472.712
713 0 33.079 14.1177 467 145.403 272.283 472.544
714 0 32.1933 10.5612 340 153.468 270.897 474.212
715 0 35.0767 15.6799 550 140.911 269.802 472.065
716 0 36.1824 15.2284 551 141.985 267.719 473.949
717 0 36.2005 11.602 420 149.169 266.957 474.288
718 0 36.1225 12.7344 460 146.574 265.998 473.909
719 0 42.0111 16.5432 695 134.593 264.806 464.845
720 0 42.0727 14.9741 630 138.854 264.111 462.311
721 0 42.067 14.9761 630 114.794 263.111 462.311
722 0 46.1432 22.3218 1030 124.887 263.38 454.666
723 0 47.2377 16.5969 784 135.647 263.469 452.353
724 0 48.3628 18.9402 916 130.96 263.462 451.075
725 0 47.0778 15.2089 716 141.038 263.771 451.976
726 1 0 0 0 -nan -nan -nan
727 1 113.571 20.0755 2280 130.086 264.883 413.566
728 0 115.177 20.0388 2308 130.745 266.172 415.493
729 0 122.373 20.511 2510 126.582 266.822 403.306
730 0 155.25 13.7005 2127 134.895 268.476 362.122
731 0 161.724 20.906 3381 89.0736 268.405 303.312
732 0 58.2213 25.4546 1482 117.874 273.13 344.749
733 0 52.1028 19.116 996 135.626 273.963 293.518
734 0 55.2854 21.0182 1162 131.976 274.182 291.022
735 0 56.0883 20.0577 1125 133.927 275.194 292.909
736 0 57.2496 23.3713 1338 128.131 276.721 292.701
737 0 60.3988 27.5668 1665 122.092 276.57 294.347
738 0 58.1294 20.6952 1203 136.091 275.953 294.856
739 0 60.1636 24.2672 1460 130.593 275.275 296.268
740 0 59.118 21.9561 1298 138.307 275.245 294.481
741 0 64.2736 19.417 1248 142.579 274.415 296.56
742 0 66.1482 21.1797 1401 139.859 273.438 297.268
743 0 66.2708 21.6083 1432 141.628 272.002 296.286
744 0 67.3146 20.6939 1393 145.317 270.134 295.345
745 0 70.1905 22.4104 1573 142.077 268.803 295.406
746 0 73.2689 23.2022 1700 140.842 267.005 295.629
747 0 76.2888 23.3324 1780 139.996 265.961 292.72
748 1 37.2142 13.8119 514 164.249 264.467 311.232
749 0 39.1034 12.3519 483 163.509 263.785 311.946
750 0 40.1236 13.4833 541 168.512 262.749 307.59
751 0 37.0946 14.3417 532 171.227 262.226 305.579
752 0 43.2699 17.6566 764 158.784 261.132 305.551
753 0 42.0456 15.1027 635 165.178 260.968 304.606
754 0 45.2888 18.5035 838 154.031 260.847 303.164
755 0 45.1788 18.7256 846 153.657 260.181 303.889
756 0 47.0847 17.7765 837 155.532 260.166 301.254
757 0 47.1377 17.4595 823 158.451 260.355 299.081
758 0 51.1899 18.3044 937 151.713 261.182 301.299
759 0 51.424 17.3265 891 153.73 261.398 298.758
760 0 51.2843 19.9476 1023 148.354 261.891 299.714
761 0 54.0604 18.2944 989 152.167 262.927 297.627
762 0 56.3477 20.5332 1157 145.515 264.691 297.92
763 0 57.3809 16.6606 956 155.003 265.857 298.154
764 0 61.6592 18.0833 1115 150.848 268.03 298.264
765 0 62.4349 16.9937 1061 155.619 268.976 298.37
766 0 64.5578 20.0286 1293 150.084 269.781 296.123
767 0 65.3004 18.2694 1193 154.939 271.742 298.728
768 0 69.3458 20.953 1453 147.939 272.899 298.548
769 0 67.3821 19.6195 1322 152.337 273.258 302.037
770 0 71.2209 16.2312 1156 158.826 273.638 302.765
771 0 73.3515 15.8961 1166 159.725 273.6 302.932
772 0 75.3218 19.8482 1495 152.484 273.59 302.916
773 0 78.283 19.57 1532 153.781 273.357 303.456
774 0 80.3927 21.9547 1765 150.766 272.448 301.48
775 0 83.3391 20.0866 1674 153.883 271.294 302.983
776 0 85.5166 19.1425 1637 153.921 269.831 307.635
777 0 88.3538 17.9845 1589 158.97 268.867 304.827
778 0 92.5288 22.2309 2057 150.955 266.869 300.912
779 0 94.2667 20.1556 1900 154.729 265.415 301.066
780 0 97.5047 18.7478 1828 159.368 263.538 297.274
781 1 47.2789 12.183 576 158.962 262.913 322.168
782 0 47.2286 13.6782 646 162.995 260.794 317.127
783 0 52.2241 13.6718 714 161.903 260.392 315.165
784 0 55.2751 17.3134 957 151.757 259.21 316.864
785 0 55.1931 16.0346 885 156.119 258.593 315.192
786 0 59.2685 16.9567 1005 153.739 258.043 313.775
787 0 61.2412 19.2844 1181 146.54 257.575 314.811
788 0 63.2339 16.3045 1031 155.729 257.162 312.077
789 0 65.4475 15.5392 1017 155.7 257.125 312.083
790 0 68.2092 16.6986 1139 153.474 257.146 310.244
791 0 71.2695 14.0733 1003 158.471 257.675 308.615
792 0 72.2199 16.4221 1186 154.018 258.724 306.15
793 0 74.2806 15.953 1185 152.154 259.354 309.752
794 0 75.2895 14.8493 1118 160.106 259.97 304.545
795 0 81.3136 16.9221 1376 153.104 261.838 306.528
796 0 82.2786 12.4212 1022 163.003 263.125 308.213
797 0 86.2665 19.6136 1692 146.765 265.48 308.351
798 0 90.2228 16.027 1446 152.943 266.465 310.855
799 0 93.3119 15.4428 1441 155.026 268.486 311.688
800 1 52.5384 13.8565 728 143.163 270.72 338.902
801 0 53.0752 13.6787 726 145.674 271.186 340.734
802 0 56.0305 14.3136 802 144.106 272.055 345.641
803 0 56.1796 13.4034 753 146.53 272.169 349.572
804 0 61.0853 15.6339 955 138.61 273.63 358.085
805 0 60.2819 14.2995 862 145.335 273.853 358.334
806 0 63.101 14.3579 906 144.474 274.191 365.024
807 0 65.0866 15.8712 1033 139.403 273.822 372.899
808 0 65.2047 14.4468 942 146.339 273.631 371.628
809 0 66.191 11.4215 756 152.086 273.325 376.84
810 0 71.128 15.2401 1084 145.741 273.156 380.191
811 0 73.0818 13.136 960 149.291 272.714 383.104
812 0 74.2684 12.9934 965 149.192 272.543 390.111
813 0 76.1193 15.8436 1206 146.541 272.202 390.226
814 0 80.0832 14.0604 1126 149.114 271.083 394.322
815 0 83.3007 14.5977 1216 148.437 269.859 397.386
816 0 86.2654 14.664 1265 145.119 269.138 405.34
817 1 48.17 10.6498 513 139.238 268.778 426.848
818 0 49.116 9.93566 488 140.088 268.25 431.643
819 0 49.0382 13.6628 670 137.567 266.406 433.531
820 0 51.1075 11.3095 578 138.692 265.401 439.611
821 0 51.1155 11.6794 597 139.327 264.983 443.714
822 0 56.2924 12.6838 714 138.287 263.466 452.102
823 0 57.2496 12.1748 697 139.28 262.931 457.504
824 0 58.0831 11.0187 640 139.803 265.778 463.18
825 0 59.1563 12.374 732 138.846 266.324 460.978
826 0 61.1198 11.2239 686 139.267 266.94 459.845
827 0 64.072 12.6576 811 137.433 267.272 456.969
828 0 66.1083 18.5151 1224 126.507 268.577 456.063
829 0 69.1885 12.8779 891 136.862 270.095 455.947
830 0 68.1484 9.71409 662 140.363 271.263 457.237
831 0 73.1645 12.8478 940 135.961 273.163 450.946
832 0 77.2523 14.4462 1116 133.134 274.003 451.603
833 0 79.064 14.5831 1153 132.215 276.314 451.446
834 0 83.3903 13.203 1101 132.173 277.44 452.271
835 0 85.2965 14.5844 1244 130.242 277.93 452.924
836 0 87.2535 14.4865 1264 125.794 279.316 454.558
837 0 87.1449 12.5653 1095 133.034 278.887 449.911
838 0 94.1874 12.3265 1161 128.724 279.56 451.109
839 1 53.1239 12.4614 662 123.958 279.296 474.29
840 0 52.0975 9.50141 495 130.18 278.545 475.18
841 0 53.1789 9.34581 497 130.044 278.954 475.089
842 0 54.2045 14.6667 795 122.726 278.2 472.473
843 0 56.1992 12.7226 715 123.434 277.4 474.669
844 0 58.1232 12.3875 720 127.849 275.114 473.447
845 0 57.0493 12.4629 711 129.93 274.44 469.94
846 0 64.1215 14.6909 942 125.003 272.841 471.717
847 0 66.0916 14.2378 941 126.066 271.352 467.718
848 0 65.1253 17.213 1121 121.744 269.568 471.509
849 0 70.0888 13.6541 957 128.562 268.478 468.296
850 0 70.0639 16.4279 1151 126.187 267.64 464.287
851 0 70.0515 13.9897 980 130.979 266.455 464.423
852 0 75.1291 15.0807 1133 128.631 265.509 461.804
853 0 73.0575 12.6065 921 135.696 264.345 457.672
854 0 81.1324 15.8753 1288 128.718 263.701 458.056
855 0 81.1448 15.4539 1254 127.693 263.511 460.105
856 0 84.1164 12.1617 1023 136.192 263.169 453.738
857 0 85.1902 14.2505 1214 134.481 263.212 448.946
858 1 43.133 8.69403 375 140.544 264.003 466.323
859 0 47.1027 11.0609 521 134.159 265.006 469.697
860 0 51.0709 11.3176 578 134 265.375 468.687
861 0 51.1218 12.0692 617 132.01 265.814 466.267
862 0 53.057 11.0447 586 133.406 267.386 461.497
863 0 54.1533 10.2302 554 133.892 267.668 465.334
864 0 55.0708 12.602 694 131.664 269.242 464.637
865 0 61.1028 15.8258 967 124.777 271.748 466.034
866 0 61.125 15.3292 937 127.83 272.642 461.45
867 0 61.0747 16.5371 1010 126.395 273.55 461.587
868 0 63.2595 15.9976 1012 127.627 274.366 457.484
869 0 63.0977 12.2033 770 135.105 274.952 460.375
870 0 64.0886 12.8884 826 134.062 275.421 461.752
871 0 72.1565 16.6582 1202 124.796 275.316 461.233
872 0 75.3197 21.7738 1640 117.03 275.259 452.813
873 0 83.1385 23.515 1955 112.158 275.047 450.62
874 0 83.2124 21.8838 1821 115.519 274.693 450.842
875 0 87.2765 20.7272 1809 117.753 274.328 449.348
876 0 89.1015 19.9884 1781 119.75 272.919 449.69
877 0 91.6156 28.7724 2636 108.901 271.685 446.459
878 0 93.3442 18.8442 1759 123.113 270.599 445.299
879 0 95.6073 22.0276 2106 118.552 269.572 445.729
880 1 43.0897 7.31033 315 139.59 268.143 475.044
881 0 44.2181 9.6793 428 136.68 266.797 474.593
882 0 49.0552 13.5358 664 127.678 264.883 473.794
883 0 51.1286 15.0014 767 128.696 264.027 470.519
884 0 51.3198 12.5293 643 130.249 262.748 473.467
885 0 53.0686 14.5284 771 129.575 262.127 468.118
886 0 52.1665 12.901 673 134.067 261.221 464.034
887 0 56.0562 18.9274 1061 123.859 261.041 463.597
888 0 57.0697 16.804 959 127.198 261.26 463.467
889 0 58.0544 19.4645 1130 124.236 261.33 461.798
890 0 59.0937 12.201 721 138.13 261.008 459.918
891 0 63.2102 14.3648 908 131.803 261.431 463.064
892 0 59.0791 10.5283 622 143.387 262.283 459.551
893 0 67.0844 16.7997 1127 128.925 263.002 460.038
894 0 69.1707 17.9122 1239 127.706 264.251 457.602
895 0 70.0764 18.6225 1305 128.022 265.379 454.467
896 0 71.0992 14.0789 1001 136.372 266.705 455.548
897 0 76.0957 17.2546 1313 129.695 268.588 451.443
898 0 78.0934 18.2218 1423 128.531 270.562 450.533
899 0 82.1988 16.6912 1372 130.305 271.558 449.525
900 0 80.2206 16.679 1338 133.387 273.763 448.505
901 0 84.1123 16.8941 1421 132.196 274.593 452.542
902 0 83.2017 16.9948 1414 130.62 275.055 458.441
903 0 93.3292 17.8937 1670 127.987 275.891 457.009
904 0 92.5419 18.6402 1725 128.75 276.489 455.857
905 1 49.1568 9.45953 465 131.387 277.404 479.12
906 0 51.1768 14.4401 739 120.078 276.773 481.302
907 0 54.2359 15.4695 839 126.057 276.702 474.821
908 0 55.2477 12.8874 712 129.681 276.07 474.483
909 0 55.0623 15.4189 849 124.385 275.137 476.708
910 0 56.1519 17.0252 956 124.492 273.143 473.688
911 0 59.0643 14.6959 868 127.12 272.021 472.995
912 0 60.2168 16.1583 973 125.387 271.506 473.702
913 0 62.0535 14.6648 910 127.11 270.448 473.312
914 0 66.1493 16.6593 1102 124.564 269.592 470.82
915 0 68.0777 15.4529 1052 126 268.605 468.067
916 0 68.1833 18.4649 1259 123.894 266.964 462.284
917 0 72.1286 16.2765 1174 126.775 266.233 463.258
918 0 73.1748 15.2785 1118 126.782 264.327 464.005
919 0 76.1322 18.1789 1384 124.342 264.102 457.614
920 0 79.0558 17.8482 1411 124.066 263.478 457.575
921 0 82.3117 17.9561 1478 123.275 263.175 456.958
922 0 82.0748 16.3509 1342 127.516 263.355 454.077
923 0 87.1439 18.4752 1610 122.757 262.981 454.533
924 1 43.0257 9.29676 400 134.992 263.112 468.992
925 0 46.0635 12.7867 589 129.08 263.318 468.472
926 0 47.0834 13.4017 631 125.502 264.493 468.903
927 0 50.0355 13.2906 665 125.162 265.582 469.436
928 0 52.1457 12.7527 665 129.37 266.917 464.084
929 0 53.0859 13.6948 727 128.308 268.257 464.956
930 0 56.1822 14.2572 801 126.136 270.526 463.285
931 0 59.1904 15.1376 896 125.009 273.219 463.921
932 0 60.1983 16.8277 1013 123.085 273.645 463.94
933 0 58.1253 10.6494 619 131.045 275.281 466.837
934 0 64.2596 16.6357 1069 124.31 276.837 463.262
935 0 66.1678 14.9317 988 126.673 277.507 464.273
936 0 68.3792 18.529 1267 122.718 277.985 461.417
937 0 70.4014 15.4116 1085 128.489 278.478 461.228
938 0 72.1823 14.5604 1051 130.062 278.919 462.244
939 0 76.1768 16.9868 1294 125.233 278.481 463.385
940 0 76.299 13.7485 1049 132.902 278.154 462.655
941 0 80.0915 16.4187 1315 127.961 277.295 461.998
942 0 80.2387 14.5566 1168 133.031 277.074 460.513
943 0 84.3206 13.6977 1155 133.206 275.679 462.729
944 0 87.4205 16.7352 1463 129.459 274.349 460.014
945 0 88.4958 19.8654 1758 125.646 274.022 456.266
946 1 48.1518 14.4751 697 126.855 273.238 479.247
947 0 51.1513 14.8774 761 127.074 271.715 477.262
948 0 49.1543 11.6368 572 134.717 270.974 475.766
949 0 52.0762 12.0016 625 133.464 269.656 475.522
950 0 50.052 10.2294 512 139.193 268.535 472.334
951 0 57.0214 11.8903 678 133.094 267.428 473.996
952 0 57.3324 15.4886 888 130.134 266.125 467.32
953 0 60.1538 16.009 963 129.867 265.333 464.209
954 0 63.1745 16.7156 1056 129.09 265.17 461.518
955 0 64.1405 13.486 865 134.921 264.797 461.89
956 0 68.1369 16.0119 1091 130.72 265.327 461.509
957 0 69.16 18.5657 1284 126.664 264.569 460.663
958 0 72.433 19.342 1401 126.226 264.765 455.607
959 1 38.183 13.1734 503 126.616 265.394 475.869
960 0 39.047 12.549 490 133.016 266.373 469.645
961 0 37.0754 8.60408 319 140.426 267.897 472.379
962 0 40.1725 13.4918 542 132.303 269.535 470.6
963 0 42.0986 14.4185 607 129.873 270.909 470.41
964 0 43.1962 12.0612 521 137.309 272.607 466.749
965 0 45.0392 11.8119 532 136.227 274.434 469.13
966 0 48.1034 13.8452 666 133.215 276.791 468.614
967 0 47.0514 13.8572 652 135.867 278.362 467.495
968 0 50.0394 13.6493 683 133.262 279.003 469.217
969 0 52.059 16.8271 876 122.848 280.148 468.221
970 0 54.1248 13.7275 743 130.497 279.657 470.704
971 0 55.0823 18.7174 1031 122.839 280.372 468.867
972 0 56.0494 16.4676 923 126.106 280.554 469.196
973 0 55.0886 15.3752 847 133.437 278.867 467.482
974 0 58.0759 14.9804 870 134.055 278.13 468.932
975 0 60.0969 17.3553 1043 129.897 277.661 469.122
976 0 62.1692 15.8439 985 132.978 276.426 469.708
977 0 61.1517 15.2898 935 135.916 274.645 470.21
978 0 66.149 20.6201 1364 125.927 273.339 467.414
979 0 66.2006 14.4259 955 136.639 272.156 468.944
980 0 68.1354 14.5152 989 139.78 269.939 464.079
981 0 71.3594 15.485 1105 137.49 268.572 462.601
982 0 75.3241 16.3825 1234 135.598 267.78 462.676
983 0 74.2714 15.6049 1159 139.833 266.479 455.64
984 0 79.2133 20.1103 1593 129.859 266.215 460.535
985 0 82.3534 19.8049 1631 131.77 265.218 451.56
986 0 83.3581 19.1823 1599 133.61 264.211 451.055
987 1 48.4066 12.0438 583 132.482 264.403 473.197
988 0 49.3439 10.4775 517 142.795 263.646 467.826
989 0 48.2936 13.7699 665 138.044 263.725 465.197
990 0 50.3375 12.1977 614 138.453 263.842 466.309
991 0 50.5022 14.2964 722 139.259 263.771 461.568
992 0 55.4707 16.5312 917 130.876 264.27 462.057
993 0 54.2006 12.0847 655 139.389 265.173 461.362
994 0 55.2403 15.2244 841 136.891 266.117 458.699
995 0 57.178 12.7846 731 141.211 267.599 458.951
996 0 59.1582 14.1992 840 138.924 270.089 458.21
997 0 61.0883 16.337 998 132.54 270.918 456.962
998 0 66.4175 15.5983 1036 130.591 272.891 458.332
999 0 67.1937 17.0254 1144 131.144 273.948 455.308
1000 0 68.5357 16.5169 1132 132.037 274.695 452.648
1001 0 71.2369 17.8559 1272 130.858 276.325 453.678
1002 0 73.3073 15.6192 1145 135.468 276.147 451.624
1003 0 76.3182 15.9857 1220 134.952 277.044 454.039
1004 0 79.4534 15.2039 1208 136.485 277.906 453.94
1005 0 83.4167 17.3946 1451 132.897 277.717 450.822
1006 0 86.1939 19.0733 1644 130.089 278.038 452.352
1007 1 44.2265 9.13479 404 137.606 279.446 475.735
1008 0 46.1902 10.3269 477 138.358 278.124 473.799
1009 0 49.1906 11.6079 571 139.222 278.739 472.38
1010 0 49.2771 13.4139 661 136.349 277.545 474.516
1011 0 50.0946 18.7645 940 128.24 275.183 477.019
1012 0 52.1279 13.4093 699 138.944 273.745 475.187
1013 0 55.1221 13.0075 717 140.87 272.609 475.335
1014 0 59.0737 18.0452 1066 129.392 271.452 475.566
1015 0 58.135 17.0637 992 131.576 269.938 475.223
1016 0 64.2939 18.9132 1216 127.184 268.609 471.929
1017 0 60.0658 12.5529 754 141.638 267.619 468.664
1018 0 64.0522 15.9714 1023 135.067 267.007 468.075
1019 0 68.125 14.1064 961 137.494 265.876 468.713
1020 0 71.1359 19.8072 1409 126.234 265.295 467.81
1021 0 71.0955 14.9376 1062 135.716 264.736 466.339
1022 0 74.0661 14.298 1059 135.576 263.932 464.631
1023 1 39.068 11.7744 460 136.672 264.083 476.943
1024 0 43.1258 13.5186 583 129.165 263.993 479.657
1025 0 43.028 12.9683 558 134.061 264.265 476.208
1026 0 45.1017 11.8177 533 133.402 263.788 475.537
1027 0 47.0793 14.1463 666 129.916 264.562 475.692
1028 0 49.0737 14.733 723 130.686 265.674 474.519
1029 0 47.0262 12.3123 579 137.23 267.541 474.434
1030 0 50.0722 16.4363 823 128.611 268.448 473.298
1031 0 52.1002 13.2629 691 133.85 270.418 474.172
1032 0 53.1592 16.4224 873 131.214 271.851 469.608
1033 0 53.1243 12.8943 685 136.874 273.762 473.428
1034 0 56.0285 15.1887 851 131.528 274.531 475.269
1035 0 59.0378 15.4477 912 130.86 275.499 474.993
1036 0 58.03 15.8883 922 131.672 276.324 475.347
1037 0 63.066 19.1863 1210 126.015 276.244 471.955
1038 0 62.0529 15.4868 961 134.907 276.204 475.444
1039 0 64.0829 18.4761 1184 131.261 276.713 473.688
1040 0 67.0553 16.2552 1090 135.867 275.665 474.044
1041 0 72.2434 16.5413 1195 135.035 275.278 472.974
1042 0 73.0984 16.1563 1181 138.688 274.099 470.603
1043 0 77.1245 15.4685 1193 138.111 272.678 471.662
1044 1 41.0738 10.5177 432 138.132 272.194 490.66
1045 0 44.0889 11.9304 526 138.03 269.194 488.622
1046 0 45.2344 16.7572 758 130.836 268.604 487.14
1047 0 47.0405 12.1172 570 139.477 266.802 485.598
1048 0 48.0124 13.9756 671 138.46 265.478 483.651
1049 0 46.0961 13.5586 625 140.976 264.227 481.411
1050 0 48.1082 15.9224 766 139.061 262.483 477.266
1051 0 46.0406 12.1632 560 149.502 262.345 476.286
1052 0 52.0756 14.671 764 141.815 261.864 475.886
1053 0 54.121 14.5784 789 141.304 261.719 475.001
1054 0 53.0622 15.6232 829 141.574 261.9 473.029
1055 0 56.1621 15.5443 873 139.016 261.641 471.612
1056 0 57.0634 15.7194 897 139.561 261.479 467.732
1057 0 61.0783 19.0903 1166 130.148 262.745 470.21
1058 0 57.1166 14.3916 822 145.291 262.506 464.071
1059 0 62.1583 17.4554 1085 137.3 263.058 463.684
1060 0 63.0471 12.6255 796 146.652 263.795 463.202
1061 0 65.0574 15.2942 995 142.189 265.12 460.551
1062 0 69.1839 17.7787 1230 136.947 265.829 459.593
1063 0 70.1602 14.0963 989 145.044 267.715 457.041
1064 0 74.0594 18.9713 1405 135.306 269.562 458.467
1065 0 75.0902 16.2072 1217 143.479 271.049 452.024
1066 0 79.1461 17.6004 1393 138.769 272.029 455.62
1067 0 82.1855 19.383 1593 136.356 273.741 451.23
1068 0 86.1384 15.568 1341 141.811 274.948 455.295
1069 1 45.3098 9.66679 438 144.123 277.205 472.263
1070 0 46.1324 13.743 634 142.402 277.492 471.181
1071 0 46.1135 12.3825 571 141.65 278.215 474.55
1072 0 48.0598 12.318 592 143.792 278.981 473.812
1073 0 48.0858 12.7481 613 143.571 278.498 475.858
1074 0 52.0955 13.9935 729 141.188 277.676 474.405
1075 0 51.1381 12.3978 634 144.71 278.834 473.94
1076 0 53.0189 13.2028 700 144.809 277.537 475.517
1077 0 56.0874 15.1193 848 140.7 276.966 474.106
1078 0 58.0637 15.5002 900 140.917 276.091 470.722
1079 0 57.0757 13.9289 795 146.468 275.153 470.086
1080 0 61.0804 15.9789 976 139.248 273.987 473.58
1081 0 63.059 14.0186 884 143.472 272.774 471.843
1082 0 63.1438 14.8233 936 142.931 271.314 470.872
1083 0 69.225 16.1936 1121 138.365 269.457 469.09
1084 0 71.2397 16.1286 1149 139.844 268.775 464.639
1085 0 72.1634 20.1626 1455 133.16 267.26 463.225
1086 0 74.1504 17.1543 1272 138.089 266.21 461.722
1087 0 73.141 13.8773 1015 145.245 265.65 459.781
1088 0 80.2444 17.9576 1441 137.019 265.584 455.818
1089 1 40.0928 11.0494 443 144.641 265.921 473.975
1090 0 41.0484 14.4464 593 141.55 264.862 470.366
1091 0 45.1072 12.7917 577 138.776 265.832 472.314
1092 0 44.0916 10.7504 474 144.922 265.53 470.43
1093 0 47.039 16.3694 770 135.112 265.488 469.606
1094 0 48.0592 14.6486 704 137.791 265.959 469.94
1095 0 48.0107 13.9969 672 141.71 267.4 466.498
1096 0 54.1472 17.1754 930 133.035 269.104 467.187
1097 0 54.1619 19.6817 1066 129.279 270.871 465.726
1098 0 55.1592 18.2381 1006 134.791 271.423 462.841
1099 0 56.1374 13.4848 757 141.444 273.822 465.515
1100 0 58.0729 16.6859 969 136.888 275.295 463.917
1101 0 60.0569 17.4834 1050 132.538 277.759 463.564
1102 0 62.1052 16.5042 1025 133.155 278.402 464.104
1103 0 63.1429 13.319 841 136.417 279.656 463.995
1104 0 66.1653 13.8139 914 134.56 279.786 464.997
1105 0 69.2021 17.4417 1207 131.125 279.338 460.814
1106 0 69.0738 14.4049 995 138.713 279.788 459.572
1107 0 73.2566 17.0497 1249 133.299 279.011 459.77
1108 0 76.0885 16.8488 1282 134.186 278.354 462.291
1109 0 78.2446 15.8989 1244 136.94 277.699 459.13
1110 0 82.3783 17.711 1459 132.017 276.148 461.589
1111 1 41.0872 13.7026 563 134.471 275.208 479.766
1112 0 45.1399 14.2889 645 133.38 274.133 480.529
1113 0 41.0577 12.592 517 141.017 272.426 479.582
1114 0 44.0471 19.3202 851 127.865 270.969 479.729
1115 0 45.0623 14.602 658 136.483 270.12 477.795
1116 0 47.0376 15.2856 719 134.608 268.147 479.449
1117 0 51.0344 16.9493 865 131.24 266.913 477.608
1118 0 52.0675 16.3634 852 130.459 264.927 478.055
1119 0 53.0634 15.1517 804 134.75 264.471 475.264
1120 0 57.23 21.4747 1229 121.835 263.471 474.369
1121 0 57.0808 15.5744 889 132.323 262.353 473.578
1122 0 56.068 15.9092 892 133.251 262.144 470.189
1123 0 58.3126 15.2111 887 133.413 261.804 472.531
1124 0 63.1546 18.3043 1156 128.358 261.567 467.32
1125 0 62.0507 17.8886 1110 130.492 261.668 465.576
1126 0 63.1882 15.6517 989 135.304 261.827 464.601
1127 0 66.1027 16.4139 1085 133.675 262.305 461.876
1128 0 70.1862 15.8863 1115 133.613 262.987 463.482
1129 0 71.1932 16.3499 1164 133.22 264.008 463.703
1130 0 72.1302 19.1736 1383 129.55 265.061 459.586
1131 1 37.0252 10.1552 376 138.886 266.598 478.673
1132 0 41.0263 11.2123 460 140.452 268.304 475.6
1133 0 42.1535 14.5421 613 136.838 269.586 472.581
1134 0 43.0373 13.0584 562 139.402 271.644 473.877
1135 0 44.0503 13.8251 609 138.429 272.363 474.512
1136 0 44.0965 12.6541 558 142.81 273.735 475.152
1137 0 47.0756 14.4236 679 139.517 274.196 473.082
1138 0 51.1776 16.5697 848 133.691 274.638 476.059
1139 0 52.0247 15.7041 817 136.343 274.688 476.062
1140 0 52.0966 16.4118 855 136.501 274.35 473.725
1141 0 55.2337 17.2902 955 134.568 273.942 475.737
1142 0 55.1846 14.0619 776 142.514 273.381 476.034
1143 0 58.0748 14.2058 825 141.65 272.328 475.265
1144 0 61.1381 19.5459 1195 133.595 271.089 473.398
1145 0 62.1984 19.0358 1184 135.099 270.084 473.398
1146 0 65.1345 17.1031 1114 138.744 268.134 472.146
1147 0 68.1371 19.857 1353 134.198 266.628 470.711
1148 0 69.158 19.9977 1383 136.124 264.792 466.833
1149 0 72.1493 17.4083 1256 140.574 263.764 467.107
1150 0 73.1051 17.3859 1271 142.345 262.354 466.619
1151 0 77.2609 19.0523 1472 138.465 261.439 464.585
1152 0 77.5472 17.7183 1374 142.333 260.405 463.015
1153 1 36.115 15.8937 574 143.397 260.794 479.265
1154 0 38.3575 13.3481 512 145.791 260.838 479.344
1155 0 39.0654 13.951 545 146.947 261.018 477.47
1156 0 38.0757 15.4692 589 147.698 260.798 475.419
1157 0 43.3134 14.0834 610 147.738 260.969 472.418
1158 0 42.2742 14.0748 595 149.358 261.289 474.466
1159 0 44.29 16.3468 724 143.68 261.912 472.186
1160 0 46.2541 15.6527 724 146.079 263.159 470.387
1161 0 46.2258 15.6406 723 146.219 264.337 470.163
1162 0 49.1259 17.0175 836 139.103 265.035 470.693
1163 0 50.0959 14.7318 738 142.923 267.077 469.52
1164 0 49.3659 15.0306 742 141.774 268.1 471.123
1165 0 53.401 16.5353 883 138.488 270.523 469.832
1166 0 56.3734 15.8763 895 138.766 271.978 467.515
1167 0 56.4873 17.827 1007 135.837 273.655 468.413
1168 0 58.4245 15.0622 880 142.303 275.161 465.766
1169 0 59.4646 15.9254 947 141.542 276.571 464.05
1170 0 63.2208 17.431 1102 137.391 277.156 462.893
1171 0 63.5959 16.7778 1067 138.651 277.513 463.473
1172 0 66.2644 19.3166 1280 133.112 277.76 461.013
1173 0 67.3635 14.3253 965 141.93 277.381 462.661
1174 0 69.3953 19.742 1370 131.095 277.947 462.969
1175 0 74.3003 17.4293 1295 134.13 277.703 462.998
1176 0 75.4652 18.3263 1383 133.121 277.038 461.291
1177 0 77.4684 17.2974 1340 134.762 275.893 462.186
1178 0 79.3591 15.9276 1264 137.85 275.163 460.021
1179 0 79.4352 14.8926 1183 140.303 274.084 459.948
1180 1 41.2601 14.1541 584 136.366 272.842 477.854
1181 0 41.263 10.9541 452 142.513 271.469 477.007
1182 0 46.1502 13.7594 635 135.071 270.778 476.213
1183 0 45.3786 12.4067 563 137.604 269.387 475.446
1184 0 48.367 15.4858 749 134.187 268.283 472.77
1185 0 50.3908 15.3004 771 134.665 266.074 470.454
1186 0 50.2393 12.4803 627 140.244 264.714 469.933
1187 0 52.5391 16.8446 885 133.934 264.252 463.558
1188 0 54.3526 16.2826 885 133.827 264.228 464.744
1189 0 55.1963 14.4575 798 138.13 263.393 462.506
1190 0 57.3484 15.2402 874 135.612 263.757 460.602
1191 0 59.3251 15.7606 935 133.012 263.775 459.473
1192 0 60.33 17.4872 1055 129.101 264.71 460.431
1193 0 58.476 13.7321 803 139.575 264.72 455.029
1194 0 60.3186 14.2742 861 137.674 265.246 453.57
1195 0 64.5269 14.6916 948 136.15 267.201 452.694
1196 0 68.0597 15.1485 1031 133.146 269.507 454.058
1197 0 68.3997 15.965 1092 131.436 270.769 451.79
1198 0 69.6143 15.4566 1076 131.318 272.158 452.131
1199 0 70.6431 13.8301 977 133.804 275.127 449.987
1200 0 73.2768 18.6417 1366 124.942 275.411 452.857
1201 0 74.5148 13.0578 973 133.383 277.061 450.964
1202 0 74.3386 18.335 1363 123.718 278.064 453.616
1203 0 73.5319 17.6114 1295 126.24 278.045 451.342
1204 0 77.4963 18.246 1414 122.827 278.685 450.879
1205 1 36.147 7.63549 276 133.38 279.739 474.62
1206 0 41.3352 10.306 426 127.695 280.056 475.676
1207 0 39.3456 11.4371 450 126.862 279.707 475.878
1208 0 36.2605 8.10799 294 133.823 278.459 474.112
1209 0 36.1748 11.6379 421 129.005 277.499 474.827
1210 0 38.4732 13.4899 519 126.206 276.963 475.767
1211 0 42.228 13.0482 551 124.644 275.762 477.824
1212 0 40.0567 12.3825 496 124.552 273.871 480.446
1213 0 41.2408 15.3004 631 119.892 273.403 478.403
1214 0 42.0378 11.1328 468 124.342 271.816 480.654
1215 0 42.0434 18.7425 788 115.358 270.037 478.967
1216 0 43.1102 16.2375 700 117.331 268.911 478.417
1217 0 41.0361 12.8911 529 122.155 267.807 479.938
1218 0 42.0375 9.82456 413 125.37 265.167 477.748
1219 0 42.0375 9.68183 407 125.44 265.228 477.963
1220 0 43.0654 13.5608 584 120.798 264.733 475.541
1221 0 42.1964 12.9158 545 121.939 263.615 474.035
1222 0 41.1476 11.0577 455 122.637 263.56 473.666
