time division length width area intensity CMx CMy
0 0 99.2546 12.5737 1248 139.244 137.599 425.002
1 1 55.3028 13.7064 758 128.645 139.245 449.81
2 0 58.6359 12.6714 743 127.046 139.892 452.017
3 0 61.5495 13.5501 834 126.89 140.279 451.936
4 0 62.2954 14.1584 882 121.391 139.998 459.207
5 0 61.1542 13.2779 812 127.655 137.68 453.7
6 0 63.1832 13.1839 833 127.708 137.377 453.387
7 0 64.3462 13.1942 849 129.06 136.872 452.191
8 0 66.2263 14.0579 931 127.651 135.584 449.792
9 0 68.2355 13.9956 955 127.412 134.38 451.557
10 0 71.3211 15.5774 1111 126.545 133.6 454.077
11 0 73.2548 14.8796 1090 131.141 133.23 447.918
12 0 77.2272 17.0277 1315 130.525 132.411 450.447
13 0 72.2739 12.1067 875 141.606 132.055 447.307
14 0 78.1541 15.3415 1199 137.389 131 447.394
15 0 80.1216 14.5154 1163 140.462 129.668 447.647
16 1 42.1087 10.3779 437 148.524 127.998 464.245
17 0 44.0866 12.4074 547 146.618 126.126 464.484
18 0 44.0169 10.5414 464 151.103 124.03 464.543
19 0 43.0287 10.9694 472 154.892 122.547 459.436
20 0 47.1293 15.7227 741 140.937 122.401 461.139
21 0 46.0515 11.0528 509 150.346 122.902 461.849
22 0 49.0754 13.5302 664 145.973 121.146 456.056
23 0 51.1101 13.0502 667 141.594 123.775 456.861
24 0 54.0948 14.7889 800 139.706 123.058 455.162
25 0 54.2056 12.8031 694 145.138 123.043 453.981
26 0 57.2562 15.1425 867 138.522 123.144 451.652
27 0 59.2602 15.2379 903 138.497 123.368 450.371
28 0 59.245 15.1743 899 137.864 123.572 449.502
29 0 62.3821 14.1226 881 138.779 125.326 448.958
30 0 64.3976 15.0472 969 134.008 126.324 448.737
31 0 68.1811 17.1308 1168 127.137 128.682 450.248
32 0 66.1279 12.4607 824 141.483 130.772 446.516
33 0 73.998 16.2842 1205 122.665 132.47 449.432
34 0 72.2191 20.2162 1460 118.062 133.466 449.381
35 0 79.0482 21.3034 1684 111.403 135.901 454.363
36 0 80.3311 14.3904 1156 123.979 136.28 448.804
37 0 81.1728 16.2739 1321 123.21 137.038 445.442
38 0 82.3531 18.3357 1510 118.739 137.068 451.923
39 0 83.2614 13.1874 1098 128.589 136.848 448.932
40 0 85.1814 14.0524 1197 129.519 136.541 446.693
41 0 88.2526 19.5122 1722 121.53 135.806 448.205
42 0 92.353 15.4408 1426 131.361 134.59 443.78
43 1 51.0457 12.7141 649 131.792 134.817 467.615
44 0 49.1468 10.5399 518 135.942 133.124 462.264
45 0 60.245 9.31197 561 131.13 133.075 465.854
46 0 54.1746 14.4163 781 128.757 131.767 458.694
47 0 55.1376 14.2734 787 137.986 130.257 458.264
48 0 58.1994 14.5706 848 136.116 129.564 466.121
49 0 59.0963 14.3833 850 134.967 127.671 467.494
50 0 60.1551 15.3104 921 136.46 126.232 462.489
51 0 62.1776 12.0783 751 141.896 124.794 463.332
52 0 63.1767 14.1191 892 139.832 123.316 458.953
53 0 66.2538 13.086 867 142.34 122.866 458.091
54 0 70.2092 13.0895 919 142.478 122.165 455.935
55 0 70.123 13.3195 934 143.396 120.996 453.488
56 0 72.2224 13.5277 977 143.302 120.544 450.724
57 0 76.2357 11.7268 894 145.159 120.277 451.246
58 0 81.2407 14.0447 1141 140.169 120.26 447.507
59 1 40.02 10.9695 439 145.251 120.298 464.601
60 0 43.043 11.9416 514 142.918 121.084 462.354
61 0 44.0604 9.14654 403 143.945 120.695 466.682
62 0 47.0395 12.9466 609 140.044 121.938 461.959
63 0 50.1139 12.6512 634 141.953 123.568 458.386
64 0 54.0504 13.3394 721 136.811 125.273 458.91
65 0 54.1044 13.7142 742 136.004 127.354 458.369
66 0 55.1256 14.2765 787 136.052 129.807 457.648
67 0 58.2179 14.6518 853 128.47 130.524 459.064
68 0 60.2467 16.1503 973 124.875 131.153 455.902
69 0 63.255 12.6947 803 125.635 132.21 456.975
70 0 66.2736 14.9532 991 121.957 135.374 457.214
71 0 67.3397 18.4438 1242 116.056 136.526 455.207
72 0 66.4731 12.8623 855 125.605 136.468 456.628
73 0 72.3488 15.7985 1143 121.585 136.332 455.379
74 0 75.4565 16.2345 1225 120.767 135.962 458.95
75 0 76.2348 17.7216 1351 122.736 134.64 453.241
76 0 78.3564 15.2636 1196 128.865 133.771 452.426
77 0 80.3778 14.3821 1156 133.254 133.412 453.497
78 0 81.2937 13.482 1096 137.636 132.807 453.234
79 0 84.255 13.7203 1156 136.23 132.32 452.012
80 0 86.3453 14.94 1290 136.074 130.814 449.408
81 1 49.1181 12.9077 634 134.659 130.762 471.24
82 0 47.1759 10.4078 491 140.442 129.56 472.23
83 0 50.0924 11.3989 571 140.443 127.977 465.548
84 0 53.155 13.0938 696 134.763 123.846 469.483
85 0 55.1409 12.3502 681 137.251 122.159 466.905
86 0 56.0639 11.4512 642 141.241 123.539 466.047
87 0 57.34 12.0684 692 142.392 121.574 461.834
88 0 60.3306 13.3763 807 138.618 121.307 459.788
89 0 60.5035 13.4868 816 138.69 120.768 458.075
90 0 62.3477 13.2483 826 139.153 120.042 459.699
91 0 63.3948 13.5027 856 138.206 119.898 457.856
92 0 65.6942 12.5886 827 140.993 120.027 453.052
93 0 68.4045 15.5691 1065 134.352 119.444 452.314
94 0 68.3862 13.7162 938 139.917 119.934 449.699
95 0 70.5311 11.4985 811 144.208 119.671 445.715
96 0 74.3608 15.4517 1149 134.728 120.617 448.561
97 0 77.4756 14.3916 1115 137.102 122.34 447.244
98 0 78.405 13.5323 1061 139.256 123.993 443.093
99 1 42.1439 8.1625 344 134.172 127.483 467.802
100 0 42.1971 10.8775 459 126.126 129.105 469.922
101 0 45.2083 12.9622 586 124.502 130.404 465.645
102 0 45.0998 14.8338 669 117.901 131.345 463.771
103 0 45.3116 9.99744 453 125.81 131.951 466.302
104 0 53.0602 13.6449 724 117.399 131.869 468.899
105 0 49.1712 11.0024 541 125.852 131.926 465.972
106 0 55.4196 13.7136 760 118.678 132.066 468.518
107 0 52.0449 15.8709 826 115.937 132.898 469.377
108 0 54.1066 12.3275 667 124.277 132.169 466.558
109 0 56.7423 17.3592 985 116.797 131.883 462.658
110 0 56.1674 12.9969 730 129.221 131.158 465.89
111 0 56.1469 11.8439 665 134.054 130.113 467.224
112 0 56.2114 9.65997 543 138.576 129.534 469.983
113 0 58.1405 10.767 626 140.22 128.149 465.016
114 0 64.0973 12.637 810 138.722 126.38 465.896
115 0 61.0309 10.6831 652 146.538 125.514 463.123
116 0 67.0997 14.0984 946 137.879 124.006 465.532
117 0 70.1706 17.828 1251 132.041 122.762 461.275
118 0 71.2208 14.097 1004 138.653 121.392 463.713
119 0 69.1603 12.3192 852 146.863 119.738 458.054
120 1 40.0647 10.3333 414 143.435 118.324 474.249
121 0 43.1133 10.1129 436 140.908 117.617 475.619
122 0 44.1433 13.4562 594 139.407 116.461 470.668
123 0 44.2054 13.7992 610 137.646 116.074 468.938
124 0 45.2369 12.2024 552 142.138 115.565 467.62
125 0 46.4569 14.7233 684 137.754 116.433 465.178
126 0 47.0836 12.7858 602 138.957 114.543 466.023
127 0 49.3606 15.64 772 129.53 117.549 467.569
128 0 49.0288 13.3595 655 140.444 116.73 462.415
129 0 50.1336 14.3018 717 138.294 119.212 462.693
130 0 50.2213 12.4847 627 141.139 119.718 458.821
131 0 54.1248 12.4896 676 140.189 121.454 459.996
132 0 54.1157 13.0461 706 137.673 123.341 460.592
133 0 57.1252 15.0547 860 132.522 125.516 458.221
134 0 58.1618 13.0498 759 133.174 127.437 461.914
135 0 58.1611 15.2335 886 128.042 128.7 460.081
136 0 63.2826 14.6328 926 126.87 130.654 460.861
137 0 59.1922 12.4847 739 132.796 131.085 459.229
138 0 63.0768 13.761 868 129.965 131.688 459.619
139 0 64.0902 11.7179 751 133.502 131.907 459.763
140 0 66.0942 11.8013 780 134.377 131.904 458.959
141 0 68.2925 13.6618 933 131.483 131.018 458.011
142 0 70.0973 13.7666 965 134.581 131.068 457.987
143 0 74.1525 13.6745 1014 131.557 130.166 461.681
144 1 41.2328 11.9807 494 133.024 130.04 475.773
145 0 41.2118 9.85154 406 137.929 129.379 475.404
146 0 39.1787 11.4858 450 140.564 127.642 474.873
147 0 39.0864 9.49178 371 143.391 127.243 474.628
148 0 43.1074 13.3156 574 132.866 125.181 474.941
149 0 46.2871 11.9904 555 134.863 122.508 468.858
150 0 45.3007 12.8254 581 134.169 120.792 468.902
151 0 49.09 12.141 596 132.738 119.366 473.599
152 0 48.1239 12.4055 597 134.494 117.399 470.908
153 0 49.0475 11.9272 585 135.079 116.019 470.715
154 0 53.069 12.5497 666 132.119 114.686 469.188
155 0 55.1327 15.7801 870 126.591 114.023 467
156 0 55.1267 14.4395 796 128.889 113.741 465.147
157 0 56.0354 14.0447 787 129.83 113.269 462.976
158 0 58.1912 14.418 839 128.849 112.31 460.801
159 0 58.1331 12.1273 705 133.498 112.569 458.579
160 0 60.1902 14.205 855 128.27 112.754 458.308
161 0 62.1424 13.5656 843 128.535 112.56 457.492
162 0 66.0717 11.7902 779 131.015 112.95 454.642
163 0 66.2059 12.3554 818 129.675 113.482 453.652
164 0 67.0868 14.1906 952 126.843 114.792 451.446
165 0 70.1585 13.4553 944 127.411 116.635 450.19
166 0 73.1107 12.9666 948 127.261 118.46 451.431
167 0 76.1635 15.4667 1178 122.774 120.308 447.368
168 0 77.1161 16.1056 1242 121.922 121.872 442.876
169 0 81.1994 14.6183 1187 121.682 123.528 447.785
170 0 83.2561 13.3444 1111 121.705 124.553 452.268
171 1 41.0268 10.6028 435 125.949 125.009 468.48
172 0 43.0224 9.15803 394 127.602 126.553 470.977
173 0 44.0438 10.6485 469 126.983 127.674 468.706
174 0 46.0366 12.4901 575 124.991 129.282 472.955
175 0 49.1574 18.0034 885 117.487 126.745 467.486
176 0 52.1583 12.1361 633 125.818 128.736 469.562
177 0 49.0479 11.7844 578 129.099 127.953 471
178 0 51.1464 13.999 716 126.859 127.691 469.186
179 0 51.113 11.2887 577 133.021 125.839 469.005
180 0 53.1509 13.885 738 128.821 125.401 466.694
181 0 54.0859 13.1827 713 130.509 123.854 468.046
182 0 60.2178 15.6432 942 125.058 122.617 469.051
183 0 62.2568 16.6086 1034 123.92 121.632 466.578
184 0 64.1905 15.4696 993 126.104 120.118 467.256
185 0 66.1709 14.795 979 128.221 118.323 465.206
186 0 70.0982 18.0604 1266 122.309 116.947 460.815
187 0 67.0865 13.1323 881 132.982 115.812 461.02
188 0 71.0518 17.9728 1277 124.852 114.756 456.905
189 0 71.2075 12.4285 885 134.041 114.779 458.435
190 0 74.1647 16.5442 1227 127.567 114.007 458.358
191 0 77.2343 16.2234 1253 129.54 113.305 450.864
192 0 80.2061 12.6798 1017 134.205 113.435 453.67
193 0 81.1096 14.0551 1140 133.111 112.967 452.451
194 1 43.0869 8.16954 352 138.398 114.406 466.716
195 0 46.1643 11.4374 528 130.032 114.456 467.413
196 0 51.4529 14.0322 722 128.17 114.861 465.193
197 0 45.0232 12.6379 569 136.188 116.33 463.253
198 0 52.2866 14.5161 759 131.27 117.614 462.528
199 0 50.2246 12.6233 634 138.121 118.211 460.068
200 0 51.3557 13.1631 676 134.621 119.496 455.99
201 0 57.3 15.1833 870 128.42 121.615 455.156
202 0 57.143 11.585 662 132.012 123.689 459.805
203 0 60.2249 13.2005 795 125.605 125.649 459.513
204 0 60.1678 15.4568 930 123.603 126.563 457.854
205 0 60.1362 11.9728 720 129.781 126.624 456.578
206 0 67.2134 16.0534 1079 120.22 126.719 458.474
207 0 68.336 15.3799 1051 121.903 127.991 457.202
208 0 70.2847 16.3336 1148 121.185 128.077 458.834
209 0 70.125 15.8003 1108 126.707 126.513 455.484
210 0 72.2244 14.2334 1028 127.63 127.131 459.191
211 0 75.1497 17.6315 1325 126.386 126.173 457.094
212 0 76.1384 13.8169 1052 134.202 125.625 457.738
213 0 78.1136 11.5217 900 139.879 123.721 453.949
214 0 83.0953 12.9129 1073 134.568 122.714 453.276
215 0 88.2189 17.2865 1525 124.959 121.386 457.725
216 0 86.1447 15.2302 1312 133.086 120.05 449.831
217 0 91.1312 15.3295 1397 131.214 119.35 451.615
218 0 92.1299 14.6749 1352 134.47 118.569 448.493
219 0 94.3569 12.5269 1182 138.749 116.763 446.434
220 0 101.18 17.0588 1726 130.152 115.57 446.109
221 0 100.192 12.8952 1292 140.372 114.135 441.818
222 1 56.2137 12.2568 689 134.112 114.045 466.8
223 0 55.1915 9.27679 512 137.125 112.947 464.008
224 0 60.2409 12.0848 728 132.835 112.141 462.102
225 0 60.2807 10.7497 648 134.73 111.603 459.523
226 0 60.3001 13.6484 823 131.395 111.16 453.238
227 0 63.0281 12.8356 809 136.14 112.174 457.07
228 0 65.1181 14.0975 918 133.952 113.054 455.426
229 0 69.1509 16.37 1132 129.098 113.612 454.51
230 0 72.1158 13.3674 964 132.552 113.788 458.252
231 0 74.0489 12.3837 917 134.714 115.067 452.461
232 0 75.0504 15.1365 1136 130.275 117.402 448.853
233 0 81.254 15.7161 1277 126.3 119.912 453.654
234 0 81.1182 16.1 1306 128.243 121.368 449.043
235 0 87.0713 17.3306 1509 125.571 122.914 446.482
236 0 86.1061 15.6319 1346 128.353 124.501 446.056
237 1 48.0549 11.7782 566 128.975 126.551 467.588
238 0 47.0661 12.0256 566 130.29 126.746 468.765
239 0 50.0769 9.76497 489 130.644 128.509 467.464
240 0 52.0835 10.5024 547 126.6 128.075 472.989
241 0 52.1411 12.0826 630 127.61 127.389 468.837
242 0 54.0911 14.4571 782 123.721 126.254 469.234
243 0 56.0893 12.5692 705 129.902 125.226 470.156
244 0 56.1728 12.8354 721 132.008 124.799 468.101
245 0 59.0424 11.6696 689 133.743 124.086 467.704
246 0 63.19 17.1546 1084 124.352 123.094 469.236
247 0 63.1228 13.9094 878 131.542 122.128 463.965
248 0 67.0782 16.2944 1093 127.331 121.77 465.942
249 0 68.0603 14.3549 977 132.136 119.385 464.428
250 0 71.2355 15.2593 1087 130.515 117.412 461.78
251 0 73.2031 12.841 940 136.684 115.823 462.264
252 0 76.0817 14.0901 1072 134.948 114.181 460.198
253 0 80.1408 15.348 1230 132.308 113.063 459.741
254 0 79.1277 15.0643 1192 136.926 112.223 451.402
255 0 83.0648 15.6143 1297 135.372 111.032 454.335
256 0 86.2151 16.3544 1410 132.833 110.805 454.16
257 1 49.0581 11.5985 569 132.67 111.506 473.851
258 0 47.0774 11.8953 560 135.871 110.571 469.82
259 0 51.0676 14.0794 719 132.026 110.114 468.962
260 0 51.076 11.2382 574 136.622 109.183 468.03
261 0 53.0781 13.3954 711 133.174 110.142 465.211
262 0 54.0538 12.5431 678 131.322 110.686 464.863
263 0 56.0683 13.3944 751 132.698 111.891 462.079
264 0 55.1104 13.6272 751 130.465 111.68 462.47
265 0 58.0982 16.4032 953 125.178 112.681 461.63
266 0 59.0879 14.0638 831 129.011 114.923 461.26
267 0 60.0557 16.9176 1016 124.223 116.729 458.813
268 0 61.082 14.5378 888 128.536 118.975 455.812
269 0 64.077 13.2185 847 129.94 120.463 457.29
270 0 64.2214 16.3653 1051 124.644 122.442 457.48
271 0 69.0931 14.8495 1026 122.223 123.143 457.975
272 0 70.245 13.0828 919 127.268 124.259 458.979
273 0 69.1565 11.1197 769 133.285 123.59 459.878
274 0 76.0982 14.0476 1069 124.558 124.087 461.73
275 0 76.0521 15.7392 1197 124.915 123.84 458.46
276 0 79.0701 12.7735 1010 129.255 123.688 461.77
277 0 82.0963 17.5526 1441 123.664 124.291 454.051
278 0 87.2949 14.136 1234 128.378 123.339 454.908
279 0 84.0687 11.2765 948 135.285 122.766 454.03
280 0 91.1416 14.9548 1363 127.898 121.654 455.145
281 0 92.2065 14.7712 1362 129.313 121.051 451.899
282 0 95.2914 15.4473 1472 126.609 120.803 452.784
283 1 50.0371 10.2924 515 129.029 120.282 476.682
284 0 49.0355 10.5026 515 130.101 118.734 475.002
285 0 48.0154 9.93431 477 132.992 116.172 469.398
286 0 50.0451 13.3879 670 126.851 114.973 470.239
287 0 55.0415 14.589 803 125.933 114.735 469.36
288 0 57.1071 13.571 775 126.009 113.694 469.566
289 0 58.0539 11.2654 654 132.021 113.349 468.894
290 0 63.0796 18.2943 1154 120.994 112.794 465.062
291 0 63.1348 15.0155 948 127.334 112.566 463.011
292 0 63.2794 14.1278 894 130.336 112.034 461.852
293 0 64.2762 12.8352 825 134.299 111.761 458.715
294 0 66.1866 12.9029 854 134.233 111.597 459.52
295 0 69.3609 18.4254 1278 124.329 112.607 458.025
296 0 73.3399 15.0396 1103 130.14 113.277 456.484
297 0 73.3761 18.0304 1323 126.937 114.283 453.514
298 0 77.3359 14.9349 1155 132.23 115.515 452.641
299 0 79.2789 16.5618 1313 129.011 117.004 453.417
300 0 80.4388 15.9376 1282 131.615 118.527 450.584
301 0 80.4435 13.1397 1057 137.829 120.121 449.697
302 0 85.2708 16.6645 1421 128.366 122.189 451.635
303 0 86.4932 12.9028 1116 135.51 123.724 453.207
304 0 91.4343 15.9459 1458 128.73 124.485 447.823
305 0 93.4678 15.5348 1452 126.528 125.364 452.57
306 0 95.3991 23.1134 2205 114.838 125.376 454.1
307 0 99.5312 17.5523 1747 122.93 126.908 451.554
308 0 100.295 16.2221 1627 126.323 126.588 449.941
309 0 103.263 17.5474 1812 123.533 125.935 448.152
310 0 108.485 15.947 1730 126.76 125.056 450.181
311 0 108.396 14.4839 1570 131.673 124.318 444.368
312 0 116.431 17.4696 2034 125.931 123.806 447.273
313 0 118.324 18.7367 2217 125.883 121.803 441.822
314 0 123.134 17.1358 2110 127.714 119.199 443.02
315 0 127.13 14.9926 1906 133.52 118.213 438.601
316 1 74.1205 11.9265 884 131.766 117.39 469.15
317 0 74.1367 15.1207 1121 132.527 115.921 462.508
318 0 74.1386 13.6096 1009 134.911 114.781 461.236
319 0 78.1076 16.2212 1267 130.352 113.221 462.219
320 0 82.1583 17.4541 1434 130.745 112.014 458.149
321 0 82.0634 15.7683 1294 133.396 111.984 459.957
322 0 85.0791 15.1036 1285 136.505 110.255 452.633
323 0 88.1028 15.3571 1353 134.679 110.392 456.303
324 1 49.0814 10.1872 500 141.542 110.022 470.626
325 0 48.0174 8.83014 424 144.406 109.991 470.349
326 0 51.0238 13.8563 707 136.614 110.355 467.372
327 0 53.0652 12.871 683 135.239 109.764 468.873
328 0 54.0268 14.3632 776 136.539 110.153 463.617
329 0 57.1019 13.0644 746 134.16 110.613 464.861
330 0 56.086 15.4049 864 131.792 112.175 462.505
331 0 58.0323 12.6654 735 135.396 113.882 464.465
332 0 61.1027 17.3151 1058 126.527 114.957 462.047
333 0 61.0348 14.5818 890 134.037 116.296 457.109
334 0 64.125 15.5633 998 130.354 120.24 460.161
335 0 65.1615 12.9064 841 134.69 122.658 460.212
336 0 68.1265 12.6529 862 135.722 123.727 459.241
337 0 70.1003 15.3209 1074 129.648 124.412 459.523
338 0 71.1392 12.4826 888 132.878 126.137 459.311
339 0 74.2772 13.3688 993 131.679 126.938 461
340 1 36.1593 8.84972 320 131.225 127.941 479.619
341 0 39.1246 9.4314 369 135.545 127.997 478.022
342 0 40.0646 9.98388 400 136.26 128.132 475.5
343 0 44.0892 9.07253 400 137.772 127.482 476.555
344 0 43.0887 12.0449 519 130.486 126.68 478.372
345 0 45.2414 15.9367 721 126.595 125.558 475.216
346 0 48.3627 12.5096 605 131.916 124.833 475.96
347 0 48.3611 12.6548 612 134.711 120.464 475.729
348 0 49.0961 15.6631 769 130.831 118.935 475.48
349 0 51.1033 14.4022 736 132.921 117.583 471.235
350 0 52.2117 12.4876 652 138.509 115.721 475.034
351 0 53.103 14.5378 772 135.487 114.269 471.286
352 0 54.068 13.9454 754 136.601 113.011 472.548
353 0 56.1207 12.384 695 141.022 111.623 467.786
354 0 59.175 14.1107 835 137.92 110.878 469.747
355 0 59.1888 14.0567 832 137.96 110.083 468.994
356 0 62.0554 15.6151 969 134.313 109.413 467.068
357 0 65.1031 17.4493 1136 130.526 109.21 465.569
358 0 62.0469 12.7645 792 143.266 108.687 462.606
359 0 67.1002 14.456 970 139.32 108.823 461.337
360 0 67.1171 14.1544 950 141.806 108.904 458.123
361 0 72.1361 15.5678 1123 137.705 109.815 458.411
362 0 74.3549 16.2195 1206 135.891 109.931 458.279
363 0 75.2358 13.8498 1042 143.848 112.293 455.399
364 0 79.2619 15.6317 1239 138.785 113.19 453.814
365 1 40.0296 11.7663 471 144.386 113.741 471.07
366 0 42.0295 11.0399 464 146.631 114.787 470.567
367 0 46.1608 13.258 612 141.887 117.449 468.606
368 0 47.1377 12.7923 603 140.643 119.3 470.395
369 0 45.096 12.3071 555 142.84 120.973 468.162
370 0 46.1334 12.9191 596 142.639 121.971 470.082
371 0 49.2181 11.8656 584 144.188 124.08 471.534
372 0 51.2797 13.8456 710 139.566 124.673 471.375
373 0 51.0727 13.4906 689 141.389 124.567 473.473
374 0 53.0966 16.2157 861 136.427 124.625 471.354
375 0 53.2255 18.694 995 132.839 124.794 472
376 0 56.1716 15.1322 850 137.066 125.358 475.707
377 0 57.362 14.6787 842 139.969 124.916 472.834
378 0 57.3001 14.7644 846 138.8 124.144 473.606
379 0 61.2536 19.0519 1167 131.233 123.124 471.894
380 0 63.4403 14.8801 944 138.696 122.118 470.264
381 0 65.2831 15.2873 998 137.043 121.415 471.395
382 0 67.4081 12.9361 872 143.315 120.67 468.32
383 0 69.3562 16.1341 1119 136.348 118.56 467.628
384 0 72.3628 18.7804 1359 131.45 116.351 465.314
385 1 36.2307 8.52869 309 139.553 116.89 485.644
386 0 38.1047 14.6176 557 130.422 115.205 483.131
387 0 38.0944 12.7315 485 136.959 114.934 479.748
388 0 40.1009 11.5459 463 138.464 114.505 479.935
389 0 40.0609 10.3842 416 139.327 113.688 478.678
390 0 39.0539 10.7288 419 139.871 113.205 475.067
391 0 41.1258 10.6016 436 138.007 109.372 473.658
392 0 44.3239 15.3642 681 126.244 111.965 475.993
393 0 44.1509 11.7778 520 136.975 111.508 471.631
394 0 45.2268 11.6524 527 135.721 112.548 472.486
395 0 46.0663 13.4589 620 133.273 112.794 471.397
396 0 50.3768 16.4957 831 123.129 113.478 472.961
397 0 50.1318 17.6734 886 123.222 114.793 469.114
398 0 53.1494 14.4686 769 128.86 115.52 468.072
399 0 54.2337 14.4928 786 129.34 117.551 467.248
400 0 55.2362 16.4566 909 125.367 118.933 465.469
401 0 54.1673 13.9383 755 130.865 121.274 467.193
402 0 58.2497 14.8327 864 129.007 123.019 465.957
403 0 60.1964 17.1273 1031 124.452 124.706 462.953
404 0 62.2181 15.3492 955 127.013 126.043 464.906
405 0 62.3829 15.9339 994 126.859 125.674 464.319
406 0 64.1969 16.2313 1042 127.965 126.032 463.301
407 0 67.0887 15.7404 1056 127.439 126.236 466.686
408 0 70.088 15.6803 1099 128.189 126.038 462.305
409 0 71.3427 16.1614 1153 127.795 126.164 459.689
410 1 37.0832 9.7079 360 136.331 126.314 480.517
411 0 36.0607 7.70922 278 140.888 125.525 481.759
412 0 39.0325 10.8371 423 133.749 124.752 482.028
413 0 39.0347 11.5026 449 132.508 123.661 482.94
414 0 39.2278 10.2478 402 137.119 121.726 481.652
415 0 40.2272 10.6147 427 137.958 121.689 477.607
416 0 43.3928 17.0766 741 124.873 120.121 475.003
417 0 44.2903 12.8696 570 134.347 118.196 475.87
418 0 47.148 12.026 567 133.55 117.628 479.434
419 0 48.194 16.1638 779 125.009 116.345 480.209
420 0 50.1749 14.0708 706 130.508 114.633 474.144
421 0 52.1735 15.1226 789 126.807 113.498 475.743
422 0 51.2441 12.9186 662 132.831 113.221 471.276
423 0 55.1324 14.3291 790 129.687 112.753 471.677
424 0 58.2088 16.3377 951 127.111 112.161 469.637
425 0 59.3547 15.1462 899 132.204 111.601 467.042
426 0 58.1898 13.8684 807 137.914 110.921 464.066
427 0 61.245 13.5032 827 138.325 111.423 463.798
428 0 64.2712 15.5124 997 133.497 111.632 463.927
429 0 66.269 15.0296 996 136.846 112.372 460.581
430 0 69.3308 15.0006 1040 137.42 113.33 459.29
431 0 72.2275 16.1434 1166 134.16 114.966 460.561
432 0 73.3367 14.8084 1086 139.577 116.11 457.987
433 0 75.2086 16.4077 1234 137.932 117.925 456.31
434 0 79.3645 15.1201 1200 139.935 119.979 455.882
435 0 80.3315 14.1414 1136 142.821 121.846 453.942
436 1 42.017 10.5196 442 140.885 124.948 476.45
437 0 50.0375 13.31 666 131.105 126.779 477.526
438 0 44.0338 12.8311 565 141.488 126.214 474.68
439 0 44.0295 11.9692 527 143.605 127.355 474.706
440 0 47.2048 12.88 608 139.183 124.929 472.447
441 0 51.0868 13.9175 711 139.477 123.914 476.295
442 0 51.0677 16.3313 834 136.628 123.586 474.987
443 0 53.1522 15.8413 842 136.208 123.151 476.936
444 0 54.0395 16.2289 877 136.749 123.048 475.651
445 0 56.0712 15.1415 849 140.042 122.645 474.264
446 0 57.0337 15.4119 879 138.72 121.391 475.493
447 0 60.0371 16.2233 974 136.17 119.794 474.339
448 0 60.0664 13.2187 794 142.86 118.903 473.224
449 0 60.0561 13.7538 826 143.218 117.728 469.28
450 0 66.0734 16.1941 1070 137.465 117.033 470.063
451 0 67.1688 14.605 981 140.456 116.008 469.623
452 0 70.1729 14.8633 1043 140.232 113.779 466.898
453 0 73.1715 15.3202 1121 137.287 112.942 466.63
454 1 40.0183 9.72056 389 144.702 114.021 480.653
455 0 38.0403 10.4626 398 144.015 113.867 480.432
456 0 42.0675 15.1899 639 134.207 113.036 477.75
457 0 42.0535 12.7457 536 138.909 112.784 476.739
458 0 46.0782 13.6941 631 136.718 113.257 473.846
459 0 43.0096 12.8809 554 141.556 112.601 471.318
460 0 47.069 14.6593 690 135.028 112.42 468.712
461 0 49.1168 14.72 723 131.668 112.582 471.599
462 0 49.1739 12.1203 596 139.978 113.055 466.951
463 0 51.0659 12.7286 650 136.886 114.406 467.935
464 0 53.2711 16.1626 861 131.343 115.625 466.394
465 0 54.1803 13.5289 733 138.07 116.933 465.236
466 0 53.1402 14.3018 760 139.212 118.204 462.034
467 0 58.0885 17.3356 1007 130.884 120.501 462.095
468 0 59.2043 15.4718 916 132.669 122.75 464.823
469 0 62.2229 14.3677 894 135.791 124.535 463.535
470 0 70.2802 18.1274 1274 126.041 125.24 462.17
471 0 67.1193 18.5193 1243 125.735 126.885 464.953
472 0 68.1031 14.1403 963 137.44 126.646 463.136
473 0 73.2012 16.7484 1226 132.493 126.555 463.173
474 0 72.2373 12.9296 934 141.243 126.978 466.574
475 0 76.2296 17.8671 1362 132.731 126.148 461.548
476 0 75.2367 14.1952 1068 141.565 125.991 462.134
477 1 39.0774 10.5176 411 147.443 125.472 478.796
478 0 42.0565 12.3643 520 140.683 125.267 479.585
479 0 45.2281 13.5314 612 138.549 122.843 478.176
480 0 45.0516 13.2515 597 134.938 120.554 480.482
481 0 43.0486 12.753 549 138.417 120.279 481.86
482 0 47.1338 11.775 555 139.805 118.85 481.18
483 0 48.1495 13.0219 627 139.537 116.99 478.295
484 0 48.1551 13.1866 635 138.89 115.387 478.483
485 0 52.0337 13.1069 682 138.416 114.859 477.139
486 0 52.1113 11.13 580 143.29 112.819 473.829
487 0 54.1263 14.2075 769 138.068 111.932 473.83
488 0 57.0361 15.4463 881 135.635 110.96 470.712
489 0 56.1928 14.557 818 138.198 110.834 469.643
490 0 57.0725 12.8784 735 140.933 110.518 469.629
491 0 60.0616 16.2666 977 134.507 110.318 466.275
492 0 62.2502 13.5743 845 138.828 110.2 464.822
493 0 65.1428 17.1777 1119 130.707 110.157 463.217
494 0 65.1601 13.1983 860 140.922 110.492 459.906
495 0 68.1622 13.1158 894 138.577 111.036 460.281
496 1 37.0306 11.8821 440 139.186 111.732 474.982
497 0 32.033 9.73995 312 146.231 115.772 473.846
498 0 36.0588 10.1778 367 142.948 116.796 473
499 0 39.0645 11.545 451 134.426 118.743 475.102
500 0 42.0825 13.1171 552 131.143 121.203 473.214
501 0 42.0295 12.7292 535 133.292 121.927 472.064
502 0 41.0087 11.461 470 138.404 123.372 471.594
503 0 46.0425 11.2505 518 136.851 124.185 471.004
504 0 47.0675 15.6796 738 128.442 126.701 472.836
505 0 47.0826 15.0799 710 129.845 127.696 475.437
506 0 50.1531 14.9941 752 130.178 127.188 474.693
507 0 49.2377 13.384 659 134.429 126.354 474.731
508 0 53.241 14.3498 764 132.842 126.795 474.381
509 0 51.1035 13.7955 705 134.865 126.864 476.813
510 0 51.1122 14.5562 744 136.587 126.278 474.415
511 0 56.2429 14.2774 803 132.813 125.781 478.344
512 0 56.3168 15.3063 862 134.614 124.397 474.426
513 0 60.1243 14.8027 890 133.976 123.669 475.739
514 0 62.1941 13.6669 850 138.958 121.888 469.88
515 0 65.2175 15.5633 1015 132.863 120.967 475.279
516 0 63.2299 15.2143 962 139.274 119.239 468.744
517 0 68.1986 15.3376 1046 138.712 117.891 469.248
518 0 71.1138 15.5666 1107 137.316 116.067 468.717
519 0 74.1881 16.3099 1210 136.374 114.336 465.308
520 1 37.0786 8.06395 299 149.926 114.515 482.736
521 0 36.2045 10.2197 370 144.805 111.549 480.235
522 0 39.0501 13.4955 527 138.577 110.894 480.397
523 0 42.0079 13.6879 575 139.704 110.555 477.353
524 0 43.0921 12.276 529 142.673 109.887 474.221
525 0 44.1215 11.6043 512 140.633 110.094 476.033
526 0 45.0754 13.8435 624 140.758 110.228 469.793
527 0 47.0346 12.9479 609 143.376 110.402 471.759
528 0 49.0988 15.1531 744 138.188 111.802 470.183
529 0 50.0382 12.1307 607 146.768 112.937 470.796
530 0 53.1867 17.5608 934 133.193 115.47 467.458
531 0 49.1437 12.8806 633 145.877 116.84 464.291
532 0 53.1584 14.5226 772 139.938 118.276 464.677
533 0 57.1713 14.4128 824 138.039 120.613 465.737
534 0 58.1936 15.4313 898 137.552 122.294 464.451
535 0 62.1773 16.2278 1009 134.822 123.676 464.192
536 0 63.1042 16.9878 1072 132.595 124.801 464.694
537 0 65.2434 14.3156 934 137.558 126.317 465.351
538 0 65.2164 14.5362 948 139.041 126.64 463.722
539 0 64.1556 13.6699 877 141.259 126.623 463.027
540 0 70.24 17.2409 1211 133.55 127.039 462.691
541 0 73.2464 15.441 1131 137.58 126.88 463.303
542 0 73.1863 16.1779 1184 137.586 125.26 461.433
543 0 79.34 17.3683 1378 134.148 124.935 459.239
544 0 78.224 14.3434 1122 141.815 123.778 458.922
545 0 84.2206 15.0438 1267 139.864 122.541 458.863
546 0 85.173 16.2728 1386 138.749 121.628 456.82
547 0 87.1895 13.9581 1217 142.92 120.991 458.511
548 0 87.2467 12.7225 1110 148.357 118.974 454.85
549 0 91.2559 15.4839 1413 140.477 118.067 454.721
550 0 95.2749 15.7964 1505 143.031 116.959 448.211
551 0 98.3654 15.4221 1517 142.041 115.938 450.506
552 0 101.353 14.2176 1441 142.525 114.677 452.754
553 0 101.313 16.0197 1623 140.977 113.375 447.315
554 0 105.149 13.809 1452 146.981 112.758 444.185
555 0 108.154 15.7368 1702 145.286 111.77 436.927
556 0 113.362 18.2601 2070 138.491 111.33 436.567
557 0 117.29 15.9349 1869 143.927 111.035 433.518
558 1 56.2712 14.5901 821 145.139 110.613 460.071
559 0 61.38 12.6425 776 146.901 110.629 458.521
560 0 63.5783 15.5399 988 143.345 110.557 453.566
561 0 69.2407 13.287 920 146.248 111.678 454.672
562 0 67.2035 15.0439 1011 139.835 112.857 452.226
563 0 70.1605 15.5216 1089 138.725 113.941 450.863
564 0 74.1933 14.1253 1048 141.547 114.867 447.151
565 0 75.2291 13.9308 1048 141.397 117.028 446.406
566 0 78.2994 15.9771 1251 137.115 118.497 446.184
567 0 82.229 14.8731 1223 138.2 121.292 444.989
568 0 85.4792 13.8396 1183 138.132 122.859 442.722
569 0 87.3619 16.2657 1421 134.893 124.531 441.236
570 1 45.1704 11.6005 524 139.132 126.198 463.552
571 0 45.1917 12.8785 582 137.034 126.777 464.077
572 0 48.3284 10.9253 528 141.598 127.299 465.678
573 0 49.1446 15.0372 739 134.204 128.323 463.327
574 0 52.311 11.4507 599 141.972 126.968 463.265
575 0 54.1562 11.7069 634 138.226 125.771 470.308
576 0 56.0848 12.8199 719 136.172 125.064 470.563
577 0 58.268 11.5672 674 138.76 124.451 471.687
578 0 58.0942 11.9633 695 140.144 123.882 471.607
579 0 63.2789 14.7284 932 134.004 123.218 470.91
580 0 64.215 15.5571 999 132.959 122.551 468.506
581 0 67.2636 12.8599 865 136.26 121.073 469.809
582 0 70.2196 14.6398 1028 134.85 119.842 465.301
583 0 73.3391 15.5579 1141 131.521 118.057 466.543
584 0 73.378 16.3128 1197 133.828 116.614 458.109
585 0 77.5694 16.5787 1286 129.835 114.904 464.379
586 0 78.8418 13.7871 1087 135.205 113.973 463.428
587 0 81.3898 15.9111 1295 133.849 112.529 457.758
588 1 43.3335 13.3153 577 128.562 111.222 478.14
589 0 45.4633 11.1298 506 137.04 110.826 473.994
590 0 46.5446 12.0959 563 134 110.584 473.419
591 0 47.4262 13.0519 619 133.821 110.145 471.344
592 0 47.557 11.4389 544 136.862 109.506 471.149
593 0 53.2844 15.8771 846 127.95 109.339 469.593
594 0 52.4017 17.6903 927 126.783 110.393 471.879
595 0 54.1881 14.0252 760 134.15 111.654 470.216
596 0 54.2549 15.9617 866 131.169 112.997 471.343
597 0 56.23 17.5351 986 126.456 113.839 470.374
598 0 59.475 14.5944 868 129.931 115.331 469.71
599 0 60.3748 16.5963 1002 126.787 116.768 469.158
600 0 60.2489 14.5397 876 130.443 118.137 466.053
601 0 62.3604 16.0358 1000 127.105 120.228 467.807
602 0 65.2922 14.0905 920 131.366 120.661 464.437
603 0 68.3296 13.2593 906 133.733 120.291 464.445
604 0 67.0948 12.9071 866 135.353 121.105 461.436
605 0 71.1328 17.137 1219 126.681 119.693 460.99
606 0 71.3895 13.4193 958 131.983 119.768 463.951
607 0 73.3952 14.0745 1033 129.814 119.306 463.793
608 0 78.3751 13.2057 1035 131.62 119.373 459.342
609 0 82.4555 17.9127 1477 123.093 118.687 459.834
610 1 40.0705 9.55815 383 132.345 117.859 477.655
611 0 45.1468 11.3186 511 126.83 116.44 478.918
612 0 47.1584 11.3023 533 128.501 115.765 476.908
613 1 95.6438 15.0245 1437 128.069 114.625 453.948
614 1 52.0819 12.3075 641 125.306 113.378 475.357
615 0 53.0693 12.1539 645 127.509 111.984 472.836
616 0 54.0878 12.3318 667 126.567 110.778 474.009
617 0 54.367 13.648 742 122.849 111.925 476.14
618 0 55.4506 14.3732 797 122.472 110.955 474.095
619 0 58.4196 12.8895 753 125.628 108.955 467.764
620 0 59.4538 11.3534 675 126.447 108.853 471.378
621 0 61.3825 15.7374 966 122.459 107.369 464.718
622 0 63.3761 12.6704 803 127.303 107.349 465.562
623 0 68.4576 14.9582 1024 123.451 106.769 459.854
624 0 72.2914 17.9966 1301 118.091 106.822 460.302
625 0 70.2975 17.0419 1198 123.142 107.116 453.716
626 0 72.2744 13.3242 963 128.755 107.88 458.165
627 0 74.3221 13.428 998 129.96 108.262 454.698
628 0 78.2459 13.2403 1036 130.791 109.474 453.045
629 0 81.4749 16.6554 1357 121.86 111.874 452.432
630 0 83.044 13.3303 1107 127.771 111.095 449.823
631 0 85.1754 12.0692 1028 131.115 112.483 448.285
632 0 90.1116 15.2145 1371 126.67 113.782 444.767
633 0 91.1117 10.306 939 133.392 115.305 452.764
634 0 95.1645 13.7131 1305 128.318 116.769 448.297
635 1 51.1403 11.5564 591 131.345 118.299 467.931
636 0 50.2572 11.8789 597 135.665 120.372 466.777
637 0 56.6079 15.7575 892 125.626 122.578 465.271
638 0 54.2818 17.5934 955 124.782 121.676 469.984
639 0 58.2048 13.9679 813 129.56 121.989 470.413
640 0 60.2577 15.7822 951 127.696 122.468 467.915
641 0 63.2958 14.9931 949 128.945 121.229 466.163
642 0 62.4498 11.3211 707 134.006 121.153 470.516
643 0 66.2425 14.4016 954 130.225 120.409 466.082
644 0 67.2334 12.8954 867 131.627 119.468 467.948
645 0 71.1913 15.6339 1113 127.101 118.962 466.397
646 0 74.147 16.8719 1251 125.271 117.325 465.559
647 0 76.1093 16.2135 1234 127.616 116.484 463.747
648 0 77.1297 14.7803 1140 129.589 115.687 463.466
649 0 78.1445 14.1149 1103 131.945 114.601 460.086
650 0 83.2003 15.1682 1262 130.036 112.976 460.01
651 0 83.1547 14.7316 1225 132.887 112.592 457.226
652 1 47.1763 13.3754 631 128.826 111.862 477.117
653 0 46.2113 11.9451 552 132.543 111.337 474.697
654 0 46.1112 11.3421 523 135.887 109.966 471.79
655 0 50.2829 14.2991 719 128.978 110.259 474.061
656 0 51.0477 16.3572 835 124.113 108.829 474.091
657 0 51.0951 11.8994 608 134.691 109.791 467.518
658 0 53.1207 13.7423 730 130.651 110.662 467.749
659 0 55.1359 14.8179 817 129.173 111.471 466.541
660 0 56.0869 14.2279 798 134.06 111.825 464.776
661 0 59.1616 16.3282 966 127.846 112.932 465.294
662 0 59.1787 13.5691 803 137.199 114.107 462.569
663 0 62.2517 14.4735 901 134.737 115.861 459.958
664 0 62.2125 14.8041 921 134.592 117.486 461.205
665 0 65.2396 14.1172 921 134.672 119.484 461.947
666 0 67.2476 13.6957 921 135.362 121.085 459.834
667 0 69.219 16.2817 1127 131.792 122.545 458.487
668 0 70.1416 16.1245 1131 131.088 124.986 459.719
669 0 75.2854 15.9925 1204 129.85 125.551 459.186
670 0 74.1144 15.692 1163 131.069 126.755 459.223
671 0 80.1841 15.003 1203 130.732 127.096 457.194
672 1 42.0197 11.0662 465 135.471 127.598 476.071
673 0 42.0498 10.0833 424 141.125 127.123 474.34
674 0 49.1293 12.4773 613 131.414 126.618 477.811
675 0 45.0266 10.6604 480 137.727 125.635 477.14
676 0 46.19 12.1022 559 134.522 125.172 476.009
677 0 47.08 10.3229 486 135.424 124.391 476.516
678 0 49.2721 11.3655 560 136.134 122.366 472.343
679 0 50.1833 10.2225 513 139.384 121.203 472.283
680 0 52.0607 14.6368 762 132.673 120.615 474.711
681 0 55.0872 10.0568 554 139.675 119.222 473.202
682 0 56.1319 12.0431 676 135.195 116.768 474.627
683 0 57.0688 16.7342 955 130.007 115.659 469.089
684 0 61.0789 14.8988 910 129.907 114.002 472.033
685 0 63.1635 13.1088 828 134.95 113.301 468.45
686 0 74.3882 13.806 1027 128.82 112.6 469.277
687 0 69.1305 13.771 952 134.853 111.357 464.06
688 0 70.1866 14.1338 992 134.795 111.342 462.947
689 0 70.0568 12.7182 891 139.1 110.799 459.458
690 0 72.1616 14.6892 1060 137.54 110.359 453.259
691 0 75.1924 15.068 1133 137.492 110.704 454.235
692 0 78.1511 15.8795 1241 134.863 110.661 453.589
693 0 83.2026 14.5909 1214 134.62 110.591 455.729
694 0 85.3134 15.1324 1291 135.97 111.88 448.042
695 1 42.1265 12.2488 516 135.793 114.601 469.353
696 0 47.1849 14.7929 698 127.456 116.226 469.158
697 0 45.1135 14.8071 668 131.549 116.641 465.967
698 0 48.1406 13.419 646 133.977 118.276 467.102
699 0 48.023 13.4727 647 133.883 121.099 467.835
700 0 46.1107 12.123 559 137.349 122.667 464.726
701 0 51.1563 12.628 646 133.274 123.901 467.726
702 0 53.2217 14.1296 752 130.718 124.968 465.436
703 0 51.1876 12.7179 651 134.831 125.975 467.281
704 0 55.1255 14.4035 794 131.946 125.416 464.733
705 0 56.1963 12.403 697 134.875 126.194 467.78
706 0 59.1846 12.7398 754 134.284 125.837 466.463
707 0 61.1199 13.1545 804 134.602 124.636 466.547
708 0 64.1903 14.2701 916 131.925 124.409 464.883
709 0 65.3566 12.5466 820 135.639 124.254 467.463
710 0 68.1707 16.7667 1143 128.811 123.534 466.055
711 0 70.1677 16.0758 1128 130.387 121.835 464.973
712 0 72.0829 15.829 1141 129.84 120.68 467.105
713 0 71.1591 12.7882 910 138.985 119.105 463.147
714 0 73.2134 14.6558 1073 135.201 117.626 460.281
715 0 77.2522 14.6015 1128 134.15 116.603 460.744
716 0 76.1801 13.7963 1051 137.393 114.451 458.916
717 1 39.1409 12.2634 480 130.477 113.585 478.702
718 0 42.0824 10.4557 440 132.623 111.955 477.593
719 0 43.094 11.9506 515 129.744 109.419 474.637
720 0 47.0393 12.7553 600 127.213 110.442 474.097
721 0 46.1467 12.677 585 130.574 108.422 470.156
722 0 46.2457 12.8012 592 133.699 108.997 465.899
723 0 49.1666 13.8916 683 127.777 108.807 467.663
724 0 49.1412 12.4132 610 131.003 108.549 467.366
725 0 48.0265 12.4514 598 133.401 109.033 465.804
726 0 53.0738 16.0908 854 123.847 110.252 466.131
727 0 54.0541 15.984 864 124.888 110.845 460.919
728 0 55.0935 13.7403 757 130.234 112.383 464.098
729 0 58.0936 12.893 749 130.308 113.578 462.077
730 0 59.2479 13.8739 822 127.437 115.388 463.474
731 0 61.1103 14.4329 882 126.831 117.312 461.263
732 0 64.1949 16.263 1044 123.443 120.137 460.616
733 0 65.1543 14.2585 929 126.605 121.219 462.413
734 0 68.1575 17.0194 1160 122.603 121.486 462.055
735 0 69.2376 18.3282 1269 121.835 122.638 459.428
736 0 70.2175 13.9282 978 131.117 124.072 461.931
737 0 72.4336 13.7781 998 132.758 123.699 461.434
738 0 76.1795 16.7105 1273 126.624 123.742 458.894
739 0 78.3361 18.0377 1413 124.355 122.761 460.534
740 0 78.3515 14.2563 1117 131.161 122.937 459.991
741 0 83.2137 11.4164 950 134.328 121.989 464.257
742 0 86.2664 14.5595 1256 130.982 121.125 458.369
743 0 90.3933 14.1603 1280 132.56 119.548 459.142
744 0 93.584 16.7977 1572 128.829 117.435 458.753
745 1 48.2675 14.1296 682 127.384 115.966 480.264
746 0 48.3658 11.3717 550 135.069 114.32 477.045
747 0 50.2736 12.9094 649 131.176 112.985 476.555
748 0 52.1113 13.0106 678 130.398 111.559 477.245
749 0 54.0601 11.0063 595 133.168 110.644 478.615
750 0 53.2001 16.4661 876 125.784 110.646 470.463
751 0 57.1698 14.4832 828 129.624 108.841 471.513
752 0 58.1458 12.3999 721 132.252 107.614 473.042
753 0 62.0835 17.7181 1100 122.685 107.361 469.524
754 0 60.0612 12.5872 756 132.13 106.983 468.882
755 0 63.1486 11.4175 721 133.943 106.576 468.137
756 0 68.0981 15.3015 1042 125.51 106.682 466.757
757 0 69.1165 13.9475 964 129.9 106.827 460.987
758 0 71.2786 12.6686 903 132.171 107.357 461.021
759 1 37.0613 10.0374 372 131.449 107.148 476.616
760 0 38.0382 13.7493 523 125.568 107.667 476.549
761 0 41.041 10.5504 433 128.651 111.346 478.3
762 0 40.0739 9.10817 365 134.584 114.008 474.46
763 0 43.1043 14.4765 624 124.755 115.396 474.192
764 0 43.0357 14.6158 629 123.157 116.328 472.935
765 0 46.2859 12.25 567 127.166 116.079 466.896
766 0 46.1325 14.1766 654 126.832 119.862 471.023
767 0 47.0796 17.1624 808 122.193 121.546 470.788
768 0 51.0396 16.5166 843 121.246 122.616 468.649
769 0 50.0946 14.9717 750 125.236 123.105 471.268
770 0 53.1455 13.7735 732 124.724 123.716 473.008
771 0 54.0557 13.5416 732 124.579 123.548 474.316
772 0 58.1002 15.4216 896 119.28 123.664 476.173
773 0 59.0961 16.0417 948 120.023 123.189 473.112
774 0 59.0441 12.7193 751 125.691 122.387 473.692
775 0 62.0838 14.0939 875 120.469 121.183 477.754
776 0 65.1286 16.7515 1091 118.735 119.429 473.02
777 0 69.0534 13.2506 915 123.228 118.657 470.956
778 0 71.1829 16.2398 1156 119.583 116.464 468.48
779 0 68.1774 9.59261 654 130.151 115.252 468.615
780 1 35.0509 8.3022 291 128.055 114.01 484.203
781 0 39.0681 10.4177 407 123.359 112.872 483.192
782 0 42.0424 12.7015 534 120.551 110.779 482.045
783 0 43.0339 14.1749 610 115.487 110.334 484.764
784 0 45.1222 12.034 543 119.473 109.201 481.58
785 0 47.0717 13.7875 649 117.333 108.345 477.223
786 0 45.0451 16.2726 733 114.973 107.75 476.514
787 0 48.0567 15.232 732 116.883 106.866 474.06
788 0 50.2685 13.9252 700 120.067 105.523 473.844
789 0 47.097 14.3321 675 122.859 105.339 469.775
790 0 51.0552 12.5355 640 123.925 106.291 467.261
791 0 55.1371 13.3304 735 120.018 107.273 470.321
792 0 52.0907 9.2147 480 128.181 108.177 467.065
793 0 56.2091 15.6558 880 116.069 108.803 468.292
794 0 56.1134 10.853 609 127.624 109.553 465.236
795 0 59.1069 12.3336 729 124.856 111.001 461.919
796 0 60.1358 12.7877 769 124.386 112.117 459.945
797 0 63.1501 13.6183 860 122.051 114.443 460.65
798 0 67.0775 12.2098 819 123.709 115.543 459.888
799 0 68.1748 14.1988 968 120.252 117.06 458.744
800 0 71.2588 13.893 990 119.936 118.543 461.791
801 0 72.1068 13.2997 959 122.771 119.683 457.356
802 1 38.0739 9.92805 378 121.854 122.302 478.164
803 0 37.0301 13.5565 502 119.5 122.94 477.106
804 0 42.0932 10.9281 460 122.791 123.711 476.591
805 0 42.1565 11.3624 479 122.292 123.549 478.106
806 0 45.0307 11.4589 516 122.715 122.609 479.31
807 0 45.1174 14.2296 642 120.983 121.846 477.822
808 0 45.2079 14.5771 659 122.378 120.929 476.011
809 0 46.0741 13.0225 600 126.518 120.252 478.64
810 0 50.0747 16.076 805 121.488 119.84 478.584
811 0 46.1039 12.7972 590 129.131 119.32 476.402
812 0 51.0837 18.1467 927 120.084 118.939 477.503
813 0 52.1808 14.124 737 128.152 118.406 474.678
814 0 53.1579 15.3317 815 126.744 117.245 473.387
815 0 57.1606 18.4393 1054 122.649 115.815 472.691
816 0 55.0748 13.2002 727 132.598 115.116 473.659
817 0 57.072 14.3503 819 132.072 113.789 470.375
818 0 58.0915 12.1188 704 136.58 112.943 470.254
819 0 61.1189 13.711 838 134.828 112.091 467.891
820 0 64.179 12.7612 819 136.687 111.735 467.335
821 0 66.212 15.3144 1014 130.354 111.184 467.944
822 0 68.0914 17.1828 1170 130.596 110.321 459.702
823 0 72.2259 17.5422 1267 128.052 110.267 464.055
824 0 72.1209 17.3736 1253 132.454 111.272 457.619
825 1 39.1718 8.52654 334 141.057 112.38 475.045
826 0 38.1156 12.9343 493 139.353 113.138 468.523
827 0 42.0713 12.1698 512 137.521 113.756 472.92
828 0 42.1277 10.9904 463 142.229 114.918 471.542
829 0 43.1709 11.9756 517 139.919 116.826 472.203
830 0 45.0566 12.9615 584 135.712 118.337 470.637
831 0 47.0311 15.0113 706 131.984 120.339 470.263
832 0 46.0832 14.6691 676 139.467 120.679 468.472
833 0 49.0916 16.3979 805 133.18 122.591 468.894
834 0 51.041 14.1063 720 136.929 123.712 465.669
835 0 54.1138 17.6849 957 129.107 124.609 468.041
836 0 55.1535 15.6654 864 128.468 125.954 469.06
837 0 56.0881 16.902 948 128.348 125.506 471.923
838 0 55.1351 13.8387 763 134.691 126.18 468.811
839 0 58.0752 16.2548 944 132.922 125.779 468.925
840 0 59.1594 16.5147 977 133.815 125.353 470.618
841 0 63.23 16.6377 1052 132.038 124.82 472.731
842 0 63.2351 16.9368 1071 133.086 124.26 471.25
843 0 65.1652 17.2331 1123 132.918 122.576 470.659
844 0 70.1338 15.5417 1090 135.124 121.348 468.913
845 0 72.1209 20.632 1488 126.149 120.021 468.056
846 0 75.1361 17.4483 1311 130.995 118.513 466.227
847 0 75.185 16.9316 1273 133.258 117.219 463.349
848 0 81.1048 19.6289 1592 126.932 115.433 463.346
849 0 79.1106 16.4453 1301 135.038 114.198 459.628
850 0 81.0809 16.4774 1336 135.22 113.241 458.01
851 0 86.1634 17.2347 1485 133.99 112.098 457.822
852 0 88.1668 18.896 1666 131.424 111.441 454.308
853 1 46.1119 11.7757 543 138.234 109.88 475.138
854 0 45.0163 10.7517 484 141.273 109.355 474.244
855 0 45.0334 9.81493 442 142.776 109.195 472.799
856 0 49.0302 12.4209 609 137.174 109.153 472.181
857 0 48.0173 11.5167 553 142.951 109.414 469.123
858 0 52.0944 14.8192 772 133.218 110.062 468.579
859 0 55.1403 16.4671 908 130.829 110.793 468.895
860 0 56.0667 14.9643 839 134.602 111.235 467.231
861 0 58.0994 17.0226 989 130.748 111.994 465.611
862 0 62.0742 17.8979 1111 127.606 113.755 465.767
863 0 63.1393 15.838 1000 131.464 115.099 465.404
864 0 66.1823 19.2045 1271 127.072 116.251 462.633
865 0 66.062 15.3946 1017 134.063 117.953 462.731
866 0 68.105 16.1515 1100 132.686 119.034 464.153
867 0 71.0829 17.6695 1256 131.048 120.006 459.896
868 0 73.125 16.6017 1214 132.096 121.187 461.299
869 0 77.1135 17.9216 1382 129.813 121.8 459.053
870 0 78.1121 17.206 1344 131.81 121.869 458.49
871 0 81.2114 18.1009 1470 128.056 122.532 462.644
872 0 85.3068 18.9551 1617 126.333 122.668 461.38
873 1 47.0494 13.964 657 128.075 122.572 480.904
874 0 48.0452 13.2584 637 132.165 122.188 479.614
875 0 50.0162 13.4156 671 129.656 121.477 480.355
876 0 51.0608 11.7311 599 134.628 120.08 478.444
877 0 51.0566 12.5547 641 134.443 119.151 478.222
878 0 56.1473 15.2456 856 127.478 118.923 476.091
879 0 57.0323 16.4293 937 126.121 117.8 475.082
880 0 58.1589 15.9563 928 126.154 114.467 475.747
881 0 57.0663 12.6344 721 134.684 113.272 469.707
882 0 60.2965 14.1136 851 130.568 111.355 472.002
883 0 62.0885 15.5584 966 131.006 110.726 465.964
884 0 67.1021 15.1262 1015 127.677 109.342 467.465
885 0 70.1467 16.1376 1132 126.133 108.761 465.934
886 0 71.0945 16.0631 1142 125.326 107.68 467.737
887 0 74.066 16.0262 1187 127.698 107.239 461.398
888 0 77.0664 19.0874 1471 122.939 107.107 459.989
889 0 80.1386 18.0562 1447 123.944 107.367 459.507
890 0 82.1554 17.2843 1420 126.903 107.065 454.933
891 0 80.0857 13.7852 1104 135.638 107.325 451.204
892 1 39.2334 12.9227 507 130.061 108.736 475.339
893 0 38.1586 7.52123 287 141.547 109.432 475.334
894 0 43.1654 11.7919 509 131.208 110.723 475.214
895 0 45.1308 15.2224 687 126.178 112.582 473.055
896 0 46.2416 14.9865 693 127.675 114.154 470.459
897 0 46.4952 11.0764 515 133.802 116.891 467.68
898 0 51.3173 16.2908 836 121.376 118.463 467.258
899 0 47.3723 11.9901 568 132.602 119.458 465.232
900 0 52.2567 14.4096 753 125.618 121.724 467.989
901 0 56.1333 19.5428 1097 116.825 122.413 467.83
902 0 55.2102 11.6464 643 131.731 122.868 469.323
903 0 60.204 14.2183 856 127.081 123.445 470.027
904 0 58.0863 10.9148 634 134.145 124.372 472.054
905 0 63.0778 15.0608 950 127.209 124.211 468.876
906 0 67.1749 17.3726 1167 122.038 123.692 468.987
907 0 69.1693 18.7945 1300 120.585 123.304 469.821
908 0 70.1041 14.721 1032 129.462 122.675 467.325
909 0 69.128 14.6974 1016 131.941 122.613 464.729
910 0 73.2611 13.7863 1010 133.082 121.38 469.394
911 0 76.1067 17.2784 1315 127.9 119.933 464.967
912 0 75.1646 14.9539 1124 132.323 119.585 469.439
913 0 79.2105 17.2957 1370 132.331 118.841 465.346
914 0 85.0917 17.8043 1515 128.709 117.878 464.261
915 0 86.1932 17.774 1532 127.969 116.558 464.873
916 0 86.0773 19.9588 1718 128.25 115.128 455.371
917 1 46.0787 15.2565 703 130.289 114.653 480.292
918 0 47.0564 13.3032 626 134.321 112.704 478.26
919 0 47.0383 10.0344 472 141.782 112.364 474.896
920 0 47.0836 10.7893 508 142.695 111.854 471.478
921 0 53.0983 13.0513 693 135.179 111.035 469.558
922 0 54.0674 13.9456 754 137.16 112.188 468.753
923 0 54.3047 12.8166 696 142.118 111.371 468.364
924 0 57.5343 13.14 756 140.458 111.146 468.062
925 0 58.3172 12.8778 751 142.711 111.625 465.225
926 0 66.5303 19.6903 1310 125.016 112.569 465.685
927 0 62.3185 15.3405 956 138.177 113.007 460.394
928 0 61.1737 14.1728 867 140.899 114.542 459.815
929 0 66.2384 15.7462 1043 137.624 115.967 458.819
930 0 68.2763 14.0605 960 141.251 118.398 455.742
931 0 72.3992 16.2018 1173 135.732 120.304 454.454
932 1 34.0533 10.3955 354 144.972 122.398 472.836
933 0 36.2058 14.0033 507 136.495 123.669 473.428
934 0 38.0476 13.4042 510 138.361 124.908 472.165
935 0 39.1186 13.114 513 138.444 125.14 471.415
936 0 41.208 12.352 509 137.965 125.611 474.481
937 0 43.1724 12.3459 533 137.891 126.221 473.598
938 0 43.1116 16.4689 710 133.346 127.069 470.341
939 0 48.0911 14.8468 714 136.088 126.873 472.346
940 0 49.2561 14.9017 734 136.779 125.338 473.153
941 0 51.4708 17.4468 898 131.586 124.085 473.148
942 0 52.2824 17.5776 919 131.785 123.629 474.209
943 0 52.0757 16.0343 835 133.758 122.244 476.198
944 0 55.1764 16.2388 896 135.552 120.657 470.938
945 0 58.3433 20.0537 1170 128.438 120.681 469.02
946 0 59.3834 18.0017 1069 132.312 119.675 472.565
947 0 60.4337 16.7456 1012 135.389 117.983 470.403
948 0 62.143 17.7011 1100 136.235 116.775 468.296
949 0 64.2147 16.6161 1067 137.929 115.617 467.034
950 0 64.3079 14.3528 923 143.908 114.704 464.997
951 0 66.1882 16.1509 1069 143.466 113.399 461.59
952 0 69.2677 16.7755 1162 142.14 112.27 459.338
953 0 72.3433 18.2325 1319 139.32 111.654 456.961
954 1 39.1871 13.7545 539 146.638 111.221 472.484
955 0 38.198 10.1838 389 155.121 110.512 472.093
956 0 39.4183 11.6443 459 151.022 111.261 472.011
957 0 41.1029 15.3031 629 147.302 110.525 468.687
958 0 43.126 12.4519 537 152.363 110.674 468.495
959 0 43.1918 16.6698 720 146.66 112.076 465.39
960 0 46.3047 13.8863 643 152.04 112.686 464.589
961 0 49.2556 19.6932 970 137.28 114.058 466.072
962 0 48.3007 13.7265 663 152.843 115.546 463.878
963 0 50.5768 14.9871 758 149.257 117.334 463.46
964 0 54.3183 18.6493 1013 140.427 118.832 462.484
965 0 53.1734 15.6469 832 148.696 120.608 463.053
966 0 56.175 16.2884 915 148.165 122.48 461.498
967 0 57.3035 16.7006 957 145.916 124.137 461.664
968 0 57.3037 14.3446 822 149.275 124.692 460.871
969 0 61.4078 13.5976 835 144.117 125.874 462.387
970 0 64.2237 14.9633 961 143.813 125.525 461.339
971 0 65.2764 17.1272 1118 140.233 126.124 459.359
972 0 68.208 16.347 1115 140.706 125.88 460.849
973 0 71.1306 20.3007 1444 135.248 124.519 460.337
974 0 70.2381 17.341 1218 143.07 123.869 461.076
975 0 75.2809 19.1815 1444 138.874 123.436 458.033
976 0 78.2486 18.5051 1448 140.999 121.896 456.662
977 0 78.1786 15.4134 1205 147.881 120.271 458.909
978 0 84.1957 21.0106 1769 134.983 118.868 456.237
979 0 86.263 16.9134 1459 142.988 117.786 455.15
980 0 91.1698 16.5186 1506 143.353 115.793 451.289
981 0 94.1356 18.5265 1744 138.287 114.492 451.373
982 1 49.1739 14.5809 717 140.774 113.167 471.321
983 0 50.0285 10.474 524 149.708 112.588 469.034
984 0 55.0515 13.2058 727 141.477 112.638 468.725
985 0 58.0456 16.1425 937 137.236 111.925 464.226
986 0 58.0915 14.9592 869 138.93 111.113 461.087
987 0 59.2191 14.1002 835 138.824 110.865 458.238
988 0 58.0694 13.3633 776 142.34 110.397 456.112
989 0 62.2441 13.7684 857 141.956 110.16 452.323
990 0 65.0893 15.64 1018 137.37 110.129 452.485
991 0 67.0991 12.9957 872 144.104 110.474 450.015
992 0 70.1456 14.5839 1023 139.55 110.652 448.792
993 0 71.1383 15.0411 1070 138.592 111.559 447.072
994 0 74.1733 14.1695 1051 138.632 112.625 447.519
995 0 76.2968 14.3781 1097 139.884 114.323 445.632
996 0 77.2185 13.3388 1030 143.349 116.469 441.088
997 0 80.0992 10.3621 830 143.199 117.528 444.496
998 0 86.3236 14.2371 1229 137.707 119.628 438.23
999 0 89.3282 13.7247 1226 137.542 120.594 439.961
1000 0 92.1199 12.6466 1165 140.398 121.521 438.025
1001 1 51.0745 11.2581 575 132.423 122.878 463.449
1002 0 54.0603 14.3359 775 126.817 122.32 463.768
1003 0 56.1087 16.5037 926 126.363 123.109 466.371
1004 0 58.0724 13.7587 799 130.939 123.767 466.657
1005 0 57.2208 13.911 796 133.2 123.601 465.835
1006 0 59.0936 12.9117 763 132.751 124.127 467.746
1007 0 64.1004 11.2948 724 136.238 124.224 466.349
1008 0 66.0986 14.3725 950 130.578 123.127 463.006
1009 0 69.1485 12.2635 848 133.698 124.031 465.229
1010 0 68.0964 15.3312 1044 130.11 123.202 463.567
1011 0 71.1623 13.8838 988 133.586 122.44 460.428
1012 0 68.1286 10.9939 749 141.296 121.37 459.156
1013 0 77.2036 14.2351 1099 134.023 120.322 462.904
1014 1 40.0282 8.64391 346 131.697 119.653 481.517
1015 0 43.03 9.80712 422 132.912 118.04 477.981
1016 0 40.0878 12.8967 517 126.292 116.617 479.532
1017 0 43.0734 7.91673 341 133.977 115.399 477.469
1018 0 44.061 11.4387 504 128.089 114.744 476.776
1019 0 46.03 9.66762 445 131.025 113.022 476.658
1020 0 47.0215 13.6533 642 123.815 112.685 475.737
1021 0 48.0462 14.1322 679 124.221 112.371 471.61
1022 0 50.0979 11.9765 600 127.81 111.107 473.623
1023 0 49.0667 12.0652 592 130.287 110.983 466.557
1024 0 51.0855 10.962 560 130.405 111.396 472.811
1025 0 51.1098 10.1937 521 133.852 111.616 468.676
1026 0 52.1104 8.23253 429 136.254 111.876 468.751
1027 0 55.2961 10.9592 606 132.828 112.83 465.013
1028 0 59.1713 11.4921 680 131.357 113.562 465.404
1029 0 57.1792 11.9974 686 129.981 115.262 467.78
1030 0 61.213 12.4647 763 128.636 116.066 464.931
1031 0 64.2158 10.3401 664 132.494 118.197 463.619
1032 0 64.1457 9.61872 617 135.99 119.895 461.24
1033 0 69.1259 12.5713 869 128.853 121.593 465.689
1034 0 70.2843 14.4413 1015 126.573 122.464 463.076
1035 0 70.101 11.2124 786 132.525 123.485 463.81
1036 0 77.2647 13.7449 1062 126.796 124.327 465.88
1037 0 78.3783 14.0473 1101 128.036 124.335 462.101
1038 0 79.4054 13.387 1063 130.765 124.164 463.862
1039 0 83.5733 11.6305 972 132.633 124.871 464.294
1040 0 87.1522 15.9376 1389 125.456 123.246 460.347
1041 1 45.1696 10.693 483 128.615 120.47 482.814
1042 0 48.0995 11.9128 573 125.396 119.152 485.162
1043 0 52.1821 13.0696 682 124.482 117.721 482.456
1044 0 49.2146 13.1262 646 128.577 117.062 478.401
1045 0 51.3533 14.8579 763 124.945 114.571 477.138
1046 0 55.1054 16.6045 915 121.66 113.356 478.259
1047 0 54.1089 13.787 746 127.471 111.783 476.575
1048 0 58.0866 12.4297 722 130.098 110.434 475.82
1049 0 59.0996 13.9595 825 128.175 109.472 472.722
1050 0 61.1134 11.8141 722 131.551 108.105 472.758
1051 0 61.1031 13.8946 849 129.845 107.556 469.781
1052 0 63.1114 12.7552 805 130.543 106.852 468.925
1053 0 69.0529 13.2652 916 130.082 107.085 466.13
1054 0 67.0994 15.708 1054 127.266 107.212 464.849
1055 0 70.1619 16.4192 1152 125.257 107.109 463.568
1056 0 72.1821 17.3312 1251 124.264 106.986 458.969
1057 0 74.0544 13.3956 992 131.74 108.227 455.585
1058 0 75.126 17.9831 1351 124.478 107.964 455.848
1059 0 79.1099 14.423 1141 130.056 108.501 455.536
1060 0 82.1441 16.4467 1351 126.85 109.298 450.887
1061 0 83.0729 12.2302 1016 134.263 112.502 456.943
1062 0 85.2697 14.8705 1268 131.349 114.099 443.554
1063 1 47.1104 10.4011 490 134.522 117.269 467.176
1064 0 45.081 11.7566 530 135.238 115.013 465.849
1065 0 50.0466 11.1296 557 133.763 115.964 466.558
1066 0 52.0636 12.4463 648 131.088 116.957 465.102
1067 0 52.0531 15.0231 782 128.363 119.168 465.428
1068 0 55.0591 15.0202 827 126.954 123.567 464.807
1069 0 56.0623 13.699 768 125.483 124.921 470.654
1070 0 55.1366 11.4806 633 130.335 125.534 467.355
1071 0 59.1258 13.5812 803 126.093 126.073 468.227
1072 0 61.2373 18.0609 1106 118.788 126.901 465.158
1073 0 61.3587 11.3594 697 127.924 126.572 470.136
1074 0 65.3128 15.6325 1021 121.441 125.656 465.04
1075 0 65.2066 13.8176 901 124.356 126.089 465.132
1076 0 67.1084 13.8731 931 125.039 125.432 463.475
1077 0 71.3635 14.293 1020 122.772 124.844 465.882
1078 0 71.2629 13.5414 965 123.533 124.158 466.963
1079 0 73.2051 12.4581 912 128.202 122.788 459.93
1080 0 74.3439 15.7511 1171 122.672 121.821 460.039
1081 0 79.3335 15.126 1200 122.299 120.362 462.583
1082 0 80.54 15.2098 1225 125.701 119.216 458.143
1083 0 83.3115 13.5035 1125 125.468 116.002 455.662
1084 1 45.2935 12.3638 560 124.42 114.612 474.329
1085 0 44.2256 12.0971 535 127.499 113.708 471.226
1086 0 48.2213 12.9611 625 123.147 112.246 472.014
1087 0 48.1831 12.8053 617 124.856 111.196 467.203
1088 0 51.1319 11.7148 599 124.791 110.683 468.708
1089 0 53.0367 14.4617 767 120.104 110.256 468.301
1090 0 53.1891 11.0173 586 128.8 109.608 465.225
1091 0 56.088 15.5827 874 120.796 110.46 461.524
1092 0 54.0499 12.9325 699 126.9 109.884 459.582
1093 0 59.0915 16.3137 964 119.11 110.462 461.985
1094 0 60.0931 16.4079 986 118.889 111.23 462.232
1095 0 59.1289 12.8364 759 127.312 112.542 456.174
1096 0 66.0938 17.2482 1140 117.814 114.346 457.966
1097 0 67.0664 14.1651 950 123.606 115.889 453.116
1098 0 67.0472 15.3623 1030 123.406 116.712 454.791
1099 0 66.1823 13.5535 897 126.64 119.093 454.779
1100 0 71.1128 13.1481 935 127.663 120.579 454.768
1101 0 77.178 18.6582 1440 115.195 122.885 455.49
1102 0 78.1491 17.4026 1360 117.301 123.907 451.86
1103 0 82.1599 17.7946 1462 114.269 125.218 452.256
1104 0 85.2463 17.8424 1521 114.577 125.234 451.442
1105 1 45.0381 10.5688 476 123.477 125.181 474.498
1106 0 43.019 12.4364 535 123.748 125.798 474.613
1107 0 45.2961 11.6346 527 126.4 124.97 474.205
1108 0 48.0446 13.8205 664 120.923 124.509 477.62
1109 0 48.0837 12.4782 600 124.425 124.06 472.992
1110 0 49.1636 12.4686 613 126.334 121.701 473.574
1111 0 51.1133 12.5212 640 126.155 120.958 473.828
1112 0 53.3166 13.8231 737 124.905 119.977 475.204
1113 0 55.0788 20.4979 1129 115.475 118.034 476.577
1114 0 57.101 14.2555 814 125.55 116.823 473.829
1115 0 58.1641 15.5422 904 123.903 116.02 473.267
1116 0 58.0959 14.2351 827 129.352 113.733 470.102
1117 0 60.0941 14.8767 894 127.574 112.421 470.634
1118 0 63.1265 17.4253 1100 124.231 110.593 468.158
1119 0 66.1763 21.0498 1393 119.743 110.228 468.55
1120 0 69.1823 15.0617 1042 128 109.101 467.581
1121 0 70.1498 15.5667 1092 128.517 107.97 464.307
1122 0 69.2282 15.1672 1050 131.587 107.915 461.639
1123 0 74.0959 13.388 992 132.79 107.63 464.309
1124 0 76.191 16.7999 1280 128.647 107.556 458.26
1125 0 80.2086 21.7433 1744 118.064 107.76 462.39
1126 0 84.2579 15.4169 1299 130.467 107.695 457.667
1127 1 45.0569 17.2005 775 122.726 108.495 474.588
1128 0 48.1536 14.8068 713 123.87 109.373 476.055
1129 0 46.4363 11.7581 546 131.103 109.59 473.209
1130 0 49.1403 14.1839 697 127.874 110.864 471.907
1131 0 51.1242 12.7337 651 128.693 112.35 471.31
1132 0 51.0187 14.3085 730 129.108 113.767 468.378
1133 0 53.2765 12.238 652 131.664 116.328 469.845
1134 0 56.4525 14.4723 817 128.182 119.399 467.567
1135 0 55.3875 16.0505 889 125.022 120.703 471.186
1136 0 59.4619 17.2884 1028 123.149 121.351 469.894
1137 0 57.2181 12.5485 718 133.135 121.825 466.868
1138 0 61.6115 13.0495 804 130.002 122.534 469.989
1139 0 66.4481 12.0846 803 131.143 122.357 469.351
1140 0 68.3156 15.5894 1065 125.683 121.831 468.322
1141 0 71.5933 17.6553 1264 122.506 121.661 468.062
1142 0 74.2073 16.939 1257 124.283 120.917 465.562
1143 0 78.6031 23.5741 1853 112.842 119.827 467.246
1144 0 80.5895 17.707 1427 121.857 118.617 465.626
1145 0 81.352 15.3161 1246 125.858 117.36 464.903
1146 0 83.2314 15.4028 1282 126.519 115.471 462.637
1147 0 86.2711 16.1468 1393 125.089 113.696 460.466
1148 0 90.2912 15.45 1395 126.879 112.235 457.674
1149 0 94.404 15.7303 1485 126.13 110.996 454.803
1150 1 51.1989 13.848 709 127.188 110.787 473.413
1151 0 54.2059 11.8437 642 125.838 109.701 475.625
1152 0 53.1632 10.6841 568 129.299 108.755 472.63
1153 0 56.179 15.1302 850 123.156 108.492 468.62
1154 0 55.3694 12.5521 695 125.934 108.635 470.681
1155 0 57.3292 14.3906 825 120.371 107.839 462.03
1156 0 60.2566 14.1893 855 121.065 107.416 466.499
1157 0 62.0965 13.9621 867 120.092 107.505 467.317
1158 0 63.0999 16.2599 1026 119.19 108.026 463.534
1159 0 62.2269 12.2455 762 126.101 108.344 461.993
1160 0 66.1669 17.4256 1153 117.055 109.539 459.944
1161 0 67.1229 17.5946 1181 115.898 110.481 461.595
1162 0 69.2406 14.2113 984 120.395 111.516 459.552
1163 0 72.3384 17.2108 1245 115.288 113.77 455.269
1164 0 71.2165 12.6656 902 124.293 114.633 455.552
1165 0 73.2747 14.2751 1046 122.128 117.019 452.983
1166 0 76.2554 12.9171 985 122.404 118.171 455.831
1167 0 81.1783 16.0757 1305 118.608 120.07 448.989
1168 0 83.3402 15.5987 1300 119.891 121.492 450.164
1169 0 86.1854 13.7378 1184 121.595 124.576 452.251
1170 0 86.1866 12.1597 1048 124.371 125.451 451.233
1171 0 93.215 16.6711 1554 116.654 125.53 450.443
1172 1 47.0475 11.7328 552 120.245 126.549 473.014
1173 0 51.1008 13.0918 669 118.161 125.741 472.837
1174 0 52.0598 16.8268 876 112.777 125.651 473.729
1175 0 53.1129 14.5539 773 116.988 125.599 472.875
1176 0 53.091 11.7534 624 119.962 125.862 472.559
1177 0 57.1862 16.0004 915 113.909 122.272 471.893
1178 0 59.1484 12.3587 731 118.888 121.885 474.149
1179 0 58.0983 14.4927 842 116.53 120.736 474.076
1180 0 60.1374 15.1819 913 117.093 119.107 470.643
1181 0 65.1203 14.2505 928 118.855 118.022 467.72
1182 0 66.0706 12.6229 834 121.055 116.897 470.106
1183 0 66.0751 14.317 946 120.67 115.47 466.127
1184 0 69.2162 12.0203 832 125.181 114.416 465.951
1185 0 72.4567 13.2631 961 123.42 112.469 462.456
1186 0 75.1215 14.3501 1078 123.957 111.187 457.907
1187 0 78.1626 15.5701 1217 121.318 110.741 459.042
1188 0 77.1061 14.305 1103 126.079 110.362 454.637
1189 0 84.137 14.5239 1222 123.788 109.218 454.339
1190 1 44.0351 11.5589 509 124.063 109.029 471.035
1191 0 44.0702 12.6843 559 123.302 109.106 469.254
1192 0 46.0425 12.293 566 122.223 109.979 469.157
1193 0 48.0646 12.2335 588 123.129 110.563 466.318
1194 0 48.0458 13.0917 629 120.768 111.318 468.421
1195 0 50.153 12.6214 633 123.302 111.929 464.826
1196 0 50.0205 12.8347 642 126.712 113.85 463.079
1197 0 51.12 13.8889 710 123.652 115.228 464.9
1198 0 54.1836 14.8384 804 120.006 116.659 465.461
1199 0 54.0783 12.1121 655 126.934 119.986 462.206
1200 0 57.0731 14.2799 815 123.836 119.852 462.395
1201 0 59.2677 13.8187 819 123.054 121.725 463.151
1202 0 59.1207 16.6439 984 119.783 122.383 462.566
1203 0 63.0544 14.3527 905 122.794 122.719 462.743
1204 0 64.1276 16.7323 1073 118.751 123.457 463.018
1205 0 69.2421 17.2005 1191 117.209 123.751 463.715
1206 0 67.081 16.6515 1117 120.46 123.868 462.928
1207 0 69.0959 15.9633 1103 121.161 123.256 465.234
1208 0 71.0808 18.894 1343 118.095 122.838 461.917
1209 0 73.1886 16.56 1212 120.884 121.861 465.576
1210 0 75.2072 16.2883 1225 123.249 121.377 462.722
1211 0 74.0829 13.5659 1005 129.101 120.43 461.575
1212 0 78.1073 14.0704 1099 128.424 118.979 456.716
1213 0 82.2516 13.8599 1140 125.755 118.513 466.08
1214 0 85.1973 15.024 1280 126.17 116.888 460.184
1215 0 89.2978 18.6455 1665 121.088 115.246 460.172
1216 1 46.0484 12.4869 575 125.209 114.289 480.143
1217 0 49.0932 11.3661 558 126.681 113.023 479.219
1218 0 48.1082 12.95 623 127.687 112.3 474.034
1219 0 52.0509 14.1784 738 123.57 110.553 475.402
1220 0 49.357 16.1071 795 122.4 110.805 471.652
1221 0 51.1265 14.826 758 127.344 109.64 466.541
1222 0 55.0755 15.0339 828 122.8 109.106 473.545
1223 0 56.0409 15.3281 859 124.462 109.234 467.458
1224 0 60.1836 17.3635 1045 119.691 108.82 468.49
1225 0 61.0865 13.8001 843 126.071 108.887 467.554
1226 0 65.2158 18.7071 1220 117.488 109.364 466.28
1227 0 63.1593 14.9305 943 127.13 109.723 462.777
1228 0 67.2321 18.9493 1274 120.673 110.514 464.598
1229 0 66.1493 14.7091 973 128.985 112.265 464.092
1230 0 69.1866 18.0237 1247 124.691 113.375 460.735
1231 0 72.1257 18.4123 1328 124.293 115.268 459.825
1232 0 74.1011 14.3992 1067 131.598 116.715 459.883
1233 0 75.23 16.6024 1249 127.908 117.972 457.885
1234 0 77.1344 14.559 1123 132.035 119.492 459.173
1235 0 79.075 16.6804 1319 129.608 121.292 454.266
1236 1 44.0675 10.1435 447 134.266 121.311 478.928
1237 0 47.1601 12.2349 577 131.714 121.738 478.269
1238 0 45.0885 12.9967 586 134.305 122.137 474.524
1239 0 49.0585 14.0445 689 129.032 122.624 478.344
1240 0 51.1022 16.5355 845 125.478 121.845 478.818
1241 0 54.0475 16.0785 869 128.155 122.097 477.063
1242 0 52.0682 13.4823 702 133.84 121.115 478.187
1243 0 56.0647 13.7341 770 133.681 120.719 477.908
1244 0 56.1004 13.0837 734 134.187 120.102 478.003
1245 0 59.1567 15.9069 941 128.421 118.812 475.921
1246 0 61.1105 16.0693 982 128.597 117.385 474.837
1247 0 65.1541 20.5359 1338 120.161 116.049 477.017
1248 0 65.2108 15.0282 980 130.702 114.723 473.931
1249 0 69.0599 18.3174 1265 124.083 113.074 475.225
1250 0 69.235 17.3612 1202 128.511 112.18 470.156
1251 0 73.4598 15.3826 1130 131.011 110.903 472.042
1252 0 74.2588 14.7457 1095 133.551 109.516 468.299
1253 0 74.221 16.4913 1224 130.587 109.026 468.57
1254 0 78.2752 14.3085 1120 133.982 108.068 467.354
1255 1 41.1583 15.2339 627 129.285 108.051 482.478
1256 0 43.2151 12.9121 558 132.362 108.289 480.425
1257 0 42.1839 13.9864 590 133.598 107.647 475.903
1258 0 45.3474 11.8419 537 136.451 108.605 475.196
1259 0 44.228 14.8096 655 128.533 107.605 469.87
1260 0 48.1298 13.6506 657 129.788 107.72 468.228
1261 0 48.2852 13.6688 660 131.186 107.882 469.197
1262 0 51.3741 12.2435 629 131.963 109.135 469.72
1263 0 49.2383 12.47 614 135.339 109.829 466.718
1264 0 52.1716 12.4397 649 134.676 112.368 466.647
1265 0 54.1871 12.8259 695 133.937 113.106 464.314
1266 0 55.2572 13.3195 736 132.88 115.45 464.72
1267 0 60.1864 16.399 987 125.431 116.729 466.14
1268 0 57.1474 14.6988 840 130.432 119.289 464.655
1269 0 60.268 15.0992 910 129.793 119.638 465.359
1270 0 64.1874 12.4012 796 132.706 120.305 465.716
1271 0 65.2587 16.81 1097 124.998 121.161 460.789
1272 0 72.1913 17.9939 1299 120.494 121.703 466.242
1273 0 74.2339 17.9702 1334 122.337 120.875 462.254
1274 0 74.3524 17.4843 1300 126.671 121.418 461.636
1275 0 76.2962 16.0034 1221 126.823 121.993 468.314
1276 0 79.3312 17.2568 1369 125.087 121.283 468.348
1277 1 44.0811 14.0877 621 123.424 121.72 486.454
1278 0 46.1189 12.9665 598 126.895 120.169 484.871
1279 0 50.0238 15.0528 753 124.085 118.548 483.466
1280 0 50.0781 14.9167 747 124.819 116.873 482.665
1281 0 54.3032 15.7265 854 123.005 115.511 482.056
1282 0 55.0696 16.4156 904 118.716 113.918 484.042
1283 0 56.1062 16.7718 941 119.882 112.659 481.621
1284 0 56.073 12.5729 705 127.35 111.582 478.533
1285 0 59.0267 15.3829 908 121.954 110.502 479.262
1286 0 60.1376 17.8923 1076 117.611 110.075 477.746
1287 0 61.2217 15.6317 957 122.806 109.395 473.476
1288 0 60.0946 13.0794 786 127.419 108.845 473.127
1289 0 64.2663 18.2678 1174 117.519 108.219 473.2
1290 0 64.0998 17.3636 1113 120.073 107.866 468.664
1291 0 64.0747 13.89 890 126.999 108.044 465.41
1292 0 70.0599 17.1996 1205 121.101 108.124 465.848
1293 0 70.3894 14.3772 1012 125.824 107.914 465.09
1294 0 73.1026 13.7752 1007 125.73 108.567 465.95
1295 0 74.1841 13.6957 1016 126.513 109.477 463.291
1296 0 77.1384 13.8193 1066 124.726 111.13 464.477
1297 0 81.1627 16.9166 1373 120.372 111.564 459.645
1298 0 81.2213 15.7594 1280 122.489 112.213 457.344
1299 0 85.2102 18.7771 1600 115.422 113.964 459.429
1300 0 86.2188 13.1178 1131 125.006 114.327 452.539
1301 0 93.1651 14.8661 1385 122.009 115.939 448.5
1302 0 94.2276 13.0323 1228 123.847 116.753 454.066
1303 1 50.0491 10.8893 545 119.873 118.409 477.589
1304 0 51.1268 14.689 751 118.001 119.581 473.539
1305 0 52.0579 15.9822 832 116.387 120.722 472.054
1306 0 55.2716 16.048 887 114.735 120.71 473.289
1307 0 54.1553 15.4371 836 112.58 118.828 471.794
1308 0 54.1894 11.8842 644 118.618 119.205 469.599
1309 0 58.0987 14.3204 832 115.435 118.66 470.317
1310 0 59.1953 14.9336 884 115.067 118.243 467.655
1311 0 63.0916 13.5517 855 117.408 116.756 468.729
1312 0 63.0811 14.2198 897 117.427 115.996 466.441
1313 0 67.1513 13.8344 929 117.127 114.8 467.383
1314 0 71.1289 12.5547 893 117.959 114.018 467.936
1315 0 70.1325 9.86704 692 124.088 112.009 466.071
1316 0 76.2815 13.9483 1064 118.062 110.846 464.851
1317 0 76.117 14.3463 1092 119.719 109.47 459.23
1318 0 79.2023 13.3329 1056 121.522 108.86 459.03
1319 1 43.1785 8.59225 371 122.97 107.857 477.515
1320 0 41.1157 9.7773 402 120.858 107.848 478.216
1321 0 47.1329 13.9181 656 116.938 107.098 474.674
1322 0 45.0844 10.2031 460 122.161 106.063 476.385
1323 0 44.1173 15.0961 666 116.33 104.923 472.592
1324 0 47.2023 14.745 696 118.032 105.417 468.546
1325 0 49.1262 12.9055 634 121.166 106.06 469.834
1326 0 51.0751 12.6285 645 122.26 106.391 466.583
1327 0 50.3844 14.4886 730 123.86 106.579 465.989
1328 0 53.3824 13.8622 740 128.643 106.864 466.539
1329 0 52.4301 14.2666 748 129.356 108.126 465.512
1330 0 56.44 13.3593 754 128.442 109.464 466.836
1331 0 57.1292 14.861 849 128.243 111.681 462.565
1332 0 56.2405 14.029 789 130.888 112.924 461.872
1333 0 60.2299 11.7882 710 134.765 113.782 460.554
1334 0 64.2778 13.8462 890 129.322 116.342 462.417
1335 0 66.2877 16.0512 1064 127.309 117.874 460.65
1336 0 68.2673 16.2157 1107 126.319 118.932 462.107
1337 0 69.1822 16.3626 1132 126.994 119.865 460.066
1338 0 72.2686 15.3732 1111 128.007 120.266 460.842
1339 0 74.2163 12.6118 936 129.708 120.785 463.797
1340 0 71.2071 13.6925 975 132.398 120.207 458.198
1341 0 79.2665 19.3777 1536 122.511 120.181 460.379
1342 0 81.176 17.2342 1399 126.025 119.548 462.44
1343 1 47.0263 12.5674 591 128.623 120.511 477.283
1344 0 46.0954 14.188 654 125.693 120.121 479.396
1345 0 49.0473 11.8253 580 130.733 118.226 477.822
1346 0 51.0261 11.0532 564 129.534 117.236 480.567
1347 0 51.1329 13.9832 715 130.634 116.041 474.124
1348 0 52.139 14.8066 772 129.448 114.452 472.215
1349 0 58.2699 14.4672 843 127.253 113.178 474.873
1350 0 56.1751 18.4423 1036 121.975 111.882 471.608
1351 0 58.1966 14.9322 869 128.02 110.852 470.529
1352 0 59.1491 12.3417 730 131.504 109.889 472.371
1353 0 63.2123 16.1994 1024 123.4 108.983 469.106
1354 0 63.3607 19.0496 1207 118.659 108.569 466.756
1355 0 66.1507 14.9356 988 123.356 107.698 467.913
1356 0 67.3304 13.0699 880 129.149 107.034 460.453
1357 0 68.0853 12.6753 863 129.453 107.565 460.289
1358 0 74.1832 16.621 1233 120.377 107.465 459.334
1359 0 74.1374 14.4866 1074 124.873 107.754 456.863
1360 0 79.2097 14.9603 1185 124.065 108.226 455.457
1361 0 78.1052 17.5788 1373 122.187 108.634 450.388
1362 0 84.0882 14.6751 1234 125.825 109.655 451.16
1363 1 45.0482 12.2313 551 128.875 111.194 467.178
1364 0 45.1566 9.63314 435 130.669 110.303 469.575
1365 0 49.0864 11.0825 544 130.899 112.241 467.165
1366 0 50.2077 12.8865 647 127.366 115.784 465.388
1367 0 49.2272 12.615 621 130.414 116.446 464.444
1368 0 53.1368 16.3164 867 122.36 118.811 465.457
1369 0 55.0731 15.2525 840 124.57 119.442 464.717
1370 0 55.1536 12.8913 711 127.724 120.973 468.29
1371 0 58.0516 14.2115 825 125.812 121.51 466.236
1372 0 61.0779 15.3902 940 122.561 121.243 468.588
1373 0 61.0501 14.4635 883 126.26 121.616 463.964
1374 0 66.2279 14.9635 991 123.707 121.835 465.358
1375 0 64.0949 14.2601 914 126.266 121.153 466.623
1376 0 68.1628 18.3385 1250 120.156 120.955 464.464
1377 0 72.1234 19.0368 1373 117.953 120.813 468.698
1378 0 73.2023 16.5842 1214 122.205 119.471 464.047
1379 0 76.1863 16.9453 1291 122.222 118.445 464.428
1380 0 77.1432 17.7721 1371 122.419 117.028 462.726
1381 0 81.3525 18.8808 1536 120.951 115.932 461.483
1382 0 80.1723 17.163 1376 125.549 114.246 459.639
1383 0 83.1254 14.3879 1196 131.063 113.424 457.609
1384 1 48.0929 13.869 667 124.678 112.331 477.576
1385 0 44.0841 11.2966 498 130.141 111.428 476.705
1386 0 50.0574 14.0039 701 128.703 110.409 470.466
1387 0 49.0828 8.80145 432 135.014 109.731 471.894
1388 0 52.1281 11.0113 574 134.052 109.418 465.998
1389 0 53.0925 15.2564 810 129.133 108.768 465.637
1390 0 55.1668 14.6646 809 128.397 108.591 464.04
1391 0 57.1188 15.0038 857 126.068 109.271 465.362
1392 0 59.1674 13.6224 806 128.846 109.285 464.5
1393 0 60.0697 14.4166 866 128.294 109.43 462.911
1394 0 60.1108 16.9021 1016 125.374 110.376 461
1395 0 63.2386 15.1174 956 127.972 110.934 459.763
1396 0 65.2416 12.63 824 132.754 112.223 458.733
1397 0 68.1941 16.3064 1112 126.765 113.873 457.9
1398 0 70.1478 13.1294 921 130.228 114.809 461.127
1399 0 72.1491 15.9947 1154 126.855 116.627 456.462
1400 0 73.2602 13.2678 972 130.458 118.864 459.96
1401 0 78.1628 17.0925 1336 123.529 119.543 456.179
1402 0 76.2778 14.1588 1080 128.601 121.441 459.28
1403 0 80.4094 12.1876 980 130.473 122.235 462.065
1404 1 43.0308 8.34286 359 129.613 123.942 478.251
1405 0 45.0554 11.8965 536 124.795 123.567 478.631
1406 1 91.3151 13.875 1267 126.955 122.359 456.375
1407 1 51.1101 12.5807 643 124.467 123.058 477.219
1408 0 48.0598 13.0463 627 125.874 122.533 477.769
1409 0 52.1128 10.7267 559 129.794 121.78 480.596
1410 0 53.0993 16.1961 860 125.163 120.328 471.9
1411 0 55.2925 16.5665 916 123.087 118.434 475.105
1412 0 58.2194 16.6439 969 123.881 116.509 475.897
1413 0 58.1758 12.5138 728 130.183 114.449 477.662
1414 0 62.1848 16.2258 1009 124.558 113.475 475.02
1415 0 61.1906 14.463 885 126.322 111.765 476.493
1416 0 65.2909 15.6837 1024 125.476 110.67 473.906
1417 0 70.1758 17.0429 1196 123.003 109.792 469.772
1418 0 72.1379 14.3753 1037 126.597 107.812 470.97
1419 0 73.1131 16.3856 1198 124.333 107.644 468.928
1420 0 77.1334 16.5817 1279 123.843 108.45 466.841
1421 0 75.3078 15.669 1180 127.03 108.007 462.805
1422 0 80.1132 15.4656 1239 126.334 106.822 461.377
1423 0 80.0629 15.288 1224 127.45 107.06 461.092
1424 0 81.0993 17.5217 1421 123.058 106.977 461.799
1425 0 83.154 10.3182 858 133.98 107.499 461.234
1426 0 91.1163 12.7859 1165 130.425 107.356 455.718
1427 0 90.14 15.5203 1399 125.871 107.871 456.658
1428 0 92.1824 14.3845 1326 129.52 108.152 451.953
1429 1 50.1174 9.57752 480 131.121 108.396 475.912
1430 0 52.1368 10.1847 531 131.881 109.412 473.689
1431 0 54.2209 14.6069 792 124.779 111.324 472.735
1432 0 57.1069 12.5379 716 129.12 112.82 471.828
1433 0 54.1847 11.8668 643 130.476 114.507 473.288
1434 0 58.1334 13.6066 791 127.494 115.714 469.994
1435 0 62.228 14.2058 884 123.46 116.856 473.862
1436 0 62.2175 11.4437 712 131.598 117.718 468.975
1437 0 64.2559 15.8118 1016 125.213 118.578 467.767
1438 0 69.203 13.4387 930 127.433 119.528 472.409
1439 0 74.3574 14.632 1088 124.402 119.365 472.908
1440 0 80.53 19.8311 1597 115.949 119.052 472.632
1441 0 76.2904 16.5552 1263 124.884 118.261 467.499
1442 0 82.3321 19.1906 1580 119.442 118.088 470.292
1443 0 85.4847 15.5349 1328 125.809 117.401 469.381
1444 0 87.4503 17.0268 1489 124.165 116.176 468.304
1445 0 85.1286 13.7322 1169 131.353 114.77 466.796
1446 0 90.2903 16.9786 1533 128.511 112.771 460.855
1447 0 93.2611 17.585 1640 125.29 111.37 465.237
1448 0 98.1659 14.5876 1432 132.047 109.762 457.146
1449 0 99.1916 15.959 1583 131.128 108.208 450.929
1450 0 103.403 14.7191 1522 131.624 107.422 457.423
1451 1 53.0759 14.6959 780 127.76 107.479 480.356
1452 0 57.1468 11.6542 666 134.53 106.851 475.113
1453 0 58.1711 11.5177 670 133.425 106.393 476.215
1454 0 60.1515 12.0695 726 132.508 106.382 474.525
1455 0 61.1067 14.8592 908 128.63 105.914 472.148
1456 0 63.0974 13.4871 851 132.537 105.843 467.659
1457 0 66.3621 14.3154 950 131.032 105.811 465.484
1458 0 70.1216 15.2592 1070 126.895 104.974 462.986
1459 0 71.2655 15.0423 1072 127.582 104.714 461.226
1460 0 73.1607 15.0491 1101 129.105 105.949 458.848
1461 0 78.2825 15.1375 1185 128.151 107.557 458.129
1462 0 79.1769 14.1076 1117 132.389 107.953 454.824
1463 0 82.0878 14.4358 1185 130.937 110.111 455.792
1464 0 83.1837 13.6325 1134 133.488 111.188 452.313
1465 0 87.3062 15.8523 1384 130.34 112.534 450.379
1466 0 90.107 15.3928 1387 130.961 114.683 450.262
1467 0 91.1097 13.9612 1272 131.686 117.002 453.69
1468 0 94.21 14.2129 1339 133.308 118.916 447.898
1469 0 97.2753 14.5052 1411 133.174 119.383 450.452
1470 0 101.089 16.0848 1626 128.782 120.498 453.057
1471 0 105.259 14.431 1519 132.204 121.116 450.699
1472 0 108.138 13.2423 1432 133.837 121.631 450.969
1473 0 113.195 17.5714 1989 125.584 121.543 449.148
1474 0 114.258 14.5548 1663 130.145 122.293 446.574
1475 0 119.479 19.9114 2379 121.422 121.22 446.93
1476 0 125.45 16.2296 2036 127.433 121.424 440.85
1477 0 129.296 15.9789 2066 128.056 120.635 442.632
1478 1 69.1326 12.2229 845 131.264 120.057 470.169
1479 0 72.2097 18.0308 1302 124.171 119.459 465.071
1480 0 72.1318 20.6012 1486 120.724 118.123 464.512
1481 0 72.1453 14.845 1071 130.485 117.361 463.743
1482 0 76.122 16.8283 1281 126.762 115.128 465.043
1483 0 81.1761 19.0327 1545 122.752 114.342 464.861
1484 0 81.162 15.6231 1268 127.662 112.674 462.084
1485 0 84.2479 15.7036 1323 127.42 111.569 461.579
1486 0 87.169 18.6764 1628 123.034 110.59 458.268
1487 0 88.1252 14.8539 1309 130.503 109.314 454.638
1488 0 88.1408 14.8058 1305 131.533 108.795 450.758
1489 0 94.1471 17.3452 1633 124.925 108.062 447.782
1490 0 96.3341 16.6296 1602 126.123 109.44 451.828
1491 0 98.3828 14.1386 1391 131.602 108.898 446.891
1492 0 103.356 17.1059 1768 128.031 109.048 443.197
1493 0 109.182 18.5471 2025 124.924 109.309 444.407
1494 0 113.426 16.6365 1887 128.629 108.764 439.351
1495 0 112.32 15.5982 1752 131.658 109.845 436.922
1496 0 118.315 16.2702 1925 129.084 110.306 434.784
1497 0 124.469 18.3499 2284 123.081 111.05 432.918
1498 1 69.224 8.7253 604 132.257 113.753 461.303
1499 0 70.555 13.2096 932 127.062 114.915 456.895
1500 0 73.2537 12.7639 935 129.413 116.263 451.74
1501 0 78.15 11.5675 904 127.29 118.249 452.04
1502 0 81.3614 15.425 1255 121.769 119.807 449.445
1503 0 82.1639 14.7023 1208 123.499 120.909 448.152
1504 0 86.2349 15.1795 1309 120.325 122.443 450.901
1505 0 92.2536 15.143 1397 121.255 122.552 446.647
1506 0 91.3024 14.4136 1316 121.644 122.903 448.77
1507 0 97.5673 17.5264 1710 116.833 123.078 448.021
1508 0 99.3315 17.7889 1767 118.414 122.851 447.554
1509 0 103.493 14.5807 1509 124.297 122.599 447.972
1510 0 108.47 15.1009 1638 122.395 122.446 444.344
1511 1 58.257 13.4233 782 126.189 122.004 466.698
1512 0 61.1629 13.3087 814 123.064 120.041 474.146
