time division length width area intensity CMx CMy
0 0 79.3012 17.6164 1397 127.227 822.457 444.71
1 0 81.2698 16.0699 1306 130.191 822.17 444.807
2 0 82.4857 20.3672 1680 123.803 823.271 444.412
3 1 45.2091 17.2311 779 123.191 823.987 459.365
4 0 43.2698 12.1563 526 132.612 823.3 463.411
5 0 46.2533 14.2909 661 129.592 822.351 463.127
6 0 49.1121 19.5675 961 122.182 822.607 462.486
7 0 51.1421 16.0142 819 126.31 821.532 464.015
8 0 49.2827 11.8297 583 130.914 822.125 463.465
9 0 53.19 12.5024 665 129.478 820.722 462.794
10 0 53.1333 15.1318 804 133.322 820.914 461.575
11 0 56.1978 13.15 739 138.681 820.52 462.433
12 0 54.0535 12.9131 698 147.338 819.276 460.199
13 0 57.1813 17.2084 984 136.699 818.609 461.2
14 0 61.1939 17.4854 1070 138.734 817.404 462.012
15 0 60.1637 13.9453 839 150.656 816.2 460.437
16 0 67.2414 16.7605 1127 143.287 814.756 459.117
17 0 64.0214 15.5729 997 155.612 812.564 457.826
18 0 66.052 15.73 1039 155.891 811.077 454.829
19 0 68.037 14.4627 984 159.092 810.094 457.03
20 0 70.1112 16.5452 1160 156.531 809.171 453.301
21 0 73.0504 14.8528 1085 161.276 809.51 450.808
22 1 36.0511 10.6515 384 165.344 809.458 464.635
23 0 39.0707 11.9783 468 157.239 807.778 465.688
24 0 41.0506 12.8865 529 158.112 805.667 464.62
25 0 45.211 11.8776 537 155.454 805.432 465.285
26 0 45.1268 15.6891 708 151.107 805.859 460.864
27 0 47.1388 13.8103 651 152.596 806.246 460.558
28 0 47.0986 13.0152 613 152.631 806.636 460.227
29 0 50.0293 12.0529 603 154.927 808.088 459.313
30 0 52.0419 19.1192 995 135.339 809.715 458.824
31 0 52.0428 14.0077 729 147.571 811.643 457.429
32 0 54.1133 13.4717 729 152.259 813.598 456.966
33 0 56.2155 15.743 885 134.611 815.751 460.205
34 0 57.1426 17.4301 996 132.512 817.159 459.007
35 0 57.1774 16.6849 954 131.192 819.297 457.284
36 0 59.1708 17.6607 1045 133.627 819.44 459.617
37 0 60.0975 14.3933 865 138.296 820.163 461.363
38 0 64.3264 16.0743 1034 135.713 820.387 460.52
39 0 64.2689 16.8355 1082 138.846 820.345 458.243
40 0 69.344 16.8291 1167 135.975 820.402 462.452
41 0 67.1048 12.3836 831 152.817 819.345 457.418
42 0 73.2312 17.0146 1246 145.681 818.592 457.693
43 0 74.374 16.2154 1206 151.59 817.938 456.367
44 0 76.193 13.4921 1028 162.168 817.15 456.365
45 0 79.1955 17.7535 1406 151.751 816.952 458.17
46 0 80.0992 16.7293 1340 156.47 815.688 454.02
47 1 43.0291 13.0609 562 163.071 813.9 472.68
48 0 47.134 12.3902 584 165.93 812.623 473.269
49 0 45.1056 13.2578 598 162.841 810.888 474.963
50 0 49.1631 14.9095 733 161.842 809.522 470.386
51 0 48.1949 15.5203 748 162.529 807.797 467.279
52 0 50.121 14.9039 747 163.088 808.058 469.246
53 0 51.1797 13.4233 687 168.875 807.361 466.32
54 0 54.1608 15.1216 819 162.811 806.929 465.602
55 0 55.0346 13.7186 755 163.991 804.645 465.93
56 0 56.0972 14.671 823 162.174 804.149 462.216
57 0 58.0557 15.8124 918 158.973 803.777 460.266
58 0 61.0525 15.8716 969 157.445 804.156 458.332
59 0 62.0175 15.2699 947 160.244 803.257 456.479
60 0 62.0769 12.5167 777 167.181 804.242 457.602
61 0 67.0584 15.0615 1010 159.236 804.676 456.004
62 0 70.1984 14.5587 1022 159.563 805.241 454.035
63 0 71.2433 13.6294 971 160.796 806.692 452.791
64 0 73.2326 14.256 1044 160.39 808.683 450.517
65 0 76.0844 13.4193 1021 157.689 810.834 451.096
66 0 78.1296 14.7319 1151 156.453 813.1 449.376
67 0 81.4619 14.7063 1198 148.8 816.107 449.597
68 0 84.9125 15.8281 1344 144.507 816.592 447.601
69 0 84.3498 14.6651 1237 143.203 817.778 444.911
70 1 44.4978 9.97803 444 140.518 818.642 465.056
71 0 47.4146 8.71039 413 138.949 819.76 465.712
72 0 51.7656 12.6339 654 134.442 819.567 464.705
73 0 52.3935 14.372 753 135.093 819.931 462.879
74 0 52.3935 14.4484 757 139.129 819.914 462.86
75 0 57.2312 14.6598 839 140.169 819.172 466.36
76 0 59.1403 13.8315 818 147.405 818.441 466.839
77 0 59.2123 16.4155 972 145.962 817.783 466.119
78 0 62.1103 15.1505 941 149.579 817.236 466.625
79 0 63.1965 15.1274 956 151.669 816.408 464.887
80 0 65.1193 16.6771 1086 151.454 814.987 464.783
81 0 67.4694 15.6515 1056 157.257 813.258 466.096
82 0 67.3191 13.5326 911 166.782 812.258 462.157
83 0 72.4006 17.6794 1280 155.585 810.643 460.055
84 0 71.3902 16.3188 1165 161.03 809.623 458.204
85 0 76.5445 17.5192 1341 158.754 807.369 455.887
86 0 80.5661 17.2777 1392 160.121 805.909 450.384
87 0 80.3403 13.3432 1072 171.52 805.045 450.956
88 0 83.3354 16.9796 1415 162.087 804.758 447.707
89 1 45.4514 12.0348 547 166.987 804.227 463.294
90 0 44.2672 12.1535 538 166.082 803.072 465.071
91 0 47.4412 11.5511 548 167.675 802.985 463.13
92 0 49.3605 12.6012 622 165.928 803.489 460.021
93 0 50.3807 13.7354 692 159.26 802.66 462.251
94 0 51.4033 14.3182 736 158.81 803.181 461.283
95 0 52.1643 12.2498 639 165.476 803.13 461.466
96 0 54.1906 13.9507 756 162.493 804.065 460.032
97 0 56.2294 15.0277 845 160.258 805.94 459.013
98 0 58.1868 13.6457 794 164.63 807.775 457.101
99 0 58.2765 14.0537 819 153.659 810.382 460.944
100 0 63.2312 13.6483 863 152.878 812.244 456.99
101 0 67.4329 16.357 1103 142.023 813.679 459.431
102 0 65.1422 16.0879 1048 144.969 815.822 458.505
103 0 67.1451 15.9952 1074 144.238 817.278 458.812
104 0 70.2366 13.184 926 146.631 818.432 456.423
105 0 72.2417 17.6076 1272 137.963 819.317 454.17
106 0 75.3764 16.013 1207 141.377 819.303 452.898
107 0 79.335 19.9534 1583 133.589 820.567 449.454
108 0 81.4669 16.7062 1361 139.985 819.856 452.092
109 0 83.4226 17.5852 1467 138.861 819.639 451.993
110 0 86.497 16.7867 1452 146.999 818.857 451.647
111 0 87.4436 15.6215 1366 153.162 817.908 450.328
112 0 90.3791 16.4308 1485 153.739 817.26 447.933
113 0 92.3791 15.3281 1416 156.044 815.95 450.139
114 0 95.2772 14.0117 1335 165.436 813.981 447.494
115 0 99.2873 16.2861 1617 159.894 813.229 447.393
116 0 100.174 15.9423 1597 163.225 811.631 444.869
117 0 104.227 16.7328 1744 160.337 810.447 443.553
118 1 56.0936 12.1404 681 159.241 810.131 468.545
119 0 58.2622 10.7274 625 162.763 808.386 467.2
120 0 60.0676 12.4193 746 160.527 806.912 463.2
121 0 64.1583 12.9056 828 162.103 805.822 461.995
122 0 64.0424 14.3499 919 160.171 804.586 457.032
123 0 68.191 13.2862 906 159.419 803.574 458.372
124 0 68.262 12.5546 857 163.965 802.082 455.636
125 0 71.2353 14.1222 1006 158.773 802.702 456.648
126 0 73.2187 15.324 1122 157.725 802.057 450.347
127 0 77.3343 14.1464 1094 157.441 802.112 451.183
128 0 77.1939 12.6694 978 162.268 801.999 447.883
129 0 78.2541 13.0089 1018 162.305 803.547 447.931
130 0 83.2478 15.0514 1253 152.314 803.675 444.893
131 0 86.1908 13.7834 1188 156.15 805.286 443.923
132 0 88.1664 13.4405 1185 157.197 806.644 439.614
133 0 92.3311 13.1483 1214 154.27 808.942 439.068
134 0 93.2841 12.7139 1186 152.271 810.813 441.559
135 1 47.0395 9.80028 461 146.829 813.223 463.304
136 0 52.0875 9.23446 481 147.493 814.622 460.428
137 0 53.0479 9.3689 497 147.938 815.225 458.934
138 0 56.1132 10.9065 612 140.459 815.944 466.332
139 0 57.1763 8.83233 505 146.345 816.154 460.588
140 0 60.1374 13.4525 809 135.844 816.24 462.033
141 0 63.1643 13.8844 877 136.275 815.666 460.241
142 0 66.11 14.0977 932 135.594 814.719 460.6
143 0 64.0478 10.1331 649 143.747 813.74 460.656
144 0 65.2026 10.2757 670 146.007 813.294 459.366
145 0 71.1843 16.2114 1154 134.399 813.196 459.418
146 0 72.3267 12.4712 902 147.906 811.628 456.97
147 0 76.1408 10.0603 766 151.142 810.247 459.283
148 0 77.1651 14.2163 1097 143.644 809.22 454.813
149 0 78.1714 13.0866 1023 147.8 807.89 455.246
150 1 43.021 12.1104 521 142.386 805.814 473.756
151 0 44.0411 12.0569 531 139.893 804.394 474.889
152 0 44.0311 11.0149 485 141.975 802.499 476.439
153 0 43.0301 9.24935 398 151.465 801.171 471.095
154 0 48.0748 12.0437 579 142.231 800.682 473.073
155 0 47.0527 11.5403 543 145.331 800.064 469.464
156 0 52.0719 12.3675 644 144.88 798.607 466.919
157 0 50.0612 11.6058 581 149.855 798.034 462.189
158 0 53.099 13.7667 731 142.618 799.554 463.25
159 0 53.0517 11.7621 624 148.41 799.785 463.942
160 0 57.0262 14.4495 824 142.506 799.807 460.884
161 0 58.118 12.5606 730 146.403 800.008 461.984
162 0 60.0378 12.8919 774 146.185 800.057 459.738
163 0 60.0733 11.5692 695 151.014 800.675 455.685
164 0 64.0853 14.4495 926 142.69 802.068 457.591
165 0 68.0421 16.3869 1115 138.455 803.922 453.67
166 0 69.1225 12.8323 887 146.211 806.33 454.683
167 0 71.126 14.3829 1023 142.151 807.85 454.643
168 0 74.2954 12.7733 949 146.37 809.072 451.869
169 0 75.1847 11.9705 900 145.743 810.696 453.98
170 0 78.1327 14.7314 1151 139.639 811.83 451.249
171 0 82.1096 14.298 1174 140.267 812.951 451.978
172 0 83.1626 12.8784 1071 142.877 813.265 454.613
173 0 85.245 14.5229 1238 140.893 813.887 456.16
174 0 89.3474 12.457 1113 152.922 814.136 451.058
175 1 47.0751 9.66541 455 148.974 814.793 473.281
176 0 50.0289 11.7932 590 148.029 813.886 471.378
177 0 50.0277 10.5342 527 154.343 812.954 471.118
178 0 55.1315 13.2955 733 148.303 812.879 470.486
179 0 53.169 12.4509 662 149.021 811.438 473.356
180 0 57.2907 13.7195 786 146.947 810.602 470.271
181 0 56.1678 11.3054 635 151.468 809.047 473.378
182 0 59.2026 13.7832 816 149.047 807.582 470.18
183 0 59.134 12.3956 733 152.128 806.625 467.995
184 0 61.196 12.0759 739 154.106 804.949 469.103
185 0 63.2758 14.8872 942 147.454 803.28 469.2
186 0 65.2576 14.4198 941 148.755 801.77 467.61
187 0 67.2449 14.1126 949 150.424 800.508 464.837
188 0 67.2528 11.0479 743 157.261 799.46 464.179
189 0 68.174 11.8667 809 157.575 799.232 460.681
190 0 71.1456 15.4331 1098 149.947 798.578 459.985
191 0 73.193 15.2064 1113 147.805 798.317 460.984
192 0 75.1345 14.9998 1127 152.001 798.028 452.697
193 0 77.3428 15.6834 1213 150.462 797.475 452.542
194 0 80.2749 14.986 1203 150.622 798.04 450.582
195 0 82.3241 13.0581 1075 155.807 797.749 449.001
196 1 42.066 9.24737 389 152.08 799.553 468.666
197 0 47.1815 11.8691 560 144.402 800.445 468.416
198 0 47.288 9.32583 441 149.701 800.342 466.882
199 0 48.3878 12.6065 610 149.405 801.475 459.882
200 0 50.4154 12.0201 606 148.736 802.784 460.251
201 0 50.3358 12.1981 614 148.845 804.989 460.161
202 0 54.3848 12.9264 703 144.174 807.428 462.972
203 0 54.1672 12.8491 696 141.634 811.701 464.057
204 0 56.1606 13.2477 744 143.653 812.429 463.117
205 0 55.1827 12.6489 698 144.623 813.063 465.957
206 0 57.0566 13.5304 772 143.969 813.083 464.916
207 0 61.4584 14.2047 873 140.293 813.724 464.026
208 0 61.4882 14.6857 903 141.981 813.801 464.654
209 0 61.3349 11.9345 732 149.29 812.604 468.038
210 0 62.5181 14.6038 913 143.859 812.701 466.215
211 0 64.1785 15.2232 977 148.261 811.843 464.919
212 0 66.2748 14.1079 935 149.188 811.369 466.975
213 0 68.3618 13.9844 956 150.901 809.392 464.609
214 0 70.2553 14.4616 1016 147.39 808.411 462.094
215 0 71.2444 15.5661 1109 145.735 806.978 463.817
216 0 74.2672 15.3365 1139 146.065 805.724 461.93
217 0 78.3108 15.9748 1251 143.792 805.093 460.163
218 1 41.0887 7.76369 319 148.944 805.649 479.323
219 0 43.0799 9.7029 418 145.344 803.696 478.014
220 0 45.0641 10.0523 453 146.79 801.985 476.565
221 0 42.023 10.1373 426 150.462 800.573 473.251
222 0 46.1566 13.5408 625 141.205 797.968 469.483
223 0 48.1056 13.013 626 140.888 797.508 470.185
224 0 50.0173 14.0352 702 139.185 797.63 469.1
225 0 48.0748 11.8149 568 145.495 796.41 467.317
226 0 50.0876 11.959 599 144.721 796.389 464.766
227 0 54.1412 12.8737 697 141.258 797.732 464.085
228 0 57.1345 17.6776 1010 130.903 798.47 463.178
229 0 58.1231 14.5381 845 137.337 799.269 461.369
230 0 58.1827 18.1325 1055 130.712 799.829 462.677
231 0 61.0905 15.9436 974 132.742 800.755 459.475
232 0 61.1652 16.0222 980 132.532 802.381 461.176
233 0 63.0807 14.2516 899 137.33 803.852 457.775
234 0 65.1893 17.9017 1167 130.955 805.433 456.466
235 0 66.0486 14.7467 974 136.399 807.156 454.889
236 0 68.2337 13.9667 953 137.758 809.114 456.072
237 0 73.2291 15.3901 1127 130.556 810.826 459.795
238 0 73.1516 14.4494 1057 136.644 811.016 456.338
239 0 73.1433 12.7148 930 137.787 812.336 454.456
240 0 78.1412 11.9271 932 136.137 812.765 461.208
241 1 42.0538 10.439 439 137.344 812.444 476.214
242 0 41.0205 7.84973 322 145.758 812.23 476.373
243 0 43.0283 10.9231 470 142.794 811.666 475.336
244 0 46.0474 11.4447 527 141.197 810.647 476.324
245 0 45.0327 10.4369 470 145.019 810.817 475.177
246 0 49.0881 15.3398 753 134.054 806.952 476.137
247 0 49.0965 14.665 720 137.842 805.715 471.683
248 0 49.1685 13.3825 658 142.327 805.845 471.988
249 0 50.0364 15.4088 771 139.578 803.658 471.027
250 0 53.0759 11.6437 618 145.508 802.866 473.369
251 0 55.0562 17.0371 938 135.096 801.68 474.016
252 0 54.0808 14.9406 808 141.808 799.886 471.407
253 0 58.1321 14.8627 864 140.581 798.861 470.186
254 0 61.1424 14.4744 885 142.673 797.682 467.332
255 0 62.0615 15.3396 952 141.818 796.32 465.664
256 0 63.0524 14.0359 885 145.736 795.637 463.199
257 0 67.0955 15.9623 1071 140.733 795.625 462.319
258 0 69.0865 16.4287 1135 140.187 794.836 460.608
259 0 70.0337 16.5635 1160 143.454 794.407 456.046
260 0 70.1115 12.8224 899 151.946 794.553 457.125
261 0 74.0438 17.0305 1261 142.401 794.41 454.505
262 0 78.06 16.6411 1299 144.009 794.924 449.768
263 0 79.0698 15.2903 1209 146.602 795.428 451.56
264 0 81.0807 15.2811 1239 145.278 798.488 450.383
265 0 83.1534 13.2045 1098 150.809 799.821 449.578
266 0 85.0707 15.4577 1315 148.538 801.821 449.012
267 0 85.0707 15.4695 1316 141.198 803.843 449.116
268 0 92.1572 15.2674 1407 148.54 805.786 446.471
269 1 45.0543 10.0101 451 145.526 806.993 472.421
270 0 49.124 11.0537 543 147.077 808.88 470.718
271 0 52.1395 10.8747 567 143.522 809.303 470.896
272 0 51.1027 10.1951 521 148.735 811.008 469.839
273 0 50.2708 8.97141 451 153.767 811.942 469.277
274 0 59.2743 15.9934 948 137.694 812.168 466.387
275 0 58.0955 10.3622 602 151.975 812.081 470.108
276 0 60.0715 13.8169 830 145.735 811.655 466.494
277 0 62.1358 14.8385 922 143.277 811.746 468.296
278 0 66.1763 14.6125 967 143.293 811.025 468.52
279 0 66.1478 13.485 892 148.219 810.081 465.083
280 0 67.0778 12.4035 832 151.44 808.683 464.942
281 0 71.1934 12.0376 857 150.295 808.121 465.662
282 0 71.1779 12.0683 859 155.315 808.132 465.579
283 0 76.2957 13.7491 1049 146.825 805.095 463.354
284 0 74.1422 13.2178 980 150.095 803.658 459.787
285 0 80.113 13.5933 1089 148.201 801.418 460.3
286 0 81.1927 13.8313 1123 147.412 800.323 458.453
287 0 85.1249 14.3436 1221 145.734 799.016 456.192
288 1 44.0916 9.14007 403 147.588 799.278 476.993
289 0 46.0398 10.2737 473 141.266 797.901 477.683
290 0 49.0398 10.4201 511 143.924 796.728 474.106
291 0 50.1709 12.9358 649 140.3 796.639 471.721
292 0 52.058 11.7561 612 142.99 795.773 468.686
293 0 53.2799 11.768 627 144.777 797.123 468.054
294 0 54.1022 11.774 637 144.077 796.576 466.63
295 0 55.1392 12.3868 683 143.697 797.738 464.717
296 0 59.2066 14.8125 877 137.31 797.916 463.325
297 0 59.2026 13.1075 776 144.149 799.513 462.746
298 0 62.2643 15.0969 940 139.449 800.667 461.346
299 0 65.1486 14.7202 959 139.706 802.032 459.488
300 0 66.2018 12.9906 860 144.988 803.752 458.252
301 0 68.2754 16.5946 1133 137.418 805.449 459.75
302 0 68.2288 14.085 961 141.868 807.29 456.338
303 0 73.207 15.1488 1109 139.484 808.848 457.089
304 0 76.335 18.4581 1409 129.846 810.185 457.488
305 0 77.3639 13.9471 1079 138.508 810.983 457.055
306 0 80.2096 15.7961 1267 135.167 811.108 455.709
307 0 83.4272 15.9181 1328 133.858 812.724 457.159
308 0 86.1564 15.4138 1328 137.745 811.748 455.249
309 0 88.2548 14.7641 1303 140.473 811.047 454.284
310 0 91.1836 13.1164 1196 143.702 810.351 455.334
311 1 50.1593 9.46983 475 138.754 810.777 479.741
312 0 48.0455 13.0085 625 139.477 810.085 474.635
313 0 53.1175 14.4773 769 132.512 808.356 477.836
314 0 53.0711 11.4563 608 141.513 807.263 474.286
315 0 55.1456 14.6158 806 137.412 806.37 473.354
316 0 58.2398 15.0241 875 136.078 805.543 472.945
317 0 58.1052 17.1413 996 131.729 804.01 474.253
318 0 62.2072 16.3968 1020 132.228 802.712 471.665
319 0 63.1443 13.4929 852 140.6 801.473 466.847
320 0 64.103 14.8199 950 137.617 800.496 466.872
321 0 65.2022 14.1866 925 139.67 800.171 465.425
322 0 70.1704 17.1012 1200 132.893 797.988 461.907
323 0 72.165 15.0073 1083 138.401 798.659 460.932
324 0 75.1326 15.6257 1174 135.692 798.272 461.704
325 0 75.1575 14.596 1097 141.644 797.798 455.073
326 0 79.0698 13.9118 1100 138.68 797.996 460.236
327 0 79.0602 13.8123 1092 141.95 797.97 460.151
328 1 42.0606 8.86816 373 142.373 798.271 474.539
329 0 43.0786 10.4228 449 141.688 798.612 470.078
330 0 45.0523 10.5655 476 141.153 799.374 470.849
331 0 45.2007 10.3981 470 139.86 799.619 471.343
332 0 46.2806 11.3871 527 140.768 800.903 464.313
333 0 49.1121 12.8685 632 137.019 801.076 467.802
334 0 48.0345 12.5743 604 139.265 803.581 467.255
335 0 50.1514 12.7015 637 138.389 805.155 465.141
336 0 55.2292 15.5534 859 129.742 806.598 468.61
337 0 55.082 17.1925 947 129.257 809.758 466.624
338 0 57.1905 15.2823 874 132.275 811.945 468.28
339 0 57.1769 14.9011 852 136.752 812.526 466.444
340 0 60.2013 14.4349 869 133.867 812.566 466.751
341 0 62.3045 13.9797 871 137.284 812.744 468.033
342 0 62.1672 14.6058 908 138.595 812.134 465.791
343 0 64.2002 13.8473 889 141.471 811.459 466.29
344 0 65.0472 14.2973 930 140.437 808.13 467.842
345 0 70.2412 14.3221 1006 141.255 807.279 467.031
346 0 72.0989 16.4912 1189 139.603 806.412 462.172
347 0 73.3163 15.4536 1133 142.396 806.034 463.736
348 0 74.4779 14.1519 1054 144.327 804.36 464.979
349 0 74.4779 14.1921 1057 146.124 803.374 465.106
350 0 80.243 14.3315 1150 143.881 801.692 463.458
351 1 43.1381 10.7562 464 142.892 799.256 480.573
352 0 42.0261 9.70825 408 144.181 798.12 480.228
353 0 47.1264 11.0129 519 142.936 796.738 476.877
354 0 47.159 13.3591 630 138.548 796.178 476.87
355 0 49.2149 12.9636 638 138.694 795.165 475.983
356 0 51.1122 13.2845 679 138.577 794.271 474.253
357 0 52.0838 16.2239 845 135.124 794.241 471.056
358 0 52.2499 14.4498 755 140.513 794.726 467.779
359 0 54.0946 15.1771 821 138.932 793.72 467.214
360 0 56.155 12.697 713 144.222 793.701 467.314
361 0 58.2075 15.3932 896 140.483 794.854 464.99
362 0 59.0849 15.0631 890 140.244 794.753 466.322
363 0 61.1494 16.2553 994 137.26 796.873 465.334
364 0 61.2694 17.1048 1048 138.032 797.894 461.416
365 0 64.3018 13.9498 897 144.293 799.42 463.227
366 0 63.2692 14.8413 939 147.196 800.4 458.119
367 0 63.1535 12.8576 812 152.522 802.897 457.957
368 0 68.3973 15.0737 1031 145.572 804.631 460.156
369 0 68.3264 10.8157 739 156.223 806.655 459.696
370 0 70.2265 14.2396 1000 149.11 807.943 460.302
371 0 76.1768 14.5057 1105 145.872 809.129 459.565
372 0 77.2818 13.3408 1031 147.759 809.715 460.464
373 0 79.4673 13.817 1098 149.804 809.985 458.629
374 0 82.2634 13.7971 1135 147.492 809.962 460.355
375 0 81.2886 12.5233 1018 152.11 809.965 460.808
376 0 84.1523 13.1785 1109 150.362 809.9 460.53
377 0 87.139 14.7695 1287 147.512 809.487 457.531
378 1 42.1684 9.67549 408 152.821 810.517 476.973
379 0 48.2114 10.6821 515 146.983 807.715 481.19
380 0 47.0554 9.01065 424 151.811 806.568 480.825
381 0 48.2125 12.4864 602 148.666 806.676 475.814
382 0 51.446 13.0234 670 144.172 807.107 478.342
383 0 52.2832 11.6672 610 149.028 804.974 477.149
384 0 56.2956 13.2515 746 145.95 802.944 474.519
385 0 57.1914 14.7924 846 140.41 801.975 474.11
386 0 57.1584 14.7485 843 141.765 800.754 472.879
387 0 60.0844 17.9248 1077 134.958 800.279 473.176
388 0 58.1062 13.9744 812 146.698 799.464 469.599
389 0 62.085 15.3016 950 141.685 798.435 467.873
390 0 66.1623 15.2353 1008 142.22 798.13 466.071
391 0 66.1411 15.3006 1012 142.126 796.634 465.346
392 0 67.0916 16.1868 1086 141.429 797.015 464.671
393 0 69.0734 14.376 993 147.49 796.652 461.915
394 0 72.2133 16.7559 1210 141.833 797.702 458.95
395 0 72.1425 12.8218 925 152.884 797.756 458.104
396 0 76.1844 15.3969 1173 145.199 798.522 456.667
397 0 78.1056 14.4676 1130 147.55 799.817 456.021
398 0 80.177 19.1826 1538 138.613 800.711 454.087
399 0 80.2079 14.3003 1147 149.428 802.534 452.548
400 0 87.1766 15.9676 1392 144.636 803.978 451.465
401 0 87.1762 17.4589 1522 143.033 806.319 451.506
402 0 89.1899 15.8202 1411 146.987 807.821 446.855
403 0 92.2619 15.0225 1386 145.941 810 452.756
404 0 94.2161 14.4137 1358 147.594 810.356 450.736
405 0 97.184 14.3233 1392 150.178 810.532 447.412
406 0 103.178 15.8367 1634 147.315 811.542 448.027
407 1 58.1523 10.0942 587 154.942 811.879 472.685
408 0 61.2461 11.2497 689 149.347 811.446 470.671
409 0 58.1312 10.1323 589 152.57 811.562 470.394
410 0 62.1272 10.4785 651 148.535 811.092 472.344
411 0 66.5096 15.0054 998 145.229 809.918 463.135
412 0 67.3098 13.6087 916 148.943 808.742 465.394
413 0 68.089 12.5571 855 150.033 805.267 469.768
414 0 71.0324 16.6825 1185 140.661 804.175 468.554
415 0 74.1492 17.1411 1271 139.389 803.971 467.704
416 0 73.1744 13.3243 975 148.982 802.492 465.762
417 0 79.1276 16.5934 1313 141.486 800.966 465.517
418 0 82.0732 14.7186 1208 145.245 799.69 463.84
419 0 81.131 15.2716 1239 145.153 798.343 459.86
420 0 85.1529 13.4699 1147 148.562 797.869 457.826
421 0 90.2066 18.1251 1635 136.383 796.64 458.262
422 0 91.216 16.5432 1509 140.174 796.498 451.866
423 1 47.0347 7.6114 358 148.207 794.81 474.863
424 0 48.0609 6.09643 293 150.863 794.433 473.355
425 0 48.0276 10.4107 500 144.632 793.944 467.304
426 0 54.0426 8.19724 443 144.774 793.686 469.436
427 0 54.058 11.0807 599 139.688 797.018 467.648
428 0 57.213 13.7032 784 132.307 796.486 461.886
429 0 58.1195 11.9237 693 136.97 797.18 461.048
430 0 61.56 13.4665 829 139.561 798.96 461.131
431 0 61.56 13.5802 836 129.544 799.959 460.981
432 0 64.0938 16.9595 1087 133.219 801.667 458.738
433 0 69.2841 19.4417 1347 128.125 803.552 459.147
434 0 71.3953 14.1886 1013 137.838 805.419 458.931
435 0 72.3768 14.0515 1017 139.522 807.255 458.528
436 0 76.5116 16.4027 1255 135.036 808.578 458.302
437 1 41.147 8.48178 349 145.731 809.742 474.84
438 0 44.1418 11.4631 506 141.496 809.992 474.682
439 0 43.388 9.51876 413 148.063 810.998 475.203
440 0 48.2022 10.2277 493 143.079 811.467 476.99
441 0 48.2506 9.78226 472 147.22 810.017 475.441
442 0 48.205 11.1607 538 143.141 809.993 477.506
443 0 50.2483 11.7019 588 140.371 809.614 477.98
444 0 52.358 13.7133 718 141.561 808.965 472.967
445 0 53.3428 13.8725 740 141.392 808.572 472.791
446 0 57.1597 14.9056 852 136.509 806.54 474.61
447 0 60.1256 15.9167 957 134.296 804.862 472.764
448 0 56.1544 15.1724 852 136.19 804.315 473.424
449 0 60.1059 15.1566 911 136.161 803.154 471.105
450 0 60.0474 13.8724 833 141.636 802.938 469.663
451 0 64.1116 16.0345 1028 136.971 801.212 468.521
452 0 65.1736 15.3897 1003 137.215 799.111 467.204
453 0 67.0898 14.1899 952 140.812 798.986 464.898
454 0 68.093 15.097 1028 139.652 796.766 461.861
455 0 73.1318 14.3713 1051 141.062 796.334 461.058
456 0 75.1083 16.6959 1254 135.738 795.522 460.127
457 0 77.1529 21.9823 1696 127.682 795.439 455.681
458 0 80.197 15.5367 1246 139.994 795.347 453.409
459 1 43.0485 11.127 479 146.104 793.758 470.635
460 0 43.0456 11.7782 507 145.755 794.026 470.572
461 0 43.0714 11.2836 486 148.276 794.14 468.658
462 0 46.0647 12.96 597 145.961 796.558 467.918
463 0 49.0915 11.5702 568 148.986 798.018 466.896
464 0 51.1277 13.2805 679 145.493 797.395 462.981
465 0 51.0756 11.3166 578 147.365 799.531 462.258
466 0 52.0891 11.9219 621 145.723 803.077 462.122
467 0 53.1113 15.3075 813 144.36 805.507 462.573
468 0 57.3133 15.3717 881 140.644 808.127 464.129
469 0 61.174 16.2651 995 136.706 810.019 466.786
470 0 61.0928 15.8939 971 141.1 810.44 460.945
471 0 59.0645 13.3244 787 146.633 811.825 463.238
472 0 63.0527 12.0058 757 148.392 812.056 464.081
473 0 62.2556 12.529 780 149.701 811.927 464.768
474 0 65.0242 13.0874 851 149.033 811.804 464.377
475 0 69.052 14.9453 1032 145.609 810.612 463.043
476 0 68.0515 12.1085 824 154.562 810.187 461.792
477 0 74.0872 17.8033 1319 141.807 809.475 462.723
478 0 75.1621 13.7969 1037 150.493 810.194 461.267
479 0 80.1202 17.4363 1397 142.244 808.997 462.112
480 0 82.1615 14.9705 1230 148.427 808.107 462.795
481 0 85.1272 15.2948 1302 150.294 806.123 460.264
482 0 84.0889 14.9247 1255 152.109 804.399 460.274
483 0 88.2735 15.282 1349 152.142 802.834 456.989
484 1 50.111 12.4124 622 151.272 801.564 477.701
485 0 50.0377 15.0287 752 146.539 801.267 476.399
486 0 49.074 12.7766 627 154.52 799.279 472.611
487 0 52.0285 17.0099 885 142.102 798.249 474.028
488 0 54.2626 14.0244 761 150.958 797.908 470.807
489 0 55.1083 13.0289 718 152.932 797.513 469.979
490 0 59.0885 15.756 931 145.4 797.696 467.591
491 0 58.1506 12.3645 719 153.993 797.438 467.598
492 0 59.1098 14.0586 831 152.733 797.35 463.487
493 0 63.1186 15.5105 979 147.51 797.376 463.524
494 0 63.1089 14.8315 936 150.92 797.411 461.043
495 0 68.0876 15.8178 1077 146.747 798.046 459.274
496 0 69.1464 16.3277 1129 148.141 798.687 458.223
497 0 68.0838 13.1456 895 156.107 800.196 458.321
498 0 73.0821 14.0527 1027 153.841 801.304 456.136
499 0 78.1614 19.3446 1512 140.538 803.455 454.88
500 0 76.2956 14.4831 1105 153.944 806.013 454.275
501 0 81.1601 16.1902 1314 149.895 806.836 452.295
502 0 83.1586 16.3423 1359 151.189 808.687 451.614
503 1 44.1509 13.9748 617 146.699 810.498 474.151
504 0 46.0728 11.2431 518 154.23 812.185 473.832
505 0 47.0278 10.2705 483 156.969 813.176 474.418
506 0 50.1034 9.91948 497 155.897 812.954 475.748
507 0 51.1926 12.8339 657 152.145 812.03 473.837
508 0 53.1734 11.8104 628 154.994 812.377 473.744
509 0 58.2161 13.9308 811 147.689 812.46 475.565
510 0 58.1461 15.719 914 146.059 811.981 473.911
511 0 59.149 16.1119 953 146.215 811.076 472.286
512 0 60.0658 14.4009 865 149.112 808.49 473.918
513 0 62.1035 15.1199 939 148.783 807.624 472.78
514 0 61.2865 12.3845 759 156.694 805.837 469.328
515 0 65.1676 13.0126 848 154.617 805.513 467.855
516 0 69.1676 13.5323 936 151.718 804.645 469.522
517 0 72.2946 14.9942 1084 148.077 803.612 466.64
518 0 71.1585 11.3128 805 159.302 802.027 464.683
519 0 75.3026 16.188 1219 146.046 800.546 463.085
520 0 73.2484 13.0924 959 155.588 800.169 459.581
521 0 78.2089 14.6403 1145 149.057 799.556 460.707
522 0 81.2519 13.3782 1087 153.879 798.393 455.061
523 0 82.1258 13.1018 1076 154.473 797.774 453.428
524 0 88.1401 16.5532 1459 143.969 797.476 453.752
525 0 88.1994 14.9207 1316 149.018 797.71 450.493
526 0 90.1855 14.4591 1304 150.767 797.396 445.825
527 0 95.2093 15.7758 1502 145.669 797.832 448.927
528 1 49.0572 13.8614 680 144.285 799.119 467.966
529 0 51.12 13.7128 701 142.986 798.817 469.422
530 0 49.1162 8.97871 441 154.02 801.057 466.088
531 0 53.1263 12.5738 668 146.16 802.76 463.34
532 0 58.1718 12.7209 740 143.293 803.162 463.899
533 0 57.1812 12.7489 729 142.431 803.31 463.808
534 0 59.1323 15.4907 916 138.531 805.205 463.441
535 0 59.0231 10.4535 617 148.42 806.59 464.695
536 0 60.0168 11.9466 717 144.831 807.905 465.176
537 0 64.0505 13.3645 856 142.183 809.277 460.05
538 0 64.0942 12.6533 811 144.531 809.34 459.096
539 0 68.1265 13.108 893 142.291 809.623 458.97
540 0 70.0784 14.6693 1028 138.996 809.954 459.176
541 0 72.0368 13.6042 980 139.99 809.642 462.305
542 0 74.1036 14.0209 1039 140.947 808.927 461.225
543 0 74.0383 15.438 1143 139.328 808.794 456.356
544 0 76.0428 16.1882 1231 121.712 808.794 457.813
545 0 80.1264 14.7018 1178 139.582 807.227 457.838
546 0 83.0924 11.2766 937 145.15 806.417 457.444
547 0 87.3957 13.9938 1223 139.542 805.554 458.173
548 1 44.0807 14.292 630 133.413 803.23 476.427
549 0 48.0954 13.9099 669 133.448 803.481 475.002
550 0 47.0866 9.68429 456 142.417 803.114 473.91
551 0 49.1983 8.69948 428 145.572 801.495 471.252
552 0 52.1482 12.1385 633 137.847 800.7 470.322
553 0 54.0902 12.9783 702 136.91 799.929 469.587
554 0 57.1881 12.2403 700 138.527 799.35 467.697
555 0 59.047 16.6647 984 131.289 798.526 467.471
556 0 59.0748 13.7453 812 137.544 797.947 466.225
557 0 61.1092 18.3278 1120 130.518 798.18 461.541
558 0 62.0974 12.3516 767 141.518 797.866 460.456
559 0 63.0968 10.6503 672 142.906 797.006 460.433
560 0 68.0489 13.8871 945 138.04 797.611 458.295
561 0 71.0973 15.6265 1111 135.285 798.525 456.551
562 0 71.1202 12.6828 902 143.925 799.926 453.612
563 0 73.0799 14.4362 1055 139.859 799.79 452.297
564 0 76.09 13.8257 1052 140.342 800.918 453.101
565 0 79.151 15.4262 1221 138.113 803.551 447.251
566 0 81.1097 14.3756 1166 138.587 804.107 453.349
567 0 82.1875 16.0122 1316 137.79 805.482 451.451
568 0 86.1814 17.2427 1486 136.24 807.95 448.539
569 1 45.0702 12.0035 541 135.784 808.654 473.312
570 0 44.1541 9.58009 423 140.22 809.778 472.374
571 0 47.1813 13.056 616 134.836 810.146 470.123
572 0 49.142 12.6369 621 135.786 811.295 472.841
573 0 48.2106 9.58296 462 136.703 811.818 470.463
574 0 50.3345 12.3971 624 132.149 811.405 467.657
575 0 51.0539 13.7894 704 134.253 812.915 474.69
576 0 52.104 11.9185 621 138.446 812.271 475.863
577 0 55.051 14.2958 787 135.038 811.543 473.971
578 0 56.0653 13.3951 751 138.238 810.333 474.427
579 0 58.0596 12.6766 736 139.175 809.712 475.442
580 0 59.0632 13.1215 775 135.995 809.304 476.37
581 0 60.1175 15.6028 938 133.955 807.816 473.052
582 0 66.1048 14.2804 944 135.267 806.293 473.234
583 0 66.1263 16.3173 1079 132.239 805.104 472.921
584 0 67.0524 14.9137 1000 136.861 803.614 472.495
585 0 71.1862 14.4129 1026 137.428 802.064 472.768
586 0 70.1162 13.877 973 142.265 800.862 466.222
587 0 74.1485 14.7002 1090 140.583 799.588 465.79
588 0 79.1365 13.2682 1050 142.452 798.501 465.313
589 0 82.2078 13.2956 1093 143.801 797.843 462.732
590 0 83.1435 13.0738 1087 144.641 797.362 461.961
591 0 84.1302 12.9561 1090 146.512 796.874 460.731
592 0 88.1845 15.6377 1379 141.321 796.141 458.165
593 0 92.2766 16.7756 1548 138.928 795.903 454.596
594 1 48.076 11.4402 550 147.64 796.907 475.344
595 0 45.0758 8.82957 398 154.764 796.596 474.168
596 0 53.1291 12.6484 672 143.193 798.952 474.714
597 0 52.0456 13.8917 723 143.01 799.366 474.263
598 0 54.2822 16.8564 915 135.352 797.648 472.982
599 0 57.2849 18.504 1060 133.814 800.121 474.292
600 0 56.1168 14.1669 795 143.317 803.312 472.491
601 0 59.074 15.0659 890 141.018 805.215 471.594
602 0 61.3218 15.4105 945 133.717 805.696 477.754
603 0 61.0851 14.799 904 140.772 806.143 473.186
604 0 64.032 14.2897 915 141.275 807.578 472.237
605 0 67.1026 18.0023 1208 135.137 807.52 468.846
606 0 68.0361 14.4041 980 143.005 806.937 467.732
607 0 71.186 13.6122 969 143.412 806.957 469.609
608 0 68.058 13.6501 929 145.961 807.088 465.092
609 0 73.1282 12.5943 921 143.251 806.749 471.764
610 0 78.2006 17.1354 1340 136.917 806.463 468.595
611 0 79.1064 14.7902 1170 142.984 804.987 466.068
612 0 81.0774 15.072 1222 143.642 804.109 464.226
613 0 84.0786 18.0545 1518 136.598 802.28 464.891
614 0 86.074 14.9174 1284 140.472 801.394 463.219
615 0 90.0871 18.6486 1680 134.278 799.736 462.939
616 1 45.0784 9.47238 427 147.431 797.972 482.941
617 0 47.0146 11.422 537 145.523 796.015 479.952
618 0 50.057 11.1872 560 145.564 795.459 478.545
619 0 52.0413 13.0089 677 141.109 794.582 477.897
620 0 55.0878 13.5965 749 138.502 793.252 477.227
621 0 54.2065 13.2641 719 141.527 791.612 473.823
622 0 58.0328 14.733 855 138.517 792.325 471.805
623 0 57.1472 12.949 740 142.492 792.493 469.254
624 0 61.1282 15.1812 928 138.869 792.125 464.769
625 0 61.1446 14.3757 879 141.2 793.334 464.254
626 0 64.1364 14.4536 927 141.318 793.411 462.236
627 0 66.0506 14.61 965 141.383 793.173 463.56
628 0 66.082 14.4064 952 145.002 794.645 458.431
629 0 70.1028 15.0208 1053 141.206 796.055 458.392
630 0 73.04 16.1829 1182 137.959 797.099 458.452
631 0 74.0761 15.1331 1121 141.039 797.046 457.417
632 0 78.1345 17.7258 1385 137.814 800.37 452.277
633 0 83.1211 17.5527 1459 137.149 800.899 454.029
634 0 80.0914 15.5073 1242 141.29 802.712 455.07
635 0 84.2212 14.082 1186 144.878 804.002 451.65
636 1 52.1025 10.441 544 139.333 806.112 476.643
637 0 51.1295 11.0504 565 141.575 805.857 473.051
638 0 52.1023 9.53893 497 147.441 806.734 471.423
639 0 54.0437 13.3226 720 139.078 807.065 472.274
640 0 58.1695 14.0108 815 138.102 808.539 472.283
641 0 60.1879 13.6905 824 139.528 808.597 469.873
642 0 59.0913 14.5199 858 138.071 808.446 473.147
643 0 63.105 13.533 854 141.059 807.866 471.189
644 0 63.0743 13.2384 835 141.944 807.279 471.213
645 0 68.0798 15.7756 1074 136.796 806.213 466.169
646 0 68.1138 14.7841 1007 139.841 804.777 469.571
647 0 71.1197 15.495 1102 138.716 804.176 467.593
648 0 73.038 15.9095 1162 137.779 803.561 467.318
649 0 75.111 15.7234 1181 139.191 802.267 466.251
650 0 76.1242 17.432 1327 137.07 800.461 464.312
651 0 80.1201 19.6206 1572 132.27 800.102 461.309
652 0 82.1358 15.7544 1294 140.597 798.18 458.455
653 0 82.1069 16.2228 1332 139.269 797.818 461.137
654 0 87.1026 16.5896 1445 138.888 796.725 454.606
655 0 89.1486 17.2745 1540 139.096 795.826 453.456
656 0 93.2729 19.9736 1863 132.806 795.208 452.018
657 0 93.1976 15.5583 1450 142.666 794.589 446.71
658 0 96.3107 15.0451 1449 143.854 794.176 446.201
659 0 100.185 13.6746 1370 145.426 795.011 442.653
660 0 103.243 18.3935 1899 136.83 794.31 442.003
661 0 108.278 17.2149 1864 138.578 795.221 440.413
662 0 109.397 13.8578 1516 146.18 796.856 439.544
663 0 113.287 14.0352 1590 145.748 798.613 438.54
664 0 116.223 12.7428 1481 150.126 800.234 433.668
665 0 124.408 15.5375 1933 144.151 802.431 432.411
666 1 67.2386 12.4928 840 142.483 803.852 462.16
667 0 65.1634 9.03882 589 151.334 805.304 463.104
668 0 70.2631 15.0008 1054 139.607 807.809 460.87
669 0 74.1089 15.5717 1154 137.885 808.67 460.378
670 0 75.1578 13.9041 1045 142.038 809.407 458.278
671 0 75.1586 13.9838 1051 138.948 810.411 458.202
672 0 79.1034 12.6796 1003 143.973 809.666 464.407
673 0 81.1048 14.0929 1143 143.386 809.485 462.037
674 0 83.0939 16.3791 1361 143.434 808.446 461.587
675 0 88.237 15.005 1324 145.822 807.722 460.01
676 0 90.2217 15.4952 1398 146.189 807.14 455.642
677 0 94.1955 16.4551 1550 143.388 806.681 456.518
678 0 96.2344 15.4726 1489 142.721 805.38 457.878
679 0 100.134 16.6876 1671 141.827 804.236 453.346
680 0 103.174 20.3443 2099 134.646 803.058 451.187
681 0 106.274 18.9133 2010 136.68 801.647 450.887
682 0 107.107 13.2857 1423 148.794 800.374 446.3
683 0 112.176 17.7668 1993 140.02 799.118 445.08
684 0 115.339 18.3632 2118 141.202 797.447 440.083
685 0 119.539 17.0153 2034 143.197 796.192 437.932
686 0 122.266 13.9369 1704 146.112 795.237 442.603
687 0 126.464 14.6761 1856 148.308 794.1 433.467
688 0 132.661 18.6792 2478 140.373 794.012 425.553
689 0 134.39 13.9594 1876 149.92 793.678 423.561
690 1 72.2124 10.0121 723 148.928 793.693 456.92
691 0 73.2084 10.1491 743 149.253 794.315 455.05
692 0 78.4065 14.157 1110 140.539 794.705 454.36
693 0 79.3182 12.2544 972 142.908 794.106 453.938
694 0 83.1225 12.4515 1035 144.771 795.272 452.437
695 0 84.1533 13.9507 1174 142.517 797.548 450.078
696 0 87.2341 13.9968 1221 140.492 798.816 450.355
697 0 90.3155 13.8847 1254 141.656 799.239 446.081
698 0 93.3552 15.6713 1463 137.209 801.396 446.692
699 0 95.4748 15.7738 1506 138.238 803.659 441.416
700 0 99.3122 15.9195 1581 135.108 805.295 443.705
701 0 102.599 14.3861 1476 139.078 806.327 439.831
702 0 105.393 15.39 1622 138.082 807.622 437.486
703 0 110.32 18.3919 2029 130.731 808.497 440.098
704 0 113.495 15.3311 1740 137.752 808.24 433.424
705 0 117.373 15.6595 1838 136.926 808.774 436.33
706 0 122.388 15.1649 1856 139.035 808.358 434.835
707 0 124.433 15.1648 1887 138.079 807.23 437.102
708 0 129.469 16.7144 2164 134.989 807.135 436.201
709 0 131.376 16.1292 2119 139.546 806.713 426.613
710 0 137.429 15.0405 2067 139.944 805.982 432.62
711 1 71.1241 11.6416 828 137.378 803.882 468.611
712 0 72.1064 13.5633 978 137.252 803.824 464.467
713 0 75.1031 15.5386 1167 134.982 803.44 463.712
714 0 79.1411 18.1322 1435 129.126 802.304 460.383
715 0 80.2019 16.9572 1360 129.818 801.329 460.095
716 0 83.3106 14.1519 1179 132.802 799.303 462.778
717 0 86.0744 14.836 1277 131.125 797.62 457.782
718 0 88.163 13.9401 1229 132.118 796.78 455.423
719 0 94.095 15.3568 1445 129.65 796.373 452.424
720 0 91.0941 11.296 1029 135.876 796.258 451.376
721 0 90.0897 11.2111 1010 139.507 795.259 451.014
722 0 100.187 13.7343 1376 135.026 795.451 443.243
723 0 104.172 15.7048 1636 132.854 795.658 439.991
724 0 107.372 12.5638 1349 136.589 795.688 445.613
725 1 56.3041 9.80391 552 138.219 796.554 465.168
726 0 59.0346 9.90944 585 138.715 797.803 463.785
727 0 62.0974 12.9796 806 131.205 798.398 460.851
728 0 65.0975 11.9667 779 132.281 798.896 462.736
729 0 67.1552 16.2162 1089 124.896 800.4 462.183
730 0 68.1031 11.2036 763 136.887 802.696 457.08
731 0 71.1906 13.1057 933 131.656 804.511 461.153
732 0 72.1081 10.5536 761 137.473 807.227 461.987
733 0 74.2247 13.5939 1009 133.011 807.57 456.978
734 0 78.1951 13.1978 1032 133.167 807.587 458.116
735 0 81.1664 13.7372 1115 130.992 808.91 462.257
736 0 82.2035 15.4616 1271 131.029 810.355 457.333
737 0 84.2642 12.4133 1046 136.687 809.61 461.002
738 0 89.1468 16.0073 1427 128.047 809.457 461.281
739 0 95.3663 18.0147 1718 123.878 808.712 461.192
740 0 98.2059 16.4349 1614 127.975 808.868 461.414
741 0 99.2066 14.868 1475 131.668 807.949 462.767
742 0 103.299 16.0603 1659 131.522 806.7 458.271
743 0 106.334 15.3479 1632 133.897 805.184 454.836
744 0 108.524 16.8626 1830 133.28 803.363 452.051
745 1 70.226 16.3757 1150 133.568 802.526 473.417
746 0 73.1585 15.6099 1142 132.148 800.595 477.981
747 0 74.1088 15.2344 1129 134.32 799.384 470.614
748 0 79.0979 18.7236 1481 128.097 797.159 465.782
749 0 77.1288 14.4563 1115 140.535 797.967 465.422
750 0 80.1165 14.7535 1182 137.91 795.842 463.513
751 0 84.2168 17.7281 1493 133.068 794.837 460.174
752 0 87.2567 17.374 1516 131.222 793.766 463.34
753 0 89.1824 14.9581 1334 136.92 793.52 458.566
754 1 45.0297 13.2135 595 135.334 793.077 479.049
755 0 46.0415 9.46971 436 140.704 792.665 479.642
756 0 47.0287 10.887 512 137.289 793.061 479.867
757 0 47.1221 11.4596 540 141.265 792.661 473.55
758 0 49.0588 13.6775 671 135.724 793.833 475.252
759 0 52.045 13.2578 690 137.941 794.909 475.545
760 0 54.1037 14.6755 794 135.021 795.144 475.016
761 0 56.1158 13.6325 765 135.48 794.535 473.416
762 0 55.1712 13.2678 732 137.566 796.391 472.482
763 0 60.1231 16.5327 994 129.037 797.724 473.537
764 0 60.1008 15.2411 916 134.355 799.955 470.373
765 0 64.2132 14.4519 928 135.044 800.898 470.034
766 0 66.1448 15.8289 1047 132.032 801.873 471.164
767 0 68.1746 15.519 1058 133.307 803.646 471.57
768 0 70.2189 17.2745 1213 131.219 804.901 467.552
769 0 72.1657 12.7623 921 139.317 805.378 470.155
770 0 76.0976 15.8744 1208 133.291 806.154 469.613
771 0 76.1225 16.1976 1233 134.168 806.195 467.11
772 0 82.1338 17.9707 1476 129.275 806.209 470.246
773 0 81.1397 17.3898 1411 133.182 805.772 468.19
774 0 85.1152 16.4248 1398 134.863 805.124 470.424
775 0 88.2123 14.7939 1305 137.893 803.997 469.055
776 0 91.1105 16.7599 1527 135.1 802.701 467.096
777 0 95.2205 22.9782 2188 125.747 802.218 466.443
778 0 98.328 16.2212 1595 137.248 800.298 465.252
779 1 52.047 13.7952 718 137.162 798.799 487.262
780 0 52.047 13.9297 725 147.662 797.797 487.163
781 0 51.1028 13.874 709 138.481 796.907 483.265
782 0 56.0601 16.2861 913 137.147 795.363 481.215
783 0 57.0518 16.5639 945 137.69 794.97 479.799
784 0 58.037 17.2304 1000 138.576 793.508 477.497
785 0 59.0646 13.4768 796 146.083 792.815 477.673
786 0 60.1212 16.317 981 141.463 791.991 475.925
787 0 63.0791 15.4885 977 142.767 791.619 472.942
788 0 63.0791 15.5519 981 153.836 790.592 472.918
789 0 67.1366 16.7122 1122 144.645 791.108 467.747
790 0 70.1417 15.7111 1102 147.076 791.103 465.272
791 0 71.0786 16.32 1160 147.94 791.553 462.397
792 0 74.1821 18.4007 1365 142.64 792.642 460.879
793 0 77.237 15.6531 1209 149.373 792.244 459.874
794 0 76.2171 16.5055 1258 150.959 793.061 457.601
795 0 79.141 16.5401 1309 150.453 794.909 457.449
796 0 81.1404 16.2065 1315 152.278 796.341 455.202
797 0 86.1602 17.4907 1507 147.137 798.632 456.577
798 0 84.1695 15.3737 1294 148.566 799.835 456.333
799 0 89.2637 16.3784 1462 147.157 801.64 452.561
800 0 92.2861 16.3513 1509 148.146 802.79 450.567
801 0 95.2482 16.8507 1605 147.136 804.038 448.704
802 1 48.0448 12.1761 585 151.863 806.043 474.436
803 0 50.0899 14.3941 721 147.383 807.042 474.892
804 0 51.2177 12.4762 639 151.351 807.302 475.761
805 0 53.0903 13.8067 733 148.98 807.402 474.772
806 0 55.2017 16.2133 895 145.515 807.454 471.334
807 0 57.3076 13.8027 791 150.724 807.062 475.239
808 0 59.2678 16.7882 995 148.58 806.571 473.217
809 0 61.1491 16.3208 998 148.075 806.095 476.484
810 0 63.252 16.5054 1044 149.809 805.876 472.904
811 0 63.1265 14.8749 939 153.371 805.505 471.345
812 0 66.2034 16.1019 1066 150.448 804.708 471.031
813 0 67.1949 15.0607 1012 156.411 804.287 465.512
814 0 72.225 16.504 1192 150.496 803.145 465.826
815 0 73.2017 16.6116 1216 152.703 801.798 463.04
816 0 74.2596 14.7052 1092 154.46 800.947 465.32
817 0 78.2436 15.9502 1248 152.768 799.55 460.75
818 0 83.131 19.0302 1582 145.092 798.983 458.863
819 0 79.163 14.4007 1140 158.696 798.022 453.232
820 1 40.0433 12.5115 501 160.076 798.371 474.449
821 0 44.2399 11.6637 516 154.159 797.496 475.913
822 0 48.3413 14.832 717 151 796.724 470.918
823 0 45.2284 11.9173 539 161.215 796.857 469.675
824 0 49.3125 13.5868 670 153.194 797.6 470.733
825 0 51.1917 15.1587 776 151.911 797.816 469.174
826 0 52.2933 15.241 797 152.118 798.373 466.393
827 0 50.3213 13.1753 663 159.354 799.103 466.679
828 0 54.3559 14.5706 792 154.104 800.369 465.307
829 0 57.2955 15.4986 888 152.604 802.157 464.113
830 0 57.1401 13.3881 765 157.518 803.333 462.752
831 0 61.1247 17.4234 1065 147.888 805.13 461.969
832 0 63.1877 15.9208 1006 152.058 806.346 462.426
833 0 66.4366 18.1225 1204 145.683 808.502 461.12
834 0 70.544 17.1666 1211 143.052 809.612 464.98
835 0 71.3443 20.338 1451 138.981 809.988 459.758
836 0 73.2853 18.0118 1320 138.912 811.269 463.029
837 0 77.5692 16.8237 1305 144.637 810.51 459.09
838 0 77.3374 13.189 1020 149.171 810.898 464.202
839 0 79.186 14.8006 1172 153.495 810.782 458.964
840 0 81.272 16.1556 1313 153.155 810.138 456.115
841 0 87.4354 21.8561 1911 140.547 809.822 458.35
842 1 45.8527 14.9391 685 151.804 809.394 479.492
843 0 44.3701 10.9308 485 161.524 807.891 479.505
844 0 47.1875 14.3258 676 155.086 806.571 478.524
845 0 49.2422 17.9115 882 150.893 805.316 475.271
846 0 53.9628 16.0296 865 153.232 803.651 475.484
847 0 53.3224 16.8785 900 152.298 802.456 475.828
848 0 56.3172 14.8445 836 159.476 800.94 472.159
849 0 59.4255 21.405 1272 146.092 799.286 470.826
850 0 60.1945 16.1477 972 158.463 798.51 469.052
851 0 61.3766 16.4395 1009 159.77 797.559 467.236
852 0 64.3016 16.9825 1092 156.207 796.542 467.904
853 0 67.2304 19.7083 1325 151.107 795.442 463.992
854 0 67.6015 13.9346 942 167.223 795.091 462.21
855 0 70.3803 18.5279 1304 157.291 795.097 458.301
856 0 75.292 18.581 1399 155.625 794.742 458.317
857 0 76.307 19.0284 1452 157.023 794.959 454.025
858 0 78.2975 16.4629 1289 162.875 795.275 454.846
859 0 80.1936 18.1935 1459 159.187 796.072 453.682
860 0 83.4685 19.9956 1669 153.975 796.756 454.951
861 0 85.386 17.052 1456 162.661 797.341 450.402
862 0 89.156 19.4827 1737 156.265 799.254 449.876
863 1 49.3561 12.9062 637 161.322 800.451 470.308
864 0 49.343 11.6126 573 168.864 801.607 467.637
865 0 52.2499 14.2775 746 161.61 803.936 467.418
866 0 52.4485 12.2596 643 168.232 804.854 467.185
867 0 53.1514 13.9601 742 168.656 806.27 464.46
868 0 55.4359 14.3589 796 163.714 807.131 466.975
869 0 59.3774 17.4814 1038 158.006 807.317 463.078
870 0 61.3839 14.8736 913 161.768 807.278 464.693
871 0 63.7423 15.3744 980 160.867 807.458 464.24
872 0 65.3118 15.0815 985 166.205 807.608 460.468
873 0 68.3521 15.0251 1027 165.306 807.543 460.262
874 0 69.2035 14.6235 1012 166.356 806.796 463.106
875 0 74.2402 15.2747 1134 165.894 806.416 460.943
876 0 75.2565 16.5966 1249 162.727 804.709 463.711
877 0 77.3249 16.4113 1269 166.479 803.798 460.7
878 0 82.2424 15.0774 1240 168.48 802.673 460.666
879 0 82.3222 17.0428 1403 166.371 801.96 458.112
880 0 86.1996 15.0117 1294 169.529 800.377 457.416
881 0 89.4018 15.1227 1352 171.57 799.212 452.439
882 1 46.2633 10.4835 485 161.371 796.767 473.664
883 0 47.1263 9.69734 457 162.849 795.72 473.521
884 0 49.1117 10.4049 511 160.932 795.294 472.121
885 0 50.1644 12.8976 647 157.142 796.257 470.643
886 0 54.1733 13.3276 722 152.614 795.479 470.864
887 0 55.0981 13.4669 742 151.4 794.391 468.244
888 0 56.045 11.4551 642 155.776 794.332 466.847
889 0 59.0756 14.236 841 150.495 794.541 465.317
890 0 58.1234 13.0412 758 154.927 793.848 461.542
891 0 62.0802 16.2532 1009 146.217 794.198 461.166
892 0 65.1673 11.9999 782 154.205 795.036 461.216
893 0 65.0616 11.7427 764 155.165 795.762 460.056
894 0 67.0367 12.2321 820 155.918 797.028 456.978
895 0 68.0681 15.9105 1083 147.225 798.269 457.989
896 0 67.1692 12.863 864 160.142 799.272 451.532
897 0 72.0634 14.293 1030 153.789 801.146 454.057
898 0 75.1165 12.7935 961 156.872 802.794 451.207
899 0 76.08 14.2482 1084 152.701 803.908 449.307
900 0 77.1 13.6835 1055 152.953 806.272 449.971
901 0 81.1365 15.8991 1290 147.704 806.527 447.744
902 0 86.4256 13.8501 1197 148.641 807.133 451.444
903 0 86.0746 12.5589 1081 150.877 807.333 451.254
904 0 89.126 13.206 1177 149.118 807.88 449.987
905 1 49.0726 7.09153 348 142.96 809.098 476.155
906 0 51.0505 8.38385 428 141.229 808.794 472.673
907 0 53.0498 10.82 574 139.096 808.603 470.888
908 0 54.0748 12.1313 656 133.457 808.16 471.686
909 0 57.0875 13.7333 784 130.966 807.334 470.305
910 0 58.106 12.9246 751 136.64 804.256 466.941
911 0 62.1374 10.2515 637 139.543 803.355 465.697
912 0 64.1553 13.0776 839 134.706 802.896 466.596
913 0 66.1248 14.0341 928 133.343 802.024 464.964
914 0 66.221 14.4516 957 133.885 801.106 459.79
915 0 67.2007 8.22908 553 140.796 800.286 466.861
916 0 72.5229 11.8032 856 137.258 798.891 460.051
917 0 72.248 10.5885 765 138.967 798.173 459.941
918 1 39.1766 9.87835 387 131.912 797.969 472.902
919 0 40.1894 11.1223 447 129.221 797.698 472.669
920 0 41.2581 10.7131 442 127.968 797.91 472.061
921 0 41.072 9.00856 370 131.422 797.746 471.011
922 0 40.0706 9.03406 362 131.63 797.876 470.646
923 0 45.0794 8.60703 388 131.546 796.701 466.469
924 0 46.0954 9.82744 453 131.011 796.245 469.578
925 0 48.0389 11.345 545 128.457 796.591 467.266
926 0 49.2786 9.07087 447 132.732 798.228 461.617
927 0 53.3486 11.0031 587 128.782 799.303 463.801
928 0 54.2355 12.5563 681 124.683 801.044 464.786
929 0 54.146 11.3028 612 129.265 802.289 460.855
930 0 57.1229 11.7291 670 127.61 804.693 461.469
931 0 60.2086 11.8089 711 126.323 807.028 464.634
932 0 58.1169 12.5093 727 127.75 808.076 462.301
933 0 61.167 11.0354 675 128.621 809.468 463.68
934 0 62.1384 13.0998 814 126.226 810.909 462.592
935 0 66.2484 11.5927 768 127.555 811.193 463.552
936 0 65.154 9.36243 610 133.166 812.148 462.07
937 0 67.2186 10.6964 719 132.437 812.33 458.961
938 0 70.2242 11.4633 805 130.221 812.901 461.601
939 0 72.1996 15.3602 1109 124.2 812.693 462.27
940 0 74.1946 11.362 843 131.387 812.085 463.074
941 0 79.0732 14.7332 1165 125.44 810.939 463.375
942 0 82.2681 15.3036 1259 125.494 810.389 463.697
943 0 85.3518 11.6694 996 132.036 809.42 461.347
944 1 43.0288 10.9229 470 128.455 808.938 478.417
945 0 47.0976 12.2936 579 126.672 808.456 476.729
946 0 45.0437 10.1457 457 129.958 807.897 478.558
947 0 49.06 13.4937 662 124.869 805.893 478.728
948 0 47.0365 11.034 519 134.067 804.803 473.401
949 0 52.1809 14.1623 739 128.195 799.839 474.571
950 0 53.1756 12.769 679 130.049 799.682 474.511
951 0 54.326 15.7751 857 128.558 798.329 470.506
952 0 55.1464 15.5767 859 129.182 797.092 468.573
953 0 55.3043 12.9465 716 133.39 796.58 469.057
954 0 59.2408 15.9687 946 129.37 796.137 466.753
955 0 58.0973 14.6823 853 134.479 795.653 462.392
956 0 60.1038 13.7263 825 136.081 796.383 463.213
957 0 62.1338 13.4387 835 132.944 795.922 463.947
958 0 68.1278 14.4288 983 128.547 796.335 461.683
959 0 66.111 12.1765 805 136.114 797.642 457.257
960 0 69.1433 14.2313 984 132.658 798.268 455.513
961 0 72.0707 14.9437 1077 132.052 799.712 457.171
962 0 72.1399 11.9213 860 138.37 801.013 456.188
963 1 39.0643 9.44597 369 138.78 802.041 472.65
964 0 39.0334 9.91458 387 136.592 803.672 473.783
965 0 40.0843 13.4965 541 132.743 805.36 471.501
966 0 41.0441 11.0856 455 135.818 806.919 473.455
967 0 42.0557 10.2721 432 138.984 808.773 472.551
968 0 42.0682 10.3641 436 137.764 809.516 471.39
969 0 49.1764 13.9091 684 125.114 811.019 473.11
970 0 45.4866 12.773 581 134.687 813.217 470.019
971 0 49.099 16.1918 795 124.553 811.124 471.12
972 0 49.0231 13.4222 658 129.971 810.754 476.108
973 0 52.1218 18.2265 950 124.832 809.601 474.844
974 0 53.1063 17.3426 921 127.046 808.76 475.347
975 0 52.0848 14.2652 743 135.17 808.572 474.982
976 0 52.2801 13.0834 684 139.38 807.151 473.618
977 0 56.2507 13.8665 780 137.294 805.432 474.485
978 0 59.1956 16.8594 998 132.235 804.503 470.702
979 0 60.1785 14.9888 902 137.461 803.298 471.681
980 0 61.1888 16.8985 1034 134.03 801.132 472.625
981 0 62.2036 15.9155 990 138.293 799.98 468.725
982 0 65.1739 19.1795 1250 132.572 798.788 467.548
983 0 69.2424 18.2691 1265 132.826 797.968 469.016
984 0 69.212 18.4505 1277 135.807 797.406 465.321
985 0 71.208 18.2283 1298 136.183 796.696 462.955
986 0 73.1985 16.4621 1205 140.776 795.716 459.501
987 0 75.2564 13.6334 1026 147.33 794.843 457.71
988 0 76.234 14.7703 1126 147.453 794.702 454.176
989 0 79.2687 15.9584 1265 147.71 794.415 452.119
990 0 82.3302 15.535 1279 148.83 794.382 451.4
991 1 38.0506 10.0655 383 153.081 794.222 470.086
992 0 41.0255 9.33567 383 152.172 795.099 470.107
993 0 45.1184 16.224 732 137.374 795.889 468.299
994 0 46.1176 11.2322 518 145.656 797.434 468.317
995 0 50.07 12.0232 602 140.128 801.42 468.439
996 0 47.1229 13.0934 617 142.574 803.326 464.464
997 0 53.111 13.5753 721 138.401 803.89 466.085
998 0 52.1648 12.4605 650 137.294 806.355 465.611
999 0 49.1928 12.0546 593 142.219 806.85 463.147
1000 0 54.114 15.5043 839 131.942 807.819 464.658
1001 0 53.1078 14.6306 777 136.712 809.16 462.21
1002 0 55.1642 13.1426 725 137.374 809.153 464.692
1003 0 60.2441 14.657 883 134.163 809.878 463.225
1004 0 60.151 14.2641 858 136.535 810.472 463.573
1005 0 64.254 17.0106 1093 130.436 810.808 464.457
1006 0 66.2836 15.7807 1046 134.334 810.68 464.689
1007 0 66.2607 16.2238 1075 133.689 811.24 467.9
1008 0 66.3728 14.7802 981 138.961 809.983 462.974
1009 0 70.3663 13.4013 943 141.734 810.913 464.652
1010 0 74.2301 12.2592 910 143.202 809.394 463.618
1011 0 74.1719 14.8035 1098 140.514 808.686 463.223
1012 0 80.3704 16.1502 1298 137.931 807.452 461.126
1013 0 83.2316 16.7364 1393 137.281 806.108 461.073
1014 1 43.1073 11.6222 501 141.892 805.363 478.393
1015 0 43.1274 12.4747 538 140.314 803.758 478.716
1016 0 48.101 13.7003 659 136.049 802.423 476.754
1017 0 51.1418 16.0925 823 130.304 801.512 476.467
1018 0 49.1541 13.7323 675 135.511 801.127 476.484
1019 0 53.1015 16.5155 877 129.757 799.997 475.181
1020 0 53.1027 12.3534 656 138.623 799.572 473.817
1021 0 53.2092 12.3663 658 140.152 799.094 472.175
1022 0 55.057 12.26 675 140.724 798.259 468.191
1023 0 58.1307 16.2737 946 133.856 797.907 463.333
1024 0 61.1891 14.0548 860 138.134 797.917 463.751
1025 0 63.1135 14.6403 924 135.555 798.41 463.554
1026 0 64.1162 14.7233 944 135.466 798.513 460.587
1027 0 68.1981 14.7511 1006 134.849 799.386 461.823
1028 0 69.2681 15.9958 1108 130.806 797.057 464.553
1029 0 71.1717 13.4042 954 134.711 798.674 462.898
1030 0 76.2068 10.9964 838 137.14 799.598 462.143
1031 0 80.1482 13.6871 1097 133.526 801.607 457.568
1032 1 39.2715 11.8916 467 132.422 803.726 477.634
1033 0 40.0644 10.3583 415 133.831 804.974 479.34
1034 0 44.0767 11.7069 516 130.211 805.155 476.74
1035 0 44.1629 10.031 443 133.984 807.002 477.609
1036 0 44.042 9.03683 398 137.774 807.658 477.847
1037 0 49.0623 11.1491 547 130.938 808.093 479.256
1038 0 50.1419 11.2481 564 134.734 809.027 477.975
1039 0 50.1081 12.6926 636 132.857 809.586 475.623
1040 0 52.1148 13.24 690 132.019 809.497 476.375
1041 0 53.1851 11.977 637 133.84 809.344 476.94
1042 0 55.0957 12.7778 704 130.58 808.196 480.688
1043 0 56.1891 14.8961 837 129.111 806.593 477.146
1044 0 60.0939 14.91 896 127.95 805.935 477.508
1045 0 64.1327 13.8931 891 127.648 802.918 476.513
1046 0 61.1223 10.8962 666 133.737 801.3 476.697
1047 0 66.1981 18.0066 1192 122.336 800.649 474.07
1048 0 68.1389 16.6278 1133 126.534 798.977 468.11
1049 0 70.1669 14.9358 1048 129.026 798.102 466.179
1050 0 72.1232 15.5429 1121 124.447 796.904 470.285
1051 0 73.1466 13.9719 1022 128.911 796.065 466.232
1052 0 78.0741 14.499 1132 126.943 795.407 465.17
1053 0 75.0889 10.694 803 135.394 795.296 461.491
1054 0 81.3033 15.067 1225 127.172 795.116 457.835
1055 0 82.1346 15.5842 1280 126.552 795.015 455.931
1056 0 83.1138 13.2228 1099 130.687 794.871 455.054
1057 1 45.0864 10.9789 495 128.139 796.345 474.679
1058 0 49.0842 11.1849 549 128.173 796.062 472.825
1059 0 48.1957 11.4326 551 129.601 795.595 469.216
1060 0 50.3371 11.6813 588 128.014 796.19 467.248
1061 0 53.047 14.0818 747 121.404 795.71 465.609
1062 0 54.2117 12.3221 668 124.016 796.377 465.756
1063 0 53.052 9.25506 491 131.293 798.513 463.413
1064 0 59.1242 15.3068 905 119.623 799.934 465.421
1065 0 61.0536 13.9222 850 123.498 801.951 461.074
1066 0 60.0587 13.2537 796 126.234 802.781 459.201
1067 0 63.1638 13.9162 879 123.39 804.388 462.391
1068 0 67.0697 14.6713 984 121.207 805.563 461.675
1069 0 68.1843 11.9822 817 126.403 806.936 460.346
1070 0 70.0579 12.3184 863 125.505 807.593 461.692
1071 0 71.2078 14.2541 1015 123.339 808.333 461.871
1072 0 75.124 13.7506 1033 125.435 809.516 458.736
1073 1 40.1572 12.8495 516 122.508 808.599 478.149
1074 0 38.0241 8.25793 314 131.045 807.777 478.978
1075 0 43.032 11.596 499 123.83 808.353 481.445
1076 0 43.0367 11.0836 477 127.134 807.763 479.279
1077 0 42.0286 9.9456 418 132.225 807.086 479.098
1078 0 46.0763 11.2422 518 129.768 806.116 476.529
1079 0 47.0484 15.6435 736 126.332 805.19 476.272
1080 0 52.4523 15.9574 837 123.848 806.576 477.44
1081 0 51.0817 14.4475 738 129.47 804.348 475.576
1082 0 56.1278 17.2998 971 122.249 801.536 476.109
1083 0 61.2907 18.8609 1156 118.638 799.574 474.434
1084 0 57.0686 13.3874 764 132.103 799.076 471.721
1085 0 60.0679 18.6789 1122 123.308 797.492 469.73
1086 0 58.0901 15.2694 887 130.9 796.647 465.897
1087 0 60.0432 15.6054 937 129.566 796.187 467.127
1088 0 62.1389 14.9343 928 130.787 796.235 464.237
1089 0 62.0892 12.015 746 137.24 795.904 464.406
1090 0 63.2422 13.6459 863 135.678 795.172 461.144
1091 0 66.3022 16.1382 1070 131.437 795.991 456.907
1092 0 71.1252 16.2952 1159 129.346 795.352 458.031
1093 0 69.0478 15.0186 1037 134.56 796.131 458.245
1094 0 72.0632 16.8879 1217 130.896 796.885 455.977
1095 0 74.1499 13.8503 1027 134.319 798.192 458.576
1096 1 39.0214 14.4536 564 131.326 799.527 471.569
1097 0 38.0612 9.77372 372 141.874 800.981 470.016
1098 0 43.0675 10.9596 472 136.972 802.129 471.68
1099 0 44.0259 11.9475 526 134.473 804.186 471.249
1100 0 44.0777 13.4762 594 135.8 806.022 469.438
1101 0 47.2513 14.9837 708 129.109 811.545 467.908
1102 0 49.07 13.5317 664 129.961 812.372 469.458
1103 0 51.137 15.6247 799 121.243 813.736 473.363
1104 0 52.1974 14.8858 777 124.876 813.291 468.516
1105 0 51.1118 15.4368 789 127.774 811.824 472.502
1106 0 53.0482 15.7781 837 128.418 812.403 471.953
1107 0 54.1503 14.903 807 129.362 810.489 472.711
1108 0 57.0987 13.2402 756 132.885 810.079 472.254
1109 0 56.1837 14.862 835 130.628 809.357 472.91
1110 0 58.2179 14.4285 840 131.311 807.868 472.358
1111 0 61.1195 10.3404 632 137.269 807.041 473.544
1112 0 63.1334 12.5132 790 134.034 806.077 471.786
1113 0 64.159 13.2795 852 133.954 804.016 470.917
1114 0 65.0602 12.9265 841 134.639 802.68 470.925
1115 0 69.1932 14.1632 980 131.789 801.93 469.646
1116 0 71.1891 15.7889 1124 131.669 799.598 466.628
1117 0 74.2033 15.3902 1142 130.647 798.066 469.341
1118 0 76.1472 13.1456 1001 135.279 796.377 464.852
1119 1 42.1016 11.496 484 131.88 795.31 480.81
1120 0 40.1629 14.3167 575 127.624 794.007 481.191
1121 0 40.0765 12.027 482 133.961 793.747 479.89
1122 0 40.0905 12.2972 493 136.578 793.4 476.742
1123 0 45.11 14.1432 638 130.657 792.669 476.972
1124 0 51.2062 13.4163 687 129.803 793.067 470.509
1125 0 48.5089 13.9356 676 129.385 792.74 471.5
1126 0 49.1356 12.842 631 132.295 792.948 470.073
1127 0 51.0324 13.1093 669 132.942 796.281 470.631
1128 0 51.1694 14.2663 730 132.114 796.821 468.856
1129 0 52.0228 16.2237 844 128.669 797.545 468.177
1130 0 59.1056 15.8868 939 125.078 798.545 471.85
1131 0 59.2181 15.7891 935 126.589 800.328 468.988
1132 0 59.1331 16.3191 965 128.885 801.673 467.208
1133 0 59.1454 14.9293 883 132.683 801.207 466.923
1134 0 63.1522 15.2805 965 130.718 803.3 465.678
1135 0 66.0694 14.515 959 131.47 804.279 467.03
1136 0 65.1416 14.8753 969 133.457 805.299 464.956
1137 0 70.107 18.7 1311 124.969 805.85 468.098
1138 0 71.177 15.9602 1136 130.986 806.408 466.5
1139 0 74.08 13.5529 1004 135.531 806.183 467.474
1140 0 77.1564 15.6824 1210 132.86 806.036 462.362
1141 0 80.4172 17.6828 1422 129.359 805.771 466.743
1142 0 84.1295 16.8906 1421 129.723 805.127 466.949
1143 0 87.1826 16.2532 1417 130.042 804.191 465.227
1144 1 47.1795 13.9891 660 132.738 802.905 480.617
1145 0 47.0345 13.2669 624 132.179 802.05 482.293
1146 0 47.0319 13.1826 620 130.573 800.058 482.242
1147 0 50.1386 9.47373 475 137.543 800.006 479.387
1148 0 54.154 12.3906 671 131.988 798.088 478.107
1149 0 56.0424 14.0786 789 128.171 795.811 477.778
1150 0 58.081 14.8414 862 127.478 794.254 476.043
1151 0 59.1647 12.6258 747 133.475 793.161 470.636
1152 0 63.1095 16.1465 1019 125.889 792.363 467.935
1153 0 62.1025 17.2135 1069 123.597 792.266 466.978
1154 0 66.1665 14.0857 932 127.776 793.948 467.027
1155 0 65.2376 12.9527 845 130.743 794.311 465.104
1156 0 71.1313 14.1991 1010 125.633 794.491 467.905
1157 0 69.1987 14.6823 1016 129.284 794.565 461.387
1158 0 75.1691 18.9173 1422 121.935 794.774 461.034
1159 0 78.2853 15.9289 1247 128.104 795.29 457.512
1160 0 79.3226 18.305 1452 124.915 796.638 457.341
1161 0 83.2856 15.5129 1292 129.642 797.41 454.799
1162 0 85.251 15.73 1341 129.518 798.289 452.755
1163 1 45.083 12.0001 541 128.484 801.29 472.22
1164 0 44.0987 11.0888 489 132.129 802.08 469.951
1165 0 48.4495 11.7029 567 131.19 804.381 469.178
1166 0 50.1643 13.4757 676 129.658 804.815 467.624
1167 0 50.108 14.8679 745 125.16 806.263 474.129
1168 0 53.0569 14.5316 771 128.799 807.668 469.598
1169 0 55.0619 14.0751 775 127.484 810.197 469.97
1170 0 54.1665 13.4585 729 130.697 810.941 466.129
1171 0 55.0915 14.7028 810 130.072 811.018 466.849
1172 0 59.0451 15.9878 944 126.77 810.449 469.099
1173 0 59.1771 13.6877 810 130.505 808.664 467.237
1174 0 60.1184 12.3257 741 133.73 808.881 468.744
1175 0 62.2279 15.2665 950 130.168 808.942 470.066
1176 0 66.1114 14.3394 948 132.344 808.656 466.752
1177 0 67.0655 15.1494 1016 133.071 807.436 464.624
1178 0 74.0906 15.8725 1176 129.946 806.938 468.329
1179 0 74.1185 16.9188 1254 130.01 805.505 465.778
1180 0 72.0745 13.264 956 138.885 803.8 462.757
1181 0 77.1637 18.0525 1393 131.424 802.689 462.61
1182 0 80.1364 16.2598 1303 135.157 801.506 458.357
1183 0 81.191 14.6075 1186 138.835 799.996 458.628
1184 0 84.1306 14.5488 1224 140.08 800.252 457.868
1185 0 86.2865 15.9816 1379 139.479 798.229 452.624
1186 0 89.0925 14.4906 1291 142.686 797.018 447.315
1187 0 88.2373 13.237 1168 146.697 796.452 449.503
1188 0 94.247 15.6716 1477 140.375 796.346 449.007
1189 0 98.0964 18.2474 1790 135.972 795.334 441.146
1190 0 99.0913 15.0165 1488 143.849 795.537 440.419
1191 1 53.0273 13.031 691 137.447 796.007 466.692
1192 0 55.0626 10.6787 588 139.117 796.425 466.753
1193 0 60.222 14.679 884 135.215 796.828 462.792
1194 0 57.0442 12.3939 707 143.694 797.515 456.876
1195 0 60.0705 13.6673 821 141.404 799.41 455.934
1196 0 62.1335 12.28 763 143.516 801.48 458.455
1197 0 67.1662 14.3971 967 136.677 804.119 458.255
1198 0 67.1035 13.576 911 137.942 803.834 454.173
1199 0 71.2705 12.8384 915 137.185 807.982 450.189
1200 0 73.0878 13.9148 1017 135.844 808.229 452.679
1201 0 78.0868 15.9438 1245 129.79 810.147 452.988
1202 0 80.2581 14.3786 1154 133.835 811.05 452.068
1203 0 84.2087 16.1622 1361 130.123 811.292 453.21
1204 0 86.1753 15.3408 1322 131.627 811.655 453.225
1205 0 88.1734 16.9439 1494 128.01 809.17 454.28
1206 0 88.0942 13.4856 1188 135.613 810.57 454.625
1207 0 93.1736 13.8666 1292 135.022 809.703 451.81
1208 1 49.1796 10.4312 513 134.864 809.113 471.38
1209 0 52.3277 12.3071 644 129.649 810.693 473.368
1210 0 51.3288 10.1502 521 135.777 810.109 471.29
1211 0 54.2799 12.7119 690 131.625 808.661 470.293
1212 0 57.1008 12.2065 697 130.702 804.739 474.294
1213 0 59.0901 13.3694 790 130.139 803.734 473.587
1214 0 62.1857 17.5764 1093 124.414 802.174 472.571
1215 0 65.1067 14.8525 967 129.891 800.434 469.989
1216 0 69.0684 15.9118 1099 126.94 799.934 469.37
1217 0 68.1071 14.903 1015 130.576 798.398 467.198
1218 0 71.073 12.7193 904 135.633 797.639 463.088
1219 0 74.1794 11.9305 885 135.984 795.829 463.941
1220 0 72.123 13.6018 981 135.181 795.699 460.273
1221 0 79.1666 14.1853 1123 133.354 794.691 461.416
1222 1 41.1085 10.6061 436 130.516 795.044 477.622
1223 0 42.0958 9.0983 383 130.266 795.548 479.17
1224 0 43.0915 8.21507 354 132.958 794.96 477.201
1225 0 47.0713 13.6601 643 124.888 795.067 474.176
1226 0 47.1895 12.418 586 129.061 795.527 472.52
1227 0 50.235 15.2881 768 125.582 795.779 471.645
1228 0 50.3579 11.6169 585 128.937 797.528 467.726
1229 0 52.0739 11.6565 607 134.273 799.969 468.277
1230 0 52.0187 11.8227 615 133.711 801.306 470.948
1231 0 55.0351 12.8464 707 132.843 802.823 465.56
1232 0 57.0711 13.2817 758 131.646 804.487 465.602
1233 0 58.0837 15.4777 899 126.15 805.509 467.862
1234 0 61.0646 15.066 920 127.639 807.202 464.136
1235 0 60.0772 13.4494 808 131.308 808.969 461.035
1236 0 63.0489 13.8781 875 130.069 809.645 465.226
1237 0 64.0231 14.3542 919 129.381 809.772 463.973
1238 0 68.1685 15.3883 1049 125.473 810.305 467.713
1239 0 70.1632 13.7537 965 128.407 810.654 466.336
1240 0 70.1588 14.1821 995 130.105 809.93 462.2
1241 0 73.2439 12.4925 915 132.273 810.073 463.992
1242 0 76.1394 15.2484 1161 126.332 809.275 469.304
1243 0 80.3018 19.2399 1545 121.25 808.647 463.538
1244 0 82.1983 21.6428 1779 116.74 807.722 463.089
1245 0 84.0876 13.1411 1105 132.978 806.193 459.366
1246 0 87.0803 14.6302 1274 130.724 804.27 459.078
1247 1 43.0198 10.1349 436 128.335 802.225 485.071
1248 0 45.0483 10.3222 465 126.344 800.763 485.617
1249 0 46.0396 11.2512 518 129.911 800.313 478.054
1250 0 48.0785 15.1419 728 123.43 799.985 481.832
1251 0 51.1846 12.2107 625 130.24 798.661 480.693
1252 0 52.0707 12.8095 667 127.088 796.879 478.229
1253 0 53.3748 13.0211 695 127.79 796.564 478.348
1254 0 53.1378 12.1571 646 131.837 795.43 475.039
1255 0 59.2817 15.4011 913 122.332 795.544 477.968
1256 0 58.1485 16.6986 971 123.352 795.348 473.538
1257 0 55.2691 11.1636 617 134.24 794.846 471.934
1258 0 60.1067 11.8622 713 131.592 794.997 472.614
1259 0 62.0789 17.4616 1084 123.635 794.574 469.161
1260 0 64.3051 15.2087 978 126.485 794.632 468.321
1261 0 65.2264 15.4998 1011 127.673 794.621 464.49
1262 0 67.0295 13.9342 934 129.206 796.062 467.104
1263 0 70.2272 14.5243 1020 129.213 796.877 462.586
1264 0 71.2432 13.7276 978 131.034 799.089 465.016
1265 1 40.2082 12.8829 518 131.077 800.216 474.502
1266 0 39.0936 8.87614 347 135.32 802.461 478.507
1267 0 41.0728 6.69542 275 139.356 803.916 477.956
1268 0 43.0616 12.3544 532 130.432 806.133 476.827
1269 0 45.1463 12.5149 565 129.265 806.524 478.699
1270 0 46.3879 13.1069 608 129.462 806.29 474.533
1271 0 46.3629 14.7963 686 125.719 807.48 474.366
1272 0 47.0513 13.0921 616 128.789 808.416 480.261
1273 0 48.0657 11.8796 571 133.457 808.023 478.037
1274 0 52.0726 15.4592 805 125.985 808.244 479.342
1275 0 53.0841 9.85228 523 132.62 808.585 481.87
1276 0 53.1703 12.6386 672 130.906 807.56 481.31
1277 0 55.1399 15.107 833 127.261 806.694 481.87
1278 0 56.1303 14.1278 793 131.487 805.032 475.699
1279 0 60.3027 16.7323 1009 125.389 803.736 479.801
1280 0 65.1722 15.6355 1019 127.06 801.886 478.331
1281 0 61.1084 13.7952 843 133.52 800.772 473.976
1282 0 66.2565 16.7078 1107 127.74 799.119 476.08
1283 0 68.2195 15.8606 1082 130.893 797.709 472.209
1284 0 72.1653 14.6054 1054 131.869 796.933 474.584
1285 0 73.1302 16.5595 1211 130.367 795.769 473.253
1286 0 75.1429 17.4601 1312 128.941 795.128 471.092
1287 0 75.3284 14.2974 1077 134.875 794.658 469.916
1288 0 79.2357 15.1699 1202 133.891 793.809 467.383
1289 0 84.3557 14.5456 1227 135.786 792.99 462.566
1290 0 85.1084 14.6754 1249 135.698 792.796 456.654
1291 0 86.2238 15.4366 1331 135.023 793.116 460.609
1292 1 47.0835 14.9734 705 133.132 793.79 476.885
1293 0 46.1415 13.0685 603 137.129 793.677 477.401
1294 0 46.1056 12.7967 590 139.024 794.62 474.949
1295 0 47.0608 13.3657 629 137.413 794.175 475.07
1296 0 50.1138 14.7265 738 132.073 797.233 477.439
1297 0 50.1292 12.8069 642 137.371 797.391 474.883
1298 0 51.1698 12.996 665 137.141 798.253 473.271
1299 0 53.1023 13.9165 739 134.321 799.728 474.039
1300 0 53.2591 10.9653 584 140.37 800.146 470.75
1301 0 54.1312 12.2111 661 137.466 802.392 472.516
1302 0 58.1104 16.8472 979 129.169 802.945 471.552
1303 0 58.1438 15.926 926 131.024 803.689 470.015
1304 0 60.1532 13.5321 814 133.554 804.683 470.674
1305 0 65.1134 14.0524 915 130.131 805.357 471.493
1306 0 63.1715 14.7377 931 129.638 805.736 472.07
1307 0 67.1272 14.048 943 131.454 804.849 470.372
1308 0 69.1539 12.8843 891 132.396 805.362 472.441
1309 0 72.0967 15.0492 1085 129.389 804.708 470.949
1310 0 75.1677 15.1129 1136 128.466 804.08 470.836
1311 0 74.1197 14.5171 1076 128.964 802.508 474.48
1312 0 77.1972 13.5497 1046 132.288 801.98 470.264
1313 1 43.0336 12.9666 558 126.658 801.122 485.611
1314 0 43.0844 11.698 504 128.921 799.982 484.161
1315 0 46.0673 12.7422 587 127.54 798.114 482.692
1316 0 42.0741 17.8732 752 119.382 797.009 485.787
1317 0 46.03 11.5794 533 128.689 795.685 483.762
1318 0 47.0683 12.3862 583 125.547 794.868 484.053
1319 0 48.0654 14.1058 678 123.376 792.229 474.852
1320 0 50.1752 13.5924 682 122.535 791.317 475.403
1321 0 52.1192 12.1261 632 127.275 789.794 479.324
1322 0 52.1608 13.0749 682 127.606 789.868 475.821
1323 0 51.1332 14.0809 720 127.969 789.703 473.329
1324 0 56.1533 13.9262 782 125.98 789.403 474.173
1325 0 57.1364 16.4519 940 123.731 789.77 469.772
1326 0 59.0971 15.923 941 124.374 790.118 467.945
1327 0 59.3225 15.9636 947 125.247 791.146 465.484
1328 0 59.0638 12.4442 735 130.351 790.622 467.816
1329 0 64.1428 17.3675 1114 123.171 791.888 463.776
1330 0 61.0823 10.6905 653 134.976 793.167 464.645
1331 0 65.0662 15.0769 981 128.993 795.814 462.591
1332 0 70.1529 14.4969 1017 128.656 797.132 463.037
1333 0 72.2092 18.1417 1310 122.665 798.075 462.701
1334 0 72.1611 19.2763 1391 123.254 800.588 458.147
1335 0 76.0617 15.8161 1203 128.353 802.209 459.316
1336 0 77.1318 14.7151 1135 131.464 803.389 457.404
1337 0 79.3194 15.0278 1192 131.19 804.513 458.503
1338 0 82.2246 12.8307 1055 133.859 804.745 459.547
1339 0 83.2884 14.7199 1226 131.025 805.055 458.372
1340 1 45.2873 12.5863 570 131.151 805.314 477.986
1341 0 49.4037 9.31104 460 136.6 805.265 478.163
1342 0 48.1628 15.6137 752 127.5 805.508 476.275
1343 0 53.3135 14.2178 758 127.305 805.33 477.021
1344 0 56.2504 18.1688 1022 122.926 804.804 475.392
1345 0 55.2258 16.4054 906 126.579 803.3 476.385
1346 0 55.179 13.1753 727 134.666 802.032 474.545
1347 0 60.1144 12.4762 750 135.495 800.731 474.468
1348 0 64.2035 16.7592 1076 128.691 799.24 474.163
1349 0 62.2664 18.6617 1162 128.174 797.914 471.489
1350 0 65.2763 16.637 1086 132.751 796.789 471.202
1351 0 68.2184 15.5823 1063 134.893 795.779 470.286
1352 0 70.2225 18.9825 1333 131.127 794.219 464.587
1353 0 73.0959 18.0585 1320 131.566 794.426 466.558
1354 0 74.2223 15.9925 1187 135.102 793.823 464.71
1355 0 76.071 18.7982 1430 132.18 792.822 459.096
1356 0 76.2458 18.283 1394 134.24 792.565 459.454
1357 0 82.6485 15.451 1277 139.09 792.189 456.23
1358 0 85.2365 15.674 1336 138.007 792.185 453.515
1359 0 85.3373 17.8703 1525 136.092 792.294 451.691
1360 0 85.2366 11.9784 1021 147.006 792.706 452.591
1361 0 93.528 16.2625 1521 137.531 793.475 451.115
1362 0 95.4042 14.7268 1405 141.442 794.36 448.554
1363 0 96.4445 17.0253 1642 139.498 795.697 442.069
1364 0 100.365 15.5234 1558 141.402 796.343 443.394
1365 1 51.3302 9.02003 463 143.976 799.523 469.965
1366 0 57.106 14.7445 842 135.774 800.689 465.848
1367 0 57.1569 12.177 696 141.618 802.037 465.168
1368 0 62.3658 13.9179 868 135.862 803.516 466.764
1369 0 61.1727 14.173 867 136.323 803.764 466.705
1370 0 65.343 14.2479 931 136.365 805.022 464.889
1371 0 67.1505 17.0215 1143 130.366 806.07 467.818
1372 0 69.1691 14.7898 1023 135.304 804.961 464.191
1373 0 69.1535 11.6408 805 141.406 806.155 463.457
1374 0 72.202 15.2073 1098 134.619 806.199 462.732
1375 0 75.3609 15.2068 1146 134.524 805.755 463.507
1376 0 77.3876 17.5222 1356 131.625 804.83 459.599
1377 0 81.2406 14.8325 1205 135.935 804.644 461.38
1378 1 47.1843 10.0457 474 140.074 803.713 479.43
1379 0 45.0894 11.954 539 138.751 804.249 480.427
1380 0 46.0598 16.1746 745 134.06 802.478 479.545
1381 0 46.0915 11.0432 509 144.134 801.342 479.986
1382 0 49.16 15.297 752 137.637 797.911 477.186
1383 0 49.396 16.7827 829 136.695 796.878 475.943
1384 0 49.0656 14.4093 707 145.917 797.653 472.031
1385 0 50.0928 14.4133 722 147.252 796.465 471.234
1386 0 50.061 13.5834 680 147.831 795.929 471.193
1387 0 52.1108 15.9468 831 143.001 794.863 471.635
1388 0 52.0401 17.083 889 141.372 794.793 469.774
1389 0 52.0766 14.9779 780 146.379 794.469 469.818
1390 0 55.1751 14.9161 823 147.479 794.31 467.564
1391 0 58.119 17.7395 1031 139.163 794.702 465.678
1392 0 58.153 14.9433 869 145.115 794.902 465.866
1393 0 56.0408 11.9734 671 152.598 794.845 465.639
1394 0 56.1014 14.2242 798 150.134 793.875 461.922
1395 0 62.1646 16.5528 1029 140.359 794.745 464.474
1396 0 62.1327 14.6622 911 146.407 795.822 462.788
1397 0 63.1222 13.054 824 150.546 797.318 461.337
1398 0 67.2074 15.8762 1067 144.751 798.149 459.952
1399 0 68.1725 14.9914 1022 146.582 800.476 461.455
1400 0 72.1488 16.3551 1180 146.625 802.645 460.674
1401 0 70.1882 14.974 1051 150.053 803.515 463.149
1402 0 72.1192 13.8105 996 152.523 805.207 464.55
1403 0 77.2506 15.4044 1190 149.6 806.282 464.077
1404 0 76.3521 19.4625 1486 141.456 807.481 465.75
1405 0 78.1028 16.1966 1265 151.143 807.34 463.972
1406 0 80.2449 15.5898 1251 151.26 806.678 464.885
1407 0 84.1566 19.5944 1649 141.097 807.419 464.607
1408 0 85.213 15.3615 1309 150.371 806.74 466.318
1409 0 87.2081 16.409 1431 151.331 805.97 463.472
1410 0 90.3138 16.6752 1506 152.116 804.747 466.58
1411 0 90.3408 14.6667 1325 156.599 803.26 468.245
1412 1 50.086 10.5818 530 159.732 801.906 486.043
1413 0 50.3522 15.1135 761 151.468 800.811 485.62
1414 0 50.1921 12.4721 626 156.49 799.24 486.642
1415 0 54.2127 13.3917 726 156.49 798.131 483.006
1416 0 58.0658 16.5674 962 149.048 796.276 481.673
1417 0 57.1016 14.5705 832 153.7 795.828 482.716
1418 0 57.1087 15.5318 887 150.124 793.98 482.561
1419 0 59.1314 14.138 836 157.044 793.633 475.769
1420 0 60.0832 12.05 724 157.518 793.117 478.832
1421 0 64.0846 14.0127 898 155.14 792.939 473.44
1422 0 67.0633 15.3437 1029 152.776 791.843 470.321
1423 0 67.0496 11.663 782 158.577 791.73 472.811
1424 0 70.0333 12.6654 887 154.18 791.679 473.214
1425 0 72.0953 14.8692 1072 152.927 792.134 467.182
1426 0 74.1201 14.7194 1091 155.288 792.103 463.984
1427 0 78.1932 14.9501 1169 152.956 792.566 465.346
1428 0 78.1089 12.4954 976 161.102 793.006 461.149
1429 0 84.1244 15.0967 1270 153.773 793.464 463.727
1430 0 86.3784 15.7678 1362 155.074 794.177 457.262
1431 0 88.2932 13.4099 1184 159.199 795.473 459.968
1432 0 94.1256 15.5006 1459 153.968 796.617 459.376
1433 0 95.1439 15.4398 1469 155.736 798.467 455.542
1434 0 100.258 13.9041 1394 158.012 800.001 453.518
1435 1 51.1781 13.8536 709 151.67 801.496 476.474
1436 0 51.0962 15.1675 775 150.934 803.021 476.714
1437 0 53.1461 13.8863 738 155.015 802.995 475.897
1438 0 55.1432 14.9611 825 153.632 803.57 476.845
1439 0 57.2762 12.9548 742 156.408 803.642 479.129
1440 0 61.2069 16.4687 1008 149.324 803.319 478.521
1441 0 61.1487 12.8376 785 156.945 803.043 479.437
1442 0 62.2264 15.9739 994 152.543 802.564 477.156
1443 0 64.3093 13.3884 861 154.897 802.037 480.257
1444 0 66.1829 13.9915 926 155.441 800.719 478.559
1445 0 69.1158 14.3817 994 155.449 799.246 476.569
1446 0 71.1664 15.1054 1075 155.154 797.274 474.878
1447 0 72.216 14.0274 1013 157.032 795.889 473.701
1448 0 74.2306 14.8187 1100 155.657 794.265 471.135
1449 0 76.264 14.2925 1090 154.75 793.015 471.416
1450 1 31.0606 10.4312 324 152.117 792.194 490.13
1451 0 35.1633 12.314 433 145.533 790.827 488.506
1452 0 35.3721 12.6088 446 147.814 789.812 484.892
1453 0 36.2697 12.4898 453 149.7 789.781 480.991
1454 0 38.1578 14.7021 561 144.373 789.455 480.371
1455 0 37.1397 11.3087 420 154.152 789.545 479.267
1456 0 40.1524 14.6691 589 145.866 789.959 476.801
1457 0 41.1004 13.0169 535 150.413 790.226 473.998
1458 0 43.2295 12.6534 547 150.806 789.673 474.397
1459 0 45.1267 14.6033 659 145.472 790.114 476.341
1460 0 45.1577 12.091 546 153.007 791.489 476.189
1461 0 45.0647 12.6041 568 155.331 792.977 473.475
1462 0 54.134 21.8347 1182 128.586 793.392 468.38
1463 0 55.2618 17.2271 952 139.9 795.248 468.507
1464 0 57.2214 20.0799 1149 135.066 796.484 470.138
1465 0 55.2863 16.0799 889 148.009 797.853 468.998
1466 0 55.1469 15.1958 838 152.804 799.913 469.47
1467 0 62.138 17.9118 1113 139.642 802.196 467.057
1468 0 60.3765 16.4302 992 147.94 804.16 468.294
1469 0 60.0822 17.3929 1045 148.567 805.138 467.617
1470 0 63.2486 18.9411 1198 145.568 806.349 471.013
1471 0 64.2338 17.1872 1104 151.16 806.929 470.571
1472 0 66.393 16.8241 1117 152.059 807.539 471.304
1473 0 67.3098 15.1538 1020 156.678 807.385 469.864
1474 0 69.1998 18.266 1264 147.945 807.975 471.358
1475 1 39.0611 11.3156 442 159.186 807.839 486.848
1476 0 40.0416 15.2591 611 152.124 808.162 486.666
1477 0 44.17 13.7876 609 155.126 807.289 485.867
1478 0 42.0708 14.5707 613 157.341 806.592 483.546
1479 0 46.0901 15.6433 721 150.86 805.29 483.738
1480 0 48.2382 16.2319 783 150.434 803.64 481.479
1481 0 48.1427 16.825 810 149.473 802.717 480.935
1482 0 51.1503 17.8885 915 145.892 800.863 480.626
1483 0 52.0529 17.7704 925 145.722 801.663 483.067
1484 0 55.0688 13.8191 761 152.702 800.096 482.819
1485 0 53.0564 15.983 848 151.237 798.781 480.217
1486 0 54.1047 12.2725 664 157.366 797.782 478.983
1487 0 58.0691 16.997 987 144.706 796.396 478.204
1488 0 59.2867 17.019 1009 146.105 795.796 473.121
1489 0 62.1839 16.998 1057 143.263 794.694 472.456
1490 0 62.1136 14.3125 889 150.441 794.786 469.853
1491 0 64.1932 15.6403 1004 148.206 794.303 465.813
1492 0 65.1433 15.2894 996 148.935 794.507 466.213
1493 0 70.3034 16.8555 1185 144.367 794.56 464.423
1494 0 69.1909 15.5223 1074 147.83 794.384 463.703
1495 0 76.0676 17.9183 1363 141.014 795.031 459.455
1496 0 78.1542 20.3444 1590 134.735 795.398 458.497
1497 0 79.2409 14.5632 1154 146.233 796.397 458.267
1498 0 81.2202 15.1563 1231 145.195 798.78 456.134
1499 0 85.2733 15.7728 1345 142.16 799.998 454.916
1500 0 86.1307 16.5795 1428 140.518 801.572 454.98
1501 0 90.3559 17.2872 1562 138.573 803.621 453.149
1502 0 93.3025 16.9556 1582 139.248 805.01 452.478
1503 0 96.3993 21.0064 2025 132.02 806.234 448.833
1504 0 100.499 16.5873 1667 139.091 808.164 449.648
1505 0 100.285 17.8591 1791 137.004 807.909 451.592
1506 1 58.1333 16.2214 943 138.656 808.299 472.07
1507 0 58.1148 12.4753 725 147.508 809.054 472.382
1508 0 64.2402 17.2945 1111 136.764 808.819 472.561
1509 0 64.0912 14.8694 953 143.017 808.436 470.774
1510 0 70.1444 17.4212 1222 132.727 808.844 474.637
1511 0 70.0927 17.0917 1198 136.733 807.972 471.128
1512 0 71.1088 15.7224 1118 139.977 806.114 470.576
