time division length width area intensity CMx CMy
0 0 64.192 11.341 728 128.567 808.787 434.707
1 1 124.516 15.4197 1920 129.947 809.71 414.722
2 0 130.491 19.0511 2486 126.562 810.147 414.551
3 0 130.499 16.9426 2211 129.994 810.188 413.525
4 0 135.57 16.3089 2211 123.981 810.689 421.021
5 1 69.1371 9.71982 672 132.012 811.933 437.796
6 0 77.3517 22.0939 1709 117.678 810.839 436.583
7 0 78.1407 16.803 1313 126.452 809.628 437.469
8 0 81.2348 17.9603 1459 129.234 807.619 437.082
9 0 84.2018 18.6932 1574 129.417 806.821 431.917
10 0 87.5136 15.3919 1347 136.415 806.284 436.301
11 0 89.2072 22.8681 2040 127.869 805.297 435.167
12 0 94.502 20.6133 1948 133.375 804.151 436.205
13 0 95.1969 21.7024 2066 134.952 803.777 435.421
14 1 53.1649 13.0161 692 145.699 802.848 453.611
15 0 52.0885 11.9028 620 148.156 802.526 454.506
16 0 53.164 12.3204 655 153.29 800.658 450.566
17 0 57.5143 14.0139 806 149.912 799.788 450.253
18 0 59.4821 15.6518 931 148.873 797.585 444.647
19 0 59.2078 13.0895 775 151.916 796.961 448.502
20 0 62.1671 14.9275 928 148.116 795.63 445.512
21 0 62.4165 13.8906 867 151.764 795.247 442.285
22 0 64.2786 15.7906 1015 146.554 794.444 439.879
23 0 67.1795 14.6473 984 149.925 793.915 437.495
24 0 70.2448 12.7412 895 154.506 794.346 436.057
25 0 69.2567 13.0529 904 156.649 794.673 435.373
26 0 74.4493 15.0707 1122 155.8 793.956 435.542
27 0 73.1809 15.5642 1139 152.637 795.261 430.278
28 0 79.397 15.8948 1262 152.974 795.367 430.586
29 0 80.2285 13.9477 1119 160.109 797.042 429.409
30 0 82.3379 14.987 1234 153.26 798.208 427.797
31 0 88.17 14.9711 1320 143.932 800.82 424.648
32 0 90.3444 17.3558 1568 141.024 801.878 426.265
33 1 46.179 10.0912 466 141.852 805.144 450.487
34 0 48.1814 10.4605 504 139.458 806.687 449.048
35 0 50.2031 14.9393 750 130.987 808.297 449.036
36 0 54.117 13.3969 725 129.524 808.724 450.337
37 0 54.2474 12.9407 702 132.014 809.389 451.788
38 0 53.1549 15.4078 819 129.673 809.839 448.883
39 0 58.3132 16.4628 960 125.17 808.598 454.434
40 0 58.1446 14.7391 857 133.293 808.807 452.555
41 0 58.1395 14.706 855 145.388 808.777 452.512
42 0 61.1022 14.0584 859 140.984 806.962 447.631
43 0 60.2987 12.1562 733 151.874 806.381 450.958
44 0 65.0822 15.5496 1012 143.117 805.542 447.75
45 0 67.2081 15.4892 1041 148.546 804.411 449.138
46 0 70.0781 13.6419 956 146.971 803.454 448.756
47 0 72.1072 15.9623 1151 144.441 800.652 446.714
48 0 72.1072 15.5463 1121 140.707 799.644 447.099
49 0 75.2123 14.6651 1103 150.77 797.411 445.435
50 0 79.16 16.2835 1289 146.092 796.371 441.391
51 0 81.1664 16.3861 1330 147.952 795.274 441.556
52 0 85.1986 16.6435 1418 143.187 794.471 438.774
53 1 43.0618 10.334 445 152.571 793.398 459.169
54 0 45.0441 11.8106 532 147.628 792.389 457.553
55 0 45.2632 9.27907 420 151.633 791.26 457.895
56 0 47.1416 12.3034 580 143.179 791.79 453.941
57 0 47.1416 12.4519 587 133.191 791.775 453.86
58 0 51.1885 13.2842 680 140.654 791.044 450.437
59 0 50.0216 12.1148 606 144.056 790.545 451.818
60 0 55.0506 12.8791 709 139.797 791.594 449.158
61 0 53.217 12.6463 673 145.522 790.654 448.031
62 0 55.1176 11.285 622 142.116 791.965 446.621
63 0 57.2399 12.928 740 136.947 793.631 444.551
64 0 57.2704 12.2751 703 141.674 795.252 444.909
65 0 61.3009 16.6882 1023 131.675 797.869 444.167
66 0 62.1473 13.0496 811 138.062 799.075 441.903
67 0 64.3415 14.1122 908 134.728 802.133 441.889
68 0 65.2898 14.6271 955 134.426 802.668 442.924
69 0 67.545 11.3554 767 134.176 803.854 444.828
70 0 71.222 12.0468 858 135.878 804.437 443.737
71 0 74.1726 18.3626 1362 124.595 805.985 442.786
72 0 77.3238 15.5192 1200 129.077 805.242 443.965
73 0 75.335 12.3316 929 132.567 805.94 442.494
74 0 81.2931 16.0284 1303 128.934 805.437 444.592
75 0 83.2541 14.4137 1200 134.056 805.138 439.815
76 0 82.2085 11.8966 978 143.549 803.985 438.939
77 1 45.423 13.5394 615 132.592 802.657 460.74
78 0 49.1591 11.7171 576 136.901 802.248 459.438
79 0 49.0263 11.3816 558 138.303 800.88 459.573
80 0 50.2273 10.8108 543 141.545 801.554 459.807
81 0 52.1037 10.5367 549 144.257 798.8 460.372
82 0 53.177 13.3705 711 139.837 797.145 457.354
83 0 55.2536 13.6643 755 138.94 795.974 456.379
84 0 56.2488 15.4492 869 137.659 794.566 454.484
85 0 57.1497 12.9835 742 142.768 792.48 453.637
86 0 58.2207 13.3458 777 142.892 791.745 452.326
87 0 63.1637 11.5414 729 146.432 790.601 451.616
88 0 63.3476 13.6548 865 142.614 790.647 448.227
89 0 68.1532 13.5724 925 138.169 789.623 449.902
90 0 68.2934 15.4041 1052 140.596 789.4 443.379
91 0 68.2245 12.6348 862 144.899 790.096 443.765
92 0 73.3331 15.1364 1110 138.971 789.975 443.973
93 1 40.0665 10.832 434 147.806 789.039 455.889
94 0 41.0847 13.0219 535 143.641 789.393 455.052
95 0 41.1459 11.6415 479 145.967 789.186 454.061
96 0 42.041 13.7485 578 144.768 790.491 451.452
97 0 44.2454 12.2273 541 147.176 793.262 452.307
98 0 45.1787 13.7454 621 142.377 796.866 451.702
99 0 44.1789 13.9433 616 139.672 799.367 451.753
100 0 47.1334 15.1485 714 135.859 800.321 450.415
101 0 52.1036 17.4268 908 128.949 802.117 453.922
102 0 50.1514 13.4991 677 139.269 804.445 452.82
103 0 53.0755 15.3555 815 133.202 805.53 451.762
104 0 53.2202 14.9003 793 134.285 805.963 452.276
105 0 56.1909 17.316 973 128.799 806.823 454.209
106 0 58.0896 15.7515 915 133.016 806.543 452.268
107 0 57.2953 11.7811 675 141.859 807.04 454.467
108 0 59.1176 14.0567 831 139.282 806.387 452.548
109 0 62.1095 14.5227 902 136.616 806.673 454.507
110 0 64.1373 18.9749 1217 132.871 806.717 456.998
111 0 66.0954 15.1902 1004 141.447 805.464 452.424
112 0 66.1501 16.7044 1105 139.783 804.569 452.533
113 0 67.1963 14.9562 1005 146.682 803.28 450.886
114 0 73.3085 16.1782 1186 146.718 801.809 449.772
115 0 75.2373 15.7103 1182 147.526 801.546 449.319
116 0 74.2403 15.2074 1129 154.415 799.526 444.915
117 0 77.2865 15.7207 1215 152.81 797.93 446.319
118 1 41.1254 13.0333 536 155.504 797.244 462.55
119 0 40.1088 13.3637 536 149.453 795.259 462.435
120 0 40.1088 13.5132 542 148.548 793.225 462.417
121 0 45.0795 11.3355 511 155.213 793.022 460.215
122 0 44.1069 12.8551 567 153.146 791.085 457.032
123 0 48.1092 11.9104 573 153.595 788.412 455.799
124 0 48.0987 12.9941 625 152.011 787.498 454.816
125 0 51.0306 15.4221 787 143.629 788.787 456.234
126 0 49.1981 12.4598 613 152.108 788.703 451.773
127 0 49.1981 12.4598 613 153.555 788.68 451.729
128 0 57.1068 15.9 908 136.99 788.758 453.279
129 0 58.094 16.3012 947 139.174 790.26 448.749
130 0 59.1581 16.177 957 140.543 792.229 448.809
131 0 61.1549 15.9922 978 146.113 792.146 445.807
132 0 63.2121 17.639 1115 134.707 793.525 444.56
133 0 66.0875 16.6597 1101 136.272 796.435 444.224
134 0 67.0653 13.9714 937 141.975 798.634 443.743
135 0 66.1136 13.0533 863 146.426 799.576 444.816
136 0 71.1585 13.5332 963 145.296 801.422 445.432
137 0 74.1399 18.1684 1347 133.812 801.241 448.08
138 0 78.3654 17.5588 1376 137.492 803.729 442.769
139 0 81.227 15.7337 1278 139.957 803.869 441.736
140 0 81.1926 12.9076 1048 151.74 804.099 442.351
141 0 84.1085 16.4431 1383 152.662 802.892 442.785
142 0 88.166 16.8999 1490 146.296 802.708 440.095
143 1 44.0603 10.6218 468 159.028 802.524 464.248
144 0 45.4141 11.3621 516 148.946 802.849 464.076
145 0 50.3176 13.2359 666 145.42 801.899 461.453
146 0 49.1414 12.8201 630 152.071 798.211 463.751
147 0 51.0712 13.256 677 150.074 797.226 462.292
148 0 51.1151 12.5599 642 153.727 796.234 460.555
149 0 52.1165 13.7193 715 152.908 794.764 459.71
150 0 54.1063 12.9005 698 155.872 793.011 457.918
151 0 56.1536 13.3562 750 153.611 791.937 459.407
152 0 57.1688 13.8537 792 155.468 790.799 455.497
153 0 58.1488 14.3941 837 150.73 789.127 456.64
154 0 62.2852 18.3832 1145 141.388 788.107 457.041
155 0 63.2501 13.1225 830 153.233 787.425 450.759
156 0 68.3549 16.268 1112 145.214 786.892 450.134
157 0 67.3087 15.0352 1012 149.651 786.739 447.614
158 0 71.1216 17.8005 1266 153.347 785.356 444.392
159 0 73.2534 14.2109 1041 159.324 785.253 440.473
160 0 74.2652 12.011 892 164.747 785.664 438.118
161 0 78.2347 17.4091 1362 146.883 785.987 436.688
162 1 40.0864 7.98276 320 150.791 786.919 457.578
163 0 43.1418 11.4506 494 136.587 788.101 459.492
164 0 46.0956 11.7799 543 138.571 788.847 454.976
165 0 47.1004 11.4649 540 131.556 788.822 455.037
166 0 49.2522 15.4714 762 131.021 792.766 452.227
167 0 48.401 13.3675 647 136.178 795.362 448.329
168 0 52.0982 14.5302 757 131.207 796.556 453.133
169 0 52.0633 16.9985 885 128.52 798.04 453.508
170 0 55.1756 12.6324 697 135.956 798.819 451.812
171 0 54.0923 13.5509 733 135.666 799.314 452.924
172 0 57.2146 13.6154 779 136.302 799.949 453.773
173 0 61.2061 15.7827 966 128.968 799.022 455.24
174 0 60.0391 17.3553 1042 129.787 799.699 453.006
175 0 61.0959 12.0303 735 140.992 798.574 452.305
176 0 64.1468 13.0794 839 145.754 799.344 453.389
177 0 66.1168 14.6105 966 137.099 799.903 454.155
178 0 66.1153 12.3269 815 148.767 799.575 452.206
179 0 69.1103 12.386 856 155.471 798.685 452.571
180 0 68.2477 11.385 777 159.614 797.467 450.201
181 0 74.0939 14.6706 1087 149.081 795.421 449.88
182 0 73.1798 12.1072 886 156.201 794.71 448.13
183 0 77.0657 12.1974 940 156.104 793.428 445.573
184 1 40.1699 13.3931 538 148.006 792.77 465.647
185 0 43.039 12.3376 531 150.591 791.011 463.693
186 0 41.056 10.8389 445 155.919 788.337 462.555
187 0 45.0769 12.5785 567 148.399 786.039 463.429
188 0 45.0191 10.5511 475 151.869 786.118 462.166
189 0 47.3021 11.1834 529 150.399 787.302 456.42
190 0 47.1595 12.8076 604 147.315 783.806 456.922
191 0 48.0599 12.422 597 147.246 783.298 457.683
192 0 50.019 12.3153 616 146.12 783.185 455.274
193 0 52.2558 12.3623 646 145.443 783.269 453.681
194 0 55.2462 14.8426 820 136.168 783.949 452.904
195 0 56.1569 13.7472 772 139.166 783.667 451.518
196 0 56.1569 14.8156 832 136.41 782.709 452.306
197 0 59.1568 14.0812 833 140.467 785.761 445.492
198 0 62.1657 14.4935 901 137.109 787.394 445.137
199 0 63.1084 12.7083 802 138.145 788.51 445.282
200 0 64.1381 13.0811 839 138.268 790.518 443.544
201 0 68.14 13.6484 930 136.253 791.92 447.218
202 0 73.2422 15.0323 1101 131.938 793.86 446.856
203 0 74.1485 15.6847 1163 132.512 796.453 442.882
204 0 75.1736 15.1383 1138 135.666 796.71 441.663
205 0 77.3127 14.6418 1132 137.032 797.117 442.69
206 1 39.1324 10.5539 413 142.002 797.063 461.901
207 0 42.0499 11.2247 472 145.184 796.922 461.839
208 0 44.0546 9.87412 435 146.2 797.584 462.414
209 0 46.1125 12.99 599 140.948 796.324 461.651
210 0 48.0604 12.0265 578 144.969 796.235 461.668
211 0 51.0279 14.6979 750 140.892 795.824 463.961
212 0 51.0288 14.678 749 137.637 795.836 463.936
213 0 53.1169 13.2161 702 151.085 793.313 461.056
214 0 54.0431 16.6719 901 141.629 792.537 461.071
215 0 55.0493 13.7876 759 147.918 791.493 461.395
216 0 57.0923 14.4678 826 146.14 790.529 459.242
217 0 58.0687 13.3807 777 149.699 789.099 458.122
218 0 60.0448 13.3067 799 152.179 788.183 457.113
219 0 64.0376 15.7408 1008 143.597 786.894 455.982
220 0 67.0401 15.5429 1042 143.503 786.16 455.092
221 0 64.0406 12.4921 800 153.152 784.585 449.501
222 0 67.1065 14.0821 945 149.586 783.524 446.071
223 0 68.0204 11.6142 790 152.527 783.352 443.865
224 0 71.0254 14.8961 1058 144.528 782.761 446.122
225 0 74.041 14.0598 1041 144.543 782.258 444.99
226 1 39.0632 13.9262 544 139.454 782.327 458.903
227 0 42.1641 10.3643 437 143.888 783.096 458.41
228 0 40.1825 9.5315 383 147.282 784.47 458.089
229 0 45.0738 10.5383 475 138.16 783.926 459.876
230 0 46.0667 10.8972 502 139.488 784.671 457.281
231 0 47.0379 12.0329 566 133.666 785.675 453.647
232 0 49.0947 11.6306 571 131.133 787.391 453.405
233 0 50.0961 14.7916 741 126.838 788.887 454.806
234 0 54.1131 14.5621 788 126.975 791.058 453.84
235 0 54.11 15.8566 858 128.022 792.281 451.734
236 0 54.0539 11.8955 643 136.414 793.572 452.984
237 0 58.2166 14.4632 842 128.34 795.222 453.703
238 0 59.2051 15.5899 923 128.77 796.029 452.171
239 0 59.3453 14.2387 845 130.462 797.225 452.907
240 0 59.3453 14.3061 849 130.499 798.254 452.929
241 0 65.0864 17.5766 1144 124.314 797.456 452.379
242 0 67.202 15.6543 1052 127.311 797.445 455.251
243 0 69.1624 17.2059 1190 124.282 797.322 455.237
244 0 73.1749 14.5678 1066 131.981 796.746 452.11
245 0 72.1715 13.8282 998 131.957 796.39 452.665
246 0 76.3071 16.4729 1257 128.761 794.781 449.582
247 0 77.0699 14.3636 1107 133.13 794.334 448.846
248 0 81.3055 13.9474 1134 132.487 792.986 448.408
249 0 82.129 13.8806 1140 133.861 792.375 444.372
250 0 84.2764 12.2929 1036 136.723 790.993 442.986
251 1 43.0799 7.89231 340 136.982 788.244 469.362
252 0 44.0947 9.52494 420 133.4 787.26 468.007
253 0 46.2209 12.4835 577 129.624 786.473 461.534
254 0 50.2552 15.9983 804 122.101 785.466 462.766
255 0 49.0606 12.617 619 130.604 783.428 458.654
256 0 51.139 10.931 559 134.671 782.914 457.816
257 0 51.0836 11.4323 584 133.312 782.608 454.341
258 0 56.3648 20.7221 1168 115.071 782.312 456.166
259 0 54.064 14.2054 768 128.307 781.592 454.02
260 0 56.065 15.1788 851 130.008 780.734 453.078
261 0 58.137 12.9866 755 136.456 781.399 452.287
262 0 62.0323 12.7675 792 129.755 781.837 447.914
263 0 62.0718 14.9182 926 125.584 782.537 444.512
264 0 64.0788 13.3117 853 127.098 783.715 445.923
265 0 67.1794 12.9206 868 130.032 785.061 441.145
266 0 67.1317 17.4582 1172 117.148 787.996 448.782
267 0 70.1843 20.1042 1411 116.159 790.181 441.503
268 0 71.0931 18.4406 1311 119.092 791.805 440.275
269 0 73.1543 13.1093 959 126.732 793.534 444.414
270 0 75.3038 13.6912 1031 127.1 794.795 443.594
271 0 77.1035 12.2303 943 129.67 795.935 445.466
272 0 82.2034 18.3447 1508 119.288 797.054 444.924
273 0 86.2165 14.6956 1267 125.416 796.584 443.719
274 0 86.2146 12.9792 1119 129.666 796.965 442.055
275 0 86.2146 12.898 1112 135.399 796.955 442.018
276 0 91.1809 12.9194 1178 131.65 796.376 441.722
277 1 49.1659 11.8985 585 131.381 796.674 462.797
278 0 49.0963 10.51 516 135.486 794.095 463.787
279 0 51.0659 12.2978 628 134.263 793.333 461.947
280 0 53.0765 12.9624 688 136.128 792.904 463.513
281 0 54.0825 12.8877 697 134.842 793.935 463.603
282 0 56.1778 13.2971 747 133.871 789.743 460.341
283 0 59.0372 14.8042 874 130.989 789.666 460.119
284 0 60.1048 12.8276 771 134.497 787.965 458.148
285 0 62.245 13.4147 835 131.513 786.729 457.198
286 0 66.1356 13.427 888 130.115 785.376 455.345
287 0 68.2284 16.7086 1140 123.051 784.442 454.737
288 0 68.0978 14.5967 994 125.52 783.728 453.425
289 0 71.2738 15.7 1119 126.384 782.629 448.478
290 0 72.1115 10.1371 731 134.477 781.497 450.72
291 0 76.1193 15.0685 1147 127.114 781.01 446.078
292 0 77.4857 14.8156 1148 125.418 780.937 440.904
293 0 81.1592 15.5497 1262 124.923 781.272 439.889
294 0 83.4557 14.8702 1241 124.796 781.708 438.978
295 0 87.1766 15.3367 1337 123.812 782.296 436.345
296 0 89.3561 16.9994 1519 120.709 783.078 437.942
297 0 93.1403 15.8363 1475 119.174 784.679 434.189
298 1 50.0964 13.474 675 116.908 785.465 455.881
299 0 46.0564 11.0517 509 120.36 786.556 456.79
300 0 50.0715 11.7632 589 120.436 789.226 455.587
301 0 53.184 14.9669 796 119.408 791.058 454.062
302 0 53.184 14.7789 786 119.536 792.991 454.019
303 0 54.3692 12.9853 706 122.272 796.732 457.161
304 0 55.3353 13.4092 742 122.577 797.41 455.85
305 0 58.2119 14.1552 824 121.632 798.58 455.422
306 0 58.2119 14.0521 818 134.74 799.555 455.292
307 0 61.2248 16.9049 1035 118.471 799.669 457.527
308 0 60.4593 13.4471 813 129.638 798.871 455.991
309 0 60.4593 13.3478 807 142.693 798.866 456.045
310 0 69.4178 13.2819 922 129.642 797.654 455.975
311 0 66.2876 15.0556 998 130.162 797.61 457.36
312 0 69.5317 14.3532 998 134.473 796.139 455.887
313 0 72.4036 15.6208 1131 130.991 794.413 455.352
314 0 75.5917 17.4358 1318 129.134 793.168 453.603
315 0 76.3543 16.358 1249 130.155 792.179 454.389
316 0 76.3543 16.1746 1235 135.187 790.163 454.13
317 0 79.509 14.1242 1123 139.427 789.546 445.914
318 0 80.3367 15.2608 1226 139.591 788.515 449.341
319 0 81.5029 12.5394 1022 146.866 787.007 446.023
320 0 85.4974 14.3981 1231 141.854 785.665 441.508
321 0 88.4761 16.2078 1434 134.422 785.038 440.177
322 0 91.4995 18.8744 1727 130.69 783.149 435.677
323 1 52.4366 11.5377 605 134.813 783.332 458.197
324 0 50.3825 11.2341 566 136.553 782.83 457
325 0 51.4525 12.4192 639 132.72 782.285 453.856
326 0 54.4995 12.4588 679 135.778 782.804 448.695
327 0 55.2042 12.9338 714 136.938 782.118 449.16
328 0 57.3981 13.7635 790 137.928 782.165 445.69
329 0 59.3918 15.7429 935 130.913 783.046 445.23
330 0 61.1689 13.9286 852 132.867 784.205 446.71
331 0 63.4157 15.3432 973 132.551 787.496 448.507
332 0 63.4157 15.3432 973 148.02 788.489 448.556
333 0 69.2334 15.9316 1103 126.988 790.023 448.409
334 0 70.2289 22.8396 1604 118.524 792.576 442.067
335 0 72.3881 17.1851 1244 127.672 794.202 447.145
336 0 73.2354 15.5253 1137 132.083 795.452 448.989
337 0 75.308 12.8804 970 138.477 795.741 449.48
338 0 80.2487 17.7199 1422 132.212 797.258 445.185
339 0 81.197 14.3232 1163 139.429 797.468 448.12
340 0 82.2824 13.6481 1123 146.492 798.329 446.215
341 0 84.3796 15.5014 1308 141.433 798.766 445.629
342 0 88.3128 15.0601 1330 142.687 798.089 444.241
343 0 90.2324 13.7312 1239 147.856 797.436 441.375
344 0 95.3579 15.4261 1471 144.44 796.874 441.19
345 0 99.2516 15.0627 1495 145.623 795.8 442.371
346 1 48.0241 6.43427 309 163.184 796.039 463.117
347 0 54.2372 12.2978 667 148.459 794.724 463.132
348 0 54.0582 9.91524 536 155.998 792.989 460.914
349 0 54.0582 9.93374 537 140.572 790.983 461.006
350 0 60.2338 16.1039 970 140.48 788.308 456.945
351 0 63.2797 13.4482 851 140.714 786.497 457.106
352 0 65.1444 14.322 933 141.047 784.995 452.827
353 0 66.1144 15.8664 1049 135.151 783.418 457.131
354 0 66.0959 14.3731 950 140.929 782.475 452.48
355 0 71.0751 14.4354 1026 137.208 781.908 451.533
356 0 72.0883 12.554 905 141.935 781.87 449.483
357 0 75.1058 18.2543 1371 132.572 781.046 448.939
358 0 78.2326 16.9239 1324 133.831 781.458 445.443
359 0 82.0585 15.7205 1290 134.616 781.057 446.184
360 0 84.0928 14.8407 1248 137.465 781.037 442.137
361 0 88.1532 16.7663 1478 133.946 781.849 442.281
362 1 45.1198 9.10909 411 148.144 781.905 459.382
363 0 48.2619 11.189 540 141.93 784.361 460.063
364 0 49.2721 13.5574 668 134.891 786.222 457.617
365 0 53.4733 14.2875 764 127.029 789.88 456.91
366 0 56.3238 16.0678 905 121.587 790.617 456.501
367 0 54.1637 16.5425 896 128.009 792.782 453.78
368 0 57.123 15.5279 887 130.278 794.628 456.012
369 0 56.1583 14.0318 788 135.214 796.728 456.656
370 0 57.0543 14.4073 822 135.887 797.23 454.451
371 0 59.0784 13.9306 823 136.549 799.006 455.492
372 0 60.0846 14.0469 844 152.026 800.988 455.795
373 0 64.2154 16.3201 1048 134.219 798.589 455.325
374 0 66.0932 15.115 999 138.779 798.088 457.334
375 0 70.1305 15.8134 1109 137.335 798.265 456.4
376 0 71.0653 15.4787 1100 143.93 798.092 453.28
377 0 71.1874 15.1431 1078 145.302 797.577 456.718
378 0 76.252 15.9078 1213 144.301 796.789 452.695
379 0 78.2198 16.9906 1329 143.683 796.123 453.892
380 1 47.905 11.3349 543 138.573 796.586 475.681
381 0 41.1822 13.0396 537 146.412 795.382 471.25
382 0 38.0129 11.0752 421 154.819 791.974 469.608
383 0 44.0799 11.9102 525 148.469 790.67 470.417
384 0 45.1668 12.4428 562 145.929 788.899 469.612
385 0 44.1669 10.2566 453 154.199 787.826 466.658
386 0 47.1272 13.75 648 145.56 785.878 464.568
387 0 51.3813 14.9081 766 137.29 786.603 464.435
388 0 51.1805 14.4782 741 134.7 786.117 462.202
389 0 50.1284 13.3657 670 136.419 784.466 463.919
390 0 53.1005 13.6157 723 136.368 781.974 460.315
391 0 54.1509 13.961 756 136.976 781.116 458.307
392 0 54.1509 14.0164 759 138.107 780.145 458.311
393 0 54.1522 13.9791 757 137.713 779.124 458.326
394 0 60.5411 14.6347 886 134.624 781.786 453.279
395 0 64.1171 13.4754 864 136.686 781.895 452.037
396 0 65.0903 14.3339 933 135.516 783.085 450.742
397 0 67.2043 14.999 1008 130.561 784.879 452.208
398 0 70.2545 16.4402 1155 126.615 786.369 448.524
399 0 70.213 13.0318 915 134.307 787.801 445.708
400 0 72.2981 14.5924 1055 130.48 789.8 449.163
401 0 75.2042 15.5177 1167 131.055 792.093 445.728
402 0 78.0709 15.1913 1186 132.157 793.696 447.777
403 0 81.4055 14.4093 1173 133.266 795.454 444.356
404 0 83.1992 15.9256 1325 132.832 796.402 443.645
405 0 86.2251 15.7843 1361 131.1 795.93 443.251
406 0 88.2482 15.3431 1354 133.498 796.208 445.702
407 0 91.2961 14.4694 1321 137.217 796.71 444.543
408 0 95.466 14.4135 1376 136.642 796.736 442.877
409 0 98.459 18.4442 1816 131.935 796.734 439.329
410 0 101.337 12.9765 1315 142.632 796.516 440.173
411 1 56.0999 12.3886 695 135.242 794.59 466.083
412 0 54.0504 10.6382 575 135.642 793.722 470.588
413 0 54.0504 10.5272 569 144.446 792.747 470.543
414 0 60.0907 16.1922 973 130.161 792.208 464.903
415 0 60.131 14.0028 842 135.722 791.961 463.867
416 0 61.3178 12.6228 774 139.508 790.313 461.839
417 0 64.273 14.1428 909 136.737 789.222 463.892
418 0 67.1548 17.3629 1166 130.42 787.915 459.853
419 0 70.2675 14.3452 1008 134.718 786.569 460.781
420 0 70.135 14.0443 985 137.545 786.951 454.706
421 0 72.15 15.052 1086 133.562 786.498 453.127
422 0 77.1506 13.506 1042 134.826 786.137 452.228
423 0 79.1548 17.3837 1376 130.262 785.515 449.36
424 0 81.0745 17.3667 1408 131.254 785.219 449.295
425 0 87.399 19.3481 1691 123.676 784.252 448.321
426 0 86.1792 19.5291 1683 133.491 784.152 448.117
427 1 44.0745 10.3688 457 136.381 783.256 464.028
428 0 47.1182 10.9724 517 132.588 784.412 461.377
429 0 49.3526 12.7653 630 128.097 785.233 460.917
430 0 48.2412 12.168 587 132.184 786.216 456.765
431 0 48.2412 12.2302 590 139.48 787.198 456.72
432 0 56.2727 13.0614 735 125.593 788.471 455.75
433 0 56.2727 13.1502 740 140.393 789.468 455.768
434 0 56.2727 13.168 741 139.749 790.493 455.873
435 0 58.1366 12.5394 729 130.427 794.261 455.912
436 0 60.1066 14.1415 850 126.544 795.275 454.5
437 0 61.1372 12.4311 760 130.083 796.466 454.663
438 0 63.0816 11.9845 756 129.642 796.538 456.27
439 0 64.0429 11.867 760 130.717 797.33 453.925
440 0 69.172 13.9074 962 127.403 798.512 454.49
441 0 72.1023 14.0217 1011 130.744 798.811 453.569
442 0 72.1023 14.0079 1010 128.855 798.813 453.732
443 1 40.1924 10.0019 402 131.736 798.281 470.818
444 0 41.0321 12.4293 510 131.351 799.202 470.5
445 0 43.1503 11.8887 513 129.986 798.173 471.643
446 0 43.1523 11.7259 506 133.415 796.917 468.83
447 0 46.0468 12.6176 581 133.657 795.425 467.093
448 0 46.1881 14.0296 648 126.602 794.292 467.133
449 0 48.1581 13.5595 653 129.934 793.201 466.274
450 0 51.1833 15.4152 789 124.229 791.634 464.351
451 0 50.1768 13.1934 662 130.051 790.483 462.704
452 0 51.0678 12.7086 649 130.826 789.003 464.593
453 0 54.2294 14.4202 782 129.382 787.757 462.028
454 0 57.146 15.6791 896 121.786 786.932 463.221
455 0 57.1621 12.4908 714 128.944 785.979 460.055
456 0 61.1642 16.0715 983 120.527 785.58 459.92
457 0 63.1318 14.8103 935 123.38 785.339 454.761
458 0 64.2274 15.3361 985 123.858 784.818 454.483
459 0 67.1352 15.6848 1053 122.662 784.268 449.684
460 0 67.3209 14.3046 963 125.571 784.609 451.632
461 0 70.2758 15.4961 1089 122.214 784.456 448.882
462 0 73.0859 17.4589 1276 116.855 786.201 449.546
463 0 72.192 14.0459 1014 125.531 786.64 443.634
464 1 40.0718 13.1264 526 124.395 788.424 460.639
465 0 41.094 12.7999 526 122.327 789.639 461.584
466 0 45.1606 12.6216 570 122.07 791.953 461.318
467 0 44.1227 14.4597 638 123.933 793.901 457.161
468 0 45.2265 13.5982 615 124.207 795.53 461.898
469 0 46.2671 12.1901 564 129.218 796.851 460.56
470 0 49.0305 14.5216 712 126.06 798.192 457.334
471 0 50.0924 15.5113 777 125.838 799.951 458.461
472 0 53.0925 16.1605 858 123.277 799.759 462.191
473 0 54.1294 14.4838 784 130.042 799.858 458.501
474 0 55.0928 13.7404 757 130.853 799.563 461.707
475 0 55.1199 14.4957 799 134.303 799.128 458.603
476 0 58.124 14.5035 843 136.126 798.851 459.49
477 0 59.0646 16.5412 977 131.653 797.818 458.824
478 0 61.0682 15.9166 972 136.171 797.355 461.114
479 0 62.0427 15.9084 987 137.556 796.453 458.158
480 0 64.0648 15.9994 1025 138.889 795.3 458.942
481 0 67.1477 16.5009 1108 135.032 794.278 460.973
482 0 70.098 15.9776 1120 137.973 793.027 455.372
483 0 70.185 17.7958 1249 135.713 791.362 453.882
484 1 40.0181 11.9696 479 141.455 790.246 470.474
485 0 38.1377 11.1963 427 142.504 789.651 470.354
486 0 40.0372 11.5642 463 140.212 788.417 468.644
487 0 44.0378 10.7635 474 137.905 787.213 467.527
488 0 42.0434 12.606 530 135.809 786.628 464.777
489 0 44.0586 12.211 538 135.353 786.383 463.944
490 0 47.0914 13.6968 645 130.081 786.566 462.721
491 0 45.0694 10.2952 464 131.42 784.64 458.282
492 0 47.0071 12.9342 608 127.709 784.91 455.206
493 0 47.0325 13.2674 624 126.699 784.726 452.188
494 0 50.1988 12.0521 605 126.749 784.869 455.147
495 0 52.045 10.4717 545 130.172 785.167 449.114
496 0 54.0777 15.4777 837 119.988 786.286 452.973
497 0 57.0536 14.3023 816 123.589 786.945 450.244
498 0 58.1337 13.4173 780 124.051 788.377 449.688
499 0 60.0693 13.6509 820 121.488 790.613 448.844
500 0 65.3158 17.3465 1133 115.559 793.267 448.873
501 0 67.2382 15.2592 1026 119.763 793.422 448.928
502 0 67.1033 14.2169 954 123.229 795.848 449.553
503 0 68.5296 17.9776 1232 117.679 795.859 445.087
504 0 71.3395 14.452 1031 123.672 797.504 446.5
505 0 73.1537 15.2282 1114 123.352 799.305 447.683
506 0 73.1559 15.2277 1114 121.463 800.305 447.683
507 1 39.1618 11.0567 433 127.155 798.859 468.926
508 0 40.1773 10.8519 436 131.853 799.268 468.294
509 0 42.0673 12.9792 546 129.352 798.612 468.81
510 0 42.1174 11.1593 470 133.391 798.353 470.815
511 0 45.1022 13.7466 620 131.306 797.565 468.384
512 0 46.0653 14.067 648 136.131 796.236 470.284
513 0 47.0681 14.8083 697 135.697 795.676 467.709
514 0 49.1641 13.7092 674 137.99 793.626 465.66
515 0 51.1977 15.489 793 133.24 792.845 465.696
516 0 51.0902 14.2297 727 136.078 791.476 462.477
517 0 53.0454 13.5544 719 137.855 790.189 462.381
518 0 55.0821 15.8491 873 133.365 788.337 460.772
519 0 54.0917 13.3477 722 139.12 786.708 458.166
520 0 54.058 12.5421 678 142.73 786.428 458.42
521 0 59.0795 15.6907 927 131.868 785.703 455.735
522 0 60.0659 14.7505 886 133.524 784.313 454.358
523 0 66.1791 15.6092 1033 129.28 784.316 455.367
524 0 65.0867 14.2272 926 133.686 784.059 451.549
525 0 68.1686 16.5472 1128 127.775 784.201 450.054
526 0 68.1137 13.8445 943 134.393 784.01 450.104
527 0 73.2506 15.2354 1116 129.492 784.436 449.693
528 0 73.1565 16.0068 1171 130.12 785.037 447.893
529 0 73.4146 13.703 1006 135.968 785.033 446.188
530 0 75.2652 11.9444 899 140.386 786.318 444.482
531 1 42.1318 10.8707 458 135.415 789.09 460.976
532 0 42.1592 9.96225 420 136.895 790.288 460.612
533 0 47.1335 11.1386 525 134.044 792.893 461.051
534 0 45.1668 11.7343 530 138.177 794.434 459.577
535 0 45.1925 10.4442 472 140.809 795.669 460.078
536 0 50.1325 13.0055 652 134.666 797.293 460.325
537 0 49.3765 14.7439 728 132.467 798.343 459.157
538 0 53.3287 12.9574 691 138.805 797.491 456.158
539 0 55.3435 14.7804 818 132.451 798.005 458.171
540 0 58.0576 14.2961 830 133.306 797.842 459.976
541 0 57.0996 12.8898 736 138.973 798.069 459.648
542 0 59.4281 14.2693 848 137.508 796.853 453.342
543 0 62.5527 17.4253 1090 132.541 796.34 452.335
544 0 64.2751 17.2229 1107 132.917 795.221 450.413
545 0 65.3319 13.3472 872 141.383 794.968 451.075
546 0 67.3728 16.0747 1083 135.939 793.42 452.643
547 0 66.284 12.7331 844 145.3 792.769 449.557
548 0 70.529 14.8308 1046 140.167 791.356 451.096
549 0 74.2267 17.204 1277 136.011 790.339 449.205
550 0 76.6375 13.6617 1047 142.826 788.341 447.162
551 0 79.2237 15.2606 1209 141.18 787.222 442.538
552 0 80.4089 15.2719 1228 141.362 785.874 441.87
553 0 83.5358 15.2031 1270 142.171 785.109 438.465
554 0 87.3903 17.1072 1495 138.162 784.522 438.525
555 0 90.5789 14.6281 1325 145.006 783.734 435.334
556 1 46.2842 10.9325 506 143.962 783.043 456.698
557 0 48.3312 11.1108 537 143.493 782.501 455.695
558 0 47.3066 8.11726 384 153.474 782.659 451.391
559 0 49.3869 13.3234 658 141.726 782.783 450.802
560 0 52.4073 11.2389 589 144.978 782.389 449.63
561 0 55.2347 13.6146 752 141.243 783.098 447.435
562 0 56.3521 12.7591 719 144.075 784.623 446.693
563 0 57.1198 12.0974 691 144.547 784.48 447.174
564 0 60.183 14.7052 885 138.194 785.864 445.066
565 0 63.2382 13.4254 849 141.468 787.922 443.212
566 0 64.2692 14.2526 916 139.162 789.528 443.286
567 0 64.1845 13.1184 842 142.81 791.656 440.537
568 0 68.519 12.7556 874 142.408 793.13 442.302
569 0 68.519 12.7702 875 139.848 795.126 442.198
570 0 75.414 15.647 1180 136.761 796.098 441.379
571 0 79.3543 16.5208 1311 134.669 797.049 438.584
572 0 81.2957 14.7855 1202 137.037 797.455 441.116
573 0 82.37 13.5001 1112 141.964 797.842 438.347
574 0 87.4693 15.0567 1317 137.891 797.189 439.374
575 0 87.485 12.8365 1123 136.672 796.153 441.996
576 1 48.2691 11.3116 546 134.19 795.333 463.214
577 0 48.2578 11.0448 533 139.664 795.141 461.876
578 0 49.4001 13.7854 681 135.753 794.073 461.997
579 0 52.4223 12.4565 653 138.089 793.093 460.77
580 0 53.0954 9.00267 478 144.448 792.605 460.5
581 0 56.1359 14.9993 842 134.186 794.059 462.799
582 0 55.3443 12.9191 715 140.517 792.302 460.994
583 0 60.1722 17.6161 1060 129.275 791.559 463.494
584 0 63.3268 14.6068 925 135.439 789.736 463.094
585 0 64.4663 14.0538 906 138.301 788.391 459.809
586 0 65.2167 12.9568 845 141.801 787.024 459.679
587 0 69.2626 12.1855 844 144.152 785.94 458.586
588 0 70.3509 13.5322 952 142.045 785.083 457
589 0 70.1905 13.4776 946 144.419 784.055 450.257
590 0 76.3636 15.3738 1174 138.803 783.572 451.467
591 0 77.3165 13.1796 1019 141.209 783.196 448.82
592 0 77.2857 13.3013 1028 143.344 782.784 445.438
593 0 82.3233 12.6453 1041 144.021 782.33 447.583
594 0 84.3988 12.0618 1018 145.496 782.599 445.155
595 1 46.152 10.6821 493 134.874 782.063 467.842
596 0 46.0808 9.52674 439 141.651 782.579 464.765
597 0 45.0333 10.3701 467 141.522 782.803 464.488
598 0 47.2298 8.04576 380 146.118 783.766 460.203
599 0 49.1105 11.973 588 138.93 785.444 458.638
600 0 52.106 12.3594 644 136.629 786.474 460.331
601 0 53.3019 12.8889 687 136.144 790.533 463.616
602 0 56.1328 14.6617 823 134.046 792.555 463.42
603 0 55.0507 12.0616 664 139.768 793.747 462.33
604 0 58.118 11.9068 692 139.588 794.737 461.195
605 0 60.2008 14.053 846 135.434 794.16 460.316
606 0 62.0645 15.4517 959 133.703 794.504 460.883
607 0 66.0964 17.883 1182 128.228 793.698 462.132
608 0 66.0964 14.8571 982 135.007 793.483 458.347
609 0 66.1685 10.6244 703 142.97 793.003 459.253
610 0 69.0748 13.7822 952 138.112 792.123 460.401
611 0 71.2117 15.7558 1122 134.805 791.627 457.721
612 0 75.0546 15.7619 1183 135.065 790.168 457.61
613 0 79.0524 13.6492 1079 138.095 789.301 459.387
614 0 79.0567 17.4685 1381 132.868 788.35 455.978
615 0 81.0519 14.3612 1164 139.523 786.643 449.672
616 1 40.0245 8.74465 350 140.934 785.109 474.58
617 0 46.0098 11.3454 522 135.511 783.716 472.352
618 0 45.0304 12.2362 551 136.132 783.269 470.089
619 0 45.0538 11.3642 512 137.836 782.639 468.035
620 0 47.0234 11.909 560 137.996 781.238 464.907
621 0 50.1304 13.7242 688 133.42 781.049 464.919
622 0 50.1057 12.2341 613 137.977 780.899 460.506
623 0 53.4351 14.7843 790 129.703 779.465 459.024
624 0 52.0701 12.0799 629 135.55 776.806 459.312
625 0 54.1261 13.1914 714 133.578 777.458 456.952
626 0 54.1423 11.8946 644 137.012 777.915 456.517
627 0 58.0694 12.7261 739 135.015 778.7 453.796
628 0 60.2003 13.5381 815 134.308 780.852 452.737
629 0 61.0833 13.6535 834 133.57 782.64 450.486
630 0 61.0833 13.588 830 129.481 784.653 450.501
631 1 34.0431 8.783 299 139.91 785.334 464.502
632 0 34.0721 8.8929 303 140.64 787.106 464.69
633 0 31.0657 8.36936 260 142.042 785.408 463.585
634 0 35.0135 10.4245 365 137.036 788.03 464.189
635 0 37.0286 11.2075 415 136.248 790.145 465.708
636 0 39.0765 10.8505 424 138.108 791.712 463.764
637 0 39.04 11.8852 464 136.67 792.69 464.713
638 0 41.1629 11.6853 481 137.035 793.57 465.609
639 0 43.2235 14.3903 622 131.122 794.114 467.23
640 0 45.0833 13.4418 606 134.322 796.779 468.092
641 0 47.0422 13.7961 649 133.203 794.689 467.609
642 0 47.23 14.3764 679 131.863 794.455 467.169
643 0 47.2397 14.437 682 120.062 793.452 467.07
644 0 48.1298 11.1366 536 137.386 793.726 469.229
645 0 51.0928 15.2859 781 129.528 792.28 467.924
646 0 52.1429 14.863 775 130.253 791.654 466.746
647 0 54.1347 16.108 872 129.327 791.025 465.97
648 0 55.0546 14.6219 805 131.747 789.365 465.26
649 0 54.1178 12.6576 685 136.413 786.663 460.73
650 0 58.1314 13.9855 813 133.213 785.344 462.426
651 0 61.1942 15.7531 964 130.807 784.154 459.878
652 0 61.1513 14.227 870 135.354 783.587 457.753
653 0 60.1162 13.7068 824 138.529 782.847 454.154
654 0 64.2194 13.5473 870 138.534 781.811 454.213
655 1 33.0659 12.46 412 139.155 781.235 468.199
656 0 34.0292 10.4028 354 139.842 779.932 468.757
657 0 36.1786 10.8904 394 140.003 780.327 466.454
658 0 35.043 10.4158 365 144.471 780.458 464.115
659 0 40.0698 13.2519 531 136.179 781 463.411
660 0 41.1757 13.8431 570 135.051 781.279 464.244
661 0 44.1225 12.488 551 137.434 781.887 462.154
662 0 44.0425 14.486 638 134.766 784.591 461.135
663 0 45.1655 14.4579 653 135.798 785.775 460.502
664 0 48.1155 15.8161 761 132.903 787.039 458.681
665 0 53.1347 15.5454 826 128.748 789.271 461.6
666 0 50.1852 18.6111 934 127.752 791.734 458.107
667 0 51.1374 15.1943 777 135.018 793.012 458.615
668 0 54.2115 15.1813 823 133.731 795.114 459.085
669 0 55.0897 12.6339 696 139.269 795.336 461.103
670 0 56.1286 17.3174 972 131.974 796.71 458.738
671 0 57.088 15.4849 884 136.773 797.333 457.299
672 0 57.1576 14.7662 844 139.425 797.04 457.195
673 0 59.135 14.7798 874 139.336 796.7 458.087
674 0 62.1045 14.6849 912 140.684 795.955 457.549
675 0 64.0937 15.727 1008 137.364 795.06 455.083
676 0 68.1029 19.2062 1308 129.266 794.099 458.313
677 0 68.1029 19.3824 1320 133.023 793.073 458.255
678 0 69.0946 18.4095 1272 134.213 792.181 458.703
679 0 74.3108 14.0222 1042 140.278 791.116 456.541
680 0 75.456 15.6383 1180 138.385 790.005 454.674
681 1 40.2247 13.524 544 138.423 787.936 469.765
682 0 41.1227 14.1041 580 135.348 786.762 469.179
683 0 42.4679 11.0672 470 143.109 785.23 467.032
684 0 43.1475 12.492 539 141.952 784.495 465.071
685 0 47.3008 14.7778 699 136.777 783.047 463.22
686 0 47.2964 14.1237 668 139.491 781.711 462.584
687 0 49.0818 14.6287 718 142.123 781.003 457.481
688 0 50.0938 13.2951 666 143.219 780.147 456.776
689 0 55.113 15.0963 832 137.353 780.004 456.143
690 0 55.0746 15.7423 867 138.107 779.663 453.303
691 0 57.0519 15.8803 906 138.327 780.259 454.237
692 0 58.244 15.3664 895 137.534 781.304 447.774
693 0 60.202 14.0029 843 140.015 781.234 447.853
694 0 60.202 14.0527 846 155.197 780.223 447.839
695 0 62.2842 16.0875 1002 136.508 784.006 443.754
696 0 65.3426 19.0228 1243 129.562 786.157 443.303
697 0 65.09 16.531 1076 138.524 786.627 437.789
698 0 69.2633 17.8016 1233 135.487 789.073 440.2
699 0 71.1002 14.1772 1008 144.459 791.524 441.137
700 0 74.3645 16.836 1252 139.026 793.615 439.636
701 0 76.3582 16.5536 1264 143.314 794.526 435.537
702 0 79.2856 17.6451 1399 140.707 795.828 439.069
703 0 80.2344 18.77 1506 141.446 795.991 435.302
704 0 83.3076 17.9936 1499 141.742 796.18 438.52
705 0 86.2657 16.681 1439 148.123 796.555 434.841
706 0 88.3097 15.3664 1357 150.79 796.18 436.479
707 0 94.2917 18.92 1784 143.115 795.582 433.487
708 0 97.271 17.6414 1716 146.379 795.684 435.061
709 0 101.504 17.083 1734 146.675 795.177 434.761
710 0 104.287 15.2656 1592 152.526 794.035 431.622
711 0 107.554 17.0612 1835 148.522 792.801 430.786
712 0 112.287 17.3038 1943 148.436 791.675 424.92
713 0 117.381 18.3335 2152 145.679 790.333 426.191
714 1 61.2325 16.5435 1013 141.428 788.578 454.478
715 0 65.374 15.8014 1033 140.969 787.549 452.477
716 0 64.3957 16.2123 1044 140.213 787.489 452.59
717 0 64.2244 13.9822 898 147.737 783.829 448.376
718 0 66.153 15.1467 1002 144.075 783.469 446.413
719 0 69.4034 15.6332 1085 144.81 782.896 442.724
720 0 70.155 16.8342 1181 142.577 782.207 439.704
721 0 72.2391 16.6807 1205 144.156 781.84 439.354
722 0 75.3011 15.4314 1162 145.43 781.798 439.306
723 0 78.2349 15.9008 1244 143.991 781.717 436.531
724 0 81.2933 14.2816 1161 148.54 782.01 435.516
725 0 83.2774 16.4991 1374 143.1 782.09 434.719
726 0 83.2774 16.5351 1377 150.089 783.094 434.765
727 0 89.2336 17.0451 1521 143.147 783.731 427.367
728 0 92.1574 14.638 1349 148.478 784.717 427.201
729 0 96.23 18.0193 1734 141.319 786.321 424.24
730 0 100.245 18.5745 1862 141.992 787.747 420.904
731 0 101.32 14.2913 1448 151.19 790.257 422.63
732 0 107.283 18.2881 1962 142.926 792.705 420.222
733 0 112.205 16.8263 1888 146.901 793.406 419.165
734 0 112.265 16.1939 1818 149.168 793.939 415.265
735 0 117.207 16.7481 1963 147.856 795.701 417.872
736 0 122.465 19.034 2331 142.145 797.088 419.804
737 0 127.267 17.8837 2276 145.568 796.991 416.629
738 0 132.426 16.6886 2210 145.589 795.785 417.21
739 1 67.1716 8.94724 601 152.118 795.819 451.574
740 0 74.2662 12.6437 939 142.462 795.257 451.098
741 0 74.291 13.0164 967 146.414 794.112 447.49
742 0 79.3599 16.8221 1335 139.184 793.042 445.016
743 0 82.5202 14.4692 1194 143.935 791.695 448.627
744 0 84.2699 14.2518 1201 144.594 790.289 447.284
745 0 87.1849 14.2112 1239 146.475 788.662 444.515
746 0 89.2068 13.2837 1185 149.978 787.445 441.537
747 0 93.4387 14.1911 1326 149.745 785.827 437.171
748 0 96.4099 14.7184 1419 148.233 784.66 436.204
749 0 100.262 16.0679 1611 145.967 783.493 435.94
750 0 101.265 14.1017 1428 153.923 781.967 429.449
751 0 108.474 16.8797 1831 145.91 781.18 429.724
752 1 47.2412 9.08106 429 142.268 781.73 462.138
753 0 49.2476 8.16283 402 140.393 781.881 463.378
754 0 51.2088 7.65493 392 142.844 781.929 461.987
755 0 53.3593 8.54584 456 146.792 781.265 456.768
756 0 55.1272 16.5617 913 134.176 781.354 459.913
757 0 56.0446 13.6498 765 141.554 779.647 458.178
758 0 58.1782 12.3586 719 144.056 780.114 458.919
759 0 60.0366 14.9575 898 138.992 780.702 455.458
760 0 63.0991 13.9146 878 137.962 781.489 457.946
761 0 63.0698 12.2404 772 145.242 781.93 454.337
762 0 65.0968 13.672 890 142.848 783.888 453.015
763 0 67.2643 13.4098 902 143.385 784.706 450.718
764 0 68.0836 12.9253 880 142.251 787.552 453.58
765 0 73.1649 15.6496 1145 136.637 788.221 448.757
766 0 75.0443 13.9917 1050 139.741 789.067 451.236
767 0 77.153 13.2464 1022 141.287 790.205 449.795
768 0 81.055 18.0125 1460 131.534 791.722 447.836
769 0 82.1523 15.7756 1296 135.836 792.887 449.029
770 0 86.106 14.8422 1278 137.936 794.078 446.943
771 1 45.1577 10.1644 459 138.041 794.416 468.244
772 0 48.0821 11.9587 575 132.007 794.539 470.95
773 0 48.1115 11.9098 573 135.955 794.321 467.51
774 0 50.0244 13.9532 698 131.864 794.16 470.135
775 0 52.0776 12.3854 645 135.788 791.442 468.89
776 0 53.1015 12.2031 648 137.478 791.562 472.299
777 0 55.1003 13.8475 763 137.026 790.447 470.346
778 0 56.0495 12.489 700 138.546 789.09 469.62
779 0 57.0906 15.6243 892 134.555 787.813 466.528
780 0 61.0801 14.0635 859 136.945 785.854 466.399
781 0 60.1468 14.2817 859 136.482 784.694 466.815
782 0 61.115 15.0372 919 137.839 782.906 460.551
783 0 64.1496 14.6688 941 133.392 780.491 462.44
784 0 66.1836 11.0601 732 141.033 781.213 458.041
785 0 64.108 10.3419 663 142.618 781.106 456.908
786 0 68.0762 12.2069 831 139.375 779.714 455.065
787 0 71.215 12.2867 875 138.979 779.381 452.76
788 0 73.2583 13.8687 1016 137.655 779.261 451.174
789 0 76.1119 15.0174 1143 134.804 779.178 450.015
790 0 77.0823 15.0229 1158 136.977 779.169 442.769
791 0 79.2191 13.9865 1108 140.04 779.19 441.085
792 0 79.2191 13.8855 1100 130.775 779.162 440.953
793 0 85.2184 14.1167 1203 139.786 780.62 437.162
794 1 45.0266 11.3711 512 139.959 781.875 459.377
795 0 51.1504 11.085 567 133.864 783.785 462.423
796 0 47.0453 10.4793 493 141.712 785.122 457.909
797 0 49.0339 9.91151 486 139.593 787.27 456.856
798 0 52.09 12.1712 634 134.741 787.809 456.238
799 0 53.2287 10.9903 585 136.533 787.72 451.622
800 0 53.3219 12.1339 647 135.014 789.243 450.363
801 0 56.1083 12.2264 686 137.624 789.271 458.914
802 0 57.0598 11.3565 648 141.662 794.363 459.309
803 0 60.1638 12.6654 762 140.647 795.261 456.97
804 0 59.0713 10.0049 591 146.025 795.235 460.541
805 0 64.1521 11.3636 729 142.763 794.89 461.278
806 0 65.1637 14.3485 935 140.111 795.621 459.222
807 0 69.074 14.3035 988 139.364 795.151 462.178
808 0 69.0737 14.1443 977 140.195 795.138 462.12
809 0 73.0714 13.7947 1008 145.154 794.754 458.754
810 0 76.1791 15.4898 1180 142.014 794.464 459.585
811 0 78.127 16.6908 1304 139.856 793.84 457.604
812 0 79.2567 15.2542 1209 146.656 793.494 454.167
813 0 80.1254 13.8283 1108 152.812 792.7 451.625
814 0 83.1681 15.2943 1272 150.098 791.261 447.888
815 1 42.0395 10.7518 452 161.783 790.942 466.164
816 0 46.0169 12.6475 582 153.174 789.866 466.387
817 0 48.0392 11.6155 558 154.892 788.849 466.484
818 0 50.0407 12.9295 647 151.842 787.909 464.703
819 0 53.0652 14.6612 778 148.64 787.32 463.895
820 0 51.1147 12.3839 633 156.757 785.913 460.003
821 0 52.267 13.2206 691 152.101 785.049 451.068
822 0 54.1068 12.4938 676 147.275 783.738 453.046
823 0 55.1693 12.4163 685 149.892 782.974 450.68
824 0 57.1898 14.1109 807 144.664 783.991 450.346
825 0 60.1757 14.6737 883 143.763 784.992 446.712
826 0 62.1955 14.0364 873 144.365 785.51 448.17
827 0 63.261 14.3848 910 144.471 786.46 446.849
828 0 63.1364 12.0533 761 149.246 787.883 444.74
829 0 68.1612 13.7762 939 144.949 789.134 443.763
830 0 68.1649 12.9392 882 148.011 790.774 443.001
831 0 72.1706 16.2393 1172 140.209 792.231 442.799
832 0 74.2574 12.6183 937 148.464 793.78 444.821
833 0 77.1395 14.1691 1093 146.78 795.447 442.328
834 0 79.1519 13.2656 1050 147.288 795.789 443.589
835 0 82.1478 15.5939 1281 142.443 797.759 441.811
836 0 85.1371 15.5514 1324 142.184 799.076 441.995
837 1 43.1352 10.27 443 147.614 799.429 465.223
838 0 42.0396 12.7499 536 140.845 799.571 468.239
839 0 45.0752 9.42868 425 151.155 798.605 466.638
840 0 46.0378 12.9459 596 147.529 798.685 464.419
841 0 49.1248 12.2749 603 146.587 798.627 466.914
842 0 50.0951 11.7177 587 148.52 797.346 466.482
843 0 51.1711 12.7807 654 152.414 794.199 466.91
844 0 52.2006 13.3715 698 151.968 792.569 465.291
845 0 54.2235 12.2456 664 153.881 791.586 465.515
846 0 57.1801 14.1483 809 147.185 790.2 465.575
847 0 59.1889 13.5667 803 147.502 788.01 463.521
848 0 60.231 14.8927 897 144.978 786.643 462.746
849 0 62.1452 14.1926 882 147.251 785.207 460.702
850 0 66.1313 16.7243 1106 140.167 784.774 457.114
851 0 67.1277 15.0012 1007 143.891 783.134 457.275
852 0 69.1473 16.2552 1124 141.593 782.417 455.015
853 0 71.2296 16.2152 1155 141.631 781.782 449.532
854 0 74.0682 16.4038 1215 141.637 780.943 448.814
855 0 77.1732 14.8108 1143 143.479 780.626 447.616
856 0 79.169 16.5974 1314 139.378 780.112 446.886
857 0 79.1891 13.3857 1060 148.787 780.421 443.622
858 0 83.0973 12.7441 1059 149.058 780.972 440.316
859 0 86.1289 14.2925 1231 145.162 781.721 440.904
860 0 88.0645 15.5681 1371 142.446 782.7 440.819
861 1 44.0388 11.2855 497 146.183 782.801 463.247
862 0 46.0776 11.7411 541 145.19 784.75 462.519
863 0 47.1114 13.3301 628 145.484 786.269 458.247
864 0 48.0785 11.0236 530 149.574 788.074 456.57
865 0 47.2678 12.8417 607 146.132 790.191 456.817
866 0 51.4153 12.7977 658 144.626 791.909 457.347
867 0 53.1951 12.7455 678 145.317 793.425 458.367
868 0 54.3099 13.2204 718 145.937 794.28 456.181
869 0 55.3873 14.0285 777 144.911 795.149 455.634
870 0 58.224 15.406 897 141.983 794.767 455.986
871 0 59.1751 14.3473 849 144.994 794.932 456.122
872 0 60.3465 16.3556 987 142.098 795.031 455.173
873 0 63.1535 15.1377 956 143.402 795.26 455.301
874 0 65.165 17.049 1111 140.671 794.47 456.797
875 0 63.1627 13.204 834 151.815 794.133 454.789
876 0 70.1878 16.2421 1140 142.491 792.949 456.266
877 0 70.3661 15.4194 1085 147.147 791.362 453.044
878 0 74.1019 15.897 1178 144.086 789.989 455.952
879 0 76.2153 15.1151 1152 148.016 789.204 451.615
880 0 79.1751 15.952 1263 146.257 787.094 451.307
881 0 81.2038 16.8711 1370 145.299 786.309 447.072
882 0 87.2559 16.5261 1442 144.883 784.474 445.74
883 1 40.1228 9.99432 401 151.678 782.327 470.125
884 0 42.1864 10.5247 444 154.525 781.786 465.637
885 0 42.1293 12.8652 542 153.587 780.996 461.1
886 0 45.1218 13.3638 603 150.856 779.965 461.511
887 0 50.2201 16.348 821 139.671 779.256 462.072
888 0 48.2701 12.8444 620 151.913 779.497 459.037
889 0 50.1087 13.79 691 148.89 779.284 458.454
890 0 52.1235 12.8541 670 150.157 779.281 456.348
891 0 54.1961 13.5065 732 148.22 779.245 455.137
892 0 55.2342 15.0812 833 144.388 780.485 452.598
893 0 58.1716 14.3369 834 142.899 780.849 456.429
894 0 59.1542 15.1468 896 144.411 782.969 451.933
895 0 63.1511 16.5634 1046 139.789 784.284 451.811
896 0 62.1057 15.7312 977 143.649 785.6 449.999
897 0 66.1597 16.3695 1083 140.932 787.747 447.328
898 0 67.0923 14.1298 948 145.157 789.511 450.046
899 0 70.1042 17.6024 1234 138.233 791.112 445.673
900 0 74.1432 15.3487 1138 141.482 792.095 447.812
901 0 75.1962 16.9822 1277 139.092 792.767 448.405
902 1 39.0751 14.0755 550 140.604 793.2 467.967
903 0 42.0682 11.5527 486 144.01 794.467 467.971
904 0 43.087 14.0181 604 138.589 794.909 469.641
905 0 43.0368 12.803 551 140.27 794.967 469.909
906 0 46.2485 13.7086 634 134.718 794.585 462.934
907 0 46.1337 12.9406 597 139.697 794.832 461.586
908 0 50.2586 15.9973 804 130.399 794.106 463.808
909 0 49.0751 14.7733 725 134.441 793.967 467.177
910 0 52.217 15.4164 805 134.998 793.607 466.58
911 0 53.155 14.5612 774 135.504 792.695 465.517
912 0 52.1283 14.0807 734 139.24 792.063 464.334
913 0 54.2111 12.728 690 141.196 790.333 462.73
914 0 56.114 14.9339 838 137.706 789.093 461.061
915 0 59.0776 13.6769 808 139.066 788.225 460.485
916 0 62.029 14.0902 874 137.284 786.928 460.765
917 0 62.1552 14.1259 878 139.71 785.368 453.92
918 0 66.2127 16.0241 1061 135.03 783.539 453.121
919 1 34.1181 8.82229 301 145.1 782.282 466.243
920 0 33.2057 11.4137 379 141.784 781.174 465.633
921 0 39.3875 10.1047 398 136.138 780.744 467.887
922 0 36.2007 12.4859 452 137.706 781.493 464.21
923 0 38.0501 13.272 505 140.574 781.244 460.366
924 0 38.1069 10.6542 406 143.887 781.773 461.084
925 0 42.0925 14.2543 600 136.585 781.91 460.538
926 0 44.1633 14.2879 631 138.166 783.395 458.699
927 0 44.1479 14.9271 659 137.794 784.763 458.983
928 0 47.0583 16.7239 787 133.809 786.133 456.516
929 0 49.1357 16.0779 790 135.12 787.616 457.22
930 0 47.0531 17.0658 803 136.861 790.224 455.411
931 0 50.13 15.2005 762 139.068 792.03 456.199
932 0 50.1384 13.2433 664 142.911 793.366 458.221
933 0 52.064 14.3285 746 140.609 794.588 458.788
934 0 52.1417 17.9703 937 136.791 795.898 454.917
935 0 57.0784 14.5239 829 141.579 796.484 456.754
936 0 58.1427 16.8379 979 137.351 796.748 456.078
937 0 56.1015 12.3883 695 149.342 797.04 457.571
938 0 62.2265 20.1683 1255 132.818 797.72 456.315
939 0 61.2106 17.1212 1048 142.261 796.748 453.927
940 0 64.1095 15.9727 1024 144.823 796.833 456.096
941 0 67.1586 19.923 1338 136.567 796.347 456.753
942 0 69.2578 17.3988 1205 142.894 796.073 456.825
943 0 71.2343 20.7484 1478 138.269 794.15 453.355
944 0 75.1116 17.2543 1296 145.712 793.329 454.981
945 0 77.1124 16.6381 1283 147.756 792.656 454.603
946 0 80.075 17.0465 1365 146.607 790.834 453.221
947 0 81.1623 16.9907 1379 149.53 790.3 449.093
948 1 43.023 13.4812 580 147.416 790.602 471.484
949 0 41.0455 9.74528 400 161.558 789.76 468.512
950 0 44.1242 12.8728 568 154.011 788.349 465.813
951 0 47.1788 15.7062 741 145.838 784.255 463.301
952 0 46.2464 11.9793 554 154.366 784.278 462.3
953 0 50.2225 14.157 711 149.657 783.688 458.195
954 0 50.2319 15.5081 779 148.712 783.276 455.34
955 0 53.1963 18.8171 1001 136.621 782.801 458.525
956 0 53.1436 13.6423 725 150.021 783.766 455.646
957 0 55.2031 17.6802 976 139.534 783.189 453.527
958 0 55.1507 13.8529 764 150.62 783.873 451.308
959 0 58.11 15.0749 876 147.152 784.838 450.992
960 0 60.2796 14.2668 860 148.28 785.042 449.927
961 0 63.0548 14.2733 900 147.678 786.741 448.833
962 0 65.0796 13.7524 895 149.892 788.021 446.717
963 0 69.1362 15.2019 1051 145.234 789.587 448.032
964 0 70.1442 16.1097 1130 144.593 791.565 445.682
965 0 70.1492 17.2062 1207 144.165 792.532 445.612
966 0 75.1646 15.6057 1173 148.034 794.732 445.11
967 0 77.2091 15.2314 1176 149.649 796.186 443.692
968 0 79.1331 16.883 1336 147.012 797.242 445.402
969 0 83.2174 14.7565 1228 152.112 797.599 442.493
970 1 46.0791 11.4369 527 150.292 797.6 464.231
971 0 46.0851 11.7825 543 149.915 798.685 465.376
972 0 46.3101 11.423 529 153.04 799.851 461.864
973 0 49.4051 13.5411 669 147.686 798.387 461.384
974 0 50.2588 14.2463 716 149.591 797.644 458.969
975 0 52.1196 13.6033 709 145.258 797.863 463.915
976 0 53.0353 16.1591 857 140.663 796.428 462.579
977 0 55.07 13.383 737 145.758 794.524 465.577
978 0 56.1129 15.6827 880 142.562 793.302 459.852
979 0 60.0894 17.6404 1060 137.975 791.92 461.208
980 0 61.1581 15.3373 938 141.825 789.814 460.437
981 0 63.1468 14.1417 893 144.872 789.021 458.486
982 0 65.109 16.649 1084 140.417 787.918 457.444
983 0 64.119 16.2666 1043 143.48 786.357 454.416
984 0 67.1054 14.738 989 146.906 785.557 454.449
985 0 69.1443 15.4893 1071 145.693 784.783 449.157
986 0 71.1003 14.9788 1065 145.883 784.021 446.754
987 0 74.1589 16.3972 1216 142.234 782.773 448.036
988 0 74.1589 16.4781 1222 144.469 781.764 448.038
989 0 79.191 15.2416 1207 144.35 782.763 444.196
990 0 80.174 15.4414 1238 144.751 782.935 443.24
991 0 83.3145 15.7836 1315 144.863 782.986 439.451
992 1 47.0723 11.6417 548 151.011 784.615 456.839
993 0 47.0677 12.4076 584 148.414 785.24 456.132
994 0 51.0493 13.3792 683 147.909 786.327 453.709
995 0 48.0385 11.5116 553 155.468 787.488 452.825
996 0 54.1011 17.9848 973 140.1 789.969 450.151
997 0 54.0712 14.9063 806 144.635 790.643 449.861
998 0 56.4235 13.2569 748 147.126 791.213 449.283
999 0 60.162 12.7489 767 148.701 794.628 451.7
1000 0 61.093 14.9117 911 143.597 795.229 452.358
1001 0 64.1996 15.2493 979 144.061 795.84 449.509
1002 0 65.2463 15.8017 1031 142.419 795.607 448.716
1003 0 69.1204 13.9756 966 144.017 796.597 451.039
1004 0 70.1693 15.7049 1102 141.774 796.502 449.799
1005 0 74.3489 18.8705 1403 135.047 796.322 450.18
1006 0 74.2144 15.9672 1185 141.149 796.666 449.676
1007 0 80.2429 19.0048 1525 133.815 797.034 451.258
1008 0 79.3393 16.7761 1331 139.137 796.594 449.162
1009 0 84.278 13.3131 1122 144.98 796.344 450.086
1010 0 90.2182 19.1314 1726 133.256 794.906 448.738
1011 1 45.0431 11.0339 497 142.272 794.753 471.006
1012 0 45.0325 10.77 485 146.231 793.649 469.243
1013 0 45.0359 10.7026 482 147.975 792.668 469.162
1014 0 49.1578 11.9004 585 148.055 790.619 464.99
1015 0 52.1434 14.23 742 138.974 788.919 464.208
1016 0 54.1256 12.5079 677 140.928 788.739 463.006
1017 0 55.1331 16.2334 895 135.649 787.813 459.759
1018 0 54.0571 14.2072 768 141.283 787.012 458.888
1019 0 54.0562 14.1704 766 137.487 786.037 459.022
1020 0 59.1649 14.299 846 140.371 781.809 459.617
1021 0 62.0515 15.7933 980 137.508 781.037 457.571
1022 0 62.0936 14.4137 895 140.21 780.603 454.952
1023 0 65.1182 15.3413 999 137.955 780.207 454.799
1024 0 66.0661 14.1979 938 141.374 780.36 453.896
1025 0 71.0685 16.4348 1168 135.183 780.492 451.205
1026 0 71.1922 16.8136 1197 136.961 781.24 448.115
1027 0 72.0766 15.7194 1133 140.248 781.964 449.978
1028 0 76.1268 15.0932 1149 141.783 782.728 446.351
1029 0 76.0933 16.5849 1262 138.305 784.273 446.289
1030 0 81.1794 15.0284 1220 140.211 785.547 446.487
1031 0 83.1294 16.9976 1413 137.828 787.674 442.999
1032 0 83.1337 13.4001 1114 146.293 789.268 444.294
1033 0 87.257 17.1791 1499 137.895 791.14 445.013
1034 0 93.1128 15.9484 1485 139.366 791.823 442.453
1035 0 93.2012 19.5813 1825 132.772 793.027 438.022
1036 0 95.1031 15.7934 1502 138.002 793.539 439.565
1037 0 99.3059 13.4937 1340 137.81 794.346 444.049
1038 0 102.45 13.2845 1361 142.325 794.855 439.916
1039 0 105.415 13.5654 1430 143.323 794.371 437.178
1040 0 108.334 14.8891 1613 142.381 793.631 430.703
1041 0 114.227 13.8933 1587 143.329 793.289 433.41
1042 0 121.622 14.6684 1784 142.017 792.302 430.552
1043 1 67.1881 14.0352 943 136.252 791.712 456.414
1044 0 73.133 13.7421 1005 134.199 788.99 456.293
1045 0 73.2046 13.1412 962 138.207 788.191 451.475
1046 0 77.0678 15.5058 1195 132.136 786.833 450.401
1047 0 79.1614 12.7966 1013 135.804 783.92 453.364
1048 0 82.1293 14.6111 1200 133.314 782.486 447.238
1049 0 85.1764 15.3211 1305 131.546 782.333 445.107
1050 0 87.1194 12.0065 1046 137.959 781.038 443.404
1051 0 87.1148 12.0645 1051 146.731 780.035 443.428
1052 0 87.1226 12.052 1050 146.27 779.028 443.421
1053 0 94.1529 13.6799 1288 133.464 779.6 438.804
1054 0 98.1054 12.2216 1199 135.48 779.861 437.074
1055 0 98.2295 10.618 1043 138.984 779.907 432.063
1056 0 103.218 16.2956 1682 128.34 779.58 426.964
1057 0 106.196 16.3283 1734 129.876 780.585 424.022
1058 0 107.195 13.5547 1453 135.904 780.815 421.432
1059 1 55.138 10.8999 601 127.642 780.918 451.504
1060 0 56.2139 9.10807 512 132.223 781.871 450.129
1061 0 58.1686 10.6071 617 133.877 783.405 441.339
1062 0 62.1528 14.6735 912 127.025 784.08 445.583
1063 0 63.2093 11.2167 709 134.485 786.126 444.969
1064 0 68.2416 13.0126 888 132.789 787.426 442.705
1065 0 66.2745 14.274 946 133.441 789.712 439.782
1066 0 69.3242 13.4873 935 136.707 790.849 441.729
1067 0 73.2289 14.6663 1074 135.124 792.149 440.201
1068 0 74.1695 15.9499 1183 133.183 795.322 439.7
1069 0 78.0955 15.5323 1213 131.808 796.575 446.115
1070 0 80.1505 14.1359 1133 135.209 796.825 444.427
1071 0 81.0657 12.8784 1044 138.915 797.576 439.968
1072 0 83.2388 16.4707 1371 132.652 797.799 443.476
1073 0 85.0976 15.4764 1317 133.525 797.708 446.963
1074 0 88.4572 14.8433 1313 135.045 796.979 443.89
1075 0 92.3257 18.608 1718 128.714 796.151 442.542
1076 0 92.4481 14.6569 1355 133.5 796.286 444.623
1077 0 93.152 14.5998 1360 137.255 795.124 436.625
1078 0 103.352 15.5488 1607 131.578 794.999 442.298
1079 0 103.176 14.926 1540 133.519 793.677 436.398
1080 1 60.0824 12.9156 776 131.014 793.784 458.82
1081 0 64.2244 10.7591 691 135.402 792.082 456.771
1082 0 64.1071 10.4825 672 137.033 789.61 452.906
1083 0 68.2077 11.0252 752 135.363 788.911 449.576
1084 0 68.4009 13.7133 938 130.187 787.76 445.002
1085 0 76.2814 14.8136 1130 125.118 787.134 447.43
1086 0 77.2275 16.6651 1287 123.005 785.782 444.399
1087 0 77.2771 13.6651 1056 126.938 785.525 447.658
1088 0 82.3788 15.6594 1290 124.326 784.924 441.054
1089 0 80.2428 12.8859 1034 132.562 784.191 434.278
1090 0 84.4217 14.7 1241 127.862 783.639 436.907
1091 0 88.2451 14.6637 1294 127.535 783.929 433.646
1092 0 90.2826 15.7616 1423 125.875 784.267 430.859
1093 0 94.2841 14.6896 1385 129.687 785.194 430.821
1094 0 98.2596 15.459 1519 127.509 785.961 432.444
1095 0 101.122 15.1401 1531 127.828 787.207 432.138
1096 1 50.0398 11.9905 600 128.627 789.183 454.923
1097 0 57.1 9.36953 535 130.892 789.628 454.417
1098 0 55.1203 10.0326 553 134.069 791.421 453.687
1099 0 59.0591 13.0039 768 127.762 792.796 454.758
1100 0 62.1397 11.7477 730 131.632 794.519 453.427
1101 0 63.09 18.8461 1189 117.526 797.822 455.707
1102 0 62.0589 11.8436 735 133.776 798.627 452.388
1103 0 64.0586 16.4381 1053 125.679 799.955 453.665
1104 0 67.0944 14.3976 966 128.342 799.598 454.99
1105 0 70.1073 17.1594 1203 124.407 799.83 453.341
1106 0 70.088 16.1939 1135 128.272 799.595 453.641
1107 0 73.0937 14.5977 1067 130.955 799.133 455.008
1108 0 72.0824 12.4718 899 136.841 797.948 454.375
1109 0 79.1021 16.5735 1311 128.325 797.72 455.494
1110 0 80.1204 14.0663 1127 133.287 796.495 454.713
1111 0 82.1078 16.6854 1370 128.689 795.151 454.788
1112 1 41.0256 10.7494 441 132.363 794.236 475.317
1113 0 41.0256 10.6763 438 140.217 793.244 475.368
1114 0 46.0473 10.1417 467 135.499 789.323 474.54
1115 0 48.0424 14.3207 688 130.763 788.189 471.099
1116 0 51.0685 16.0373 819 128.421 786.287 470.479
1117 0 51.0637 14.8638 759 133.651 784.561 467.578
1118 0 51.0928 14.9923 766 130.603 782.742 464.499
1119 0 50.12 14.3456 719 132.715 782.484 465.7
1120 0 52.0593 14.5987 760 128.68 781.839 468.604
1121 0 50.1715 12.5569 630 137.006 780.77 464.84
1122 0 51.0516 13.5353 691 139.467 780.651 462.224
1123 0 48.1364 12.4646 600 140.59 780.13 465.635
1124 0 49.0471 11.336 556 143.326 779.741 464.872
1125 0 50.0948 14.253 714 142.952 779.611 460.511
1126 0 48.0492 11.5923 557 149.487 782.126 463.883
1127 0 50.0803 14.297 716 143.494 782.77 460.969
1128 0 52.1075 14.2014 740 142.142 783.404 461.334
1129 0 54.0348 14.3241 774 138.656 784.399 461.862
1130 0 53.1261 15.2091 808 137.86 785.624 460.266
1131 0 55.0544 15.8934 875 131.32 786.872 461.642
1132 0 62.5617 14.9133 933 129.981 788.624 462.924
1133 0 55.0449 11.8085 650 138.966 789.598 463.52
1134 0 53.0867 12.9788 689 139.261 791.581 461.049
1135 0 56.3858 15.4649 872 132.039 792.354 462.558
1136 0 58.0551 16.7772 974 129.645 793.376 462.957
1137 0 56.0622 14.4126 808 134.059 793.675 463.99
1138 0 56.0891 16.2955 914 130.851 794.554 464.597
1139 0 57.0523 14.5831 832 130.343 794.353 469.236
1140 0 54.053 14.0418 759 135.465 793.86 466.054
1141 0 56.0847 15.4053 864 131.72 793.36 470.447
