time division length width area intensity CMx CMy
0 0 91.2767 15.7214 1435 127.526 502.991 423.3
1 0 92.3447 15.1173 1396 126.557 504.086 417.606
2 0 98.2125 16.9632 1666 125.456 504.662 417.338
3 0 102.419 16.7937 1720 123.81 504.551 419.509
4 0 106.223 17.0868 1815 122.195 505.208 419.255
5 0 110.517 16.9114 1869 121.974 505.485 423.319
6 1 60.2184 12.5045 753 122.632 504.222 442.494
7 0 65.2526 16.0453 1047 115.519 504.061 447.982
8 0 65.0852 12.2148 795 127.575 501.843 444.743
9 0 67.1176 13.1411 882 128.435 501.3 439.06
10 0 71.2382 15.5675 1109 126.676 500.488 442.225
11 0 71.2383 14.0093 998 133.258 499.993 437.479
12 0 71.1556 12.044 857 142.767 498.783 435.242
13 0 76.1183 14.1228 1075 140.851 498.633 437.01
14 0 77.1131 14.3166 1104 143.014 497.189 437.367
15 0 77.1811 10.6114 819 152.672 496.132 432.735
16 0 84.3479 14.1794 1196 144.28 494.564 436.565
17 1 44.0522 8.64883 381 151.213 492.493 455.01
18 0 46.0897 12.3021 567 147.182 490.651 452.866
19 0 47.1108 10.8043 509 154.735 489.033 450.25
20 0 49.0784 10.3915 510 154.296 488.251 449.863
21 0 51.0247 12.4254 634 151.237 488.024 446.674
22 0 52.1828 13.6252 711 146.713 487.273 444.162
23 0 50.2017 11.0753 556 157.236 486.932 441.138
24 0 56.0993 14.7417 827 145.108 487.496 439.678
25 0 55.0577 12.6413 696 145.657 487.914 443.322
26 0 58.0896 12.6012 732 145.317 487.824 440.119
27 0 59.0337 13.0264 769 143.88 488.945 438.173
28 0 59.2637 12.2841 728 143.908 489.317 438.857
29 0 60.0873 11.3834 684 148.542 490.965 435.137
30 0 62.1956 11.094 690 142.203 492.377 437.567
31 0 67.1161 14.4079 967 132.358 495.007 434.698
32 0 67.1288 11.6046 779 136.16 496.03 434.772
33 0 70.0876 13.5973 953 130.536 498.062 432.509
34 0 72.2563 12.6356 913 130.529 500 434.61
35 0 73.2361 13.5862 995 126.547 501.468 436.063
36 0 75.218 15.023 1130 125.066 501.803 431.777
37 0 82.2954 17.3157 1425 120.244 502.623 434.982
38 0 81.283 16.1165 1310 121.489 503.561 433.478
39 0 85.2781 11.9609 1020 128.347 502.497 432.571
40 0 85.3025 11.2423 959 130.58 501.989 433.031
41 0 86.2855 11.3692 981 126.326 501.002 433.457
42 0 92.2174 13.7935 1272 129.976 500.656 429.335
43 1 53.2178 12.2891 654 132.795 499.153 450.312
44 0 55.1481 13.0376 719 127.864 498.655 452.755
45 0 54.1399 12.5601 680 135.751 497.371 448.994
46 0 57.1006 11.6811 667 132.964 496.54 448.096
47 0 57.0642 10.5495 602 135.324 494.997 448.566
48 0 58.0715 10.4526 607 125.868 494.007 448.473
49 0 62.1659 13.3996 833 128.342 492.441 446.947
50 0 62.1211 12.3147 765 128.843 491.369 442.873
51 0 65.2117 13.2491 864 127.862 490.089 443.027
52 0 67.1966 12.8727 865 125.154 489.395 440.635
53 0 70.1658 14.4087 1011 124.401 488.524 441.559
54 0 70.3473 17.3283 1219 120.228 487.647 438.69
55 0 73.3579 15.363 1127 124.134 487.286 438.143
56 0 76.4331 15.3075 1170 121.569 486.738 435.572
57 0 73.404 14.3998 1057 122.155 486.846 433.812
58 0 78.2882 14.255 1116 124.551 486.78 434.435
59 0 82.203 14.89 1224 124.769 485.9 430.485
60 0 82.2107 11.9206 980 127.951 486.412 432.715
61 0 84.1549 12.7622 1074 131.507 486.534 426.969
62 0 91.334 16.1276 1473 121.158 487.413 424.951
63 0 92.2015 13.9911 1290 123.692 489.002 422.324
64 0 97.181 12.4819 1213 128.12 491.008 422.727
65 1 53.0756 9.98575 530 125.945 492.775 446.926
66 0 49.1261 15.389 756 112.86 493.631 453.836
67 0 55.107 13.7188 756 119.19 497.243 443.906
68 1 108.29 12.8174 1388 126.569 498.461 414.862
69 0 114.416 18.0307 2063 115.034 499.363 424.638
70 1 172.475 13.399 2311 128.11 499.903 398.306
71 1 62.3714 15.1191 943 116.104 501.246 445.565
72 0 60.1539 13.9642 840 120.179 500.521 443.852
73 0 67.1741 21.5559 1448 106.79 501.189 450.907
74 0 69.3773 19.4588 1350 112.879 500.506 445.691
75 0 70.2856 16.2338 1141 118.68 500.308 444.589
76 0 70.3941 15.811 1113 122.035 499.004 447.646
77 0 76.3552 18.689 1427 117.895 498.7 448.707
78 0 74.2052 16.3196 1211 124.55 498.693 444.407
79 0 77.2333 14.0095 1082 128.515 497.496 440.892
80 0 83.276 19.6455 1636 120.337 496.114 442.246
81 0 83.1352 14.0374 1167 133.107 494.376 442.445
82 0 85.2768 16.2881 1389 132.52 493.185 438.76
83 0 89.1629 15.1184 1348 134.989 492.262 439.361
84 0 93.2235 15.3824 1434 134.204 491.119 441.294
85 0 94.5641 14.3183 1354 138.169 489.535 433.717
86 0 95.5871 12.8365 1227 141.927 489.012 430.209
87 0 100.394 12.7597 1281 143.422 487.867 427.458
88 0 102.51 15.2961 1568 140.031 487.714 419.929
89 0 103.546 12.7963 1325 144.046 486.903 420.044
90 0 109.606 15.5739 1707 141.33 486.485 418.001
91 0 111.766 13.573 1517 141.643 487.381 418.964
92 0 118.966 18.2321 2169 135.082 486.685 412.13
93 0 122.024 14.6856 1792 142.881 486.767 409.509
94 0 122.749 13.3687 1641 146.921 486.784 406.836
95 1 72.5722 8.98416 652 140.468 487.362 435.189
96 0 74.602 9.53058 711 137.319 488.776 437.12
97 0 81.0105 11.6775 946 132.498 489.82 436.89
98 0 81.5473 15.4634 1261 134.603 491.175 428.995
99 0 83.6115 12.881 1077 135.392 493.76 429.421
100 0 86.3542 13.0277 1125 134.905 494.784 431.732
101 0 89.3891 12.8763 1151 137.25 495.858 429.216
102 0 90.4122 13.903 1257 135.024 498.909 426.974
103 0 96.6764 14.4503 1397 132.646 500.347 425.455
104 0 96.7227 13.058 1263 135.534 500.874 423.458
105 0 102.673 12.642 1298 135.12 501.672 427.502
106 0 103.631 14.3876 1491 133.119 501.617 428.954
107 0 108.785 12.4741 1357 138.158 501.673 424.884
108 0 110.892 13.0848 1451 137.243 501.034 425.407
109 1 48.4618 11.0396 535 129.355 502.585 453.151
110 0 52.5983 11.7875 620 118.742 502.8 454.932
111 0 52.3903 10.6508 558 132.575 501.507 455.283
112 0 54.5736 15.2271 831 124.606 500.267 453.91
113 0 54.022 10.9585 592 136.059 497.944 453.368
114 0 57.5181 12.1179 697 139.001 494.346 456.892
115 0 60.1892 14.0058 843 135.422 494.034 453.859
116 0 59.2588 14.2426 844 137.646 492.133 452.892
117 0 63.3142 11.9404 756 142.43 490.737 452.071
118 0 65.2315 14.9927 978 137.134 489.116 448.366
119 0 65.1584 13.0758 852 142.676 487.688 444.05
120 0 65.1584 13.0605 851 130.658 486.67 444.206
121 0 67.1429 9.94892 668 146.527 485.549 443.656
122 0 74.3732 14.6289 1088 133.049 485.543 443.517
123 1 39.0958 10.8707 425 127.473 486.36 461.882
124 0 39.0712 9.72583 380 132.576 485.534 458.795
125 0 41.1895 10.8037 445 132.387 486.948 456.065
126 0 44.4126 11.6408 517 128.986 487.072 453.296
127 0 44.4126 11.6859 519 126.01 486.073 453.333
128 0 46.1051 12.5149 577 127.057 485.542 450.47
129 0 46.0695 13.306 613 128.323 486.452 450.408
130 0 49.08 14.9959 736 117.709 487.477 452.083
131 0 50.1135 13.9084 697 132.105 487.851 449.509
132 0 53.191 11.8441 630 127.144 489.13 448.56
133 0 53.1815 11.4701 610 128.982 490.928 449.038
134 0 57.2675 11.4899 658 127.108 494.108 450.126
135 0 55.0894 12.6885 699 129.946 494.758 447.041
136 0 57.2512 11.074 634 133.92 496.325 447.448
137 0 58.1849 13.5087 786 125.267 496.079 452.627
138 0 59.1364 10.6533 630 134.316 497.851 446.916
139 0 63.1003 13.5816 857 127.349 498.022 447.285
140 0 64.2222 11.4291 734 132.913 497.802 450.293
141 0 66.0939 13.6624 903 136.488 496.956 447.365
142 0 69.1487 13.3336 922 132.262 496.875 447.989
143 0 69.1487 13.3336 922 129.802 496.925 447.799
144 0 72.1283 11.2023 808 140.923 495.582 449.653
145 0 76.1887 13.1384 1001 135.912 493.913 448.073
146 1 39.0506 8.2201 321 144.748 492.159 461.579
147 0 43.0535 10.6379 458 138.391 491.31 462.21
148 0 45.0836 11.4232 515 135.821 490.035 461.614
149 0 45.0746 11.9801 540 133.591 488.537 462.304
150 0 47.0278 11.5464 543 134.541 487.606 460.495
151 0 48.0394 11.8028 567 134.545 486.037 459.497
152 0 50.0435 13.828 692 131.39 485.117 456.754
153 0 51.0243 13.5622 692 129.565 483.607 458.311
154 0 50.1012 10.5387 528 139.763 482.017 454.216
155 0 53.0832 12.2261 649 132.123 481.569 455.561
156 0 55.1125 14.298 788 129.624 481.036 451.164
157 0 56.1335 14.0558 789 130.729 480.413 450.177
158 0 59.0931 15.4841 915 136.862 479.215 445.892
159 0 59.0228 14.4859 855 136.411 479.125 446.056
160 0 60.1628 14.1948 854 139.273 479.42 443.403
161 0 65.0934 16.5608 1078 130.85 479.776 442.414
162 0 65.0855 13.3056 866 134.531 480.316 441.602
163 0 66.1436 14.2266 941 132.201 480.978 440.823
164 0 68.1635 13.541 923 133.465 481.624 439.168
165 0 70.1323 15.5421 1090 127.414 483.589 440.637
166 0 74.1919 15.8643 1177 126.191 485.441 437.821
167 0 77.0769 15.3742 1185 126.13 487.344 437.906
168 0 77.1669 13.4643 1039 131.282 488.544 435.521
169 1 41.0565 10.4734 430 128.658 489.714 458.986
170 0 43.0929 11.6725 503 130.167 491.179 455.165
171 0 45.0483 11.6764 526 129.241 491.835 455.981
172 0 46.0558 11.2689 519 131.969 492.672 454.925
173 1 93.2352 17.665 1647 124.115 494.129 433.655
174 1 48.0476 12.0297 578 122.939 494.827 453.254
175 0 47.1884 10.3839 490 128.931 496.331 453.682
176 0 51.0762 14.6056 746 124.524 493.394 453.799
177 0 55.0953 12.0518 664 133.944 492.539 458.622
178 0 55.0548 14.204 782 135.198 491.697 458.009
179 0 57.0871 13.786 787 139.534 491.075 458.338
180 0 55.0699 11.2039 617 145.715 489.771 458.893
181 0 59.1104 14.0753 832 138.257 487.928 456.815
182 0 60.2158 13.4184 808 138.364 487.155 456.251
183 0 61.1009 11.9475 730 142.301 486.179 454.484
184 0 63.1161 11.8512 748 140.317 485.047 454.164
185 0 65.1799 12.3351 804 138.765 483.807 454.022
186 0 67.1499 15.8154 1062 131.983 481.913 451.496
187 0 66.0787 11.9706 791 141.044 480.939 448.82
188 0 70.1836 16.3144 1145 131.865 480.649 446.906
189 0 73.3189 12.3433 905 138.635 480.236 444.86
190 0 78.1962 17.098 1337 128.678 479.375 442.979
191 0 77.2597 13.6164 1052 136.739 478.859 439.923
192 0 80.1737 15.9778 1281 130.896 478.62 440.254
193 0 84.3924 17.3949 1468 126.415 478.461 434.967
194 1 45.0665 11.6716 526 129.629 478.477 455.129
195 0 47.2822 13.0704 618 125.867 478.618 454.896
196 0 46.2629 13.0342 603 136.677 478.66 454.534
197 0 48.0927 12.1432 584 129.224 480.517 454.276
198 0 50.274 13.1479 661 125.598 484.095 450.796
199 0 47.2641 12.3984 586 122.915 484.944 444.411
200 0 54.2879 16.0993 874 115.661 486.65 443.47
201 0 54.0616 13.1147 709 123.1 486.726 452.068
202 0 52.2645 13.183 689 122.337 489.151 449.06
203 0 56.1384 12.3623 694 122.186 491.556 452.64
204 0 57.2063 13.3726 765 122.484 492.306 452.641
205 0 56.11 12.1191 680 126.304 492.953 449.503
206 0 58.2006 11.9586 696 127.036 493.405 451.996
207 0 60.1057 13.7258 825 127.785 493.216 451.72
208 0 60.1057 13.7924 829 124.158 492.23 451.717
209 0 63.2502 12.3952 784 129.216 492.733 450.532
210 0 66.126 11.0395 730 133.596 492.911 447.436
211 0 67.2513 14.2153 956 129.582 492.229 451.094
212 0 67.2622 14.3171 963 122.542 492.232 451.011
213 0 70.2626 12.2683 862 136.202 489.691 449.971
214 0 74.1529 11.8269 877 136.439 489.08 449.277
215 0 76.2261 13.8404 1055 132.973 488.225 447.686
216 0 77.2072 13.3925 1034 135.053 487.244 445.007
217 1 43.1645 9.86922 426 134.493 486.671 464.561
218 0 43.3352 11.0765 480 134.085 486.773 462.158
219 0 44.1928 9.82059 434 133.696 485.293 462.438
220 0 48.3021 11.0968 536 131.121 485.144 460.328
221 0 46.4087 12.4977 580 130.141 483.6 455.976
222 0 49.6746 10.6292 528 130.587 482.966 458.059
223 0 49.2281 10.4615 515 132.678 481.911 454.303
224 0 51.1848 10.8626 556 131.968 480.944 455.655
225 0 54.1191 13.0453 706 128.024 481.296 449.224
226 0 54.0885 12.0358 651 130.727 481.218 449.257
227 0 58.1235 16.0864 935 121.923 481.014 447.248
228 0 57.0983 13.1002 748 127.588 481.86 448.064
229 0 59.2214 14.6906 870 123.843 482.287 446.724
230 0 62.1422 13.0507 811 125.932 483.104 444.843
231 0 61.0885 11.8844 726 124.174 484.105 445.215
232 0 66.1572 19.5897 1296 110.297 485.432 447.692
233 0 67.3216 16.0572 1081 118.059 487.498 443.85
234 0 69.2732 13.3529 925 122.744 489.474 442.195
235 0 71.2695 15.1257 1078 121.605 490.652 440.506
236 0 74.0857 12.931 958 125.897 492.112 437.645
237 0 77.2359 15.1225 1168 120.473 493.417 438.989
238 0 77.2972 12.5619 971 126.709 494.229 439.903
239 0 81.3633 14.3308 1166 121.834 495.404 443.257
240 0 81.3633 14.3799 1170 117.289 496.406 443.285
241 0 85.3095 12.4253 1060 125.277 495.128 444.357
242 0 89.2014 13.0603 1165 124.248 495.483 444.021
243 0 95.2323 16.57 1578 119.322 494.72 439.633
244 0 94.202 13.7152 1292 127.084 494.065 435.124
245 0 101.232 16.0918 1629 120.274 493.76 437.547
246 1 52.099 12.3995 646 126.748 493.057 456.517
247 0 56.077 10.1824 571 129.546 492.849 459.24
248 0 58.1171 13.6965 796 118.896 488.837 454.294
249 0 58.0649 12.5033 726 123.062 487.964 454.755
250 0 58.0752 13.4825 783 121.857 486.837 455.692
251 0 60.1377 12.222 735 125.044 484.872 451.389
252 0 64.1779 14.9896 962 118.676 484.1 455.744
253 0 65.0965 13.9178 906 120.213 483.038 451.162
254 0 69.1785 12.8653 890 117.706 481.499 456.731
255 0 69.2682 11.0585 766 123.822 480.684 448.582
256 0 71.1229 12.6682 901 123.956 479.9 446.228
257 0 75.052 14.7364 1106 119.835 479.433 447.517
258 0 77.2117 15.0884 1165 120.482 478.975 443.961
259 0 82.226 15.129 1244 121.621 478.555 441.542
260 0 82.2063 15.2421 1253 135.587 477.532 441.505
261 0 85.2983 16.4716 1405 125.472 479.773 436.563
262 0 92.3173 17.0824 1577 119.027 480.148 431.49
263 0 88.2673 14.2522 1258 124.909 480.789 429.693
264 1 56.703 14.3908 816 114.85 483.637 455.001
265 0 52.1409 13.1183 684 124.832 484.376 449.561
266 0 54.1453 14.221 770 122.148 486.644 449.058
267 0 57.1995 15.0176 859 120.381 488.607 451.542
268 0 58.0588 13.4863 783 124.313 490.593 450.922
269 0 57.0461 13.8309 789 124.961 492.316 449.757
270 0 60.0669 14.1675 851 125.21 491.798 449.1
271 0 61.0769 13.573 829 126.842 492.783 450.815
272 0 65.133 16.259 1059 121.101 495.28 450.834
273 0 65.2066 14.3544 936 126.401 494.719 449.069
274 0 68.1607 14.2457 971 127.03 495.098 448.61
275 0 68.1607 14.3631 979 127.462 495.053 448.618
276 0 71.0952 16.274 1157 124.233 494.199 449.747
277 0 74.0498 15.6381 1158 128.371 493.668 448.903
278 0 74.2317 15.0071 1114 131.201 492.848 448.822
279 0 78.108 13.5197 1056 134.741 491.982 449.532
280 0 79.186 13.4115 1062 138.453 491.47 445.831
281 0 84.2004 14.1092 1188 135.165 490.538 446.854
282 0 90.1155 14.9253 1345 132.914 488.277 444.459
283 0 89.1283 14.1594 1262 135.437 488.287 443.348
284 0 93.1399 14.9345 1391 134.562 486.512 440.591
285 0 98.2317 16.0641 1578 129.747 484.466 440.693
286 1 51.066 11.1229 568 133.657 483.421 461.826
287 0 51.1066 12.1902 623 132.839 482.483 458.97
288 0 55.0839 12.599 694 126.909 481.656 460.265
289 0 58.0868 14.7193 855 127.464 480.513 454.97
290 0 58.0751 12.8799 748 129.378 480.473 453.652
291 0 61.0398 14.3349 875 127.522 479.709 450.899
292 0 61.243 12.3116 754 128.462 479.577 449.637
293 0 61.1783 14.7601 903 124.632 479.544 448.21
294 0 66.206 14.3642 951 122.413 479.94 448.539
295 0 66.2097 13.1703 872 125.134 480.274 446.732
296 0 71.6112 13.6431 977 121.984 481.111 447.726
297 0 69.261 12.0558 835 127.788 482.241 444.244
298 0 72.154 13.2633 957 126.699 483.883 439.687
299 0 77.1731 15.394 1188 122.276 484.897 437.256
300 0 79.2432 17.4274 1381 119.477 486.75 438.244
301 0 80.4498 12.3182 991 127.002 488.756 440.663
302 0 80.4498 12.4425 1001 141.344 489.769 440.727
303 1 44.1556 7.65475 338 133.05 493.059 456.157
304 0 49.2212 12.1695 599 121.379 494.265 460.048
305 0 46.0888 9.39492 433 130.64 495.099 457.7
306 0 46.0888 9.43831 435 148.623 496.11 457.738
307 0 53.151 13.17 700 121.907 495.886 460.391
308 0 52.3974 11.5845 607 129.379 495.303 456.217
309 0 52.3974 11.47 601 130.283 494.301 456.163
310 0 57.1771 14.9885 857 125.712 494.347 456.615
311 0 59.2777 15.3177 908 127.388 494.222 456.855
312 0 61.2992 15.8893 974 128.815 493.102 458.674
313 0 60.1134 14.2065 854 135.718 491.515 456.529
314 0 63.0913 14.1541 893 135.218 489.681 457.747
315 0 66.144 13.4252 888 137.125 489.268 458.292
316 0 66.144 13.4252 888 147.757 488.274 458.437
317 0 70.1792 16.3439 1147 133.738 486.623 454.16
318 0 72.2071 15.2063 1098 140.642 485.593 452.521
319 0 73.2082 13.4275 983 145.78 484.339 451.225
320 0 77.196 15.4671 1194 141.62 482.728 446.677
321 0 79.1833 14.1697 1122 140.784 482.348 447.579
322 0 82.0712 16.1567 1326 138.865 480.201 443.818
323 0 83.4125 14.6381 1221 141.233 480.486 442.004
324 0 87.2367 13.8588 1209 140.764 479.843 440.481
325 1 46.1255 13.6367 629 132.561 479.313 459.107
326 0 50.1823 13.2118 663 135.953 479.725 455.101
327 0 49.1218 12.1942 599 139.279 479.399 456.402
328 0 55.2289 10.5923 585 137.759 479.381 457.467
329 0 51.121 13.3018 680 133.847 479.522 453.485
330 0 57.4096 15.5897 895 126.536 480.031 454.57
331 0 54.0715 12.9088 698 133.904 483.307 452.927
332 0 54.0715 12.8718 696 142.253 485.3 452.839
333 0 55.1421 13.6556 753 133.368 485.752 450.076
334 0 57.1328 11.6395 665 136.785 489.38 450.253
335 0 62.2151 14.5463 905 129.541 491.162 451.422
336 0 65.3143 17.1938 1123 127.25 492.017 448.882
337 0 62.1715 11.5487 718 140.297 492.539 451.954
338 0 66.3869 11.5685 768 138.928 494.105 449.712
339 0 69.2117 16.0089 1108 131.338 494.094 450.448
340 0 70.1394 15.9539 1119 136.644 494.792 449.165
341 0 72.1889 12.5781 908 142.08 495.485 450.01
342 0 74.1891 13.1151 973 143.797 494.704 446.297
343 0 77.2321 14.6183 1129 141.832 494.049 445.639
344 0 77.2615 12.9172 998 146.919 493.442 445.633
345 0 81.1947 14.1758 1151 143.342 492.336 447.123
346 1 45.1448 10.9426 494 145.557 492.381 464.115
347 0 44.025 11.1755 492 145.689 491.343 463.258
348 0 46.0531 10.5748 487 146.419 489.505 462.166
349 0 49.0604 12.0871 593 142.003 489.094 463.307
350 0 49.1949 13.1721 648 142.727 485.5 463.733
351 0 49.0338 10.7681 528 144.093 482.362 459.403
352 0 50.0961 12.6357 633 145.93 483.588 460.327
353 0 54.0229 13.1055 708 142.164 482.668 458.004
354 0 57.0979 13.5206 772 137.712 481.477 459.5
355 0 59.1631 13.8093 817 135.579 480.701 457.392
356 0 60.1515 13.3496 803 137.359 480.712 454.305
357 0 62.058 14.3898 893 137.217 479.928 453.162
358 0 63.1525 14.5521 919 135.541 479.98 452.247
359 0 64.095 13.0119 834 138.915 479.863 450.357
360 0 68.0984 14.0385 956 135.144 479.588 449.038
361 0 74.4443 17.5299 1305 125.851 479.991 451.171
362 0 69.387 13.4896 936 138.893 480.665 445.288
363 0 74.1561 14.038 1041 137.492 482.428 444.299
364 0 77.0966 15.3703 1185 132.6 483.178 442.511
365 0 79.302 15.3716 1219 132.623 485.077 438.936
366 0 82.2587 15.2203 1252 130.564 485.856 439.087
367 0 85.3388 16.0654 1371 132.198 487.718 441.445
368 1 43.1095 10.9489 472 140.356 489.86 460.892
369 0 43.1588 10.1022 436 142.725 491.548 460.229
370 0 48.1111 12.8869 620 135.935 492.197 459.355
371 0 47.1345 9.7381 459 142.961 493.658 459.32
372 0 47.1335 9.78073 461 141.551 495.646 459.247
373 0 51.2392 11.417 585 138.48 491.487 459.557
374 0 55.1544 16.1184 889 131.015 492.345 459.279
375 0 57.0447 14.0241 800 138.394 490.436 459.216
376 0 58.1357 13.0041 756 144.007 490.885 459.574
377 0 59.1328 12.6833 750 145.361 490.472 459.052
378 0 61.034 13.7137 837 142.418 490.085 456.857
379 0 63.1197 15.3835 971 138.234 489.001 459.049
380 0 67.0453 17.7939 1193 134.235 487.64 454.991
381 0 67.1479 15.1903 1020 138.671 487.161 457.903
382 0 70.1527 13.1713 924 143.531 485.865 455.136
383 0 72.258 16.8009 1214 136.512 484.171 451.448
384 0 75.2224 13.7858 1037 142.459 482.137 450.483
385 0 79.1346 16.6425 1317 134.633 481.479 451.138
386 0 79.1128 12.3495 977 145.346 479.736 445.785
387 0 84.2354 14.5188 1223 137.591 479.578 446.456
388 0 86.1587 13.9742 1204 138.697 478.439 444.393
389 1 46.0807 13.5198 623 129.925 478.035 464.841
390 0 48.0622 13.7738 662 127.156 476.873 465.727
391 0 46.1058 8.0684 372 141.672 475.753 461.462
392 0 46.1058 8.09009 373 144.718 474.74 461.41
393 0 46.108 8.19814 378 143.833 473.72 461.458
394 0 56.1294 13.3798 751 132.598 480.233 454.961
395 0 56.2732 10.8755 612 139.931 480.343 452.596
396 0 60.0923 12.381 744 130.382 481.286 453.406
397 0 60.1249 14.2537 857 125.187 482.665 452.537
398 0 61.0604 11.7916 720 128.217 484.14 451.404
399 0 68.2606 15.0599 1028 121.608 486.043 450.837
400 0 70.2823 16.0353 1127 120.736 487.694 448.626
401 0 69.1392 14.478 1001 126.697 489.893 446.352
402 0 71.2607 13.6822 975 128.856 491.647 447.975
403 0 72.1112 11.8844 857 133.499 493.599 444.714
404 0 75.2263 14.463 1088 129.66 494.313 445.001
405 0 79.2844 13.6849 1085 130.326 493.673 447.085
406 0 80.2602 13.9297 1118 133.436 493.753 444.053
407 0 83.1891 13.4513 1119 133.974 494.301 447.873
408 0 83.1891 13.5234 1125 138.255 495.292 447.943
409 0 88.196 14.8079 1306 134.854 494.094 443.615
410 0 92.1831 13.9071 1282 137.235 493.805 442.384
411 0 91.1844 12.2609 1118 144.308 492.543 441.241
412 0 97.1936 12.1099 1177 142.903 491.564 441.678
413 0 100.192 14.1629 1419 140.479 490.589 436.653
414 0 105.543 15.6334 1650 136.787 489.226 436.693
415 0 109.255 16.0175 1750 136.062 488.988 435.072
416 0 110.137 13.4196 1478 141.541 487.683 433.576
417 1 56.0597 10.471 587 142.511 487.102 460.727
418 0 60.0431 11.3418 681 140.278 485.815 457.884
419 0 61.1148 12.861 786 138.609 484.562 454.221
420 0 66.1042 15.0671 996 130.595 482.971 449.902
421 0 67.3151 11.1268 749 129.601 479.649 452.311
422 0 67.2146 14.0892 947 126.496 478.856 452.762
423 0 72.1971 15.9979 1155 123.239 478.494 448.403
424 0 73.2095 12.3891 907 129.993 478.23 449.133
425 0 76.3473 14.3423 1095 123.295 477.312 450.475
426 0 76.3421 15.1162 1154 122.713 476.293 449.872
427 0 80.2833 11.6338 934 131.413 477.383 439.907
428 0 85.2372 12.037 1026 127.311 478.365 440.114
429 1 45.0864 12.8864 581 119.778 477.558 456.731
430 0 46.0798 11.4801 529 120.427 479.166 457.546
431 0 44.0261 8.31325 366 124.973 480.582 458.167
432 0 47.1547 9.56427 451 120.399 481.84 457.333
433 0 47.1547 9.47944 447 128.834 482.872 457.293
434 0 49.4867 13.2763 657 118.263 489.571 454.216
435 0 55.0509 15.8762 874 115.97 492.291 460.432
436 0 56.1206 15.93 894 118.992 493.275 454.098
437 0 57.1727 12.1911 697 126.283 494.924 457.217
438 0 58.1086 14.6106 849 121.689 494.662 457.299
439 0 56.1393 12.8965 724 128.075 495.325 454.572
440 0 59.1665 10.8676 643 132.411 496.23 455.911
441 0 61.1852 12.1925 746 133.912 495.091 456.302
442 0 61.2062 12.0903 740 137.007 495.123 456.207
443 0 66.3448 12.0733 801 131.318 493.909 457.14
444 0 64.223 11.9272 766 136.868 494.047 453.043
445 0 68.2282 13.7333 937 132.085 492.832 456.318
446 0 69.1967 11.4601 793 137.054 491.704 453.513
447 0 72.2202 12.6557 914 133.23 490.291 453.693
448 0 73.5105 12.5968 926 130.86 489.285 454.89
449 0 73.277 12.3504 905 135.632 488.186 449.804
450 0 76.3944 11.9904 916 134.723 486.674 448.944
451 0 79.609 15.4128 1227 129.216 485.224 445.95
452 0 80.7666 13.2852 1073 133.965 483.619 444.117
453 0 84.7597 15.2313 1291 132.105 482.043 445.655
454 0 87.8694 13.5884 1194 132.456 480.913 441.624
455 0 88.761 15.0517 1336 131.304 480.106 434.219
456 0 91.7023 13.871 1272 132.539 479.39 434.682
457 0 95.6953 13.5639 1298 133.193 479.226 429.305
458 0 99.9581 13.7358 1373 130.417 478.079 430.428
459 1 51.5443 10.0496 518 126.683 477.359 452.88
460 0 53.7953 13.793 742 122.1 478.185 448.904
461 0 55.7274 15.1631 845 117.288 478.317 449.524
462 0 56.5943 14.4184 816 119.835 479.88 446.167
463 0 58.3704 12.4207 725 127.727 482.354 450.374
464 0 59.2225 14.9774 887 123.193 483.247 447.106
465 0 61.3593 14.5536 893 122.692 484.774 447.415
466 0 64.3331 16.0104 1030 120.695 486.727 447.114
467 0 65.178 13.1179 855 127.937 488.67 444.833
468 0 63.0743 11.7163 739 132.785 491.547 442.221
469 0 64.0853 12.0152 770 134.235 493.377 441.026
470 0 68.0952 14.9937 1021 128.112 493.621 441.611
471 0 71.1947 14.355 1022 129.802 494.794 445.76
472 0 75.1045 16.1775 1215 126.142 494.932 444.256
473 0 76.1684 13.562 1033 134.021 495.16 444.283
474 0 78.1278 16.3578 1278 130.736 494.521 440.16
475 0 80.0876 14.3343 1148 137.506 494.407 442.646
476 0 82.1475 12.3802 1017 145.466 494.233 440.249
477 0 85.3104 14.5469 1241 139.443 492.937 439.702
478 0 88.4945 13.4698 1192 146.461 491.659 439.336
479 0 90.3485 13.8353 1250 147.316 490.44 437.66
480 1 45.1847 8.52058 385 155.151 489.068 458.348
481 0 50.3456 13.3875 674 143.65 488.423 457.782
482 0 50.3426 14.1232 711 142.824 486.963 457.07
483 0 53.2447 11.156 594 151.433 485.404 454.224
484 0 56.1657 15.3831 864 140.678 484.666 455.567
485 0 57.2406 13.5219 774 140.786 482.77 456.906
486 0 58.6416 13.25 777 149.197 483.013 456.071
487 0 61.5004 17.3007 1064 139.263 481.293 452.583
488 0 63.3895 14.1979 900 144.932 480.898 452.203
489 0 66.2853 15.7803 1046 139.577 480.529 451.135
490 0 68.3671 14.8609 1016 141.353 480.519 451.228
491 0 68.4612 12.1383 831 149.489 479.604 448.45
492 0 70.394 13.6091 958 145.947 479.582 446.966
493 0 74.3577 15.022 1117 141.05 479.518 445.476
494 0 75.4149 14.6258 1103 143.387 479.672 443.595
495 0 79.3063 15.7238 1247 138.756 479.916 444.146
496 0 80.4708 14.4773 1165 142.068 480.845 438.93
497 0 83.3673 14.4901 1208 144.562 481.634 436.966
498 1 47.2671 10.8109 511 139.521 484.937 459.957
499 0 49.0327 10.8703 533 138.458 486.69 458.595
500 0 48.0332 10.4719 503 143.356 489.453 455.62
501 0 51.0366 11.6975 597 141.214 489.655 457.518
502 0 52.0931 14.7812 770 135.035 491.794 455.444
503 0 53.0468 13.2336 702 143.026 489.95 455.172
504 0 55.0926 14.0854 776 140.657 491.622 457.7
505 0 57.0739 14.7003 839 139.769 492.677 456.088
506 0 57.0739 14.7703 843 143.81 494.641 456.063
507 0 59.1172 12.6528 748 145.943 491.147 459.69
508 0 62.1876 14.3437 892 143.956 491.485 458.389
509 0 64.079 16.6981 1070 141.111 490.907 456.13
510 0 65.0923 13.8419 901 149.049 490.794 456.402
511 0 69.1365 17.733 1226 141.365 489.945 454.834
512 0 69.2263 16.2222 1123 148.905 488.852 455.7
513 0 71.2397 18.15 1293 146.379 488.178 453.927
514 0 72.22 14.1927 1025 154.656 486.966 454.448
515 0 76.3402 15.2868 1167 153.494 485.797 450.164
516 0 79.3882 17.1058 1358 148.485 486.067 453.061
517 0 79.2462 14.436 1144 154.719 484.928 449.903
518 0 81.1684 15.2892 1241 153.872 483.272 446.221
519 0 84.3432 17.7726 1499 147.007 481.18 444.41
520 0 89.2351 16.182 1444 149.816 480.616 443.581
521 1 48.4145 10.2655 497 154.539 479.03 463.63
522 0 49.4103 14.2683 705 149.435 478.173 460.511
523 0 47.4156 12.9282 613 157.664 478.31 454.747
524 0 51.3757 16.8757 867 144.475 478 454.926
525 0 52.2656 13.5653 709 150.831 478.305 452.965
526 0 53.1041 14.3303 761 150.945 480.017 453.595
527 0 56.041 18.9861 1064 138.57 480.472 451.099
528 0 58.1921 15.4488 899 145.482 481.558 453.012
529 0 58.1352 16.1864 941 145.815 481.131 451.362
530 0 59.0983 15.3812 909 148.662 482.763 449.923
531 0 64.2871 15.6641 1007 141.515 484.562 452.328
532 0 66.086 20.322 1343 134.707 485.302 446.942
533 0 67.1778 16.7764 1127 143.821 487.846 445.826
534 0 68.1483 16.6108 1132 146.291 489.771 447.303
535 0 69.2637 14.1921 983 153.616 490.747 444.962
536 0 74.2018 15.35 1139 149.319 492.395 448.06
537 0 75.1977 20.0671 1509 139.904 493.451 446.023
538 0 78.434 16.6764 1308 147.426 493.331 447.892
539 0 80.3274 15.6111 1254 150.752 493.453 445.818
540 0 84.2907 20.2395 1706 140.085 493.47 443.072
541 0 87.2476 16.734 1460 148.469 493.675 442.789
542 0 91.4581 20.4465 1870 140.388 492.656 445.342
543 0 91.2707 18.2534 1666 147.122 492.374 444.828
544 0 93.2844 20.1427 1879 143.362 491.294 444.375
545 0 97.3998 17.8337 1737 148.91 490.843 442.319
546 0 101.321 15.9197 1613 152.592 489.36 442.328
547 1 57.1227 15.8256 904 148.848 488.418 461.294
548 0 57.182 14.8648 850 152.124 486.901 460.724
549 0 57.1079 14.4113 823 152.482 485.559 458.865
550 0 60.0826 15.2124 914 150.5 484.283 456.171
551 0 62.215 16.0733 1000 148.847 482.889 457.07
552 0 63.104 15.5616 982 150.009 481.425 456.442
553 0 66.2101 15.1639 1004 150.964 480.672 451.55
554 0 67.0883 14.1753 951 154.646 480.005 450.485
555 0 71.1769 19.2338 1369 142.573 479.233 450.416
556 0 74.1792 15.7861 1171 151.682 478.882 446.011
557 0 76.2452 14.6501 1117 153.417 478.694 443.887
558 0 78.1517 16.7751 1311 147.342 478.031 445.825
559 0 79.287 14.7565 1170 154.076 478.406 440.117
560 1 42.0647 10.5552 444 155.894 477.919 460.462
561 0 45.0434 11.278 508 157.041 478.469 458.486
562 0 46.0529 13.8753 639 153.526 479.936 456.978
563 0 47.0574 14.2592 671 151.999 480.432 455.542
564 0 50.0595 15.142 758 146.752 481.905 453.991
565 0 51.4123 14.7241 757 147.958 486.177 455.536
566 0 52.2004 15.3256 800 148.679 487.511 453.599
567 0 52.2141 13.866 724 153.471 489.501 453.818
568 0 56.103 15.3824 863 149.484 491.087 453.071
569 0 55.1101 16.3672 902 144.234 493.053 452.592
570 0 59.1582 12.7117 752 155.568 494.097 454.969
571 0 60.1147 15.9029 956 150.368 494.105 449.782
572 0 62.1721 14.862 924 151.617 494.475 452.804
573 0 64.1732 15.3958 988 150.097 494.401 454.397
574 0 67.2235 15.7386 1058 148.605 492.607 450.722
575 0 68.2228 15.0536 1027 152.78 492.112 447.957
576 0 72.3039 16.6243 1202 147.321 491.572 451.116
577 0 75.1771 17.3324 1303 147.963 491.44 449.453
578 0 75.1493 12.5217 941 159.133 490.367 452.521
579 0 77.3462 16.2387 1256 151.631 489.449 448.316
580 0 79.147 15.6039 1235 152.028 489.261 454.13
581 0 83.1273 15.6387 1300 153.975 487.95 450.212
582 0 84.125 14.6805 1235 158.334 486.358 444.913
583 0 89.4275 14.0561 1257 158.549 485.542 447.898
584 0 90.2486 16.1665 1459 155.363 484.621 441.238
585 0 93.2021 13.0362 1215 162.737 483.205 437.433
586 0 98.238 16.1852 1590 155.709 482.006 433.052
587 0 99.3327 15.433 1533 157.542 480.881 432.986
588 0 102.237 15.0337 1537 159.75 479.85 429.396
589 0 108.456 17.113 1856 152.002 479.413 431.427
590 0 113.318 16.5464 1875 153.439 478.843 425.959
591 0 115.404 15.1035 1743 158.204 478.536 423.473
592 0 117.305 13.5032 1584 162.799 478.29 421.694
593 0 124.444 18.1527 2259 152.301 477.875 419.742
594 0 127.382 15.3867 1960 159.002 478.167 420.147
595 0 133.538 16.4672 2199 156.702 477.836 410.573
596 0 142.481 20.0237 2853 147.293 478.689 414.678
597 1 68.2676 10.2684 701 155.496 480.997 452.067
598 0 69.4492 10.5401 732 159.347 481.745 445.311
599 0 74.3667 11.6315 865 154.894 483.731 447.402
600 0 77.3539 13.4706 1042 148.806 484.655 445.998
601 0 79.322 14.3844 1141 149.733 486.954 443.206
602 0 81.3019 15.7807 1283 148.076 487.568 441.982
603 0 82.2309 13.8634 1140 152.553 488.358 445.581
604 0 86.2786 14.7198 1270 146.634 489.759 446.577
605 0 90.3027 14.4957 1309 146.604 489.055 445.508
606 0 94.2666 14.9258 1407 147.844 489.145 443.383
607 0 94.2533 14.1109 1330 149.914 488.852 442.529
608 0 100.292 14.5775 1462 148.213 487.986 443.48
609 1 54.0926 8.98459 486 148.574 488.64 466.167
610 0 57.1334 14.6149 835 138.205 487.338 464.496
611 0 59.3013 12.5292 743 139.11 486.894 467.089
612 0 61.1022 15.3022 935 136.72 485.659 463.656
613 0 59.4244 11.0224 655 146.915 484.192 461.685
614 0 62.3375 13.5713 846 142.517 483.16 461.169
615 0 64.5231 15.5913 1006 138.658 481.295 458.962
616 0 68.3685 14.1293 966 141.108 479.549 456.33
617 0 70.4113 10.7369 756 146.07 478.386 456.799
618 0 69.2834 10.854 752 147.88 477.33 453.023
619 0 73.2415 11.7829 863 145.188 476.53 453.877
620 0 77.2875 13.6891 1058 140.01 476.034 456.415
621 0 77.2315 13.5437 1046 144.582 475.226 451.436
622 0 76.4251 15.9241 1217 143.579 474.385 445.277
623 0 79.4658 11.4641 911 153.144 474.363 446.18
624 0 78.4541 13.1032 1028 153.638 474.393 446.316
625 0 78.3671 13.5388 1061 155.693 474.663 443.886
626 0 76.3225 14.0588 1073 156.815 475.247 442.266
627 0 78.3465 17.6396 1382 150.368 475.914 443.31
628 0 76.1654 14.9412 1138 161.717 477.19 441.056
629 0 77.3544 16.6377 1287 154.353 479.203 440.312
630 0 78.4459 17.5025 1373 152.74 480.358 441.182
631 0 75.3415 14.7329 1110 163.71 481.442 441.468
632 0 78.3194 17.5052 1371 155.872 483.345 442.516
633 0 77.3711 17.3967 1346 156.221 483.915 443.718
634 0 81.5053 18.8209 1534 151.343 485.801 443.323
635 0 81.3527 15.0948 1228 163.275 487.508 443.656
636 0 81.3482 13.2271 1076 167.004 488.695 442.427
637 0 83.2406 13.7433 1144 161.816 489.289 441.061
638 0 86.2243 16.979 1464 152.071 489.224 441.726
639 0 89.2978 14.6812 1311 156.658 489.877 440.187
640 1 46.1656 11.5454 533 153.94 491.066 462.655
641 0 43.1806 6.41491 277 166.44 490.635 462.729
642 0 45.1705 11.5783 523 156.874 489.459 458.744
643 0 45.1705 11.5341 521 134.929 488.48 458.672
644 0 54.1473 16.3812 887 139.251 488.14 458.948
645 0 55.2001 12.4637 688 147.208 487.039 457.501
646 0 56.2662 15.1956 855 139.111 487.248 463.275
647 0 58.3309 13.0291 760 142.553 486.858 462.349
648 0 60.3901 12.5849 760 148.863 485.216 459.291
649 0 63.5218 12.6728 805 147.421 484.073 457.894
650 0 67.4609 14.5121 979 142.402 482.663 456.091
651 0 69.319 13.9356 966 142.145 481.238 455.667
652 0 71.353 13.0758 933 142.424 480.529 453.893
653 0 72.3511 13.0475 944 145.106 479.457 449.603
654 0 77.1611 12.9729 1001 141.837 478.548 451.652
655 0 76.2714 14.868 1134 141.91 477.832 445.052
656 0 79.1675 13.983 1107 141.952 476.734 445.824
657 1 41.1388 13.418 552 135.957 477.634 463.509
658 0 41.1914 9.49228 391 148.366 478.036 458.737
659 0 38.1041 10.0252 382 147.393 478.733 460.804
660 0 45.2203 11.1675 505 143.426 478.766 459.495
661 0 45.5026 12.9663 590 140.575 478.29 457.014
662 0 48.3929 13.969 676 140.75 481.635 456.766
663 0 49.3246 14.2931 705 145.231 483.247 455.343
664 0 48.1614 11.3576 547 146.815 482.453 455.47
665 0 50.2109 13.1047 658 143.663 485.096 454.274
666 0 53.2676 12.8596 685 142.42 487.117 456.613
667 0 54.164 13.5145 732 143.456 488.708 455.082
668 0 53.1729 10.8138 575 152.094 490.781 455.677
669 0 57.2595 13.2031 756 146.288 491.157 456.966
670 0 56.2428 14.224 800 145.664 492.39 456.735
671 0 58.1599 13.6176 792 149.249 493.087 455.577
672 0 60.1634 12.5325 754 152.381 492.684 457.31
673 0 61.2431 14.1893 869 151.558 492.402 456.334
674 0 65.1827 15.6023 1017 147.476 491.865 458.302
675 0 66.0569 13.337 881 154.505 491.561 457.491
676 0 71.1872 13.9632 994 151.448 491.012 455.92
677 0 68.1702 12.4248 847 148.538 490.94 453.802
678 1 32.1041 8.44129 271 161.351 489.347 471.295
679 0 37.222 9.18812 342 160.406 488.096 469.538
680 0 40.3271 10.4148 420 158.219 487.467 467.571
681 0 40.372 10.6509 430 156.74 485.735 466.488
682 0 41.2661 11.0745 457 158.138 484.65 463.521
683 0 43.3466 11.2812 489 157.521 482.871 461.417
684 0 49.3895 15.2867 755 145.547 481.697 460.2
685 0 50.2145 13.283 667 150.069 479.981 461.706
686 0 48.1411 13.1488 633 153.371 478.161 460.561
687 0 51.0911 15.0711 770 150.908 477.749 460.41
688 0 53.1668 13.7868 733 151.827 477.347 458.553
689 0 54.2333 13.9213 755 152.966 476.977 455.674
690 0 54.2162 13.8888 753 151.924 476.869 455.837
691 0 58.287 13.9654 814 150.846 476.972 454.068
692 0 60.3226 12.5658 758 154.456 477.722 449.811
693 0 62.1689 13.592 845 150.282 477.798 450.605
694 0 62.1562 13.6431 848 145.917 477.781 450.515
695 0 65.3256 15.6294 1021 145.541 480.355 447.712
696 0 67.2055 13.9274 936 147.547 482.376 445.375
697 0 67.203 13.5262 909 148.908 482.88 444.117
698 0 70.1349 13.6309 956 145.535 485.066 444.954
699 0 73.1997 13.1285 961 146.023 486.953 444.378
700 0 75.3573 13.0711 985 142.689 487.931 441.626
701 1 44.1846 10.5919 468 143.276 488.231 455.212
702 0 45.2595 10.495 475 145.373 489.825 452.876
703 0 47.129 12.8159 604 135.474 489.959 459.298
704 0 46.266 9.35893 433 143.141 490.356 457.49
705 0 48.0881 10.6679 513 143.351 490.901 457.865
706 0 52.1905 15.2326 795 134.239 490.274 459.425
707 0 51.0885 13.6038 695 139.826 489.927 457.839
708 0 53.0368 14.3297 760 138.236 492.197 460.186
709 0 53.2418 13.6922 729 140.214 491.527 457.283
710 0 54.1835 11.8302 641 142.153 490.744 459.952
711 0 58.1948 14.0391 817 137.317 489.081 457.424
712 0 61.271 15.4559 947 134.365 487.943 455.398
713 0 59.229 16.1576 957 133.45 486.881 457.142
714 0 61.2507 14.8243 908 135.85 484.893 454.6
715 0 66.3014 14.238 944 135.296 483.353 453.171
716 0 66.2231 13.0468 864 139.549 481.293 451.242
717 0 71.2397 15.4549 1101 134.103 479.864 448.705
718 0 71.2894 13.5925 969 138.437 479.361 446.682
719 0 75.405 16.1262 1216 133.456 478.711 445.133
720 0 77.1865 16.0909 1242 133.338 477.997 442.667
721 0 79.3559 15.1091 1199 137.054 477.44 442.58
722 0 80.3526 13.1919 1060 142.008 476.501 435.85
723 0 84.555 12.9147 1092 141.662 477.082 436.845
724 0 85.3361 12.3043 1050 146.088 477.266 428.457
725 0 92.4964 15.979 1478 137.216 477.349 425.559
726 0 92.4964 16.0006 1480 125.246 476.353 425.705
727 0 95.3595 13.2866 1267 143.717 479.098 420.259
728 0 98.6863 15.149 1495 140.553 480.033 416.989
729 0 101.569 13.2422 1345 142.835 481.807 421.64
730 0 105.453 13.2855 1401 145.307 483.211 417.174
731 0 109.596 15.1192 1657 142.018 485.56 412.897
732 0 112.675 14.9012 1679 142.917 488.164 416.286
733 0 117.377 16.5791 1946 140.471 488.814 414.101
734 1 67.2312 13.6692 919 135.334 490.073 450.58
735 0 69.2516 10.368 718 142.71 492.265 451.813
736 0 71.3103 12.663 903 140.628 493.558 449.289
737 0 74.2302 13.9701 1037 139.363 493.042 449.205
738 0 77.0982 14.1508 1091 138.715 492.751 449.844
739 0 77.1409 11.3299 874 144.017 492.293 451.754
740 0 80.2554 16.2481 1304 137.019 491.945 444.755
741 0 80.2985 11.6067 932 146.911 489.767 449.363
742 0 82.2733 12.4342 1023 146.165 488.824 447.204
743 0 90.4223 15.317 1385 139.882 487.555 446.329
744 0 93.4878 12.9108 1207 144.563 486.162 444.024
745 0 96.4994 16.9846 1639 138.051 484.544 438.191
746 0 99.4893 12.6848 1262 142.903 483.79 446.234
747 0 104.549 15.9638 1669 140.707 481.963 434.51
748 0 107.438 14.7062 1580 142.595 480.529 433.725
749 1 58.4437 11.4811 671 142.127 480.23 457.241
750 0 61.5242 9.93106 611 144.525 479.013 458.506
751 0 63.178 12.2986 777 140.905 478.476 456.178
752 0 65.4304 12.9603 848 139.902 477.884 454.711
753 0 70.3074 13.0996 921 139.933 477.162 452.261
754 0 72.3083 13.7744 996 136.639 476.944 451.7
755 0 71.061 15.93 1132 135.978 476.845 451.126
756 0 72.0931 10.8471 782 147.885 476.641 450.318
757 0 75.1444 12.9218 971 142.152 476.976 446.123
758 0 76.1957 14.8565 1132 141.178 477.376 446.876
759 0 81.1228 14.4719 1174 140.661 478.049 443.53
760 0 82.1638 14.5563 1196 140.38 477.682 444.331
761 0 87.2085 16.5122 1440 135.332 478.769 443.434
762 0 88.2392 14.3247 1264 141.214 480.68 439.63
763 0 89.3509 12.8258 1146 145.517 481.257 437.709
764 0 92.3727 14.9178 1378 142.008 483.787 433.947
765 0 95.2928 13.978 1332 141.533 485.101 438.332
766 0 96.4622 13.2072 1274 147.453 485.148 430.137
767 0 103.673 13.3401 1383 146.013 486.323 428.99
768 0 105.346 13.4319 1415 144.233 488.029 433.167
769 0 108.567 14.369 1560 142.876 488.276 430.463
770 0 114.668 12.5579 1440 146.626 488.823 426.575
771 0 119.525 15.2269 1820 139.337 488.473 426.159
772 0 121.483 14.4135 1751 142.238 488.358 422.059
773 0 130.599 17.2283 2250 133.357 488.589 429.795
774 0 132.616 16.1142 2137 138.94 488.119 423.317
775 0 138.499 14.2456 1973 140.693 486.413 422.678
776 0 143.419 15.6534 2245 139.164 484.794 415.359
777 0 149.474 15.8757 2373 138.523 483.754 418.85
778 0 155.332 16.0237 2489 137.218 481.906 418.185
779 0 161.563 12.6823 2049 144.073 480.835 413.946
780 0 167.709 17.0712 2863 137.608 479.107 404.703
781 0 170.597 14.1386 2412 144.199 477.754 398.091
782 0 175.865 14.4429 2540 142.857 476.1 397.851
783 0 180.596 13.6271 2461 145.07 475.191 397.411
784 0 186.729 14.979 2797 143.013 474.412 387.334
785 0 194.878 18.2114 3549 135.015 474.059 389.513
786 0 200.662 14.7711 2964 142.195 473.213 384.912
787 0 206.859 14.928 3088 141.873 473.076 377.91
788 0 212.753 14.4252 3069 144.045 472.912 366.311
789 0 220.786 14.8288 3274 141.308 472.484 374.15
790 0 228.566 15.2735 3491 139.934 472.754 368.142
791 0 237.771 14.6822 3491 141.225 472.887 357.501
792 0 237.772 14.2952 3399 144.374 472.907 356.343
793 1 286.583 6.57749 1885 149.848 474.649 372.127
794 0 282.852 5.2112 1474 153.254 475.466 374.817
795 1 192.684 12.0197 2316 142.933 477.191 369.821
796 0 199.57 16.4103 3275 133.059 478.606 380.478
797 0 206.769 16.2645 3363 135.537 481.186 368.686
798 0 213.804 14.5414 3109 139.276 481.895 362.719
799 0 220.796 14.2575 3148 139.784 483.717 361.232
800 0 230.699 14.274 3293 139.76 485.065 359.543
801 1 172.57 13.4728 2325 138.497 486.929 390.073
802 0 178.639 16.7657 2995 131.736 488.502 391.687
803 0 184.641 16.6431 3073 131.002 489.282 392.77
804 0 189.732 17.4509 3311 131.654 489.455 385.998
805 0 195.824 15.1616 2969 137.442 489.381 377.839
806 0 202.778 13.7244 2783 141.696 489.866 377.008
807 0 292.995 20.0345 5870 131.661 488.85 326.913
808 0 295.078 21.8078 6435 137.547 488.892 332.111
809 0 315.933 20.9 6603 130.773 488.471 316.484
810 1 233.636 17.9082 4184 135.424 488.28 369.8
811 0 242.552 18.5156 4491 133.168 487.467 366.093
812 0 249.832 17.2716 4315 136.839 487.21 357.088
813 0 257.693 18.9528 4884 134.074 486.053 352.37
814 0 267.1 15.1966 4059 141.652 484.511 348.384
815 1 58.309 10.633 620 127.119 485.235 452.784
816 0 61.5399 10.2373 630 125.816 484.89 453.835
817 0 59.292 8.12926 482 129.127 483.95 452.685
818 0 62.3368 9.56096 596 129.602 483.022 448.988
819 0 66.1351 13.2456 876 124.752 481.134 450.267
820 0 67.1476 13.9394 936 122.569 478.962 450.885
821 0 70.2074 14.6851 1031 118.354 479.336 445.749
822 0 68.3376 12.409 848 122.277 478.416 448.403
823 0 70.3322 12.4125 873 124.495 478.376 442.901
824 0 74.5976 12.8422 958 122.248 478.999 444.792
825 1 41.0695 8.64388 355 124.344 479.113 459.332
826 0 38.0245 9.80946 373 123.952 479.523 459.343
827 0 44.0082 8.65749 381 120.625 480.869 460.908
828 0 49.2369 9.09886 448 114.21 483.44 452.109
829 0 48.3666 13.5011 653 112.005 484.706 447.718
830 0 49.0761 12.2667 602 120.513 483.89 438.319
831 0 50.0686 10.6454 533 121.326 485.788 437.428
832 0 52.1614 15.8546 827 113.659 487.207 440.568
833 0 53.0935 12.3556 656 121.579 488.811 439.817
834 0 54.0333 15.4719 836 116.269 489.209 441.745
835 0 56.0754 15.1225 848 114.544 490.427 448.121
836 0 59.0978 14.6875 868 114.846 491.719 448.406
837 0 56.0922 13.5135 758 119 491.79 450.691
838 0 56.1123 9.71267 545 127.306 491.631 450.042
839 0 60.2262 12.9346 779 120.031 491.635 451.616
840 0 59.0804 13.8963 821 116.509 493.368 451.469
841 0 62.314 11.426 712 117.152 493.48 455.614
842 0 63.1029 11.0455 697 119.869 492.184 453.733
843 0 67.088 13.5345 908 114.637 490.887 455.66
844 0 67.3295 15.8623 1068 114.685 489.171 449.858
845 0 67.2308 14.3535 965 117.615 488.472 448.44
846 0 70.2161 15.0535 1057 114.498 487.155 454.588
847 0 71.2165 17.0326 1213 113.382 484.838 447.026
848 0 72.0954 9.76484 704 125.615 483.101 443.567
849 0 77.2115 13.4565 1039 119.384 481.837 443.876
850 0 79.3647 12.8269 1018 118.715 481.063 446.133
851 0 80.4377 13.3644 1075 119.038 479.348 443.037
852 0 84.1938 11.4973 968 123.49 478.554 438.79
853 0 83.2489 10.2824 856 126.453 477.936 436.165
854 1 46.3269 9.10919 422 120.732 477.576 457.026
855 0 50.2979 9.12562 459 122.538 479.307 459.963
856 0 48.1886 10.9154 526 118.736 479.175 460.224
857 0 51.2795 11.5056 590 120.312 479.156 457.205
858 0 53.1238 13.7791 732 115.883 479.335 457.158
859 0 54.339 11.5755 629 121.528 479.863 454.396
860 0 54.2301 12.0597 654 122.183 480.671 452.177
861 0 56.1341 13.7884 774 119.518 481.64 450.814
862 0 60.1889 16.6642 1003 113.624 483.436 452.011
863 0 60.2177 13.9328 839 119.834 484.846 449.416
864 0 62.347 16.2638 1014 116.467 486.02 450.426
865 0 64.214 12.8788 827 120.971 485.918 452.599
866 0 65.1352 12.1133 789 124.657 487.241 451.459
867 0 66.1928 13.2945 880 124.039 488.642 453.584
868 0 69.1658 14.2411 985 124.588 491.085 452.107
869 0 72.3176 15.0171 1086 124.378 491.477 448.805
870 0 72.194 14.8212 1070 124.7 491.064 450.095
871 0 74.1634 14.131 1048 125.858 490.708 450.753
872 0 77.2232 17.9739 1388 121.825 490.728 449.241
873 0 80.0852 16.2327 1300 124.279 490.778 449.779
874 0 80.1117 14.2301 1140 131.235 489.554 448.761
875 0 83.4875 16.9966 1419 126.415 489.473 451.209
876 0 85.2409 18.1251 1545 126.218 488.339 450.467
877 0 82.2229 14.035 1154 137.573 486.808 447.433
878 0 85.2692 15.8791 1354 135.373 485.522 443.452
879 0 90.3915 17.1476 1550 133.208 484.534 446.704
880 0 91.513 19.9207 1823 131.143 482.95 443.214
881 0 91.3316 17.9237 1637 136.309 481.787 439.001
882 0 95.356 14.8601 1417 141.938 479.997 439.749
883 0 98.3028 18.0463 1774 137.212 479.352 433.8
884 0 97.3357 16.9927 1654 140.424 478.411 431.181
885 0 102.271 17.8545 1826 138.66 477.13 433.745
886 0 104.347 17.4706 1823 140.292 476.174 430.143
887 0 104.297 16.8652 1759 144.041 475.848 426.499
888 0 104.275 16.1784 1687 147.105 475.56 426.718
889 0 110.394 15.9792 1764 146.762 475.193 426.063
890 0 111.424 18.3085 2040 143.931 475.023 422.81
891 1 58.2976 10.8409 632 153.794 475.858 453.057
892 0 63.21 12.7986 809 147.905 476.702 453.633
893 0 60.1323 11.9736 720 156.696 477.607 449.671
894 0 61.3331 13.6631 838 151.992 479.22 451.402
895 0 61.3492 11.8991 730 159.7 479.952 447.519
896 0 62.4548 14.4745 904 156.501 481.384 442.231
897 0 65.3667 13.5543 886 155.738 482.958 444.482
898 0 65.5084 11.1894 733 165.221 485.492 441.967
899 0 66.3031 14.0114 929 156.127 486.559 446.738
900 0 69.5806 14.8748 1035 155.913 487.64 445.909
901 0 68.2607 15.0453 1027 158.216 488.502 445.613
902 0 66.1425 13.864 917 161.913 490.036 450.313
