time division length width area intensity CMx CMy
0 0 56.2362 13.7812 775 123.032 885.422 447.266
1 0 56.2168 8.57396 482 126.002 886.581 452.635
2 0 55.2187 12.6769 700 120.236 887.669 450.84
3 0 66.5429 21.565 1435 111.372 886.862 449.175
4 0 66.1007 13.5248 894 118.172 887.045 450.178
5 0 69.6684 26.8845 1873 109.515 886.712 445.553
6 0 69.5103 18.1268 1260 112.675 886.957 453.42
7 0 71.3703 18.2429 1302 117.332 884.686 449.221
8 0 75.3328 16.9382 1276 119.498 883.085 449.737
9 0 78.0553 15.8734 1239 122.112 882.692 449.792
10 0 76.868 19.9173 1531 121.367 882.125 449.312
11 0 76.1698 18.3931 1401 132.05 880.766 443.423
12 1 38.0435 11.592 441 148.927 880.209 462.281
13 0 43.0982 11.7638 507 138.568 880.063 462.469
14 0 43.0559 12.0309 518 152.971 877.264 460.351
15 0 43.0559 12.0076 517 145.427 875.277 460.362
16 0 44.1514 11.8003 521 145.944 872.743 457.259
17 0 49.0568 12.6996 623 141.18 871.64 459.57
18 0 47.1722 12.3802 584 145.705 869.786 456.599
19 0 47.1107 12.0355 567 146.275 868.771 457.672
20 0 50.0666 13.1425 658 143.994 867.395 454.836
21 0 50.2124 12.8853 647 146.102 867.011 453.428
22 0 51.1125 13.4214 686 144.551 866.962 451.344
23 0 52.4811 13.9669 733 144.523 868.221 450.134
24 0 54.2225 15.5286 842 140.463 868.457 449.52
25 0 55.1205 12.8446 708 146.257 868.507 447.415
26 0 55.3254 14.5683 806 141.757 868.83 446.337
27 0 56.2492 13.2446 745 142.345 869.221 446.715
28 0 59.0463 12.8374 758 136.223 869.218 443.325
29 0 62.3437 14.805 923 125.796 872.022 447.172
30 0 60.3046 10.961 661 132.47 873.657 445.424
31 0 68.6575 17.0411 1170 119.365 876.169 447.689
32 0 71.9571 26.488 1906 110.164 877.32 445.868
33 0 71.4485 15.9835 1142 118.011 878.934 445.336
34 0 74.3284 20.7189 1540 110.377 880.261 451.718
35 0 72.2985 15.519 1122 120.398 881.964 438.97
36 0 84.0447 33.6488 2828 104.582 881.03 446.939
37 0 80.5504 15.1954 1224 119.199 882.623 443.979
38 0 80.5504 14.8851 1199 146.219 882.558 443.892
39 1 45.1094 13.035 588 130.041 884.02 462.075
40 0 41.1014 11.9947 493 138.688 883.296 461.114
41 0 47.038 12.0328 566 136.359 883.504 460.422
42 0 42.0361 10.6099 446 146.415 883.038 458.823
43 0 42.0361 10.5386 443 158.429 884.043 458.781
44 0 50.0187 14.9144 746 140.621 880.34 460.775
45 0 46.2148 12.6583 585 148.679 879.462 460.732
46 0 52.0949 16.4507 857 138.308 878.301 459.867
47 0 53.1841 16.4335 874 141.289 876.923 458.764
48 0 53.2432 14.1614 754 148.336 876.02 457.877
49 0 54.1235 12.2313 662 151.628 874.804 457.881
50 0 57.1948 14.9664 856 145.65 872.023 456.229
51 0 58.1447 19.7955 1151 136.689 871.124 454.246
52 0 61.326 15.2953 938 145.111 870.064 455.272
53 0 63.2396 14.0418 888 147.125 868.856 454.268
54 0 63.2486 15.6683 991 141.33 867.829 453.301
55 0 66.1672 15.4911 1025 146.841 868.046 447.639
56 0 70.0908 17.0921 1198 143.548 866.602 443.402
57 0 69.0904 13.8225 955 150.185 865.734 446.52
58 0 69.1017 13.7623 951 149.825 864.737 446.62
59 0 77.4421 14.2042 1100 145.502 866.722 441.58
60 0 79.2696 15.0878 1196 140.612 867 441.732
61 0 81.3059 13.5046 1098 145.82 867.169 439.045
62 0 85.2858 19.1826 1636 134.724 868.114 433.752
63 0 88.3579 15.0864 1333 147.355 869.684 431.817
64 1 47.0497 12.4124 584 138.87 872.435 457.933
65 0 48.0644 12.0255 578 137.564 875.651 459.592
66 0 47.1033 10.7848 508 144.819 876.642 455.146
67 0 53.5556 11.9502 640 134.52 878.762 458.009
68 0 51.2458 16.3721 839 133.561 876.743 453.567
69 0 54.1166 14.8568 804 127.409 881.4 456.19
70 0 53.1036 11.2233 596 133.582 881.849 457.471
71 0 58.1391 14.0525 817 129.879 882.663 455.246
72 0 59.1831 14.0074 829 134.823 882.671 454.817
73 0 61.3113 13.2765 814 132.389 882.09 454.273
74 0 62.1353 11.0243 685 140.54 879.142 454.241
75 0 64.4219 15.088 972 137.525 880.42 451.1
76 0 66.4759 15.735 1046 137.121 879.734 452.704
77 0 68.2162 13.8384 944 143.576 877.459 455.249
78 0 66.2182 11.1903 741 160.082 876.367 452.256
79 0 73.1537 15.1462 1108 145.212 876.402 453.716
80 0 75.2542 14.9626 1126 147.144 874.85 451.983
81 0 76.1155 13.7817 1049 152.374 873.361 447.856
82 0 80.1533 14.7592 1183 149.653 871.632 448.293
83 0 81.186 14.9164 1211 149.382 870.742 447.876
84 1 44.0541 12.3938 546 145.932 868.17 465.901
85 0 45.2211 11.0568 500 143.948 866.926 468.16
86 0 45.2876 9.9365 450 150.473 865.68 464.458
87 0 49.1868 11.5682 569 144.374 864.613 462.193
88 0 48.2126 11.3248 546 145.152 864.004 461.159
89 0 51.5535 13.3454 688 141.782 863.932 455.977
90 0 53.5947 11.531 618 142.851 863.341 456.939
91 0 54.5135 14.3084 780 136.759 863.732 453.512
92 0 55.4365 12.7353 706 140.408 863.401 451.715
93 0 58.4975 11.915 697 139.003 863.631 452.828
94 0 58.4975 12.0005 702 140.915 864.658 452.823
95 0 61.5718 14.341 883 132.757 864.858 447.409
96 0 63.2081 14.8399 938 133.988 866.293 444.129
97 0 63.2081 14.7449 932 139.01 867.317 444.065
98 0 68.3297 11.8982 813 138.647 869.636 446.962
99 0 69.4044 12.103 840 139.602 872.77 446.57
100 0 71.6284 12.2996 881 133.098 872.833 447.442
101 0 75.4551 13.0674 986 117.334 875.073 446.795
102 0 74.4165 11.3147 842 117.708 877.419 448.438
103 1 40.1734 13.2675 533 109.398 877.692 466.111
104 0 40.0663 10.283 412 115.136 877.296 462.558
105 0 41.0617 16.9988 698 106.219 879.685 466.351
106 0 44.0784 9.52848 420 124.407 878.212 466.35
107 0 43.29 11.5269 499 112.667 878.986 468.745
108 0 43.1041 10.4398 450 116.489 878.464 467.022
109 0 44.0398 10.7176 472 121.771 878.235 466.498
110 0 44.0851 11.6139 512 128.707 877.111 466.914
111 0 46.2071 12.682 586 137.771 876.578 466.932
112 0 46.0873 13.1924 608 137.419 875.227 469.49
113 0 47.1652 13.5905 641 141.212 874.431 467.033
114 0 50.1204 13.1683 660 143.082 872.714 465.392
115 0 48.0366 12.1782 585 147.662 871.626 462.937
116 0 51.2115 13.4735 690 144.665 870.768 463.981
117 0 51.1322 12.4383 636 147.366 869.079 464.766
118 0 54.0922 14.3644 777 142.435 867.691 463.441
119 0 52.186 11.459 598 151.142 866.199 462.86
120 0 52.1787 11.5948 605 135.722 865.217 462.863
121 0 57.2566 14.4612 828 141.918 863.249 459.466
122 0 57.1665 13.6793 782 144.431 862.41 456.642
123 0 58.2652 13.4386 783 140.365 861.799 453.121
124 1 140.997 15.4258 2175 139.686 862.435 420.354
125 1 105.527 13.0014 1372 141.099 862.136 433.749
126 0 115.857 12.6794 1469 139.828 862.28 435.799
127 0 113.392 10.8738 1233 143.456 862.36 431.247
128 0 117.542 14.2842 1679 134.953 862.154 422.771
129 1 39.0305 11.1195 434 132 861.783 461.772
130 0 36.1029 10.0269 362 134.24 863.033 460.036
131 0 39.2191 10.9131 428 127.29 864.935 460.084
132 0 45.3093 13.5954 616 121.036 867.477 461.002
133 0 42.0447 11.2261 472 129.108 869.422 460.303
134 0 42.0423 14.5092 610 125.564 871.23 459.018
135 0 43.0923 13.1578 567 131.785 872.235 458.302
136 0 47.1159 14.2839 673 127.544 874.169 460.364
137 0 45.1067 11.1957 505 137.838 873.776 460.287
138 0 47.1138 14.4756 682 128.694 875.707 462.226
139 0 48.0374 12.1364 583 134.25 875.28 460.78
140 0 50.0157 12.596 630 137.641 874.883 463.343
141 0 51.0258 12.6995 648 136.864 874.284 461.958
142 0 53.1042 13.8407 735 137.169 874.656 462.152
143 0 54.0705 14.4256 780 124.708 873.933 462.172
144 0 57.2208 15.2043 870 125.89 873.152 461.974
145 0 54.0683 12.9096 698 135.471 872.159 460.964
146 0 59.1128 15.4958 916 128.448 870.736 462.39
147 0 61.2115 15.5853 954 130.802 870.453 461.781
148 0 61.2199 15.1095 925 134.308 869.342 460.651
149 0 62.1612 13.9959 870 142.56 867.791 458.928
150 0 63.1618 12.7925 808 141.767 867.105 456.67
151 0 68.3094 14.7125 1005 136.387 865.729 456.893
152 0 70.2598 15.4711 1087 134.327 864.649 456.632
153 0 70.2268 13.7269 964 137.254 862.799 453.589
154 0 70.2268 13.67 960 147.543 860.776 453.684
155 0 75.4207 13.7761 1039 135.754 860.845 448.161
156 0 79.4553 15.7069 1248 132.502 860.861 447.794
157 0 81.3087 14.4142 1172 136.158 860.144 440.539
158 0 81.3014 14.3909 1170 153.885 860.162 440.403
159 1 45.1489 14.7955 668 126.175 859.362 460.677
160 0 46.4548 13.1311 610 128.239 861.823 460.477
161 0 47.4477 13.1935 626 124.403 861.966 458.348
162 0 48.1985 17.6354 850 115.36 863.768 459.034
163 0 54.9606 13.9555 767 117.746 865.076 459.661
164 0 51.3541 14.7603 758 121.765 865.817 455.036
165 0 55.3109 18.8028 1040 112.356 867.472 454.263
166 0 54.1077 13.7503 744 125.362 869.196 455.052
167 0 59.4224 17.1652 1020 113.898 870.914 457.66
168 0 57.2019 13.1114 750 130.419 872.145 457.235
169 0 57.2123 14.2802 817 128.985 873.536 456.055
170 0 59.1164 14.2431 842 127.309 873.89 452.398
171 0 61.2402 12.7367 780 127.399 874.895 456.928
172 0 61.0393 13.4667 822 127.376 875.437 454.816
173 0 63.2632 12.5507 794 131.277 876.332 452.945
174 0 65.176 12.1824 794 131.592 876.072 456.435
175 0 66.2042 12.0536 798 134.632 875.568 452.347
176 0 70.1017 15.8484 1111 127.152 874.665 451.525
177 0 73.2017 15.4505 1131 131.233 874.289 452.269
178 0 71.1336 12.6382 899 142.267 873.327 450.023
179 0 76.3955 14.6344 1118 134.396 872.852 455.301
180 0 78.3786 13.3837 1049 138.945 871.864 448.475
181 0 82.1355 13.2708 1090 135.351 870.969 447.75
182 0 86.1942 16.2308 1399 130.502 869.295 449.496
183 0 87.2455 14.8088 1292 134.555 867.968 444.673
184 0 91.2509 15.5176 1416 131.613 866.826 445.873
185 0 93.1187 15.142 1410 130.151 865.201 444.211
186 0 95.3918 16.7415 1597 127.982 863.52 437.374
187 0 99.4916 14.9058 1483 129.877 862.581 438.088
188 0 101.552 12.2893 1248 134.962 861.657 433.399
189 0 106.43 15.3153 1630 128.48 861.14 437.124
190 0 108.542 16.2978 1769 131.859 859.982 428.887
191 0 109.487 13.4353 1471 135.787 858.869 421.743
192 0 113.683 11.8751 1350 135.06 858.098 422.762
193 0 116.721 12.6713 1479 131.305 858.298 423.517
194 0 122.995 18.4885 2274 120.124 858.671 426.451
195 0 124.115 12.5529 1558 131.263 859.006 415.413
196 0 132.225 16.3812 2166 123.669 859.274 416.227
197 0 134.842 15.7221 2120 129.134 860.445 406.515
198 0 139.654 15.3808 2148 132.58 862.46 401.519
199 0 142.721 13.1305 1874 135.443 863.581 399.395
200 0 146.982 16.7163 2457 130.263 865.586 400.626
201 0 151.658 14.8492 2252 135.637 867.338 402.379
202 0 156.857 15.8552 2487 133.004 869.587 400.702
203 0 160.967 13.8911 2236 135.794 871.573 397.299
204 0 168.788 17.2287 2908 132.89 872.52 398.722
205 0 173.92 15.1162 2629 138.715 872.675 393.609
206 0 178.88 17.1736 3072 134.646 873.331 391.471
207 0 182.992 14.0771 2576 140.806 873.649 388.717
208 0 189.727 14.3417 2721 141.409 873.456 389.821
209 1 116.844 12.8034 1496 134.62 872.732 429.257
210 0 117.537 10.6604 1253 144.634 872.8 423.416
211 0 124.8 13.125 1638 137.843 871.842 429.123
212 0 124.857 13.1991 1648 142.947 870.848 429.166
213 0 131.693 15.1564 1996 140.639 869.243 420.545
214 0 136.558 13.0713 1785 142.395 868.204 420.755
215 0 140.508 12.5972 1770 144.697 866.998 419.915
216 0 144.521 12.1298 1753 147.555 865.796 417.271
217 1 77.4542 11.5939 898 139.776 863.349 450.685
218 0 77.2703 12.3463 954 137.205 862.873 450.825
219 0 81.3247 12.862 1046 143.673 861.166 440.796
220 0 81.1073 11.6143 942 141.555 859.916 445.756
221 0 89.1194 14.1159 1258 133.764 859.182 446.219
222 0 89.1194 13.9588 1244 144.506 858.168 446.071
223 0 92.2955 14.0635 1298 138.153 857.216 438.712
224 0 97.1455 16.7069 1623 129.09 857.258 439.319
225 0 97.1686 12.1644 1182 138.18 857.281 436.846
226 0 98.3813 11.5368 1135 141.347 857.978 430.017
227 0 104.308 12.8849 1344 136.324 856.249 428.239
228 0 109.337 12.841 1404 135.87 856.612 428.12
229 0 108.313 11.8083 1279 145.858 855.557 429.572
230 1 65.1795 11.3379 739 127.493 857.614 447.798
231 0 67.3093 10.6672 718 127.287 859.826 447.748
232 0 67.2351 12.8207 862 129.682 860.884 446.191
233 0 72.2296 18.9119 1366 117.736 866.589 444.645
234 0 74.1129 14.4239 1069 121.527 868.016 447.245
235 0 76.3354 12.8905 984 125.259 869.431 449.957
236 0 78.1978 13.6193 1065 123.037 871.99 445.808
237 0 78.1561 14.5862 1140 124.003 870.164 443.239
238 0 79.223 13.6955 1085 126.045 870.204 445.323
239 0 83.2959 14.0103 1167 125.198 870.91 444.601
240 0 86.3728 12.3071 1063 130.59 872.607 445.976
241 0 89.6106 14.7639 1323 126.206 870.901 447.882
242 1 46.0337 6.38663 294 141.35 870.214 466
243 0 51.1372 13.0824 669 125.617 869.885 465.74
244 0 50.1674 11.1427 559 131.648 869.243 464.506
245 0 51.1055 9.90109 506 133.559 869.802 466.227
246 0 53.1066 11.8253 628 133.151 869.664 463.828
247 0 55.517 11.528 640 127.384 869.045 457.114
248 0 52.1456 7.63247 398 134.93 866.751 457.45
249 0 55.1128 9.58034 528 130.538 865.428 455.722
250 0 58.1501 12.0722 702 124.558 864.299 455.752
251 0 60.3027 11.9066 718 124.532 863.493 455.669
252 0 59.3328 10.4158 618 130.348 865.204 461.458
253 0 64.2864 12.7088 817 124.76 863.55 457.35
254 0 63.2145 12.0067 759 126.509 862.021 456.445
255 0 63.2327 11.8926 752 125.779 860.013 456.395
256 0 73.6815 13.8569 1021 120.424 860.073 455.572
257 0 69.1699 14.1535 979 125.304 859.73 450.806
258 0 71.571 12.8823 922 124.74 859.103 448.569
259 0 73.2797 12.732 933 126.378 858.379 447.356
260 0 76.5283 12.675 970 126.67 857.965 445.363
261 0 78.2605 12.9567 1014 124.803 858.696 447.245
262 0 83.2753 13.0291 1085 124.275 858.345 441.675
263 0 84.5574 14.9484 1264 125.408 858.725 436.979
264 0 87.1602 13.9398 1215 125.869 860.504 440.242
265 0 96.5789 18.5341 1790 116.286 862.326 446.465
266 0 94.5448 14.5222 1373 127.308 863.672 435.736
267 0 99.3305 16.9032 1679 121.479 865.778 439.55
268 1 52.1127 10.0359 523 127.13 867.952 458.541
269 0 55.2217 16.5877 916 113.777 869.928 461.209
270 0 54.334 9.49682 516 132.593 869.3 454.674
271 0 57.3744 13.1592 755 127.174 871.486 456.22
272 0 61.4005 14.1041 866 121.741 871.012 454.82
273 0 63.5264 15.8517 1007 116.296 870.244 458.154
274 0 63.2382 14.1054 892 125.848 871.176 454.966
275 0 65.1141 13.8526 902 123.795 870.581 455.84
276 0 66.27 14.0637 932 126.495 870.8 454.324
277 0 68.2565 15.6615 1069 126.295 869.862 454.345
278 0 70.3363 14.6013 1027 130.084 868.356 455.972
279 0 71.064 15.1694 1078 131.224 867.549 453.104
280 0 73.148 13.6162 996 135.66 867.121 453.285
281 0 74.1327 15.6476 1160 132.466 868.009 453.098
282 0 76.0465 13.0315 991 139.337 866.436 454.799
283 0 79.0811 15.2628 1207 135.46 864.806 456.017
284 0 81.2138 14.3449 1165 136.488 862.638 449.144
285 0 80.1295 12.1678 975 149.881 862.043 447.569
286 0 83.1575 14.5146 1207 146.688 860.612 450.995
287 0 86.1006 16.2368 1398 143.433 859.614 446.544
288 1 44.0468 9.39909 414 148.167 858.401 469.019
289 0 47.0907 9.32243 439 151.31 857.096 463.681
290 0 50.0747 9.48583 475 146.846 856.68 465.587
291 0 54.065 13.1693 712 139.118 856.242 461.195
292 0 52.0434 14.1805 738 136.171 855.534 460.378
293 0 52.0434 14.046 731 135.146 854.51 460.29
294 0 56.0869 13.4434 754 137.507 856.207 456.08
295 0 59.1729 15.1759 898 135.715 856.066 454.935
296 0 56.1123 13.0631 733 137.939 855.997 454.105
297 0 60.1673 14.5262 874 135.043 857.732 452.287
298 0 60.2576 12.878 776 139.977 858.532 451.068
299 0 63.2663 14.352 908 136.377 859.765 449.949
300 0 64.2373 13.8549 890 140.353 862.319 450.194
301 0 66.1572 13.4075 887 142.221 863.939 449.148
302 0 69.1275 16.3321 1129 134.878 866.03 450.782
303 0 72.3906 16.6734 1207 138.222 867.309 447.869
304 0 73.2753 13.3606 979 146.145 868.952 447.63
305 0 73.2754 13.033 955 147.248 869.393 448.351
306 0 78.1923 14.0807 1101 146.743 870.025 449.025
307 0 80.2898 14.4103 1157 146.52 871.15 448.828
308 0 82.0858 13.7295 1127 149.035 870.728 449.863
309 0 85.3019 15.3338 1308 142.846 870.682 450.073
310 0 87.2381 13.3313 1163 149.798 870.072 445.584
311 0 89.236 14.456 1290 149.325 869.692 444.449
312 1 46.0598 8.81463 406 153.813 868.517 467.855
313 0 47.0646 9.30636 438 155.121 867.331 466.269
314 0 51.1287 8.48839 434 152.24 864.714 469.682
315 0 52.1798 13.7984 720 143.836 864.544 466.293
316 0 52.3072 8.73685 457 154.243 863.6 465.322
317 0 54.4085 11.1564 607 148.412 861.534 466.077
318 0 56.2598 13.2421 745 144.617 860.439 463.353
319 0 59.1192 12.5678 743 143.563 859.184 461.361
320 0 62.0786 12.9191 802 144.52 858.363 460.37
321 0 61.1159 14.2025 868 142.509 857.046 459.887
322 0 63.0452 13.1334 828 141.837 856.466 458.308
323 0 65.1934 12.7467 831 142.321 856.291 457.347
324 0 66.0902 11.7264 775 142.592 856.512 454.803
325 0 69.1387 13.6971 947 138.996 858.161 448.866
326 0 71.1023 10.3372 735 141.984 857.909 454.343
327 0 74.2237 13.4997 1002 138.491 857.315 450.205
328 0 74.2576 12.3085 914 142.078 858.075 448.175
329 0 78.1384 12.5419 980 139.066 858.528 447.516
330 0 82.3739 14.8712 1225 135.251 859.815 445.738
331 0 83.618 14.5184 1214 135.783 861.495 445.561
332 1 44.1629 10.9368 483 139.692 863.418 461.605
333 0 46.1979 6.71026 310 149.89 864.2 459.687
334 0 48.1775 12.5992 607 137.778 866.357 460.883
335 0 50.158 10.4071 522 139.648 868.209 463.414
336 0 49.1682 9.98614 491 143.664 869.422 461.945
337 0 52.2998 11.6062 607 134.573 867.181 459.28
338 0 54.1625 12.8318 695 133.455 868.748 459.691
339 0 53.1166 13.2162 702 138.272 873.573 460.973
340 0 57.101 13.0996 748 136.963 873.932 461.179
341 0 57.0996 15.3591 877 133.596 873.262 460.148
342 0 60.2463 14.8059 892 134.376 872.697 459.599
343 0 62.2509 14.9235 929 135.891 872.36 460.299
344 0 62.3392 13.7474 857 138.876 872.071 461.475
345 0 64.1328 15.9201 1021 136.121 870.806 459.68
346 0 67.1441 13.5083 907 142.622 870.046 458.988
347 0 70.2354 16.4162 1153 136.294 868.621 457.666
348 0 71.2829 12.8642 917 144.415 868.076 457.528
349 0 74.1554 15.7507 1168 135.519 867.45 456.783
350 0 76.2321 16.5809 1264 133.69 865.276 453.487
351 0 78.4087 13.6847 1073 140.299 864.054 452.355
352 0 81.5054 17.8148 1452 130.994 862.123 453.706
353 0 83.4587 12.4373 1038 140.04 861.25 451.899
354 0 86.2806 14.1283 1219 140.409 860.456 449.654
355 1 45.1144 10.5066 474 137.342 860.968 470.557
356 0 47.0981 11.8264 557 136.343 860.178 467.338
357 0 51.3351 13.8112 709 126.937 858.846 466.98
358 0 52.3833 14.1075 739 126.959 856.996 465.693
359 0 51.1594 12.2949 629 127.86 858.297 462.246
360 0 51.3776 13.9944 719 124.904 858.21 458.458
361 0 50.1576 11.8427 594 132.557 858.133 459.145
362 0 53.2062 11.9911 638 127.928 858.298 461.215
363 0 53.2005 12.857 684 130.096 860.345 457.978
364 0 57.2718 14.4399 827 124.058 861.377 459.505
365 0 56.0735 13.7676 772 127.448 863.203 456.82
366 0 58.1212 13.4891 784 126.985 864.198 458.536
367 0 58.0661 10.8841 632 133.239 867.546 460.214
368 0 62.2643 14.053 875 131.343 868.193 454.043
369 0 64.2068 13.254 851 131.769 869.848 455.927
370 0 64.2081 13.6743 878 133.051 870.993 452.924
371 0 66.263 12.1335 804 136.83 872.167 454.307
372 0 70.107 14.3923 1009 131.541 871.677 451.667
373 0 71.3009 12.1036 863 139.212 872.572 454.736
374 0 75.2207 12.9752 976 137.758 872.602 455.848
375 1 40.0899 11.2747 452 137.009 871.633 473.022
376 0 43.0392 11.78 507 137.88 871.028 473.375
377 0 40.0623 9.73484 390 143.636 870.462 473.59
378 0 42.0896 10.7152 451 141.488 870.084 473.958
379 0 45.0984 12.3508 557 140.052 868.959 472.232
380 0 46.1021 13.34 615 138.553 867.624 470.189
381 0 47.0554 13.1335 618 140.717 867.589 472.746
382 0 48.0431 12.1349 583 138.283 864.185 475.118
383 0 47.049 12.9014 607 139.203 860.763 471.282
384 0 52.1214 13.8906 724 134.366 859.739 469.401
385 0 53.0381 13.9899 742 134.092 859.296 469.997
386 0 53.1352 12.9481 688 135.065 858.134 467.5
387 0 55.1283 13.0786 721 136.52 857.404 465.838
388 0 56.1349 11.3833 639 135.006 856.399 468.311
389 0 56.1096 12.8142 719 132.526 856.179 463.992
390 0 60.3397 14.899 899 129.703 855.506 459.949
391 0 61.2117 15.2585 934 126.298 854.727 462.104
392 0 63.3339 13.4051 849 131.21 854.081 458.36
393 0 65.1633 15.5762 1015 125.978 854.187 458.457
394 0 65.1771 11.2463 733 132.653 854.716 456.33
395 0 71.2182 15.3753 1095 121.311 856.173 456.767
396 0 70.3664 11.9091 838 128.61 857.007 451.49
397 0 73.3484 12.2429 898 126.619 858.511 451.267
398 0 73.3484 12.3247 904 147.046 860.466 451.248
399 0 80.5248 11.2388 905 125.771 860.972 452.136
400 1 41.0217 9.82408 403 127.122 861.958 466.675
401 0 41.041 13.3769 549 123.377 864.412 468.091
402 0 45.0672 14.0235 632 121.672 866.236 464.722
403 0 46.1303 17.2555 796 116.783 869.193 467.014
404 0 44.0249 12.2431 539 134.742 868.128 463.82
405 0 48.027 12.0974 581 135.657 869.095 463.606
406 0 48.0367 12.6362 607 133.091 869.03 467.222
407 0 51.0979 14.0515 718 132.403 869.533 465.788
408 0 52.0184 18.2051 947 126.076 869.069 466.014
409 0 55.0761 15.5421 856 130.855 868.66 466.887
410 0 56.0896 15.9388 894 133.07 867.221 466.941
411 0 55.0699 14.2909 787 139.53 866.643 468.837
412 0 59.0898 13.8433 818 140.506 866.024 466.811
413 0 59.0965 14.7048 869 139.217 864.724 466.934
414 0 61.0842 15.1921 928 138.494 863.711 466.913
415 0 62.057 15.7919 980 137.747 863.43 467.342
416 0 64.271 15.7458 1012 138.869 862.288 463.335
417 0 65.1107 14.2219 926 143.348 860.72 464.357
418 0 66.0477 16.5335 1092 138.711 859.592 461.521
419 0 70.1342 14.7289 1033 140.254 858.186 461.814
420 0 73.2143 15.8029 1157 137.361 857.37 458.32
421 0 75.1291 19.1004 1435 129.292 856.812 455.636
422 0 74.0616 16.2297 1202 134.547 856.3 454.126
423 0 77.0606 13.9371 1074 142.995 855.65 449.965
424 0 81.065 15.3704 1246 136.334 855.648 451.992
425 0 83.0613 13.8813 1153 136.561 854.915 451.519
426 0 85.1525 15.2315 1297 134.487 854.615 445.934
427 0 88.2031 15.9631 1408 132.607 854.897 446.278
428 0 91.3249 17.4542 1594 129.937 855.165 442.2
429 0 93.1799 13.5866 1266 137.773 856.175 445.29
430 1 50.0475 10.8497 543 137.044 857.724 462.611
431 0 53.2399 12.6221 672 133.996 858.972 463.641
432 0 53.1313 13.2502 704 129.518 860.831 458.456
433 0 54.0727 16.1449 873 128.33 863.249 457.11
434 0 55.1715 12.5427 692 131.147 864.723 460.38
435 0 58.0806 16.3222 948 128.002 867.601 461.708
436 0 59.0726 12.984 767 131.223 868.598 459.435
437 0 63.1407 14.8874 940 129.097 869.402 459.171
438 0 64.1735 15.4269 990 130.088 869.605 457.731
439 0 67.2939 14.3104 963 137.381 870.274 458.49
440 0 69.1693 16.3367 1130 133.823 870.999 459.127
441 0 69.2036 16.213 1122 137.451 870.932 458.356
442 0 74.1791 15.4491 1146 138.408 870.155 456.99
443 0 73.0609 15.0286 1098 142.413 869.288 458.014
444 0 77.1718 17.001 1312 140.399 869.04 457.2
445 0 80.2712 17.1045 1373 141.729 868.377 452.333
446 0 84.0976 15.3869 1294 145.424 866.957 453.26
447 0 86.1127 17.1171 1474 140.507 866.416 453.546
448 1 47.033 11.5663 544 148.597 864.377 474.349
449 0 47.2275 12.7256 601 146.865 863.351 473.03
450 0 47.0941 12.061 568 152.231 861.71 469.674
451 0 50.0693 12.5426 628 149.282 860.22 468.919
452 0 53.1995 14.5866 776 144.982 860.508 468.51
453 0 55.6632 13.9769 778 145.12 861.231 466.491
454 0 55.115 15.1138 833 142.148 857.031 465.194
455 0 54.1573 14.384 779 144.565 855.677 464.678
456 0 56.0549 14.8069 830 143.92 855.654 460.21
457 0 58.1179 13.5242 786 147.955 855.443 459.78
458 0 61.0987 13.9446 852 145.216 854.555 458.17
459 0 64.0828 15.2927 980 139.269 854.747 455.487
460 0 66.0878 15.9334 1053 137.67 855.349 454.297
461 0 67.2714 14.9098 1003 138.569 855.322 450.513
462 0 67.1345 12.8101 860 144.987 855.937 449.587
463 0 73.2222 16.1017 1179 134.239 856.992 449.651
464 0 77.2289 18.4128 1422 130.389 858.582 447.289
465 0 78.3002 16.6028 1300 135.135 859.878 445.455
466 0 81.2476 16.0989 1308 132.26 863.495 445.509
467 0 81.2781 16.8926 1373 129.749 866.197 444.047
468 0 82.4943 16.3284 1347 130.304 868.033 445.808
469 0 89.3696 16.0905 1438 128.963 870.824 445.211
470 0 89.2765 14.7519 1317 134.671 871.265 442.995
471 1 51.2399 14.2467 730 125.367 873.258 468.389
472 0 47.0637 8.7116 410 140.795 874.015 465.415
473 0 49.2982 10.7712 531 143.979 873.625 465.51
474 0 54.131 11.7678 637 141.099 872.691 464.925
475 0 56.1834 12.8686 723 139.086 872.924 464.512
476 0 56.3386 14.1999 800 134.102 870.279 461.694
477 0 58.464 13.0679 764 135.012 870.787 460.847
478 0 57.2651 11.4031 653 140.792 869.959 460.046
479 0 61.3369 12.5373 769 136.536 869.086 460.826
480 0 61.3369 12.5699 771 143.156 868.096 460.741
481 0 66.3082 12.8189 850 138.751 866.976 458.305
482 0 68.2636 15.0446 1027 132.864 865.123 456.107
483 0 71.3302 11.8463 845 140.096 863.6 454.562
484 0 70.221 13.6284 957 137.093 861.153 455.173
485 0 71.4423 13.6054 972 137.771 859.965 449.619
486 0 73.4505 14.5404 1068 144.437 859.125 451.125
487 0 77.5298 15.5295 1204 130.928 858.595 448.18
488 0 83.5392 16.8424 1407 126.445 858.213 446.479
489 0 83.4795 13.9675 1166 132.356 857.702 442.711
490 1 42.1583 9.06108 382 128.314 856.827 463.961
491 0 48.1842 12.7843 616 129.464 858.284 466.17
492 0 45.1639 12.045 544 134.309 857.638 464.847
493 0 49.1726 12.7103 625 134.082 857.496 461.765
494 0 52.4714 13.6837 718 131.673 857.198 459.865
495 0 53.388 12.1376 648 135.457 856.948 455.58
496 0 52.5055 11.6559 612 134.735 859.036 452.209
497 0 55.4875 13.3003 738 130.263 860.098 454.801
498 0 58.5291 14.9669 876 124.693 861.369 454.158
499 0 55.326 13.068 723 125.349 862.924 449.649
500 0 58.1776 13.0635 760 122.397 864.591 452.07
501 0 59.1083 13.5683 802 123.352 866.209 452.706
502 0 62.1836 15.2934 951 121.013 868.025 449.024
503 0 65.1378 14.4309 940 120.817 870.102 449.664
504 0 66.154 11.1558 738 127.631 870.728 450.11
505 0 68.457 12.957 887 124.866 871.317 450.958
506 0 73.2052 15.2995 1120 123.234 871.251 450.104
507 0 74.1643 14.3735 1066 125.713 870.67 451.723
508 0 76.254 13.7042 1045 126.727 871.43 455.944
509 0 78.2566 13.0979 1025 132.735 871.49 452.434
510 0 81.1071 14.1541 1148 131.518 870.842 450.333
511 0 85.3119 15.0506 1284 130.548 869.846 448.262
512 0 86.2191 14.5559 1255 132.876 868.618 447.539
513 0 87.344 12.9144 1128 138.311 867.981 445.628
514 0 91.282 13.0475 1191 136.777 866.947 444.595
515 1 50.1054 9.8193 492 135.417 866.724 464.644
516 0 53.115 11.0327 586 129.019 865.164 467.538
517 0 54.0897 15.3819 832 124.1 863.754 465.07
518 0 54.0657 14.1864 767 136.879 861.274 464.722
519 0 58.1239 19.6133 1140 122.485 859.408 463.577
520 0 57.03 15.2376 869 134.554 858.199 462.206
521 0 57.03 15.3253 874 153.791 857.227 462.26
522 0 64.1013 14.6487 939 131.263 855.679 460.92
523 0 67.1062 16.7049 1121 130.681 855.3 455.966
524 0 67.1831 17.0876 1148 126.963 854.821 456.017
525 0 70.2603 19.2 1349 122.913 855.08 451.695
526 0 74.1594 15.2914 1134 128.546 854.691 453.838
527 0 73.0477 14.648 1070 133.559 855.431 450.893
528 0 77.2804 17.3653 1342 126.018 856.449 452.254
529 0 81.1998 18.6207 1512 124.856 857.316 444.752
530 0 80.0978 16.7171 1339 132.192 858.367 443.688
531 0 82.1104 14.1152 1159 134.136 859.808 443.519
532 0 87.1239 14.9557 1303 131.572 861.253 443.183
533 0 93.101 17.7334 1651 127.607 863.955 441.272
534 1 47.0872 13.5493 638 128.639 865.121 463.893
535 0 52.0691 15.1721 790 127.314 866.049 461.904
536 0 54.0655 14.279 772 127.679 867.558 464.211
537 0 55.1835 15.7475 869 127.803 869.47 461.756
538 0 55.3803 12.5315 694 133.369 872.925 458.571
539 0 56.2033 11.6897 657 138.874 874.178 463.402
540 0 59.0252 16.3151 963 129.434 873.702 463.045
541 0 59.1121 16.5618 979 131.892 872.046 461.618
542 0 64.0704 16.4819 1056 133.276 869.147 462.92
543 0 64.1319 15.1875 974 138.79 869.281 459.913
544 0 68.1162 19.8337 1351 126.966 868.574 461.893
545 0 67.0441 13.5433 908 143.478 866.956 457.274
546 0 71.132 15.8297 1126 136.867 866.51 460.33
547 0 71.1307 18.0794 1286 133.325 865.673 457.351
548 0 74.1969 15.7823 1171 137.974 864.6 456.454
549 0 76.1423 14.8275 1129 139.055 863.255 454.483
550 0 81.1225 19.1809 1556 128.907 862.186 453.436
551 0 80.1612 14.4958 1162 140.112 860.448 449.176
552 1 41.2689 12.2611 506 140.63 858.903 470.512
553 0 46.0425 13.9219 641 133.892 858.365 470.036
554 0 44.1932 10.7483 475 135.743 857.541 471.634
555 0 47.12 10.6324 501 135.904 856.699 470.05
556 0 48.0758 15.642 752 124.931 856.569 469.914
557 0 49.1658 13.0172 640 135.45 855.595 462
558 0 52.137 13.6563 712 133.948 855.451 461.496
559 0 53.1116 16.776 891 123.461 855.604 461.636
560 0 53.1462 13.9238 740 132.154 855.403 459.477
561 0 58.2473 17.0137 991 122.528 857.033 456.615
562 0 57.2929 13.4222 769 130.004 858.1 459.592
563 0 58.1017 14.3369 833 126.96 859.157 459.7
564 0 61.1526 14.472 885 128.407 859.868 453.76
565 0 62.2669 15.8029 984 129.254 862.508 456.085
566 0 64.2223 15.7422 1011 128.768 864.369 453.243
567 0 67.3097 17.4566 1175 126.603 866.511 452.553
568 0 70.7541 16.8047 1189 127.749 868.343 451.567
569 0 71.233 16.9725 1209 127.71 869.926 451.578
570 0 73.4778 16.2226 1192 131.603 871.161 453.155
571 0 73.3446 15.6794 1150 136.949 871.371 451.724
572 0 77.2899 13.0289 1007 141.646 871.867 452.489
573 0 78.2262 12.4766 976 144.966 872.316 449.136
574 0 80.2919 16.8137 1350 137.59 871.873 451.843
575 0 83.3159 15.7233 1310 141.363 871.027 451.981
576 0 84.6899 14.4291 1222 146.466 870.944 450.454
577 0 90.3667 16.3002 1473 141.684 870.311 451.563
578 0 88.4926 13.9447 1234 149.353 869.378 452.609
579 0 94.5096 14.5065 1371 146.769 868.406 452.732
580 0 98.5771 16.9715 1673 136.427 868.314 450.121
581 0 100.707 15.9075 1602 140.63 866.888 443.396
582 1 54.3955 10.2582 558 142.233 865.023 471.719
583 0 56.5568 11.9526 676 141.38 864.318 469.33
584 0 57.9505 12.6142 731 142.551 862.867 463.911
585 0 61.5955 12.5659 774 140.3 861.784 464.612
586 0 64.2812 13.6899 880 136.816 861.225 464.662
587 0 64.2302 12.642 812 138.096 860.575 466.028
588 0 66.142 13.4105 887 137.948 859.089 462.641
589 0 70.235 14.9356 1049 134.437 858.286 459.964
590 0 71.2711 13.61 970 138.914 856.973 457.908
591 0 74.596 13.2983 992 138.446 855.964 457.748
592 0 74.6086 12.0898 902 142.144 855.655 451.263
593 0 77.4311 13.3926 1037 139.52 855.334 450.053
594 1 42.6311 10.4618 446 131.72 854.085 470.74
595 0 45.6482 10.9314 499 132.76 854.621 468.737
596 0 43.4311 10.2001 443 132.21 855.095 472.603
597 0 46.4565 11.3224 526 135.599 856.633 469.471
598 0 47.2945 12.2847 581 134.719 858.16 466.625
599 0 50.4532 12.8436 648 135.011 859.34 466.386
600 0 51.1523 14.7794 756 136.204 861.069 468.063
601 0 52.1172 12.4335 648 140.634 863.219 468.639
602 0 52.146 11.3527 592 145.157 862.858 467.26
603 0 52.0809 11.9814 624 145.441 864.365 468.295
604 0 55.1278 13.4959 744 141.48 864.958 466.672
605 0 56.0897 11.5529 648 143.316 864.773 468.866
606 0 60.1147 12.0603 725 139.018 864.557 472.065
607 0 60.2375 14.9077 898 137.808 864.619 465.786
608 0 63.2317 13.0314 824 139.073 864.473 466.63
609 0 64.1013 14.3835 922 138.412 864.098 464.812
610 0 67.1362 13.7035 920 140.711 864.288 465.668
611 0 70.2768 14.3291 1007 137.979 863.406 467.731
612 0 70.1145 13.5207 948 140.212 862.348 468.861
613 0 75.2324 15.698 1181 135.475 861.14 466.392
614 0 73.1653 13.4353 983 144.318 859.965 460.174
615 0 76.1751 14.1254 1076 142.224 857.792 461.197
616 0 80.2629 16.4584 1321 136.919 857.179 460.55
617 0 83.3039 14.309 1192 140.287 856.056 458.246
618 0 85.2014 15.2462 1299 138.679 855.019 453.904
619 0 86.3845 14.586 1260 140.564 853.941 453.032
620 1 46.09 12.7359 587 136.01 852.405 473.772
621 0 48.0385 13.5516 651 133.336 852.336 471.788
622 0 46.1316 10.8169 499 140.002 853.447 469.739
623 0 51.2049 14.3736 736 133.432 854.01 461.731
624 0 55.6832 15.8935 885 126.44 853.755 461.853
625 0 58.1786 15.7446 916 124.966 855.15 465.151
626 0 57.0478 13.6727 780 132.971 855.036 461.703
627 0 59.1559 17.344 1026 125 855.702 460.658
628 0 64.9528 19.1678 1245 120.037 856.879 460.451
629 0 60.1364 13.353 803 133.681 857.59 458.014
630 0 64.2037 14.345 921 130.512 859.09 458.425
631 0 65.2623 14.955 976 128.264 860.449 455.894
632 0 65.1152 12.5163 815 133.663 861.277 456.477
633 1 37.5155 11.4353 429 125.734 864.275 473.953
634 0 34.0175 7.64311 260 135.096 865.069 473.831
635 0 37.049 12.362 458 132.631 867.26 473.801
636 0 35.1251 13.7793 484 128.388 868.287 475.998
637 0 40.1201 11.6151 466 134.828 869.075 474.197
638 0 40.1791 13.6638 549 134.752 869.395 472.251
639 0 41.4114 10.601 439 141.672 869.287 472.011
640 0 42.0262 12.516 526 133.648 870.565 474.234
641 0 41.0496 12.8869 529 134.11 869.019 475.722
642 0 45.0812 14.1522 638 134.002 867.799 473.705
643 0 43.227 11.6594 504 138.429 868.587 472.724
644 0 47.1856 12.6098 595 133.8 867.855 473.978
645 0 48.1191 12.4275 598 134.311 866.726 472.589
646 0 47.2258 11.985 566 136.376 866.233 471.86
647 0 51.1736 11.9593 612 134.708 865.639 473.544
648 0 53.2958 17.6562 941 124.582 863.984 468.294
649 0 55.1802 16.6002 916 125.925 862.957 468.886
650 0 56.0986 13.6367 765 133.089 861.212 467.285
651 0 59.1406 15.5392 919 130.271 860.001 464.496
652 0 58.2092 12.5238 729 136.199 859.462 463.731
653 0 62.167 15.1849 944 129.638 858.444 464.673
654 0 62.1912 12.0757 751 135.632 857.993 462.575
655 0 65.1477 15.58 1015 130.379 856.723 460.556
656 0 66.1181 14.8673 983 132.434 856.18 455.988
657 0 68.2027 13.0933 893 134.346 855.997 454.552
658 0 73.1292 18.6656 1365 121.936 856.11 455.778
659 0 71.1528 12.9861 924 134.694 856.713 452.064
660 0 71.1444 13.0439 928 143.953 856.712 451.912
661 1 38.1459 11.5609 441 138.224 858.043 466.995
662 0 40.0505 12.3594 495 130.147 859.859 471.018
663 0 44.059 18.7703 827 118.109 862.809 467.695
664 0 42.1649 13.1152 553 132.087 860.922 463.016
665 0 45.1138 14.4523 652 129.337 863.782 465.354
666 0 44.2428 13.9232 616 132.581 864.778 463.218
667 0 47.1306 13.3883 631 132.648 866.77 465.445
668 0 49.0776 14.854 729 134.536 869.239 463.399
669 0 49.0534 14.0867 691 134.304 869.593 463.001
670 0 51.0839 12.7633 652 139.771 870.698 463.363
671 0 51.1446 11.6728 597 141.799 870.151 466.07
672 0 52.2624 11.7867 616 142.586 869.794 465.045
673 0 53.2057 13.1189 698 142.645 869.236 465.471
674 0 56.2755 15.0332 846 139.203 869.197 467.046
675 0 59.1294 13.7833 815 141.925 869.001 466.893
676 0 60.1744 11.8655 714 145.196 867.849 467.522
677 0 60.0719 12.6349 759 144.597 867.123 466.731
678 0 64.1829 17.528 1125 134.592 865.728 465.169
679 0 67.1517 13.5216 908 143.262 864.804 461.9
680 0 68.236 15.124 1032 139.932 863.598 462.906
681 0 70.1641 12.9981 912 144.206 861.338 459.179
682 0 74.1539 13.418 995 141.043 860.552 459.729
683 0 74.1477 13.0955 971 142.089 859.174 458.982
684 0 77.1981 13.1091 1012 142.087 858.749 455.198
685 0 80.2503 15.1775 1218 133.848 857.311 455.396
686 0 84.4166 14.0375 1185 136.615 856.576 447.746
687 0 85.1772 14.417 1228 138.314 856.499 447.749
688 1 49.3923 14.5772 720 125.551 856.443 469.038
689 0 45.3736 14.039 637 131.155 856.626 464.071
690 0 45.3727 14.0393 637 137.485 856.626 464.071
691 0 50.2 13.5458 680 128.418 857.044 464.506
692 0 51.1592 13.4091 686 130.02 856.15 461.471
693 0 52.2547 14.391 752 128.195 856.773 461.158
694 0 53.1663 13.5612 721 130.021 857.897 459.219
695 0 57.504 16.7814 965 120.91 859.437 457.793
696 0 55.5759 12.6674 704 129.969 860.909 458.101
697 0 58.2685 18.3118 1067 119.869 861.523 455.16
698 0 60.2191 14.3476 864 131.088 863.343 454.929
699 0 64.2523 19.5791 1258 119.418 865.49 453.237
700 0 67.2108 14.5215 976 127.262 867.513 457.344
701 0 68.4088 15.3489 1050 127.739 868.41 456.136
702 0 70.6696 16.4286 1161 128.288 869.602 454.077
703 0 74.41 15.6699 1166 128.346 869.902 454.792
704 0 72.3197 15.1964 1099 133.089 869.858 455.676
705 0 75.4582 14.2861 1078 140.251 870.208 453.839
706 1 42.2651 12.1613 514 139.695 870.228 471.663
707 0 43.1389 13.4218 579 137.831 869.247 471.161
708 0 43.2021 10.8559 469 145.03 867.868 467.51
709 0 45.3744 12.7825 580 146.267 867.274 467.436
710 0 47.4738 13.3969 636 144.472 865.572 467.942
711 0 48.1345 13.7739 663 147.359 864.554 466.012
712 0 49.2057 13.6976 674 149.05 863.642 467.358
713 0 47.4543 12.0115 570 156.275 863.274 465.36
714 0 54.675 14.8148 810 143.256 861.722 465.073
715 0 54.2868 12.6366 686 149.064 860.397 463.348
716 0 54.3778 13.9947 761 145.344 859.112 463.704
717 0 58.5441 14.8435 869 141.608 858.285 463.733
718 0 57.3009 14.3977 825 141.576 857.12 462.982
719 0 59.1237 15.6282 924 138.933 857.978 459.762
720 0 64.2613 15.4059 990 134.848 857.164 459.534
721 0 63.0632 18.0295 1137 136.659 856.761 457.427
722 0 69.4825 15.673 1089 135.54 856.197 458.036
723 0 67.2856 14.5648 980 143.984 855.714 453.787
724 0 69.3031 18.4119 1276 132.161 856.48 455.032
725 0 73.2053 15.4087 1128 136.186 856.661 452.116
726 0 72.167 14.3833 1038 139.408 857.196 449.821
727 0 76.2395 15.5956 1189 132.784 858.04 447.553
728 0 77.1525 13.3113 1027 143.827 860.128 446.704
729 0 86.3274 16.31 1408 128.432 861.289 448.418
730 1 46.0937 11.4332 527 138.634 864.254 464.324
731 0 47.1422 14.4457 681 132.395 865.896 464.148
732 0 48.0588 13.858 666 138.841 868.491 464.797
733 0 52.0972 14.7609 769 135.244 869.385 465.1
734 0 52.0848 13.9388 726 144.759 869.777 462.358
735 0 57.147 17.4812 999 133.922 871.178 466.856
736 0 55.2116 16.8262 929 139.795 872.485 466.26
737 0 57.1257 15.1946 868 145.402 872.197 466.438
738 0 55.1493 14.4879 799 150.814 871.159 463.985
739 0 60.0831 15.5451 934 149.23 870.042 466.056
740 0 64.0542 16.1582 1035 148.164 870.197 465.644
741 0 65.2107 16.715 1090 146.116 869.518 467.502
742 0 68.0784 15.82 1077 149.912 868.205 466.338
743 0 70.0923 16.3356 1145 148.647 866.935 468.574
744 0 73.1444 18.566 1358 146.163 865.337 462.423
745 0 76.183 16.841 1283 150.568 863.522 463.758
746 0 77.2102 18.2489 1409 148.816 861.394 460.01
747 0 79.0635 14.2923 1130 158.244 860.67 462.411
748 0 82.1457 14.8273 1218 156.359 859.193 458.639
749 0 85.269 16.0902 1372 153.964 857.367 455.558
750 0 88.1621 18.2505 1609 149.634 856.009 452.272
751 0 90.1516 15.5738 1404 154.27 855.406 452.76
752 0 93.3638 17.2765 1613 148.989 854.788 450.057
753 0 94.2473 17.5177 1651 148.1 854.792 451.209
754 1 52.1631 11.4449 597 153.879 855.095 470.171
755 0 54.1018 13.9182 753 145.215 854.762 468.862
756 0 53.1882 12.672 674 144.896 854.441 467.791
757 0 56.2802 14.5167 817 142.437 855.393 466.316
758 0 58.2461 15.3315 893 138.317 854.553 463.281
759 0 64.2536 14.7385 947 134.485 855.756 466.146
760 0 61.1542 13.7031 838 140.061 857.043 462.26
761 0 65.2108 14.5681 950 142.759 858.318 462.226
762 0 67.3716 14.1751 955 137.709 859.038 462.068
763 0 68.2998 13.309 909 141.915 860.132 457.521
764 0 72.3905 16.6182 1203 136.624 862.344 457.635
765 0 74.2285 15.8295 1175 142.547 863.391 455.003
766 0 77.1674 16.6651 1286 142.245 864.035 453.11
767 0 82.2186 17.4048 1431 139.535 865.249 455.099
768 0 85.1635 14.4545 1231 147.935 866.327 453.617
769 0 85.2484 14.4167 1229 149.573 866.461 454.819
770 0 86.3176 14.6204 1262 151.203 866.808 451.21
771 0 91.1986 15.691 1431 147.072 866.312 452.185
772 0 91.1854 14.9256 1361 147.576 865.302 451.324
773 0 97.2166 14.9152 1450 150.249 866.408 451.24
774 0 101.24 14.9249 1511 149.6 865.879 452.049
775 1 53.2333 9.78711 521 145.833 864.752 480.109
776 0 51.2546 5.93118 304 159.977 863.701 476.842
777 0 57.3231 11.0601 634 153.285 861.647 472.517
778 0 62.4265 14.0325 876 145.185 861.174 473.135
779 0 63.3621 14.4408 915 141.319 859.155 472.666
780 0 64.3593 14.9318 961 143.97 857.353 470.607
781 0 67.33 13.9611 940 144.562 856.107 468.707
782 0 67.3051 13.0005 875 146.683 854.535 465.254
783 0 71.23 13.4775 960 145.156 853.844 464.346
784 0 74.2244 15.2645 1133 139.829 853.138 463.036
785 0 77.1484 12.9361 998 144.197 852.905 464.287
786 0 77.2977 14.0755 1088 141.22 851.671 457.592
787 0 80.201 13.9026 1115 138.771 850.492 457.115
788 0 84.2009 12.387 1043 142.778 850.438 452.282
789 0 86.3748 13.9856 1208 137.81 850.107 450.19
790 0 89.2109 13.8212 1233 138.789 850.034 447.277
791 0 94.2007 15.6793 1477 131.924 850.921 446.658
792 0 96.2769 16.0059 1541 131.032 851.607 443.753
793 1 53.0988 13.4655 715 127.171 852.043 465.07
794 0 56.0697 11.2004 628 135.301 852.979 463.062
795 0 57.2176 13.0904 749 132.366 855.445 460.355
796 0 56.0606 13.86 777 130.006 857.121 458.853
797 0 58.3845 13.2569 774 129.386 861.693 454.2
798 0 62.3045 13.434 837 130.67 862.595 458.889
799 0 61.2682 14.9343 915 135.327 864.114 455.357
800 0 68.4866 19.2008 1315 123.559 865.593 459.125
801 0 66.3607 14.0897 935 136.483 866.786 456.656
802 0 69.1682 14.3418 992 138.669 868.173 454.929
803 0 72.4415 14.9362 1082 137.773 868.821 455.799
804 0 73.4748 15.393 1131 144.683 868.076 452.695
805 0 74.3425 13.2764 987 155.657 868.146 454.678
806 0 77.7748 14.7734 1149 152.732 868.136 454.229
807 0 81.7384 14.5953 1193 154.104 867.743 453.549
808 0 83.5282 14.7615 1233 154.525 867.363 452.02
809 1 45.3695 8.50791 386 159.218 865.617 473.391
810 0 47.2513 10.0315 474 154.951 864.61 471.329
811 0 47.4274 12.1027 574 151.488 864.204 467.674
812 0 48.4676 9.24328 448 159.025 863.721 466.295
813 0 53.541 13.485 722 147.658 862.288 466.283
814 0 52.2516 11.8848 621 152.525 861.378 463.662
815 0 57.2281 14.8878 852 142.776 859.642 465.363
816 0 55.1475 11.9316 658 149.754 859.424 466.293
817 0 58.2582 14.3671 837 140.505 858.484 464.961
818 0 60.13 13.0883 787 144.103 857.484 463.281
819 0 62.1993 14.2285 885 143.537 857.527 459.019
820 0 65.1617 15.0088 978 138.665 856.92 458.325
821 0 66.1819 13.9313 922 141.477 856.02 455.732
822 0 67.1591 12.3438 829 145.042 856.438 454.352
823 0 72.2071 14.0429 1014 139.511 855.698 456.171
824 0 74.3711 16.8345 1252 133.678 856.268 453.252
825 0 76.2618 12.8374 979 143.072 857.34 451.224
826 0 78.2417 14.2763 1117 140.106 857.919 451.191
827 0 79.2388 15.5353 1231 140.565 859.533 448.815
828 0 81.2486 16.788 1364 135.39 860.939 445.504
829 0 84.2874 13.9048 1172 140.66 862.154 446.19
830 0 87.2727 13.3375 1164 145.261 864.318 444.721
831 0 91.1804 14.9703 1365 137.69 865.557 445.322
832 0 91.1501 17.345 1581 140.377 867.378 438.886
833 0 96.2295 13.8731 1335 144.013 871.115 443.843
834 1 52.0657 11.1782 582 140.665 872.254 464.749
835 0 52.1623 11.886 620 138.929 870.121 464.423
836 0 57.3963 14.095 809 139.342 871.802 461.719
837 0 57.2517 12.9603 742 143.17 871.039 460.581
838 0 58.1525 14.1009 820 139.415 870.7 465.702
839 0 59.0409 12.3643 730 148.782 870.29 462.725
840 0 62.2041 16.6388 1035 138.584 870.379 464.328
841 0 63.2461 14.3092 905 142.92 869.259 467.678
842 0 63.2291 13.0478 825 150.002 868.783 462.126
843 0 69.1223 16.8397 1164 138.857 866.983 463.71
844 0 69.0683 13.6676 944 147.261 866.54 462.93
845 0 74.1393 17.1029 1268 138.615 864.778 462.263
846 0 72.105 13.4942 973 149.672 863.701 459.31
847 0 79.1433 15.8699 1256 140.782 861.755 454.888
848 1 44.0351 10.8323 477 147.738 859.992 475.784
849 0 43.0228 10.5293 453 152.865 858.623 472.859
850 0 46.0883 10.2195 471 148.864 857.234 473.316
851 0 46.0599 13.9167 641 136.301 856.259 473.477
852 0 48.2924 13.6668 660 137.359 856.445 471.07
853 0 50.0896 14.0947 706 138.626 858.241 467.194
854 0 53.1234 16.9605 901 129.653 857.351 465.927
855 0 51.1342 15.0193 768 136.57 856.934 465.835
856 0 56.2669 14.6978 827 135.264 856.647 464.152
857 0 56.0876 15.244 855 136.987 857.095 464.222
858 0 56.2778 13.5755 764 142.412 856.767 461.058
859 0 60.131 14.8343 892 138.002 857.857 463.704
860 0 62.3486 14.5152 905 135.915 858.973 463.391
861 0 60.1923 13.839 833 137.885 859.221 460.245
862 0 63.1576 15.0259 949 139.584 861.212 458.713
863 0 66.0713 14.6357 967 138.063 862.394 459.187
864 0 67.2547 14.9432 1005 141.876 863.332 456.703
865 0 70.0817 13.998 981 144.402 864.993 456.356
866 0 70.2801 14.2146 999 146.184 865.932 456.796
867 0 72.0844 13.4981 973 149.063 868.024 457.676
868 0 73.0987 13.6117 995 147.753 868.119 455.113
869 0 78.1532 14.8171 1158 145.761 868.753 455.201
870 0 79.0942 13.1994 1044 151.362 868.719 455.189
871 1 44.162 10.5747 467 150.186 870.542 472.396
872 0 46.0794 8.70236 401 150.571 870.002 474.9
873 0 45.0513 9.45589 426 151.472 869.66 473.352
874 0 45.0124 8.73092 393 153.771 870.191 473.173
875 0 48.0412 9.49185 456 153.338 869.232 472.57
876 0 51.1404 13.1207 671 144.763 867.942 471.3
877 0 52.1697 12.191 636 149.201 865.917 470.019
878 0 53.1316 14.4735 769 143.32 864.941 468.612
879 0 56.1279 13.8434 777 145.867 864.12 467.514
880 0 57.0833 15.784 901 141.083 862.465 464.249
881 0 57.0956 13.6613 780 146.262 861.183 462.362
882 0 58.2188 13.226 770 145.266 859.706 462.29
883 0 59.0969 14.3493 848 141.991 858.527 463.393
884 0 62.16 14.7362 916 139.528 857.024 457.653
885 0 66.0869 16.0697 1062 132.855 856.894 456.326
886 0 67.2658 14.4501 972 136.695 856.187 456.046
887 0 69.1765 14.3546 993 138.86 855.934 452.736
888 0 70.2882 12.3776 870 141.293 854.864 450.747
889 0 75.1972 14.5883 1097 135.038 854.706 449.789
890 0 76.223 13.9459 1063 135.27 853.892 447.672
891 0 79.176 14.2594 1129 135.876 854.981 444.602
892 0 82.2145 14.3162 1177 134.953 855.567 444.029
893 1 45.0692 11.4934 518 134.915 857.768 461.737
894 0 45.1194 9.3973 424 139.724 858.861 461.889
895 0 45.3178 10.2167 463 137.095 858.916 461.505
896 0 47.8218 11.1037 531 133.652 859.665 457.567
897 0 48.3803 10.5828 512 136.104 861.184 459.314
898 0 47.3492 10.0952 478 143.862 864.176 460.274
899 0 51.1165 11.2097 573 138.41 867.611 458.522
900 0 52.0981 10.8641 566 140.18 869.237 458.663
901 0 55.0956 14.3024 788 137.126 869.744 459.103
902 0 58.0751 13.6375 792 139.586 870.144 460.816
903 0 57.0839 11.4743 655 145.591 870.954 460.368
904 0 60.0433 10.8921 654 146.76 871.63 460.659
905 0 64.2066 13.1918 847 140.884 871.616 457.865
906 0 66.0724 13.3641 883 140.068 870.638 458.529
907 0 67.0732 13.0454 875 142.32 868.976 460.241
908 0 68.0914 13.1882 898 140.272 866.867 459.272
909 0 74.0931 15.0081 1112 135.068 864.546 460.387
910 0 78.1067 16.2086 1266 132.953 863.269 458.318
911 0 81.0962 14.4026 1168 136.872 862.842 456.392
912 0 82.0895 14.0822 1156 138.807 861.58 455.388
913 0 85.1277 15.7293 1339 133.608 860.814 456.152
914 1 46.0389 13.0542 601 136.329 859.747 473.281
915 0 48.0273 13.1384 631 136.095 859.219 471.908
916 0 45.0898 10.6454 480 143.094 856.496 469.373
917 0 47.2304 11.9415 564 136.856 856.658 466.86
918 0 47.2118 13.3018 628 124.973 859.018 463.96
919 0 50.2975 11.8296 595 129.16 859.2 462.484
920 0 51.2902 13.6478 700 128.226 858.466 458.433
921 0 53.0777 11.7375 623 131.043 858.599 459.01
922 0 57.3019 13.647 782 124.584 858.39 459.035
923 0 56.1229 14.6464 822 125.361 857.561 457.028
924 0 57.2419 13.1023 750 127.599 858.256 455.393
925 0 58.0715 10.9865 638 129.171 858.406 452.867
926 0 61.0741 10.8065 660 126.855 859.494 452.533
927 0 64.1338 10.4625 671 126.846 860.969 450.747
928 0 68.1965 12.464 850 119.821 861.774 452.416
929 0 68.0947 12.3064 838 122.43 863.134 447.835
930 0 71.0793 12.4509 885 123.336 865.938 449.233
931 0 73.3249 13.3515 979 121.211 867.887 448.336
932 0 78.1049 13.4178 1048 121.081 869.01 450.473
933 0 80.3112 14.0703 1130 122.173 870.25 448.949
934 0 83.2908 14.8156 1234 121.41 871.172 448.848
935 0 85.2504 12.997 1108 125.088 871.86 445.895
936 1 43.0433 12.5455 540 124.55 871.546 465.044
937 0 45.0696 13.3127 600 128.8 873.248 464.167
938 0 46.0976 12.2132 563 131.446 873.115 465.329
939 0 49.117 14.1703 696 129.763 873.26 467.682
940 0 52.0277 12.8201 667 128.432 872.318 467.472
941 0 52.028 13.9733 727 128.411 871.67 466.868
942 0 54.0995 12.9761 702 130.187 870.607 466.162
943 0 54.04 11.695 632 134.479 869.747 465.157
944 0 55.0253 12.8123 705 133.108 868.384 463.488
945 0 59.0771 14.7604 872 127.085 868.36 465.093
946 0 60.0959 13.0458 784 130.644 866.318 465.066
947 0 64.1606 14.6352 939 127.324 864.822 462.224
948 0 67.2927 14.905 1003 126.227 863.953 461.037
949 0 67.0933 14.7258 988 127.895 862.076 458.356
950 0 69.1772 14.9616 1035 126.456 859.298 456.309
951 0 71.2561 15.0724 1074 126.169 858.296 453.895
952 0 74.2287 14.5631 1081 124.713 858.009 453.336
953 0 77.1397 14.5191 1120 122.258 857.925 449.8
954 0 79.1218 14.1428 1119 125.517 858.681 448.308
955 1 44.0735 11.2993 498 125.62 857.976 465.793
956 0 45.0861 10.2027 460 127.252 858.467 465.437
957 0 46.1068 10.6058 489 125.93 858.618 465.828
958 0 46.3289 9.88583 458 129.028 859.288 463.057
959 0 47.1006 10.2547 483 126.917 860.246 463.019
960 0 49.1691 13.5451 666 121.158 860.392 459.547
961 0 52.2191 12.7731 667 121.481 861.778 456.628
962 0 57.0622 17.1392 978 121.087 864.325 459.425
963 0 54.1657 14.6033 791 130.483 866.192 457.455
964 0 57.1691 13.6612 781 131.131 867.055 460.543
965 0 57.2576 15.1072 865 132.125 868.846 458.8
966 0 61.0474 15.9712 975 131.978 870.749 459.299
967 0 62.1021 17.0204 1057 123.951 871.903 459.027
968 0 64.2592 15.1885 976 134.986 872.61 455.777
969 0 64.0734 13.4221 860 140.801 872.95 458.006
970 0 70.2342 15.5053 1089 133.556 873.111 458.312
971 0 70.2066 15.5968 1095 134.798 873.281 458.551
972 0 75.0747 15.438 1159 133.424 873.028 459.799
973 0 77.1362 16.5292 1275 132.652 871.929 457.384
974 0 78.105 14.8902 1163 137.874 871.475 458.138
975 0 79.1487 14.9339 1182 139.795 870.802 453.089
976 0 85.0986 16.898 1438 134.135 869.41 453.705
977 0 89.2597 18.2613 1630 131.763 867.412 453.54
978 1 44.1002 10.9523 483 137.124 866.087 472.379
979 0 47.099 12.7603 601 132.288 865.394 473.674
980 0 44.0374 11.354 500 139.588 863.364 468.656
981 0 48.0336 12.5745 604 136.644 861.323 467.258
982 0 51.1279 12.7719 653 135.103 859.211 467.032
983 0 50.1452 11.6661 585 141.357 857.832 464.562
984 0 55.0713 13.7821 759 134.248 857 463.856
985 0 57.0824 15.8368 904 129.215 856.326 459.585
986 0 56.085 12.9446 726 133.222 855.113 459.928
987 0 57.1207 12.0447 688 133.417 853.897 455.833
988 0 60.0897 14.7113 884 128.521 854.3 455.771
989 0 63.1284 14.0191 885 126.167 854.18 456.625
990 0 63.0645 13.6686 862 127.648 854.412 454.352
991 0 65.1607 12.6764 826 128.87 855.183 453.068
992 0 70.2603 15.3856 1081 124.093 855.947 449.969
993 0 72.532 17.0545 1237 116.679 856.484 453.94
994 0 72.1744 12.9963 938 129.36 857.686 445.619
995 0 78.3174 25.3328 1984 105.116 859.502 451.233
996 0 80.1855 14.5039 1163 121.387 861.17 443.617
997 0 79.2839 13.2183 1048 123.222 863.5 445.368
998 0 79.3593 10.8242 859 126.703 865.733 442.228
999 1 45.1064 9.42218 425 124.028 868.228 461.656
1000 0 46.1785 12.3001 568 118.539 870.086 464.079
1001 0 46.1844 10.9777 507 123.592 870.635 461.274
1002 0 49.0544 12.1498 596 121.351 870.475 460.795
1003 0 50.1253 14.3042 717 119.225 869.397 461.647
1004 0 53.0806 16.9553 900 127.262 869.006 461.907
1005 0 55.2098 13.7838 761 132.138 868.9 464.535
1006 0 56.2942 15.419 868 129.478 868.888 462.474
1007 0 57.2709 13.5496 776 135.363 868.851 463.974
1008 0 58.2069 13.9502 812 135.95 868.757 463.032
1009 0 61.1741 15.5458 951 132.566 867.881 463.414
1010 0 63.3307 15.0322 952 133.207 866.603 464.547
1011 0 68.2653 17.6078 1202 127.512 865.062 461.609
1012 0 69.0915 15.0815 1042 134.958 863.877 460.285
1013 0 71.1338 15.6184 1111 135.032 863.225 459.175
1014 0 72.1991 14.2799 1031 138.01 860.89 458.56
1015 0 75.1094 15.8569 1191 133.186 859.329 460.348
1016 0 77.2046 20.4003 1575 124.413 858.24 455.514
1017 0 82.1674 16.8072 1381 130.293 857.223 452.059
1018 0 84.1295 15.8565 1334 131.627 856.277 453.33
1019 1 47.1375 12.0499 568 137.588 855.533 469.317
1020 0 44.1392 11.3504 501 141.076 854.892 467.667
1021 0 49.1669 11.2881 555 136.951 854.171 468.2
1022 0 51.0889 9.96303 509 140.658 854.079 465.927
1023 0 50.13 11.7295 588 138.983 854.158 463.248
1024 0 50.729 13.3651 678 137.606 855.248 461.296
1025 0 53.3768 13.3204 711 130.347 857.093 460.101
1026 0 55.5295 16.6758 926 129.137 856.773 458.023
1027 0 58.6053 16.2613 953 131.002 857.093 461.716
1028 0 59.3355 15.9938 949 132.466 857.623 460.319
1029 0 61.4461 16.8115 1033 129.313 859.023 459.859
1030 0 60.3174 13.8932 838 138.862 859.885 456.28
1031 0 64.4124 14.0656 906 136.914 862.173 456.028
1032 0 67.5294 16.3484 1104 134.814 863.935 455.378
1033 0 69.5859 15.4629 1076 137.312 865.993 455.362
1034 0 69.2496 17.2997 1198 134.884 867.154 455.434
1035 0 74.4183 14.8888 1108 139.553 868.157 458.606
1036 0 76.7666 15.5276 1192 138.231 868.203 456.536
1037 0 78.7064 20.6209 1623 129.652 868.052 454.03
1038 0 84.1169 18.1533 1527 134.437 868.278 458.648
1039 0 84.4831 16.7371 1414 139.741 868.105 454.45
1040 0 89.2367 17.8066 1589 137.833 867.565 452.344
1041 0 90.4528 14.8365 1342 141.448 867.731 453.28
1042 0 91.6082 14.9113 1366 143.029 866.547 453.364
1043 0 95.3454 17.5257 1671 137.899 864.878 450.706
1044 1 50.5908 13.8958 703 138.634 864.504 475.201
1045 0 51.4541 11.3305 583 143.046 862.36 473.348
1046 0 52.4394 13.6348 715 139.947 860.415 471.52
1047 0 56.3327 15.728 886 135.479 858.663 470.133
1048 0 57.5833 14.9523 861 136.279 856.971 468.314
1049 0 61.4291 15.5138 953 133.338 856.809 466.665
1050 0 60.4176 14.946 903 135.501 854.874 463.931
1051 0 66.1736 16.502 1092 131.19 855.766 465.087
1052 0 61.2118 12.1218 742 144.345 855.198 461.786
1053 0 68.3286 14.5913 997 134.4 855.494 461.939
1054 0 69.4412 17.8136 1237 130.175 855.367 458.302
1055 0 69.2969 14.777 1024 134.798 855.633 457.796
1056 0 71.5127 14.3751 1028 137.203 854.873 452.863
1057 0 75.8457 15.0437 1141 134.911 855.807 453.415
1058 0 78.7435 16.8649 1328 130.659 855.816 451.74
1059 0 79.608 17.1591 1366 130.725 856.557 449.605
1060 0 83.6557 17.4166 1457 132.252 857.281 447.303
1061 0 82.5193 16.7961 1386 136.762 857.917 442.938
1062 0 87.8087 15.2491 1339 138.569 858.857 443.005
1063 0 92.7832 16.8781 1566 133.99 860.583 440.93
1064 1 50.6985 11.9136 604 129.503 863.046 464.144
1065 0 49.6584 11.9013 591 133.316 864.161 461.342
1066 0 49.3762 11.2807 557 134.023 865.571 462.145
1067 0 52.2389 12.73 665 135.086 866.469 462.018
1068 0 54.2034 14.5563 789 130.911 867.926 460.939
1069 0 58.7726 16.6915 981 124.065 870.59 464.24
1070 0 60.2138 13.2528 798 136.739 870.519 462.266
1071 0 63.1936 15.7611 996 129.94 871.419 464.048
1072 0 63.4206 15.0424 954 134.431 871.356 462.54
1073 0 61.2302 13.0491 799 142.159 871.303 459.008
1074 0 67.5068 13.2727 896 139.969 871.227 460.662
1075 0 68.3236 13.8605 947 138.641 870.62 463.101
1076 0 70.2673 15.498 1089 136.969 870.369 461.867
1077 0 69.2745 15.0561 1043 143.145 869.236 456.234
1078 0 75.259 17.0212 1281 137.299 868.87 457.223
1079 0 77.3294 15.9836 1236 140.718 868.349 457.1
1080 0 78.2954 14.6241 1145 146.194 866.98 454.907
1081 0 81.321 16.0721 1307 143.254 865.328 452.288
1082 0 84.3905 15.3453 1295 142.708 864.726 455.989
1083 0 88.5527 14.8386 1314 146.487 863.126 449.54
1084 1 45.312 11.7629 533 148.76 862.66 469.146
1085 0 51.2898 13.3165 683 142.032 861.779 468.703
1086 0 50.3233 12.9165 650 144.306 860.217 463.069
1087 0 51.3069 14.384 738 138.612 859.058 463.413
1088 0 50.2003 11.4143 573 149.85 858.707 461.108
1089 0 56.592 15.4439 874 134.257 857.506 460.541
1090 0 56.204 14.0026 787 140.7 858.055 456.999
1091 0 59.2262 13.1867 781 141.355 858.458 453.891
1092 0 60.2323 16.6854 1005 133.606 859.599 455.011
1093 0 61.1653 12.9158 790 141.948 859.58 457.058
1094 0 63.269 13.4189 849 141.506 860.557 452.536
1095 0 67.1169 14.9888 1006 140.371 861.085 451.734
1096 0 69.2245 15.6736 1085 140.681 862.429 448.261
1097 0 72.3825 15.5977 1129 137.01 863.696 451.085
1098 0 74.1066 14.9649 1109 136.121 866.356 448.081
1099 0 76.1478 13.592 1035 136.851 867.765 448.219
1100 0 80.2506 17.6074 1413 133.558 869.082 444.335
1101 0 85.2607 18.9888 1619 130.833 871.662 447.5
1102 0 83.265 16.2733 1355 139.237 872.655 443.398
1103 0 86.2563 15.7322 1357 143.221 873.629 442.908
1104 0 91.1979 14.2876 1303 144.158 873.22 445.531
1105 0 93.3688 15.0693 1407 144.445 873.751 444.124
1106 0 93.354 13.0578 1219 151.842 874.12 441.583
1107 0 99.442 15.0037 1492 148.284 873.237 440.573
1108 1 59.516 14.1979 845 139.734 871.432 463.556
1109 0 57.636 11.5379 665 142.513 871.211 465.938
1110 0 59.5406 12.3109 733 139.723 869.887 461.715
1111 0 60.4252 13.4381 812 137.879 868.631 460.564
1112 0 62.5038 13.9992 875 139.081 867.59 458.371
1113 0 66.1412 15.0587 996 133.106 865.015 464.182
1114 0 67.1991 15.9824 1074 133.904 863.15 462.177
1115 0 69.3542 13.1066 909 139.462 861.449 459.752
1116 0 70.2568 13.1375 923 141.875 859.884 458.71
1117 0 74.3413 14.7159 1094 137.931 858.388 456.9
1118 0 76.2374 12.7496 972 140.891 857.023 457.525
1119 0 78.2599 13.2379 1036 141.411 856.657 452.244
1120 1 41.1927 8.93363 368 142.283 854.076 472.215
1121 0 43.1698 8.73296 377 142.135 853.639 470.411
1122 0 47.3043 12.8107 606 131.817 853.98 469.434
1123 0 47.1783 12.3786 584 134.111 853.704 469
1124 0 48.1631 14.7208 709 126.444 853.272 468.126
1125 0 48.3014 9.79268 473 133.74 854.808 459.156
1126 0 49.2203 10.9914 541 135.172 856.325 458.009
1127 0 53.1723 11.3781 605 126.583 855.079 461.311
1128 0 54.1184 15.0226 813 124.167 855.891 459.432
1129 0 57.1329 11.7445 671 127.665 857.322 457.559
1130 0 57.2638 11.4732 657 129.728 858.399 457.527
1131 0 58.1458 12.0559 701 136.665 861.449 459.147
1132 0 60.0647 14.2513 856 135.849 863.116 458.338
1133 0 61.0669 10.5949 647 144.745 864.13 457.179
1134 0 64.2062 14.2042 912 135.456 866.045 458.114
1135 0 64.273 13.1004 842 138.812 867.211 458.569
1136 0 67.4577 13.6826 923 139.606 868.483 455.489
1137 0 71.0879 13.8983 988 138.772 868.587 455.53
1138 0 71.2793 13.7768 982 139.549 868.747 457.276
1139 0 71.3725 10.5783 755 146.705 868.699 458.428
1140 0 76.1462 12.8043 975 142.948 867.608 456.791
1141 0 79.1624 13.8702 1098 141.234 867.852 457.842
1142 0 83.1276 13.6898 1138 142.444 866.858 456.342
1143 0 87.6282 15.6114 1368 138.887 865.341 454.024
1144 0 89.2184 14.3804 1283 142.315 864.146 451.724
1145 0 91.5326 17.8188 1631 134.599 862.245 451.701
1146 0 91.5389 14.005 1282 144.709 860.791 443.105
1147 1 53.5423 9.20767 493 143.424 858.284 468.621
1148 0 55.4788 11.4819 637 137.991 857.389 463.912
1149 0 55.4223 10.1945 565 140.335 856.427 463.011
1150 0 58.6535 11.6617 684 138.711 855.541 457.706
1151 0 61.4732 11.745 722 137.007 854.398 456.654
1152 0 64.1668 14.3844 923 125.248 854.103 462.867
1153 0 64.1725 12.3729 794 126.254 853.632 460.462
1154 0 64.4744 13.9745 901 125.33 853.566 457.317
1155 0 66.2657 12.4499 825 128.167 853.976 457.589
1156 0 68.151 13.7342 936 127.828 854.327 452.337
1157 0 71.2655 16.0947 1147 122.853 854.673 451.098
1158 0 74.5408 13.4557 1003 127.27 854.896 451.203
1159 0 77.4501 13.4667 1043 126.282 855.512 445.738
1160 0 80.1828 14.1926 1138 125.286 856.371 442.655
1161 0 85.3475 14.9272 1274 124.243 857.776 442.938
1162 0 83.7493 12.7165 1065 125.653 858.406 441.406
1163 1 49.7447 10.2322 509 119.564 860.102 460.578
1164 0 50.443 9.69411 489 120.2 861.728 462.319
1165 0 52.3132 10.3416 541 121.272 864.009 461.954
1166 0 51.1834 10.5503 540 126.111 866.65 458.961
1167 0 52.4646 11.4363 600 129.362 867.507 456.657
1168 0 54.5698 9.87726 539 133.948 868.978 458.141
1169 0 57.3613 13.0401 748 127.559 870.876 461.627
1170 0 58.4339 12.5954 736 133.056 870.765 457.837
1171 0 59.3144 12.2567 727 134.429 871.041 460.761
1172 0 61.2634 13.1237 804 133.435 871.009 461.748
1173 0 62.3576 13.4386 838 134.996 869.709 458.569
1174 0 66.3975 13.2083 877 135.579 869.481 458.644
1175 0 65.5148 12.7757 837 139.247 869.54 457.148
1176 0 68.5983 13.149 902 136.895 868.614 455.376
1177 0 68.3726 13.4264 918 137.868 868.097 455.536
1178 0 71.6151 11.4222 818 142.687 867.144 451.478
1179 0 73.2912 12.8665 943 139.102 866.54 452.087
1180 0 77.5407 13.3478 1035 138.466 864.881 448.894
1181 1 46.683 10.4106 486 137.068 863.634 463.512
1182 0 42.3076 9.33639 395 138.01 862.501 464.013
1183 0 48.6123 11.0054 535 134.802 860.342 462.639
1184 0 48.3973 12.48 604 131.993 859.301 461.051
1185 0 51.216 12.4961 640 129.223 857.795 459.422
1186 0 53.2533 10.4219 555 130.544 856.391 460.148
1187 0 56.2612 13.0285 733 125.205 855.891 458.799
1188 0 53.1297 11.2555 598 128.838 855.537 460.975
1189 0 55.1275 13.5685 748 124.172 855.541 463.495
1190 0 59.3595 14.7912 878 127.614 854.003 458.002
1191 0 60.3353 12.8117 773 130.442 853.994 456.057
1192 0 62.2889 12.137 756 132.694 854.414 455.907
1193 0 65.2295 14.8399 968 127.403 854.495 452.037
1194 0 65.4751 14.2955 936 126.621 855.668 451.733
1195 0 66.3851 11.5689 768 135.329 858.061 446.645
1196 0 69.4895 12.2321 850 136.852 859.469 449.325
1197 0 73.6533 14.1881 1045 127.56 861.369 447.54
1198 0 73.4047 17.8463 1310 119.938 863.489 448.087
1199 0 75.4156 15.0897 1138 126.721 864.892 447.082
1200 0 77.508 13.018 1009 131.419 866.326 448.286
1201 0 79.7249 14.1988 1132 130.141 868.652 444.072
1202 0 81.6766 13.6881 1118 131.682 869.339 445.175
1203 1 47.4964 9.05332 430 136.884 869.637 463.765
1204 0 49.3663 10.8576 536 133.246 870.043 464.453
1205 0 49.111 10.9141 536 132.608 870.606 465.485
1206 0 48.4977 9.01073 437 139.881 870.407 456.135
1207 0 51.5016 11.6695 601 135.446 869.531 458.559
1208 0 52.4585 10.0651 528 136.405 869.992 462.894
1209 0 51.1796 10.5511 540 131.219 871.244 462.806
1210 0 56.1709 12.9248 726 124.748 870.992 466.563
1211 0 57.0402 13.1486 750 126.988 869.548 464.813
1212 0 60.0807 15.8121 950 120.823 868.047 463.929
1213 0 60.1723 12.5639 756 128.127 866.454 464.272
1214 0 61.1277 14.3307 876 126.473 865.497 460.314
1215 0 63.3423 12.914 818 128.233 863.493 461.754
1216 0 65.2798 12.0864 789 129.677 862.878 464.665
1217 0 69.277 13.0635 905 128.744 861.655 459.635
1218 0 68.2781 11.8925 812 133.432 860.245 456.235
1219 0 72.4029 14.2121 1029 127.819 858.601 457.781
1220 1 37.2068 11.127 414 132.539 858.495 473.295
1221 0 41.3298 9.94439 411 133.939 857.825 471.496
1222 0 42.1565 11.1489 470 127.855 857.4 471.277
1223 0 44.2676 13.1699 583 124.552 857.129 469.094
1224 0 46.5189 14.0158 652 126.321 855.742 462.359
1225 0 49.7648 13.5437 674 126.947 855.915 460.688
1226 0 48.5026 13.69 664 122.997 856.502 463.807
1227 0 53.0728 15.0925 801 117.92 856.715 467.346
1228 0 52.3955 12.5583 658 131.783 856.772 461.957
1229 0 53.467 15.4301 825 128.645 858.136 458.931
1230 0 57.2792 15.8173 906 127.485 859.429 461.822
1231 0 51.188 11.5066 589 144.277 861.267 457.633
1232 0 59.1957 15.4741 916 131.52 862.791 458.824
1233 0 60.4645 15.2321 921 132.835 864.365 461.435
1234 0 60.3788 13.2497 800 141.828 866.285 460.639
1235 0 62.2135 15.6718 975 139.327 867.407 458.11
1236 0 64.1895 15.4543 992 140.483 868.862 458.598
1237 0 63.4896 13.2778 843 148.205 869.858 455.905
1238 0 66.4392 16.8876 1122 141.684 869.151 455.258
1239 0 68.6256 15.8396 1087 144.624 869.313 454.454
1240 0 72.2156 16.2846 1176 143.808 868.895 455.785
1241 0 76.3324 17.5417 1339 140.325 868.592 456.157
1242 0 76.4902 14.564 1114 148.811 867.873 455.817
1243 0 85.4016 17.5406 1498 140.33 866.908 456.505
1244 0 87.2916 16.9547 1480 142.311 866.155 453.748
1245 0 90.2996 18.7598 1694 138.952 864.233 452.884
1246 1 52.3131 16.7071 874 143.638 863.398 470.189
1247 0 53.6269 15.3281 822 148.863 862.052 469.145
1248 0 55.7062 17.7 986 143.205 860.949 468.712
1249 0 55.5598 14.5609 809 153.608 859.562 465.426
1250 0 58.5217 16.6434 974 146.859 858.389 465.642
1251 0 58.5325 14.6585 858 154.156 857.013 465.469
1252 0 60.4361 17.9032 1082 144.594 855.659 464.22
1253 0 63.5923 15.8981 1011 150.45 855.073 460.958
1254 0 64.8251 16.2437 1053 150.04 854.656 460.326
1255 0 67.5886 17.2366 1165 146.754 854.583 459.516
1256 0 69.1957 16.0993 1114 149.808 854.392 456.452
1257 0 68.6006 15.2185 1044 152.995 853.942 454.305
1258 0 73.6969 17.7077 1305 145.822 854.031 452.642
1259 0 75.7658 16.2474 1231 146.477 853.936 450.942
1260 0 75.8123 16.2111 1229 147.356 853.603 447.51
1261 0 79.628 16.8031 1338 149.848 853.658 446.984
1262 0 84.8213 17.8493 1514 144.784 854.639 445.952
1263 0 87.1053 16.3136 1421 151.039 856.001 443.451
1264 0 88.4379 17.4134 1540 151.942 857.551 444.227
1265 1 45.7201 13.014 595 163.413 858.926 461.018
1266 0 49.7713 13.9036 692 159.225 860.844 463.006
1267 0 49.5397 12.818 635 167.191 862.661 461.65
1268 0 50.6517 15.0044 760 161.85 864.283 461.847
1269 0 51.5666 14.0595 725 165.185 865.43 462.048
1270 0 53.4142 15.5764 832 162.075 865.435 461.874
1271 0 53.4851 14.3591 768 163.504 866.604 462.335
1272 0 54.7949 16.3519 896 161.362 866.657 460.312
1273 0 58.2856 17.5515 1023 156.062 865.763 461.631
1274 0 61.6477 17.5351 1081 154.549 865.746 463.209
1275 0 61.5698 15.2023 936 160.472 865.356 463.738
1276 0 66.8772 17.5695 1175 155.189 864.858 461.815
1277 0 65.2948 16.035 1047 161.621 864.127 461.83
1278 0 72.4541 18.177 1317 154.023 861.891 461.443
1279 0 72.7093 16.5591 1204 160.059 860.939 460.105
1280 0 74.6321 16.6282 1241 159.811 859.616 460.114
1281 0 79.477 17.7284 1409 156.779 857.872 456.872
1282 0 81.5663 15.8767 1295 160.987 856.849 454.599
1283 0 83.5612 15.0548 1258 162.238 855.61 453.812
1284 0 85.5535 16.3173 1396 159.726 854.746 452.722
1285 0 90.6838 18.978 1721 151.457 853.794 450.625
1286 0 91.6024 16.2441 1488 160.753 853.167 447.237
1287 0 96.7631 19.1602 1854 150.195 852.757 446.759
1288 0 99.8167 19.3455 1931 150.426 852.308 442.832
1289 0 102.457 19.6669 2015 149.637 851.886 438.812
1290 0 99.5795 14.9328 1487 162.537 852.035 436.53
1291 0 110.772 15.744 1744 155.29 851.7 436.896
1292 1 59.6738 10.725 640 165.242 851.606 456.392
1293 0 61.3538 10.4802 643 165.306 852.303 454.596
1294 0 64.3764 12.023 774 158.977 852.404 455.164
1295 0 64.4612 11.5884 747 160.79 853.158 455.246
1296 0 64.4612 11.5418 744 161.293 853.185 455.218
1297 0 70.2542 14.2625 1002 155.162 855.971 454.192
1298 0 70.2555 13.1235 922 160.1 856.944 452.03
1299 0 74.1921 16.5381 1227 149.418 858.132 452.176
1300 0 73.2793 14.82 1086 157.913 859.355 449.072
1301 0 76.2594 14.8834 1135 157.397 861.317 448.652
1302 0 78.2807 13.8221 1082 163.852 862.249 444.236
1303 0 80.2039 14.4507 1159 162.054 863.319 444.546
1304 0 83.3179 14.8708 1239 158.608 863.621 448.005
1305 0 85.381 13.4573 1149 161.809 863.674 447.384
1306 0 87.3885 12.7248 1112 165.131 863.903 444.817
1307 0 91.268 12.2387 1117 165.298 863.073 445.62
1308 0 94.1901 12.0395 1134 164.986 863.548 446.131
1309 0 98.3758 10.9072 1073 169.04 863.322 443.044
1310 0 101.188 13.6281 1379 162.506 862.861 442.54
1311 0 106.248 13.4874 1433 163.221 861.817 442.222
1312 0 108.147 13.1581 1423 162.389 861.233 442.469
1313 0 112.29 11.1854 1256 166.02 859.561 437.798
1314 1 65.1705 6.88962 449 161.503 858.269 457.581
1315 0 67.0315 9.45824 634 152.38 856.927 456.226
1316 0 70.084 12.6562 887 147.435 855.771 453.126
1317 0 73.211 12.1157 887 150.697 854.955 452.516
1318 0 76.0785 13.3941 1019 143.634 853.308 454.664
1319 0 77.1483 11.3807 878 147.195 852.595 452.461
1320 0 79.0836 12.0885 956 148.134 852.129 450.269
1321 0 79.0957 11.2901 893 149.168 851.951 444.271
1322 0 89.1295 13.0484 1163 137.857 851.448 449.052
1323 0 87.1449 10.8784 948 149.081 850.783 442.064
1324 0 91.2077 13.1897 1203 140.909 851.038 439.309
1325 0 92.2954 11.2357 1037 145.876 851.239 437.409
1326 0 100.175 14.7941 1482 139.964 851.557 435.213
1327 0 101.174 13.116 1327 142.002 852.298 434.425
1328 0 104.568 12.786 1337 141.602 853.082 432.488
1329 0 108.404 13.7172 1487 139.319 854.459 426.905
1330 0 110.56 10.3654 1146 149.005 855.519 423.089
1331 0 116.337 14.1314 1644 139.035 858.016 422.533
1332 1 67.2355 9.34031 628 133.982 859.788 453.178
1333 0 70.2857 5.19309 365 140.975 861.688 451.195
1334 0 72.2471 12.0558 871 136.645 863.241 443.04
1335 0 74.5407 10.6385 793 144.269 864.527 449.185
1336 0 72.1409 9.6062 693 144.423 865.102 441.56
1337 0 79.1126 13.0321 1031 135.348 865.841 449.164
1338 0 80.2013 11.6831 937 138.896 866.016 449.111
1339 0 79.4495 9.10013 723 147.598 865.74 445.012
1340 0 84.3379 12.7701 1077 141.786 865.659 446.058
1341 0 88.2488 13.7339 1212 141.398 865.563 444.191
1342 0 88.182 11.5216 1016 148.56 865.193 443.673
1343 0 93.4205 10.3939 971 151.58 865.374 441.294
1344 0 94.5168 11.1938 1058 150.147 864.209 440.331
1345 0 99.6433 12.324 1228 145.616 863.715 441.608
1346 0 102.56 10.8619 1114 150.915 861.741 438.917
1347 1 53.3147 4.67038 249 149.141 861.614 462.618
1348 0 58.3774 8.87329 518 140.919 859.705 462.963
1349 0 59.2735 7.13641 423 143.988 858.461 463.26
1350 0 65.2725 9.60589 627 138.223 856.611 461.959
1351 0 64.1206 10.605 680 139.279 855.369 458.724
1352 0 68.0424 10.3759 706 137.864 854.279 456.572
1353 0 69.1924 12.7471 882 131.557 853.359 455.91
1354 0 71.1966 13.6383 971 137.279 853.401 453.051
1355 0 72.2362 12.8329 927 138.072 852.291 450.119
1356 0 76.2489 13.7707 1050 137.523 852.278 448.692
1357 0 75.2031 11.8346 890 140.072 851.938 446.707
1358 0 80.3825 14.2817 1148 134.373 850.865 445.457
1359 0 78.2833 10.6919 837 143.875 852.131 442.742
1360 0 84.154 11.8711 999 141.943 852.649 440.504
1361 0 86.3943 14.1907 1226 136.898 853.86 438.551
1362 0 90.5092 13.7555 1245 133.327 853.594 440.453
1363 0 90.3273 12.5654 1135 139.764 855.268 434.614
1364 0 94.223 14.1367 1332 129.19 856.96 434.688
1365 0 96.2381 11.7209 1128 135.444 858.136 434.147
1366 1 55.0923 7.62358 420 135.819 859.838 457.971
1367 0 59.0416 11.06 653 132.712 861.89 455.07
1368 0 59.051 10.4317 616 135.933 862.123 455.12
1369 0 60.3248 10.1782 614 137.391 865.891 454.052
1370 0 64.3651 12.8486 827 133.765 866.758 451.015
1371 0 67.1513 9.91789 666 144.14 869.336 451.982
1372 0 65.0764 10.1266 659 141.789 867.86 458.211
1373 0 67.1755 11.1648 750 141.809 867.423 454.82
1374 0 70.0944 13.4533 943 136.284 868.706 453.898
1375 0 71.1333 11.6261 827 140.254 868.411 455.368
1376 0 73.0873 11.5615 845 141.089 868.014 453.225
1377 0 75.0542 12.431 933 139.861 867.713 450.031
1378 0 75.1405 10.6467 800 141.815 867.19 450.285
1379 0 80.0895 11.9616 958 138.35 865.242 453.062
1380 0 83.0999 12.6956 1055 137.889 863.661 448.322
1381 0 86.1383 12.8514 1107 137.613 862.802 444.777
1382 0 89.1135 13.0844 1166 137.126 861.057 446.299
1383 1 49.1119 9.97722 490 136.857 860.6 464.445
1384 0 51.0197 7.9577 406 137.283 859.589 467.68
1385 0 56.1001 11.5151 646 132.043 858.31 462.396
1386 0 56.1573 11.076 622 132.145 857.54 461.159
1387 0 56.0676 13.1448 737 124.185 857.038 455.741
1388 0 55.3675 10.6199 588 126.376 855.01 450.757
1389 0 58.3024 12.864 750 123.54 854.343 453.972
1390 0 56.0403 13.8293 775 124.383 855.978 449.097
1391 0 58.1236 13.4885 784 125.552 856.108 447.74
1392 0 66.1707 12.8607 851 121.153 856.081 448.247
1393 0 66.042 13.8094 912 120.118 856.326 447.738
1394 0 70.2034 14.8711 1044 115.561 857.641 449.421
1395 0 69.1078 13.3704 924 122.306 858.126 449.367
1396 0 72.1287 14.4048 1039 125.77 858.734 448.209
1397 0 72.0692 12.3215 888 132.14 860.459 447.98
1398 0 76.2013 11.4959 876 136.072 862.507 448.305
1399 0 78.2487 12.3836 969 137.594 863.87 444.085
1400 0 80.1638 15.3685 1232 132.205 865.703 448.593
1401 0 83.0895 14.021 1165 135.273 867.862 449.295
1402 0 86.107 13.669 1177 136.56 868.904 450.62
1403 1 45.1435 10.7435 485 135.759 869.957 469.21
1404 0 51.212 14.6255 749 122.718 869.562 474.98
1405 0 51.3687 10.9989 565 135.205 870.478 471.198
1406 0 52.3408 9.83935 515 134.969 868.858 472.247
1407 0 52.1428 11.7945 615 131.167 868.633 467.423
1408 0 53.2138 13.5867 723 128.242 868.647 467.422
1409 0 55.327 13.8992 769 127.791 867.978 466.853
1410 0 58.1006 14.5437 845 126.935 867.511 468.566
1411 0 58.1969 11.2893 657 133.702 865.798 469.658
1412 0 59.2419 14.5674 863 130.426 863.911 465.277
1413 0 63.0747 13.6188 859 130.373 862.143 468.795
1414 0 61.1677 13.8635 848 131.15 860.87 468.453
1415 0 66.3585 14.2408 945 130.243 859.535 462.106
1416 0 68.1529 14.7316 1004 129.17 858.688 461.396
1417 0 73.6577 14.1058 1039 128.252 857.194 463.368
1418 0 71.2003 12.2471 872 133.836 855.946 462.097
1419 0 74.2386 15.2616 1133 128.415 855.42 457.473
1420 0 74.1696 12.2692 910 135.051 854.633 455.451
1421 0 79.2217 14.4657 1146 129.75 854.502 453.497
1422 0 80.2158 12.1921 978 134.449 853.772 452.425
1423 0 85.2944 14.3972 1228 130.02 853.953 449.362
1424 0 86.2457 14.0993 1216 129.545 853.503 448.69
1425 0 86.0954 15.2737 1315 128.941 853.594 443.338
1426 0 87.1483 14.3663 1252 131.798 854.356 441.277
1427 0 90.2857 16.5696 1496 128.24 854.478 438.134
1428 0 94.3678 16.2661 1535 127.352 854.665 444.402
1429 0 95.1485 15.1132 1438 131.14 855.379 442.773
1430 0 96.3812 12.0563 1162 139.149 856.268 440.565
1431 0 102.173 15.2192 1555 130.489 857.361 450.105
1432 0 103.227 12.923 1334 143.309 857.743 443.276
1433 1 60.2161 13.3519 804 129.733 858.725 471.24
1434 0 60.1901 12.6599 762 138.928 859.539 464.165
1435 0 65.4264 12.5179 819 138.125 861.614 463.995
1436 0 65.4157 12.5964 824 140.948 863.09 458.255
1437 0 67.1927 10.8792 731 141.748 863.539 459.475
1438 0 67.2656 14.4502 972 139.381 863.647 455.923
1439 0 71.1966 13.1888 939 135.122 863.777 460.865
1440 0 73.2616 15.1785 1112 133.885 864.384 456.98
1441 0 77.1002 13.6576 1053 136.425 863.875 458.466
1442 0 79.19 14.6231 1158 133.81 863.247 460.128
1443 0 83.164 14.8863 1238 131.509 862.523 460.506
1444 0 86.2834 14.858 1282 134.546 861.761 453.155
1445 0 87.2751 12.6267 1102 140.861 860.172 451.51
1446 0 93.2008 14.8067 1380 133.696 858.039 454.812
1447 0 95.1519 15.3439 1460 134.904 857.528 448.744
1448 0 96.3213 13.1747 1269 138.491 855.764 449.488
1449 0 100.306 14.0669 1411 137.327 854.796 443.793
1450 0 105.242 17.341 1825 128.854 853.083 442.192
1451 0 103.205 13.8172 1426 137.764 852.333 444.278
1452 0 108.496 15.0513 1633 134.679 851.62 433.289
1453 0 112.44 15.4304 1735 132.419 850.697 434.191
1454 0 115.349 16.9658 1957 128.291 851.16 430.406
1455 0 118.399 15.6927 1858 130.657 851.578 436.739
1456 0 120.31 17.4383 2098 126.88 851.087 431.235
1457 0 122.203 14.6723 1793 134.792 850.021 424.86
1458 0 129.329 18.0701 2337 125.302 850.879 422.243
1459 0 132.264 14.4182 1907 133.543 849.866 419.03
1460 0 137.242 14.6238 2007 135.635 850.316 415.654
1461 0 140.237 13.0137 1825 140.475 852.014 411.483
1462 0 146.419 14.561 2132 137.461 853.297 416.49
1463 0 152.404 15.8986 2423 133.442 855.053 406.016
1464 1 90.2322 10.4951 947 135.846 856.888 437.563
1465 0 94.3063 12.7245 1200 136.978 858.272 431.46
1466 0 97.0889 12.0508 1170 141.767 859.853 438.676
1467 0 101.34 12.611 1278 139.747 863.053 433.667
1468 0 106.132 13.5209 1435 136.551 865.569 434.004
1469 0 107.093 14.2119 1522 136.883 866.196 430.123
1470 0 113.361 19.6365 2226 116.601 866.82 424.667
1471 0 114.274 19.7596 2258 112.672 867.991 425.855
1472 0 116.39 18.5153 2155 112.105 867.78 424.712
1473 0 113.314 15.7703 1787 118.298 868.201 428.4
1474 0 113.28 19.2356 2179 111.619 867.732 429.837
1475 0 114.56 16.14 1849 116.615 867.687 431.276
1476 0 112.53 16.8755 1899 115.136 868.07 429.433
1477 0 112.231 15.7977 1773 117.396 866.999 430.137
1478 0 113.291 19.2071 2176 112.892 866.185 433.765
1479 0 113.224 17.0371 1929 114.402 865.301 427.744
