time division length width area intensity CMx CMy
0 0 92.8124 13.0263 1209 125.138 579.27 433.866
1 0 94.7798 15.995 1516 124.53 579.544 426.951
2 0 100.011 15.7483 1575 121.54 581.164 428.817
3 0 108.7 23.5878 2564 114.711 581.145 429.089
4 1 62.4775 18.7107 1169 112.702 581.916 448.79
5 0 66.8778 19.3338 1293 111.657 583.265 446.963
6 0 65.2117 19.2757 1257 112.487 581.053 452.346
7 0 65.807 20.5753 1354 114.265 578.245 450.807
8 0 67.7097 17.767 1203 115.005 577.006 456.825
9 0 63.2837 13.9846 885 128.875 575.903 445.76
10 0 65.3373 11.8156 772 133.942 575.194 448.705
11 0 69.1441 17.1815 1188 132.392 573.865 448.074
12 0 69.254 14.8728 1030 150.118 572.645 444.125
13 0 73.221 12.0048 879 144.287 572.158 449.597
14 0 73.1637 12.8752 942 160.772 571.007 442.77
15 0 73.1898 12.7477 933 158.772 569.996 442.816
16 0 78.6836 13.6115 1071 154.739 569.07 439.511
17 0 81.4024 14.9627 1218 154.787 568.004 436.356
18 0 86.027 15.2045 1308 154.236 566.719 435.363
19 0 85.9002 14.284 1227 159.201 565.662 430.836
20 0 90.5998 15.3863 1394 151.296 564.957 430.9
21 0 97.2743 15.7287 1530 147.191 564.908 430.992
22 1 50.5636 10.0863 510 144.443 564.551 451.278
23 0 49.7128 9.21292 458 149.258 564.448 447.288
24 0 54.5072 12.6772 691 138.815 564.2 446.02
25 0 55.3366 13.192 730 136.199 564.525 445.242
26 0 54.4015 12.2607 667 139.271 562.432 443.759
27 0 57.3946 11.238 645 138.341 562.828 445.304
28 0 60.2488 12.4152 748 130.035 563.215 444.019
29 0 63.3848 16.7075 1059 120.4 565.944 440.947
30 0 61.5082 10.714 659 128.364 567.111 441.745
31 0 69.5322 15.633 1087 118.533 570.474 439.336
32 0 64.2973 10.0937 649 123.459 571.501 438.727
33 0 72.4899 15.5884 1130 117.292 572.938 436.121
34 0 69.6328 8.3294 580 122.95 574.591 443.779
35 1 213.918 22.5133 4816 119.842 576.272 391
36 1 78.4276 19.6869 1544 113.554 576.9 439.214
37 0 76.4928 12.2757 939 119.928 577.095 441.416
38 0 77.4923 15.0466 1166 136.656 577.368 439.05
39 0 83.4137 12.3121 1027 134.385 577.45 443.168
40 0 86.2731 12.5995 1087 139.341 577.122 438.485
41 1 43.0808 12.7899 551 129.759 576.109 458.461
42 0 48.023 10.6616 512 134.721 577.766 460.992
43 0 48.023 10.7032 514 132.556 576.811 460.932
44 0 49.5692 11.0553 548 143.268 575.911 459.341
45 0 51.3338 15.2726 784 134.694 574.04 461.411
46 0 51.0342 11.7372 599 144.157 573.169 460.796
47 0 53.1868 12.7851 680 145.788 570.716 460.64
48 0 55.2951 13.7625 761 146.796 569.991 457.481
49 0 52.1328 10.7226 559 154.263 568.818 458.78
50 0 56.1177 14.826 832 144.117 565.155 456.18
51 0 59.0845 14.877 879 146.661 564.163 453.838
52 0 59.2672 13.5319 802 148.656 563.072 455.473
53 0 60.1658 12.1664 732 152.657 562.357 450.402
54 0 64.0857 16.1346 1034 141.589 561.471 450.325
55 0 67.0873 16.2028 1087 139.546 561.786 449.511
56 0 67.2823 13.7629 926 146.511 560.68 447.017
57 0 67.2823 13.7629 926 141.549 558.694 447.035
58 0 67.2823 13.7035 922 141.2 556.693 447.076
59 0 75.3476 15.5413 1171 135.693 560.985 440.599
60 0 77.2784 13.5355 1046 138.48 561.301 442.793
61 0 81.3868 16.8332 1370 131.96 561.461 441.32
62 1 41.0276 10.1883 418 139.38 561.538 456.816
63 0 46.0962 13.5152 623 132.218 562.928 456.49
64 0 43.2411 13.6213 589 133.859 565.007 455.764
65 0 46.1652 13.0618 603 136.995 568.116 454.318
66 0 45.1244 12.1664 549 135.073 568.998 457.035
67 0 49.8087 10.4199 519 135.303 574.31 455.732
68 0 50.4655 13.1773 665 134.809 574.839 452.86
69 0 52.4086 11.5439 605 129.157 573.615 459.043
70 0 51.277 14.5484 746 128.161 574.662 453.849
71 0 57.9924 16.7263 970 121.542 575.53 456.821
72 0 52.4645 12.5037 656 137.974 575.503 455.991
73 0 56.1446 13.2159 742 131.384 575.159 454.923
74 0 59.3219 13.57 805 129.634 575.662 454.576
75 0 59.5223 14.1628 843 133.59 574.05 453.358
76 0 57.2866 12.1844 698 139.907 573.189 455.013
77 0 63.1738 16.6208 1050 134.344 572.296 455.616
78 0 66.161 16.8226 1113 137.5 574.791 458.528
79 0 67.1193 16.4632 1105 139.672 573.879 454.883
80 0 68.1719 13.95 951 151.116 572.947 453.849
81 0 70.1579 14.7952 1038 150.816 571.599 450.618
82 0 70.1534 13.5275 949 155.784 569.811 450.72
83 0 74.0583 15.9469 1181 147.472 568.782 449.607
84 0 78.1297 18.7253 1463 137.82 567.293 454.232
85 0 80.14 14.4622 1159 151.547 566.051 447.988
86 0 83.3144 14.6193 1218 151.927 564.472 446.381
87 1 43.1378 13.2598 572 146.01 564.044 462.409
88 0 46.1537 10.335 477 151.528 563.124 461.055
89 0 50.287 11.7923 593 143.695 562.813 461.359
90 0 50.1298 13.5049 677 143.929 562.244 457.242
91 0 49.1775 11.6517 573 144.928 562.672 456.422
92 0 51.1671 14.5406 744 139.421 562.075 454.241
93 0 52.1435 11.9861 625 142.915 562.906 453.194
94 0 52.1435 12.0245 627 141.014 562.885 453.137
95 0 57.279 14.892 853 133.734 562.783 451.273
96 0 57.1467 13.0541 746 134.044 564.434 452.847
97 0 59.1804 12.69 751 138.716 565.473 452.828
98 0 61.1874 14.3657 879 134.357 567.348 447.696
99 0 60.282 12.5411 756 139.687 570.098 450.503
100 0 65.2112 16.0709 1048 128.011 570.363 445.908
101 0 70.3249 15.7128 1105 117.805 572.256 450.263
102 0 68.3215 15.9979 1093 117.255 574.726 450.121
103 0 75.2943 19.2843 1452 112.41 575.567 448.243
104 0 73.4106 10.7478 789 123.791 575.748 445.871
105 0 83.0552 18.8549 1566 110.472 577.412 451.365
106 0 84.5162 21.3805 1807 111.35 577.103 453.721
107 0 85.9391 17.6869 1520 112.968 577.158 452.4
108 0 83.2237 11.9197 992 123.529 577.127 450.438
109 1 43.2605 14.3318 620 119.139 578.126 467.526
110 0 41.0701 8.44897 347 138.34 576.389 466.421
111 0 48.0417 13.4883 648 142.356 575.591 463.56
112 0 46.0622 12.3094 567 143.413 574.21 468.06
113 0 48.0883 12.1651 585 149.378 573.133 465.115
114 0 51.1976 12.8912 660 149.933 571.985 460.68
115 0 52.1743 13.7616 718 144.123 571.123 461.568
116 0 55.1388 14.3638 792 145.979 567.047 461.74
117 0 54.0532 12.8022 692 151.458 564.447 457.533
118 0 57.038 15.5861 889 144.101 562.657 456.666
119 0 61.0835 12.6384 772 148.946 561.348 457.303
120 0 61.0819 12.6224 771 148.859 559.371 457.403
121 0 65.1304 14.233 927 145.231 557.945 452.615
122 0 68.0375 16.873 1148 138.654 556.976 450.971
123 0 70.1762 16.6438 1168 134.927 556.652 450.998
124 0 73.2263 16.8928 1237 135.396 556.034 445.388
125 0 77.1915 17.5926 1358 130.578 556.052 445.696
126 0 79.0613 22.1347 1750 126.226 556.447 439.877
127 0 79.2125 13.4196 1063 136.283 556.387 441.769
128 0 86.4804 21.5193 1861 119.228 556.472 441.887
129 0 83.1366 12.4133 1032 139.685 557.558 436.468
130 0 89.5185 18.1192 1622 125.946 559.338 435.11
131 1 47.1042 9.72313 458 132.603 559.544 455.74
132 0 52.025 11.2254 584 132.277 562.098 452.967
133 0 52.2416 11.8105 617 131.271 567.616 455.441
134 0 60.4577 14.5225 878 122.249 570.728 454.737
135 0 54.5474 12.6862 692 132.019 568.999 451.348
136 0 56.1596 12.233 687 129.031 569.175 457.397
137 0 58.0844 11.7415 682 133.674 569.409 453.089
138 0 61.2951 14.6178 896 127.337 571.19 450.783
139 0 63.1185 15.3045 966 125.13 570.735 453.88
140 0 66.1217 14.5641 963 130.956 570.296 454.16
141 0 64.1583 13.2329 849 134.172 569.921 450.815
142 0 67.2353 11.7498 790 139.623 570.41 451.043
143 0 70.2118 14.3708 1009 124.487 569.443 454.307
144 0 73.3379 13.3492 979 127.937 568.957 452.428
145 0 74.2218 13.0824 971 131.189 568.198 455.413
146 1 44.1693 10.6182 469 132.648 565.629 469.226
147 0 44.0893 8.50546 375 135.584 565.413 472.251
148 0 48.0752 10.13 487 137.341 564.205 469.08
149 0 45.0877 11.5109 519 143.449 562.815 467.41
150 0 48.0548 13.3181 640 136.233 562.062 466.502
151 0 50.0843 14.0763 705 132.838 560.61 464.8
152 0 49.1282 13.2917 653 133.518 559.436 462.7
153 0 51.1744 14.1868 726 136.555 557.731 460.076
154 0 53.1224 14.6078 776 138.443 556.982 462.915
155 0 55.1127 25.2573 1392 117.499 556.125 462.465
156 0 55.2237 13.1465 726 140.908 555.718 458.008
157 0 57.2432 14.7441 844 135.75 555.477 458.405
158 0 57.2432 14.8315 849 138.898 555.496 458.32
159 0 61.1996 14.3301 877 136.935 554.202 454.535
160 0 61.0809 13.8668 847 139.299 554.681 451.438
161 0 66.2153 21.8983 1450 121.333 554.731 448.57
162 0 67.4145 17.207 1160 127.703 555.624 444.776
163 0 70.1355 14.4435 1013 130.007 557.258 448.216
164 0 73.2453 14.9907 1098 129.063 557.963 449.104
165 0 75.242 15.1112 1137 126.237 560.19 446.547
166 0 79.721 13.8859 1107 135.78 562.449 447.027
167 0 81.4841 16.3713 1334 125.566 562.808 446.542
168 0 81.1335 15.0246 1219 142.58 564.1 440.512
169 0 84.181 19.6006 1650 133.454 565.568 438.312
170 0 88.309 16.8386 1487 135.139 566.617 440.523
171 0 93.6487 19.6479 1840 126.168 567.9 444.954
172 1 50.5229 11.3612 574 136.409 569.601 459.753
173 0 55.2326 14.3394 792 133.047 571.01 456.652
174 0 50.4503 12.1506 613 141.29 569.626 459.816
175 0 53.2305 12.2674 653 140.496 568.548 462.893
176 0 55.052 21.3616 1176 125.035 567.29 459.912
177 0 56.0857 16.2252 910 137.829 567.387 462.177
178 0 55.0692 12.7657 703 152.521 566.047 459.552
179 0 60.036 15.7739 947 144.23 565.418 459.296
180 0 59.1583 13.168 779 150.777 564.62 461.856
181 0 62.2015 14.7585 918 147.346 563.778 458.144
182 0 65.0796 15.9804 1040 146.263 562.125 459.632
183 0 66.1046 12.6618 837 154.772 560.613 457.615
184 0 68.2202 13.9841 954 152.888 559.978 456.558
185 0 70.1662 15.3208 1075 148.839 558.51 453.286
186 0 72.2636 15.4019 1113 147.231 557.021 453.667
187 0 74.1363 15.5794 1155 147.489 556.312 452.103
188 0 79.2301 14.4894 1148 148.883 555.635 451.703
189 0 78.2172 15.6232 1222 146.372 554.948 450.088
190 0 81.2519 15.8396 1287 150.929 553.852 445.462
191 1 43.0998 12.1114 522 146.356 551.774 462.49
192 0 46.0798 11.3065 521 143.409 551.292 462.088
193 0 47.1362 11.1804 527 145.004 552.245 458.41
194 0 51.1146 13.0687 668 137.771 552.467 458.109
195 0 49.1286 12.9456 636 136.7 552.958 459.042
196 0 49.156 12.3891 609 136.402 553.58 454.404
197 0 51.0357 11.7761 601 139.764 558.529 458.022
198 0 54.7588 15.5409 851 140.137 557.928 450.645
199 0 54.1026 11.0531 598 141.99 557.985 452.261
200 0 58.2582 14.3327 835 134.949 559.782 450.883
201 0 60.1568 14.8113 891 135.604 561.962 453.018
202 0 62.2058 18.905 1176 126.679 564.122 453.498
203 0 63.084 13.5692 856 134.829 565.803 454.186
204 0 65.2226 11.8977 776 140.872 566.668 452.062
205 0 68.1145 11.5541 787 140.154 566.877 455.327
206 0 71.0878 13.209 939 135.29 567.628 454.55
207 0 74.1 13.4683 998 133.192 568.265 451.989
208 0 74.3452 13.0876 973 134.957 568.897 448.601
209 0 78.1762 10.4252 815 137.72 568.507 446.211
210 0 82.1982 16.1561 1328 131.798 568.84 448.551
211 0 81.2168 13.7164 1114 139.103 568.236 444.538
212 0 81.2318 13.7385 1116 129.901 567.255 444.511
213 0 88.1296 14.0588 1239 141.333 564.892 445.968
214 0 90.2901 14.2098 1283 138.294 564.306 447.53
215 0 91.3443 13.3451 1219 143.733 562.856 443.143
216 0 97.3284 13.4596 1310 143.547 562.187 437.412
217 0 99.2947 15.0461 1494 139.799 560.665 434.864
218 1 53.2033 11.6346 619 135.654 559.031 461.171
219 0 54.1656 11.0402 598 140.293 556.865 463.127
220 0 55.0918 11.98 660 138.023 556.17 461.82
221 0 57.2616 12.0849 692 135.29 555.185 461.319
222 0 57.3106 12.1444 696 133.954 554.181 461.332
223 0 62.2759 15.608 972 131.04 553.647 456.889
224 0 63.2205 15.5646 984 131.059 553.329 454.741
225 0 67.2578 17.3511 1167 126.218 552.464 452.56
226 0 69.1897 15.1178 1046 130.578 552.026 449.223
227 0 68.25 12.2491 836 135.628 552.091 449.12
228 0 72.308 14.8808 1076 131.516 552.448 446.786
229 0 72.308 14.9223 1079 126.87 552.45 446.844
230 0 78.4935 18.2818 1435 122.536 553.944 447.573
231 0 82.6572 19.6111 1621 119.754 555.73 440.86
232 0 80.3731 13.2134 1062 135.141 557.21 439.362
233 0 84.4356 16.5807 1400 128.435 559.454 440.442
234 1 44.0365 10.1507 447 133.273 559.774 461.022
235 0 45.0681 12.4478 561 132.722 561.622 462
236 0 45.3342 12.2203 554 129.531 564.937 462.009
237 0 47.2583 11.7228 554 132.565 565.527 462.442
238 0 51.949 15.3612 798 121.608 568.962 461.084
239 0 49.2949 12.8005 631 129.211 568.586 459.789
240 0 51.1362 14.0018 716 129.49 571.131 461.704
241 0 55.1066 14.1362 779 129.973 569.331 464.701
242 0 56.0427 15.5596 872 132.577 569.967 462.786
243 0 56.1458 15.7091 882 130.373 569.385 463.277
244 0 59.3565 17.9593 1066 127.455 568.468 463.167
245 0 60.2576 13.9402 840 136.775 568.692 465.133
246 0 60.2576 13.824 833 140.188 568.756 465.079
247 0 65.1976 16.0589 1047 133.913 566.12 461.741
248 0 65.1081 15.0519 980 139.534 564.795 459.847
249 0 69.1567 15.6167 1080 135.623 563.437 460.751
250 0 68.473 13.9033 952 140.849 562.551 459.134
251 0 71.1476 14.5191 1033 138.822 560.813 456.307
252 0 79.0491 16.4455 1300 132.628 560.199 458.692
253 1 37.0227 10.8582 402 142.883 559.532 471.311
254 0 41.2045 9.95037 410 141.329 558.071 472.5
255 0 41.2045 10.0717 415 149.566 557.099 472.434
256 0 42.034 14.0601 591 133.553 555.91 469.942
257 0 44.229 13.3171 589 138.046 555.767 467.268
258 0 45.0631 14.4242 650 131.077 555.298 467.66
259 0 52.639 12.7092 669 129.121 554.915 467.762
260 0 44.0331 13.1492 579 137.936 554.197 464.105
261 0 47.1813 14.6668 692 132.371 554.572 460.28
262 0 50.2622 14.9019 749 127.403 554.011 459.196
263 0 53.1832 16.9414 901 126.058 555.053 459.922
264 0 52.0738 14.9403 778 130.422 556.352 458.88
265 0 52.1493 14.5544 759 134.615 557.777 457.22
266 0 55.2253 15.4277 852 130.866 559.917 455.822
267 0 59.1948 13.7005 811 130.568 562.436 458.221
268 0 58.2539 16.2564 947 127.998 563.63 451.982
269 0 61.1141 15.6101 954 128.259 565.889 452.634
270 0 63.1527 14.5204 917 135.299 566.867 454.845
271 0 61.3 15.9543 978 134.481 568.084 453.533
272 0 66.298 16.3203 1082 131.279 568.767 453.92
273 0 69.3724 15.5393 1078 133.165 568.326 455.054
274 0 70.1673 16.7742 1177 136.856 569.088 454.752
275 0 72.2644 17.2561 1247 135.402 568.209 453.14
276 0 76.3324 18.3146 1398 134.877 568.421 454.602
277 0 76.2569 17.3492 1323 142.819 567.208 454.327
278 0 76.2339 13.8259 1054 155.55 565.437 454.326
279 0 80.2148 14.536 1166 155.242 564.812 453.254
280 0 83.2132 14.1324 1176 157.438 564.145 451.779
281 1 43.0479 11.3594 489 155.11 563.485 475.018
282 0 44.1331 13.5046 596 155.79 563.134 471.787
283 0 44.3019 11.7151 519 161.401 561.713 471.16
284 0 49.082 14.4248 708 152.597 560.068 468.695
285 0 50.0472 15.1857 760 157.229 559.2 467.505
286 0 51.1313 14.2183 727 159.682 556.41 468.497
287 0 52.1603 14.0145 731 158.532 555.46 467.997
288 0 51.2367 13.6035 697 162.013 554.534 464.479
289 0 56.2001 13.8256 777 154.501 554.879 463.462
290 0 58.2117 15.0313 875 152.099 554.006 460.387
291 0 60.175 15.9701 961 147.601 553.781 456.419
292 0 62.4799 15.1729 948 147.897 553.038 454.87
293 0 62.4799 15.2209 951 151.345 553.033 454.828
294 0 66.5174 14.9134 992 148.047 553.346 450.497
295 0 69.4082 14.5084 1007 148.921 553.687 449.848
296 0 72.4083 15.9374 1154 143.198 554.068 446.983
297 0 72.3473 11.0716 801 154.111 555.365 446.723
298 1 39.2074 14.4105 565 146.524 557.05 463.581
299 0 40.3189 11.7067 472 156.534 557.265 464.278
300 0 41.274 11.4842 474 157.97 560.19 464.793
301 0 44.4766 13.0181 579 155.896 561.672 464.116
302 0 47.4835 14.6367 695 150.951 563.742 463.34
303 0 46.2847 15.1022 699 155.635 565.83 461.185
304 0 48.3277 13.2222 639 162.354 566.207 461.643
305 0 50.1696 14.1121 708 159.299 566.739 463.12
306 0 51.3165 14.4398 741 161.74 567.618 461.443
307 0 55.3675 16.6704 923 153.13 568.592 464.127
308 0 55.3241 17.1173 947 155.118 567.95 462.742
309 0 57.277 14.3862 824 161.766 568.121 463.494
310 0 58.3448 15.9397 930 159.376 567.21 461.301
311 0 62.3079 19.0185 1185 146.724 566.601 461.79
312 0 61.1994 15.8662 971 159.515 565.639 460.612
313 0 66.2602 15.3335 1016 158.285 564.662 462.5
314 0 64.1706 16.425 1054 159.694 562.964 459.478
315 0 68.2006 14.8972 1016 161.76 562.782 461.634
316 0 70.2401 20.4869 1439 147.89 561.628 461.71
317 0 71.1674 15.6251 1112 162.655 559.702 459.165
318 0 76.2762 16.768 1279 158.216 558.118 456.432
319 0 76.2841 15.4292 1177 160.411 556.907 453.274
320 0 80.2512 14.978 1202 163.488 556.099 452.946
321 1 44.5651 12.8127 571 154.419 556.074 472.133
322 0 42.0665 11.4818 483 159.381 555.106 470.652
323 0 43.1733 13.0868 565 160.924 554.749 466.619
324 0 47.2184 13.194 623 153.663 554.133 468.551
325 0 49.2773 12.318 607 156.089 553.273 466.432
326 0 50.1475 14.5172 728 148.663 552.997 465.397
327 0 52.102 14.913 777 153.546 551.94 460.764
328 0 53.1722 15.0643 801 152.564 552.677 461.943
329 0 51.2034 14.9209 764 153.132 553.5 457.137
330 0 57.1753 15.4962 886 146.856 555.466 457.444
331 0 57.2794 16.5854 950 144.491 557.043 457.403
332 0 59.1157 15.9349 942 147.801 558.889 458.672
333 0 60.1811 14.6391 881 154.23 559.663 456.201
334 0 60.1179 13.8395 832 156.946 561.725 454.321
335 0 64.1999 14.6573 941 154.23 563.632 454.512
336 0 66.1633 14.2073 940 155.114 565.32 453.898
337 0 68.1436 13.765 938 154.723 565.694 453.124
338 0 74.5287 19.2409 1434 139.578 567.141 454.019
339 0 72.2408 14.5347 1050 154.288 567.13 452.407
340 0 77.0663 15.0779 1162 150.749 567.869 453.584
341 0 78.1932 14.0805 1101 154.681 567.438 452.009
342 0 80.1896 14.366 1152 155.532 565.51 453.362
343 0 86.1472 16.1584 1392 150.088 565.435 451.659
344 0 89.3735 15.1499 1354 151.577 565.033 451.741
345 1 42.1059 11.7086 493 159.221 563.69 470.191
346 0 44.0479 10.4659 461 162.317 562.738 470.345
347 0 44.0702 10.4379 460 159.354 563.676 470.211
348 0 50.0835 13.3577 669 150.945 563.248 471.018
349 0 52.291 14.6871 768 145.204 562.44 467.314
350 0 53.1296 14.1164 750 146.528 560.691 465.864
351 0 54.1257 14.0044 758 147.818 558.051 465.21
352 0 57.1315 15.3506 877 142.326 555.214 465.442
353 0 58.1528 14.4447 840 143.468 554.407 461.415
354 0 61.3682 15.3011 939 144.685 553.656 462.887
355 0 63.1885 17.1708 1085 137.577 553.209 460.736
356 0 68.2311 15.682 1070 136.998 552.806 462.179
357 0 66.1747 14.2048 940 143.564 552.131 457.27
358 0 69.2859 15.8041 1095 142.309 551.69 454.812
359 0 72.2236 18.0274 1302 135.644 551.433 452.025
360 0 74.2316 16.691 1239 138.959 551.629 449.465
361 0 76.2222 17.6327 1344 139.425 551.674 448.973
362 0 80.2603 16.7953 1348 137.553 552.236 447.467
363 1 43.6456 12.3953 541 145.144 553.719 464.567
364 0 43.1291 12.7988 552 145.129 554.558 464.132
365 0 46.2022 14.5881 674 139.297 557.039 465.249
366 0 45.2098 13.6032 615 142.174 558.125 464.216
367 0 46.0694 15.303 705 141.894 561.894 463.462
368 0 50.2385 14.7496 741 145.027 561.717 459.939
369 0 51.1954 19.3181 989 134.871 564.942 463.567
370 0 53.3234 13.615 726 146.223 565.917 464.989
371 0 54.2235 15.2332 826 145.545 567.467 462.585
372 0 59.2562 16.4708 976 138.768 567.248 464.848
373 0 61.1438 14.7685 903 147.812 568.022 462.961
374 0 61.2232 15.2883 936 147.579 567.838 462.869
375 0 67.1771 16.9105 1136 142.896 566.4 462.96
376 0 67.1452 16.5462 1111 148.432 565.807 462.089
377 0 70.3324 16.095 1132 151.365 565.403 461.637
378 0 69.2859 15.2412 1056 156.555 565.176 458.865
379 0 73.2427 17.5034 1282 151.977 563.936 458.881
380 0 74.2643 16.145 1199 154.084 562.837 460.369
381 0 79.3669 19.6178 1557 146.302 561.919 456.371
382 0 79.3733 15.5468 1234 158.305 561.278 455.02
383 0 84.2249 17.5008 1474 151.674 559.217 454.254
384 0 84.4158 16.324 1378 156.029 558.053 454.14
385 0 87.2393 14.7181 1284 157.894 557.356 455.346
386 0 91.1955 16.6127 1515 151.632 556.366 451.968
387 0 94.4106 18.2713 1725 150.868 555.212 449.043
388 0 96.4512 15.075 1454 156.309 554.534 446.001
389 0 100.344 16.5133 1657 150.071 553.803 444.631
390 0 106.673 19.6394 2095 144.88 552.718 440.997
391 1 56.113 13.2055 741 149.664 552.163 462.034
392 0 58.3787 13.5152 789 148.869 551.279 459.279
393 0 59.2371 14.3998 853 149.584 550.89 454.211
394 0 62.5936 16.9346 1060 140.009 551.661 454.227
395 0 64.5328 14.1324 912 145.568 552.842 451.827
396 0 67.4804 16.0343 1082 139.877 553.491 450.628
397 0 70.8096 18.9805 1344 133.887 554.971 447.656
398 0 71.3524 15.1782 1083 140.483 556.142 447.528
399 0 75.6902 15.8145 1197 136.959 557.455 446.967
400 0 78.4624 17.9704 1410 134.825 559.103 446.26
401 0 78.7811 19.2178 1514 135.576 560.914 443.927
402 0 81.2237 14.7001 1194 145.272 562.843 443.278
403 0 85.555 14.3767 1230 145.161 564.32 444.25
404 0 87.541 18.6427 1632 142.286 565.563 441.656
405 0 87.6931 18.6218 1633 135.564 566.572 441.678
406 0 97.4009 17.854 1739 138.822 566.423 443.392
407 1 46.2998 11.7711 545 152.829 567.519 461.815
408 0 48.4079 11.1139 538 149.632 566.284 464.71
409 0 53.4531 16.5192 883 141.182 565.777 462.274
410 0 51.6119 10.5789 546 155.595 564.451 461.637
411 0 56.38 14.5264 819 146.7 563.803 463.497
412 0 57.591 12.6582 729 151.318 563.107 464.289
413 0 63.4566 16.6886 1059 139.301 561.79 466.935
414 0 63.2923 14.0775 891 148.011 560.52 464.984
415 0 63.3318 13.5477 858 151.12 559.999 464.062
416 0 65.5213 14.5602 954 150.31 558.731 458.463
417 0 67.648 15.3146 1036 150.552 557.123 456.037
418 0 72.5896 14.9195 1083 149.07 555.99 456.502
419 0 75.5598 16.0138 1210 146.264 554.318 456.376
420 0 72.584 14.9758 1087 152.29 553.58 453.883
421 0 79.6363 18.3082 1458 140.641 552.738 452.56
422 0 85.0178 16.9964 1445 140.828 552.58 451.168
423 0 80.5469 15.8541 1277 152.417 552.206 444.662
424 0 86.759 15.0647 1307 150.87 552.024 446.075
425 0 85.6353 15.6244 1338 149.084 551.188 443.591
426 0 92.9351 16.5061 1534 147.282 550.837 438.352
427 0 93.5215 19.5356 1827 140.792 551.041 438.678
428 0 95.5605 17.5072 1673 146.901 551.499 433.697
429 0 96.7064 17.062 1650 151.455 552.61 431.088
430 0 100.629 14.8168 1491 151.16 554.275 435.751
431 0 103.121 16.5534 1707 153.264 555.159 430.767
432 0 107.739 14.3123 1542 151.195 556.778 431.972
433 0 110.608 15.6227 1728 153.745 559.351 425.595
434 0 115.838 18.8022 2178 145.149 560.89 424.746
435 0 119.583 16.4656 1969 155.818 563.406 425.4
436 1 66.2703 12.5396 831 146.431 563.978 454.018
437 0 70.2751 12.3657 869 151.346 564.749 451.548
438 0 72.2911 14.0266 1014 150.283 565.537 448.96
439 0 73.3297 13.9371 1022 160.786 566.487 447.739
440 0 76.4548 15.5909 1192 155.466 566.69 447.493
441 0 80.2192 15.5948 1251 156.624 566.703 445.054
442 0 81.4179 14.358 1169 158.718 565.907 445.15
443 0 85.3204 14.9906 1279 158.693 565.232 443.411
444 0 88.4903 15.9453 1411 159.016 564.697 441.446
445 0 92.667 15.4856 1435 159.069 563.966 443.248
446 0 94.5974 14.3767 1360 163.169 562.949 440.492
447 0 98.5604 12.4391 1226 166.082 562.392 440.639
448 0 101.689 14.4559 1470 163.714 561.102 438.256
449 0 106.388 16.2801 1732 159.007 559.881 434.228
450 0 109.662 16.25 1782 158.443 558.75 432.92
451 1 60.485 12.036 728 152.276 556.46 459.401
452 0 64.1458 13.4225 861 145.589 555.364 458.777
453 0 63.0393 13.6106 858 147.9 555.492 458.203
454 0 65.2174 12.88 840 141.16 555.602 457.821
455 0 68.0711 16.3652 1114 131.75 553.707 460.842
456 0 70.126 13.4758 945 138.614 553.477 455.641
457 0 71.0905 12.6599 900 142.432 553.286 452.4
458 0 73.081 12.9993 950 139.749 552.496 452.891
459 0 75.134 13.4293 1009 137.264 552.414 448.411
460 0 77.1474 11.6012 895 140.166 552.744 444.213
461 0 81.5369 13.2333 1079 141.104 551.815 442.738
462 0 84.2077 14.8086 1247 142.05 552.498 440.897
463 0 86.3627 13.5707 1172 140.936 553.063 443.016
464 0 88.245 14.4597 1276 142.305 554.475 437.471
465 0 91.6562 18.6458 1709 132.249 555.834 441.666
466 0 96.3416 14.1061 1359 136.474 557.913 437.884
467 0 97.3799 14.0173 1365 138.854 560.21 436.112
468 0 101.56 15.5376 1578 137.174 561.885 433.732
469 0 104.558 17.3778 1817 133.121 564.728 433.671
470 0 106.302 14.6375 1556 138.769 565.927 426.739
471 0 109.373 11.0082 1204 144.841 566.844 432.86
472 1 64.1563 12.1578 780 133.341 566.832 459.803
473 0 62.3202 11.7458 732 141.049 566.913 460.327
474 0 66.4318 14.9928 996 134.137 566.627 457.587
475 0 67.251 13.1448 884 136.198 567.226 460.294
476 0 69.1624 13.0273 901 139.683 566.625 457.452
477 0 69.225 11.1376 771 145.289 565.481 457.958
478 0 73.3105 11.9901 879 144.462 564.538 455.882
479 0 74.4501 13.2438 986 144.177 563.563 456.097
480 0 77.2025 13.0177 1005 148.779 562.547 456.674
481 0 80.4806 13.5188 1088 148.445 561.288 453.679
482 0 82.3942 13.314 1097 146.07 559.228 455.974
483 0 85.5601 13.4408 1150 147.333 557.858 452.566
484 0 87.5539 13.249 1160 146.801 555.711 453.447
485 0 90.5632 12.5106 1133 147.683 554.719 449.5
486 0 90.5477 12.4575 1128 146.633 553.724 449.341
487 0 93.4798 13.2435 1238 146.087 553.231 439.959
488 0 98.7558 13.9941 1382 140.682 553.119 444.622
489 1 52.3817 9.62167 504 134.772 553.639 457.619
490 0 55.4704 11.1952 621 127.67 553.395 454.585
491 0 59.6717 13.2224 789 128.844 553.714 455.925
492 0 63.2657 15.1583 959 122.182 554.148 458.096
493 0 60.2361 14.6922 885 125.579 554.754 457.728
494 0 61.2242 12.1031 741 130.078 555.069 455.668
495 0 66.2556 14.6855 973 123.541 555.355 456.501
496 0 67.2165 13.2854 893 124.717 557.101 453.588
497 0 67.0895 10.9555 735 128.137 558.629 451.667
498 0 73.1401 19.8113 1449 113.861 558.807 449.432
499 0 74.1416 13.4337 996 123.94 560.685 451.716
500 0 77.2701 13.1616 1017 125.308 562.68 451.794
501 0 79.1357 14.2793 1130 125.912 563.861 447.724
502 0 82.1369 14.9385 1227 125.092 565.543 450.313
503 0 88.8881 18.9452 1684 116.164 567.283 452.05
504 1 43.2202 12.8644 556 128.112 568.944 467.383
505 0 50.2746 16.012 805 114.923 569.297 473.837
506 0 44.0372 10.4684 461 134.679 569.275 469.302
507 0 49.0775 14.0186 688 125.221 568.199 467.464
508 0 50.4039 14.9988 756 123.794 565.962 468.192
509 0 50.0405 13.0694 654 128.343 566.804 467.544
510 0 51.0303 12.0908 617 130.413 564.872 473.846
511 0 50.0625 10.6267 532 137.461 564.592 472.058
512 0 56.2972 12.5051 704 134.234 564.676 471.923
513 0 56.1083 12.3511 693 136.916 565.081 469.887
514 0 55.1097 13.5911 749 135.34 563.94 468.017
515 0 61.2164 15.1757 929 129.312 562.693 468.855
516 0 59.1684 12.7771 756 134.903 560.802 468.308
517 0 61.2373 11.9535 732 135.133 559.258 467.59
518 0 59.1993 10.6589 631 135.783 558.103 465.135
519 0 65.3195 13.7019 895 128.412 556.927 461.901
520 0 66.3403 14.3502 952 127.144 556.491 461.808
521 0 66.3403 14.2297 944 126.789 556.479 461.771
522 0 73.2609 15.7246 1152 122.168 554.01 456.628
523 0 74.2276 11.5321 856 131.607 553.397 451.187
524 0 76.2596 13.0606 996 125.61 552.83 449.166
525 0 80.6639 14.4798 1168 121.101 552.631 449.531
526 1 43.0984 13.9912 603 117.376 554.3 469.333
527 0 47.1027 12.1861 574 123.045 554.787 466.138
528 0 48.0369 10.5336 506 124.093 555.708 464.061
529 0 51.0454 17.5138 894 112.644 555.913 460.493
530 0 50.0875 13.4365 673 121.067 557.108 462.734
531 0 50.09 12.9766 650 120.062 558.925 461.448
532 0 52.1043 14.9316 778 116.12 560.339 459.878
533 0 58.079 15.1346 879 115.165 562.466 461.586
534 0 59.2298 14.334 849 116.007 564.2 460.989
535 0 58.0923 12.9621 753 118.705 565.061 461.376
536 0 57.2432 13.102 750 122.356 566.736 459.208
537 0 62.2169 13.2279 823 120.987 568.317 457.577
538 0 65.2592 16.7333 1092 116.695 568.149 457.538
539 0 66.2526 13.9315 923 124.966 568.641 458.6
540 0 69.3883 16.5157 1146 114.033 569.532 465.922
541 0 69.1597 11.2493 778 127.276 567.766 460.407
542 0 72.4471 12.5333 908 130.209 566.955 455.108
543 0 76.4987 13.7257 1050 126.815 566.845 461.472
544 0 77.3899 12.3272 954 131.382 565.892 453.581
545 0 81.4034 13.8938 1131 128.79 564.433 452.421
546 1 43.3438 12.0663 523 128.409 565.111 472.12
547 0 45.3014 10.4632 474 130.757 564.038 472.464
548 0 46.2524 12.5183 579 128.634 562.48 470.995
549 0 49.3373 13.58 670 124.63 561.297 470.63
550 0 46.3573 11.4976 533 131.869 560.079 468.871
551 0 50.199 14.7015 738 126.843 557.976 468.228
552 0 52.3617 14.3616 752 125.315 557.072 468.697
553 0 50.3687 11.9122 600 131.56 556.245 467.138
554 0 54.2737 13.6346 740 125.718 555.138 464.335
555 0 56.2938 12.7723 719 128.079 554.373 462.969
556 0 59.3522 14.1528 840 123.85 553.929 461.992
557 0 61.8085 12.927 799 126.11 553.103 462.97
558 0 63.3191 12.745 807 127.537 552.533 458.465
559 0 66.2662 15.3019 1014 120.6 552.28 456.373
560 0 71.5226 15.3518 1098 120.554 552.373 455.479
561 0 69.2849 13.2496 918 124.623 553.513 451.611
562 0 73.3878 15.0434 1104 122.135 554.526 449.792
563 0 73.4229 15.3086 1124 121.572 555.429 446.259
564 1 39.4946 10.9129 431 125.065 556.898 466.385
565 0 43.2796 12.2691 531 130.505 559.098 463.085
566 0 43.4681 11.4337 497 129.668 560.771 464.726
567 0 44.4514 12.5305 557 130.135 562.831 462.215
568 0 43.527 12.1534 529 132.936 564.38 462.091
569 0 45.4253 13.1865 599 127.948 565.514 463.058
570 0 47.3003 12.5369 593 135.538 565.393 459.405
571 0 49.0904 13.2613 651 140.53 565.495 460.734
572 0 47.294 12.5597 594 144.924 567.025 464.49
573 0 50.3911 12.9586 653 143.113 567.6 464.386
574 0 52.3417 15.3988 806 139.968 567.349 463.873
575 0 53.2928 14.7862 788 142.353 567.047 465.379
576 0 54.2431 13.2183 717 146.84 567.339 468.139
577 0 55.4578 15.8138 877 143.316 566.019 463.138
578 0 59.4295 17.3988 1034 140.207 565.162 463.333
579 0 59.3855 13.5892 807 146.765 564.099 465.898
580 0 61.9265 14.9694 927 142.005 563.172 466.111
581 0 64.354 15.4147 992 141.48 560.762 462.882
582 0 64.3441 12.6507 814 149.893 559.337 461.494
583 0 68.5042 14.8312 1016 144.05 558.237 458.133
584 0 69.4886 14.4772 1006 145.427 556.972 455.791
585 0 70.5717 11.8319 835 151.253 555.993 453.457
586 1 38.4895 10.1846 392 146.615 554.278 472.898
587 0 38.5863 9.82214 379 147.066 553.29 472.383
588 0 42.4556 10.7642 457 144.473 552.066 471.009
589 0 44.6773 9.9827 446 141.204 551.489 471.933
590 0 46.5606 12.6717 590 134.946 550.485 470.778
591 0 47.5046 11.8515 563 137.355 549.798 469.78
592 0 47.5664 12.2565 583 138.952 550.777 466.007
593 0 51.2164 13.7651 705 134.271 550.118 465.993
594 0 51.3115 14.8115 760 131.071 550.168 466.271
595 0 52.4027 15.4763 811 132.224 550.602 463.392
596 0 54.3662 11.5697 629 140.763 551.816 463.617
597 0 54.4435 12.8023 697 141.548 552.469 464.422
598 0 55.3446 14.3103 792 136.715 553.67 464.199
599 0 59.3373 12.0329 714 143.725 555.154 460.238
600 0 59.2276 12.4604 738 144.05 557.203 461.309
601 0 60.3689 13.9807 844 143.805 559.566 458.934
602 0 62.344 12.8801 803 147.735 559.846 457.199
603 0 66.1864 12.9634 858 148.234 560.598 458.344
604 0 68.2643 13.4331 917 148.1 561.509 457.926
605 0 72.2623 12.7452 921 150.339 561.528 456.228
606 0 72.5251 14.8087 1074 145.123 562.313 458.929
607 0 76.3605 13.0041 993 150.74 562.188 453.317
608 0 78.7605 15.1472 1193 144.302 561.965 453.883
609 0 79.5207 14.4365 1148 147.379 561.782 454.545
610 0 84.524 14.067 1189 150.652 561.401 450.343
611 0 87.4434 16.708 1461 146.034 560.634 449.014
612 0 87.6039 14.3487 1257 153.519 559.451 445.841
613 1 49.4827 10.7512 532 144.508 559.241 471.398
614 0 49.2433 10.6613 525 148.4 558.032 468.467
615 0 49.2805 8.62409 425 151.339 556.08 467.224
616 0 52.3298 10.3765 543 149.503 555.122 464.063
617 0 50.1511 9.69072 486 148.879 554.654 463.868
618 0 56.288 11.9741 674 145.436 551.423 464.537
619 0 58.2275 13.4644 784 136.2 551.925 464.514
620 0 59.3223 13.1148 778 137.027 551.238 461.279
621 0 60.3204 12.6325 762 137.6 550.959 458.882
622 0 63.3806 11.2968 716 138.071 550.754 457.83
623 0 67.4046 15.4885 1044 130.012 550.1 454.694
624 0 68.3517 14.1767 969 132.813 549.595 451.624
625 0 71.209 13.8185 984 131.976 549.77 452.579
626 0 75.3455 13.896 1047 132.351 549.496 449.841
627 0 74.1907 14.0584 1043 132.115 550.189 451.402
628 1 42.1403 8.35305 352 134.239 553.372 466.577
629 0 44.1079 9.36341 413 136.092 553.232 463.453
630 0 46.1026 10.4116 480 130.531 555.458 465.167
631 0 46.0891 10.8269 499 129.136 557.024 462.551
632 0 46.08 8.55035 394 131.299 557.82 466.249
633 0 52.1845 12.4175 648 129.043 560.37 462.605
634 0 49.0514 12.5583 616 129.244 557.107 463.916
635 0 49.0571 12.5568 616 137.518 562.354 461.263
636 0 52.1498 14.1515 738 135.096 563.617 462.768
637 0 51.1098 12.9329 661 140.398 564.707 464.107
638 0 56.1206 14.6292 821 137.53 565.519 462.87
639 0 55.0711 11.8029 650 143.728 567.102 464.285
640 0 56.0432 11.4019 639 147.607 567.629 461.787
641 0 59.0776 12.9321 764 145.344 565.993 461.643
642 0 61.0604 12.4303 759 147.657 565.07 462.917
643 0 63.0809 12.9675 818 144.895 564.494 464.855
644 0 66.1172 15.0793 997 140.478 563.818 463.819
645 0 68.146 14.3662 979 141.803 563.066 462.218
646 0 70.0293 13.9513 977 141.722 563.153 462.702
647 0 70.1625 13.1267 921 147.637 562.353 457.176
648 0 73.0794 12.9311 945 147.19 561.057 456.825
649 0 80.1094 16.5024 1322 136.105 559.957 456.925
650 0 78.2462 13.0358 1020 147.227 558.254 453.962
651 0 78.1279 11.9548 934 152.119 555.605 451.456
652 1 45.0232 10.5723 476 145.666 557.032 469.332
653 0 46.0589 9.14046 421 148.076 555.848 469.387
654 0 47.0961 9.32137 439 145.92 555.401 469.298
655 0 50.063 9.94746 498 146.452 554.309 465.659
656 0 50.0593 11.0869 555 144.852 553.627 462.987
657 0 52.1624 12.5378 654 138.54 553.358 460.76
658 0 58.4684 17.7874 1040 120.747 553.043 464.214
659 0 58.1118 13.0954 761 128.965 553.57 461.453
660 0 58.099 13.0811 760 129.893 553.57 461.607
661 0 60.1437 14.3157 861 128.407 554.805 457.697
662 0 63.1299 17.9313 1132 120.422 556.421 457.678
663 0 61.0695 13.542 827 127.822 558.757 460.093
664 0 65.1521 14.0748 917 128.835 559.912 455.931
665 0 67.1439 13.9402 936 136.311 562.688 455.985
666 0 68.0586 13.6794 931 139.541 563.913 454.349
667 0 71.1214 13.9339 991 139.343 564.59 454.915
668 0 70.0516 14.6892 1029 143.491 568.161 452.013
669 0 74.1298 13.274 984 142.158 568.509 452.473
670 0 74.109 14.4652 1072 144.202 569.598 448.296
671 0 77.0578 15.9231 1227 140.201 569.23 449.13
672 0 83.2388 15.6418 1302 138.624 568.783 451.849
673 0 84.118 14.979 1260 142.224 568.162 452.893
674 0 88.2512 16.2831 1437 141.561 568.136 448.193
675 1 46.0662 11.1361 513 143.6 568.222 473.665
676 0 51.1874 13.9487 714 136.728 567.011 473.497
677 0 49.0487 14.4346 708 135.768 566.225 474.249
678 0 51.0535 14.2204 726 138.298 564.128 472.102
679 0 50.1181 13.6079 682 140.556 563.082 472.324
680 0 53.048 12.9505 687 142.48 562.07 469.969
681 0 54.0992 14.917 807 137.808 559.651 465.673
682 0 55.0728 12.9828 715 141.779 558.952 466.806
683 0 57.1925 14.7397 843 136.461 557.369 465.056
684 0 61.0491 15.594 952 133.112 556.714 463.8
685 0 61.1663 16.0382 981 129.552 555.177 462.433
686 0 64.0784 15.7463 1009 128.784 554.127 460.24
687 0 63.0901 13.4411 848 134.325 554.267 458.561
688 0 65.2167 12.4815 814 133.797 553.101 458.388
689 0 67.1648 15.4545 1038 128.223 553.147 457.337
690 0 67.1648 15.3801 1033 136.379 553.174 457.232
691 0 72.1489 13.5553 978 130.69 553.12 450.13
692 0 75.1743 14.6992 1105 126.523 552.319 448.674
693 0 76.3601 13.2661 1013 128.527 552.694 448.312
694 0 80.4192 13.8897 1117 125.467 554.005 448.708
695 0 83.2734 18.1931 1515 117.916 554.973 445.207
696 0 86.3565 16.3624 1413 120.944 556.593 442.335
697 0 84.3763 12.9065 1089 127.115 557.409 439.478
698 1 46.1049 11.1268 513 129.887 559.994 458.71
699 0 48.0991 8.81513 424 130.12 561.658 460.318
700 0 49.1932 12.2375 602 124.442 563.61 459.683
701 0 53.1468 13.585 722 121.324 563.798 459.968
702 0 53.1142 12.3884 658 125.59 565.333 459.015
703 0 55.2824 12.6804 701 116.602 562.495 461.605
704 0 56.2334 12.3948 697 119.172 562.501 461.049
705 0 55.2275 11.0995 613 125.577 563.266 459.44
706 0 58.114 12.4238 722 123.54 562.963 459.794
707 0 59.2105 12.5991 746 123.879 563.011 455.231
708 0 60.0993 11.6807 702 124.189 562.808 459.638
709 0 65.1741 13.0573 851 124.288 562.118 456.42
710 0 66.1943 12.7201 842 125.523 560.628 457.331
711 0 69.1646 13.2004 913 125.364 559.484 456.775
712 0 67.0704 11.3463 761 128.983 558.453 461.364
713 0 71.099 13.0522 928 125.749 557.139 459.293
714 0 77.2685 13.4337 1038 124.079 555.904 453.152
715 0 77.2226 12.9237 998 123.175 554.641 452.071
716 1 41.3146 9.80283 405 125.995 552.615 467.899
717 0 44.1599 10.2808 454 117.956 551.83 465.863
718 0 44.2427 7.54927 334 119.713 550.494 467.838
719 0 45.3918 15.0027 681 107.674 551.824 460.16
720 0 48.2179 10.6599 514 113.428 552.786 456.66
721 0 47.2319 14.27 674 114.18 552.108 457.286
722 0 51.14 11.4979 588 115.316 552.129 457.667
723 0 50.4674 10.3631 523 120.159 551.568 455.627
724 0 54.2093 9.66624 524 119.231 552.737 453.162
725 0 56.2022 10.3021 579 115.154 552.758 455.178
726 0 59.1333 11.2289 664 119.104 553.318 448.92
727 0 63.8003 13.1191 837 110.136 554.056 452.22
728 0 63.3033 12.2426 775 118.431 556.252 449.594
729 0 61.2379 8.62211 528 120.388 557.515 446.566
730 0 68.087 11.7497 800 115.351 559.329 451.721
731 0 67.2752 12.813 862 115.875 561.784 443.995
732 0 69.1549 11.7562 813 121.226 563.831 445.861
733 0 72.3238 12.209 883 121.139 564.741 444.879
734 0 74.2494 12.054 895 125.496 565.323 445.999
735 1 42.2886 10.5229 445 117.717 566.11 464.838
736 0 37.1438 3.82298 142 131.93 567.155 466.359
737 0 44.351 9.80813 435 122.31 566.908 467.193
738 0 42.2435 7.95388 336 129.113 566.452 464.435
739 0 48.2141 7.88151 380 126.582 565.553 469.355
740 0 47.3074 9.25859 438 129.212 564.879 467.29
741 0 50.3237 11.6446 586 125.71 563.585 466.845
742 0 49.2267 11.8229 582 129.412 560.723 471.596
743 0 52.19 11.8222 617 128.806 559.464 471.554
744 0 55.1586 14.413 795 124.403 558.367 468.187
745 0 58.2137 13.2958 774 126.422 556.574 470.224
746 0 58.3658 12.6101 736 129.772 554.64 467.072
747 0 59.3695 12.7675 758 130.611 554.084 465.439
748 0 64.2608 16.1218 1036 120.6 552.543 465.845
749 0 63.4801 13.9099 883 126.912 550.993 461.512
750 0 66.4089 14.7571 980 124.889 549.509 463.826
751 0 68.2572 14.4161 984 124.777 549.028 462.804
752 0 70.2666 14.2173 999 125.422 548.538 459.418
753 0 71.2699 12.8385 915 127.914 548.461 456.984
754 0 73.434 13.9581 1025 125.291 548.307 456.76
755 1 42.1066 9.1672 386 124.907 546.531 476.036
756 0 42.1206 12.6067 531 119.992 546.222 471.974
757 0 42.1459 10.084 425 124.652 546.918 470.993
758 0 45.2659 10.4273 472 122.43 546.871 470.941
759 0 47.1966 12.2254 577 119.931 547.683 469.192
760 0 48.1439 11.8187 569 121.576 548.923 466.213
761 0 46.1305 11.0773 511 127.276 554.953 467.65
762 0 49.1335 14.8371 729 117.813 555.879 465.255
763 0 51.2563 13.3057 682 119.99 557.28 466.474
764 0 53.1895 15.567 828 117.87 559.297 461.958
765 0 53.1127 12.3888 658 127.622 560.391 463.363
766 0 55.1455 13.4372 741 125.273 561.265 466.063
767 0 56.1181 12.741 715 129.857 562.371 462.881
768 0 60.0611 13.4863 810 131.694 563.931 463.504
769 0 61.2767 16.0583 984 126.947 564.114 466.51
770 0 61.0589 13.7572 840 134.433 564.243 464.039
771 0 64.0986 17.3327 1111 126.074 563.71 463.634
772 0 63.0927 13.5832 857 133.785 563.692 467.515
773 0 66.1145 12.6296 835 136.507 563.607 466.257
774 0 72.1258 14.5856 1052 129.672 563.115 469.865
775 0 72.2565 16.0262 1158 130.452 560.913 461.934
776 0 72.1632 15.7144 1134 131.223 559.824 464.254
777 0 73.0295 13.1591 961 138.815 558.354 460.742
778 0 77.1248 14.2367 1098 135.291 557.611 463.492
779 0 82.1321 17.3866 1428 128.613 555.679 458.973
780 0 83.1532 13.3008 1106 136.767 554.179 454.861
781 0 87.1441 16.4785 1436 129.46 552.623 452.533
782 1 47.0731 11.1954 527 128.977 551.751 476.805
783 0 50.1834 11.1391 559 127.243 551.215 476.02
784 0 50.061 11.8256 592 128.579 550.53 470.438
785 0 50.0723 12.1425 608 128.965 550.367 470.76
786 0 50.0687 12.8024 641 125.477 549.448 466.825
787 0 52.2627 14.3506 750 120.891 547.925 465.099
788 0 55.024 12.54 690 125.549 548.548 468.097
789 0 58.1128 12.8887 749 122.574 548.435 464.825
790 0 59.1965 13.7677 815 121.467 548.551 461.742
791 0 59.0588 12.75 753 122.651 548.057 460.784
792 0 63.2019 14.778 934 117.266 549.829 460.752
793 0 64.1135 13.8193 886 117.599 551.049 459.543
794 0 65.2021 15.1222 986 120.12 552.074 453.778
795 0 69.1747 13.0684 904 121.287 554.118 453.774
796 0 69.1888 13.7739 953 119.708 556.084 453.128
797 0 76.2527 14.1765 1081 117.487 558.022 454.134
798 0 75.134 14.6272 1099 119.568 559.379 447.89
799 0 77.2205 14.219 1098 123.224 561.114 449.798
800 0 82.3887 14.2374 1173 122.694 562.327 451.223
801 0 83.1208 14.5812 1212 123.632 563.568 446.832
802 0 85.0847 13.9743 1189 126.008 565.087 447.45
803 0 90.1532 21.6742 1954 113.278 565.452 446.579
804 0 91.053 14.8375 1351 128.501 565.151 450.485
805 0 94.1253 14.162 1333 131.072 565.247 447.876
806 0 96.1525 17.3578 1669 125.824 565.229 450.984
807 0 102.082 16.2124 1655 128.333 564.983 449.839
808 1 51.1089 11.094 567 134.111 564.439 472.256
809 0 56.029 10.5838 593 132.747 563.852 473.341
810 0 58.0904 12.6699 736 130.864 563.398 469.789
811 0 59.3128 12.5774 746 130.047 562.839 469.81
812 0 60.4581 13.712 829 130.785 561.078 462.443
813 0 63.0939 14.5973 921 130.633 560.809 464.396
814 0 63.0475 13.1964 832 134.168 559.63 461.93
815 0 69.0736 17.3583 1199 124.565 558.334 462.562
816 0 71.0886 15.1501 1077 127.928 557.895 461.726
817 0 70.1229 14.8168 1039 128.68 557.12 459.973
818 0 72.1807 12.0808 872 133.518 556.264 458.122
819 0 75.0645 14.0279 1053 131.791 555.801 455.861
820 0 77.216 13.8572 1070 130.479 555.189 453.327
821 0 82.2043 16.678 1371 124.794 553.851 449.176
822 0 83.494 15.5221 1296 126.24 554.029 450.593
823 0 87.4974 16.5148 1445 123.934 553.248 449.537
824 0 88.3916 15.1598 1340 126.997 553.659 447.329
825 0 92.4217 14.6286 1352 128.501 554.87 443.816
826 0 93.5403 14.1436 1323 130.857 555.083 439.673
827 0 97.3615 16.2693 1584 128.378 556.597 439.586
828 0 100.41 15.9944 1606 126.869 557.78 436.825
829 1 54.0894 13.792 746 125.883 560.823 459.133
830 0 54.1959 13.4512 729 129.182 561.221 460.178
831 0 58.1248 14.5033 843 124.873 562.353 459.202
832 0 61.0951 12.8161 783 130.358 565.743 459.621
833 0 62.3351 14.1814 884 128.326 567.757 456.234
834 0 65.0733 15.7822 1027 124.218 569.043 457.843
835 0 67.1772 16.5383 1111 124.176 569.037 458.305
836 0 65.0745 12.7853 832 134.722 570.281 457.934
837 0 72.1791 13.6328 984 134.052 569.815 457.436
838 0 71.111 15.525 1104 131.084 569.716 457.987
839 0 78.2919 17.422 1364 128.952 568.695 457.779
840 0 79.2359 16.23 1286 132.649 568.68 460.562
841 0 81.1086 17.7293 1438 131.243 567.604 458.541
842 0 85.1921 17.349 1478 132.144 566.501 457.518
843 0 85.2574 15.33 1307 138.279 564.502 455.675
844 0 86.4142 16.1316 1394 137.738 563.712 453.996
845 0 89.1917 15.0238 1340 141.267 561.887 450.757
846 0 91.2563 14.7277 1344 141.945 560.914 452.655
847 0 94.3268 15.5841 1470 139.493 558.756 448.682
848 0 98.2321 17.2347 1693 136.004 557.612 446.495
849 1 47.0346 12.4802 587 136.966 557.637 473.891
850 0 50.0646 13.2229 662 136.196 556.098 470.373
851 0 50.0286 14.3118 716 133.303 555.024 469.19
852 0 53.1069 16.0243 851 127.927 554.106 467.047
853 0 52.117 14.3523 748 132.369 552.557 467.627
854 0 55.3349 14.6743 812 129.321 550.282 464.326
855 0 59.2994 16.5094 979 124.808 549.734 462.866
856 0 58.4353 14.7685 863 129.83 549.671 459.335
857 0 62.3009 14.0126 873 130.774 549.793 460.918
858 0 64.4129 14.9815 965 128.746 549.946 457.625
859 0 65.3346 16.4691 1076 127.237 550.834 458.572
860 0 70.8169 17.1428 1214 122.556 552.114 459.368
861 0 69.3926 16.875 1171 123.545 552.753 456.129
862 0 71.4339 16.0568 1147 128.267 554.531 457.303
863 0 72.2382 15.3243 1107 130.107 555.597 455.2
864 0 74.3045 16.069 1194 132.45 556.997 453.572
865 0 78.4309 17.0214 1335 130.565 558.717 451.27
866 0 79.2461 14.5749 1155 137.105 559.67 453.119
867 0 81.3857 15.6047 1270 137.787 561.763 449.908
868 0 85.5004 14.9356 1277 136.435 562.046 451.199
869 0 87.1548 13.9178 1213 134.201 562.773 450.491
870 0 89.1261 17.4023 1551 127.545 562.605 453.544
871 1 48.0737 12.5432 603 134.222 562.975 471.814
872 0 49.034 9.62596 472 140.453 562.561 472.589
873 0 52.1616 14.8577 775 131.679 563.29 469.529
874 0 52.1835 10.7314 560 138.555 564.136 472.973
875 0 54.5949 15.3861 840 132.269 563.825 468.31
876 0 55.3849 11.8985 659 139.41 562.109 468.085
877 0 58.4825 17.1162 1001 129.15 560.086 467.507
878 0 61.4031 14.7061 903 131.528 557.868 470.467
879 0 62.1968 20.6442 1284 122.183 556.935 466.593
880 0 64.2366 16.5482 1063 129.08 555.512 466.343
881 0 66.1278 14.3208 947 133.633 554.266 467.27
882 0 68.2162 15.9346 1087 131.835 553.103 461.986
883 0 71.1981 18.6522 1328 125.993 551.777 457.858
884 0 72.2204 15.4666 1117 131.512 550.497 457.739
885 0 75.2701 15.8894 1196 127.712 550.422 459.712
886 0 77.4382 14.6698 1136 131.711 549.538 457.19
887 0 77.2194 12.7559 985 140.762 549.629 453.196
888 1 39.0956 10.4615 409 139.829 547.9 471.658
889 0 44.2095 15.8111 699 124.874 548.567 472.781
890 0 47.2278 14.8853 703 130.095 547.319 468.331
891 0 52.589 14.3947 757 131.202 550.157 464.446
892 0 49.8134 14.6145 728 135.683 550.718 459.129
893 0 53.6577 15.3939 826 130.343 551.047 460.412
894 0 51.2226 12.3969 635 139.677 551.058 462.271
895 0 56.301 14.2626 803 131.619 552.643 462.721
896 0 56.3071 13.4619 758 133.537 554.735 458.906
897 0 57.4068 15.1724 871 132.321 556.375 456.788
898 0 61.3641 16.1495 991 135.022 558.357 456.11
899 0 65.1954 19.6793 1283 123.531 559.834 459.771
900 0 65.3156 15.9839 1044 134.309 561.27 456.647
901 0 67.3908 16.7085 1126 136.929 561.906 458.137
902 0 69.146 18.6128 1287 133.246 562.347 460.378
903 0 73.2477 15.9322 1167 140.495 563.13 458.266
904 1 40.1272 14.7032 590 137.354 563.183 475.373
905 0 38.0447 10.6717 406 146.724 563.283 475.783
906 0 36.0934 10.3066 372 150.011 562.239 475.011
907 0 39.047 13.4709 526 138.926 562.08 477.428
908 0 43.0817 13.2075 569 142.673 561.107 475.689
909 0 44.0593 13.4818 594 143.914 560.759 474.7
910 0 46.1462 16.2094 748 137.505 559.571 474.167
911 0 48.0945 16.9666 816 136.616 558.772 472.978
912 0 48.0429 15.9025 764 140.717 557.81 472.363
913 0 49.1081 16.7386 822 140.668 556.554 470.92
914 0 51.092 14.5424 743 145.401 554.898 470.353
915 0 51.0688 16.8009 858 140.254 553.769 470.171
916 0 54.0172 16.106 870 141.052 552.823 467.711
917 0 55.155 16.7347 923 139.632 552.151 464.831
918 0 56.031 13.4925 756 141.646 552.149 463.389
919 0 59.2297 17.7782 1053 132.35 552.685 462.709
920 0 59.3344 15.1683 900 141.308 551.863 461.627
921 0 61.236 15.6771 960 140.247 551.922 457.859
922 0 63.332 13.8477 877 144.351 551.674 457.133
923 0 66.1416 15.8297 1047 139.834 551.051 456.607
924 0 69.1868 19.2811 1334 132.478 551.967 452.103
925 0 72.2453 14.8383 1072 137.414 552.004 455.58
926 0 72.279 16.6715 1205 133.587 553.243 452.766
927 0 73.4871 16.7649 1232 133.593 554.518 450.565
928 0 79.5525 16.7939 1336 130.121 555.41 449.061
929 0 81.4647 16.498 1344 129.775 556.766 449.932
930 0 81.4172 15.5987 1270 135.133 559.683 446.878
931 0 86.2649 15.9393 1375 133.33 561.758 443.204
932 0 87.217 15.3525 1339 132.251 563.141 441.538
933 0 90.2537 13.9052 1255 135.194 565.127 445.553
934 0 94.4083 15.9308 1504 132.939 565.906 439.57
935 0 97.2735 16.9008 1644 129.973 565.858 442.863
936 1 51.3185 12.7634 655 136.383 565.98 463.618
937 0 53.3872 11.9504 638 141.464 566.525 464.782
938 0 55.4379 16.2344 900 134.559 567.311 463.173
939 0 56.3975 13.0325 735 142.642 566.339 464.392
940 0 59.3341 15.7414 934 138.703 565.877 461.756
941 0 61.1779 15.2016 930 140.698 565.532 464.287
942 0 62.2198 14.6738 913 142.99 564.28 462.71
943 0 65.1699 14.2857 931 144.035 563.52 464.266
944 0 71.1337 16.237 1155 139.155 562.874 460.468
945 0 71.0813 15.0954 1073 141.323 562.796 463.015
946 0 73.1414 15.0667 1102 143.436 561.004 458.413
947 0 76.2964 16.4097 1252 139.357 559.855 458.389
948 0 79.4515 15.0154 1193 142.793 559.012 455.753
949 0 81.2912 17.1113 1391 140.464 556.985 450.95
950 0 84.3728 15.8345 1336 143.579 555.371 447.379
951 0 85.4353 15.6961 1341 144.944 554.186 445.654
952 0 91.5857 17.0769 1564 137.484 554.144 446.393
953 0 92.365 15.1031 1395 139.978 554.158 444.091
954 0 96.7348 17.4808 1691 137.012 553.352 439.395
955 0 96.5725 14.3105 1382 146.314 552.921 438.53
956 0 99.3999 14.2153 1413 147.855 553.251 434.822
957 1 55.5338 11.7586 653 140.712 554.185 461.043
958 0 58.4014 14.349 838 138.764 554.152 456.274
959 0 58.2696 13.4375 783 138.822 555.201 454.976
960 0 62.4004 14.9999 936 132.368 555.564 456.687
961 0 62.1555 12.4687 775 133.926 556.232 459.759
962 0 64.2802 14.5613 936 133.265 558.585 453.567
963 0 69.1972 14.0324 971 135.384 560.297 453.881
964 0 70.1893 14.0192 984 135.929 560.949 453.638
965 0 70.3518 14.7971 1041 139.097 562.853 453.06
966 0 75.197 16.7959 1263 138.059 564.424 452.667
967 0 77.2348 14.4106 1113 138.363 565.83 450.903
968 0 77.2199 15.3846 1188 147.145 566.282 449.168
969 0 81.2343 13.3934 1088 150.708 566.956 451.825
970 0 83.314 14.4033 1200 149.439 567.097 448.192
971 1 46.1909 11.5607 534 149.659 568.67 471.185
972 0 45.1279 11.4563 517 150.468 568.379 471.638
973 0 49.1826 13.399 659 146.416 567.273 471.185
974 0 48.1811 11.5813 558 157.163 566.597 469.556
975 0 49.347 13.2734 655 152.629 565.545 468.159
976 0 52.4094 13.4327 704 152.358 564.175 470.054
977 0 55.1686 15.3892 849 148.58 562.251 468.69
978 0 55.1098 13.464 742 153.683 562.032 466.991
979 0 60.0938 14.7603 887 149.443 561.257 467.776
980 0 62.113 15.0049 932 148.317 559.13 466.496
981 0 63.1415 15.6316 987 147.058 557.468 465.057
982 0 64.115 12.3528 792 155.292 556.847 463.888
983 0 68.2288 15.3747 1049 147.715 555.766 460.487
984 0 70.1694 15.8474 1112 146.292 554.409 458.076
985 0 72.2724 15.3447 1109 145.65 553.525 453.066
986 0 73.169 12.6556 926 149.863 552.492 452.633
987 0 78.458 15.7792 1238 137.473 551.472 453.231
988 0 80.3517 15.8926 1277 137.749 551.554 453.16
989 1 36.2318 10.8468 393 144.659 551.802 469.288
990 0 40.1051 13.1156 526 137.856 552 467.205
991 0 41.1228 11.5994 477 138.765 552.549 467.268
992 0 42.0876 11.8325 498 141.592 553.245 465.926
993 0 44.216 12.3032 544 139.246 553.926 462.208
994 0 45.2127 13.8235 625 137.317 554.866 461.749
995 0 46.2632 13.1854 610 137.47 555.926 461.744
996 0 49.1716 16.4526 809 131.194 557.791 460.587
997 0 49.1219 16.225 797 129.068 559.573 459.546
998 0 51.2267 17.0614 874 127.595 561.863 457.04
999 0 52.0792 15.3036 797 135.169 563.196 456.742
1000 0 53.3325 16.7815 895 132.769 565.094 457.962
1001 0 57.1537 17.7241 1013 131.993 565.996 457.947
1002 0 59.3439 16.7161 992 135.243 566.464 456.534
1003 0 60.1459 15.0634 906 141.627 566.637 457.295
1004 0 61.2252 14.9612 916 150.675 566.853 456.227
1005 0 65.4812 16.1573 1058 144.035 567.128 458.277
1006 0 65.4734 18.267 1196 144.054 566.773 457.016
1007 0 65.5639 15.2676 1001 155.782 566.397 454.17
1008 0 70.4728 18.83 1327 143.493 566.613 459.267
1009 0 72.5784 15.9689 1159 152.173 565.657 457.032
1010 0 75.4399 17.6697 1333 148.674 564.323 455.045
1011 0 76.3749 14.9133 1139 157.271 563.032 453.028
1012 0 76.654 15.6417 1199 157.157 562.031 454.657
1013 0 81.4583 16.6343 1355 155.571 561.069 452.272
1014 0 86.6385 18.4214 1596 148.158 559.113 452.912
1015 1 42.316 9.21637 390 162.723 557.874 471.656
1016 0 49.5589 11.784 584 149.55 557.116 473.057
1017 0 45.5178 10.9627 499 156.096 555.701 470.974
1018 0 47.3962 12.7225 603 152.527 554.776 469.949
1019 0 49.3398 14.7346 727 150.327 554.135 465.843
1020 0 52.246 14.1638 740 151.927 553.622 466.247
1021 0 52.1015 17.2356 898 144.742 552.873 463.929
1022 0 57.3319 15.8027 906 147.29 552.784 463.188
1023 0 56.2902 14.372 809 152.77 552.716 462.197
1024 0 60.1549 15.0445 905 150.048 552.975 461.495
1025 0 62.2906 15.1227 942 148.634 553.699 459.518
1026 0 66.2985 15.8224 1049 148.223 553.994 459.638
1027 0 64.4536 13.9015 896 158.244 554.599 456.602
1028 0 67.4896 14.2689 963 156.735 555.393 457.83
1029 0 70.3463 14.5281 1022 155.208 556.655 457.515
1030 0 72.2424 15.0466 1087 156.349 557.626 456.662
1031 0 74.4452 14.7357 1097 159.194 559.377 454.368
1032 0 76.4849 14.3558 1098 164.032 561.097 453.146
1033 0 79.4704 15.9305 1266 159.246 563.258 453.335
1034 0 82.5075 15.6592 1292 159.849 563.829 451.668
1035 0 84.5511 16.7118 1413 158.05 564.852 450.868
1036 0 88.4322 15.4808 1369 160.419 565.188 452.251
1037 1 50.1807 9.86436 495 161.198 566.394 472.891
1038 0 53.0536 12.5722 667 157.289 565.939 472.69
1039 0 54.1707 11.2607 610 164.161 565.675 469.579
1040 0 56.1915 11.1405 626 164.84 565.222 468.113
1041 0 59.2865 12.7516 756 158.675 564.183 464.095
1042 0 61.1464 13.1488 804 159.425 563.887 468.07
1043 0 63.1931 14.9067 942 154.72 561.758 466.783
1044 0 66.0609 14.3504 948 154.035 561.456 469.101
1045 0 67.2353 12.6422 850 156.902 559.208 467.555
1046 0 70.1083 12.0385 844 160.57 556.951 463.944
1047 0 71.2019 12.2609 873 156.851 553.296 461.592
1048 0 76.0759 15.524 1181 146.105 551.511 462.077
1049 0 78.2914 14.28 1118 149.664 550.61 456.345
1050 0 79.1019 14.3865 1138 148.607 549.084 457.476
1051 0 84.2882 15.9334 1343 144.735 549.061 454.062
1052 0 86.1652 13.4741 1161 149.247 550.724 449.331
1053 0 87.0757 12.7131 1107 151.42 549.103 448.063
1054 1 47.0141 12.1028 569 140.531 547.663 469.889
1055 0 48.0551 10.3423 497 140.698 547.241 467.302
1056 0 50.2536 12.2379 615 142.14 547.363 460.163
1057 0 52.1071 9.28856 484 141.886 553.031 464.287
1058 0 52.1364 11.8919 620 145.874 552.279 459.59
1059 0 58.0885 14.2541 828 136.909 553.472 456.789
1060 0 58.1528 12.8627 748 147.156 549.316 456.352
1061 0 58.2728 12.819 747 148.712 552.859 454.355
1062 0 62.0963 14.1393 878 143.393 555.23 454.114
1063 0 64.0848 11.36 728 148.799 558.225 452.819
1064 0 67.0797 13.6107 913 141.204 559.541 450.567
1065 0 70.1802 14.8047 1039 137.936 560.834 450.955
1066 0 70.1346 14.629 1026 140.982 562.489 449.805
1067 0 75.2251 14.0246 1055 143.095 563.786 450.545
1068 0 77.1289 14.9749 1155 140.808 565.446 449.412
1069 0 78.1842 14.4275 1128 141.859 566.975 450.156
1070 0 81.1843 12.2438 994 151.042 567.388 450.759
1071 0 84.0861 15.1749 1276 145.985 568.148 447.767
1072 0 84.111 13.185 1109 152.209 568.243 448.413
1073 0 86.1095 14.6906 1265 149.098 568.471 446.515
1074 0 90.0957 13.9296 1255 151.745 568.157 445.224
1075 0 94.1032 14.9198 1404 148.699 567.239 446.757
1076 0 98.127 16.6315 1632 145.423 566.979 444.337
1077 0 98.1803 14.1984 1394 153.052 566.338 442.213
1078 0 104.237 15.1578 1580 149.127 565.646 442.194
1079 0 106.155 14.705 1561 151.181 565.053 441.071
1080 0 112.138 15.6236 1752 148.265 563.815 436.331
1081 0 116.251 17.2213 2002 144.492 562.121 435.338
1082 1 52.0842 10.4062 542 144.548 560.129 469.006
1083 0 53.0373 11.4448 607 139.354 558.57 465.163
1084 0 55.0385 12.1188 667 138.997 557.51 467.21
1085 0 57.1263 10.1705 581 143.943 554.11 462.258
1086 0 59.086 14.6228 864 129.789 552.63 460.956
1087 0 59.1906 13.1102 776 132.274 551.597 459.318
1088 0 64.1753 13.4631 864 132.707 551.132 457.374
1089 0 66.1621 14.132 935 130.643 550.244 453.426
1090 1 34.029 10.7555 366 134.44 550.115 467.902
1091 0 36.1023 9.94397 359 134.304 550.139 466.819
1092 0 39.1534 11.4677 449 128.14 551.167 466.183
1093 0 40.1005 12.1944 489 129.249 551.264 465.751
1094 0 41.0341 10.2841 422 132.801 553.789 464.882
1095 0 42.0923 12.1875 513 134.388 554.283 462.731
1096 0 43.0838 10.7929 465 138.394 556.224 461.787
1097 0 44.0277 13.5142 595 134.097 555.603 459.857
1098 0 46.2041 11.8171 546 130.255 558.604 461.438
1099 0 48.2257 12.6488 610 127.879 560.674 462.272
1100 0 47.1146 11.5675 545 136.589 562.404 460.44
1101 0 52.1799 16.6539 869 124.687 565.334 461.074
1102 0 51.4559 13.2152 680 132.975 566.225 460.676
1103 0 52.332 13.2806 695 137.401 567.445 458.837
1104 0 53.4532 13.4697 720 136.051 566.636 460.247
1105 0 57.3213 12.7178 729 136.162 567.129 462.562
1106 0 56.3945 13.246 747 138.34 567.714 461.375
1107 0 58.3 15.9348 929 134.278 567.038 460.82
1108 0 62.4404 16.6879 1042 132.572 565.779 460.774
1109 0 62.2739 15.9296 992 133.293 564.886 465.854
1110 0 63.3288 10.8166 685 143.251 564.345 464.241
1111 0 68.2916 16.1367 1102 133.005 563.45 461.261
1112 0 69.335 17.5957 1220 132.479 562.09 459.481
1113 0 72.2498 14.9066 1077 136.171 560.609 463.199
1114 0 75.3473 14.1876 1069 140.379 558.964 458.512
1115 0 76.368 14.7837 1129 140.314 557.175 456.516
1116 0 79.3709 14.6401 1162 137.707 555.684 452.094
1117 0 82.2435 12.9129 1062 141.246 553.952 452.234
1118 1 48.0272 14.8041 711 131.744 555.909 471.339
1119 0 44.0465 10.716 472 140.597 553.85 472.892
1120 0 49.0642 13.2887 652 132.775 552.75 473.155
1121 0 51.0716 11.1217 568 138.023 552.597 469.952
1122 0 50.0816 11.0619 554 139.603 553.805 467.206
1123 0 50.0577 12.3058 616 135.571 553.224 468.292
1124 0 54.1162 13.7482 744 132.598 552.192 463.411
1125 0 56.3161 13.0691 736 133.74 552.288 462.822
1126 0 57.0626 14.7207 840 134.836 553.214 461.437
1127 0 60.0459 13.473 809 134.99 553.692 462.471
1128 0 58.0543 13.4874 783 140.937 553.529 458.92
1129 0 64.0659 16.3738 1049 132.204 554.738 457.263
1130 0 61.0597 13.6588 834 141.837 555.898 455.381
1131 0 66.0671 16.8465 1113 133.53 557.239 456.456
1132 0 66.0958 14.479 957 141.67 558.744 455.133
1133 0 73.5442 17.1326 1260 132.359 559.975 458.296
1134 0 72.0973 15.2017 1096 141.398 561.621 453.124
1135 0 74.102 15.1953 1126 139.989 563.025 456.836
1136 0 75.1185 14.6302 1099 142.876 564.202 455.325
1137 0 78.0967 16.0058 1250 141.276 564.258 452.03
1138 0 81.1473 16.1558 1311 141.661 564.467 450.725
1139 0 84.1203 16.5953 1396 141.151 564.064 451.602
1140 0 90.1468 19.1576 1727 134.625 563.265 450.53
1141 0 92.2032 17.2771 1593 139.817 563.583 450.743
1142 0 96.1429 17.5572 1688 140.3 562.578 448.641
1143 0 99.2228 15.7423 1562 143.752 561.25 445.072
1144 0 105.164 17.1066 1799 139.633 559.988 447.576
1145 1 55.1592 10.8776 600 146.043 557.982 471.608
1146 0 58.1442 11.8155 687 144.051 556.332 468.354
1147 0 62.4457 15.1331 945 136.703 554.093 465.75
1148 0 61.3384 12.8957 791 138.014 551.649 464.908
1149 0 61.2259 12.805 784 139.999 551.008 458.14
1150 0 65.0543 13.5579 882 138.332 549.381 459.264
1151 0 67.1863 15.5984 1048 131.918 548.491 457.186
1152 0 68.3298 13.6105 930 136.068 550.429 455.628
1153 0 73.3071 18.061 1324 122.119 550.028 454.102
1154 0 74.3767 14.3055 1064 131.396 549.759 451.511
1155 0 76.3121 12.3047 939 135.178 550.13 452.714
1156 0 77.3039 13.1041 1013 136.545 550.241 448.649
1157 0 79.2702 15.3904 1220 133.456 550.204 445.601
1158 0 81.3328 14.164 1152 136.755 550.605 444.129
1159 0 86.3817 12.9889 1122 136.68 551.357 444.127
1160 1 44.1505 11.9364 527 129.877 553.657 465.837
1161 0 48.0404 9.40875 452 139.268 555.069 460.9
1162 0 51.032 14.9318 762 123.27 555.467 461.104
1163 0 50.1532 10.8069 542 127.393 556.699 461.59
1164 0 53.0995 14.0491 746 121.276 559.422 461.409
1165 0 56.1127 14.6491 822 124.585 561.461 456.842
1166 0 56.2018 12.6508 711 128.813 558.931 458.018
1167 0 56.0369 15.7575 883 125.889 563.024 456.504
1168 0 55.0854 12.4171 684 134.942 562.101 457.969
1169 0 59.1358 16.4706 974 127.446 563.308 458.521
1170 0 59.1882 14.6989 870 134.997 563.964 455.869
1171 0 63.1868 15.9527 1008 132.436 564.233 457.174
1172 0 64.1132 14.0845 903 135.782 564.297 458.406
1173 0 66.0701 13.3343 881 137.143 563.456 458.478
1174 0 68.2146 13.2963 907 140.669 563.56 454.293
1175 0 72.1119 15.2541 1100 135.335 563.375 456.069
1176 0 72.0835 12.3191 888 142.285 562.604 456.905
1177 0 75.1069 11.9696 899 145.519 562.022 454.971
1178 0 77.231 12.8964 996 144.984 561.641 451.908
1179 0 79.1864 13.8408 1096 143.599 561.2 451.036
1180 0 83.1421 14.2166 1182 142.165 559.651 449.331
1181 0 88.21 16.5401 1459 137.097 558.208 449.296
1182 1 45.1157 10.6171 479 143.551 555.877 469.33
1183 0 49.0266 8.85234 434 144.389 553.899 470.085
1184 0 50.0765 10.5239 527 141.742 552.793 469.072
1185 0 52.1474 12.0044 626 140.708 551.928 463.133
1186 0 55.0658 10.7689 593 142.255 550.965 462.663
1187 0 56.0264 13.333 747 135.618 550.788 462.139
1188 0 58.2933 12.8317 748 136.821 551.37 457.016
1189 0 58.2993 12.8989 752 147.303 552.351 457.092
1190 0 61.1621 14.7313 901 133.019 550.408 455.541
1191 0 61.4193 14.6697 901 132.062 549.855 451.578
1192 0 62.3048 14.9748 933 134.145 550.268 449.299
1193 0 67.1648 16.735 1124 128.158 549.46 449.101
1194 0 68.1791 13.6552 931 132.203 550.585 447.774
1195 0 70.1817 12.9948 912 133.084 552.539 445.526
1196 0 73.0927 18.2371 1333 125.507 554.28 447.032
1197 0 78.1636 17.2971 1352 121.914 555.974 443.601
1198 0 75.121 12.5664 944 130.423 557.64 443.793
1199 0 78.1239 12.621 986 132.557 559.135 440.637
1200 0 82.0779 11.9643 982 134.947 560.84 443.163
1201 0 88.3187 19.1126 1688 118.857 562.841 446.712
1202 0 87.0675 17.5496 1528 125.247 563.802 441.467
1203 1 45.0793 10.4704 472 128.21 563.924 465.892
1204 0 47.0763 10.0263 472 134.225 564.15 462.78
1205 0 50.0766 11.782 590 130.775 564.52 463.307
1206 0 51.1137 15.4362 789 124.165 564.772 463.402
1207 0 50.2447 12.9168 649 130.354 563.854 462.502
1208 0 53.0867 12.8092 680 131.566 563.824 462.378
1209 0 52.0199 13.0527 679 132.953 563.29 463.866
1210 0 56.0823 13.0523 732 131.5 563.158 464.792
1211 0 55.1329 13.3858 738 133.141 561.726 463.481
1212 0 60.0692 15.865 953 127.148 560.433 463.569
1213 0 61.0781 14.064 859 131.917 558.733 463.014
1214 0 61.1019 14.4513 883 134.174 557.938 460.084
1215 0 64.0665 14.3601 920 133.703 556.003 461.173
1216 0 66.0874 14.5716 963 135.043 555.235 458.655
1217 0 71.1657 16.7778 1194 129.232 554.373 459.908
1218 0 71.1078 15.5539 1106 134.718 553.21 455.812
1219 0 74.0878 15.6166 1157 132.709 551.727 456.102
1220 0 74.0835 14.0382 1040 137.54 551.306 453.156
1221 0 76.096 14.7314 1121 138.839 550.877 451.643
1222 1 42.0556 10.3435 435 136.952 553.069 470.717
1223 0 44.0965 9.72867 429 140.578 554.674 464.837
1224 0 46.0722 9.63704 444 136.318 553.908 464.653
1225 0 45.0729 13.2008 595 130.353 554.408 464.15
1226 0 50.1288 11.2909 566 130.413 554.456 464.189
1227 0 49.1089 12.5232 615 132.107 554.468 462.672
1228 0 53.042 11.6511 618 136.061 554.618 462.773
1229 0 51.2696 13.2827 681 130.28 552.683 457.781
1230 0 51.2742 12.1504 623 133.101 554.026 458.299
1231 0 54.1548 13.4614 729 133.176 555.977 460.505
1232 0 56.289 14.2124 800 127.82 557.634 461.819
1233 0 55.1539 12.5467 692 136.295 559.314 459.834
1234 0 58.0909 13.7371 798 137.747 561.18 457.4
1235 0 59.1097 16.2241 959 132.777 562.479 458.651
1236 0 61.1117 13.369 817 136.494 564.013 463.39
1237 0 63.1848 22.8536 1444 119.378 564.785 462.74
1238 0 65.1827 15.9705 1041 134.181 564.338 458.571
1239 0 67.1862 16.2831 1094 133.596 564.659 459.224
1240 0 71.1741 14.5699 1037 136.989 564.095 461.072
1241 0 72.3179 13.6481 987 139.754 563.972 461.326
1242 0 75.1334 14.6672 1102 137.498 563.128 461.397
1243 0 75.1956 14.695 1105 140.842 562.537 457.104
1244 0 79.1303 16.1885 1281 135.432 561.996 456.721
1245 0 81.2688 15.7379 1279 136.728 560.222 455.534
1246 0 87.1238 18.5598 1617 129.801 558.637 454.431
1247 0 88.1929 14.7177 1298 138.965 557.964 450.064
1248 0 91.1559 15.1608 1382 136.557 558.027 454.194
1249 1 45.052 14.0282 632 135.169 557.801 471.604
1250 0 48.0694 11.7747 566 137.401 556.719 474.016
1251 0 48.2542 10.424 503 140.791 555.165 471.565
1252 0 47.2066 11.3332 535 140.121 552.258 470.6
1253 0 52.2926 13.2906 695 134.624 552.191 468.535
1254 0 53.204 15.3184 815 131.297 552.591 467.042
1255 0 54.1184 16.9628 918 126.32 552.751 470.08
1256 0 55.1214 13.4975 744 133.875 552.228 466.181
1257 0 58.0884 14.0648 817 132.279 551.572 465.624
1258 0 58.1299 14.0891 819 133.601 551.939 463.431
1259 0 60.2466 11.9509 720 135.108 551.819 459.319
1260 0 63.2886 14.9632 947 128.467 551.329 458.29
1261 0 64.2371 15.3805 988 132.304 551.433 457.686
1262 0 65.2924 15.2391 995 131.916 552.361 456.408
1263 0 66.1706 14.3266 948 137.237 553.624 454.406
1264 0 67.2431 13.191 887 144.246 555.239 454.356
1265 0 72.2335 17.3742 1255 132.422 556.445 456.33
1266 0 73.1986 15.9156 1165 139.772 558.331 455.004
1267 0 77.169 17.7403 1369 135.535 560.18 455.825
1268 0 79.1583 15.7659 1248 142.026 561.849 453.901
1269 0 80.2159 13.5883 1090 150.005 562.823 449.653
1270 0 81.1813 14.9172 1211 147.27 562.89 452.958
1271 0 84.1868 15.1568 1276 144.756 563.972 453.782
1272 0 88.2655 16.0878 1420 145.873 563.397 452.454
1273 1 49.1534 10.986 540 148.631 563.704 472.931
1274 0 51.075 14.1165 721 143.685 563.734 471.845
1275 0 53.163 10.8346 576 148.399 563.247 473.66
1276 0 54.1577 15.381 833 141.484 562.283 469.258
1277 0 56.058 15.1094 847 141.914 562.198 470.011
1278 0 59.1048 16.5638 979 137.476 560.197 468.063
1279 0 61.0796 14.0473 858 144.054 559.001 469.138
1280 0 63.1203 14.7813 933 141.439 558.039 468.347
1281 0 67.3215 15.983 1076 138.928 555.826 465.914
1282 0 67.3105 16.357 1101 138.233 554.738 467.687
1283 0 73.3828 18.3013 1343 130.959 553.468 469.518
1284 0 71.4069 13.8082 986 145.471 552.425 463.136
1285 0 73.2721 15.1354 1109 143.66 551.302 458.911
1286 0 76.3669 15.3208 1170 141.891 550.609 459.263
1287 0 81.3824 17.682 1439 135.726 550.15 455.873
1288 0 81.264 15.7511 1280 141.072 549.72 456.878
1289 0 82.3071 16.159 1330 140.944 549.013 455.429
1290 0 84.4747 17.6976 1495 138.544 548.935 449.314
1291 1 47.0846 12.1696 573 145.305 549.277 468.52
1292 0 49.2357 8.95691 441 150.748 548.635 470.732
1293 0 47.197 10.488 495 149.818 549.491 469.41
1294 0 51.2356 13.233 678 141.519 549.223 467.258
1295 0 53.1605 13.8449 736 142.143 550.712 465.822
1296 0 54.1748 13.641 739 144.582 550.683 466.014
1297 0 55.3261 13.1403 727 140.938 551.594 460.525
1298 0 57.3853 14.5159 833 139.773 552.912 456.966
1299 0 58.1835 13.4402 782 141.294 553.85 458.412
1300 0 61.2176 13.6889 838 141.147 555.067 455.686
1301 0 63.2872 15.4376 977 136.228 556.899 457.737
1302 0 66.1025 14.886 984 138.23 557.595 456.553
1303 0 70.2543 17.4936 1229 130.906 558.773 459.081
1304 0 69.1383 14.9121 1031 140.19 559.53 453.316
1305 0 70.1681 12.5128 878 143.633 559.301 458.598
1306 0 73.1679 15.4166 1128 138.574 559.633 454.651
1307 0 73.1652 11.2075 820 148.905 558.826 456.105
1308 0 78.1566 14.1511 1106 141.022 559.029 457.809
1309 0 80.182 15.2528 1223 138.316 558.708 457.495
1310 0 87.1569 17.9905 1568 131.071 558.01 455.126
1311 0 90.181 15.7461 1420 135.398 557.101 455.17
1312 1 48.0312 9.18153 441 139.082 555.476 476.56
1313 0 50.1325 12.1079 607 134.921 554.133 474.942
1314 0 49.1187 10.0369 493 139.375 552.217 472.314
1315 0 50.1114 11.1751 560 137.532 551.146 470.236
1316 0 53.4611 12.1023 647 134.875 550.291 468.856
1317 0 57.3075 13.9947 802 128.998 549.041 467.791
1318 0 56.2647 11.7303 660 133.579 547.608 465.62
1319 0 58.1017 13.7517 799 128.591 546.877 463.115
1320 0 61.1979 17.0594 1044 122.602 546.415 461.783
1321 0 62.1095 17.6946 1099 120.345 546.126 460.38
1322 0 64.0782 13.1714 844 126.353 545.682 456.205
1323 0 65.1541 12.4935 814 131.092 545.131 454.123
1324 0 71.2179 16.7233 1191 118.187 545.301 450.799
1325 0 69.1743 12.3167 852 127.838 545.173 454.222
1326 0 74.1428 13.6628 1013 126.96 545.64 449.424
1327 0 76.1073 14.2299 1083 124.055 546.259 450.572
1328 0 79.1792 15.1176 1197 122.087 546.873 449.744
1329 1 43.1133 12.4556 537 123.592 547.492 464.7
1330 0 47.1956 11.6113 548 123.367 548.549 465.569
1331 0 46.0892 12.7796 589 121.124 551.453 463.65
1332 0 49.0577 10.6201 521 127.645 552.313 463.223
1333 0 48.1133 13.0317 627 122.986 554.1 464.013
1334 0 52.1244 13.3527 696 126.672 556.361 462.96
1335 0 52.0596 10.8914 567 134.693 557.462 457.42
1336 0 52.1715 12.3631 645 131.633 562 459.878
1337 0 51.0583 10.2236 522 136.722 562.307 462.456
1338 0 54.1987 12.8232 695 128.573 563.086 464.744
1339 0 57.1652 10.8283 619 132.137 562.677 464.334
1340 0 59.1382 14.1533 837 127.956 562.269 462.659
1341 0 62.1076 13.058 811 129.666 562.127 464.662
1342 0 63.105 12.709 802 132.976 561.505 462.251
1343 0 64.1744 15.4111 989 129.465 561.488 461.417
1344 0 67.1931 12.2185 821 133.608 560.365 462.814
1345 0 69.3263 14.3236 993 131.012 559.052 457.808
1346 0 73.2985 13.2472 971 133.589 557.395 460.392
1347 0 75.2756 14.3207 1078 132.254 556.273 459.044
1348 0 77.2678 15.4657 1195 132.414 554.785 456.008
1349 0 79.3348 15.819 1255 132.045 553.406 452.439
1350 0 83.3323 13.7882 1149 135.519 552.406 456.613
1351 0 84.4011 14.9643 1263 136.832 551.074 450.527
1352 0 86.2927 18.9703 1637 128.184 549.849 447.5
1353 0 88.2495 15.4675 1365 133.49 549.127 445.553
1354 1 51.159 10.7703 551 131.497 550.593 469.087
1355 0 48.2339 8.74903 422 133.031 550.367 468.064
1356 0 52.2341 12.6163 659 130.531 549.226 463.768
1357 0 52.2073 12.6419 660 125.93 549.642 463.95
1358 0 57.3133 11.9867 687 125.381 549.371 462.207
1359 0 58.1045 13.7511 799 126.453 548.864 459.001
1360 0 60.2437 14.3583 865 125.717 549.173 456.421
1361 0 62.4191 13.3293 832 127.544 550.475 455.677
1362 0 62.2734 14.2276 886 121.658 551.377 454.972
1363 0 67.3035 14.5163 977 122.349 552.522 455.05
1364 0 64.2666 14.1286 908 141.767 554.489 453.722
1365 0 69.2442 14.5861 1010 123.194 554.929 450.793
1366 0 71.2475 14.3444 1022 124.359 556.873 449.755
1367 0 70.2682 12.6515 889 130.807 558.33 447.636
1368 0 77.3479 15.8246 1224 124.752 560.023 451.09
1369 0 77.2904 11.7091 905 134.735 560.89 452.129
1370 0 77.1741 12.4135 958 135.66 562.085 448.787
1371 0 82.481 14.8034 1221 129.761 562.868 449.718
1372 0 84.2729 13.5512 1142 135.317 562.787 446.36
1373 0 87.4172 13.8302 1209 134.156 562.171 445.731
1374 1 49.1333 11.825 581 129.597 563.687 468.477
1375 0 51.1264 13.496 690 128.254 563.245 468.219
1376 0 51.0603 12.1033 618 128.971 561.118 471.948
1377 0 50.1934 11.4955 577 132.771 559.466 467.393
1378 0 50.2042 12.2898 617 131.554 559.339 461.488
1379 0 56.1165 16.5192 927 121.124 556.918 466.933
1380 0 56.096 12.9064 724 129.836 556.823 466.75
1381 0 57.1785 13.4491 769 129.01 557.434 462.108
1382 0 61.1523 15.2079 930 125.068 555.773 462.229
1383 0 61.1757 13.2896 813 130.166 554.346 458.918
1384 0 65.2544 13.4703 879 129.792 553.321 459.386
1385 0 67.1799 13.9923 940 128.012 552.248 458.026
1386 0 69.426 14.159 983 127.865 551.77 455.984
1387 0 73.349 15.1468 1111 122.113 550.77 454.717
1388 0 74.2456 13.7651 1022 124.593 550.772 453.682
1389 0 75.338 14.0168 1056 130.193 549.91 447.084
1390 0 79.3613 18.4221 1462 122.207 550.251 449.534
1391 0 79.1701 14.753 1168 130.99 550.113 445.846
1392 0 84.3581 14.8889 1256 127.536 550.106 444.646
1393 0 84.2554 12.1654 1025 134.264 550.501 444.908
1394 0 88.2061 17.1077 1509 123.925 551.784 440.434
1395 1 48.0684 10.4435 502 132.253 553.869 464.458
1396 0 51.1076 8.23752 421 136.772 554.399 461.247
1397 0 53.0756 10.4379 554 135.783 555.209 462.069
1398 0 57.0782 12.9296 738 132.049 557.228 464.378
1399 0 55.0643 13.4025 738 140.066 558.923 458.855
1400 0 56.101 12.7449 715 143.648 560.548 461.09
1401 0 59.1488 13.2209 782 139.217 563.17 462.176
1402 0 60.223 14.1972 855 141.065 563.951 461.909
1403 0 64.1283 15.8276 1015 135.689 564.59 460.869
1404 0 67.1588 15.3368 1030 137.948 564.617 461.69
1405 0 67.1705 13.0563 877 145.343 565.298 459.901
1406 0 70.3332 16.365 1151 136.628 564.565 461.139
1407 0 72.1686 14.4384 1042 142.406 564.378 461.228
1408 0 77.2321 17.0913 1320 135.877 564.357 462.422
1409 0 81.1601 16.4736 1337 137.268 563.298 462.104
1410 0 82.2885 17.0133 1400 138.631 563.023 457.344
1411 0 86.2666 17.898 1544 138.061 561.433 458.08
1412 0 87.1855 15.5645 1357 143.78 559.267 460.169
1413 1 48.1001 12.7651 614 144.537 557.963 480.103
1414 0 49.1255 14.2696 701 141.208 556.598 479.304
1415 0 50.0605 13.5636 679 142.845 555.424 478.222
1416 0 51.0321 13.6777 698 142.203 554.788 476.12
1417 0 52.1525 14.5727 760 145.228 552.986 471.513
1418 0 52.1825 14.3535 749 146.016 550.151 475.729
1419 0 58.1556 15.8884 924 142.57 549.196 470.231
1420 0 58.1666 14.8711 865 145.207 548.362 470.956
1421 0 61.2609 17.3683 1064 139.478 548.514 468.035
1422 0 60.3532 15.8898 959 144.125 547.777 467.212
1423 0 62.2131 14.7718 919 146.857 547.899 465.838
1424 0 61.327 13.8275 848 150.105 547.738 462.754
1425 0 62.1672 15.2974 951 146.479 548.15 461.671
1426 0 67.1597 18.255 1226 138.959 548.667 461.64
1427 0 69.1575 15.5442 1075 145.616 548.897 460.01
1428 0 70.1142 15.5889 1093 146.428 548.844 460.096
1429 0 75.1974 15.8516 1192 145.974 549.924 459.669
1430 0 73.2431 16.3292 1196 148.487 550.773 456.982
1431 0 75.2727 17.4432 1313 147.02 551.842 455.461
1432 0 78.2484 15.3102 1198 153.294 553.656 456.391
1433 0 81.2167 16.3883 1331 150.664 555.011 454.839
1434 0 84.2805 18.4384 1554 147.301 555.99 449.693
1435 0 86.2526 16.9038 1458 151.23 557.664 450.096
1436 0 91.3154 14.9153 1362 155.056 558.996 453.093
1437 1 47.0278 10.0154 471 167.055 557.813 467.361
1438 0 52.2043 13.8686 724 155.104 559.898 464.898
1439 0 52.3129 13.6869 716 154.947 559.791 465.663
1440 0 54.0767 13.3884 724 153.667 561.198 467.968
1441 0 56.0978 14.1004 791 151.766 560.56 470.014
1442 0 60.1213 15.186 913 149.07 559.82 468.952
1443 0 60.1934 15.6163 940 149.22 558.722 467.564
1444 0 64.1589 17.8775 1147 144.188 558.105 467.749
1445 0 65.0322 14.7465 959 155.901 556.48 467.293
1446 0 67.1153 15.8235 1062 154.96 554.791 466.457
1447 0 69.2446 14.3982 997 159.945 553.752 463.587
1448 0 72.2031 15.1517 1094 158.248 552.305 462.405
1449 0 75.2033 15.9567 1200 157.002 551.201 458.309
1450 1 40.1037 10.7222 430 160.795 549.867 475.63
1451 0 43.2708 12.9649 561 151.412 549.72 476.51
1452 0 42.0722 11.5753 487 158.103 548.495 473.326
1453 0 44.1914 12.1743 538 151.838 547.909 473.937
1454 0 44.1353 12.5297 553 152.325 548.492 472.533
1455 0 47.1397 11.9644 564 155.447 548.525 469.936
1456 0 48.0521 13.527 650 153.271 548.483 468.642
1457 0 48.1972 13.1128 632 159.992 548.059 466.233
1458 0 49.0918 13.7294 674 158.651 548.537 464.53
1459 0 54.0507 12.6733 685 158.216 548.05 464.27
1460 0 53.0433 15.1197 802 153.135 548.994 463.395
1461 0 55.0477 14.8962 820 155.641 550.44 462.734
1462 0 57.0314 17.692 1009 150.247 551.228 460.917
1463 0 58.0782 15.3242 890 152.702 552.755 461.719
1464 0 59.0706 13.6447 806 156.2 554.443 458.547
1465 0 61.0855 13.8658 847 156.332 555.981 458.26
1466 0 63.0791 14.6166 922 162.165 558.077 457.401
1467 0 67.1467 18.0649 1213 149.829 559.8 456.227
1468 0 70.0867 15.9374 1117 155.171 562.148 456.956
1469 0 70.0768 14.6696 1028 160.304 562.696 454.562
1470 0 74.2174 15.8858 1179 155.834 563.479 455.586
1471 0 73.127 15.3705 1124 159.388 564.852 457.231
1472 1 38.0584 10.0897 384 164.26 565.18 474.529
1473 0 44.0819 9.52771 420 165.371 565.386 474.136
1474 0 43.0375 10.9439 471 160.605 565.178 474.106
1475 0 45.0675 9.85189 444 160.599 565.153 475.617
1476 0 49.0765 12.7148 624 155.958 565.256 473.096
1477 0 49.0743 11.7373 576 160.842 564.302 471.583
1478 0 51.0956 13.6998 700 156.34 563.376 471.846
1479 0 50.1625 13.6556 685 158.016 559.826 469.734
1480 0 56.1254 14.6992 825 152.56 558.152 469.807
1481 0 55.112 16.7296 922 148.126 556.984 469.142
1482 0 57.2918 14.976 858 152.128 555.503 469.353
1483 0 57.1028 15.1656 866 154.85 554.987 466.323
1484 0 61.2096 17.4973 1071 145.323 553.859 467.647
1485 0 61.1033 16.9549 1036 149.122 552.962 463.816
1486 0 61.1267 16.6048 1015 149.567 551.754 459.915
1487 0 64.0955 14.8684 953 152.474 550.72 460.155
1488 0 67.1664 16.541 1111 146.212 549.483 457.815
1489 0 70.116 15.6455 1097 146.508 549.153 456.137
1490 0 71.2237 15.9498 1136 148.586 549.557 451.684
1491 0 72.1483 15.2741 1102 148.767 549.269 452.978
1492 0 77.1348 15.8424 1222 146.858 549.112 450.185
1493 0 78.1497 16.4172 1283 148.116 549.408 446.018
1494 0 82.1366 16.0221 1316 145.679 549.718 447.695
1495 0 82.1292 17.2411 1416 147.112 550.32 443.614
1496 0 86.1454 15.648 1348 144.94 551.191 442.611
1497 1 46.2033 11.839 547 144.79 555.402 463.932
1498 0 46.1228 8.45569 390 157.023 557.485 462.636
1499 0 51.1537 14.994 767 141.349 558.638 460.947
1500 0 52.1636 14.2628 744 144.903 559.778 460.136
1501 0 51.0999 13.1116 670 150.437 561.49 458.096
1502 0 54.167 13.8092 748 148.75 563.083 459.721
1503 0 56.0869 13.3186 747 149.141 563.774 459.182
1504 0 58.1535 15.1324 880 145.609 564.736 458.807
1505 0 60.0888 15.111 908 146.359 565.297 460.524
1506 0 63.0439 17.1468 1081 141.253 566.098 459.759
1507 0 64.1365 15.1708 973 146.531 565.938 459.9
1508 0 66.1198 15.7744 1043 146.453 565.655 459.895
1509 0 68.0844 13.2483 902 150.783 565.105 459.557
1510 0 72.0796 15.4135 1111 146.361 564.487 458.063
1511 0 72.2076 15.774 1139 147.548 564.067 458.019
1512 0 75.2344 14.0228 1055 151.558 563.245 455.633
