time division length width area intensity CMx CMy
0 0 45.2498 14.21 643 130.989 284.174 454.415
1 1 101.61 15.835 1609 128.498 286.402 433.13
2 1 52.0618 10.9869 572 130.551 285.68 456.128
3 0 53.0953 16.3103 866 120.617 285.794 461.225
4 0 56.3146 13.1937 743 124.167 287.658 458.179
5 0 59.3357 22.2463 1320 113.762 288.15 460.513
6 0 59.4906 13.4979 803 129.263 287.878 455.53
7 0 58.1947 16.3589 952 130.777 286.305 454.589
8 0 63.1542 18.0986 1143 133.787 284.758 456.248
9 0 64.1007 14.1028 904 144.423 284.147 455.7
10 0 67.3335 14.9406 1006 143.815 283.559 455.008
11 0 67.1933 14.1978 954 149.971 282.232 452.512
12 0 68.3801 12.8985 882 156.449 281.636 453.886
13 0 71.2173 15.2351 1085 154.705 280.968 449.35
14 0 77.2252 15.7332 1215 155.384 279.693 451.345
15 0 80.2557 16.9957 1364 152.327 277.558 450.93
16 1 41.0134 11.7523 482 156.046 277.203 468.479
17 0 42.0758 10.6712 449 162.63 274.71 466.668
18 0 42.1495 7.7581 327 171.284 273.523 464.896
19 0 44.0319 12.173 536 156.42 273.394 465.112
20 0 47.0806 12.383 583 159.178 271.976 460.516
21 0 48.1335 13.8781 668 153.748 270.29 461.846
22 0 50.0975 14.6115 732 151.989 271.399 458.404
23 0 51.1697 14.4617 740 158.569 269.462 458.054
24 0 53.1411 14.4897 770 155.347 269.934 457.726
25 0 55.2814 13.5308 748 161.281 268.773 453.848
26 0 58.3398 15.7354 918 154.109 268.886 451.376
27 0 58.4136 14.8596 868 155.486 269.244 452.659
28 0 60.3523 13.5537 818 156.751 270.258 448.172
29 0 63.5331 16.5268 1050 146.461 272.311 448.415
30 0 64.352 15.4929 997 149.864 273.754 446.943
31 0 67.272 14.7312 991 147.053 276.371 446.241
32 0 69.3017 14.1988 984 144.723 278.022 445.965
33 0 72.5011 15.5032 1124 138.516 279.252 446.847
34 0 75.4304 16.3329 1232 135.008 281.348 448.562
35 0 77.3511 17.1167 1324 131.552 282.877 443.923
36 0 79.2104 15.2758 1210 135.146 282.827 445.838
37 0 83.5494 18.4442 1541 129.017 283.281 444.21
38 0 83.4943 14.8393 1239 135.079 284.102 445.128
39 0 87.6541 16.1658 1417 132.862 284.058 440.785
40 0 86.3301 12.568 1085 141.403 283.825 446.57
41 0 91.3354 14.069 1285 140.545 283.81 445.517
42 0 93.2606 14.2933 1333 148.259 281.483 446.68
43 0 98.3056 17.5982 1730 137.486 281.366 445.003
44 1 55.2373 11.9485 660 143.409 279.786 466.203
45 0 55.128 11.1559 615 149.561 278.693 465.265
46 0 57.0684 12.0207 686 153.851 277.488 462.345
47 0 60.4374 12.7074 768 148.324 276.014 462.689
48 0 63.1574 13.8543 875 148.271 274.382 460.19
49 0 60.3764 10.6995 646 155.89 274.449 458.407
50 0 67.2981 14.3838 968 142.479 274.138 456.668
51 0 68.3463 17.426 1191 142.225 272.778 457.077
52 0 72.3644 16.0438 1161 144.418 270.726 455.308
53 0 74.4126 13.3714 995 150.39 270.077 451.232
54 0 77.3984 16.8867 1307 143.377 268.723 449.731
55 0 78.4044 15.2542 1196 146.83 268.657 448.957
56 0 80.4721 16.0801 1294 145.865 267.946 442.306
57 0 82.3794 14.591 1202 148.56 268.235 442.816
58 0 85.4198 14.3058 1222 148.445 267.772 442.387
59 0 86.4329 15.3298 1325 146.544 268.381 440.546
60 0 91.5342 14.104 1291 148.596 268.085 437.758
61 1 48.1333 12.0706 581 145.406 269.694 459.318
62 0 51.3173 10.7371 551 144.686 270.506 459.661
63 0 49.2418 9.7072 478 146.561 273.052 459.291
64 0 52.2163 13.0419 681 142.332 273.414 454.921
65 0 64.4713 13.6805 882 132.763 277.387 456.822
66 0 56.2361 13.3366 750 138.22 274.445 456.125
67 0 59.1753 14.9387 884 136.223 276.376 456.492
68 0 62.4124 17.6728 1103 129.277 277.143 455.15
69 0 62.1294 16.2242 1008 129.923 277.996 458.772
70 0 63.2503 15.1145 956 133.685 278.474 456.038
71 0 67.2313 16.8672 1134 130.332 280.034 453.083
72 0 70.2743 19.5804 1376 125.566 279.52 454.478
73 0 69.3573 13.6828 949 137.682 279.75 451.163
74 0 73.4489 14.4318 1060 138.153 280.14 454.77
75 0 76.4152 14.4212 1102 137.264 278.748 454.698
76 0 80.265 16.4455 1320 136.3 278.549 451.285
77 0 83.349 18.1886 1516 132.833 278.828 448.096
78 0 84.3915 13.9587 1178 141.337 277.627 446.437
79 0 89.4424 16.1892 1448 135.524 276.611 449.222
80 0 91.6017 17.6088 1613 132.715 275.501 444.893
81 0 95.4268 16.6725 1591 134.568 274.499 445.002
82 0 99.5724 20.1662 2008 128.226 272.943 440.044
83 1 52.1991 11.6477 608 136.84 270.546 467.007
84 0 51.2153 10.9928 563 135.467 269.92 468.773
85 0 53.1309 10.9164 580 138.652 268.64 465.793
86 0 55.471 12.2767 681 132.86 269.357 462.615
87 0 62.9306 15.8905 1000 127.166 267.918 458.054
88 0 59.6297 10.6323 634 140.229 269.006 459.159
89 0 57.2676 11.2978 647 139.425 267.003 456.195
90 0 63.4048 14.2418 903 132.316 266.854 453.021
91 0 66.4416 13.7263 912 132.106 266.261 453.578
92 0 66.2886 11.6762 774 137.561 267.236 450.043
93 0 73.6099 16.1391 1188 128.463 265.555 452.864
94 0 76.6972 14.994 1150 132.342 266.682 448.317
95 0 76.5064 16.6914 1277 131.523 267.755 444.852
96 0 77.8462 13.9506 1086 137.382 268.882 444.166
97 0 81.6525 15.3455 1253 135.148 269.587 441.654
98 0 83.5799 15.6258 1306 135.06 272.208 441.629
99 0 84.4615 14.8233 1252 136.953 274.74 441.774
100 0 91.356 17.8204 1628 129.63 275.682 443.316
101 0 89.4889 11.6998 1047 143.131 278.312 441.054
102 1 49.411 11.8395 585 134.123 279.504 462.188
103 0 47.2062 9.8504 465 134.852 280.796 465.415
104 0 48.4691 11.1824 542 135.092 281 463.327
105 0 55.4038 12.075 669 133.945 281.614 461.743
106 0 56.4322 9.83481 555 138.542 281.303 465.277
107 0 58.0841 13.9625 811 132.179 281.771 462.49
108 0 59.2534 11.7799 698 137.458 276.817 458.923
109 0 65.419 15.4237 1009 124.853 280.916 465.155
110 0 58.2542 10.9005 635 138.609 279.567 459.14
111 0 65.2989 14.9773 978 128.975 279.656 462.465
112 0 67.492 15.4092 1040 128.794 278.417 460.426
113 0 68.1622 13.5412 923 133.625 277.296 461.012
114 0 72.1978 16.3994 1184 128.309 276.102 461.449
115 0 73.2858 16.3606 1199 131.095 275.247 457.676
116 0 75.3432 13.2593 999 132.394 274.693 463.421
117 0 74.2952 11.7639 874 140.572 272.299 457.134
118 0 79.3311 14.1181 1120 136.346 270.346 452.108
119 0 79.2538 12.2896 974 139.847 269.028 452.241
120 0 86.3176 16.0106 1382 134.153 267.512 448.441
121 0 90.2416 15.7245 1419 132.315 266.769 452.714
122 0 89.4497 13.1806 1179 140.222 265.716 444.483
123 1 46.2486 10.703 495 136.857 265.396 466.859
124 0 48.181 11.0417 532 138.686 265.987 462.6
125 0 49.1338 9.30113 457 142.569 265.58 462.254
126 0 53.1376 11.4984 611 137.769 266.059 460.972
127 0 53.2011 12.6689 674 133.067 266.083 459.233
128 0 54.1127 12.1598 658 133.369 264.699 459.375
129 0 59.1525 15.739 931 129.121 267.351 455.731
130 0 60.4459 13.7148 829 131.036 267.621 455.671
131 0 60.35 12.063 728 134.799 269.24 455.18
132 0 61.295 11.0449 677 138.746 270.191 453.718
133 0 64.2846 12.0091 772 136.861 273.273 452.459
134 0 67.3565 14.9206 1005 131.32 273.902 451.95
135 0 68.3029 13.3962 915 136.945 275.737 451.991
136 0 71.4128 13.695 978 137.271 277.506 448.606
137 0 72.3002 11.4108 825 141.839 278.005 453.236
138 0 76.4453 12.6496 967 139.171 278.676 452.662
139 0 78.2942 13.1555 1030 139.236 278.598 451.145
140 0 83.5081 11.903 994 141.701 278.703 451.393
141 0 85.2475 13.9945 1193 137.646 277.745 451.138
142 0 88.5288 14.0745 1246 138.516 277.962 448.301
143 0 90.427 15.6922 1419 136.426 276.594 444.185
144 0 93.3851 14.2956 1335 138.034 276.39 445.781
145 0 94.4098 14.6595 1384 137.824 275.568 450.691
146 0 100.469 11.6752 1173 140.647 274.876 451.068
147 0 103.325 18.6597 1928 130.491 273.132 446.716
148 0 106.444 14.5052 1544 136.979 270.875 440.245
149 1 54.0997 11.2015 606 130.883 271.304 471.787
150 0 52.3731 11.5326 604 132.796 270.214 467.156
151 0 55.532 14.6582 814 127.402 266.956 464.87
152 0 58.1299 16.1879 941 126.485 268.418 465.938
153 0 61.3844 12.3647 759 131.92 267.596 466.149
154 0 62.4875 13.1706 823 130.902 267.14 462.629
155 0 63.3413 14.4771 917 129.65 265.724 461.364
156 0 65.4398 13.9823 915 130.069 265.301 459.462
157 0 68.4133 16.5319 1131 126.593 264.295 456.243
158 0 68.4422 15.3122 1048 130.224 263.531 454.726
159 0 70.2706 14.6292 1028 133.548 263.055 450.363
160 0 72.3895 12.9439 937 136.832 262.951 449.489
161 0 74.5223 12.815 955 137.403 263.017 446.438
162 0 79.4408 14.4762 1150 132.882 264.637 447.799
163 0 79.3762 12.2581 973 138.13 265.304 447.31
164 0 81.4551 13.6271 1110 139.236 266.377 441.223
165 0 85.3488 13.9076 1187 136.66 268.692 443.43
166 0 87.3282 12.0809 1055 139.166 270.414 446.104
167 0 90.3434 12.8952 1165 139.13 271.962 437.56
168 1 47.1127 15.1976 716 125.486 274.733 463.133
169 0 47.5224 11.3631 540 132.363 272.741 460.565
170 0 48.0814 16.5553 796 122.987 272.631 464.905
171 0 50.095 12.2767 615 129.182 272.816 466.984
172 0 53.182 15.3435 816 125.33 273.949 463.386
173 0 54.1838 14.1555 767 128.735 274.658 465.855
174 0 52.1283 13.4476 701 130.857 274.375 466.924
175 0 57.0736 14.2448 813 128.371 273.676 466.065
176 0 56.1483 22.3515 1255 117.759 272.59 465.376
177 0 60.1422 13.8339 832 128.732 272.07 469.025
178 0 61.1708 16.4621 1007 127.563 271.344 466.222
179 0 63.1754 14.8634 939 131.384 270.377 465.768
180 0 66.2814 14.8156 982 131.926 269.9 463.26
181 0 67.2376 14.6793 987 131.883 268.651 465.452
182 0 71.1989 17.6267 1255 126.878 267.149 464.688
183 0 72.0839 14.6773 1058 133.96 266.101 462.753
184 0 73.2565 13.6097 997 136.79 264.903 460.369
185 0 75.1955 18.0197 1355 128.815 263.456 458.638
186 0 79.1966 14.6345 1159 135.492 262.773 456.118
187 0 80.1655 12.9732 1040 141.455 261.183 455.193
188 1 42.18 11.4509 483 139.356 259.772 471.586
189 0 46.1257 12.6827 585 135.738 258.826 470.81
190 0 49.1128 14.3751 706 128.984 257.915 471.157
191 0 45.1048 11.7282 529 138.911 257.304 468.478
192 0 50.1727 15.5662 781 132.738 256.507 463.689
193 0 54.2465 16.8859 916 131.079 256.763 464.824
194 0 54.2106 14.9417 810 136.17 256.715 461.962
195 0 54.0596 15.8344 856 137.16 257.746 459.179
196 0 56.2809 13.4682 758 138.989 259.489 457.268
197 0 58.0415 14.8514 862 135.797 260.592 460.718
198 0 58.2296 11.6264 677 141.635 261.826 460.353
199 0 59.2847 10.2387 607 145.758 263.394 459.133
200 0 60.2477 11.8179 712 143.494 265.802 457.278
201 0 62.2474 13.5267 842 140.376 268.371 454.797
202 0 65.1686 12.6134 822 138.945 269.195 457.028
203 0 67.2786 12.9313 870 137.764 271.123 456.517
204 0 68.1836 12.4957 852 139.026 272.466 459.817
205 0 72.2354 16.3909 1184 132.102 272.974 457.11
206 0 74.1278 15.7701 1169 133.659 273.08 454.576
207 0 77.1642 13.3741 1032 135.398 272.941 459.932
208 0 80.2184 15.4578 1240 133.065 272.847 455.96
209 1 41.0594 8.23198 338 145.213 272.538 472.109
210 0 46.0638 10.2467 472 138.494 271.621 472.375
211 0 46.0477 10.3371 476 140.704 271.643 472.952
212 0 46.0143 10.4315 480 141.344 270.338 470.808
213 0 46.0768 11.5025 530 140.502 269.098 469.064
214 0 52.0448 16.5434 861 126.223 268.747 473.066
215 0 49.1034 12.4228 610 136.402 267.744 467.2
216 0 53.0605 15.9252 845 129.806 266.909 469.373
217 0 54.1297 13.4861 730 137.421 265.174 468.038
218 0 56.0852 15.6369 877 132.934 263.96 467.031
219 0 57.1055 14.2368 813 135.835 262.378 463.975
220 0 57.0747 12.7377 727 138.023 261.454 464.422
221 0 59.2703 10.9667 650 141.974 260.189 464.525
222 0 60.173 16.7849 1010 131.873 259.65 461.301
223 0 63.1499 15.1386 956 133.508 259.721 460.093
224 0 62.0616 13.406 832 137.582 258.987 455.629
225 0 65.1755 12.0751 787 138.868 257.844 455.804
226 0 67.3521 12.6499 852 135.642 257.832 457.441
227 0 68.3768 12.0947 827 139.123 258.693 449.184
228 0 71.2413 11.1873 797 140.138 258.74 449.428
229 0 76.2952 15.0992 1152 133.305 259.62 447.115
230 1 41.1096 10.0463 413 136.755 259.504 463.843
231 0 42.1464 11.4363 482 129.415 260.961 466.019
232 0 44.0448 11.1932 493 132.045 262.345 460.063
233 0 47.1242 11.353 535 128.85 264.269 462.535
234 0 47.0237 14.3119 673 129.226 266.016 461.012
235 0 48.1001 12.6611 609 129.576 268.071 461.842
236 0 49.1526 11.3321 557 130.46 270.666 459.655
237 0 51.1159 13.6944 700 125.72 271.73 462.361
238 0 52.1771 13.9908 730 126.447 272.89 462.295
239 0 55.1082 15.3516 846 122.853 273.03 464.168
240 0 59.1512 15.2153 900 123.22 273.637 464.323
241 0 60.1853 15.552 936 123.845 273.057 461.389
242 0 61.1693 16.2173 992 123.638 273.012 463.452
243 0 64.2378 13.8236 888 126.953 272.74 460.714
244 0 66.21 16.8252 1114 123.08 271.532 464.789
245 0 69.1416 17.4135 1204 123.173 270.692 462.793
246 0 68.2723 16.566 1131 125.547 268.956 464.107
247 0 72.2048 16.1208 1164 126.06 268.206 461.64
248 0 75.2508 19.1626 1442 122.84 267.066 460.14
249 0 76.191 14.3062 1090 131.215 266.635 457.309
250 0 79.1501 13.4428 1064 132.451 265.64 459.765
251 1 44.0862 10.6156 468 132.453 263.491 472.872
252 0 45.0891 12.2202 551 128.185 263.053 473.831
253 0 44.082 12.1138 534 128.21 262.232 475.835
254 0 45.1558 7.7288 349 130.734 260.928 478.447
255 0 48.2498 12.1451 586 131.188 259.626 470.365
256 0 50.2197 12.9431 650 127.835 259.908 470.482
257 0 51.4939 13.0889 674 128.313 259.792 467.55
258 0 50.1591 11.4635 575 129.718 261.103 469.704
259 0 54.1025 15.2119 823 127.549 260.146 463.129
260 0 57.1158 16.0376 916 125.103 260.198 463.009
261 0 55.1477 16.6462 918 124.901 260.365 462.377
262 0 56.0813 14.2115 797 126.808 260.222 463.609
263 0 58.1071 14.9896 871 126.178 262.225 459.821
264 0 60.2952 14.2466 859 127.084 263.692 457.658
265 0 65.0617 15.2163 990 124.549 265.893 458.015
266 0 60.0881 13.4136 806 133.144 267.502 454.055
267 0 66.1676 15.0376 995 128.134 269.191 453.798
268 0 64.1514 9.72699 624 138.688 271.138 455.09
269 0 73.2497 16.4642 1206 123.469 272.862 459.067
270 0 73.1168 17.8482 1305 125.352 273.882 455.418
271 0 75.1494 15.8085 1188 127.635 275.384 459.448
272 0 78.0608 15.2317 1189 129.891 275.692 455.654
273 0 81.2001 15.5665 1264 128.857 275.976 456.392
274 1 44.0551 11.5991 511 132.305 276.493 472.366
275 0 46.0442 11.6844 538 131.426 276.184 473.567
276 0 48.1848 14.7972 713 129.146 275.446 472.195
277 0 48.034 13.2823 638 132.152 275.284 467.707
278 0 51.1783 13.5995 696 130.553 274.204 468.938
279 0 53.2298 11.4973 612 129.907 272.547 469.913
280 0 54.2154 14.2026 770 124.939 271.758 470.075
281 0 55.2713 11.4707 634 131.674 269.76 466.97
282 0 57.0609 13.95 796 127.35 269.049 468.32
283 0 58.2144 13.5362 788 127.711 267.353 468.043
284 0 59.2539 14.8345 879 128.2 266.064 463.402
285 0 61.1531 17.8078 1089 120.534 265.248 466.765
286 0 62.1122 14.3128 889 129.994 263.189 458.494
287 0 69.1404 12.8579 889 131.461 262.327 458.415
288 0 67.1813 13.4412 903 131.248 260.667 454.107
289 0 72.1527 11.6281 839 131.949 259.598 457.738
290 1 36.0509 8.62669 311 133.386 259.881 470.273
291 0 38.0205 7.75897 295 133.895 259.369 468.315
292 0 39.0207 9.40526 367 129.433 259.436 470.264
293 0 41.05 8.67234 356 130.121 259.458 467.725
294 0 43.2085 13.3076 575 122.332 258.635 465.191
295 0 45.0418 14.0314 632 122.139 259.786 461.527
296 0 46.219 16.2055 749 121.437 257.529 467.892
297 0 47.1449 12.7267 600 128.575 259.003 464.992
298 0 47.1886 16.2327 766 123.393 260.359 463.452
299 0 48.1398 11.7366 565 130.246 261.722 464.2
300 0 52.2559 13.8932 726 126.35 264.77 462.324
301 0 53.167 11.9999 638 128.723 265.575 463.086
302 0 52.1454 8.68725 453 135.656 267.607 463.194
303 0 57.2336 13.2614 759 126.983 269.386 459.979
304 0 59.1002 14.027 829 123.287 270.573 463.047
305 0 58.0326 11.6486 676 130.896 271.067 461.407
306 0 60.0688 12.4524 748 127.289 271.632 465.094
307 0 66.1241 17.8301 1179 119.532 272.087 460.751
308 0 65.1161 12.3779 806 128.53 271.519 462.146
309 0 69.1784 14.253 986 124.874 271.248 463.481
310 0 72.1291 14.2384 1027 125.943 270.713 460.558
311 1 33.0357 10.08 333 130.631 269.459 478.871
312 0 37.1038 11.8047 438 127.372 268.934 478.84
313 0 38.0358 11.568 440 129.068 267.718 477.57
314 0 40.0185 12.3693 495 128.307 266.141 478.345
315 0 42.041 16.9121 711 120.519 265.467 479.764
316 0 42.084 13.5206 569 127.914 264.638 475.506
317 0 40.2858 13.9751 563 126.888 263.925 477.456
318 0 44.0239 16.5365 728 122.202 261.832 475.566
319 0 48.1592 18.8541 908 118.607 261.131 475.719
320 0 48.1229 15.211 732 126.541 258.762 472.529
321 0 48.0344 11.8249 568 131.54 258.055 472.512
322 0 49.043 14.8849 730 128.232 256.825 468.896
323 0 49.0882 14.0156 688 129.189 257.311 468.121
324 0 48.238 12.0237 580 133.853 258.517 466.109
325 0 51.0482 14.5745 744 128.452 256.491 464.093
326 0 52.1242 11.8755 619 133.393 256.535 465.572
327 0 53.0603 13.0606 693 133.496 257.436 461.518
328 0 57.1739 11.2114 641 133.967 256.498 462.972
329 0 56.0562 11.5955 650 135.525 256.197 457.277
330 0 57.1189 12.1151 692 135.942 258.471 456.802
331 0 62.2649 13.8762 864 131.131 259.287 459.762
332 0 65.2457 14.9129 973 127.995 260.989 461.792
333 0 65.0843 13.8282 900 132.734 263.068 458.126
334 0 67.2194 11.1575 750 137.781 265.292 457.781
335 0 71.258 16.0684 1145 129.114 268.101 456.774
336 0 73.1346 12.9624 948 135.591 269.277 454.003
337 1 37.0888 9.94909 369 134.878 269.382 473.821
338 0 36.1231 9.6614 349 132.585 270.713 476.676
339 0 39.1484 6.97346 273 139.114 270.396 475.322
340 0 43.0445 10.0361 432 135.713 271.447 474.444
341 0 46.2412 17.1708 794 121.322 271.149 476.097
342 0 42.0267 12.2779 516 134.55 270.298 471.843
343 0 44.0284 12.5828 554 133.032 269.345 475.07
344 0 47.079 16.7166 787 123.309 268.976 476.033
345 0 49.2525 13.2176 651 127.518 268.24 476.315
346 0 47.1078 12.6094 594 133.468 267.136 473.099
347 0 50.1105 13.5301 678 132.118 266.951 473.121
348 0 51.0665 13.2376 676 132.401 265.714 475.737
349 0 53.093 12.9019 685 134.578 264.699 471.993
350 0 54.1033 13.5481 733 133.145 263.325 472.651
351 0 57.053 13.4962 770 133.764 262.025 471.055
352 0 58.1485 14.7381 857 133.438 261.252 466.567
353 0 58.0655 13.2092 767 136.322 259.6 467.999
354 0 64.0825 13.9352 893 134.269 258.772 466.122
355 0 67.1635 14.2339 956 135.592 258.228 461.276
356 0 69.0996 17.4241 1204 131.038 257.993 459.798
357 0 72.2342 16.1419 1166 132.649 256.636 458.747
358 0 73.2647 16.1469 1183 134.385 256.217 457.722
359 0 74.1401 12.2741 910 142.335 255.93 457.192
360 1 35.0962 7.8641 276 149.033 256.623 471.453
361 0 43.3152 8.79599 381 144.633 257.223 471.68
362 0 46.1379 11.1405 514 139.115 257.84 471.191
363 0 46.1415 13.0685 603 136.327 259.451 470.786
364 0 48.1798 16.0856 775 133.218 259.345 466.825
365 0 47.2557 11.3002 534 144.109 262.094 466.972
366 0 51.145 13.843 708 138.479 263.148 466.468
367 0 51.1792 16.5497 847 133.91 265.217 467.302
368 0 54.1714 14.4726 784 137.753 267.931 465.218
369 0 52.1397 13.7899 719 140.669 269.114 466.9
370 0 57.1175 17.2452 985 132.954 270.17 466.024
371 0 57.3098 16.4719 944 135.933 272.005 467.198
372 0 59.3012 13.6928 812 140.574 271.832 467.964
373 0 62.1226 15.6948 975 137.708 271.962 464.045
374 0 64.192 15.7029 1008 138.504 270.922 464.892
375 0 66.1224 15.8494 1048 137.774 270.363 467.286
376 0 68.2608 18.0924 1235 134.862 270.812 466.705
377 0 70.2513 17.8217 1252 135.351 270.319 468.817
378 0 71.2301 18.4473 1314 136.609 269.013 465.435
379 0 72.1923 16.2621 1174 142.084 267.683 463.714
380 0 77.2265 16.2379 1254 141.919 266.909 464.321
381 0 79.1804 15.1679 1201 143.649 265.831 464.656
382 0 81.1654 14.4273 1171 144.746 264.565 464.128
383 1 43.0839 12.0695 520 146.16 263.688 479.09
384 0 42.2181 12.1749 514 148.014 262.817 476.689
385 0 47.0403 12.3298 580 146.16 261.729 476.131
386 0 48.1709 12.4764 601 144.391 259.857 472.429
387 0 51.0746 15.7417 804 138.818 258.162 472.43
388 0 52.305 17.1112 895 137.848 258.75 474.162
389 0 52.4095 13.8334 725 145.91 259.332 471.192
390 0 55.3466 14.7977 819 143.473 258.68 468.741
391 0 56.3255 15.5169 874 142.509 258.651 465.92
392 0 58.4835 22.485 1315 129.597 258.44 465.07
393 0 59.3543 15.6855 931 143.571 257.633 462.202
394 0 59.2738 14.3402 850 145.904 258.811 463.135
395 0 60.3642 13.7499 830 147.801 259.252 459.725
396 0 61.4127 13.8896 853 146.824 259.871 459.301
397 0 66.3404 16.144 1071 140.566 261.567 459.045
398 0 66.2284 16.8961 1119 140.725 262.525 457.686
399 0 70.2566 15.1018 1061 142.735 263.708 457.3
400 0 72.275 16.3404 1181 139.834 265.616 455.329
401 0 74.2206 14.8746 1104 139.513 267.159 457.895
402 0 76.3931 15.5773 1190 139.481 268.859 456.403
403 0 79.2102 16.1595 1280 137.454 270.086 455.723
404 0 80.2 15.1621 1216 139.621 272.243 456.115
405 0 81.1834 16.937 1375 138.354 272.075 451.287
406 0 88.2833 19.9132 1758 130.468 272.859 457.862
407 0 91.1822 18.6001 1696 132.478 273.322 456.058
408 1 46.0655 10.2246 471 139.217 273.839 477.89
409 0 46.0733 13.6305 628 137.435 273.076 475.546
410 0 49.0763 12.287 603 137.032 272.955 476.285
411 0 52.1138 13.0292 679 138.172 271.928 472.404
412 0 53.2731 14.9231 795 133.395 267.982 473.028
413 0 56.149 16.0644 902 132.277 266.806 471.324
414 0 57.0833 14.0321 801 136.548 265.537 468.587
415 0 57.0243 13.8187 788 136.288 265.08 472.124
416 0 61.1188 14.1855 867 135.993 263.745 470.671
417 0 62.0895 15.22 945 135.807 262.078 469.45
418 0 67.1887 15.8807 1067 133.455 261.595 466.946
419 0 68.1943 14.9279 1018 135.886 260.452 464.807
420 0 70.2272 20.0919 1411 127.205 259.636 464.374
421 0 74.2249 17.7299 1316 130.124 258.752 461.913
422 0 75.1772 16.8535 1267 133.374 258.344 458.808
423 0 78.1819 15.8477 1239 136.229 257.6 457.852
424 0 78.1147 15.3748 1201 137.603 256.48 453.808
425 0 84.0733 16.9733 1427 132.617 256.474 455.024
426 0 85.26 15.6932 1338 138.053 256.011 448.158
427 0 89.126 16.8189 1499 136.203 256.673 448.604
428 1 46.0574 13.4832 621 139.976 256.966 470.285
429 0 48.1521 13.9142 670 141.842 258.422 467.102
430 0 47.1246 14.0903 664 142.018 259.107 467.642
431 0 50.089 13.1766 660 145.12 260.714 466.482
432 0 51.0227 14.2094 725 141.481 263.17 466.812
433 0 55.128 20.3889 1124 128.135 264.247 467.351
434 0 55.2909 15.5179 858 138.603 266.918 464.16
435 0 57.0822 17.7113 1011 135.626 269.417 465.562
436 0 60.1004 13.4941 811 142.718 270.313 466.862
437 0 62.1725 17.564 1092 137.426 271.839 463.901
438 0 63.1728 15.7979 998 143.311 271.997 464.05
439 0 64.1918 15.7341 1010 144.824 272.752 463.827
440 0 68.1903 16.19 1104 143.813 272.34 464.621
441 0 72.298 14.8275 1072 146.767 271.968 464.498
442 0 73.2075 19.6838 1441 138.226 271.594 465.155
443 0 77.1181 17.6483 1361 143.852 271.27 463.832
444 0 79.2522 18.561 1471 143.647 270.562 461.364
445 0 83.1714 19.7183 1640 140.74 269.71 462.467
446 0 86.2906 19.7704 1706 142.294 269.324 460.804
447 1 44.0641 11.7102 516 150.537 267.413 480.395
448 0 42.0705 9.08 382 157.207 265.956 480.052
449 0 48.1432 14.2699 687 147.639 264.479 477.702
450 0 48.0446 14.4241 693 149.374 263.137 475.149
451 0 48.2224 12.9815 626 144.337 264.396 474.553
452 0 51.0194 14.8571 758 148.413 261.654 475.179
453 0 54.0377 14.6564 792 149.125 259.775 472.182
454 0 54.0915 15.2519 825 145.701 259.912 471.526
455 0 56.0632 14.2696 800 146.139 258.326 473.19
456 0 58.0689 15.2577 886 143.225 257.051 471.534
457 0 61.1853 13.974 855 148.556 257.678 465.363
458 0 64.2085 14.4841 930 143.598 256.194 468.49
459 0 66.2925 14.7679 979 146.484 256.32 463.726
460 0 66.2577 17.3716 1151 144.34 257.392 457.701
461 0 67.299 16.1667 1088 146.566 257.893 459.448
462 0 71.2793 16.4704 1174 146.254 258.62 457.49
463 0 74.3127 15.8385 1177 148.799 259.565 455.519
464 0 75.2072 15.7964 1188 150.582 260.859 457.348
465 0 76.2535 13.6518 1041 157.784 262.211 454.936
466 0 78.3719 14.7119 1153 154.993 264.95 453.433
467 0 81.3352 16.4504 1338 151.408 267.838 448.497
468 1 44.1435 10.3979 459 163.068 267.586 468.991
469 0 45.032 11.7694 530 155.823 269.785 472.736
470 0 49.0633 12.5144 614 158.409 271.581 470.081
471 0 46.0766 11.6979 539 161.158 272.013 472.28
472 0 50.192 12.1733 611 155.866 273.095 473.717
473 0 51.4334 13.1821 678 154.301 274.847 469.239
474 0 53.2185 15.2015 809 150.222 273.93 468.922
475 0 55.1331 15.6712 864 149.546 274.62 470.33
476 0 58.15 16.3887 953 146.674 274.222 472.449
477 0 63.1652 16.3064 1030 143.683 273.173 474.452
478 0 62.2398 16.324 1016 146.399 272.461 472.453
479 0 65.1547 15.7318 1025 144.455 271.978 473.686
480 0 66.2494 17.1775 1138 144.556 269.387 469.621
481 0 70.3222 17.6047 1238 142.541 269.12 468.326
482 0 68.2084 13.8986 948 151.62 266.561 467.804
483 0 75.1751 16.9338 1273 143.692 265.279 466.399
484 1 36.041 10.8765 392 154.98 264.732 479.306
485 0 39.0818 12.2819 480 149.123 263.735 477.99
486 0 39.0996 13.018 509 147.063 263.073 477.517
487 0 39.0291 11.5042 449 147.076 261.704 479.463
488 0 41.0103 12.4847 512 147.873 260.721 474.537
489 0 42.0559 11.6036 488 149.762 261.066 472.549
490 0 44.0515 12.1903 537 145.652 259.052 469.171
491 0 47.1395 12.8342 605 142.056 257.531 469.846
492 0 47.2184 12.1139 572 148.044 257.512 467.635
493 0 51.4792 17.4634 899 135.495 257.456 467.108
494 0 51.2856 12.6546 649 145.598 257.975 465.12
495 0 54.4497 14.2517 776 141.707 258.54 464.499
496 0 54.1915 12.7142 689 145.493 259.686 463.457
497 0 57.322 17.8814 1025 135.312 261.208 459.958
498 0 59.2263 14.8583 880 140.444 262.869 459.557
499 0 62.4115 16.5034 1030 136.076 263.897 461.458
500 0 62.1474 16.4287 1021 138.432 266.74 458.954
501 0 64.2295 13.8721 891 143.385 268.052 458.744
502 0 67.28 15.1308 1018 140.745 269.518 458.371
503 0 68.1705 11.7059 798 147.936 271.361 460.612
504 0 73.1451 15.9956 1170 139.009 272.579 459.913
505 0 73.4162 13.8934 1020 142.592 272.232 460.251
506 0 77.1991 14.78 1141 142.191 272.961 458.398
507 0 77.1568 12.7662 985 145.257 273.47 461.869
508 0 80.303 13.8102 1109 145.724 272.468 456.39
509 0 83.4239 13.2336 1104 146.856 272.283 456.906
510 0 88.1596 14.8594 1310 143.562 271.087 457.251
511 0 91.3023 14.8518 1356 143.605 269.383 456.876
512 1 45.0483 13.5854 612 143.225 267.064 478.922
513 0 50.1555 12.4812 626 141.839 266.513 480.419
514 0 49.1303 12.3142 605 148.86 265.506 477.18
515 0 50.1517 12.7413 639 148.659 263.765 473.973
516 0 53.06 15.5673 826 142.617 262.473 474.729
517 0 54.1092 17.132 927 142.321 260.724 470.703
518 0 59.0897 14.9942 886 143.948 259.437 469.616
519 0 59.0563 17.7966 1051 141.615 258.931 467.687
520 0 60.1274 13.355 803 150.102 257.89 467.938
521 0 64.0844 18.9906 1217 138.827 257.045 461.947
522 0 66.0572 15.8499 1047 145.226 256.415 463.583
523 0 68.2225 18.0439 1231 140.256 256.46 465.238
524 0 70.0668 14.7145 1031 148.881 255.925 458.448
525 0 73.1361 15.5737 1139 146.604 256.84 459.609
526 0 75.1358 17.1423 1288 146.087 256.791 454.564
527 0 79.342 16.9897 1348 144.054 257.903 457.661
528 0 81.323 15.1618 1233 150.358 257.836 453.247
529 0 84.3018 19.9403 1681 141.714 258.446 451.457
530 1 42.1388 12.3164 519 150.524 259.254 470.609
531 0 44.015 15.1539 667 142.54 260.532 470.609
532 0 43.0704 15.2541 657 142.461 262.373 471.002
533 0 45.1244 14.2052 641 144.992 265.012 469.914
534 0 48.0459 16.5883 797 141.375 267.009 468.817
535 0 49.1682 14.3589 706 142.892 268.411 468.687
536 0 51.0732 14.3324 732 144.212 269.393 470.702
537 0 51.0715 16.6433 850 139.904 270.781 472.074
538 0 51.1037 17.4547 892 137.499 271.62 473.771
539 0 53.0271 14.9546 793 144.72 271.996 469.772
540 0 58.1031 14.044 816 143.222 272.504 471.409
541 0 59.1169 14.8519 878 143.919 271.826 468.352
542 0 60.1963 19.453 1171 135.833 272.149 468.857
543 0 60.0835 14.0971 847 147.521 271.242 468.334
544 0 65.2464 15.1886 991 142.235 270.397 470.371
545 0 68.232 17.206 1174 138.239 269.084 470.681
546 0 65.2691 14.0495 917 144.013 269.168 468.397
547 1 34.0337 10.3427 352 146.588 266.483 483.543
548 0 36.064 11.2855 407 145.877 265.138 482.752
549 0 37.0303 14.4206 534 140.264 264.127 483.584
550 0 38.0102 13.7332 522 143.494 263.027 482.517
551 0 39.0395 14.2932 558 143.342 261.778 480.056
552 0 39.0304 11.2477 439 151.469 260.221 479.72
553 0 40.037 14.8613 595 145.602 259.881 477.556
554 0 41.0842 15.6751 644 140.262 259.34 474.099
555 0 42.0428 13.7717 579 149.993 258.033 472.705
556 0 44.0881 16.7392 738 142.618 257.835 472.782
557 0 44.0636 13.1628 580 151.484 257.222 470.872
558 0 47.0522 18.0226 848 141.054 257.23 468.196
559 0 47.1072 14.138 666 149.056 257.015 468.296
560 0 46.0212 13.5372 623 151.437 258.01 469.056
561 0 48.0891 15.7208 756 148.611 258.792 463.278
562 0 50.0395 13.0497 653 152.56 259.744 465.041
563 0 51.0932 13.4069 685 151.022 260.606 465.476
564 0 54.0574 14.3921 778 148.519 261.892 463.636
565 0 54.0479 14.3946 778 145.075 262.874 463.666
566 0 55.0853 13.8876 765 151.525 265.984 460.316
567 0 58.1809 15.2627 888 146.361 269.16 462.864
568 0 60.0989 14.5427 874 149.531 270.515 459.227
569 0 61.2725 14.3131 877 148.145 272.542 464.034
570 0 66.0951 15.7652 1042 146.911 273.077 458.487
571 0 67.0507 14.3921 965 149.25 273.6 462.978
572 1 38.0468 8.98893 342 150.816 275.088 479.678
573 0 36.0483 14.0922 508 145.528 275.421 478.911
574 0 38.0954 11.6549 444 152.944 275.182 478.216
575 0 40.0324 13.2393 530 147.213 274.085 481.308
576 0 41.067 15.9983 657 144.651 274.079 479.31
577 0 43.0865 15.1092 651 145.786 273.562 480.937
578 0 44.2063 14.4776 640 147.289 272.336 483.255
579 0 42.2399 13.7548 581 151.723 270.828 481.055
580 0 46.2109 13.8496 640 148.93 270.042 480.369
581 0 49.1568 15.3997 757 144.139 268.987 481.923
582 0 49.2278 16.1088 793 142.889 267.525 482.951
583 0 47.1383 12.2618 578 156.514 265.616 479.931
584 0 52.4015 14.2362 746 151.588 264.981 478.315
585 0 55.2287 17.6176 973 142.433 263.99 480.605
586 0 58.3628 17.3227 1011 145.828 262.858 476.694
587 0 58.148 20.3446 1183 142.508 261.641 474.763
588 0 63.3518 19.226 1218 141.48 260.532 475.742
589 0 62.2494 13.8636 863 155.162 259.806 475.801
590 0 63.2503 19.6995 1246 146.105 258.579 470.745
591 0 66.2489 15.155 1004 155.681 259.439 470.88
592 0 69.256 16.9805 1176 151.77 259.318 469.935
593 0 73.2711 21.2362 1556 143.844 259.416 466.393
594 0 75.1665 17.9601 1350 153.334 259.384 465.896
595 0 76.5397 17.063 1306 158.557 259.686 460.997
596 0 76.4724 15.2604 1167 164.651 260.391 462.446
597 0 82.5026 18.3267 1512 156.508 261.825 462.896
598 0 83.4894 18.7569 1566 158.789 263.225 457.637
599 0 85.4979 17.8952 1530 161.002 264.67 455.943
600 0 92.5688 19.2181 1779 155.98 266.329 457.134
601 0 94.5006 18.8464 1781 158.305 268.415 455.91
602 0 99.5057 20.1194 2002 153.564 268.621 457.502
603 0 98.2594 19.8047 1946 158.406 268.748 450.901
604 0 105.506 21.3636 2254 152.565 268.783 452.126
605 1 56.2632 17.6492 993 160.181 269.165 474.496
606 0 56.1236 13.6484 766 167.807 269.475 478.181
607 0 58.2339 16.8974 984 163.003 268.706 476.272
608 0 61.1873 21.5241 1317 150.522 267.956 477.097
609 0 61.2289 14.7643 904 166.121 268.296 475.934
610 0 62.2258 18.9793 1181 160.865 267.197 473.62
611 0 65.2385 15.8495 1034 166.763 266.156 474.591
612 0 70.1047 17.9874 1261 160.406 265.702 475.773
613 0 72.2204 18.7066 1351 161.166 264.306 471.996
614 0 74.2966 18.0493 1341 164.509 262.538 468.429
615 0 75.4809 15.8053 1193 170.224 261.907 468.848
616 0 79.3488 19.0047 1508 163.597 260.09 465.444
617 0 79.4313 16.8447 1338 165.903 259.31 467.172
618 0 82.2191 18.9737 1560 164.04 258.171 460.424
619 0 85.4017 18.0559 1542 165.256 257.682 460.497
620 0 89.3939 17.7529 1587 166.232 256.742 456.393
621 0 92.4034 19.166 1771 163.106 256.056 454.846
622 1 48.1277 9.91112 477 172.702 256.038 471.367
623 0 56.2066 13.9485 784 161.902 255.477 468.566
624 0 56.1924 12.2437 688 164.753 255.795 467.292
625 0 58.4189 14.0365 820 161.287 255.755 464.701
626 0 59.0717 14.931 882 160.925 256.249 466.034
627 0 60.1776 14.8893 896 163.983 257.069 460.824
628 0 63.0896 14.0277 885 160.712 256.344 462.148
629 0 64.1547 12.8907 827 163.548 258.031 458.346
630 0 66.1233 12.8397 849 163.283 259.608 459.267
631 0 70.1744 13.9652 980 160.972 260.308 458.82
632 0 72.1882 14.0743 1016 161.031 262.222 459.846
633 0 75.1696 14.128 1062 162.235 264.428 456.618
634 0 76.2366 13.8778 1058 164.401 265.979 454.456
635 0 81.2592 15.2229 1237 161.229 267.599 454.258
636 0 85.2809 13.9656 1191 162.732 269.227 457.336
637 0 89.4527 13.1243 1174 162.579 269.613 457.9
638 1 45.0855 8.38406 378 162.442 270.698 477.923
639 0 44.1473 9.37769 414 162.882 270.614 477.263
640 0 49.2046 14.3483 706 149.381 270.545 478.103
641 0 49.1738 12.3236 606 157.218 270.317 474.899
642 0 51.1144 11.1906 572 159.566 270.119 474.97
643 0 54.212 13.4841 731 153.193 269.67 475.703
644 0 53.1758 12.5997 670 157.633 268.434 474.736
645 0 57.1463 13.0017 743 152.863 267.852 476.59
646 0 56.2323 12.4839 702 156.469 266.648 473.524
647 0 61.3103 13.3909 821 154.497 265.896 470.464
648 0 59.2115 11.214 664 154.872 265.318 474.935
649 0 63.3979 11.4042 723 154.898 262.856 470.214
650 0 66.3256 11.7149 777 151.656 261.82 472.156
651 0 69.5963 14.7422 1026 147.3 260.799 468.492
652 1 33.112 6.82533 226 152.982 260.531 485.266
653 0 34.1605 10.6556 364 145.11 259.527 483.709
654 0 38.0884 11.3683 433 146.189 258.811 478.866
655 0 40.0973 11.921 478 144.887 258.209 475.864
656 0 42.2086 10.5666 446 144.348 257.484 477.401
657 0 43.1481 10.8695 469 144.962 257.623 474.65
658 0 45.249 12.6412 572 139.754 257.92 473.996
659 0 45.141 11.3201 511 147.969 259.231 470.624
660 0 44.2254 10.7404 475 148.112 260.181 471.078
661 0 48.1684 12.6847 611 145.899 260.825 467.221
662 0 50.189 13.3296 669 142.704 262.309 468.88
663 0 51.0537 13.241 676 145.129 264.777 466.071
664 0 52.2999 8.04973 421 154.344 265.406 468.608
665 0 57.1294 14.7385 842 139.217 267.777 467.082
666 0 61.0773 13.7039 837 142.145 269.865 465.613
667 0 62.2471 15.9686 994 139.312 271.693 462.55
668 0 65.1115 11.9487 778 145.581 274.371 466.898
669 0 67.2623 17.6325 1186 138.355 273.328 463.668
670 0 66.6246 14.0339 935 148.745 273.558 464.184
671 0 68.4638 13.0142 891 152.948 273.623 462.874
672 0 70.4295 16.158 1138 147.322 274.617 462.792
673 0 74.6054 14.8113 1105 150.895 274.527 463.29
674 0 76.434 15.2419 1165 150.446 274.575 464.148
675 0 80.43 16.4118 1320 149.373 273.423 459.711
676 0 83.3374 16.8712 1406 150.032 272.864 459.911
677 1 44.3052 12.301 545 152.905 271.961 480.429
678 0 44.2073 14.8166 655 147.913 271.095 480.484
679 0 45.2637 12.8359 581 153.181 269.515 480.769
680 0 48.1205 13.1545 633 153.657 266.894 480.22
681 0 50.081 16.1139 807 148.299 263.979 476.985
682 0 51.0343 16.9298 864 147.799 263.252 474.781
683 0 53.2067 15.6559 833 149.806 264.163 475.516
684 0 56.068 17.9603 1007 142.766 263.438 474.702
685 0 57.0927 17.1651 980 145.743 261.72 472.56
686 0 56.04 14.4183 808 154.571 260.562 471.428
687 0 58.1683 14.8363 863 152.861 260.031 470.503
688 0 60.1116 15.9703 960 150.368 259.405 467.86
689 0 63.0695 15.5543 981 153.242 258.746 464.2
690 0 66.0787 17.5548 1160 148.106 258.196 463.961
691 0 64.1605 13.4039 860 159.55 258.193 464.492
692 0 69.1406 16.4881 1140 150.585 258.464 460.85
693 0 72.0737 16.3166 1176 150.941 259.213 459.575
694 0 72.124 17.2342 1243 149.354 260.303 458.123
695 0 75.071 16.0914 1208 151.613 262.489 456.692
696 0 77.1108 13.8761 1070 155.97 264.15 453.67
697 1 40.0137 12.7456 510 153.492 265.612 470.712
698 0 44.0747 10.7545 474 157.711 267.004 470.789
699 0 45.0361 13.6557 615 152.553 268.444 469.758
700 0 45.0647 10.5404 475 158.118 271.524 471.682
701 0 46.0632 12.917 595 153.56 272.136 472.765
702 0 46.1866 13.099 605 154.698 273.878 472.85
703 0 50.0267 16.5712 829 145.437 274.214 473.16
704 0 53.1133 14.0454 746 152.551 274.146 470.602
705 0 54.0414 17.0055 919 149.758 273.667 469.423
706 0 56.0958 15.9549 895 151.689 274.115 466.876
707 0 56.108 16.2722 913 152.963 272.968 466.72
708 0 57.1627 14.9923 857 155.686 272.641 467.224
709 0 62.1221 18.2866 1136 146.731 272.22 470.1
710 0 61.148 14.7184 900 156.937 270.254 467.768
711 0 65.3593 18.36 1200 147.957 268.884 468.152
712 0 65.093 15.2705 994 158.34 267.359 465.889
713 0 69.2874 17.5068 1213 152.053 266.536 465.201
714 0 69.1935 14.0476 972 162.155 265.177 460.653
715 0 73.1224 15.7544 1152 154.968 263.688 462.604
716 0 73.1555 12.3026 900 165.601 262.477 461.048
717 0 75.0977 16.4719 1237 158.631 261.015 457.696
718 0 80.2553 14.267 1145 160.758 260.906 459.231
719 1 39.0696 12.5417 490 163.008 260.3 476.992
720 0 42.0297 12.7529 536 166.405 259.166 473.826
721 0 45.0886 13.5511 611 166.111 259.324 473.43
722 0 45.0702 13.6676 616 170.031 259 471.18
723 0 45.0119 13.352 601 169.817 258.341 471.691
724 0 47.0811 15.845 746 166.235 258.814 468.84
725 0 47.1155 14.7722 696 169.545 259.234 467.254
726 0 48.0379 16.0498 771 167.036 259.776 467.08
727 0 50.0673 15.3194 767 168.28 260.093 468.905
728 0 50.053 16.8421 843 166.253 262.484 466.817
729 0 50.0897 16.131 808 168.864 263.238 466.213
730 0 53.0321 17.6874 938 164.559 266.216 467.044
731 0 53.0874 16.6894 886 166.453 268.693 468.165
732 0 52.2094 16.702 872 168.688 270.709 467.644
733 0 52.1228 16.0774 838 169.842 270.552 470.327
734 0 53.0526 17.7937 944 164.737 271.743 469.706
735 0 55.1052 16.1146 888 166.144 273.75 473.177
736 0 56.1041 16.9863 953 165.092 274.635 471.806
737 0 53.0832 14.4867 769 174.177 274.573 473.453
738 0 54.0502 14.8751 804 172.158 273.412 474.769
739 0 57.1187 15.8092 903 168.855 272.585 475.216
740 0 58.0649 15.3105 889 168.209 271.976 478.783
741 0 57.0344 16.5865 946 165.853 270.014 479.244
742 0 58.1444 17.0782 993 166.826 269.86 477.116
743 0 60.0538 18.167 1091 162.084 268.154 478.479
744 0 58.0256 14.8038 859 171.902 266.533 478.113
745 0 59.0605 16.4238 970 167.952 265.396 478.222
746 0 59.0684 15.6767 926 170.794 263.731 475.767
747 0 59.1781 16.0363 949 169.365 262.849 475.804
748 0 60.1823 15.2869 920 169.889 261.338 475.523
749 0 60.1662 17.3686 1045 164.775 260.648 476.462
750 0 60.0272 16.8757 1013 170.608 259.283 472.945
751 0 61.1664 17.1009 1046 167.322 259.378 473.819
752 0 60.0301 15.2923 918 171.154 257.695 472.752
753 0 60.0622 15.2342 915 173.516 258.209 470.846
754 0 60.0531 16.4521 988 167.419 257.327 473.745
755 0 61.0565 15.5102 947 171.562 257.586 471.163
