time division length width area intensity CMx CMy
0 0 70.1252 15.2156 1067 126.002 515.401 446.095
1 0 70.2814 13.7305 965 124.163 516.193 446.949
2 0 75.3308 13.3412 1005 126.3 515.997 443.469
3 0 82.8333 19.8833 1647 116.78 515.273 451.756
4 0 82.2628 18.8664 1552 119.345 515.765 445.595
5 0 84.613 15.9905 1353 125.297 515.202 442.562
6 0 94.4125 14.2248 1343 124.424 514.793 449.181
7 1 50.3603 12.8871 649 132.193 512.558 461.003
8 0 49.2229 12.1285 597 140.658 510.554 461.819
9 0 50.1956 12.1126 608 143.191 509.66 462.426
10 0 52.1637 15.7772 823 137.406 509.159 460.495
11 0 53.3515 14.7325 786 141.462 508.214 461.081
12 0 54.0817 11.1683 604 151.737 507.426 461.603
13 0 54.0777 14.2388 770 150.464 506.918 459.629
14 0 55.1191 15.5481 857 150.522 505.62 459.107
15 0 56.0375 13.4731 755 153.38 503.959 461.062
16 0 58.0818 12.1725 707 158.918 502.188 455.689
17 0 59.1409 12.8338 759 158.783 500.116 456.113
18 0 62.1 12.4316 772 157.593 500.139 457.531
19 0 63.1994 16.4875 1042 151.8 498.12 449.405
20 0 65.152 13.9366 908 158.197 497.871 449.838
21 0 67.3578 15.7072 1058 154.937 498.681 447.822
22 0 69.3249 16.1991 1123 153.798 498.995 445.38
23 0 73.219 16.1434 1182 151.916 499.156 445.909
24 0 74.2805 17.6359 1310 150.075 498.707 441.393
25 0 75.4295 16.3331 1232 154.105 498.528 439.408
26 0 81.3258 15.0998 1228 153.888 499.091 439.803
27 0 82.3514 13.0781 1077 158.083 499.544 439.104
28 0 86.1736 13.6817 1179 149.921 500.381 438.813
29 1 45.1239 10.9033 492 146.041 504.429 457.738
30 0 44.0357 8.49311 374 150.703 505.714 458.452
31 0 50.2124 13.8014 693 135.499 508.18 457.326
32 0 50.0425 14.068 704 134.077 509.064 457.043
33 0 51.056 14.1413 722 132.35 510.533 456.399
34 0 55.1431 13.0025 717 131.9 512.598 457.989
35 0 55.179 12.9578 715 142.779 514.573 458.087
36 0 58.138 20.1761 1173 118.164 511.446 461.436
37 0 60.2936 12.8538 775 126.48 510.781 462.689
38 0 59.0576 15.3917 909 127.699 511.679 457.304
39 0 62.137 15.8199 983 124.635 511.706 460.63
40 0 65.3613 19.3846 1267 122.466 511.656 460.975
41 0 63.0356 14.8329 935 136.535 511.861 457.697
42 0 66.1606 14.2683 944 144.599 509.807 458.084
43 0 69.3022 15.2809 1059 138.883 509.698 457.413
44 0 71.3112 16.8978 1205 136.233 508.98 455.599
45 0 73.1792 20.7436 1518 132.675 508.009 453.608
46 0 75.2477 14.6583 1103 149.224 506.841 455.091
47 1 40.0529 11.1602 447 147.989 505.092 472.593
48 0 43.0247 12.5974 542 148.581 503.079 471.343
49 0 42.1859 14.9576 631 145.1 502.328 471.158
50 0 42.0966 11.5211 485 153.893 500.363 468.709
51 0 45.1257 11.9223 538 152.496 499.31 470.022
52 0 46.1966 15.1093 698 145.467 498.064 467.987
53 0 47.1099 14.9438 704 143.72 497.349 468.612
54 0 46.1546 12.6315 583 152.595 495.976 464.743
55 0 52.1197 17.0761 890 138.755 496.121 464.193
56 0 51.1205 13.967 714 148.109 495.688 461.133
57 0 53.1096 12.879 684 151.418 495.639 459.845
58 0 54.0985 15.4533 836 146.481 495.153 456.683
59 0 56.2817 14.4807 815 149.015 495.858 455.075
60 0 56.1249 12.6147 708 153.939 495.716 456.209
61 0 58.1368 14.5519 846 149.708 495.572 453.572
62 0 59.053 13.598 803 151.389 496.212 453.772
63 0 63.1918 14.6854 928 146.337 498.515 453.858
64 0 63.0584 11.973 755 152.314 499.542 453.887
65 0 67.0646 15.5671 1044 141.112 502.747 453.934
66 0 69.2431 15.5972 1080 144.975 503.576 451.611
67 0 75.5068 16.3164 1232 138.407 505.519 455.721
68 0 74.2296 17.2438 1280 139.548 506.22 454.759
69 0 77.1189 23.1331 1784 129.663 507.378 450.233
70 0 78.0964 15.0839 1178 144.678 507.389 452.933
71 0 82.2515 17.1425 1410 141.887 509.122 450.028
72 0 85.1696 18.0463 1537 142.313 508.6 449.2
73 1 45.0264 10.2384 461 154.299 508.343 468.529
74 0 47.1336 13.8542 653 153.006 507.685 467.002
75 0 49.0139 15.465 758 146.966 506.132 468.811
76 0 48.0614 13.4828 648 159.713 505.676 465.034
77 0 47.1622 13.2946 627 154.957 506.003 468.892
78 0 50.0936 13.0156 652 159.376 508.081 468.844
79 0 51.025 14.3851 734 155.583 507.847 468.981
80 0 51.025 14.3655 733 143.876 506.846 468.914
81 0 58.0346 17.4034 1010 148.735 505.821 464.637
82 0 58.0833 14.0832 818 158.205 504.072 463.951
83 0 60.0824 15.0294 903 156.97 502.808 463.957
84 0 62.0634 14.4368 896 160.232 501.725 461.58
85 0 66.0607 17.0449 1126 154.123 500.149 460.576
86 0 67.0563 17.8954 1200 153.636 498.458 458.745
87 0 67.0753 15.8031 1060 159.891 497.424 456.854
88 0 70.1063 14.5351 1019 163.997 497.766 454.199
89 0 73.1248 17.2582 1262 156.513 496.161 453.207
90 0 75.0504 16.6288 1248 160.455 496.311 448.958
91 0 78.0769 17.265 1348 158.429 495.72 448.175
92 0 80.1207 14.6404 1173 164.725 496.97 447.468
93 0 81.0584 16.8767 1368 161.968 495.689 442.729
94 0 84.2186 15.2935 1288 165.257 496.763 443.643
95 0 89.0706 16.5711 1476 160.579 497.901 441.112
96 1 48.0768 11.856 570 163.765 499.561 460.302
97 0 47.0997 9.04464 426 169.57 500.876 459.07
98 0 51.0564 10.5765 540 166.798 503.007 457.676
99 0 54.1103 13.8421 749 160.833 504.127 459.726
100 0 55.1521 14.4872 799 157.826 504.889 460.512
101 0 54.0361 13.5465 732 161 507.658 458.075
102 0 56.0837 11.5898 650 163.391 510.612 458.143
103 0 58.0855 12.3783 719 158.353 511.751 460.163
104 0 62.1491 13.4193 834 152.711 511.897 460.799
105 0 63.1335 13.511 853 154.12 513.026 459.696
106 0 66.1842 15.8195 1047 149.572 512.004 457.772
107 0 70.141 14.7845 1037 148.537 511.819 459.789
108 0 71.056 14.5097 1031 150.39 510.694 460.376
109 0 73.1349 12.8393 939 156.731 510.174 456.263
110 0 77.0858 13.6212 1050 152.37 509.557 458.263
111 0 78.1632 13.9324 1089 152.423 508.943 455.248
112 0 80.2504 12.6977 1019 152.658 508.324 459.061
113 1 39.0715 10.2632 401 154.673 507.357 473.267
114 0 42.1412 13.5497 571 147.378 506.028 473.604
115 0 44.0346 10.3555 456 150.421 505.033 474.463
116 0 46.1807 15.3744 710 142.314 502.113 471.879
117 0 49.0904 15.3391 753 140.792 499.525 471.657
118 0 47.1711 16.2175 765 139.523 500.233 469.58
119 0 50.0337 12.2318 612 146.145 498.799 470.639
120 0 50.0415 10.1716 509 150.079 497.672 470.086
121 0 51.0814 13.7036 700 146.864 496.757 463.837
122 0 53.1887 14.0443 747 143.894 494.538 465.106
123 0 50.1397 13.1632 660 148.27 493.606 462.067
124 0 55.073 15.0164 827 143.44 493.988 459.791
125 0 57.1295 15.0535 860 141.641 494.294 459.959
126 0 59.2272 12.6293 748 146.175 495.082 456.834
127 0 62.045 16.1496 1002 139.3 494.7 455.252
128 0 65.1455 12.8021 834 142.32 494.255 455.752
129 0 66.1493 14.9964 992 141.356 495.312 451.754
130 1 35.0296 11.7044 410 140.285 495.698 468.183
131 0 38.0086 8.12974 309 147.139 496.926 466.249
132 0 38.0194 12.1517 462 140.853 495.716 465.647
133 0 38.069 9.14131 348 145.853 499.213 467.129
134 0 40.0848 12.1492 487 141.616 500.031 465.739
135 0 40.26 12.7918 515 138.431 501.948 468.761
136 0 40.271 10.926 440 142.984 503.855 468.661
137 0 43.3771 12.9331 561 139.929 504.112 464.911
138 0 45.3832 12.7801 580 141.455 505.071 468.091
139 0 46.3327 11.0073 510 143.998 505.098 467.808
140 0 46.1954 10.4772 484 146.789 505.027 469.893
141 0 48.134 13.1092 631 140.236 504.737 469.263
142 0 52.2303 12.3683 646 141.732 504.763 470.354
143 0 53.1737 9.5724 509 147.695 503.688 469.134
144 0 55.0694 13.9824 770 140.069 504.025 469.096
145 0 57.387 12.6161 724 144.601 502.838 468.715
146 0 60.2167 15.959 961 138.585 502.176 467.868
147 0 60.2549 13.9076 838 145.438 500.811 467.517
148 0 62.224 16.7138 1040 139.542 499.119 466.339
149 0 62.1563 11.5998 721 151.031 498.33 464.603
150 0 67.1573 12.2697 824 149.29 497.749 465.366
151 0 68.3284 14.7084 1005 148.147 495.905 460.862
152 0 70.4259 18.0899 1274 143.128 495.308 460.447
153 0 73.143 14.8886 1089 146.329 493.77 463.862
154 0 76.591 14.6492 1122 148.7 493.564 459.353
155 0 80.2364 18.5826 1491 144.042 492.623 453.833
156 1 39.3234 10.7061 421 154.411 491.19 471.876
157 0 39.4695 12.7694 504 153.312 490.55 469.387
158 0 42.3926 11.8653 503 157.976 489.972 465.918
159 0 42.4491 12.2264 519 158.108 489.875 464.678
160 0 44.0766 14.679 647 150.422 489.338 463.798
161 0 46.5671 16.1917 754 145.054 490.153 458.745
162 0 49.2119 14.6103 719 149.31 491.061 461.8
163 0 46.1722 12.475 576 154.292 492.622 460.439
164 0 48.3309 13.6145 658 151.391 494.047 459.154
165 0 52.232 14.1676 740 147.154 495.996 461.009
166 0 50.2845 13.3838 673 153.924 498.077 458.513
167 0 54.1852 15.5577 843 148.243 500.095 457.492
168 0 58.2156 15.1849 884 147.001 501.949 458.555
169 0 57.3387 16.3415 937 147.442 502.953 456.939
170 0 59.1888 13.8371 819 154.071 504.049 457.842
171 0 61.3033 14.4038 883 150.785 504.195 461.132
172 0 63.325 14.8914 943 152.654 504.854 458.364
173 0 64.2061 15.6994 1008 151.905 506.071 459.262
174 0 65.1397 13.402 873 158.927 505.694 458.616
175 0 71.2839 16.792 1197 151.453 504.086 458.221
176 0 72.283 15.633 1130 155.175 503.031 459.05
177 0 75.2242 16.617 1250 152.648 502.56 458.25
178 0 78.1835 15.5404 1215 156.123 502.059 456.156
179 0 79.0978 15.1964 1202 157.74 502.686 456.25
180 0 84.1721 17.6781 1488 152.111 502.192 454.55
181 0 84.1485 15.9005 1338 156.079 500.743 453.679
182 1 42.0471 11.2255 472 158.235 499.356 475.886
183 0 44.1944 8.50787 376 164.814 497.481 474.979
184 0 45.2584 13.5665 614 154.943 496.892 471.647
185 0 45.3734 10.6891 485 163.148 494.94 467.689
186 0 46.2733 14.047 650 153.971 494.638 468.586
187 0 48.1522 13.6235 656 154.938 492.855 472.047
188 0 51.1868 14.0857 721 154.244 491.942 471.387
189 0 53.187 14.8909 792 153.722 489.264 467.393
190 0 56.1206 14.7718 829 152.98 488.234 463.975
191 0 58.2788 16.0264 934 147.437 487.424 464.181
192 0 59.1313 15.6262 924 147.922 487.005 464.587
193 0 58.1523 14.2041 826 153.119 487.383 462.2
194 0 60.0978 13.0454 784 155.844 487.452 460.704
195 0 65.2331 17.0006 1109 148.278 488.573 456.206
196 0 65.2177 11.6226 758 159.46 489.236 456.508
197 0 68.1335 16.908 1152 149.967 491.016 454.208
198 0 73.1772 16.6855 1221 149.607 491.873 453.523
199 0 71.1576 12.7885 910 158.953 493.477 455.56
200 0 74.1404 13.0968 971 158.417 495.916 453.736
201 0 74.3133 14.385 1069 157.262 498.65 452.704
202 0 80.3049 13.5857 1091 159.772 500.601 451.166
203 0 76.1959 13.3865 1020 153.479 501.574 450.561
204 1 44.2733 9.6898 429 161.508 503.408 467.76
205 0 44.2698 14.7505 653 150.469 504.508 466.839
206 0 48.4065 13.4073 649 150.726 504.656 468.236
207 0 47.2598 10.5587 499 159.639 504.443 467.15
208 0 51.4979 12.7966 659 155.932 503.836 465.581
209 0 51.1269 12.5961 644 156.789 504.685 468.893
210 0 55.2372 13.6864 756 153.37 502.463 469.528
211 0 57.0898 16.5178 943 150.085 501.051 470.301
212 0 58.0899 15.7859 917 153.349 499.999 467.985
213 0 59.3213 14.8513 881 156.588 498.86 466.225
214 0 62.1575 14.785 919 153.332 498.355 466.552
215 0 63.0478 15.8293 998 150.876 497.203 466.638
216 0 67.2302 18.0574 1214 145.97 496.426 467.119
217 0 66.1348 15.423 1020 155.018 494.607 461.964
218 0 69.1358 15.9396 1102 152.904 493.923 462.304
219 0 75.2276 16.2307 1221 149.997 492.242 461.779
220 0 74.2094 15.9818 1186 153.429 491.511 457.089
221 0 76.2641 18.9866 1448 148.414 490.227 455.128
222 0 80.5334 17.1233 1379 151.449 489.748 453.579
223 1 42.1451 13.1213 553 152.255 490.049 471.423
224 0 43.2953 11.2945 489 156.73 488.863 471.325
225 0 45.2737 12.4576 564 153.028 487.913 469.613
226 0 45.2383 13.5947 615 155.533 487.088 464.785
227 0 49.1834 11.4063 561 156.438 488.487 464.503
228 0 50.0786 13.6386 683 151.228 489.991 465.565
229 0 50.2189 14.7355 740 150.527 490.836 463.711
230 0 54.1571 15.1596 821 148.085 491.999 462.101
231 0 54.2014 14.9258 809 148.763 492.93 460.052
232 0 55.1417 14.4718 798 151.259 492.85 461.583
233 0 57.2135 12.7592 730 155.741 495.029 461.941
234 0 62.1707 16.1812 1006 147.664 496.756 459.634
235 0 60.1415 15.3804 925 151.641 498.895 456.933
236 0 63.3589 16.2724 1031 149.766 502.651 456.358
237 0 65.3757 15.0821 986 151.938 503.596 457.779
238 0 68.3005 18.0965 1236 143.893 504.76 460.225
239 0 72.4749 15.5778 1129 148.021 504.993 459.796
240 0 73.2426 16.2747 1192 149.257 505.388 458.695
241 0 75.2738 15.1049 1137 152.867 504.505 456.556
242 0 80.3475 15.657 1258 150.079 504.363 458.163
243 1 40.0553 12.0833 484 149.764 505.134 476.174
244 0 40.0177 10.8702 435 148.841 503.772 480.071
245 0 43.0355 11.9436 514 147.319 503.463 478.274
246 0 44.0347 10.9232 481 150.112 501.233 477.595
247 0 46.0582 15.8495 730 140.13 500.295 477.16
248 0 46.3231 15.6509 725 142.746 497.353 473.905
249 0 47.1056 12.0792 569 151.511 495.058 476.52
250 0 49.0588 14.1463 694 149.425 494.013 474.813
251 0 50.0421 12.8092 641 154.214 492.242 470.955
252 0 53.1139 14.1583 752 149.927 491.975 472.971
253 0 53.0925 13.6931 727 151.209 490.587 473.131
254 0 56.0791 13.1956 740 155.407 489.059 468.03
255 0 57.0521 16.7917 958 149.746 487.933 464.444
256 0 57.1118 14.9356 853 155.448 487.51 463.612
257 0 60.0979 13.661 821 158.985 487.007 462.097
258 0 62.0493 14.698 912 155.246 486.667 462.598
259 0 66.1375 16.1784 1070 153.507 486.069 459.27
260 0 66.0981 14.2818 944 160.663 485.889 455.188
261 0 69.1292 14.7984 1023 157.396 485.985 456.799
262 0 71.1117 15.2717 1086 158.257 486.553 452.687
263 0 74.0701 15.0128 1112 158.268 487.409 452.524
264 0 77.0581 17.104 1318 154.222 488.519 450.674
265 0 79.1363 14.5319 1150 160.697 490.77 449.741
266 1 40.0432 8.79052 352 164.352 493.188 470.293
267 0 42.1983 10.5928 447 161.295 494.83 468.864
268 0 45.2909 13.7114 621 158.739 496.828 464.082
269 0 45.2705 10.0949 457 163.748 498.939 467.236
270 0 49.1201 13.3347 655 156.034 499.42 467.86
271 0 51.0455 14.9866 765 153.471 500.787 467.967
272 0 52.2622 14.6377 765 154.946 501.803 466.829
273 0 53.1515 15.8792 844 152.364 505.39 467.634
274 0 55.052 16.439 905 150.292 505.292 468.225
275 0 56.1897 15.1273 850 154.899 504.989 465.949
276 0 60.0885 17.5574 1055 147.517 504.424 467.805
277 0 62.0677 19.7526 1226 143.057 504.109 466.822
278 0 62.0962 12.4001 770 159.177 503.447 467.808
279 0 64.0591 15.5013 993 152.533 502.639 467.141
280 0 67.2454 17.622 1185 148.25 499.391 466.394
281 0 69.2486 16.3036 1129 149.378 498.145 465.473
282 0 70.3421 16.7041 1175 151.554 497.152 462.758
283 0 73.2284 13.888 1017 156.088 495.599 465.351
284 0 77.3756 16.3359 1264 152.004 494.282 459.686
285 1 39.1166 8.56413 335 162.075 494.919 478
286 0 38.1784 10.1366 387 160.065 493.54 477.318
287 0 42.2758 11.6615 493 154.83 492.325 475.972
288 0 44.1947 13.3048 588 152.957 490.515 472.821
289 0 46.1793 14.4437 667 149.48 489.186 472.259
290 0 46.3852 15.3497 712 148.442 488.587 468.903
291 0 48.4511 12.817 621 152.506 488.085 468.068
292 0 47.2702 12.7988 605 154.511 487.731 468.274
293 0 51.2551 14.262 731 150.668 487.725 467.034
294 0 54.3871 16.1435 878 145.468 487.639 465.33
295 0 55.3771 15.1687 840 146.657 488.392 464.668
296 0 55.3937 15.1281 838 148.424 488.689 462.297
297 0 58.4696 15.8373 926 145.087 490.41 460.69
298 0 58.3647 13.8954 811 150.57 491.695 461.422
299 0 60.3422 16.0915 971 145.726 492.96 460.88
300 0 63.454 15.1606 962 144.96 495.175 457.714
301 0 59.3383 10.7688 639 157.814 497.12 457.54
302 0 64.5713 12.6991 820 150.882 498.932 457.818
303 0 69.8767 15.8279 1106 141.448 500.256 456.477
304 0 70.3505 15.7781 1110 141.711 501.806 454.368
305 0 73.9457 12.3604 914 146.88 502.248 455.93
306 0 73.7504 14.0609 1037 140.34 502.788 457.9
307 0 76.3219 12.8141 978 142.118 502.852 457.366
308 0 79.2916 12.3721 981 142.718 502.338 456.714
309 0 83.421 13.318 1111 139.993 502.127 456.222
310 0 81.3326 10.2296 832 147.534 501.823 453.875
311 1 46.3899 10.0237 465 140.282 501.004 474.348
312 0 48.5367 8.19998 398 143.912 499.882 473.033
313 0 47.526 11.0045 523 138.794 498.556 472.308
314 0 50.3378 12.8134 645 137.563 497.645 466.177
315 0 50.4208 11.1264 561 141.827 496.799 468.895
316 0 53.2501 15.6807 835 131.594 494.895 469.38
317 0 56.1304 14.9652 840 130.36 495.273 471.811
318 0 56.2122 12.7908 719 135.189 494.058 470.9
319 0 60.0949 18.4541 1109 126.17 492.5 466.418
320 0 61.2249 14.8469 909 132.077 490.716 467.277
321 0 62.345 15.1095 942 131.654 490.169 466.04
322 0 66.2547 14.9876 993 131.454 488.512 463.507
323 0 68.4797 16.1654 1107 130.311 488.864 461.244
324 0 68.4142 13.886 950 134.031 488.109 460.321
325 0 72.5115 15.1838 1101 131.846 487.884 459.381
326 1 31.2081 10.8946 340 140.603 488.691 473.697
327 0 39.0674 15.998 625 129.07 489.013 473.354
328 0 38.1415 11.2738 430 138.777 488.03 472.388
329 0 36.0323 9.0752 327 144.673 487.422 471.08
330 0 44.6423 12.1185 541 132.414 489.445 473.647
331 0 42.1309 14.2651 601 136.002 490.506 468.975
332 0 43.1684 12.1617 525 140.274 492.375 468.745
333 0 46.1907 14.6133 675 136.354 494.407 467.267
334 0 47.0835 12.5734 592 140.054 496.253 468.873
335 0 49.102 15.3965 756 135.73 499.709 467.959
336 0 51.1127 15.0648 770 136.239 500.94 469.964
337 0 53.0802 14.6194 776 137.603 501.479 470.408
338 0 53.1325 13.9086 739 141.598 502.765 469.472
339 0 54.312 14.7297 800 140.674 502.238 469.184
340 0 56.1918 16.1945 910 137.334 503.363 471.369
341 0 58.1637 13.7715 801 142.386 503.105 470.177
342 0 62.2758 17.0532 1062 134.086 502.24 469.75
343 0 62.1332 14.8713 924 139.372 501.231 470.381
344 0 63.1436 15.1876 959 138.492 500.735 471.398
345 0 67.3254 15.2246 1025 138.902 499.956 468.803
346 0 68.2131 14.1468 965 142.179 498.835 468.999
347 0 70.2276 16.5604 1163 137.675 498.386 467.365
348 0 74.1932 15.0553 1117 140.087 497.082 465.042
349 0 77.4167 14.9968 1161 140.695 496.05 463.207
350 1 41.0652 11.5913 476 143.746 495.111 480.794
351 0 38.0831 12.8403 489 143.732 494.184 478.495
352 0 37.0434 10.4472 387 150.656 493.372 476.871
353 0 40.0915 10.7504 431 145.455 491.541 479.29
354 0 41.075 9.54352 392 149.901 490.844 477.446
355 0 45.0605 13.0935 590 139.842 489.837 478.173
356 0 46.3085 13.1941 611 145.26 488.576 468.718
357 0 51.3566 20.4258 1049 129.394 486.802 466.512
358 0 50.0523 15.0043 751 138.437 487.953 471.611
359 0 50.0387 14.6287 732 139.749 487.69 471.191
360 0 52.0406 15.2765 795 141.062 488.121 467.653
361 0 54.1066 13.9724 756 142.505 489.033 467.339
362 0 57.0676 14.4916 827 140.449 489.571 466.462
363 0 58.0943 13.8912 807 143.061 491.234 463.223
364 0 59.0418 14.2611 842 142.452 491.259 464.436
365 0 64.0828 16.2914 1044 137.8 493.569 460.46
366 0 63.1454 18.497 1168 134.301 494.914 459.046
367 0 65.2272 16.1282 1052 140.411 495.439 458.446
368 0 67.2916 15.9604 1074 140.934 497.815 459.453
369 0 72.2776 17.1561 1240 137.247 499.085 462.006
370 0 72.1598 15.5072 1119 143.561 500.14 459.605
371 0 73.1165 15.1265 1106 144.497 502.032 460.352
372 0 78.1551 14.8423 1160 145.287 501.86 461.053
373 0 79.1558 17.7751 1407 140.738 502.217 459.419
374 0 82.1458 17.8098 1463 141.601 501.23 458.434
375 0 85.1608 15.8993 1354 145.475 501.269 459.093
376 1 46.1398 12.0503 556 150.277 501.191 478.124
377 0 45.1254 11.9445 539 149.623 500.731 480.481
378 0 45.375 12.1873 553 144.627 498.175 481.495
379 0 50.3524 13.7431 692 147.179 497.152 477.315
380 0 49.6445 14.624 726 147.702 496.099 474.733
381 0 53.4096 12.7131 679 150.237 495.286 475.336
382 0 54.2687 15.5338 843 146.847 494.09 475.632
383 0 56.2189 14.0166 788 151.077 493.354 473.661
384 0 59.2939 15.4316 915 147.097 492.009 473.193
385 0 59.4325 17.2633 1026 145.239 491.377 471.674
386 0 63.4005 15.1576 961 148.01 490.394 470.594
387 0 64.2015 14.2676 916 149.937 488.95 469.615
388 0 67.2925 16.406 1104 144.995 488.237 466.778
389 0 67.3248 11.7045 788 154.434 487.848 466.4
390 0 69.2641 14.5097 1005 152.378 486.79 460.909
391 0 74.5466 16.4058 1223 146.626 487.22 457.678
392 0 75.4355 13.3624 1008 153.804 486.362 455.82
393 1 40.3395 12.7666 515 146.033 486.348 472.705
394 0 39.2496 12.9173 507 148.759 487.181 467.525
395 0 39.272 12.9609 509 139.998 488.183 467.611
396 0 40.4036 11.8801 480 147.998 488.438 466.7
397 0 42.187 12.8476 542 145.755 490.103 466.959
398 0 44.5324 13.0467 581 145.491 491.043 464.074
399 0 48.3502 15.305 740 137.324 492.307 468.823
400 0 48.2087 11.8029 569 142.917 494.359 469.601
401 0 49.1998 12.3578 608 142.967 495.551 468.26
402 0 51.2615 14.826 760 139.42 497.517 465.439
403 0 54.2149 15.4201 836 136.365 499.042 467.956
404 0 53.1025 15.7996 839 140.799 500.695 466.26
405 0 57.2766 14.945 856 141.792 500.672 466.257
406 0 61.7216 16.0074 988 137.252 501.736 469.854
407 0 60.5152 14.641 886 145.213 502.163 463.352
408 0 61.5388 14.9824 922 143.154 501.726 465.697
409 0 65.3891 16.4247 1074 143.425 501.361 461.451
410 0 65.5192 18.1168 1187 141.063 500.977 463.562
411 0 69.5041 17.5385 1219 143.852 499.93 461.218
412 0 71.4744 17.8246 1274 142.334 499.093 463.002
413 0 74.6517 16.3158 1218 146.314 497.566 461.316
414 0 75.2848 17.1748 1293 142.259 496.589 465.116
415 0 79.7528 19.41 1548 141.021 496.058 459.694
416 0 79.6181 14.0797 1121 149.249 494.878 463.144
417 1 39.4081 12.7893 504 152.637 493.319 474.466
418 0 41.6564 10.4906 437 150.432 492.943 476.927
419 0 45.6252 14.3561 655 146.173 491.398 472.956
420 0 46.2608 14.1372 654 146.635 490.677 472.635
421 0 45.2241 15.1689 686 145.923 489.675 470.547
422 0 50.1931 19.1062 959 138.314 489.177 469.351
423 0 47.0404 13.8179 650 155.38 488.846 469.188
424 0 52.0608 15.0017 781 150.361 488.269 468.024
425 0 54.0884 16.6949 903 144.882 488.062 466.967
426 0 55.0897 13.8864 765 153.221 487.556 465.624
427 0 59.1331 14.5266 859 151.183 488.049 463.545
428 0 62.103 16.1667 1004 146.52 488.587 461.432
429 0 62.078 15.3194 951 150.165 490.169 461.41
430 0 62.0999 13.5749 843 155.485 491.065 459.336
431 0 65.1705 15.5438 1013 150.767 492.63 455.373
432 0 69.2288 14.7626 1022 151.498 494.783 458.915
433 0 71.1692 15.9479 1135 149.492 496.224 459.885
434 0 74.1703 17.3115 1284 148.121 498.308 455.015
435 0 77.1968 16.1406 1246 152.726 500.941 454.029
436 1 41.1195 11.2355 462 150.297 502.883 473.314
437 0 41.158 12.6099 519 153.021 504.272 471.551
438 0 42.1972 11.8965 502 153.92 504.217 471.649
439 0 41.1887 12.6005 519 156.592 504.451 469.888
440 0 43.1652 10.3324 446 157.942 505.462 471.572
441 0 50.1608 13.1976 662 144.799 505.151 475.784
442 0 50.0628 15.0411 753 145.252 504.02 474.376
443 0 48.0523 13.4853 648 153.606 503.799 472.213
444 0 51.0858 13.1348 671 154.18 502.936 472.459
445 0 53.0601 15.718 834 147.325 502.403 473.118
446 0 56.1307 14.8047 831 148.129 501.656 472.303
447 0 55.1397 13.2391 730 153.022 500.542 470.207
448 0 57.1344 13.337 762 152.02 499.306 470.861
449 0 61.1036 13.1089 801 151.335 497.603 470.167
450 0 61.0894 12.4735 762 152.437 496.643 470.364
451 1 32.0238 11.0543 354 147.09 495.011 483.678
452 0 33.0674 7.59056 251 154.382 494.231 483.315
453 0 33.0401 9.95759 329 149.14 492.848 481.231
454 0 33.0432 9.01848 298 151.003 491.919 481.567
455 0 37.0762 9.49397 352 150.159 490.739 480.312
456 0 35.0598 10.1256 355 150.896 490.513 477.152
457 0 38.0407 14.4319 549 141.617 489.871 473.213
458 0 39.035 11.8611 463 142.905 487.065 476.626
459 0 41.0341 13.3304 547 142.013 488.583 473.075
460 0 37.033 10.3691 384 150.451 489.57 472.25
461 0 42.1197 12.6781 534 143.412 489.738 472.009
462 0 44.1057 14.3292 632 140.342 490.432 470.059
463 0 48.0574 14.1706 681 137.483 491.426 471.627
464 0 46.1677 15.9636 737 141.225 492.57 465.073
465 0 49.0975 14.4203 708 143.873 493.945 467.251
466 0 49.0813 14.8529 729 143.798 496.599 464.781
467 0 51.034 13.8731 708 147.138 499.119 466.357
468 0 52.1076 15.0266 783 145.289 500.415 464.8
469 0 55.0599 15.9826 880 143.414 502.72 466.4
470 0 55.0599 15.9281 877 125.146 504.714 466.326
471 0 59.0914 14.9599 884 148.455 504.49 466.708
472 0 60.0914 16.3751 984 145.951 505.067 463.914
473 0 61.0863 13.1453 803 154.941 504.778 465.196
474 0 66.0857 17.4319 1152 145.931 503.903 466.565
475 0 67.1672 15.1264 1016 152.643 503.982 467.444
476 0 69.1601 14.5315 1005 155.538 503.506 466.61
477 0 69.124 12.8031 885 160.246 502.599 467.963
478 0 75.186 15.854 1192 151.898 501.85 466.831
479 0 74.232 14.1314 1049 156.764 501.79 466.327
480 0 80.0763 15.8474 1269 153.571 499.243 464.489
481 0 83.1645 17.5796 1462 149.575 498.616 463.287
482 1 44.1807 13.2184 584 154.366 492.627 481.178
483 0 44.0512 13.0984 577 156.192 491.043 479.724
484 0 45.0554 13.0728 589 156.589 490.944 480.328
485 0 48.2799 16.9221 817 147.842 489.113 476.512
486 0 48.4146 13.467 652 158.155 488.86 473.963
487 0 49.1734 13.6253 670 157.722 487.475 474.479
488 0 50.2577 14.5649 732 156.608 486.54 472.111
489 0 50.3373 15.0584 758 156.381 486.615 471.606
490 0 51.2074 13.2403 678 161.316 486.432 470.391
491 0 55.2806 16.7509 926 151.715 486.018 467.593
492 0 55.3461 14.3642 795 158.727 485.984 468.366
493 0 58.226 16.144 940 154.951 486.034 465.496
494 0 59.4341 15.7485 936 155.423 486.482 465.005
495 0 61.2558 13.7456 842 162.124 487.265 461.337
496 0 63.2232 16.3864 1036 154.271 488.218 463.328
497 0 64.187 18.4305 1183 151.585 489.365 460.781
498 0 67.3571 17.1326 1154 152.154 490.783 461.605
499 0 69.2086 17.2522 1194 151.983 492.671 457.572
500 0 71.3197 14.3579 1024 159.929 495.341 458.04
501 0 73.1938 14.8783 1089 157.591 496.622 458.49
502 0 78.3023 13.8821 1087 161.248 498.295 454.396
503 0 80.3088 16.5611 1330 155.833 500.295 454.921
504 1 43.0243 11.3889 490 159.592 499.639 477.624
505 0 40.0421 12.8115 513 160.93 499.365 475.637
506 0 44.0194 14.8116 652 152.71 501.506 478.764
507 0 44.0862 12.6797 559 155.973 504.85 480.381
508 0 47.089 13.8886 654 155.469 503.378 478.275
509 0 46.0863 12.3247 568 160.188 503.118 477.805
510 0 49.2782 15.585 768 152.546 502.194 477.487
511 0 51.1109 14.6348 748 154.578 500.249 475.84
512 0 52.3444 18.0535 945 145.568 495.996 478.894
513 0 52.2987 13.8244 723 158.824 495.775 475.279
514 0 52.2542 14.1615 740 160.53 495.122 474.058
515 0 56.4677 16.0268 905 153.217 493.07 474.892
516 0 59.1482 14.6074 864 155.569 491.284 473.931
517 0 58.277 14.5169 846 158.825 490.655 471.668
518 0 58.2638 13.9709 814 159.744 489.311 472.829
519 0 63.3111 12.9835 822 161.8 489.072 468.904
520 0 65.1452 14.1223 920 158.985 488.053 467.872
521 0 65.325 13.4864 881 161.092 487.081 463.366
522 0 69.3691 16.0158 1111 155.896 486.543 459.483
523 0 69.2423 14.081 975 160.814 486.595 460.24
524 0 71.4943 13.2738 949 159.729 485.709 460.312
525 0 73.2253 13.9979 1025 159.976 486.818 458.9
526 0 77.2869 13.5857 1050 163.149 486.713 454.61
527 0 80.3162 16.1113 1294 154.225 487.913 454.537
528 0 81.4839 14.825 1208 159.382 487.829 453.198
529 1 42.1544 10.3429 436 157.927 486.149 471.872
530 0 41.0929 10.6101 436 161.8 489.493 471.44
531 0 44.0683 7.7153 340 165.244 489.835 469.285
532 0 47.1906 10.8708 513 155.906 492.164 470.3
533 0 48.288 13.6266 658 151.977 494.888 467.035
534 0 49.2308 14.5844 718 150.5 496.955 466.584
535 0 50.531 13.9518 705 154.088 498.546 463.157
536 0 52.2089 14.1738 740 153.253 499.057 468.349
537 0 52.4003 14.1984 744 153.754 500.418 469.038
538 0 55.3964 15.4342 855 149.331 501.136 469.895
539 0 57.3237 13.101 751 155.016 501.901 469.26
540 0 58.398 18.3397 1071 145.095 502.471 467.167
541 0 62.2446 17.0456 1061 147.994 501.731 467.648
542 0 63.2839 13.2893 841 156.114 502.054 467.29
543 0 66.3272 12.4233 824 157.371 500.971 469.474
544 0 66.2894 13.7579 912 156.55 500.296 466.718
545 0 70.3704 14.3384 1009 156.16 498.861 463.498
546 0 70.3015 13.3568 939 159.477 498.19 463.907
547 0 74.2738 17.8125 1323 148.868 496.978 462.46
548 0 75.2223 13.6928 1030 157.881 495.524 463.663
549 0 79.3164 17.323 1374 151.1 494.418 461.309
550 0 80.1898 14.5405 1166 158.2 493.022 459.905
551 0 84.2573 14.705 1239 156.274 491.927 459.766
552 0 83.4947 13.3901 1118 161.133 491.062 456.775
553 0 87.5484 16.5508 1449 154.368 490.41 454.062
554 1 43.1383 12.2629 529 149.142 490.251 476.074
555 0 45.3428 12.3945 562 147.525 490.242 475.164
556 0 47.3473 9.90554 469 158.192 489.68 468.812
557 0 50.4294 12.0565 608 150.845 489.378 467.785
558 0 48.4198 10.9459 530 144.636 489.153 466.623
559 0 51.289 17.0797 876 142.799 488.711 463.895
560 0 52.3386 16.7181 875 144.574 489.418 461.786
561 0 53.1612 12.1705 647 151.706 491.083 465.233
562 0 55.3056 13.6514 755 150.713 491.18 461.252
563 0 58.2188 14.8921 867 144.563 492.209 461.873
564 0 59.2838 15.4511 916 144.485 493.34 460.672
565 0 59.2903 15.5 919 128.134 494.331 460.699
566 0 63.3072 13.3634 846 148.163 497.278 459.569
567 0 64.1867 12.9466 831 148.745 499.479 459.129
568 0 65.1786 12.9951 847 149.989 500.928 456.488
569 0 70.2768 15.7662 1108 143.543 502.671 456.834
570 0 71.2106 14.5624 1037 145.037 504.019 460.432
571 0 73.2662 17.9483 1315 141.424 503.417 457.654
572 0 77.2436 14.9268 1153 145.611 504.188 458.199
573 0 78.2201 13.2063 1033 149.298 504.468 459.99
574 0 78.2379 14.7627 1155 135.153 504.424 461.739
575 0 82.3082 15.8186 1302 145.518 503.194 460.799
576 0 82.19 15.6223 1284 147.843 502.835 458.295
577 0 86.236 16.2113 1398 146.104 502.504 461.36
578 1 47.0439 11.0322 519 148.755 502.78 480.468
579 0 48.1074 9.64508 464 151.418 500.989 481.425
580 0 54.0825 14.7552 798 139.195 500.525 480.024
581 0 54.1244 13.4874 730 147.073 499.162 474.826
582 0 56.1501 11.8967 668 150.144 497.365 473.771
583 0 54.1518 10.6183 575 156.581 492.692 472.198
584 0 62.1866 18.2354 1134 137.732 490.804 475.876
585 0 62.0871 18.764 1165 140.03 489.797 472.239
586 0 63.0972 15.1671 957 147.548 488.745 472.312
587 0 66.1404 17.9467 1187 142.879 487.812 472.103
588 0 67.1922 15.4482 1038 150.281 486.733 466.33
589 0 71.0736 15.2659 1085 148.906 485.942 468.994
590 0 73.131 15.6295 1143 152.001 484.958 463.903
591 0 77.1141 16.2876 1256 149.856 485.324 463.132
592 0 79.0902 14.5656 1152 152.353 484.774 463.38
593 0 81.2564 15.5311 1262 152.68 484.94 461.164
594 0 84.1842 17.4973 1473 150.527 484.956 456.624
595 0 85.1045 17.1671 1461 151.283 485.502 454.771
596 1 45.0675 12.1373 547 148.016 485.817 476.194
597 0 46.0571 10.487 483 148.41 487.259 477.505
598 0 47.043 11.4576 539 149.072 489.212 475.15
599 0 46.3108 13.6253 631 145.127 493.295 469.418
600 0 51.3514 11.3337 582 147.423 495.009 469.387
601 0 53.1654 12.8091 681 149.41 493.626 471.975
602 0 55.1974 15.9971 883 141.687 493.642 472.925
603 0 53.2561 11.9423 636 151.799 494.08 472.336
604 0 57.0758 15.6108 891 143.453 497.166 474.551
605 0 56.1938 16.4965 927 143.984 498.792 471.055
606 0 59.3354 12.9939 771 147.913 498.754 475.44
607 0 61.1552 14.3079 875 148.954 498.562 471.323
608 0 61.1411 14.4093 881 148.058 497.722 472.455
609 0 64.1373 14.3754 922 145.056 498.22 473.48
610 0 65.1179 16.4778 1073 144.233 497.021 471.883
611 0 69.079 14.7802 1021 145.37 496.082 473.182
612 0 70.0742 14.1136 989 147.626 495.61 472.522
613 0 73.1546 20.1081 1471 139.469 494.24 468.956
614 0 73.1815 16.7802 1228 146.7 492.214 465.826
615 0 78.1412 13.3732 1045 151.83 491.416 465.465
616 0 79.1083 13.9935 1107 151.48 489.706 463.921
617 0 79.3277 14.6355 1161 149.553 488.893 461.581
618 0 84.1047 15.8612 1334 148.525 487.759 456.764
619 1 43.143 10.5231 454 144.068 488.174 479.048
620 0 42.0653 11.4584 482 144.512 486.093 478.66
621 0 46.1928 11.3005 522 145.508 485.328 476.19
622 0 48.505 13.545 657 142.254 481.457 471.312
623 0 46.4046 12.0462 559 146.492 481.206 468.152
624 0 49.5195 14.6811 727 139.616 481.502 467.668
625 0 53.5544 14.5086 777 139.821 482.176 466.512
626 0 51.0612 14.1399 722 141.238 481.499 465.156
627 0 55.0523 15.2037 837 138.146 482.004 464.877
628 0 55.1382 13.0218 718 143.983 482.76 463.354
629 0 52.0717 11.3689 592 148.507 484.537 460.14
630 0 57.2747 11.7329 672 145.409 486.153 461.656
631 0 59.1535 11.3434 671 146.897 486.727 460.124
632 0 62.1769 16.1636 1005 136.98 488.739 460.837
633 0 64.3417 14.5162 934 140.492 491.085 457.206
634 0 65.2431 14.4077 940 139.716 492.764 460.051
635 0 68.3393 13.7695 941 140.428 494.325 460.515
636 0 69.2322 13.9386 965 141.268 496.052 459.759
637 0 70.3012 15.0353 1057 138.303 496.479 460.905
638 0 74.285 15.4271 1146 138.647 497.911 455.931
639 0 76.2256 17.9467 1368 133.873 498.134 457.858
640 0 79.3456 13.4727 1069 139.976 498.06 459.161
641 0 81.2111 16.3032 1324 137.131 497.762 455.733
642 0 82.4803 12.1968 1006 144.564 498.655 453.578
643 0 88.3515 14.4084 1273 138.474 497.369 457.222
644 0 89.3345 14.0819 1258 139.692 496.391 452.626
645 0 91.2351 15.5642 1420 136.011 495.357 454.217
646 1 46.2998 12.5055 579 133.316 493.119 477.133
647 0 50.3604 11.4971 579 134.769 492.344 474.9
648 0 54.1979 15.2958 829 130.209 494.545 470.194
649 0 53.2546 13.9331 742 129.682 492.774 476.408
650 0 53.1898 15.9993 851 128.758 492.712 473.652
651 0 54.0719 12.8717 696 136.131 492.066 467.734
652 0 57.1488 12.3187 704 137.588 490.491 465.445
653 0 61.1305 15.197 929 129.234 489.534 466.602
654 0 63.0712 15.8234 998 127.637 488.702 462.239
655 0 67.1405 15.1622 1018 127.508 488.028 462.242
656 0 67.0883 14.9654 1004 129.542 487.386 459.771
657 0 67.103 13.9934 939 131.935 487.431 456.913
658 0 71.1926 17.3613 1236 123.531 487.837 460.752
659 0 74.0866 13.1063 971 132.557 488.508 451.958
660 0 75.1133 14.6312 1099 131.137 489.651 450.767
661 0 80.2255 15.7556 1264 127.862 489.96 450.585
662 0 81.139 11.1167 902 136.861 491.538 444.387
663 0 83.2357 12.2183 1017 135.286 493.498 442.263
664 0 89.2001 15.3139 1366 129.321 493.513 445.48
665 1 45.2506 9.08275 411 135.426 496.119 468.272
666 0 49.2866 12.3563 609 129.975 497.777 467.258
667 0 49.8438 10.0514 501 133.93 497.475 463.531
668 0 49.5561 11.6636 578 132.433 500.545 460.991
669 0 51.3285 12.5077 642 128.312 499.402 468.125
670 0 53.5489 16.5083 884 121.844 500.601 467.067
671 0 55.3217 13.539 749 127.907 500.73 466.039
672 0 58.2805 14.7219 858 125.403 501.408 466.621
673 0 60.3914 14.9524 903 126.056 501.241 466.239
674 0 64.2334 18.1526 1166 120.638 501.085 466.08
675 0 66.2187 15.5243 1028 124.677 499.885 466.705
676 0 68.225 16.1671 1103 124.721 499.206 466.194
677 0 70.4279 13.631 960 129.614 497.848 464.281
678 0 73.2954 13.8208 1013 130.107 496.828 465.273
679 0 74.2049 17.7077 1314 124.224 495.018 467.696
680 0 77.3743 17.047 1319 126.754 493.927 461.867
681 0 81.3556 15.5122 1262 130.73 492.726 458.829
682 0 84.354 15.5416 1311 130.839 491.885 453.833
683 0 87.5511 17.5326 1535 128.304 490.05 456.36
684 0 88.3568 17.882 1580 130.596 489.004 451.445
685 0 93.3375 22.6168 2111 122.305 487.366 454.255
686 0 92.5225 14.4722 1339 138.373 486.937 449.465
687 1 49.4552 10.6359 526 134.365 487.291 472.097
688 0 50.3049 11.2713 567 137.33 486.369 466.353
689 0 50.2724 14.8988 749 129.16 487.486 469.475
690 0 51.5845 12.6976 655 138.641 486.846 461.73
691 0 56.1532 11.3796 639 132.462 485.532 464.462
692 0 55.2393 10.9523 605 133.817 487.826 462.592
693 0 58.3626 14.1015 823 130.71 487.767 456.085
694 0 59.1944 12.3322 730 134.121 489.41 456.953
695 0 57.1679 9.86568 564 142.387 489.965 451.933
696 0 63.3139 14.8151 938 129.795 491.971 457.68
697 0 65.4036 13.5467 886 131.735 493.344 457.744
698 0 65.3209 11.8186 772 139.662 495.229 454.924
699 0 69.3728 15.2653 1059 133.671 496.622 453.632
700 0 70.2787 17.7152 1245 129.662 498.816 455.749
701 0 70.1961 13.3768 939 140.175 499.42 455.388
702 0 73.2061 14.1655 1037 138.287 501.496 457.176
703 0 76.2265 16.6215 1267 135.597 501.443 453.645
704 0 77.2002 16.4766 1272 134.142 501.899 458.057
705 0 79.3717 13.5943 1079 143.57 501.647 454.559
706 0 82.3121 16.7412 1378 139.063 501.649 452.791
707 0 81.2656 13.1175 1066 149.343 501.12 450.524
708 0 87.2534 15.7816 1377 142.859 500.93 453.612
709 0 85.2621 13.8866 1184 150.05 500.252 449.715
710 0 93.4081 16.0693 1501 141.446 498.564 452.764
711 0 93.3073 12.3463 1152 152.644 497.195 446.338
712 1 50.0738 11.9623 599 139.262 496.875 473.342
713 0 55.0915 13.2507 730 137.984 496.07 469.422
714 0 54.1022 10.3323 559 150.619 495.567 469.1
715 0 59.0713 16.5732 979 139.93 493.915 467.745
716 0 59.331 11.3263 672 144.268 491.119 471.034
717 0 63.7627 13.6914 873 142.855 488.818 460.593
718 0 64.1681 15.9269 1022 137.795 491.118 463.652
719 0 65.2808 12.699 829 142.308 489.77 465.614
720 0 69.2699 15.7789 1093 136.423 488.395 463.276
721 0 68.2663 13.2276 903 147.362 488.2 456.718
722 0 72.171 13.3295 962 144.927 488.231 459.938
723 0 72.196 15.4579 1116 144.554 487.409 453.021
724 0 76.2862 17.2246 1314 139.106 488.03 455.504
725 0 81.146 15.1825 1232 140.8 488.541 454.985
726 0 84.2458 16.7961 1415 137.816 489.247 452.043
727 0 86.2789 13.5027 1165 145.736 488.954 448.093
728 1 46.1496 11.0727 511 138.419 492.632 469.832
729 0 47.0527 11.7315 552 140.391 493.793 466.759
730 0 48.1055 11.8074 568 141.699 495.815 467.827
731 0 51.0668 15.7245 803 131.311 497.502 469.473
732 0 52.2926 13.2906 695 136.639 498.807 467.433
733 0 53.5274 13.9928 749 133.724 496.609 464.636
734 0 52.1573 9.37549 489 144.01 497.323 465.926
735 0 55.2057 14.5999 806 137.516 498.852 464.475
736 0 58.1064 13.4409 781 136.894 499.7 469.178
737 0 58.2046 15.3424 893 136.112 499.98 468.544
738 0 61.2529 13.6973 839 135.647 498.423 471.318
739 0 65.172 14.316 933 134.553 498.092 470.294
740 0 66.1403 16.4197 1086 132.665 497.503 470.761
741 0 67.2543 15.3299 1031 134.64 495.684 471.084
742 0 69.1642 11.8125 817 141.547 495.206 470.323
743 0 70.1968 15.4423 1084 137.191 493.559 468.232
744 0 75.3037 15.6035 1175 136.467 492.328 466.769
745 0 75.2418 12.8918 970 143.397 491.037 460.871
746 0 77.3367 12.6072 975 142.805 489.359 466.147
747 0 82.2091 17.9177 1473 134.999 488.291 462.64
748 0 85.3158 16.3979 1399 136.946 486.802 461.185
749 0 85.3776 14.3012 1221 142.314 486.108 462.312
750 0 86.4261 13.9426 1205 145.647 485.002 458.932
751 1 44.2085 13.572 600 137.992 485.293 480
752 0 44.0675 11.8228 521 142.512 483.735 478.196
753 0 48.1529 13.9763 673 139.199 484.284 475.871
754 0 48.4986 14.0829 683 138.438 483.59 474.884
755 0 47.3846 12.4091 588 145.694 484.286 469.233
756 0 50.5106 17.6399 891 132.644 485.383 467.455
757 0 50.5122 17.5403 886 120.762 484.36 467.367
758 0 52.2984 14.1496 740 135.416 484.758 469.049
759 0 53.2973 13.4904 719 127.145 485.825 469.239
760 0 55.4426 15.0787 836 134.734 486.282 465.045
761 0 57.3256 14.4787 830 135.449 488.076 466.812
762 0 58.339 16.0956 939 133.715 489.309 464.278
763 0 59.1974 14.2236 842 136.597 490.552 463.014
764 0 61.2438 13.0136 797 139.808 491.597 465.089
765 0 63.2044 11.977 757 141.974 493.184 467.509
766 0 64.3191 13.5108 869 140.168 493.712 466.405
767 0 65.2701 13.6969 894 144.987 496.143 461.745
768 0 70.3527 12.551 883 144.297 496.644 465.793
769 0 70.2737 14.7281 1035 141.119 497.139 464.727
770 0 71.3463 13.5676 968 146.386 496.983 462.955
771 0 72.2868 13.6954 990 145.877 496.885 459.288
772 0 76.3929 12.5535 959 148.764 496.843 461.55
773 0 79.4675 14.4336 1147 145.34 496.673 461.282
774 0 83.2756 13.2932 1107 144.76 494.988 468.734
775 0 84.2997 14.1282 1191 144.772 493.428 468.313
776 0 91.2575 15.5604 1420 143.275 491.742 467.492
777 1 46.1118 8.04567 371 149.895 489.698 483.849
778 0 49.1953 10.0619 495 148.434 488.188 483.014
779 0 50.1969 10.7776 541 146.762 486.519 482.331
780 0 54.3417 11.6117 631 147.013 486.569 476.918
781 0 52.4101 15.8557 831 141 484.998 477.081
782 0 55.4398 14.4661 802 141.944 483.813 475.877
783 0 56.0603 12.8433 720 148.321 481.615 475.838
784 0 54.1686 12.5165 678 152.143 480.938 472.97
785 0 60.1671 14.2603 858 148.098 481.026 470.198
786 0 60.0439 13.1904 792 152.093 479.617 466.013
787 0 65.0699 14.3231 932 148.135 479.406 464.227
788 0 64.197 14.767 948 148.455 479.13 464.103
789 0 67.0339 15.4101 1033 146.749 479.33 464.044
790 0 71.08 15.6021 1109 146.858 480.012 459.568
791 0 72.0707 12.9456 933 150.609 480.42 459.631
792 0 75.0876 13.3311 1001 150.478 480.938 456.729
793 0 77.1158 13.188 1017 149.912 482.07 456.716
794 1 43.0256 11.8766 511 147.489 482.495 471.158
795 0 43.0699 10.8428 467 145.31 483.921 475.296
796 0 44.1994 10.4074 460 149.639 485.95 471.398
797 0 47.1328 13.1119 618 144.189 487.804 469.176
798 0 47.0556 14.5997 687 142.199 488.802 469.361
799 0 50.2161 14.3579 721 141.965 490.667 468.356
800 0 48.2838 10.604 512 147.561 492.312 468.645
801 0 52.0539 15.8874 827 137.579 493.885 469.468
802 0 51.0918 11.9197 609 148.816 495.218 471.328
803 0 57.1065 13.9564 797 139.567 495.334 473.649
804 0 54.281 15.8066 858 139.315 496.937 474.438
805 0 59.0864 17.3306 1024 137.103 496.938 472.563
806 0 59.1128 13.212 781 146.734 495.717 469.974
807 0 60.055 17.9169 1076 139.335 496.403 467.758
808 0 63.1404 13.763 869 144.058 495.926 472.311
809 0 65.1536 16.1771 1054 141.935 494.635 469.666
810 0 63.1974 12.3106 778 150.293 494.207 466.819
811 0 71.0999 16.4698 1171 140.568 493.956 469.327
812 0 69.1385 13.0173 900 149.04 493.052 466.708
813 0 74.1487 15.1992 1127 144.49 491.832 466.6
814 0 75.1606 15.3006 1150 146.369 491.144 462.132
815 0 78.2612 15.8444 1240 144.644 490.029 463.141
816 1 41.1693 8.16143 336 151.348 487.798 480.045
817 0 43.1932 8.51986 368 152.897 487.217 478.372
818 0 42.3091 12.2196 517 149.942 486.876 474.064
819 0 46.3712 13.3057 617 145.078 486.454 474.94
820 0 47.2407 15.2623 721 141.323 486.27 469.838
821 0 50.4706 15.9697 806 138.313 485.566 471.253
822 0 52.221 16.6982 872 136.206 485.377 468.701
823 0 53.1204 14.5707 774 143.149 485.221 467.963
824 0 53.0726 16.9956 902 138.961 485.532 468.309
825 0 56.1512 16.5624 930 138.768 486.437 466.242
826 0 57.2318 14.2927 818 144.822 487.506 463.357
827 0 59.4833 14.8949 886 142.844 488.568 465.402
828 0 63.1752 17.2219 1088 137.795 490.186 461.647
829 0 64.1829 14.3029 918 144.16 490.941 462.711
830 0 67.201 15.4611 1039 142.086 493.044 460.542
831 0 67.1516 14.1173 948 144.997 495.205 461.074
832 0 70.2025 16.3812 1150 141.853 495.741 460.469
833 0 73.1447 15.8316 1158 143.672 497.924 458.149
834 0 76.1582 14.378 1095 145.742 499.353 459.443
835 1 39.0308 9.35158 365 148.915 498.09 478.241
836 0 44.0799 11.5018 507 141.022 500.345 480.479
837 0 46.1188 12.8798 594 142.079 500.049 477.116
838 0 45.2647 11.5542 523 140.692 500.912 477.453
839 0 47.1847 16.552 781 133.156 500.499 475.333
840 0 50.297 18.3709 924 134.063 500.699 478.571
841 0 50.1001 15.5489 779 137.275 499.271 479.248
842 0 51.1273 13.6718 699 140.767 497.524 477.581
843 0 55.1126 14.8605 819 138.366 495.824 478.709
844 0 55.1036 15.9336 878 137.757 495.255 474.953
845 0 55.0879 13.1426 724 143.575 493.343 477.225
846 0 61.2644 14.5762 893 137.662 492.656 477.282
847 0 65.119 17.1839 1119 133.172 490.577 471.954
848 0 63.208 15.2987 967 138.393 489.328 471.787
849 0 65.1021 16.19 1054 135.957 488.628 473.204
850 0 65.1516 12.9851 846 143.39 486.156 466.798
851 0 71.2322 16.7621 1194 133.747 484.204 467.843
852 0 71.1289 17.3347 1233 135.69 484.23 462.02
853 0 73.1991 16.1887 1185 137.087 484.353 461.955
854 0 75.2293 16.3367 1229 137.994 484.282 457.666
855 0 78.1466 16.597 1297 137.443 483.935 457.476
856 0 83.1186 17.7457 1475 133.682 482.601 457.574
857 0 87.2284 19.5578 1706 130.863 483.542 454.043
858 0 87.2442 15.4624 1349 138.497 483.353 455.201
859 0 88.1844 15.3542 1354 139.529 483.521 450.614
860 0 95.2706 16.6893 1590 136.477 485.131 450.807
861 0 96.1975 17.3289 1667 135.164 485.782 452.131
862 0 101.19 17.7191 1793 135.239 487.972 446.684
863 0 104.176 17.5089 1824 137.019 489.186 447.359
864 0 108.223 20.7904 2250 132.467 490.451 440.056
865 0 110.192 18.6584 2056 137.018 492.35 437.906
866 0 115.329 16.9688 1957 140.111 494.268 440.55
867 0 118.259 15.8804 1878 142.24 495.934 440.308
868 0 121.563 15.5557 1891 142.737 495.781 442.779
869 0 124.519 19.0412 2371 137.734 497.29 434.445
870 0 130.377 15.0257 1959 142.664 496.424 438.975
871 1 73.0798 12.0143 878 144.755 496.197 465.147
872 0 79.2148 13.8737 1099 141.742 495.206 463.794
873 0 79.2252 14.1622 1122 141.202 496.258 462.634
874 0 82.0759 15.6197 1282 139.827 500.119 462.985
875 0 84.1849 16.8914 1422 136.986 499.876 460.399
876 0 87.09 15.1797 1322 137.889 497.992 462.765
877 0 91.0781 15.1189 1377 140.654 496.123 458.851
878 0 95.3186 16.7963 1601 136.93 494.443 456.868
879 0 97.1649 16.3639 1590 139.333 493.925 454.468
880 0 101.148 15.166 1534 141.642 492.13 449.677
881 0 104.102 15.5713 1621 140.049 491.321 454.942
882 0 108.295 19.2344 2083 136.019 490.156 445.832
883 0 109.206 14.9533 1633 144.999 488.801 443.311
884 0 113.217 19.0607 2158 137.482 487.423 440.444
885 0 117.177 13.8935 1628 145.451 487.417 443.615
886 0 118.133 16.8031 1985 142.68 485.346 434.886
887 0 125.137 17.1012 2140 141.648 485.764 433.073
888 0 129.171 21.4832 2775 132.672 485.377 435.54
889 0 133.121 15.7752 2100 144.363 484.986 428.945
890 1 69.1355 14.4788 1001 138.568 485.161 457.808
891 0 67.2438 14.8415 998 137.288 485.858 458.949
892 0 73.2589 12.4627 913 135.488 484.78 456.853
893 0 75.5161 17.0427 1287 128.112 484.991 456.598
894 0 81.3331 20.4837 1666 123.963 486.16 453.2
895 0 81.5075 14.6735 1196 133.779 487.745 453.621
896 0 83.4527 16.3566 1365 131.33 489.439 451.595
897 0 84.635 14.0958 1193 135.534 490.764 451.545
898 0 89.5065 16.5128 1478 132.696 493.231 448.018
899 0 96.6577 16.8119 1625 129.234 494.412 452.878
900 1 50.394 9.88213 498 141.675 495.434 470.514
901 0 55.2499 14.0815 778 133.203 497.044 469.496
902 0 56.2577 15.3579 864 133.168 497.22 469.325
903 0 56.2577 15.3223 862 126.746 498.233 469.202
904 0 60.1842 16.7984 1011 132.492 497.626 468.831
905 0 61.1944 16.1289 987 134.486 498.023 468.036
906 0 62.1269 16.0478 997 134.439 497.034 464.826
907 0 63.175 15.2909 966 137.08 497.03 462.156
908 0 66.3013 15.1581 1005 134.975 497.371 466.199
909 0 68.4144 14.4852 991 137.531 496.834 464.218
910 0 68.5802 14.4502 991 136.592 495.663 463.666
911 0 71.5598 19.1728 1372 129.532 495.133 455.991
912 0 72.7418 18.7375 1363 130.751 493.989 456.277
913 0 75.8422 13.9896 1061 137.877 492.604 455.304
914 0 75.8699 14.0767 1068 136.851 491.613 455.231
915 0 82.1735 17.171 1411 132.811 490.528 450.996
916 0 85.6679 19.7273 1690 128.374 489.186 449.672
917 1 44.6415 12.0964 540 139.9 487.807 468.52
918 0 42.3206 10.1133 428 144.724 486.423 468.054
919 0 44.3496 11.6799 518 142.703 486.145 467.873
920 0 45.4123 12.1333 551 142.96 486.004 466.466
921 0 45.2145 16.0789 727 137.684 485.475 463.387
922 0 46.3454 13.8093 640 142.503 486.519 462.139
923 0 48.65 13.5457 659 141.829 485.836 463.226
924 0 49.2391 13.1806 649 144.357 486.553 460.498
925 0 52.4922 16.7263 878 138.113 487.272 458.548
926 0 54.3489 15.1429 823 139.859 488.131 457.787
927 0 56.6808 10.6209 602 147.475 489.379 456.678
928 0 57.4953 15.8622 912 139.764 490.856 455.019
929 0 60.8551 14.6085 889 141.576 492.609 455.197
930 0 62.7248 14.9064 935 141.524 494.774 453.681
931 0 60.4892 15.0771 912 144.414 496.296 453.435
932 0 65.7553 16.3789 1077 140.534 498.071 453.336
933 0 65.5027 15.7856 1034 144.187 499.047 450.351
934 0 68.641 14.0441 964 147.545 499.366 452.25
935 0 74.5021 17.315 1290 141.098 500.786 449.994
936 0 72.4844 12.9131 936 150.807 501.534 450.894
937 0 75.5072 15.4157 1164 147.673 501.18 448.807
938 0 79.5653 14.4661 1151 147.811 501.88 450.184
939 0 81.5412 17.4881 1426 142.377 500.844 448.868
940 0 85.5634 16.3738 1401 144.817 500.027 447.135
941 1 46.2966 8.01355 371 139.747 500.838 472.685
942 0 47.2469 9.73609 460 138.824 499.561 470.417
943 0 49.1986 11.0572 544 135.7 499.136 471.289
944 0 49.2469 9.19855 453 141.437 497.996 470.766
945 0 51.231 11.087 568 140.062 498.68 472.143
946 0 53.4467 14.2198 760 134.266 492.934 473.696
947 0 55.2731 16.7713 927 130.811 490.874 471.338
948 0 58.2434 15.7786 919 133.728 491.158 472.925
949 0 57.0785 14.0158 800 138.58 489.136 471.619
950 0 62.2535 13.0756 814 141.37 487.439 467.187
951 0 64.2445 16.0948 1034 134.606 487.533 469.877
952 0 64.195 15.0479 966 139.492 487.785 466.291
953 0 65.367 15.1452 990 141.062 487.391 464.861
954 0 67.268 13.6766 920 145.058 486.512 461.702
955 0 71.4829 13.3738 956 144.32 486.957 461.013
956 0 73.3686 15.6879 1151 139.513 487.02 461.038
957 0 75.4287 14.8219 1118 143.614 486.584 453.55
958 0 78.2678 14.2587 1116 143.562 487.506 452.755
959 1 42.2428 9.37439 396 144.49 490.2 473.838
960 0 43.3096 10.8983 472 143.551 491.411 472.494
961 0 46.3174 11.7234 543 141.39 493.33 470.871
962 0 48.1379 14.3131 689 137.393 494.816 469.739
963 0 51.1228 13.4774 689 138.759 496.052 468.155
964 0 50.1608 11.6027 582 141.727 496.476 469.455
965 0 49.0948 11.8342 581 143.964 499.315 468.141
966 0 52.1349 12.7554 665 143.132 501.429 465.946
967 0 54.1812 10.5941 574 145.53 501.99 467.563
968 0 56.1524 14.4606 812 139.36 503.276 464.975
969 0 57.2281 12.1269 694 140.135 503.158 470.512
970 0 59.3087 13.5562 804 136.376 503.496 470.226
971 0 61.1616 13.3907 819 137.851 504.58 470.549
972 0 62.321 14.0562 876 135.856 503.621 470.463
973 0 65.4856 13.3923 877 138.108 501.672 466.082
974 0 69.3738 13.5354 939 137.993 500.645 468.384
975 0 70.4853 14.1732 999 135.961 500.154 468.753
976 0 72.351 13.4345 972 139.961 498.607 462.933
977 1 40.2918 9.183 370 141.776 497.335 480.508
978 0 42.2768 15.1856 642 131.298 495.966 478.058
979 0 44.1618 9.05761 400 142.33 495.118 477.015
980 0 44.1594 10.6206 469 141.13 493.362 474.712
981 0 44.2332 12.5245 554 138.087 492.291 474.866
982 0 47.2182 15.9684 754 131.601 491.253 474.861
983 0 47.0285 14.0766 662 136.415 491.192 471.121
984 0 49.2225 13.6117 670 137.003 490.113 469.206
985 0 49.0855 13.8737 681 136.703 487.295 468.994
986 0 49.1652 15.7022 772 132.114 485.395 467.838
987 0 52.1091 14.8151 772 134.82 484.652 466.043
988 0 55.0463 15.0964 831 135.146 484.787 463.291
989 0 57.085 13.8741 792 137.24 484.48 462.808
990 0 56.1776 14.5788 819 137.405 484.973 462.266
991 0 61.1252 13.8404 846 138.132 484.902 460.543
992 0 62.0831 15.8658 985 136.468 485.369 455.412
993 0 63.0985 12.9163 815 141.067 486.29 456.732
994 0 67.1904 14.124 949 139.439 487.874 452.862
995 0 68.1777 14.7409 1005 138.957 488.858 453.37
996 0 71.1247 14.0036 996 138.714 491.262 449.768
997 0 71.2423 13.8962 990 139.077 492.668 452.077
998 0 75.3166 14.8175 1116 137.285 494.822 450.203
999 1 41.0757 10.4441 429 142.161 495.599 465.401
1000 0 41.2577 9.71941 401 141.646 497.057 468.035
1001 0 44.0148 10.7464 473 140.182 497.909 468.359
1002 0 44.1252 13.5297 597 136.615 498.312 467.151
1003 0 45.1013 13.8134 623 136.738 503.035 469.886
1004 0 46.0555 11.8553 546 139.15 502.919 470.456
1005 0 50.0753 11.263 564 139.631 502.851 471.8
1006 0 49.2094 14.672 722 136.295 503.003 471.226
1007 0 51.0758 13.2744 678 139.016 503.148 471.255
1008 0 54.0656 15.1298 818 133.804 502.892 473.612
1009 0 56.1589 13.6399 766 133.618 502.227 474.957
1010 0 59.0845 15.334 906 130.684 501.226 471.433
1011 0 58.1378 14.3108 832 135.903 499.683 469.257
1012 0 63.1215 14.084 889 134.292 498.488 471.09
1013 0 60.1212 15.0363 904 135.616 497.15 470.687
1014 0 64.0559 14.784 947 135.268 495.364 467.464
1015 0 67.0676 13.6728 917 135.948 492.952 466.244
1016 1 31.0101 8.35211 259 138.853 492.938 484.857
1017 0 35.057 11.7523 412 132.655 492.25 482.772
1018 0 35.0206 8.65205 303 139.36 491.31 482.3
1019 0 38.0578 15.6604 596 127.277 490.329 480.854
1020 0 39.0432 12.0123 469 133.094 489.51 480.723
1021 0 41.1511 13.8514 570 129.496 489.216 477.535
1022 0 42.2524 13.301 562 132.34 488.244 473.991
1023 0 44.0513 13.734 605 127.81 489.073 480.251
1024 0 45.0367 13.3447 601 133.176 489.584 475.657
1025 0 46.0915 14.2543 657 130.828 489.126 474.446
1026 0 48.0431 15.7359 756 127.296 489.627 475.324
1027 0 49.1451 15.9731 785 127.578 490.828 470.739
1028 0 51.0277 14.7959 755 130.556 491.272 472.146
1029 0 55.0774 16.7945 925 124.509 493.011 472.591
1030 0 55.0935 16.3722 902 125.924 494.155 470.559
1031 0 56.1281 15.0014 842 127.281 496.882 472.711
1032 0 56.0732 17.2988 970 125.668 498.064 470.222
1033 0 59.1695 13.8247 818 130.082 500.141 472.067
1034 0 60.273 15.8446 955 126.161 500.262 471.068
1035 0 64.2531 17.4778 1123 122.565 501.508 472.557
1036 0 65.1157 17.5073 1140 121.801 502.118 472.789
1037 0 62.316 11.875 740 132.636 501.761 469.765
1038 0 68.2578 14.4452 986 128.203 501.867 473.276
1039 0 72.0743 14.1659 1021 129.197 501.544 469.438
1040 0 74.1688 19.2669 1429 120.885 501.287 471.617
1041 0 77.1874 17.1142 1321 125.914 499.659 467.889
1042 0 80.1908 15.7499 1263 128.584 498.521 466.838
1043 0 81.1659 15.4868 1257 128.27 496.578 469.026
1044 1 42.0403 12.7497 536 129.965 495.787 483.959
1045 0 47.0808 14.0609 662 126.536 494.636 482.867
1046 0 46.0817 16.2971 751 125.273 491.935 481.036
1047 0 51.0832 18.2447 932 119.111 491.312 480.808
1048 0 49.3429 13.1529 649 130.131 486.821 478.35
1049 0 47.4028 13.4591 638 131.879 484.323 474.024
1050 0 51.1583 13.1161 671 132.553 483.757 472.583
1051 0 53.1307 15.3395 815 129.288 483.334 471.534
1052 0 55.3092 13.1804 729 133.551 482.952 469.772
1053 0 57.2239 14.5044 830 129.923 483.036 470.474
1054 0 57.1312 15.9633 912 131.314 483.298 469.322
1055 0 59.0874 18.4811 1092 127.471 482.852 466.67
1056 0 63.0996 18.5104 1168 126.366 483.666 466.755
1057 0 64.2773 19.0736 1226 126.731 482.947 462.813
1058 0 64.1637 15.289 981 136.073 482.828 460.868
1059 0 69.1577 15.5876 1078 133.703 484.677 456.981
1060 0 70.153 17.7327 1244 132.564 485.13 454.164
1061 0 74.177 14.4654 1073 139.036 485.744 452.978
1062 0 77.2397 19.3035 1491 130.416 487.582 452.985
1063 0 78.2036 16.6616 1303 138.295 488.765 453.115
1064 0 80.2088 14.6119 1172 143.087 491.136 452.143
1065 1 44.295 13.5456 600 137.33 491.885 469.372
1066 0 44.243 14.556 644 135.039 493.393 470.452
1067 0 43.1602 9.61534 415 147.137 494.711 467.713
1068 0 46.0234 12.6675 583 139.487 495.544 469.557
1069 0 46.1167 12.4684 575 139.555 497.823 467.809
1070 0 45.0807 11.2243 506 142.364 501.468 473.198
1071 0 50.0688 12.8024 641 139.402 502.585 470.83
1072 0 48.0914 13.8694 667 139.789 502.18 469.024
1073 0 55.0442 11.9177 656 141.04 502.503 470.617
1074 0 56.2216 12.9132 726 139.683 503.04 470.437
1075 0 57.0635 15.2812 872 135.397 502.722 471.799
1076 0 56.1886 11.3902 640 144.116 502.353 470.622
1077 0 62.1314 13.4554 836 139.173 501.568 470.475
1078 0 62.0452 11.6689 724 143.29 500.912 470.168
1079 0 65.0505 15.6494 1018 136.28 499.265 468.379
1080 0 65.1172 13.8673 903 141.518 498.47 468.118
1081 0 68.3184 14.4617 988 139.379 497.553 467.517
1082 0 71.0932 16.0915 1144 136.789 496.098 463.546
1083 0 75.2002 16.8484 1267 135.035 494.971 463.144
1084 0 77.1713 15.6405 1207 137.443 493.448 462.39
1085 0 80.2374 17.1242 1374 135.365 491.398 457.931
1086 0 79.1808 14.89 1179 139.377 489.73 457.192
1087 1 47.1446 8.37848 395 142.848 488.99 472.947
1088 0 46.0506 11.4439 527 140.924 488.461 469.979
1089 0 49.0815 11.7152 575 139.002 489.198 469.553
1090 0 52.0599 12.7161 662 137.023 489.299 468.583
1091 0 52.097 12.8414 669 136.759 489.822 468.523
1092 0 55.0848 15.0314 828 133.238 489.463 466.316
1093 0 57.3724 15.7567 904 132.999 486.623 464.053
1094 0 58.0899 14.7358 856 136.522 486.706 463.717
1095 0 62.0548 17.8713 1109 130.431 488.693 462.042
1096 0 62.1392 16.4469 1022 135.872 489.662 459.676
1097 0 63.2014 14.7465 932 138.823 490.339 458.397
1098 0 65.0962 16.3911 1067 137.891 492.984 454.942
1099 0 66.1364 17.2522 1141 136.48 494.509 456.805
1100 0 69.1486 17.2961 1196 136.739 496.36 457.193
1101 0 71.147 15.5312 1105 138.884 499.229 460.082
1102 0 72.3473 14.3198 1036 143.366 501.009 457.449
1103 0 74.4234 13.7994 1027 144.328 501.929 458.884
1104 0 77.3416 12.3607 956 146.882 501.721 457.233
1105 0 79.3595 14.9951 1190 140.577 501.341 460.445
1106 0 81.4568 17.4939 1425 135.252 501.053 462.896
1107 0 84.3964 18.6501 1574 134.164 500.595 463.059
1108 0 87.2181 18.1155 1580 140.528 499.813 454.445
1109 0 90.4472 15.8214 1431 143.45 499.257 457.238
1110 0 91.4843 19.0743 1745 138.07 498.03 457.748
1111 0 95.3495 18.2696 1742 141.061 496.888 450.966
1112 1 46.4154 10.7292 498 140.48 495.645 481.074
1113 0 52.1761 11.7487 613 143.259 494.331 474.042
1114 0 54.5201 12.0139 655 144.238 493.247 472.356
1115 0 57.5586 13.4298 773 141.041 492.301 473.735
1116 0 58.3198 15.2607 890 135.145 492.261 476.42
1117 0 56.1713 13.4588 756 139.433 489.7 470.913
1118 0 59.1962 12.1798 721 142.397 488.911 468.216
1119 0 61.2018 13.6434 835 140.715 487.996 467.228
1120 0 63.1079 14.6733 926 137.673 487.321 468.118
1121 0 64.1377 13.892 891 143.282 487.686 467.978
1122 0 66.1536 14.3605 950 143.075 487.958 467.912
1123 0 69.1307 12.6861 877 145.31 486.699 463.855
1124 0 69.1742 12.5047 865 146.807 486.089 463.672
1125 0 72.1881 14.1852 1024 145.163 486.994 459.708
1126 0 76.1615 16.5438 1260 139.282 487.33 460.999
1127 0 79.113 15.4336 1221 143.895 487.452 458.078
1128 0 82.1245 15.9027 1306 141.337 488.337 459.945
1129 0 85.184 17.3624 1479 140.579 489.116 456.796
1130 1 45.0638 13.5808 612 135.212 490.585 479.784
1131 0 44.0928 10.9768 484 143.932 491.566 476.523
1132 0 43.0239 11.8771 511 149.245 493.278 474.194
1133 0 44.317 11.4177 506 148.623 491.911 471.156
1134 0 50.4704 15.6131 788 139.143 494.688 468.898
1135 0 50.5114 14.67 741 142.54 495.953 473.146
1136 0 51.1292 15.764 806 141.591 498.368 476.743
1137 0 53.143 12.8333 682 144.636 499.284 476.628
1138 0 53.39 10.8822 581 153.153 498.306 477.859
1139 0 53.1657 14.7464 784 146.004 497.929 478.372
1140 0 58.1931 15.5345 904 142.941 497.032 477.238
1141 0 60.1751 16.2858 980 142.759 497.735 477.065
1142 0 60.351 18.7238 1130 140.021 496.881 476.605
1143 0 64.3644 15.4278 993 145.222 495.227 475.535
1144 0 65.3731 14.5932 954 149.025 493.822 472.832
1145 0 68.2103 14.7632 1007 146.414 493.181 474.364
1146 0 71.4894 17.0794 1221 143.425 490.387 470.142
1147 0 75.3887 20.7723 1566 135.741 489.107 470.264
1148 0 72.6655 14.2158 1033 152.792 488.131 465.344
1149 0 79.5083 15.3192 1218 148.809 486.398 464.883
1150 1 41.1964 12.938 533 144.51 486.004 482.334
1151 0 42.4999 15.2942 650 145.945 484.763 477.365
1152 0 45.4757 17.174 781 139.516 483.94 476.78
1153 0 45.5324 14.7807 673 145.193 483.48 473.095
1154 0 47.4172 14.4462 685 143.473 483.445 474.528
1155 0 48.5869 13.3781 650 147.249 483.457 472.248
1156 0 50.5806 15.5 784 141.935 483.3 468.346
1157 0 49.1376 16.464 809 138.538 483.146 471.656
1158 0 52.3363 14.1775 742 143.425 483.499 469.841
1159 0 50.4406 14.3139 722 145.698 484.637 467.391
1160 0 54.285 16.3765 889 140.078 485.435 467.624
1161 0 53.3062 16.1707 862 142.022 486.712 463.809
1162 0 57.2846 13.9479 799 142.456 486.78 464.461
1163 0 60.2114 16.9569 1021 134.558 488.852 465.462
1164 0 62.3042 18.843 1174 131.111 489.991 465.139
1165 0 60.2465 15.254 919 140.341 492.62 465.011
1166 0 63.2907 17.4749 1106 137.228 495.168 460.259
1167 0 65.1615 16.6509 1085 139.112 496.706 460.571
1168 0 66.2145 17.7152 1173 139.432 498.013 461.176
1169 0 67.274 15.8159 1064 143.153 498.719 460.273
1170 0 73.2236 18.8191 1378 135.583 499.468 463.497
1171 0 74.337 18.6314 1385 136.764 499.679 463.576
1172 0 76.2498 15.6591 1194 143.673 499.961 465.076
1173 0 76.2791 16.4265 1253 144.58 500.959 458.783
1174 0 79.183 17.2133 1363 142.244 499.669 461.487
1175 0 81.2086 14.5058 1178 149.776 500.047 464.136
1176 0 86.2566 16.1959 1397 146.78 498.838 461.214
1177 0 88.2273 17.5456 1548 145.849 498.344 458.97
1178 1 43.1851 12.6896 548 147.699 495.655 481.307
1179 0 48.322 13.0582 631 150.086 494.482 479.101
1180 0 49.0976 13.1575 646 149.859 492 477.712
1181 0 49.1 13.1364 645 150.541 490.848 477.322
1182 0 51.1141 13.9492 713 149.09 489.655 475.596
1183 0 53.2887 17.6773 942 142.784 488.18 472.686
1184 0 56.1732 16.3957 921 144.494 487.754 471.922
1185 0 59.1102 15.5811 921 145.131 486.592 469.504
1186 0 57.1653 14.8167 847 149.243 486.221 464.923
1187 0 63.2038 16.8028 1062 142.228 484.957 466.626
1188 0 63.2214 15.6592 990 146.12 485.342 460.606
1189 0 67.1993 15.4764 1040 144.232 484.613 462.905
1190 0 66.2513 14.2488 944 149.163 484.542 458.693
1191 0 70.3259 16.6795 1173 143.227 484.633 454.859
1192 0 73.1714 17.9578 1314 140.51 484.759 452.74
1193 0 75.2774 15.5159 1168 145.121 485.603 455.384
1194 0 77.3865 17.1348 1326 142.961 486.794 450.764
1195 0 80.3048 15.1299 1215 146.142 488.317 451.979
1196 0 85.3567 18.2294 1556 139.262 490.35 449.681
1197 0 87.3341 17.3014 1511 140.872 491.431 445.363
1198 1 46.3235 11.6787 541 146.357 491.993 467.567
1199 0 48.4939 11.3004 548 151.425 495.23 464.962
1200 0 48.2088 12.7155 613 143.506 496.018 469.551
1201 0 49.2896 15.1553 747 143.187 498.378 467.726
1202 0 54.6065 14.1009 770 143.458 499.125 466.044
1203 0 58.29 14.4793 844 141.082 500.892 466.319
1204 0 58.2832 14.9271 870 139.446 501.775 465.51
1205 0 58.1404 12.1946 709 146.286 501.99 466.874
1206 0 63.1836 14.45 913 142.624 501.705 463.648
1207 0 64.297 14.713 946 144.169 500.877 465.66
1208 0 64.288 15.415 991 144.943 500.834 461.601
1209 0 68.2326 16.0627 1096 143.519 500.035 465.084
1210 0 72.2129 17.0745 1233 141.68 499.131 464.612
1211 0 76.3782 16.4445 1256 142.803 497.631 464.617
1212 0 77.1749 17.5057 1351 143.112 496.954 461.224
1213 0 80.5074 18.3213 1475 141.52 495.54 460.856
1214 0 82.2647 16.7143 1375 145.162 493.94 460.564
1215 0 85.2754 17.2383 1470 145.007 492.556 457.153
1216 1 45.1393 10.2793 464 148.69 489.707 480.92
1217 0 44.2206 11.9401 528 145.655 488.578 479.682
1218 0 49.0587 15.3082 751 137.606 487.578 479.001
1219 0 49.0308 12.7879 627 141.931 486.169 479.182
1220 0 52.0589 16.7118 870 134.339 486.306 475.58
1221 0 53.1065 13.7083 728 142.154 484.772 474.008
1222 0 53.1381 14.1518 752 139.521 485.058 467.997
1223 0 54.1821 14.1929 769 139.889 484.619 465.485
1224 0 57.1541 14.1197 807 138.796 484.326 464.03
1225 0 59.1173 13.4817 797 140.184 484.88 462.12
1226 0 60.2006 14.8503 894 136.595 486.218 464.326
1227 0 65.1802 13.501 880 139.918 486.549 461.382
1228 0 67.2209 14.0581 945 140.875 486.872 459.854
1229 0 68.2372 13.922 950 139.312 489.318 461.411
1230 0 70.2301 15.7198 1104 138.697 490.11 456.918
1231 0 73.1874 17.79 1302 134.963 491.826 456.514
1232 0 73.2882 12.9625 950 144.856 493.9 455.129
1233 0 77.2954 14.7486 1140 139.73 495.829 455.523
1234 0 80.4528 14.4805 1165 140.904 497.024 453.663
1235 1 44.1462 11.5978 512 138.262 499.623 474.197
1236 0 46.1002 12.6898 585 135.103 501.556 476.617
1237 0 45.16 10.4075 470 137.023 501.708 477.294
1238 0 49.0633 11.3731 558 136.545 501.063 480.624
1239 0 49.1126 15.0063 737 134.958 501.692 475.151
1240 0 53.1229 18.1842 966 127.556 498.094 479.008
1241 0 50.0563 13.6247 682 137.37 497.944 475.991
1242 0 54.1774 16.446 891 132.127 497.176 476.512
1243 0 57.2046 13.9849 800 135.712 496.284 476.898
1244 0 57.2234 12.9493 741 135.402 494.874 476.838
1245 0 60.1717 17.3005 1041 128.318 493.667 474.994
1246 0 63.148 16.5009 1042 130.632 492.217 471.363
1247 0 65.1333 15.1842 989 131.589 491.141 473.197
1248 0 67.1233 18.6075 1249 126.882 489.263 472.08
1249 0 68.0633 16.3377 1112 132.2 487.944 468.134
1250 0 72.1823 13.7568 993 134.079 486.958 470.969
1251 0 75.1115 19.2913 1449 127.786 485.675 465.733
1252 0 77.1014 15.6417 1206 134.048 485.329 463.689
1253 0 79.2383 16.2295 1286 132.322 484.546 464.928
1254 0 82.2492 16.8391 1385 132.778 484.736 460.192
1255 0 84.1571 17.1821 1446 131.683 483.895 459.352
1256 0 86.0983 15.5984 1343 134.089 483.695 459.521
1257 0 87.215 15.2153 1327 133.788 484.154 460.867
1258 0 89.1387 12.2394 1091 141.359 484.103 456.931
1259 0 94.337 16.8651 1591 132.294 485.385 452.207
1260 1 46.0956 9.56707 441 140.853 483.605 471.231
1261 0 51.5253 13.1586 678 135.668 483.308 467.202
1262 0 54.3053 13.1111 712 134.456 484.032 466.396
1263 0 55.3242 13.3215 737 135.628 489.596 470.43
1264 0 56.0626 16.7848 941 131.053 490.683 468.952
1265 0 58.1614 14.7177 856 134.529 492.145 468.345
1266 0 60.0857 14.1798 852 135.331 494.469 469.749
1267 0 63.0677 14.3021 902 134.155 496.318 469.599
1268 0 64.1069 13.9455 894 135.79 497.628 466.704
1269 0 65.0507 14.235 926 136.235 498.275 466.082
1270 0 71.0839 15.6716 1114 129.959 498.689 471.119
1271 0 71.1233 16.0566 1142 129.942 498.87 466.982
1272 0 75.1239 14.5493 1093 130.657 499.353 470.804
1273 0 78.1624 19.1396 1496 123.989 498.388 464.934
1274 1 41.1955 13.1082 540 127.143 499.435 486.885
1275 0 43.1399 15.4845 668 125.16 498.473 485.187
1276 0 42.1082 14.9614 630 124.786 497.086 488.1
1277 0 46.0558 14.9601 689 124.753 495.135 486.678
1278 0 48.2204 15.5536 750 124.255 490.868 480.212
1279 0 48.1076 11.3911 548 132 492.234 481.443
1280 0 52.0837 13.9391 726 125.375 490.905 485.253
1281 0 53.1308 16.8829 897 122.153 489.864 484.291
1282 0 52.0449 13.1041 682 129.749 488.377 480.302
1283 0 56.0911 17.4894 981 122.328 487.757 481.037
1284 0 57.0854 17.0972 976 123.573 486.836 478.153
1285 0 58.247 14.9021 868 127.897 486.194 477.632
1286 0 59.0672 14.238 841 128.916 484.612 476.713
1287 0 60.0516 15.1037 907 127.815 484.305 477.174
1288 0 64.196 14.6426 940 129.767 483.682 471.919
1289 0 65.1427 17.1777 1119 125.978 483.298 472.049
1290 0 67.134 16.3107 1095 128.29 482.979 467.398
1291 0 69.3808 16.2293 1126 128.195 481.624 467.511
1292 0 67.142 11.5874 778 139.94 482.27 466.364
1293 0 74.2459 13.1455 976 136.431 483.272 462.695
1294 0 76.3199 14.8454 1133 134.816 483.239 460.589
1295 0 81.2485 14.991 1218 134.323 484.362 460.195
1296 1 43.0404 11.222 483 139.654 486.522 478.195
1297 0 44.0352 13.2621 584 137.216 487.741 476.716
1298 0 47.0684 11.8338 557 138.379 488.846 476.619
1299 0 46.0779 11.741 541 142.309 491.403 475.577
1300 0 48.0704 11.4 548 143.965 491.772 473.394
1301 0 52.0276 15.5495 809 135.174 493.529 473.714
1302 0 52.1715 15.2765 797 139.094 493.143 470.452
1303 0 55.1747 16.5837 915 135.664 493.526 472.694
1304 0 57.3512 15.2394 874 135.63 494.748 476.795
1305 0 59.0306 16.1611 954 134.972 496.184 475.43
1306 0 62.2641 17.2973 1077 132.258 495.375 475.994
1307 0 61.2322 17.1642 1051 136.307 495.709 471.274
1308 0 68.3155 18.3707 1255 131.51 495.39 474.107
1309 0 67.1406 16.8006 1128 136.973 495.061 471.12
1310 0 71.6244 17.1729 1230 134.606 494.235 472.895
1311 0 70.2114 16.4503 1155 139.142 492.721 468.451
1312 0 73.5976 16.794 1236 138.066 491.546 467.983
1313 0 78.3898 18.0636 1416 135.33 489.862 469.611
1314 0 79.2398 18.1853 1441 137.575 488.313 464.287
1315 0 85.6735 16.9481 1452 138.545 486.802 465.016
1316 0 86.5814 18.3065 1585 136.727 485.489 466.64
1317 0 91.6 19.6834 1803 136.117 484.501 458.823
1318 0 92.2749 18.304 1689 140.492 483.173 452.821
1319 0 97.5123 20.2846 1978 136.599 481.785 453.495
1320 0 95.5134 14.888 1422 151.17 481.148 453.039
1321 0 99.7852 16.1848 1615 149.923 480.43 448.251
1322 1 55.2339 15.6245 863 145.67 480.567 470.99
1323 0 55.132 13.7307 757 150.642 479.613 469.51
1324 0 56.2396 16.8564 948 145.004 479.618 469.476
1325 0 57.1711 12.8911 737 155.102 481.102 469.767
1326 0 59.2006 15.9796 946 149.05 481.616 468.778
1327 0 60.1556 14.5788 877 152.249 481.843 466.853
1328 0 64.1201 16.6718 1069 146.476 482.335 465.543
1329 0 64.1352 14.2044 911 149.906 483.578 467.195
1330 0 66.2814 13.7444 911 152.81 484.373 462.804
1331 0 69.3619 17.9782 1247 144.635 486.82 460.079
1332 0 72.5906 14.6162 1061 152.877 488.112 454.675
1333 0 77.1014 16.822 1297 145.702 489.95 454.392
1334 0 75.4733 15.4359 1165 151.657 491.568 452.189
1335 0 79.5396 18.3053 1456 144.433 492.981 454.481
1336 0 83.401 18.6089 1552 144.773 494.494 449.061
1337 0 84.7375 15.5539 1318 146.939 494.836 454.452
1338 0 90.9918 20.2106 1839 135.185 494.449 454.189
1339 1 44.4383 10.464 465 148.052 495.243 470.974
1340 0 45.623 12.2745 560 144.848 494.541 471.92
1341 0 48.2958 11.4296 552 144.83 494.438 472.304
1342 0 54.2561 17.1409 930 133.529 493.163 473.995
1343 0 54.2979 13.076 710 141.314 493.083 476.466
1344 0 54.193 15.0942 818 136.741 492.473 477.568
1345 0 54.1963 13.1005 710 146.203 490.416 472.384
1346 0 60.157 15.8585 954 139.574 488.52 473.451
1347 0 61.2305 18.1609 1112 133.847 487.251 475.298
1348 0 64.2047 14.3136 919 140.75 485.97 473.764
1349 0 66.1164 17.0911 1130 137.727 484.503 469.904
1350 0 67.2925 15.6184 1051 139.336 483.571 468.825
1351 0 68.3477 15.6845 1072 138.12 482.578 470.046
1352 0 71.3142 16.1118 1149 139.088 482.195 462.875
1353 0 72.2888 17.7621 1284 136.552 481.249 460.888
1354 0 73.248 16.3144 1195 137.08 480.533 460.533
1355 0 78.1409 17.3661 1357 134.502 480.2 458.906
1356 0 80.1958 13.9035 1115 140.096 479.874 457.531
1357 0 81.1828 17.9225 1455 134.544 480.062 451.55
1358 1 44.0246 9.4947 418 136.734 478.634 472.77
1359 0 47.0617 8.71197 410 137.027 479.266 471.217
1360 0 48.1416 14.3535 691 130.246 479.201 469.344
1361 0 50.0548 13.0857 655 134.556 480.773 465.429
1362 0 50.2578 16.0373 806 126.911 482.429 466.686
1363 0 54.1763 15.0066 813 126.787 484.069 465.574
1364 0 55.0836 13.5068 744 132.703 485.472 466.594
1365 0 56.0896 14.6195 820 133.078 486.487 463.646
1366 0 57.078 14.8043 845 135.002 487.467 462.817
1367 0 59.0706 11.5963 685 140.625 489.521 462.153
1368 0 62.1193 17.2088 1069 130.671 490.284 463.025
1369 0 63.1155 12.6276 797 138.44 492.077 464.676
1370 0 67.176 14.9756 1006 135.295 492.845 462.183
1371 0 69.0648 12.843 887 139.114 494.489 460.873
1372 0 71.1086 14.4568 1028 137.329 494.016 459.52
1373 0 76.1679 17.0938 1302 131.861 493.251 461.8
1374 0 77.1024 14.0462 1083 135.907 493.578 466.424
1375 0 78.1793 15.797 1235 135.102 493.582 465.368
1376 0 82.23 15.6877 1290 136.65 494.171 463.441
1377 0 82.1487 11.6131 954 145.457 493.904 462.539
1378 0 86.1865 15.2924 1318 138.632 492.843 458.323
1379 1 47.2427 10.2026 482 137.863 493.537 480.766
1380 0 51.0834 15.7977 807 130.621 491.227 479.056
1381 0 51.1226 11.5605 591 137.09 490.169 479.293
1382 0 52.0644 16.1915 843 131.966 489.903 473.855
1383 0 54.0667 14.4081 779 134.524 488.828 474.317
1384 0 54.0714 14.9247 807 136.421 487.187 472.357
1385 0 57.1199 14.8635 849 135.823 486.424 470.569
1386 0 58.1012 15.5246 902 134.999 486.289 470.247
1387 0 59.134 18.6526 1103 130.453 485.324 468.078
1388 0 57.0418 12.4646 711 143.335 484.27 468.537
1389 0 62.3236 16.7352 1043 133.317 483.517 467.476
1390 0 60.1867 12.5443 755 144.135 484.444 465.082
1391 0 65.0697 13.693 891 141.208 485.079 461.279
1392 0 64.1299 15.0632 966 140.646 485.49 459.999
1393 0 69.1694 16.0186 1108 138.278 485.95 459.465
1394 0 69.1619 14.0106 969 142.028 486.713 462.648
1395 0 74.1355 17.7783 1318 136.629 486.769 457.085
1396 0 73.4858 15.9078 1169 142.708 487.586 455.127
1397 0 77.1153 16.417 1266 141.787 488.047 454.919
1398 0 80.2937 15.9788 1283 142.359 490.672 455.852
1399 0 83.3734 16.612 1385 141.266 492.603 454.595
1400 0 86.2558 15.6743 1352 140.491 491.671 455.496
1401 1 40.088 8.1321 326 145.009 493.62 480.086
1402 0 44.0524 10.4194 459 142.004 495.401 479.373
1403 0 46.0426 12.293 566 137.516 495.592 481.253
1404 0 49.0619 13.004 638 137.133 497.92 480.596
1405 0 51.079 15.8774 811 133.466 498.009 479.752
1406 0 52.1205 13.6798 713 137.258 494.68 476.44
1407 0 51.1937 14.787 757 139.877 493.923 480.834
1408 0 51.0693 14.3922 735 141.238 493.631 481.99
1409 0 57.1467 16.1864 925 137.112 492.991 481.431
1410 0 57.2809 19.6924 1128 132.246 492.709 482.514
1411 0 59.187 17.149 1015 138.626 490.884 479.8
1412 0 60.1435 14.7813 889 141.936 489.811 481.758
1413 0 64.107 13.7426 881 145.873 488.741 478.805
1414 0 67.2198 16.2006 1089 140.65 487.016 479.22
1415 0 69.1307 14.2339 984 144.619 485.329 477.777
1416 0 70.2186 15.9644 1121 142.189 484.442 477.004
1417 0 73.157 16.3894 1199 141.495 483.32 476.586
1418 0 76.178 17.7742 1354 138.991 481.757 473.099
1419 0 76.096 17.5173 1333 142.32 480.661 469.869
1420 0 77.1556 15.2808 1179 149.061 480.421 465.871
1421 0 80.152 14.6721 1176 150.056 480.276 466.494
1422 0 82.0903 18.8086 1544 143.369 479.654 464.253
1423 1 43.1549 14.6681 633 146.618 479.455 481.507
1424 0 43.0177 12.2973 529 146.716 479.508 484.259
1425 0 47.0833 14.7186 693 143.224 479.672 480.113
1426 0 44.0687 13.7286 605 141.336 479.974 479.927
1427 0 48.137 12.8384 618 145.571 482.518 477.15
1428 0 48.018 14.682 705 140.833 484.603 476.638
1429 0 49.1238 15.064 740 140.654 485.45 478.024
1430 0 49.1074 14.7228 723 141.053 487.404 476.455
1431 0 52.0922 12.3051 641 146.086 488.534 476.562
1432 0 55.0778 15.4872 853 139.441 489.839 474.893
1433 0 54.0147 15.0329 812 140.915 490.84 473.187
1434 0 58.0531 14.8657 863 139.885 492.289 473.893
1435 0 61.0707 14.6879 897 137.999 493.528 475.142
1436 0 63.0442 14.3391 904 139.987 494.365 471.973
1437 0 65.1036 17.5413 1142 136.063 495.726 469.66
1438 0 66.2168 13.1236 869 146.119 495.432 470.434
1439 0 71.1398 16.067 1143 138.03 496.016 471.31
1440 0 75.1411 17.913 1346 134.431 495.212 469.598
1441 1 34.1787 11.001 376 141.202 494.622 487.271
1442 0 41.1127 13.5238 556 132.745 494.23 487.91
1443 0 40.0708 10.6312 426 136.671 493.808 488.157
1444 0 41.0786 11.1737 459 138.682 491.227 485.987
1445 0 41.3133 13.0224 538 138.671 490.383 485.981
1446 0 46.1711 15.6592 723 129.752 488.289 484.777
1447 0 45.2118 12.9391 585 134.431 487.395 485.243
1448 0 46.1727 11.6952 540 136.124 485.826 484.843
1449 0 45.2213 11.3221 512 141.9 483.715 482.061
1450 0 46.1716 11.8471 547 140.92 482.563 479.76
1451 0 49.1927 13.6606 672 137.045 482.077 478.909
1452 0 50.2472 15.2645 767 135.156 481.897 475.402
1453 0 51.159 12.1973 624 137.409 482.096 478.442
1454 0 51.1427 14.3129 732 137.713 481.139 473.376
1455 0 53.1373 15.921 846 134.317 481.596 471.48
1456 0 55.1894 14.9123 823 134.609 481.394 471.526
1457 0 57.1774 14.7961 846 134.427 481.143 469.215
1458 0 59.1268 14.3759 850 135.165 481.464 466.3
1459 0 60.2499 14.4896 873 136.458 481.42 463.501
1460 0 63.2186 15.4069 974 136.389 482.346 462.404
1461 0 63.2067 14.8718 940 138.665 483.916 463.789
1462 0 69.1538 15.2125 1052 135.902 485.653 463.652
1463 0 70.1317 17.9092 1256 133.819 486.611 459.163
1464 0 74.2087 16.5344 1227 136.021 487.803 456.848
1465 0 77.1323 14.7798 1140 138.822 490.209 458.37
1466 1 37.0428 10.2854 381 141.919 492.499 475.811
1467 0 41.1234 12.2558 504 134.573 494.756 477.218
1468 0 42.0445 11.7257 493 138.698 497.079 475.809
1469 0 44.0311 12.3322 543 133.906 497.486 479.158
1470 0 45.131 14.0037 632 133.389 497.897 476.297
1471 0 45.4103 15.8334 719 132.104 498.594 479.11
1472 0 45.1891 14.3398 648 136.549 497.344 476.559
1473 0 47.0544 13.1337 618 135.494 497.013 480.599
1474 0 48.068 11.9206 573 136.197 497.44 481.866
1475 0 48.2591 14.4843 699 134.661 497.89 479.531
1476 0 50.1904 12.8112 643 139.499 498.095 478.577
1477 0 54.1841 14.4692 784 135.997 497.149 476.298
1478 0 56.2354 13.7102 771 135.166 495.809 479.543
1479 0 59.2759 16.3979 972 132.395 494.879 474.591
1480 0 60.3058 17.7761 1072 130.749 493.634 476.398
1481 0 61.2551 14.2029 870 137.163 492.374 475.037
1482 0 62.107 14.7487 916 136.247 491.204 473.365
1483 0 67.3899 17.4358 1175 131.222 489.652 471.001
1484 0 63.2895 12.1663 770 142.139 488.704 467.894
1485 0 71.2995 15.6803 1118 132.709 487.81 470.445
1486 0 69.6027 15.6747 1091 134.473 486.976 465.272
1487 0 72.2856 15.9368 1152 135.637 486.216 462.596
1488 0 73.4202 14.9005 1094 136.206 485.07 459.134
1489 0 79.336 14.9113 1183 134.27 484.477 459.254
1490 0 80.2846 16.9522 1361 132.389 484.328 454.17
1491 0 85.3493 16.3212 1393 134.078 483.961 454.422
1492 0 84.1788 14.2435 1199 140.027 483.59 449.875
1493 0 86.2305 16.0268 1382 135.911 484.303 455.384
1494 1 44.0614 11.5067 507 138.572 485.114 473.219
1495 0 46.0897 13.0832 603 137.924 485.289 471.536
1496 0 52.1099 13.2412 690 132.228 486.167 472.062
1497 0 49.0876 10.9193 536 139.808 487.868 466.868
1498 0 52.12 10.4758 546 136.989 490.892 470.641
1499 0 56.295 15.8629 893 125.309 492.362 469.192
1500 0 57.2404 15.1641 868 128.394 493.054 464.503
1501 0 62.1306 15.7732 980 125.952 495.732 463.722
1502 0 62.4451 14.9091 931 128.25 496.05 465.532
1503 0 62.2055 12.3301 767 134.52 497.108 465.583
1504 0 64.1586 13.5134 867 133.832 497.873 463.946
1505 0 70.0874 16.8932 1184 126.215 498.397 464.459
1506 0 73.1397 15.819 1157 127.855 498.677 464.126
1507 0 76.5176 17.7083 1355 126.277 498.139 460.556
1508 0 75.342 16.6441 1254 128.146 497.816 464.424
1509 0 81.2852 19.6469 1597 123.668 498.038 461.562
1510 0 82.5712 16.0346 1324 130.006 496.392 462.82
1511 0 86.2971 18.4827 1595 126.914 495.907 465.253
1512 0 86.2466 15.8731 1369 132.97 495.017 463.523
