time division length width area intensity CMx CMy
0 0 52.0979 11.4784 598 127.468 589.206 456.933
1 1 101.247 16.0794 1628 122.489 591.66 437.494
2 1 57.1886 13.4992 772 121.013 593.104 455.369
3 0 56.0838 18.294 1026 118.005 592.214 454.579
4 0 58.4209 12.5469 733 125.046 591.758 457.053
5 0 58.5478 11.5803 678 130.016 591.077 455.127
6 0 61.3448 15.4862 950 127.013 590.424 456.227
7 0 62.3408 11.373 709 136.606 588.635 458.45
8 0 66.4421 16.8718 1121 135.441 587.426 456.235
9 0 67.2977 16.4196 1105 140.462 586.699 453.692
10 0 67.253 13.7838 927 147.65 586.032 453.149
11 0 70.2593 15.6563 1100 143.692 584.67 454.718
12 0 74.3227 15.3789 1143 148.794 584.01 451.108
13 0 76.3632 14.9941 1145 154.166 583.697 450.619
14 1 41.1227 12.8396 528 157.1 581.239 467.259
15 0 41.0864 10.271 422 161.386 579.578 467.874
16 0 43.1131 12.4788 538 156.502 578.136 466.271
17 0 45.0648 13.8911 626 154.73 576.019 463.706
18 0 47.0688 15.7217 740 147.793 575.115 464.461
19 0 47.1482 13.4894 636 151.175 578.673 460.722
20 0 47.0241 13.1422 618 156.325 577.304 462.343
21 0 51.1381 14.1968 726 154.955 576.427 458.804
22 0 52.066 13.5789 707 154.364 576.799 459.017
23 0 53.1012 14.8208 787 152.823 576.738 455.754
24 0 52.1681 11.8847 620 157.31 573.921 454.155
25 0 54.2164 13.2617 719 152.388 572.672 453.256
26 0 55.1854 14.0798 777 150.241 573.584 451.328
27 0 59.2501 13.6202 807 148.496 573.944 452.005
28 0 62.2697 14.2124 885 145.611 574.703 449.447
29 0 63.2659 13.8147 874 146.01 577.166 448.437
30 0 63.1629 12.6657 800 147.398 578.388 449.252
31 0 68.1682 16.782 1144 134.822 581.147 448.483
32 0 70.3689 14.3245 1008 137.663 582.613 447.614
33 0 72.2471 15.8069 1142 132.553 584.12 447.064
34 0 75.1582 16.6316 1250 129.378 586.178 449.871
35 0 75.1582 16.605 1248 142.419 589.167 449.905
36 0 82.1812 15.4293 1268 129.273 587.556 442.55
37 1 48.2562 13.2418 639 124.987 586.592 465.657
38 0 46.0362 12.5771 579 129.967 587.52 463.238
39 0 51.1287 15.9793 817 121.312 587.849 466.57
40 0 53.2051 12.9499 689 129.54 592.298 467.222
41 0 52.1424 13.3864 698 131.404 587.931 466.539
42 0 52.1974 11.7247 612 141.297 585.9 468.183
43 0 51.0789 14.1937 725 135.516 585.724 467.898
44 0 53.0199 12.8254 680 139.478 584.622 465.559
45 0 55.0606 11.2422 619 145.761 583.762 465.57
46 0 59.0947 12.6746 749 145.658 582.541 465.43
47 0 59.2127 14.0342 831 140.876 581.186 466.146
48 0 61.2466 14.0416 860 145.669 579.293 463.919
49 0 61.0552 12.2185 746 151.088 578.307 461.673
50 0 65.185 14.2978 932 145.468 576.532 459.476
51 0 68.1242 13.6075 927 147.739 575.396 460.441
52 0 68.087 11.9553 814 153.866 573.733 456.276
53 0 70.1569 13.7976 968 148.334 573.13 456.507
54 0 70.093 12.3693 867 152.992 571.985 453.821
55 0 76.0709 13.8161 1051 148.632 572.114 452.274
56 0 77.1965 13.8348 1068 149.735 571.589 450.006
57 0 78.1486 13.7559 1075 152.203 571.402 443.578
58 1 44.0934 10.3417 456 146.474 570.627 467.346
59 0 46.1161 10.1049 466 150.468 571.258 463.575
60 0 46.256 10.55 488 150.914 571.549 463.578
61 0 46.2126 14.1736 655 146.104 571.07 460.514
62 0 49.3147 12.5115 617 147.922 571.776 459.165
63 0 50.6311 12.917 654 138.547 576.257 452.084
64 0 53.3343 14.9622 798 132.998 578.57 458.063
65 0 53.1669 13.1285 698 134.887 581.923 458.56
66 0 57.0644 14.913 851 133.114 582.585 460.118
67 0 56.1468 15.2457 856 133.611 584.683 457.284
68 0 59.081 12.6944 750 138.351 585.692 458.851
69 0 62.0612 16.4515 1021 130.374 586.189 457.8
70 0 63.2634 14.0366 888 132.948 586.774 461.51
71 0 65.0552 14.895 969 132.702 588.153 461.119
72 0 69.0641 12.7128 878 138.388 587.493 459.54
73 0 69.1276 14.1188 976 137.16 587.576 458.189
74 0 70.1069 14.321 1004 143.701 587.584 457.185
75 0 74.1812 15.3543 1139 141.341 586.242 456.131
76 0 77.3577 16.1199 1247 141.836 584.431 458.942
77 0 78.2468 15.8984 1244 145.036 584.466 454.932
78 0 80.3921 15.9095 1279 146.285 583.565 454.294
79 0 84.7338 15.3422 1300 146.526 582.562 455.808
80 0 84.7338 15.2006 1288 147.928 581.549 455.747
81 0 89.3618 15.1183 1351 152.398 580.652 448.879
82 1 48.4808 11.7366 569 148.438 579.272 471.562
83 0 50.5056 13.5035 682 146.028 578.516 468.371
84 0 50.8436 12.5876 640 151.066 577.05 465.402
85 0 55.5553 12.276 682 152.633 575.188 462.387
86 0 55.4623 13.1982 732 150.887 573.783 463.243
87 0 58.2275 14.3747 837 149.957 572.233 460.993
88 0 60.1216 16.6662 1002 144.1 573.558 461.056
89 0 60.1858 14.3057 861 148.416 570.528 461.974
90 0 60.3152 13.6284 822 154.134 570.95 457.782
91 0 64.4243 16.2051 1044 147.949 570.674 454.684
92 0 66.0627 14.9101 985 152.225 573.179 454.338
93 0 70.1033 17.0463 1195 149.705 572.012 449.972
94 0 70.1623 15.2076 1067 155.306 572.994 450.525
95 0 73.1951 14.2496 1043 158.729 574.083 449
96 0 75.1675 16.0575 1207 154.669 575.056 447.34
97 0 77.2534 15.0802 1165 158.283 576.036 445.125
98 0 80.3667 16.0265 1288 157.651 577.869 444.236
99 0 82.6561 14.9414 1235 160.633 580.339 444.738
100 0 83.6069 13.3721 1118 164.776 581.321 443.58
101 0 87.6137 16.1048 1411 160.512 583.778 437.999
102 1 48.5725 11.9821 582 152.825 586.837 464.828
103 0 45.4615 9.1506 416 163.409 587.623 463.269
104 0 53.5685 12.1713 652 152.256 587.966 463.98
105 0 54.2784 11.8463 643 158.61 588.885 463.437
106 0 53.3768 14.6505 782 152.996 587.726 466.191
107 0 56.3393 14.3417 808 154.473 586.994 465.657
108 0 57.2282 13.8743 794 157.754 586.049 464.306
109 0 59.1102 15.175 897 157.282 586.066 463.394
110 0 59.0636 11.9194 704 165.366 585.246 464.182
111 0 64.1763 16.1898 1039 152.395 584.584 465.746
112 0 64.0898 15.135 970 159.506 584.066 463.161
113 0 68.1813 14.1828 967 159.123 582.953 465.242
114 0 68.2288 18.2621 1246 150.335 581.885 466.561
115 0 73.1576 14.3663 1051 160.377 581.048 463.035
116 0 75.1684 15.6981 1180 159.192 579.975 460.524
117 0 79.0454 15.6745 1239 160.148 577.642 457.182
118 0 79.0858 13.9089 1100 165.903 575.856 452.695
119 0 83.1482 15.0695 1253 161.012 574.495 455.059
120 0 86.1403 15.9043 1370 160.083 573.502 453.089
121 0 89.1336 15.2804 1362 165.046 572.103 446.244
122 1 47.0785 12.6597 596 153.622 572.472 470.478
123 0 50.0753 10.8836 545 158.356 571.312 467.139
124 0 52.1789 10.2915 537 160.942 571.864 465.417
125 0 52.104 13.4539 701 158.421 571.036 460.442
126 0 57.0899 11.8935 679 157.647 571.81 462.461
127 0 59.073 13.3056 786 156.407 571.594 459.599
128 0 61.0894 15.8456 968 147.558 570.852 459.341
129 0 61.0642 13.756 840 155.235 572.683 457.151
130 0 61.1277 14.7887 904 155.394 573.553 452.556
131 0 64.1141 14.2558 914 154.543 575.307 452.894
132 0 66.0782 13.3478 882 157.017 576.287 452.308
133 0 71.1515 15.221 1083 150.608 579.749 452.789
134 0 74.0847 15.4958 1148 149.567 580.544 453.726
135 0 75.1038 14.5931 1096 153.998 581.822 450.551
136 0 78.1329 14.4241 1127 152.698 583.601 453.088
137 0 81.1263 18.1322 1471 145.91 583.653 450.557
138 0 86.1256 14.8388 1278 151.984 584.737 451.319
139 1 43.1736 10.3072 445 154.115 585.818 470.083
140 0 45.0628 11.2066 505 149.949 585.701 471.592
141 0 46.0936 9.56748 441 152.644 584.832 472.186
142 0 47.0295 11.1419 524 154.863 584.336 468.906
143 0 48.0769 11.648 560 149.38 578.6 471.021
144 0 49.0954 13.708 673 145.1 580.474 473.727
145 0 51.2305 13.5271 693 147.554 579.912 471.674
146 0 52.1267 12.5847 656 149.591 581.508 469.829
147 0 52.0944 12.3238 642 151.075 580.223 470.192
148 0 54.0941 10.9993 595 149.566 578.472 471.343
149 0 56.0708 11.8957 667 150.388 577.742 468.144
150 0 58.2201 14.7544 859 144.888 576.857 466.253
151 0 61.1276 16.9972 1039 139.734 575.003 467.126
152 0 63.169 15.3715 971 145.087 574.283 464.219
153 0 62.1525 13.9013 864 147.89 572.843 462.221
154 0 65.1285 13.8035 899 147.478 572.478 461.044
155 0 66.0732 11.6083 767 153.274 571.448 459.733
156 0 68.0709 12.2226 832 153.212 570.603 452.863
157 0 69.1341 12.7 878 152.549 569.827 452.823
158 0 72.1683 14.2445 1028 149.318 569.268 451.09
159 0 74.0689 13.6224 1009 151.225 569.035 448.042
160 1 43.093 8.49326 366 151.967 569.429 467.164
161 0 38.0761 11.3982 434 148.604 569.597 465.668
162 0 40.0286 9.56816 383 150.305 571.162 465.585
163 0 42.1425 14.712 620 141.147 571.589 464.442
164 0 45.0905 14.1937 640 138.258 572.773 464.697
165 0 45.0974 14.0363 633 139.294 574.779 462.534
166 0 44.0619 12.9136 569 141.779 576.165 464.886
167 0 48.0554 12.548 603 141.619 578.348 463.72
168 0 47.183 9.38898 443 146.099 580.201 465.698
169 0 53.0932 14.8983 791 134.582 581.154 465.266
170 0 49.175 10.5745 520 144.844 582.063 467.052
171 0 49.0162 11.384 558 142.943 582.351 468.272
172 0 53.0872 12.3947 658 143.541 582.795 462.95
173 0 52.0772 10.3116 537 147.283 584.02 467.196
174 0 53.1053 11.449 608 144.89 583.564 468.507
175 0 56.0812 11.3407 636 144.821 582.517 467.723
176 0 59.0826 13.7265 811 141.883 581.457 463.703
177 0 58.1845 11.6182 676 148.28 578.223 463.786
178 0 61.1199 13.6453 834 144.547 577.638 464.192
179 0 65.2362 14.4552 943 141.937 576.736 465.68
180 0 67.4465 14.3076 965 143.288 576.391 464.628
181 0 68.2562 13.171 899 147.096 575.311 460.545
182 0 69.3094 9.98422 692 153.393 573.968 462.153
183 0 72.2213 16.0479 1159 142.116 572.783 461.741
184 1 39.1659 12.2811 481 141.247 570.274 477.796
185 0 39.0185 10.8923 425 147.096 568.913 474.911
186 0 39.1623 9.65214 378 150.228 569.452 473.079
187 0 42.1249 12.6766 534 144.011 567.714 473.966
188 0 40.111 10.4211 418 151.84 569.663 469.538
189 0 45.0135 11.641 524 147.004 568.42 470.628
190 0 45.2595 11.1137 503 149.451 567.523 466.211
191 0 47.2867 13.1961 624 145.506 566.675 464.633
192 0 47.0832 14.485 682 144.116 562.496 465.669
193 0 48.1954 12.0966 583 150.381 562.887 463.883
194 0 52.2531 11.54 603 149.242 562.657 463.887
195 0 54.1908 13.3971 726 148.034 563.625 461.388
196 0 54.1667 15.6738 849 142.675 564.861 460.542
197 0 57.1541 14.5746 833 145.772 566.242 460.036
198 0 59.1589 14.5033 858 145.738 567.354 460.282
199 0 61.2002 14.2483 872 145.963 568.932 460.054
200 0 63.2724 15.6783 992 142.109 571.171 459.83
201 0 62.2527 12.3529 769 152.376 573.557 456.895
202 0 65.1633 13.8882 905 149.276 574.391 457.161
203 0 66.1635 15.1141 1000 137.815 574.439 455.685
204 0 70.1388 15.9683 1120 146.021 577.71 457.541
205 0 73.212 17.6064 1289 145.345 578.213 452.339
206 0 73.1703 13.5984 995 154.236 577.98 456.466
207 0 79.1846 13.5127 1070 153.504 577.964 456.529
208 1 42.1858 12.8242 541 147.978 577.002 475.216
209 0 44.0405 14.2142 626 150.01 578.089 473.396
210 0 46.165 12.477 576 153.163 577.368 472.335
211 0 46.1481 9.81623 453 159.236 579.201 474.669
212 0 50.3015 14.2143 715 149.113 579.488 472.58
213 0 49.3127 15.1685 748 147.473 578.328 473.594
214 0 50.0681 12.8425 643 151.523 577.781 472.344
215 0 52.1292 17.6868 922 140.478 576.497 472.918
216 0 54.0515 14.2827 772 149.633 575.649 470.899
217 0 56.222 15.7234 884 143.854 573.895 471.035
218 0 57.2508 14.5151 831 148.308 572.499 467.378
219 0 57.2907 16.0584 920 146.808 570.952 464.804
220 0 59.1732 15.2434 902 148.385 570.174 463.438
221 0 60.2558 15.7827 951 146.864 568.704 464.826
222 0 64.259 14.3015 919 149.044 568.062 462.718
223 0 64.1643 12.8264 823 154.111 568.085 459.403
224 0 68.1948 17.3767 1185 143.905 567.116 457.767
225 0 70.1718 15.0488 1056 150.046 565.992 453.891
226 0 72.1936 16.8851 1219 145.669 565.68 453.703
227 0 75.3697 17.4208 1313 145.696 565.864 447.518
228 0 80.2121 15.671 1257 146.757 566.088 450.691
229 1 43.0588 15.3511 661 141.891 568.059 468.201
230 0 42.0538 9.44028 397 154.295 569.267 467.164
231 0 46.1332 11.3801 525 146.941 570.577 466.701
232 0 47.0585 13.2388 623 144.435 571.825 465.61
233 0 48.1206 15.004 722 143.658 572.976 464.756
234 0 52.0706 17.6491 919 137.084 572.509 464.973
235 0 53.1256 14.174 753 149.138 574.9 461.274
236 0 53.1662 14.37 764 150.048 577.215 462.391
237 0 53.1494 14.3181 761 150.607 578.314 463.083
238 0 55.244 14.3726 794 152.309 579.004 460.664
239 0 59.1283 16.1344 954 144.898 578.323 465.051
240 0 61.1366 14.9828 916 148.205 578.657 466.04
241 0 61.0718 16.9309 1034 146.299 578.151 463.132
242 0 65.1239 14.6029 951 149.41 577.808 464.903
243 0 67.0703 16.192 1086 145.553 577.446 464.952
244 0 69.1827 17.0707 1181 143.816 576.228 465.689
245 0 71.1217 17.224 1225 144.62 575.774 461.202
246 0 71.3161 14.0782 1004 148.797 574.211 462.888
247 0 77.2433 14.7974 1143 144.616 573.34 464.261
248 0 76.1842 17.0508 1299 141.242 572.436 463.273
249 0 79.182 14.4351 1143 148.511 571.99 457.076
250 0 85.1237 17.0575 1452 142.056 571.087 457.141
251 0 89.0638 17.4145 1551 140.88 569.293 453.582
252 1 45.097 12.1072 546 145.853 568.293 474.082
253 0 49.2718 10.2696 506 147.198 566.86 474.213
254 0 50.0954 11.8374 593 146.769 565.595 471.202
255 0 49.2023 14.3693 707 144.43 564.436 467.083
256 0 54.3232 13.4197 729 142.84 564.682 469.521
257 0 54.1631 17.2442 934 138.249 563.223 467.214
258 0 54.0581 15.2429 824 143.488 562.967 465.269
259 0 58.1723 13.546 788 146.648 562.345 462.717
260 0 57.0633 13.8092 788 145.459 563.117 463.807
261 0 59.1735 10.5453 624 152.175 562.2 460.351
262 0 62.192 10.966 682 152.392 562.886 458.334
263 0 64.1772 13.416 861 147.887 564.006 454.474
264 0 69.28 16.0652 1113 142.703 565.103 453.693
265 0 71.2315 13.5193 963 147.155 567.214 455.165
266 0 70.4097 12.6261 889 150.682 569.222 455.649
267 0 73.3066 13.4094 983 152.104 571.032 449.191
268 0 77.2384 12.5197 967 152.321 572.689 451.48
269 0 79.2649 15.7068 1245 146.365 574.756 450.57
270 0 82.2383 15.6253 1285 146.363 575.993 452.04
271 0 83.246 13.394 1115 153.924 577.451 446.943
272 1 48.1538 12.1901 587 140.562 576.916 472.257
273 0 45.0792 9.84934 444 153.725 577.059 468.236
274 0 49.0828 13.2429 650 143.96 576.742 469.215
275 0 50.0974 11.7771 590 146.286 576.866 469.122
276 0 52.0976 11.9583 623 142.777 576.848 472.884
277 0 53.1885 12.0891 643 144.205 580.547 466.443
278 0 54.1792 12.8647 697 143.829 579.35 468.135
279 0 56.1287 14.734 827 139.664 575.029 469.284
280 0 58.1581 13.5665 789 140.603 574.158 469.782
281 0 61.3062 13.7996 846 140.387 572.622 468.086
282 0 61.2663 14.1676 868 141.17 571.96 466.847
283 0 63.2111 16.263 1028 136.876 570.222 466.622
284 0 66.2708 14.4257 956 140.56 569.172 464.383
285 0 68.261 15.177 1036 138.235 567.722 465.455
286 0 70.1449 13.6147 955 143.583 566.555 461.487
287 0 71.374 15.8741 1133 139.94 565.49 459.893
288 0 73.2511 12.778 936 146.254 564.21 456.16
289 0 77.2952 16.7669 1296 139.277 562.738 452.603
290 1 42.0524 12.6984 534 140.227 561.051 472.77
291 0 40.0118 11.4466 458 137.386 560.485 475.838
292 0 44.0338 12.8083 564 139.621 560.413 470.729
293 0 45.0296 10.5708 476 143.595 560.311 469.475
294 0 47.1736 11.9982 566 140.913 560.438 467.652
295 0 48.1043 12.6392 608 138.094 561.046 468.576
296 0 50.6166 14.2641 722 140.23 564.161 462.191
297 0 50.033 15.7696 789 138.198 563.606 462.198
298 0 53.1125 12.37 657 144.239 564.653 466.852
299 0 49.0881 11.0617 543 151.459 566.042 463.444
300 0 54.2042 12.5636 681 143.714 568.548 464.956
301 0 57.0827 13.4191 766 144.453 570.17 462.223
302 0 57.0453 10.0447 573 149.899 572.1 465.449
303 0 60.1722 17.8321 1073 133.153 573.898 465.239
304 0 60.194 14.0047 843 140.46 575.312 464.531
305 0 60.0608 15.2346 915 139.802 575.643 463.45
306 0 62.1098 14.1362 878 142.948 576.798 461.071
307 0 65.1232 13.8814 904 142.938 576.762 462.665
308 0 67.0711 15.0885 1012 141.574 576.339 460.754
309 0 72.1783 15.337 1107 138.618 576.116 462.08
310 0 71.0822 13.9416 991 144.643 575.863 459.2
311 0 73.2306 15.2259 1115 142.172 575.396 459.771
312 0 77.1583 16.2134 1251 141.616 574.152 457.597
313 0 80.2101 16.1825 1298 141.515 573.023 457.32
314 0 83.2162 17.5447 1460 137.281 571.158 459.405
315 1 44.0469 10.8748 479 142.891 570.639 475.729
316 0 47.3629 10.9157 517 140.368 568.729 476.128
317 0 46.0659 11.9394 550 141.422 572.818 476.271
318 0 48.1996 15.1454 730 133.968 569.751 474.53
319 0 49.5439 13.8463 686 137.738 566.245 468.932
320 0 51.0859 13.2913 679 138.954 568.225 473.287
321 0 50.1064 13.0323 653 141.135 567.306 471.671
322 0 50.1555 10.4874 526 148.646 565.692 469.61
323 0 53.1328 12.0829 642 142.417 566.078 470.967
324 0 55.107 12.4848 688 143.929 565.686 465.113
325 0 58.0799 12.6205 733 142.203 565.183 465.405
326 0 56.0372 9.99337 560 148.766 565.423 462.207
327 0 60.079 14.7972 889 138.638 566.061 461.556
328 0 64.0871 13.3412 855 138.48 564.841 461.394
329 0 69.1556 17.2076 1190 132.37 564.393 456.053
330 0 69.1319 15.7959 1092 136.406 566.743 455.164
331 0 70.0629 14.9723 1049 137.885 567.614 454.664
332 0 72.065 13.3491 962 141.182 569.347 454.81
333 0 76.1345 14.6845 1118 138.731 571.021 453.21
334 0 77.1296 15.6231 1205 137.135 574.101 451.554
335 0 79.1855 13.9546 1105 141.313 576.963 448.682
336 0 82.1506 14.7291 1210 138.486 578.408 450.989
337 0 86.2298 15.1224 1304 137.882 578.649 449.046
338 0 91.2724 16.2152 1480 134.838 579.991 449.945
339 1 48.1892 10.1475 489 140.663 579.849 467.53
340 0 48.0846 8.83859 425 142.584 575.678 469.609
341 0 48.0244 12.0564 579 138.221 575.401 469.644
342 0 54.07 15.7943 854 128.809 576.288 469.137
343 0 54.0342 14.972 809 130.979 574.127 470.221
344 0 56.0316 12.5286 702 134.004 573.49 473.288
345 0 59.0994 16.0069 946 129.884 573.051 470.152
346 0 61.1661 16.6595 1019 129.251 572.124 470.787
347 0 62.1635 14.0919 876 135.586 571.961 467.104
348 0 63.2047 10.2682 649 143.884 570.994 465.034
349 0 67.5105 14.5163 980 135.078 570.244 465.891
350 0 68.341 11.7206 801 140.979 569.165 464.25
351 0 71.4008 12.2828 877 139.987 568.338 462.698
352 0 75.2763 18.0136 1356 132.24 566.209 459.07
353 1 38.0497 9.98693 380 140.274 563.524 475.918
354 0 39.0745 10.4928 410 144.041 562.72 473.176
355 0 43.0631 8.9868 387 142.106 561.837 476.22
356 0 45.0442 10.5896 477 139.788 562.182 475.633
357 0 48.0673 14.8334 713 133.642 560.492 472.867
358 0 44.0866 12.5208 552 145.538 562.371 467.882
359 0 48.0676 13.1482 632 142.282 560.663 468.625
360 0 49.0569 12.6995 623 143.533 560.583 467.976
361 0 48.0543 12.7148 611 145.79 561.133 467.409
362 0 52.026 13.647 710 142.53 561.527 465.923
363 0 55.1191 14.9132 822 139.006 563.17 466.549
364 0 55.1492 13.2731 732 143.835 565.5 465.837
365 0 56.0922 14.9575 839 145.958 570.468 462.819
366 0 60.0514 17.1353 1029 139.903 571.97 464.458
367 0 61.1913 15.6068 955 144.864 574.082 463.222
368 0 64.0889 12.2954 788 151.339 576.523 462.741
369 0 65.0934 13.5344 881 149.043 577.779 462.712
370 0 69.2099 15.8503 1097 142.37 578.766 462.97
371 0 70.3131 13.4114 943 146.948 580.356 464.721
372 0 73.0886 14.4345 1055 147.994 580.186 461.595
373 0 75.068 14.5601 1093 146.701 580.127 463.303
374 0 73.1509 14.1215 1033 150.769 579.214 461.338
375 0 79.1454 17.7774 1407 142.854 578.616 460.984
376 0 83.137 18.1026 1505 141.632 579.344 459.143
377 0 85.1077 16.955 1443 144.827 578.849 457.32
378 0 87.1551 16.2469 1416 144.375 577.52 459.845
379 1 45.0572 11.3855 513 147.185 575.945 479.655
380 0 44.0604 10.8487 478 152.042 574.28 478.362
381 0 46.0551 10.292 474 153.002 573.139 478.411
382 0 47.0308 9.80209 461 154.922 571.456 477.375
383 0 49.059 9.19302 451 154.612 572.616 477.947
384 0 51.0862 14.9747 765 146.541 570.915 472.183
385 0 53.074 13.3964 711 145.252 570.338 472.837
386 0 55.1338 13.1317 724 145.182 569.105 471.906
387 0 55.072 15.2528 840 142.106 567.446 470.926
388 0 56.0448 13.6319 764 145.72 566.775 469.607
389 0 58.0735 18.5455 1077 136.032 566.278 467.931
390 0 59.0842 14.7586 872 144.635 565.173 464.273
391 0 59.1547 12.5265 741 148.881 565.386 465.123
392 0 63.0981 14.7548 931 144.085 564.511 462.76
393 0 64.137 13.8766 890 146.546 564.009 460.296
394 0 67.1546 14.4443 970 146.234 564.839 459.55
395 0 67.1546 14.4741 972 133.265 565.852 459.57
396 0 69.1577 11.9582 827 150.958 566.312 458.915
397 0 73.1846 17.8863 1309 138.247 567.694 458.211
398 0 75.1216 16.9459 1273 142.546 568.702 452.936
399 0 78.1397 17.3791 1358 141.423 569.826 455.932
400 0 79.329 15.8706 1259 145.997 571.404 450.773
401 0 81.2657 13.5728 1103 150.871 572.573 452.795
402 0 82.1999 13.2482 1089 154.693 574.233 453.372
403 0 87.4686 15.8571 1387 147.303 575.632 455.821
404 0 88.2662 13.7765 1216 153.831 577.009 453.979
405 0 95.2633 17.7088 1687 145.906 577.666 453.841
406 1 47.1876 13.9443 658 147.381 578.582 476.012
407 0 50.046 14.8464 743 147.05 579.308 475.201
408 0 50.1093 12.5925 631 152.534 578.767 472.571
409 0 54.0667 14.4636 782 148.786 578.294 473.845
410 0 54.118 16.889 914 142.976 577.905 475.415
411 0 56.0573 13.1116 735 153.699 576.942 472.793
412 0 60.2216 18.2825 1101 139.29 575.628 473.964
413 0 61.4831 16.6387 1023 145.575 573.97 470.424
414 0 59.2154 15.5365 920 149.079 572.873 469.763
415 0 63.1742 13.4074 847 149.69 572.586 474.176
416 0 67.1345 16.9659 1139 144.45 571.166 471.104
417 0 68.2573 16.7455 1143 147.692 569.266 466.487
418 0 68.3448 13.4026 916 154.645 568.301 467.106
419 0 73.2781 17.3039 1268 147.948 566.842 465.85
420 0 74.2947 12.8004 951 156.228 566.356 465.665
421 0 72.1909 14.5171 1048 156.839 564.945 456.957
422 0 78.33 15.7539 1234 153.087 564.629 457.311
423 0 82.4594 16.7719 1383 150.386 563.953 457.101
424 0 83.3894 16.357 1364 152.037 562.971 451.9
425 0 88.3982 18.2809 1616 145.991 562.987 450.726
426 0 88.2696 15.566 1374 153.114 562.301 448.911
427 0 93.3335 17.3785 1622 145.394 562.984 446.4
428 0 94.2565 14.8425 1399 153.596 563.486 443.016
429 0 99.4289 18.2241 1812 143.152 565.1 443.705
430 0 101.303 14.9453 1514 151.644 565.918 443.854
431 1 54.1436 10.7492 582 151.491 567.885 465.418
432 0 54.1138 13.0466 706 149.174 570.595 460.31
433 0 60.1731 14.4417 869 143.345 571.956 461.771
434 0 62.3626 12.4273 775 146.476 573.646 460.401
435 0 65.2066 13.8176 901 144.492 576.862 461.09
436 0 66.2323 13.2564 878 146.064 577.805 460.637
437 0 68.2041 12.8145 874 148.41 579.044 459.942
438 0 72.2391 13.3446 964 146.695 579.122 462.473
439 0 73.1975 14.0579 1029 146.317 579.719 462.68
440 0 75.3705 11.742 885 150.443 579.6 462.097
441 0 80.1855 12.5584 1007 150.32 578.825 458.962
442 1 41.2612 9.03997 373 147.764 578.786 478.735
443 0 44.2305 10.1514 449 146.951 578.29 477.41
444 0 45.1106 9.57646 432 146.201 578.833 477.257
445 0 48.0772 12.1055 582 141.814 577.746 476.103
446 0 49.0733 10.8206 531 145.314 576.51 477.009
447 0 49.2905 14.5667 718 138.893 574.341 474.943
448 0 51.5719 13.5345 698 139.163 571.822 472.405
449 0 54.2112 15.1076 819 140.298 573.438 472.978
450 0 55.0826 17.029 938 133.705 572.532 473.477
451 0 56.0394 13.2942 745 142.702 571.124 471.099
452 0 60.1123 15.7871 949 135.257 570.086 472.591
453 0 58.1886 15.381 895 139.521 568.866 468.384
454 0 63.0956 14.8346 936 139.01 568.096 468.535
455 0 64.2094 15.5117 996 139.765 566.806 466.328
456 0 65.0891 12.9668 844 145.678 566.281 463.493
457 0 66.1715 13.2383 876 145.476 566.139 462.209
458 0 71.1861 14.8484 1057 141.691 564.976 459.796
459 0 71.1255 14.2565 1014 143.731 564.536 459.578
460 0 71.2087 12.4002 883 149.191 565.272 456.579
461 0 75.2556 15.6799 1180 142.001 565.67 455.464
462 0 79.2581 17.8026 1411 138.438 565.894 449.936
463 0 80.2563 16.7214 1342 141.092 566.764 448.735
464 0 83.3815 16.2506 1355 144.121 568.395 448.367
465 0 86.2855 15.3328 1323 145.249 569.658 450.648
466 0 88.4716 16.1973 1433 143.936 572.059 447.361
467 0 88.3234 13.643 1205 151.565 574.472 443.512
468 0 91.2553 15.5279 1417 147.267 575.803 443.841
469 0 96.2847 14.7272 1418 149.181 578.02 444.885
470 0 96.3725 15.5439 1498 133.652 579.971 443.63
471 0 98.3286 12.7226 1251 154.579 579.945 441.447
472 1 53.0135 12.5817 667 147.531 581.463 468.087
473 0 52.0931 11.1531 581 152.014 580.933 467.21
474 0 58.1123 15.3324 891 141.889 579.548 470.745
475 0 59.3401 12.7064 754 147.769 578.26 468.207
476 0 63.2989 15.1345 958 140.551 578.15 471.633
477 0 65.0302 16.3924 1066 139.818 579.019 468.441
478 0 67.1401 14.9836 1006 140.898 578.647 470.496
479 0 68.0302 14.1702 964 144.56 578.245 463.601
480 0 72.1061 15.9903 1153 141.422 576.095 466.25
481 0 74.0864 18.087 1340 137.048 576.048 466.011
482 0 75.1937 13.8708 1043 145.007 573.35 463.965
483 0 78.0699 17.3819 1357 139.545 572.001 463.671
484 0 85.089 19.838 1688 133.054 570.428 463.153
485 0 84.1808 18.5791 1564 137.346 569.297 457.533
486 1 40.1037 8.5279 342 147.816 569.333 477.199
487 0 46.0705 12.6545 583 138.93 568.051 475.878
488 0 45.0711 16.3076 735 134.136 567.045 473.982
489 0 45.1104 11.1504 503 144.491 566.875 469.533
490 0 48.0629 12.2548 589 140.059 564.917 472.207
491 0 49.1289 11.5004 565 139.258 562.885 471.237
492 0 49.1103 12.1563 597 140.166 561.441 470.771
493 0 54.1693 13.2917 720 138.089 560.914 468.075
494 0 55.0594 15.1836 836 136.138 561.865 463.364
495 0 56.1006 14.3492 805 137.593 562.122 463.227
496 0 54.1427 14 758 139.603 563.471 460.183
497 0 58.0454 12.9209 750 139.253 564.444 461.675
498 0 60.0594 14.2192 854 135.258 566.22 463.69
499 0 61.146 14.817 906 136.306 567.326 458.159
500 0 64.1175 14.489 929 136.411 569.969 459.698
501 0 69.1142 17.406 1203 130.682 571.446 456.76
502 0 69.277 13.7997 956 136.19 572.996 458.702
503 0 69.1244 14.1629 979 136.551 574.824 459.067
504 0 73.108 13.952 1020 135.325 576.115 460.244
505 0 75.1185 14.7367 1107 133.119 575.724 458.382
506 0 78.1792 14.4284 1128 132.824 576.38 460.682
507 0 79.2468 16.2025 1284 132.617 577.245 456.307
508 0 84.2808 17.9163 1510 128.501 575.92 456.495
509 0 84.366 14.6149 1233 135.038 576.036 454.775
510 0 88.3543 10.0391 887 140.811 575.142 455.807
511 0 89.6058 12.8898 1155 135.739 573.198 457.519
512 1 45.1865 9.87021 446 132.8 571.592 474.787
513 0 46.1024 15.574 718 124.617 570.648 476.102
514 0 45.0282 11.2374 506 130.769 570.445 473.032
515 0 50.1763 11.5991 582 128.172 568.945 470.646
516 0 51.1315 14.9419 764 120.593 566.503 478.298
517 0 49.0582 14.9007 731 124.161 565.876 474.855
518 0 51.0512 14.554 743 124.68 564.649 468.588
519 0 54.1112 15.6899 849 123.578 564.415 469.436
520 0 56.1388 12.7007 713 128.449 563.579 465.651
521 0 58.0891 16.4403 955 121.593 562.084 467.726
522 0 58.0536 12.2129 709 129.736 561.691 464.903
523 0 60.1798 12.8781 775 130.746 561.579 462.413
524 0 62.0866 9.06798 563 135.872 561.147 461.206
525 0 67.1049 15.3342 1029 124.379 561.762 462.75
526 0 69.2526 13.8334 958 131.515 561.014 460.045
527 0 69.1182 13.9616 965 133.089 562.001 457.634
528 0 72.1113 13.5208 975 134.963 562.172 458.172
529 0 73.1862 13.2402 969 138.913 562.658 450.152
530 0 78.1848 11.9972 938 137.475 564.514 457.452
531 0 78.0938 14.2905 1116 134.901 566.004 451.622
532 0 82.1564 13.7421 1129 136.86 567.856 447.368
533 1 41.0613 11.3245 465 134.342 570.572 469.738
534 0 43.0741 11.8168 509 134.701 572.727 470.014
535 0 45.2112 13.3153 602 127.718 573.945 474.141
536 0 46.057 12.3543 569 132.244 576.297 470.756
537 0 48.7751 18.9441 924 122.447 575.71 468.209
538 0 46.1526 12.177 562 138.633 575.996 468.057
539 0 51.1576 12.569 643 135.862 576.706 470.947
540 0 52.1457 13.1938 688 135.321 577.126 468.718
541 0 57.1092 17.3177 989 127.899 576.256 470.176
542 0 57.1204 14.8983 851 133.186 576.41 468.188
543 0 62.0655 15.5481 965 130.388 575.482 469.494
544 0 61.0865 17.1233 1046 129.009 574.783 469.599
545 0 66.1518 14.0737 931 133.221 573.158 470.04
546 0 66.0448 17.6698 1167 130.244 572.623 465.004
547 0 71.2029 15.2241 1084 132.918 571.424 465.759
548 0 72.363 17.9235 1297 128.014 570.056 468.681
549 0 77.1649 15.9399 1230 132.21 568.769 464.997
550 0 78.2099 15.2538 1193 135.34 567.708 461.614
551 0 79.2524 15.0784 1195 138.703 566.484 458.618
552 1 44.2004 10.7691 476 137.181 565.353 479.179
553 0 41.1545 15.8427 652 130.557 564.712 478.876
554 0 45.1869 15.2921 691 131.472 564.042 475.841
555 0 45.1032 10.9083 492 140.585 563.181 475.872
556 0 46.0719 12.1983 562 140.192 563.374 472.854
557 0 48.1408 12.962 624 137.468 566.635 471.684
558 0 48.1408 12.8166 617 132.342 565.645 471.689
559 0 50.055 12.4663 624 140.936 566.261 465.157
560 0 53.1498 14.0546 747 135.091 567.252 468.929
561 0 53.1446 12.5319 666 141.437 567.203 466.269
562 0 54.0435 12.3049 665 141.826 568.686 465.323
563 0 55.0935 12.5605 692 140.617 569.159 464.176
564 0 57.1217 11.4843 656 141.934 570.663 464.587
565 0 57.1217 11.5543 660 133.036 571.647 464.552
566 0 61.3482 14.6052 896 136.424 574.588 463.807
567 0 62.0714 11.7768 731 142.364 575.692 462.973
568 0 66.1726 13.8124 914 137.659 578.325 461.354
569 0 67.1939 12.9327 869 140.652 579.824 459.795
570 0 72.0985 13.8977 1002 139.391 580.647 457.842
571 0 73.0766 15.2853 1117 134.81 580.959 460.602
572 0 77.126 12.7454 983 139.34 581.484 457.306
573 0 77.126 12.7324 982 137.436 581.48 457.341
574 0 77.1292 12.4078 957 137.56 582.542 457.946
575 1 41.0558 9.84027 404 139.101 581.141 479.963
576 0 45.1203 10.8377 489 137.975 580.892 478.654
577 0 46.1315 13.4398 620 134.897 579.853 477.474
578 0 45.1216 13.9844 631 133.84 576.2 484.087
579 0 45.3993 9.9561 452 140.861 576.951 478.712
580 0 51.0461 11.6757 596 137.086 572.463 480.485
581 0 50.069 12.7824 640 136.372 571.092 481.231
582 0 54.0864 17.1577 928 129.161 569.754 480.017
583 0 52.1124 14.0466 732 134.902 568.372 481.243
584 0 56.1149 19.2106 1078 127.419 566.889 478.081
585 0 57.0492 14.9695 854 134.413 565.927 476.807
586 0 59.0939 16.3469 966 132.556 564.959 475.281
587 0 59.1179 11.6716 690 141.857 564.267 474.386
588 0 64.1974 20.3902 1309 126.384 562.813 473.687
589 0 63.242 16.176 1023 134.821 561.954 472.543
590 0 66.1096 16.1399 1067 137.513 561.161 468.015
591 0 68.1534 16.0227 1092 136.92 561.487 467.321
592 0 72.275 17.3642 1255 133.653 560.814 467.649
593 0 74.1727 16.893 1253 137.602 561.318 462.81
594 0 76.4168 16.2922 1245 138.556 563.843 460.977
595 0 77.3034 15.1093 1168 141.023 564.265 461.362
596 1 41.1228 12.0371 495 137.848 566.768 479.95
597 0 43.0264 12.318 530 135.5 568.276 481.94
598 0 45.0533 12.8736 580 140.319 569.069 477.471
599 0 45.0251 11.749 529 141.25 570.953 477.098
600 0 48.1634 13.122 632 139.182 572.31 475.69
601 0 51.1158 13.3814 684 139.249 574.462 474.311
602 0 49.0373 12.1744 597 142.268 574.504 474.831
603 0 53.1276 13.9852 743 137.051 574.662 476.459
604 0 54.0312 16.6756 901 129.346 575.118 480.925
605 0 56.0995 17.3085 971 131.463 575.011 476.801
606 0 57.0892 15.2043 868 135.188 575.159 476.112
607 0 59.0921 18.3273 1083 130.229 574.77 477.29
608 0 58.1707 15.9187 926 132.837 573.406 479.626
609 0 63.1515 17.7985 1124 130.762 573.967 473.241
610 0 66.0515 19.6665 1299 127.416 572.901 476.329
611 0 69.0643 15.5942 1077 132.458 571.903 476.655
612 0 69.0873 15.4153 1065 135.25 571.248 473.937
613 0 73.0737 19.2545 1407 129.389 570.075 473.072
614 0 75.2922 17.1731 1293 133.513 568.02 469.846
615 0 76.1193 20.1526 1534 128.332 567.205 471.074
616 0 78.1947 15.9346 1246 137.271 565.494 466.236
617 0 81.2965 17.2578 1403 133.483 564.459 464.949
618 1 43.1406 12.1 522 138.172 563.245 481.931
619 0 39.0996 11.4835 449 138.782 562.414 482.768
620 0 43.2417 11.7248 507 136.365 561.211 480.736
621 0 46.2014 15.0212 694 132.3 560.602 477.536
622 0 44.411 10.9432 486 140.191 559.257 476.078
623 0 46.181 13.7719 636 134.039 558.893 474.187
624 0 48.2702 17.1327 827 129.414 558.759 473.495
625 0 49.1663 15.9459 784 133.204 560.653 471.278
626 0 50.1114 14.3281 718 136.212 561.256 471.116
627 0 55.1417 16.0677 886 131.109 561.219 469.95
628 0 54.1409 11.7286 635 143.591 562.513 463.131
629 0 64.0754 16.8395 1079 125.775 563.272 467.729
630 0 59.3044 18.3292 1087 129.137 564.391 464.26
631 0 58.2817 14.0696 820 139.02 564.789 461.427
632 0 61.3343 16.4671 1010 134.607 566.603 462.438
633 0 65.1269 16.5677 1079 133.123 567.756 462.189
634 0 67.1283 15.6417 1050 135.496 569.56 462.608
635 0 69.0897 14.3003 988 137.096 571.215 464.77
636 0 69.082 13.8965 960 139.738 572.623 464.19
637 0 73.137 11.6494 852 143.224 573.241 464.677
638 0 74.2301 16.9608 1259 136.498 574.967 462.213
639 0 76.3149 15.0954 1152 140.826 575.297 461.848
640 0 79.3137 17.6262 1398 135.155 575.21 464.992
641 0 82.3556 18.2623 1504 136.111 575.029 460.935
642 0 80.3245 13.7318 1103 147.471 574.397 459.343
643 1 43.1632 8.17827 353 146.096 572.184 481.629
644 0 45.1005 11.1307 502 140.582 571.207 483.108
645 0 44.0137 10.883 479 142.605 570.457 481.094
646 0 46.0976 12.6471 583 140.779 570.093 481.101
647 0 46.2972 13.7373 636 144.052 571.25 471.41
648 0 51.1409 19.5734 1001 130.164 568.157 478.696
649 0 54.3078 14.5651 791 138.317 566.006 477.702
650 0 53.172 16.3432 869 139.038 564.755 474.612
651 0 55.1165 13.789 760 143.026 564.086 475.559
652 0 56.1298 15.9274 894 140.718 562.625 472.998
653 0 56.1756 13.1018 736 148.291 561.769 472.465
654 0 60.5264 15.0843 913 144.226 561.775 468.441
655 0 60.3462 15.2619 921 145.651 560.966 465.341
656 0 62.3433 14.2758 890 146.366 560.258 467.035
657 0 64.2094 15.2626 980 147.853 560.604 461.066
658 0 65.301 13.032 851 152.092 560.818 461.799
659 0 69.2634 17.1664 1189 144.322 561.706 458.015
660 0 71.3524 13.6646 975 151.741 562.623 459.413
661 0 73.1584 15.7056 1149 149.233 563.471 455.062
662 0 77.2634 15.2077 1175 149.454 565.026 457.767
663 1 40.1522 11.2074 450 150.976 566.833 472.34
664 0 45.2785 12.0587 546 148.7 567.663 472.614
665 0 44.1557 12.1162 535 150.826 570.002 473.495
666 0 45.2075 13.5597 613 148.566 572.021 473.837
667 0 46.046 13.5734 625 150.326 572.68 472.275
668 0 47.1549 14.1449 667 149.223 576.316 474.468
669 0 50.056 17.2407 863 144.294 575.59 473.722
670 0 51.051 15.2201 777 150.255 576.282 473.03
671 0 51.0359 15.3813 785 152.092 576.648 471.496
672 0 54.144 14.443 782 152.431 577.682 474.639
673 0 55.0616 13.385 737 157.042 576.927 473.278
674 0 57.1103 16.1267 921 151.843 577.666 473.869
675 0 60.0553 17.051 1024 147.482 575.785 474.579
676 0 59.0961 14.4341 853 156.004 575.034 473.512
677 0 62.0559 16.3401 1014 151.12 573.426 473.119
678 0 64.198 16.0753 1032 153.403 572.303 470.409
679 0 67.1468 18.1841 1221 148.631 570.653 469.963
680 0 70.1756 18.5677 1303 146.975 569.289 469.251
681 0 71.1591 16.5685 1179 152.607 568.369 466.703
682 0 71.1056 15.8637 1128 156.861 567.051 462.33
683 0 76.0835 16.0613 1222 154.07 565.434 464.327
684 1 41.0349 10.2839 422 154.498 564.327 480.671
685 0 44.1155 16.2754 718 143.948 562.347 478.634
686 0 43.0193 14.877 640 152.231 562.047 474.728
687 0 46.0489 15.5704 717 147.982 561.259 473.979
688 0 47.0325 18.1151 852 144.469 560.931 472.918
689 0 48.281 14.5399 702 153.228 560.588 471.09
690 0 49.0944 15.7248 772 148.034 560.337 468.404
691 0 50.0907 14.8331 743 149.934 560.821 468.68
692 0 52.0661 15.4035 802 148.574 561.019 466.071
693 0 54.111 16.7618 907 146.174 561.793 463.782
694 0 57.1423 18.0427 1031 142.128 563.096 462.903
695 0 59.1103 17.4589 1032 143.013 564.069 461.057
696 0 59.0658 15.3219 905 146.965 565.954 463.391
697 0 58.1044 13.5102 785 154.234 567.208 460.792
698 0 62.2586 16.8009 1046 145.846 569.535 459.555
699 0 65.1502 17.9892 1172 140.137 571.317 462.271
700 0 63.2469 14.5462 920 150.164 573.053 462.079
701 0 69.1572 17.0192 1177 144.517 574.07 459.824
702 0 69.11 15.9745 1104 148.736 576.01 456.738
703 0 71.2391 16.6762 1188 145.059 575.871 461.79
704 0 74.1844 16.5803 1230 146.77 576.351 459.316
705 0 76.1619 17.988 1370 145.084 576.178 458.117
706 0 77.2482 15.8709 1226 149.949 576.062 459.13
707 0 81.217 16.339 1327 148.344 575.638 459.511
708 0 84.2203 22.0018 1853 139.241 575.616 454.66
709 0 86.1835 18.4954 1594 145.015 575.058 458.038
710 0 86.2577 15.0016 1294 154.078 573.603 451.543
711 1 46.0293 13.3611 615 149.859 570.93 476.206
712 0 49.0478 9.62328 472 153.943 569.778 478.405
713 0 49.0819 12.6523 621 151.457 569.258 473.729
714 0 50.0458 13.3278 667 151.897 567.757 472.294
715 0 54.0859 12.6466 684 149.444 565.931 473.697
716 0 58.075 15.0495 874 144.601 564.929 471.376
717 0 55.0575 17.9812 990 139.687 564.941 470.423
718 0 59.1057 14.8717 879 145.564 563.822 467.637
719 0 60.0462 15.9377 957 141.878 561.959 469.029
720 0 59.2086 13.1062 776 150.991 561.094 463.012
721 0 65.2079 15.0595 982 147.242 561.165 462.821
722 0 66.1228 15.4107 1019 147.657 561.117 460.864
723 0 68.1062 16.9294 1153 144.573 560.451 459.992
724 0 74.0458 21.7703 1612 134.385 560.991 460.638
725 0 73.1205 17.0951 1250 146.28 561.734 454.591
726 0 75.1697 16.9217 1272 146.364 562.105 457.374
727 0 79.0887 17.6511 1396 146.061 562.208 453.364
728 0 82.1113 19.096 1568 143.36 564.802 451.306
729 0 84.24 17.9843 1515 145.921 566.613 449.348
730 0 86.2542 15.0022 1294 153.342 569.13 450.658
731 0 89.2805 17.4842 1561 148.074 571.497 448.588
732 0 92.2469 19.5562 1804 143.23 573.36 449.389
733 0 94.1266 17.9014 1685 146.272 573.38 449.896
734 0 99.2667 18.818 1868 144.484 574.611 446.094
735 0 100.229 17.3403 1738 149.008 576.279 446.135
736 0 106.156 20.338 2159 140.466 576.955 451.412
737 0 108.15 21.9509 2374 137.676 577.316 448.396
738 0 113.217 20.2532 2293 139.464 575.833 447.262
739 0 115.208 19.339 2228 139.762 575.869 443.827
740 0 119.226 20.3143 2422 138.012 575.276 445.322
741 1 52.0202 10.0538 523 144.377 574.166 478.866
742 0 58.1287 11.595 674 140.341 574.358 477.728
743 0 59.1845 13.8381 819 135.597 572.585 477.967
744 0 60.1252 11.8586 713 140.412 570.923 475.937
745 0 63.0883 15.09 952 138.342 570.825 475.26
746 0 63.0666 17.7114 1117 134.577 569.108 473.483
747 0 68.2258 17.8818 1220 134.249 567.781 470.101
748 0 70.2735 16.7773 1179 135.209 566.328 470.321
749 0 72.1165 14.3656 1036 140.208 565.682 472.215
750 0 73.172 18.805 1376 135.35 564.265 468.391
751 0 74.1295 16.1474 1197 141.919 564.282 463.231
752 0 77.1675 15.3432 1184 140.973 562.58 465.939
753 0 80.2494 16.2867 1307 140.742 563.081 462.504
754 0 80.2413 14.8926 1195 143.143 561.916 463.098
755 0 84.2559 16.1176 1358 142.378 562.199 458.255
756 0 87.2151 18.1734 1585 138.189 562.454 457.244
757 0 89.2194 14.7053 1312 145.444 561.529 454.46
758 1 50.0573 12.6455 633 142.499 563.779 475.692
759 0 50.0573 11.0673 554 142.404 565.852 474.861
760 0 54.2623 12.2921 667 144.333 564.964 471.994
761 0 54.0775 14.5162 785 140.688 566.741 471.573
762 0 54.1524 12.8157 694 143.98 568.158 471.813
763 0 59.1498 16.7372 990 133.808 568.748 470.484
764 0 60.2023 15.9795 962 137.296 568.98 468.718
765 0 61.3161 14.4986 889 143.192 570.196 467.657
766 0 66.5012 17.7741 1182 135.533 571.855 469.865
767 0 68.2754 19.0405 1300 134.223 573.862 471.511
768 0 70.2686 13.2634 932 145.318 574.51 468.615
769 0 72.2003 17.6592 1275 139.678 575.01 466.249
770 0 73.2366 16.4945 1208 142.897 574.42 466.377
771 0 78.3863 18.8936 1481 136.07 574.278 467.866
772 0 79.3345 14.3443 1138 142.739 573.718 467.924
773 0 80.2022 13.7278 1101 143.104 573.603 469.056
774 0 86.3915 17.1545 1482 138.253 572.53 466.858
775 0 87.2463 17.3417 1513 138.067 571.871 449.146
776 0 92.2564 18.9797 1751 136.894 570.316 447.497
777 0 95.1687 16.0452 1527 142.309 569.293 445.764
778 0 99.4059 18.691 1858 137.498 567.72 450.78
779 0 98.5187 17.9052 1764 140.578 564.995 447.744
780 1 53.3266 12.1703 649 144.219 564.827 469.282
781 0 56.2312 16.2188 912 134.868 563.994 472.098
782 0 53.1948 14.7571 785 138.036 562.48 475.157
783 0 63.3978 13.7544 872 136.924 561.422 477.267
784 0 58.2081 16.7502 975 135.619 560.471 471.626
785 0 63.1708 13.8988 878 138.861 560.28 470.978
786 0 68.4176 17.247 1180 130.832 560.43 468.74
787 0 66.1657 12.4234 822 141.451 559.983 465.397
788 0 69.4111 15.5883 1082 136.013 559.755 463.024
789 0 71.1009 14.4443 1027 139.598 559.598 459.692
790 0 72.2199 13.4727 973 141.975 559.888 458.979
791 0 74.2824 14.741 1095 139.205 558.85 459.017
792 0 81.3463 19.3371 1573 128.977 559.387 458.196
793 0 80.311 17.9054 1438 133.654 560.488 454.071
794 0 83.2654 17.4743 1455 135.412 561.445 455.414
795 0 86.3613 15.1225 1306 140.495 562.925 452.397
796 1 41.2424 10.208 421 148.85 565.05 468.297
797 0 42.0475 9.63196 405 147.227 567.985 471.237
798 0 43.1545 9.61662 415 149.634 569.012 470.224
799 0 51.2147 11.9302 611 140.926 570.745 470.966
800 0 48.1147 12.7196 612 141.175 570.386 472.317
801 0 55.1234 15.5469 857 133.67 571.784 470.398
802 0 52.1819 16.4808 860 138.006 572.741 469.084
803 0 55.3595 13.024 721 139.994 572.663 472.954
804 0 55.2728 15.2516 843 139.555 574.47 468.635
805 0 58.1987 17.1653 999 135.38 574.188 471.053
806 0 61.2131 14.6864 899 138.601 573.742 472.095
807 0 61.1782 15.3813 941 138.843 574.593 471.148
808 0 62.3336 18.8181 1173 132.278 573.772 472.228
809 0 64.1853 12.9936 834 143.766 572.751 470.23
810 0 66.2116 13.336 883 141.284 571.985 471.187
811 0 72.3336 16.9078 1223 136.072 571.952 469.829
812 0 72.1495 14.8858 1074 141.23 571.186 466.976
813 0 78.1841 16.4356 1285 138.293 569.805 462.758
814 0 78.2239 11.9273 933 146.16 569.084 462.847
815 0 81.2467 15.9145 1293 139.495 568.065 460.049
816 1 42.0804 8.84022 372 143.586 566.188 478.992
817 0 39.2937 10.3324 406 140.291 565.803 479.897
818 0 39.2281 11.1655 438 138.603 565.514 479.041
819 0 41.5498 8.30328 345 144.612 565.794 474.188
820 0 42.1546 12.0746 509 141.527 565.082 469.595
821 0 46.317 13.6883 634 133.431 562.838 474.191
822 0 48.3592 15.5503 752 131.049 564.174 470.56
823 0 46.1725 12.9948 600 137.838 562.582 469.638
824 0 50.0471 16.1848 810 129.078 562.97 471.388
825 0 49.1588 13.792 678 135.046 563.643 467.454
826 0 48.4021 12.6234 611 138.118 564.486 465.668
827 0 52.1325 14.0603 733 132.84 568.629 465.91
828 0 54.0998 17.4677 945 125.484 570.071 466.725
829 0 52.122 14.4277 752 135.241 571.04 463.965
830 0 53.2831 15.8212 843 132.734 573.539 463.9
831 0 53.0456 11.2168 595 140.738 575.281 463.38
832 0 58.1808 15.5721 906 131.267 576.166 465.344
833 0 55.1366 14.8359 818 134.086 577.813 464.594
834 0 57.0867 13.9437 796 134.935 579.156 466.668
835 0 57.0958 14.3443 819 132.869 578.873 469.104
836 0 59.1852 14.5813 863 129.72 580.919 472.224
837 0 60.0964 15.4086 926 129.663 580.611 468.887
838 0 59.0474 15.9702 943 129.581 580.296 470.435
839 0 60.1683 13.0634 786 133.291 579.467 472.347
840 0 60.1527 13.0169 783 134.585 580.142 471.596
841 0 59.0494 14.5641 860 132.192 579.8 471.416
842 0 59.0769 13.1354 776 132.642 577.68 472.41
843 0 62.0972 16.7157 1038 127.653 576.031 469.999
844 0 59.2144 14.7768 875 132.475 575.117 467.667
845 0 60.1888 16.7639 1009 128.19 573.513 471.243
846 0 64.0523 13.5046 865 130.443 572.972 471.57
847 0 60.1266 14.5526 875 130.157 570.558 469.935
848 0 61.1002 13.6006 831 132.221 568.998 467.206
849 0 62.053 15.4706 960 128.961 568.603 470.158
850 0 62.0755 15.6261 970 129.996 566.177 464.574
851 0 65.1335 17.5946 1146 124.216 564.354 465.5
852 0 63.0934 15.7544 994 129.153 564.108 463.446
853 0 66.2283 14.7218 975 128.548 564.069 462.576
854 0 67.1461 17.9906 1208 124.263 563.881 460.409
855 0 66.0773 11.1385 736 134.413 563.436 460.056
856 0 68.1074 15.6077 1063 126.021 562.483 459.612
857 0 70.1073 17.1166 1200 123.442 563.59 457.997
858 0 67.1082 15.8252 1062 124.85 563.192 458.71
859 0 70.117 13.3634 937 127.818 563.322 455.721
860 0 66.117 9.60418 635 135.227 565.091 456.077
861 0 70.2327 13.9251 978 126.91 565.594 456.803
862 0 70.07 16.3408 1145 123.46 567.531 453.007
863 0 72.4414 17.1725 1244 120.83 568.814 459.187
864 0 71.2694 16.8656 1202 121.478 569.674 459.891
865 0 69.5733 15.7244 1094 124.48 571.409 456.649
866 0 67.1656 16.169 1086 127.76 572.768 459.14
867 0 65.105 15.9281 1037 128.065 574.239 458.834
868 0 67.2612 14.5255 977 130.559 574.442 458.489
869 0 69.278 11.7642 815 131.044 575.623 463.837
870 0 68.1122 15.2836 1041 126.849 575.099 462.661
871 0 68.1025 15.227 1037 127.439 575.231 464.447
872 0 67.2845 18.771 1263 123.575 574.401 462.947
873 0 69.2061 15.8512 1097 123.059 575.191 467.097
874 0 67.1732 15.0506 1011 126.664 574.763 467.491
875 0 69.226 14.821 1026 127.131 574.492 463.75
876 0 72.1893 17.0524 1231 120.108 572.716 466.687
