time division length width area intensity CMx CMy
0 0 69.4692 14.8987 1035 122.612 891.11 450.426
1 0 72.2923 20.7906 1503 114.522 892.208 453.945
2 0 76.5052 16.4172 1256 117.692 893.135 452.353
3 0 77.2716 11.8155 913 121.865 894.939 454.756
4 0 80.3414 15.3346 1232 118.423 894.407 453.845
5 0 80.2416 13.2973 1067 124.103 894.28 447.047
6 0 85.561 17.9404 1535 120.389 894.319 448.434
7 0 86.1997 15.5801 1343 126.628 893.215 447.594
8 0 89.4803 16.6629 1491 131.319 891.694 448.425
9 0 92.3571 17.6164 1627 133.502 890.751 448.282
10 0 94.5756 14.2743 1350 141.933 889.804 442.124
11 0 96.2064 12.5771 1210 149.961 888.725 445.593
12 1 49.1833 13.9478 686 138.965 888.312 468.609
13 0 54.1591 10.6169 575 142.097 887.81 469.165
14 0 54.1165 12.3992 671 147.075 885.896 467.684
15 0 55.2347 12.6913 701 149.942 884.465 465.796
16 0 57.1334 12.9697 741 146.413 882.549 463.771
17 0 60.1784 14.1745 853 142.732 880.379 464.797
18 0 63.1923 12.5806 795 144.506 879.711 459.891
19 0 64.1828 14.5522 934 141.639 879.036 458.704
20 0 68.1518 13.9835 953 140.882 878.469 458.324
21 0 71.1852 17.7565 1264 133.436 877.77 454.821
22 0 72.1874 13.1186 947 142.698 877.087 452.614
23 0 75.3709 17.1684 1294 134.927 877.223 451.104
24 0 76.1905 14.8444 1131 137.286 878.228 448.124
25 0 80.2189 17.0409 1367 133.484 878.249 447.977
26 0 85.3827 17.3337 1480 135.136 877.793 447.666
27 0 83.2796 12.7282 1060 149.121 878.403 442.756
28 0 87.2254 14.9498 1304 144.349 878.847 440.505
29 0 91.3494 15.8512 1448 139.689 881.045 439.445
30 0 94.3535 13.8098 1303 142.672 882.463 437.756
31 0 100.319 15.371 1542 137.075 884.582 436.065
32 1 50.5762 12.3576 625 135.618 885.205 458.763
33 0 52.373 11.3035 592 137.274 886.84 458.758
34 0 53.6585 15.4868 831 127.965 888.812 459.206
35 0 56.6416 11.9347 676 132.586 890.445 456.522
36 0 57.1013 14.0102 800 124.755 890.65 459.492
37 0 59.1764 16.1044 953 121.317 891.392 461.508
38 0 61.2295 14.0128 858 125.22 890.928 459.304
39 0 63.2293 14.4079 911 128.544 890.493 459.824
40 0 63.0738 12.3189 777 132.871 890.205 462
41 0 67.2068 13.8974 934 129.85 890.227 468.427
42 0 68.1293 11.7424 800 143.879 888.98 463.022
43 0 68.3415 13.4325 918 143.041 888.385 463.578
44 0 73.3312 13.364 980 146.755 887.639 459.533
45 0 77.2755 14.2866 1104 145.149 887.662 459.382
46 0 75.3952 14.5102 1094 149.124 885.995 457.229
47 0 80.5179 14.3446 1155 153.324 884.739 455.754
48 0 82.8933 14.0301 1163 154.958 882.922 450.637
49 0 85.5735 16.5355 1415 149.9 880.669 449.259
50 1 46.6235 9.33007 435 158.74 879.315 467.993
51 0 50.3976 12.3022 620 152.176 877.655 467.042
52 0 51.347 10.2246 525 157.215 877.139 466.876
53 0 53.847 12.3127 663 153.735 876.359 465.074
54 0 50.7634 10.5588 536 163.032 875.222 462.17
55 0 55.2528 16.5964 917 146.513 874.252 460.984
56 0 58.4949 15.027 879 149.998 873.741 459.413
57 0 57.5887 13.4922 777 157.236 873.202 456.457
58 0 62.4076 13.3798 835 154.958 872.709 456.024
59 0 64.4094 16.3175 1051 148.827 873.135 452.807
60 0 65.8233 15.5872 1026 150.587 873.334 452.411
61 0 67.6895 14.7143 996 153.847 874.094 449.895
62 0 69.5679 14.0007 974 156.164 874.786 448.647
63 0 71.3636 13.0459 931 158.801 875.506 450.201
64 0 72.5902 14.6301 1062 156.668 877.98 444.297
65 0 76.4818 16.03 1226 153.107 880.06 447.226
66 0 77.4356 15.6259 1210 152.598 882.918 445.022
67 0 83.4068 14.9148 1244 150.632 884.831 445.849
68 0 88.6654 17.3574 1539 142.133 886.284 446.257
69 0 89.5176 16.6894 1494 145.681 887.535 444.104
70 0 92.5614 14.9414 1383 149.915 888.003 443.397
71 0 95.5478 18.6085 1778 144.422 889.246 442.617
72 0 97.3778 17.9918 1752 145.68 889.045 444.339
73 1 51.3578 13.9804 718 149.677 888.44 463.805
74 0 53.4758 12.155 650 158.006 888.645 466.675
75 0 55.4722 15.6475 868 149.427 888.024 465.298
76 0 56.246 13.6721 769 159.345 886.982 463.055
77 0 58.3091 14.0458 819 156.507 886.154 465.783
78 0 58.2656 14.3652 837 160.624 885.711 462.306
79 0 60.522 15.0028 908 159.525 884.778 461.423
80 0 63.2228 14.441 913 162.935 883.376 461.575
81 0 63.3417 15.0296 952 165.537 881.868 460.659
82 0 66.1408 16.3741 1083 163.163 880.114 458.355
83 0 70.2539 15.2732 1073 165.16 878.617 458.64
84 0 70.1396 15.7686 1106 165.807 877.332 456.822
85 0 73.2304 16.81 1231 163.95 875.754 455.385
86 0 74.2125 14.3372 1064 169.508 875.044 455.969
87 0 75.205 13.7358 1033 175.252 874.008 450.817
88 0 80.2548 15.6252 1254 167.588 873.267 448.703
89 0 81.1434 14.8256 1203 172.082 872.748 447.311
90 0 84.1814 17.1416 1443 167.31 872.736 445.96
91 0 89.3615 16.0136 1431 166.624 872.866 445.868
92 0 91.2324 15.8277 1444 169.064 873.15 443.834
93 0 92.2111 15.1283 1395 171.252 873.29 440.08
94 0 96.2142 15.8189 1522 169.647 873.438 437.036
95 1 51.0282 12.1306 619 157.742 873.788 461.53
96 0 55.3686 10.8004 598 159.644 874.814 458.119
97 0 55.298 13.6895 757 156.334 876.243 455.353
98 0 55.2904 11.4848 635 158.06 878.178 455.246
99 0 58.138 13.4163 780 156.442 880.936 454.178
100 0 60.1522 11.8865 715 148.02 882.13 458.65
101 0 61.154 12.3132 753 151.849 883.413 459.092
102 0 63.0888 13.4255 847 147.527 885.655 461.577
103 0 65.125 12.929 842 147.032 887.337 463.064
104 0 69.2031 15.0716 1043 141.157 887.424 461.455
105 0 70.1186 14.4184 1011 144.099 888.607 461.094
106 0 73.119 12.9515 947 146.673 887.593 463.981
107 0 75.1033 11.9569 898 148.327 888.116 460.578
108 0 75.1292 11.7265 881 149.751 887.703 459.339
109 0 81.1476 12.5697 1020 154.231 886.804 457.453
110 0 83.1307 13.4728 1120 153.006 886.457 456.375
111 0 83.124 13.3535 1110 133.496 886.441 456.528
112 0 89.1524 13.4265 1197 162.487 885.209 454.756
113 1 45.0322 8.37178 377 157.125 883.204 480.464
114 0 45.0416 10.457 471 134.384 882.333 478.246
115 0 50.0465 9.97072 499 158.509 880.906 474.97
116 0 50.1292 12.0489 604 154.937 879.483 473.364
117 0 52.0332 13.5106 703 151.205 877.245 473.006
118 0 54.0868 13.3119 720 150.953 876.631 472.674
119 0 56.1849 11.4266 642 154.93 874.238 472.274
120 0 56.095 12.4967 701 154.75 873.484 469.468
121 0 59.0772 13.5924 803 154.587 872.107 463.761
122 0 61.1143 12.0921 739 156.783 871.206 463.141
123 0 62.1962 14.7758 919 149.215 870.535 462.412
124 0 67.055 15.0623 1010 148.179 870.993 460.657
125 0 66.0705 12.8953 852 155.865 871.444 455.165
126 0 69.1526 14.562 1007 150.917 870.972 455.637
127 0 71.1079 12.9521 921 154.492 871.809 455.147
128 0 73.1784 13.2826 972 158.466 872.084 450.948
129 0 74.0996 11.3631 842 162.677 872.957 451.844
130 0 78.251 15.348 1201 151.017 874.354 449.977
131 0 79.136 14.5067 1148 151.922 874.102 449.134
132 0 83.2994 13.4935 1124 153.585 875.95 451.101
133 1 39.1334 10.4514 409 152.301 878.362 469.24
134 0 39.0283 6.48248 253 156.593 881.067 470.585
135 0 44.0184 10.1094 445 149.919 882.524 469.694
136 0 44.0162 8.49687 374 149.182 883.652 472.489
137 0 46.1563 11.5694 534 142.876 885.112 472.197
138 0 45.0205 9.06253 408 153.044 885.522 474.262
139 0 47.1005 11.5073 542 148.651 886.533 469.236
140 0 49.057 13.413 658 142.824 885.202 471.272
141 0 49.1115 11.9524 587 146.073 884.399 469.94
142 0 52.0371 12.2413 637 145.473 884.129 469.961
143 0 53.0234 10.8066 573 150.182 882.501 471.428
144 0 54.0661 15.0926 816 142.02 881.756 470.947
145 0 57.302 16.4218 941 138.376 880.95 470.836
146 0 57.1885 11.9954 686 149.615 879.258 468.526
147 0 60.2392 12.5832 758 147.203 877.883 470.719
148 0 60.2051 11.2947 680 148.953 876.481 470.063
149 0 60.1335 10.5266 633 150.681 874.918 471.524
150 0 63.1851 13.6108 860 146.366 873.294 465.398
151 0 65.1732 12.6739 826 148.714 872.358 463.439
152 0 66.3286 11.036 732 154.148 871.485 463.891
153 0 68.1462 10.4922 715 156.042 870.517 461.85
154 0 71.1163 13.3725 951 149.024 869.89 461.141
155 0 74.0694 12.5693 931 152.056 869.17 457.676
156 0 76.0686 11.8709 903 151.132 869.094 461.54
157 0 75.0846 12.5059 939 154.982 868.23 451.111
158 0 82.1031 13.0446 1071 152.323 867.449 453.745
159 0 84.1673 13.9722 1176 150.956 867.259 449.481
160 0 87.1247 15.5639 1356 147.675 867.6 444.862
161 0 87.1552 15.6158 1361 149.35 867.822 445.748
162 0 90.1388 13.1353 1184 155.421 868.253 442.589
163 0 93.1922 13.7887 1285 154.004 869.258 441.371
164 0 98.1333 13.4715 1322 154.902 870.718 438.009
165 0 102.284 14.0882 1441 151.609 872.892 442.75
166 0 102.237 14.662 1499 152.804 875.208 441.891
167 0 106.359 15.3255 1630 151.799 876.816 435.739
168 0 111.288 13.9189 1549 151.745 879.221 438.59
169 0 112.408 13.8691 1559 154.86 880.042 438.817
170 0 117.209 15.306 1794 147.688 882.535 435.375
171 0 121.19 12.6743 1536 147.444 884.007 438.04
172 0 124.376 15.6059 1941 144.344 883.482 434.463
173 0 128.18 14.5576 1866 152.981 883.999 432.46
174 0 132.344 15.7167 2080 145.903 884.267 429.838
175 0 137.55 15.7325 2164 148.145 883.428 430.786
176 0 139.656 14.5715 2035 153.165 881.643 431.573
177 0 146.757 15.236 2236 152.449 881.704 422.882
178 1 87.2868 10.4369 911 156.549 879.92 454.686
179 0 92.322 10.8425 1001 153.635 878.661 455.466
180 0 94.2981 11.0183 1039 158.016 878.918 448.146
181 0 100.397 12.2812 1233 152.092 877.149 452.237
182 0 102.428 14.332 1468 148.151 876.127 450.271
183 0 104.288 14.9585 1560 149.24 875.119 444.392
184 0 108.32 12.9246 1400 152.964 872.857 445.19
185 0 111.372 15.74 1753 147.981 871.504 437.569
186 0 114.347 15.8378 1811 147.748 870.287 436.474
187 0 116.524 13.4479 1567 153.324 869.703 437.368
188 0 121.438 16.1728 1964 145.605 868.376 435.992
189 0 125.602 15.9074 1998 147.506 868.199 427.608
190 0 130.71 14.6125 1910 149.759 867.384 429.008
191 1 71.3671 9.71035 693 148.646 866.33 459.329
192 0 71.2173 10.812 770 147.755 866.57 456.37
193 0 72.1821 11.2355 811 148.575 866.342 453.386
194 0 78.3257 13.2268 1036 140.929 866.449 453.186
195 0 79.3596 11.933 947 144.516 867.188 449.853
196 0 83.1958 18.2101 1515 131.3 867.233 448.857
197 0 86.1749 18.2536 1573 131.645 868.719 449.988
198 0 86.3367 14.0381 1212 140.134 871.027 447.045
199 0 89.3147 18.3844 1642 134.507 872.383 447.8
200 0 91.2904 15.5 1415 136.169 873.816 446.449
201 0 94.2621 14.9371 1408 134.78 876.029 449.644
202 0 97.2328 13.4111 1304 139.338 877.289 444.56
203 0 97.2571 13.4695 1310 150.113 877.287 444.408
204 0 104.159 14.1227 1471 140.358 879.768 440.539
205 0 107.335 13.4159 1440 139.427 880.924 438.462
206 0 113.367 12.958 1469 139.136 880.737 441.003
207 1 52.0593 8.20219 427 137.405 881.867 470.129
208 0 55.1192 11.0669 610 133.91 883.426 471.043
209 0 56.1367 12.3449 693 128.492 881.898 468.795
210 0 57.2074 13.1626 753 129.389 881.701 468.98
211 0 57.2074 13.0927 749 123.25 881.698 469.089
212 0 63.2093 12.9728 820 129.252 880.307 469.998
213 0 60.1937 12.493 752 132.661 879.444 467.932
214 0 60.2403 12.4335 749 127.417 879.431 467.887
215 0 65.2758 12.4549 813 130.197 877.175 470.904
216 0 66.1528 15.0107 993 129.222 876.112 464.558
217 0 70.2449 13.2252 929 130.843 874.304 465.532
218 0 71.2729 13.778 982 129.457 873.633 464.401
219 0 71.1996 12.1911 868 133.979 872.295 460.338
220 0 74.1245 13.5583 1005 130.206 871.228 461.552
221 0 77.2072 12.4082 958 133.391 870.002 458.517
222 0 81.2969 13.4322 1092 130.321 868.636 456.326
223 0 82.2138 14.9975 1233 128.355 867.702 453.165
224 0 83.3121 12.7232 1060 132.433 867.352 447.631
225 0 88.2658 14.9095 1316 130.123 866.874 447.164
226 1 46.0122 6.52001 300 135.783 867.883 472
227 0 48.0559 11.2785 542 130.411 866.959 468.718
228 0 49.031 11.7477 576 128.292 867.24 468.495
229 0 54.0993 12.0704 653 126.26 869.263 467.778
230 0 53.0964 12.3737 657 128.813 868.967 462.717
231 0 55.0739 10.5676 582 129.333 870.844 464.39
232 0 58.074 12.0192 698 128.507 872.821 461.086
233 0 59.2534 13.1132 777 127.842 874.646 460.557
234 0 62.2247 13.628 848 125.71 875.875 463.193
235 0 63.1652 12.2219 772 129.469 877.938 461.25
236 0 65.1346 13.2341 862 125.35 879.708 461.896
237 0 66.2321 13.2866 880 126.834 880.397 463.034
238 0 67.0973 14.8292 995 128.395 882.564 460.575
239 0 71.1519 13.5766 966 129.215 882.997 464.064
240 0 73.1084 13.0902 957 132.1 882.742 464.715
241 0 76.2176 13.409 1022 132.125 882.269 462.956
242 0 78.1938 14.9884 1172 129.355 881.657 463.961
243 0 76.2371 12.6054 961 140.234 880.189 461.204
244 0 79.3015 15.9013 1261 136.494 880.285 456.883
245 0 84.2419 15.7048 1323 135.821 879.313 459.984
246 0 86.1289 16.2663 1401 130.887 877.615 456.868
247 0 89.0588 13.1149 1168 137.732 878.621 454.977
248 0 92.1732 13.3878 1234 137.258 877.494 455.582
249 1 51.12 9.38966 480 138.642 876.625 477.873
250 0 53.0311 11.333 601 135.927 875.529 476.399
251 0 52.4124 9.52066 499 139.84 873.675 473.782
252 0 58.3427 14.072 821 128.436 872.348 474.337
253 0 54.2218 10.328 560 138.83 871.286 471.495
254 0 61.8702 15.7588 975 125.545 869.588 469.882
255 0 60.0817 14.0142 842 129.846 869.076 469.614
256 0 68.0052 18.1457 1234 118.851 868.946 470.608
257 0 65.1029 14.1008 918 129.965 868.135 463.902
258 0 67.0735 14.4021 966 129.416 867.391 463.198
259 0 66.1009 12.2843 812 135.686 867.049 460.474
260 0 70.0984 14.337 1005 129.6 866.88 462.318
261 0 70.1443 13.5435 950 132.639 867.129 455.006
262 0 75.1529 21.1702 1591 117.523 867.847 457.545
263 0 76.2013 13.7793 1050 130.27 868.467 453.962
264 0 78.0635 17.7932 1389 123.478 869.392 451.808
265 0 82.1566 16.2251 1333 125.803 871.338 448.817
266 0 90.4988 20.8069 1883 115.307 873.139 455.127
267 0 89.3565 17.8051 1591 123.728 875.138 450.712
268 0 88.0906 12.9299 1139 133.979 877.155 450.217
269 0 91.1923 15.6702 1429 133.336 879.212 451.231
270 0 93.1683 15.3486 1430 136.801 879.527 446.162
271 0 96.2906 12.535 1207 141.502 880.439 451.411
272 1 51.0456 10.0694 514 137.481 880.794 472.235
273 0 50.0819 12.6992 636 134.041 881.884 472.648
274 0 50.0791 10.104 506 138.996 882.285 468.48
275 0 53.0665 11.25 597 138.548 881.67 469.677
276 0 59.1526 12.5607 743 133.863 881.49 472.063
277 0 58.1448 12.1421 706 136.644 881.323 473.663
278 0 61.0755 16.8152 1027 130.981 880.847 469.171
279 0 62.1838 14.8109 921 134.374 880.084 469.595
280 0 65.2658 12.9317 844 138.013 878.909 469.299
281 0 66.1591 14.9186 987 135.159 877.755 468.805
282 0 69.2803 17.4797 1211 130.653 876.583 466.71
283 0 71.0767 15.0542 1070 135.084 875.348 466.056
284 0 74.1652 14.9666 1110 136.827 873.894 462.349
285 0 74.1382 14.0683 1043 139.856 872.833 460.601
286 0 80.157 15.0954 1210 136.893 870.683 456.963
287 0 80.1112 15.5659 1247 136.504 869.911 453.253
288 0 83.15 14.4318 1200 139.524 869.178 454.585
289 0 83.3158 12.2306 1019 144.82 868.1 452.326
290 0 85.0661 12.3669 1052 145.091 867.246 448.821
291 0 89.1563 16.858 1503 134.756 866.724 450.496
292 0 92.2448 15.448 1425 138.303 866.383 444.24
293 1 50.0609 12.8244 642 133.822 866.738 469.516
294 0 54.1437 10.3244 559 137.717 866.485 467.068
295 0 52.0552 10.3736 540 137.044 867.3 468.293
296 0 57.0758 10.5824 604 135.581 868.662 465.672
297 0 56.1059 14.2409 799 130.827 869.798 460.417
298 0 56.0618 10.863 609 135.78 871.238 460.411
299 0 63.1294 15.2544 963 125.504 872.612 461.02
300 0 64.0873 12.9511 830 128.417 874.837 460.52
301 0 63.1509 12.9531 818 128.034 876.655 462.033
302 0 67.1741 15.11 1015 125.067 878.668 460.021
303 0 66.1749 13.9328 922 128.047 879.866 456.949
304 0 70.2469 13.481 947 127.39 881.196 457.15
305 0 67.1388 11.4837 771 131.429 881.409 456.379
306 0 72.0937 12.6225 910 130.848 882.074 457.986
307 0 76.1512 13.4863 1027 129.877 882.416 455.639
308 0 78.1697 15.9781 1249 127.965 881.596 458.865
309 0 80.0752 14.0992 1129 131.51 880.834 460.145
310 0 82.1673 14.9208 1226 134.511 878.624 457.942
311 0 83.1437 13.9758 1162 138.494 878.555 454.788
312 0 82.1267 12.432 1021 128.228 878.505 456.819
313 0 89.0694 16.01 1426 138.76 875.468 452.255
314 0 89.0694 16.0549 1430 132.383 873.479 452.317
315 0 95.1347 13.7279 1306 144.101 873.417 453.487
316 0 99.2164 15.9449 1582 140.323 872.573 450.499
317 0 102.143 15.3706 1570 140.19 871.644 454.35
318 1 51.2098 11.4236 585 143.268 872.079 470.523
319 0 51.1456 9.44362 483 137.385 868.961 469.46
320 0 52.1749 9.75565 509 138.179 868.831 464.699
321 0 52.1625 9.64295 503 125.445 868.875 464.742
322 0 58.1257 12.1805 708 132.181 868.823 462.165
323 0 61.1977 11.8142 723 132.967 867.344 459.639
324 0 61.1977 11.7652 720 130.774 866.356 459.578
325 0 60.0921 8.96956 539 140.716 866.297 454.239
326 0 68.1644 13.8929 947 129.162 865.75 458.675
327 0 68.1755 13.7586 938 132.263 866.18 453.996
328 0 69.1803 11.6363 805 136.832 866.722 453.831
329 0 70.103 11.6828 819 140.254 867.514 449.295
330 0 72.2447 11.2673 814 141.74 868.846 452.483
331 0 76.2111 14.0662 1072 137.865 870.487 450.136
332 0 79.2955 13.7082 1087 136.558 871.661 448.854
333 0 80.1988 15.1623 1216 138.029 872.622 448.305
334 0 84.1532 13.9983 1178 139.567 874.529 450.041
335 1 47.0408 10.2039 480 145.371 878.308 473.362
336 0 47.1734 11.002 519 141.566 879.692 474.778
337 0 49.0898 10.9391 537 144.223 880.361 471.801
338 0 51.2279 12.5127 641 142.298 881.251 472.643
339 0 52.3101 11.2789 590 147.769 879.985 470.946
340 0 54.1741 11.6661 632 142.524 879.619 473.305
341 0 55.0818 14.1063 777 138.969 880.582 473.035
342 0 56.117 12.1354 681 143.076 877.744 474.088
343 0 58.1136 12.923 751 142.269 877.282 473.907
344 0 59.0831 14.6235 864 140.921 877.115 470.4
345 0 60.0831 16.7435 1006 137.748 876.393 470.426
346 0 62.0943 11.8529 736 148.807 876.315 472.077
347 0 63.16 16.2128 1024 140.831 875.572 471.991
348 0 65.1381 14.2159 926 146.027 873.839 469.77
349 0 68.0726 15.5569 1059 143.938 872.465 468.543
350 0 71.1033 13.1358 934 148.445 871.742 470.546
351 0 73.1027 14.1718 1036 148.445 870.428 466.392
352 0 75.1783 15.3369 1153 147.545 868.791 465.639
353 0 75.047 14.0179 1052 151.712 868.008 462.495
354 0 79.0782 15.9968 1265 146.852 868.029 459.876
355 0 82.1205 16.1348 1325 145.256 866.777 461.122
356 0 87.1712 17.5517 1530 141.925 866.476 459.392
357 0 86.1078 13.7037 1180 154.908 865.413 454.732
358 1 45.0335 12.635 569 149.705 866.506 474.425
359 0 46.0729 12.2632 565 157.747 863.888 471.304
360 0 48.4035 14.6684 710 150.206 863.92 468.985
361 0 49.2887 14.973 738 148.991 864.381 467.81
362 0 52.06 13.2924 692 154.426 864.652 470.488
363 0 55.0706 15.925 877 146.147 866.27 468.151
364 0 56.1488 15.174 852 145.568 868.37 468.655
365 0 56.0719 16.8177 943 146.088 869.821 468.291
366 0 58.0621 15.5523 903 150.434 871.371 467.071
367 0 60.1988 15.4322 929 149.75 872.98 467.194
368 0 61.2499 15.5755 954 150.632 875.831 465.691
369 0 63.151 17.3869 1098 147.7 877.133 463.593
370 0 65.2923 14.7644 964 152.492 877.777 466.118
371 0 65.228 15.5455 1014 152.497 879.717 463.517
372 0 69.2044 15.0135 1039 152.435 879.153 466.11
373 0 68.2264 15.3753 1049 155.207 879.591 462.895
374 0 70.178 13.3375 936 159.98 879.489 465.794
375 0 75.1883 15.7737 1186 152.931 879.525 463.989
376 0 75.2068 16.7139 1257 152.854 879.515 462.274
377 0 76.3482 14.5387 1110 157.631 878.805 464.973
378 0 79.2138 13.4951 1069 157.103 877.566 460.606
379 1 42.0674 9.50855 400 154.715 875.288 484.698
380 0 46.0262 8.88624 409 158.469 875.029 484.237
381 0 47.0502 11.0095 518 156.048 874.519 481.384
382 0 48.0805 7.71622 371 161.167 874.42 482.016
383 0 49.0475 10.1942 500 156.346 872.59 480.21
384 0 48.1138 9.87242 475 159.126 870.651 478.547
385 0 51.0732 11.7087 598 155.259 869.099 477.488
386 0 54.0821 15.5319 840 145.482 867.745 473.918
387 0 56.145 12.7527 716 152.018 866.337 472.008
388 0 57.2111 18.1608 1039 142.137 865.67 468.449
389 0 59.2999 13.6257 808 150.441 864.778 468.658
390 0 61.1199 16.1649 988 143.244 864.079 468.595
391 0 61.1704 13.6504 835 149.441 864.159 463.704
392 0 63.1474 14.379 908 148.53 864.046 462.689
393 0 66.1281 16.6949 1104 143.115 864.255 461.164
394 0 68.136 17.1275 1167 142.351 864.693 456.009
395 0 71.159 15.1773 1080 144.074 865.522 459.69
396 0 74.0545 14.3138 1060 146.219 867.076 458.146
397 0 76.2059 13.9622 1064 146.308 867.427 457.187
398 0 78.1383 16.7395 1308 141.722 869.925 452.027
399 0 82.1375 16.3872 1346 140.554 871.67 453.082
400 0 83.194 14.4121 1199 144.915 873.569 452.298
401 0 85.3232 15.5761 1329 142.935 875.751 450.561
402 0 90.144 14.5323 1310 143.944 877.04 453.729
403 0 92.1116 14.5693 1342 143.512 878.891 450.56
404 0 95.2852 16.225 1546 142.628 880.834 448.127
405 1 49.0681 10.1492 498 145.042 879.863 473.323
406 0 52.031 10.6283 553 145.533 880.797 471.893
407 0 54.0529 13.5978 735 138.127 881.079 471.033
408 0 55.07 13.5101 744 139.927 880.036 467.667
409 0 59.0744 14.7441 871 141.661 879.679 471.726
410 0 61.0669 12.1342 741 147.942 879.011 471.17
411 0 63.0997 14.3741 907 143.728 878.212 471.516
412 0 62.2208 11.9253 742 150.784 876.639 470.784
413 0 67.1381 16.7118 1122 141.043 876.033 469.508
414 0 68.0948 14.5386 990 145.918 874.46 466.044
415 0 71.1219 15.1008 1074 142.855 873.611 470.106
416 0 74.0639 15.8512 1174 141.601 872.635 469.836
417 0 78.1896 16.7797 1312 141.623 871.274 466.847
418 0 80.0712 16.9724 1359 141.669 869.77 464.829
419 0 82.0942 14.3859 1181 148.1 868.656 461.171
420 0 83.233 14.8379 1235 149.367 867.9 458.887
421 1 40.1262 9.66949 388 151.379 867.183 478.686
422 0 45.0917 10.645 480 143.733 866.748 480.992
423 0 46.0289 13.535 623 143.491 866 476.056
424 0 48.1209 13.9233 670 141.152 866.348 475.506
425 0 48.1249 12.6338 608 141.599 865.913 473.826
426 0 50.0245 13.4534 673 141.122 865.403 473.981
427 0 50.1167 14.8054 742 140.542 865.891 472.267
428 0 53.111 14.2908 759 140.465 865.574 471.788
429 0 51.122 12.4604 637 149.347 866.477 470.259
430 0 53.2328 12.4171 661 151.368 867.039 466.965
431 0 57.0997 14.9213 852 143.369 869.083 466.508
432 0 57.087 13.4006 765 148.788 870.092 466.761
433 0 65.1649 18.9826 1237 132.403 872.624 468.772
434 0 62.0404 15.4899 961 145.739 874.128 463.77
435 0 66.1567 13.7401 909 147.311 876.615 467.932
436 0 68.2197 14.8344 1012 147.83 877.263 465.104
437 0 69.0416 12.21 843 155.16 879.233 464.343
438 1 38.0838 9.58414 365 155.975 880.003 479.096
439 0 40.0693 8.70992 349 155.636 880.269 480.848
440 0 40.0562 11.7585 471 152.811 881.204 479.321
441 0 44.2358 13.0211 576 148.21 880.845 478.802
442 0 43.0461 11.8942 512 146.547 881.074 474.738
443 0 44.0309 12.4912 550 145.576 881.276 477.096
444 0 46.0921 10.5875 488 147.584 878.547 478.82
445 0 46.0308 12.6654 583 150.849 877.074 477.599
446 0 49.2604 12.3629 609 149.647 875.747 476.775
447 0 49.0734 16.7504 822 140.799 874.856 475.499
448 0 53.0925 15.6896 833 141.61 873.517 475.729
449 0 52.0788 11.8474 617 151.47 871.626 475.812
450 0 55.0506 12.2978 677 150.538 870.538 473.199
451 0 57.1254 15.1771 867 142.892 869.307 473.031
452 0 57.0895 13.3299 761 147.737 868.159 471.042
453 0 56.048 12.7569 715 150.29 866.814 469.452
454 0 57.0507 13.006 742 136.389 865.796 469.827
455 0 61.119 11.993 733 150.229 865.82 467.956
456 0 65.0433 12.0381 783 148.152 865.194 465.384
457 0 68.0642 14.3835 979 141.882 864.597 463.401
458 0 72.0716 12.9455 933 141.085 864.747 462.771
459 0 72.1454 12.5996 909 144.377 864.983 460.657
460 0 77.1077 14.577 1124 138.606 865.099 456.706
461 0 78.1123 12.7893 999 141.569 865.058 455.662
462 0 78.1123 12.7637 997 135.615 865.055 455.509
463 1 41.0739 10.5176 432 137.507 866.9 474.319
464 0 45.1254 9.37388 423 138.726 868.962 470.818
465 0 46.0527 13.0937 603 134.423 870.023 467.554
466 0 45.1806 8.74268 395 142.372 871.942 468.266
467 0 50.362 12.2513 617 137.736 874.806 467.313
468 0 49.0802 12.0008 589 133.805 877.56 470.913
469 0 53.0298 13.2378 702 132.34 879.617 470.246
470 0 54.0511 12.7102 687 133.21 881.02 470.616
471 0 54.0511 12.6362 683 121.18 882.048 470.693
472 0 59.096 16.617 982 129.692 882.149 470.037
473 0 60.0788 12.7666 767 134.592 881.438 471.46
474 0 61.0759 13.0821 799 135.85 881.163 470.851
475 0 64.0695 12.2991 788 137.945 880.925 469.685
476 0 67.1221 17.0883 1147 131.867 880.634 473.015
477 0 68.0959 13.8628 944 139.693 879.512 468.341
478 0 70.202 12.7347 894 139.209 878.761 466.784
479 0 76.0568 13.8712 1055 135.175 877.896 470.759
480 0 77.0896 12.5049 964 140.499 877.603 469.704
481 0 83.128 13.0762 1087 137.249 876.892 468.871
482 1 40.0268 8.51928 341 145.61 875.783 483.927
483 0 43.0871 11.1402 480 138.827 874.085 483.271
484 0 45.027 10.7935 486 141.586 873.319 481.928
485 0 44.1017 11.2241 495 139.749 871.794 478.81
486 0 47.0091 13.9547 656 131.779 870.372 479.189
487 0 47.1058 12.1216 571 132.916 869.82 478.226
488 0 50.2736 16.5693 833 124.642 868.221 471.765
489 0 51.2006 13.8475 709 130.623 867.082 469.625
490 0 50.2368 11.406 573 138.373 866.089 468.024
491 0 55.0771 13.6536 752 140.303 865.18 471.392
492 0 54.1179 11.7152 634 144.961 865.005 471.226
493 0 54.1289 14.2438 771 142.025 865.633 466.712
494 0 57.0375 14.7447 841 139.278 865.118 467.866
495 0 57.0957 11.4019 651 147.576 866.126 463.753
496 0 61.0865 12.8997 788 141.082 866.916 467.057
497 0 63.0953 15.754 994 137.715 868.153 461.836
498 0 65.0415 17.2198 1120 134.382 870.133 464.282
499 0 68.0916 14.8183 1009 140.565 871.513 461.442
500 0 67.1251 16.0149 1075 139.898 874.495 461.249
501 0 72.1318 12.1722 878 145.753 875.639 462.513
502 0 73.1161 16.1797 1183 139.761 877.111 459.397
503 0 77.1715 15.9256 1229 140.354 878.762 459.504
504 0 78.1887 15.9998 1251 143.253 879.966 456.314
505 0 80.0502 13.2292 1059 147.099 880.424 462.638
506 0 85.2191 17.0736 1455 139.868 880.513 459.885
507 0 85.129 12.7454 1085 151.827 879.242 457.711
508 0 87.3445 15.5362 1357 148.228 880.699 460.565
509 0 90.4245 16.3562 1479 148.13 879.803 457.878
510 0 91.3024 14.6984 1342 151.858 880.074 458.054
511 0 94.2611 16.4755 1553 147.077 879.219 459.603
512 0 98.3721 14.8924 1465 152.622 878.051 454.663
513 1 51.2025 11.8354 606 149.602 878.437 481.479
514 0 59.2393 9.65575 572 146.505 877.075 483.247
515 0 56.146 14.6048 820 144.093 874.955 479.135
516 0 57.3114 13.9588 800 149.99 873.891 473.746
517 0 59.0879 14.9608 884 143.094 872.361 477.139
518 0 61.2394 12.5246 767 141.329 870.823 472.28
519 0 63.0946 14.5813 920 140.185 869.583 466.076
520 0 63.185 11.68 738 146.068 868.53 466.829
521 0 67.3093 13.2077 889 141.376 867.615 464.753
522 0 69.2554 13.5729 940 140.473 866.751 461.14
523 0 73.2078 13.9603 1022 139.554 865.986 460.998
524 0 72.4541 13.5258 980 139.492 866.047 456.005
525 0 78.4402 14.2147 1115 135.755 865.873 456.905
526 0 78.4402 14.3039 1122 136.086 865.853 456.901
527 0 79.2197 13.3048 1054 141.938 866.662 453.605
528 0 85.4488 13.552 1158 138.389 867.258 454.64
529 0 88.314 15.275 1349 135.755 868.711 450.56
530 0 88.2197 11.2787 995 142.814 869.483 449.519
531 0 93.4961 11.8828 1111 140.194 870.703 444.705
532 1 50.2056 10.2379 514 139.249 871.875 463.228
533 0 51.2297 12.1804 624 129.258 873.554 468.128
534 0 51.3698 11.8941 611 132.354 875.831 465.556
535 0 54.1802 13.1413 712 130.893 877.256 467.218
536 0 54.4178 11.5771 630 135.07 878.73 465.087
537 0 60.4166 14.2842 863 125.41 879.645 464.925
538 0 61.4169 12.7978 786 129.454 880.424 464.758
539 0 63.1227 12.2935 776 131.674 880.036 467.683
540 0 64.3435 13.4901 868 131.509 880.396 464.033
541 0 66.2465 12.9365 857 136.371 879.957 464.652
542 0 68.1211 13.1677 897 136.031 879.318 464.043
543 0 69.1586 11.6833 808 140.027 878.84 467.058
544 0 74.1881 15.7168 1166 132.887 877.898 464.897
545 0 76.3003 16.4875 1258 132.471 876.665 463.072
546 0 76.1085 14.1771 1079 137.992 875.862 463.192
547 0 81.1943 14.4222 1171 136.921 874.538 461.974
548 0 82.1586 11.9282 980 142.181 873.323 462.884
549 0 87.1875 16.4702 1436 133.606 872.998 460.212
550 0 87.1875 16.3211 1423 135.426 873.003 460.203
551 0 89.1433 14.0897 1256 140.029 870.296 455.146
552 0 92.1508 14.9972 1382 138.285 869.492 451.956
553 0 95.1706 15.1097 1438 137.494 868.279 446.404
554 0 101.225 19.4715 1971 129.388 867.828 446.609
555 0 101.345 14.9884 1519 136.953 867.839 443.51
556 0 106.21 16.3073 1732 137.283 867.901 439.338
557 1 52.1809 10.0995 527 138.148 867.52 465.789
558 0 54.2161 9.75726 529 137.293 868.028 466.499
559 0 61.492 13.8392 851 126.915 868.019 464.679
560 0 60.1235 13.4889 811 131.101 867.358 462.509
561 0 63.2126 14.6173 924 125.509 868.816 461.87
562 0 61.343 10.9874 674 133.458 868.927 459.089
563 0 62.1314 12.9564 805 132.583 870.327 458.155
564 0 66.1709 13.2989 880 130.267 872.072 455.6
565 0 73.1357 16.3668 1197 123.53 873.947 458.008
566 0 70.1168 12.4221 871 132.945 875.811 454.511
567 0 74.0874 15.3467 1137 127.459 877.706 455.779
568 0 75.2289 12.2559 922 131.662 879.142 457.359
569 0 76.2062 11.482 875 134.393 880.101 453.681
570 0 82.1276 13.4668 1106 129.298 881.49 455.278
571 0 80.1292 14.876 1192 135.484 881.997 453.88
572 0 83.1416 14.9865 1246 134.436 882.708 455.14
573 0 84.3426 13.5637 1144 136.434 882.582 452.078
574 0 88.1143 14.3563 1265 134.098 882.089 453.285
575 0 93.1402 14.9774 1395 134.618 881.097 455.374
576 0 91.1547 12.0345 1097 143.529 880.428 454.368
577 0 97.183 12.6668 1231 142.16 880.372 455.804
578 1 53.1333 8.73275 464 137.526 880.244 480.356
579 0 54.0287 11.6605 630 131.754 879.451 480.362
580 0 55.0338 10.9569 603 133.959 878.265 477.776
581 0 55.1241 11.7371 647 134.182 876.872 473.938
582 0 62.0899 12.0309 747 130.549 874.408 476.577
583 0 62.0839 14.5126 901 129.633 872.839 469.898
584 0 62.0834 14.4644 898 128.091 871.829 469.805
585 0 66.2416 12.7865 847 131.316 870.383 469.848
586 0 69.0439 14.7732 1020 126.73 869.447 469.923
587 0 70.0439 11.6641 817 131.725 868.341 470.224
588 0 75.0797 15.0374 1129 125.69 868.104 467.636
589 0 76.1696 15.3079 1166 126.317 867.624 462.868
590 0 75.0996 13.3556 1003 130.815 867.041 465.73
591 0 77.1344 13.5478 1045 129.399 866.561 463.899
592 0 82.0558 15.0142 1232 125.968 865.213 459.226
593 0 83.1478 14.0353 1167 129.687 864.697 462.093
594 0 86.3146 14.9106 1287 129.358 865.082 457.574
595 0 84.2733 15.0581 1269 126.5 865.069 457.72
596 0 87.0843 11.6554 1015 138.813 866.286 449.853
597 0 87.0843 11.7587 1024 136.702 867.278 449.907
598 1 50.1106 10.1376 508 130.614 869.161 473.514
599 0 53.1756 11.904 633 128.588 870.542 472.284
600 0 61.0966 13.6996 837 125.661 872.907 479.182
601 0 54.1762 14.1391 766 132.642 874.974 473.611
602 0 56.2794 12.2425 689 134.119 874.669 475.37
603 0 57.1239 11.7989 674 135.84 875.68 475.039
604 0 60.1003 15.0748 906 129.148 876.17 474.365
605 0 62.2789 14.7883 921 130.736 876.227 471.447
606 0 64.2259 16.3953 1053 126.757 875.59 473.503
607 0 66.1836 13.5834 899 132.798 874.622 472.907
608 0 67.3013 12.6149 849 133.544 874.585 469.833
609 0 70.174 9.19144 645 138.575 874.755 473.581
610 0 74.1883 15.4472 1146 129.134 873.56 469.405
611 0 74.0843 10.0291 743 139.201 872.997 471.108
612 0 81.1776 14.8194 1203 131.477 871.707 470.465
613 1 42.0996 10.3326 435 132.694 869.8 488.423
614 0 46.0974 11.6059 535 131.299 868.925 486.744
615 0 43.1004 8.88623 383 137.01 867.512 486.919
616 0 46.1595 10.4204 481 133.599 865.819 486.462
617 0 50.0551 10.3086 516 134.047 864.992 483.287
618 0 48.0738 15.8714 763 126.678 864.121 481.857
619 0 51.058 14.5521 743 128.688 862.965 480.066
620 0 52.1111 12.3774 645 134.778 863.099 473.016
621 0 55.103 12.9757 715 131.322 863.155 477.19
622 0 58.0993 13.4597 782 129.958 862.038 473.444
623 0 58.0879 13.514 785 124.58 861.018 473.424
624 0 60.0897 13.613 818 135.674 860.247 468.96
625 0 64.3121 11.3509 730 141.151 861.015 464.727
626 0 67.2393 14.6343 984 134.176 861.373 463.826
627 0 67.3165 13.6965 922 138.185 862.285 461.782
628 0 68.4701 13.9477 955 139.974 863.285 459.037
629 0 70.43 12.9774 914 141.952 864.493 457.138
630 0 73.4759 15.352 1128 136.98 866.377 456.459
631 0 76.3226 12.2899 938 144.91 868.117 453.499
632 0 78.3471 14.2188 1114 142.98 869.624 450.411
633 0 80.321 13.6079 1093 145.43 871.501 450.763
634 0 84.2297 14.9947 1263 141.939 873.762 452.474
635 0 85.3047 14.6533 1250 145.226 874.831 449.335
636 0 87.5166 13.3118 1165 148.732 876.724 454.11
637 1 47.0809 12.7015 598 142.569 876.644 472.296
638 0 48.0762 10.8994 524 139.332 878.496 475.044
639 0 48.0973 11.4144 549 138.455 878.279 474.288
640 0 51.1254 12.6552 647 139.408 877.504 472.172
641 0 52.2183 13.4436 702 140.205 876.944 473.202
642 0 51.1303 11.324 579 146.048 876.38 472.763
643 0 57.2083 15.1901 869 135.795 876.88 473.96
644 0 59.1504 13.5417 801 137.152 875.237 477.086
645 0 60.2458 15.2542 919 134.31 874.155 473.999
646 0 61.1183 17.5725 1074 130.56 874.419 471.589
647 0 63.2844 18.9462 1199 128.09 872.644 472.515
648 0 64.2459 14.0398 902 137.313 871.358 471.257
649 0 66.1938 13.0375 863 137.975 869.552 470.264
650 0 67.2333 12.9698 872 140.443 868.773 466.546
651 0 70.3126 15.7013 1104 135.335 867.718 465.454
652 0 73.2002 12.0355 881 141.75 867.145 464.25
653 0 75.3069 15.0584 1134 135.848 866.799 463.71
654 0 77.178 15.4966 1196 136.141 866.205 461.744
655 0 81.373 19.343 1574 127.382 865.57 462.886
656 0 85.2411 14.4531 1232 135.502 865.177 457.856
657 1 44.0754 9.82408 433 139.425 864.903 474.73
658 0 46.0251 9.47309 436 136.06 865.562 476.431
659 0 46.2136 8.22269 380 140.229 866.416 473.926
660 0 47.17 12.2324 577 133.123 867.716 472.925
661 0 49.1281 11.2766 554 135.17 866.489 472.339
662 0 51.2932 11.6585 598 135.448 867.182 464.813
663 0 50.4166 12.5356 632 136.07 869.131 463.962
664 0 55.3354 14.8187 820 131.845 870.933 463.721
665 0 56.3493 12.3338 695 137.291 872.797 464.813
666 0 56.2597 13.8998 782 135.697 874.715 466.148
667 0 56.2597 13.8998 782 138.017 876.708 466.086
668 0 60.0658 14.867 893 133.677 878.004 467.314
669 0 61.1379 15.4569 945 132.429 878.919 467.582
670 0 65.2372 13.1673 859 135.811 879.747 465.318
671 0 69.2978 14.849 1029 132.064 879.634 465.957
672 0 71.204 17.2743 1230 129.457 879.885 463.836
673 0 73.1967 13.7028 1003 136.159 879.621 465.288
674 0 76.2472 15.0694 1149 133.351 879.075 466.19
675 0 76.2332 11.2025 854 142.795 878.416 464.118
676 0 80.2941 14.8579 1193 135.21 877.513 462.712
677 0 83.5473 14.2674 1192 137.308 876.467 460.051
678 0 86.3353 18.0343 1557 130.268 875.329 455.259
679 1 48.1355 14.7085 708 132.103 874.484 480.774
680 0 47.1281 12.1796 574 135.343 872.195 481.291
681 0 49.1632 11.0652 544 139.226 870.702 477.325
682 0 49.0529 12.3132 604 137.833 868.967 475.179
683 0 52.1115 14.2771 744 133.386 866.628 475.476
684 0 55.1359 14.5096 800 131.829 865.805 472.189
685 0 57.1669 14.8163 847 133.851 866.153 470.106
686 0 57.3151 13.8881 796 136.207 866.067 470.633
687 0 57.2543 12.296 704 139.73 865.22 466.866
688 0 61.2984 13.6219 835 135.701 865.143 467.011
689 0 63.1822 14.0704 889 136.748 864.319 464.762
690 0 63.3089 13.0155 824 140.703 864.279 462.144
691 0 68.2443 15.5617 1062 134.829 864.862 460.225
692 0 64.214 13.1747 846 142.266 865.06 457.813
693 0 69.1465 12.6543 875 142.425 865.953 457.555
694 1 38.0324 10.754 409 137.513 868.218 473.878
695 0 38.0784 11.0561 421 139.779 869.166 471.829
696 0 43.0789 10.5156 453 137.439 870.192 473.894
697 0 42.0154 10.2819 432 136.451 872.09 475.093
698 0 42.0747 12.1926 513 139.14 874.386 471.357
699 0 45.1768 13.3918 605 134.828 876.699 472.75
700 0 44.1719 10.7534 475 142.575 878.322 469.851
701 0 48.2818 11.3293 547 141.294 878.252 471.426
702 0 51.4033 14.1625 728 134.382 880.111 473.185
703 0 50.3477 14.6581 738 136.949 879.912 469.973
704 0 53.3076 12.2309 652 138.879 880.284 473.735
705 0 54.1647 12.8682 697 140.014 879.925 471.405
706 0 54.3054 13.3504 725 138.728 879.677 472.521
707 0 56.1275 12.1153 680 141.46 878.838 473.141
708 0 57.3304 12.7507 731 140.715 879.246 471.163
709 0 61.3091 13.7174 841 137.35 879.101 471.643
710 0 64.427 16.5769 1068 131.448 877.498 471.764
711 0 64.1417 14.2185 912 137.489 876.055 469.89
712 0 64.2019 14.5634 935 137.918 875.302 466.965
713 0 67.2476 13.0414 877 139.246 874.128 469.522
714 0 69.4732 14.7971 1028 136.214 872.291 467.525
715 0 71.1954 11.8266 842 139.999 870.912 467.457
716 0 75.3685 14.9665 1128 135.006 868.584 465.037
717 1 40.0494 10.512 421 134.454 868.133 481.708
718 0 38.0522 9.48696 361 137.914 867.377 481.717
719 0 42.0486 12.2239 514 132.842 866.514 480.588
720 0 44.0423 16.0073 705 129.061 866.692 477.574
721 0 43.0934 10.8833 469 141.923 865.599 476.226
722 0 45.1644 13.7276 620 137.195 864.644 473.855
723 0 48.0673 13.918 669 137.964 866.925 472.668
724 0 46.2225 11.9855 554 143.866 866.09 474.594
725 0 50.0572 14.3636 719 139.929 866.654 472.37
726 0 51.13 14.4925 741 139.839 867.574 471.221
727 0 53.1752 15.7404 837 136.498 868.57 470.952
728 0 54.1891 13.8958 753 141.287 870.086 468.785
729 0 55.1181 14.0607 775 141.323 871.692 468.293
730 0 58.42 15.4913 905 138.671 873.073 467.227
731 0 59.2186 17.1399 1015 136.158 875.464 468.146
732 0 60.2496 14.2408 858 142.721 877.641 466.922
733 0 60.2354 13.2978 801 145.303 878.879 466.448
734 0 64.0655 15.25 977 141.452 879.678 467.791
735 0 66.1158 15.9417 1054 138.491 880.007 471.182
736 0 69.2563 18.9874 1315 133.249 881.187 468.681
737 0 70.152 16.0224 1124 137.914 881.104 470.241
738 0 71.1135 15.4823 1101 141.184 880.047 469.627
739 0 75.1162 17.6793 1328 137.633 879.66 470.305
740 0 81.2581 15.1985 1235 139.959 879.272 472.811
741 0 79.227 13.8968 1101 146.139 878.332 468.671
742 0 84.1042 17.4426 1467 138.958 877.258 470.258
743 0 86.1567 17.5842 1515 140.854 875.504 467.601
744 1 44.1756 15.3252 677 140.603 874.699 487.688
745 0 47.039 12.7554 600 146.295 872.738 487.537
746 0 48.0504 12.4869 600 149.32 871.148 484.185
747 0 52.1159 13.163 686 144.789 869.653 487.257
748 0 52.0528 15.4267 803 145.509 867.884 480.941
749 0 53.0633 16.339 867 140.136 867.067 483.189
750 0 53.1399 13.154 699 149.147 865.72 475.969
751 0 54.0215 13.7168 741 146.254 864.472 475.467
752 0 57.1695 15.8651 907 139.174 864.479 474.338
753 0 58.0768 15.9788 928 141.377 863.481 473.293
754 0 59.0553 13.5128 798 146.68 863.04 472.093
755 0 59.072 13.5089 798 148.128 862.907 470.638
756 0 62.0404 12.8626 798 147.414 862.817 472.851
757 0 62.0828 12.7894 794 150.902 863.202 468.942
758 0 66.038 14.9762 989 146.068 863.36 467.36
759 0 66.0902 13.5724 897 149.757 864.662 465.861
760 0 68.1241 14.2974 974 148.351 864.669 464.402
761 0 74.2694 15.5784 1157 142.964 866.643 463.227
762 0 76.19 17.1807 1309 141.727 867.808 460.155
763 0 76.1897 17.7977 1356 142.158 869.116 456.173
764 0 81.1313 15.9248 1292 145.214 871.452 457.576
765 0 83.1794 13.525 1125 151.198 872.399 456.024
766 0 85.1554 15.0313 1280 150.113 873.573 456.156
767 0 87.2293 13.5046 1178 154.632 875.677 452.479
768 0 92.1736 15.9265 1468 149.493 875.622 452.52
769 1 49.1249 12.397 609 149.685 876.005 477.126
770 0 49.2477 11.6351 573 150.914 875.756 477.967
771 0 51.1122 14.2236 727 145.308 875.446 478.699
772 0 53.1732 13.2774 706 148.442 875.497 480.201
773 0 59.0761 14.5067 857 142.209 874.98 484.947
774 0 56.2631 12.7792 719 148.35 874.922 485.01
775 0 58.0835 13.9454 810 150.833 873.205 483.143
776 0 59.0325 14.6021 862 151.122 872.06 482.59
777 0 66.1889 14.8061 980 148.208 870.56 482.313
778 0 67.2054 14.4929 974 150.254 869.601 481.011
779 0 71.159 16.5545 1178 147.073 867.216 475.709
780 0 71.075 16.2786 1157 150.208 865.983 473.449
781 0 72.08 15.8435 1142 153.377 864.56 468.955
782 0 76.1252 13.9507 1062 154.635 864.112 470.087
783 0 77.139 15.3878 1187 154.268 862.545 464.853
784 1 37.0575 8.68919 322 156.186 861.901 487.093
785 0 40.0812 12.5495 503 151.686 861.783 481.998
786 0 43.0526 10.5452 454 149.934 862.132 484.344
787 0 44.0614 12.9365 570 147.486 861.523 481.619
788 0 45.0521 12.5632 566 149.004 859.157 480.913
789 0 47.2352 13.4645 636 148.101 859.722 478.384
790 0 48.102 13.2427 637 149.392 860.791 475.281
791 0 49.2484 15.1883 748 145.857 861.972 472.856
792 0 51.1635 15.1671 776 144.919 862.469 472.024
793 0 53.1597 14.5411 773 146.658 863.999 471.382
794 0 54.1301 13.8186 748 149.497 864.703 468.652
795 0 55.1285 15.8176 872 145.837 866.294 468.377
796 0 58.1679 13.9596 812 149.954 867.712 467.904
797 0 58.1263 14.5889 848 149.887 869.712 466.149
798 0 58.1873 12.5801 732 155.803 871.452 466.536
799 0 64.0376 15.5065 993 148.169 872.427 466.231
800 0 66.2415 14.7189 975 151.158 874.219 465.004
801 0 67.0862 13.9671 937 153.199 875.225 467.284
802 0 70.1274 16.1991 1136 150.131 876.721 464.255
803 0 72.2786 15.9106 1150 150.719 876.963 462.936
804 0 75.3195 15.3745 1158 150.708 877.141 464.887
805 0 77.5418 16.3912 1271 151.339 876.725 462.63
806 0 82.4394 16.6911 1376 151.673 877.589 461.034
807 0 85.7476 17.9364 1538 148.28 876.839 462.501
808 0 88.4666 17.4529 1544 150.339 877.118 461.557
809 0 89.564 12.5608 1125 161.222 876.115 462.7
810 1 46.2496 16.9082 782 143.909 875.176 481.446
811 0 48.2576 13.6559 659 151.34 874.958 480.716
812 0 53.5278 11.5454 618 154.091 873.534 480.754
813 0 51.3873 12.9409 665 154.592 872.238 478.466
814 0 53.3386 12.8987 688 156.433 871.099 477.326
815 0 55.2331 12.0761 667 159.783 869.733 476.367
816 0 58.3664 17.5101 1022 147.42 868.556 474.463
817 0 60.1843 15.4691 931 148.713 867.234 474.84
818 0 61.2572 14.8391 909 149.894 866.217 474.039
819 0 62.2762 13.7613 857 153.548 866.191 470.861
820 0 65.3034 14.2718 932 152.627 866.06 468.105
821 0 66.2769 14.032 930 153.855 865.909 467.257
822 0 68.2335 12.5451 856 155.759 865.373 467.123
823 0 68.2335 12.4719 851 155.81 864.365 467.18
824 0 74.2054 14.7294 1093 152.565 866.06 460.988
825 0 75.3362 13.619 1026 153.197 865.808 460.753
826 0 78.4208 14.996 1176 151.593 867.193 458.991
827 0 82.3642 14.7151 1212 150.578 867.69 457.885
828 0 82.5894 12.4834 1031 157.458 869.611 453.875
829 0 87.4832 14.5971 1277 152.076 870.85 451.016
830 0 91.686 15.684 1438 148.019 872.252 451.52
831 1 46.4202 9.99565 464 151.323 873.541 474.832
832 0 48.1858 13.3857 645 145.592 875.464 473.547
833 0 52.1967 13.9089 726 144.678 877.734 474.256
834 0 52.145 15.4377 805 142.903 879.851 473.862
835 0 53.0333 15.2168 807 140.888 880.964 475.524
836 0 52.0872 10.5592 550 151.953 881.353 475.94
837 0 57.1051 15.4977 885 140.052 881.383 472.729
838 0 61.2946 16.4941 1011 136.429 881.045 472.399
839 0 59.1135 11.8078 698 146.818 880.685 474.354
840 0 63.1431 12.1153 765 144.244 880.838 475.946
841 0 67.0666 19.4732 1306 130.984 880.951 473.452
842 0 69.1786 12.7785 884 141.852 879.207 473.485
843 0 74.1692 14.1703 1051 138.517 877.484 474.166
844 0 74.0974 16.6402 1233 135.921 876.697 468.947
845 0 77.123 16.0523 1238 140.454 874.099 467.992
846 1 40.1164 13.0869 525 140.69 872.349 486.345
847 0 42.058 13.7191 577 137.873 870.792 486.662
848 0 45.0947 14.0149 632 138.361 868.75 482.805
849 0 46.0112 12.7143 585 133.344 869.921 484.168
850 0 45.0462 16.4276 740 127.786 869.139 481.146
851 0 47.0463 11.4781 540 135.063 867.611 481.885
852 0 48.1279 12.1343 584 136.349 866.962 478.423
853 0 49.0771 11.8996 584 136.048 866.469 479.805
854 0 52.0804 16.6089 865 129.35 866.052 475.28
855 0 52.0596 12.8507 669 135.507 865.441 476.438
856 0 51.0447 12.6752 647 138.325 865.457 471.124
857 0 57.0559 14.4946 827 133.665 866.258 472.784
858 0 57.0356 14.0263 800 134.1 866.568 474.308
859 0 60.0207 14.7949 888 133.74 866.913 470.784
860 0 61.0648 13.412 819 137.353 868.317 470.337
861 0 62.0784 13.6279 846 137.364 868.508 469.764
862 0 65.053 14.2345 926 136.039 870.244 469.014
863 0 65.1329 11.8834 774 142.823 871.553 468.257
864 0 68.0426 12.742 867 141.292 873.137 466.745
865 0 71.2014 13.3986 954 139.389 874.538 468.481
866 0 72.0494 13.3936 965 141.346 875.73 467.705
867 0 77.1158 16.78 1294 135.889 877.043 464.009
868 0 79.1908 16.7065 1323 136.763 877.277 466.098
869 0 83.2591 18.7007 1557 133.112 878.331 466.037
870 0 84.0994 15.9097 1338 139.463 877.833 464.105
871 0 85.1756 14.5347 1238 143.116 878.498 463.532
872 0 91.171 18.8547 1719 134.616 878.566 464.592
873 0 94.1852 18.0071 1696 138.378 878.36 459.851
874 1 49.288 16.1094 794 143.071 878.771 482.457
875 0 52.3219 17.1056 895 135.674 878.616 485.25
876 0 52.1318 16.6693 869 139.568 877.052 483.877
877 0 53.1701 16.4754 876 135.371 876.081 484.003
878 0 56.1281 13.7008 769 148.528 874.928 478.536
879 0 56.1896 16.5867 932 145.089 873.225 473.423
880 0 58.2358 15.2999 891 147.232 871.967 475.379
881 0 60.2255 15.0102 904 148.872 870.448 471.832
882 0 64.1974 18.8793 1212 139.795 869.005 472.926
883 0 66.1416 16.1018 1065 144.396 868.255 472.197
884 0 68.2987 17.2478 1178 144.74 867.028 466.236
885 0 70.3113 17.835 1254 144.046 866.365 466.581
886 0 72.2621 15.2224 1100 149.674 865.8 464.372
887 0 76.251 18.4785 1409 144.094 865.539 462.105
888 0 77.2418 17.0504 1317 147.289 865.716 461.234
889 0 83.3118 16.1442 1345 150.428 864.896 458.126
890 0 82.1617 15.3965 1265 153.52 865.32 455.37
891 0 85.2654 17.4162 1485 151.183 865.557 450.403
892 1 51.3813 11.7552 604 149.543 867.132 475.204
893 0 47.2153 13.1949 623 151.13 867.976 472.36
894 0 48.247 14.3429 692 153.337 869.072 469.663
895 0 48.2803 11.5989 560 160.538 869.939 466.143
896 0 53.2 14.6992 782 153.871 871.344 466.671
897 0 52.1316 12.2574 639 159.656 873.662 466.59
898 0 57.1656 16.0586 918 148.809 875.718 468.735
899 0 54.1082 13.9535 755 156.891 876.686 467.323
900 0 59.4181 17.217 1023 149.265 878.263 465.654
901 0 61.33 13.4355 824 154.801 879.47 467.768
902 0 64.1543 15.0419 965 154.083 879.506 465.808
903 0 64.1247 15.3295 983 152.289 880.139 467.852
904 0 67.2376 14.6644 986 154.45 880.818 465.566
905 0 73.1866 13.6364 998 155.078 880.704 465.501
906 0 71.4709 13.488 964 156.091 880.11 465.089
907 0 73.1745 13.8573 1014 154.468 879.349 465.835
908 0 81.2958 17.4179 1416 146.078 879.203 465.852
909 0 80.2075 16.1207 1293 149.625 878.327 466.642
910 0 83.1414 16.947 1409 149.896 877.165 463.478
911 0 84.1335 16.6521 1401 151.078 876.283 462.803
912 0 90.2054 15.7751 1423 149.038 875.023 465.786
913 0 91.1003 15.0384 1370 152.929 873.176 460.518
914 0 91.1156 15.6285 1424 153.798 871.973 457.086
915 1 52.0255 10.0335 522 151.375 871.253 477.462
916 0 54.0818 12.3147 666 149.086 870.365 474.005
917 0 56.0269 10.9233 612 148.284 869.16 475.923
918 0 57.099 10.5781 604 152.323 867.935 469.747
919 0 62.1036 12.463 774 146.898 867.762 468.416
920 0 64.2128 12.4274 798 146.508 866.707 465.237
921 0 64.2263 12.8763 827 146.037 866.462 458.125
922 0 66.1276 12.0827 799 143.98 865.663 461.029
923 0 70.1417 12.6458 887 145.095 865.062 462.706
924 0 72.0869 14.8155 1068 142.268 865.677 459.611
925 0 72.1293 10.8139 780 149.518 867.013 457.815
926 0 76.1198 13.9254 1060 142.169 867.31 458.325
927 0 80.1259 11.7939 945 148.565 868.876 452.623
928 0 82.0636 14.44 1185 143.949 870.052 452.933
929 0 83.0823 13.276 1103 147.585 871.827 449.82
930 0 89.1639 13.9743 1246 142.81 874.022 454.426
931 0 93.2783 13.1864 1230 143.501 875.597 454.717
932 1 53.0154 10.5441 559 144.451 877.116 471.043
933 0 52.0263 12.609 656 137.584 879.116 475.378
934 0 51.075 10.5335 538 148.613 880.55 470.106
935 0 53.0483 14.1381 750 140.065 880.473 471.441
936 0 57.2133 12.6369 723 138.826 881.497 475.542
937 0 57.1663 13.7843 788 139.916 881.546 471.848
938 0 63.1195 14.1161 891 137.753 881.73 472.182
939 0 62.1652 11.1316 692 144.681 881.48 471.799
940 0 65.0903 16.9457 1103 133.519 880.936 472.354
941 0 68.1575 13.1313 895 141.627 880.369 468.545
942 0 68.1532 13.7778 939 140.696 879.758 469.632
943 0 73.3103 13.968 1024 140.913 877.818 468.622
944 0 73.0858 14.0246 1025 142.676 876.86 468.098
945 0 76.1652 13.1687 1003 144.462 875.907 465.281
946 0 80.3119 14.3441 1152 141.614 874.12 466.356
947 0 81.1785 14.7822 1200 143.028 872.864 461.322
948 0 86.2217 13.3029 1147 146.431 870.823 460.964
949 0 87.1598 13.4121 1169 148.161 870.144 456.666
950 0 89.3327 12.6381 1129 151.187 869.466 458.012
951 0 92.2222 13.5651 1251 149.664 868.418 456.301
952 0 92.2222 13.5651 1251 135.831 867.448 456.04
953 1 51.223 8.80465 451 151.164 866.652 473.625
954 0 52.3688 11.1326 583 145.328 865.148 473.84
955 0 53.2328 11.3464 604 146.692 865.437 470.245
956 0 55.1648 10.7859 595 146.997 865.906 469.662
957 0 60.1317 12.6888 763 139.062 866.566 471.642
958 0 59.3266 10.9732 651 148.379 865.966 466.63
959 0 63.2316 13.4743 852 142.899 866.965 463.094
960 0 65.3497 12.4102 811 143.538 868.189 464.656
961 0 66.1653 12.8466 850 143.049 869.506 461.727
962 0 71.1113 14.5687 1036 139.655 871.393 461.199
963 0 72.1885 13.1323 948 144.042 873.626 455.17
964 0 74.1595 12.8237 951 143.942 877.238 457.612
965 0 74.1595 12.7833 948 131.176 881.223 457.384
966 0 79.2497 14.4101 1142 142.194 879.42 458.662
967 0 83.1879 16.3606 1361 139.5 881.067 454.332
968 0 82.2977 10.2433 843 152.694 882.005 448.982
969 0 89.378 15.5519 1390 139.412 882.345 452.692
970 0 89.8071 17.0477 1531 138.362 882.462 450.16
971 0 95.8532 12.8634 1233 145.238 882.274 453.851
972 0 97.6348 15.179 1482 141.934 881.169 450.543
973 1 47.2046 8.72795 412 145.723 881.039 474.789
974 0 49.3037 10.5266 519 143.304 880.395 475.674
975 0 53.1469 12.7947 680 136.829 879.304 478.376
976 0 53.0562 13.0051 690 142.217 876.362 478.333
977 0 57.127 15.5793 890 133.297 876.031 474.903
978 0 59.3843 14.6672 871 132.153 876.59 473.442
979 0 59.0475 10.0428 593 143.735 874.189 472.582
980 0 60.0999 12.3794 744 141.02 871.081 470.629
981 0 63.0193 14.6304 922 136.701 869.664 474.938
982 0 65.1265 13.7118 893 140.105 868.377 470.876
983 0 66.1129 13.4618 890 140.949 866.825 468.276
984 0 71.3714 14.8799 1062 137.024 865.709 467.88
985 0 67.1902 14.6003 981 140.527 867.004 457.378
986 0 72.3472 16.0614 1162 136.232 866.106 455.52
987 0 72.2952 13.6524 987 141.439 864.719 454.716
988 0 76.3926 14.6611 1120 137.27 865.174 458.123
989 0 79.3105 13.8822 1101 141.247 864.124 457.827
990 0 83.2206 14.3234 1192 141.242 864.272 452.872
991 0 83.2461 13.9106 1158 145.183 865.132 451.133
992 0 86.5496 14.3502 1242 143.648 865.401 451.705
993 0 90.3017 16.7439 1512 138.337 867.514 448.222
994 0 91.4484 18.0211 1648 135.211 868.309 449.964
995 0 91.4866 14.2534 1304 145.963 870.183 446.348
996 0 94.2979 14.1148 1331 143.895 871.765 446.091
997 0 96.4462 14.8477 1432 143.84 873.427 442.361
998 0 100.639 17.0113 1712 139.764 875.133 439.536
999 0 106.53 15.4885 1650 140.181 875.938 445.413
1000 0 106.397 18.9009 2011 135.585 877.664 443.138
1001 0 106.606 13.1887 1406 148.146 878.199 441.048
1002 0 111.714 16.1126 1800 140.993 878.847 443.5
1003 0 116.536 18.7238 2182 136.269 879.292 443.364
1004 0 116.566 15.4763 1804 144.542 879.359 439.773
1005 0 118.438 16.2111 1920 142.497 879.54 445.889
1006 0 122.467 16.339 2001 143.665 879.683 442.073
1007 0 128.712 18.8561 2427 138.139 879.521 443.183
1008 0 128.457 19.0803 2451 138.98 879.604 439.669
1009 0 129.826 15.8905 2063 147.511 878.973 438.459
1010 0 131.651 16.7944 2211 145.621 877.483 437.507
1011 0 137.876 19.3798 2672 141.428 876.886 438.386
1012 0 137.395 15.35 2109 150.052 875.522 437.028
1013 0 140.739 16.1007 2266 151.662 873.956 428.668
1014 0 145.634 16.1089 2346 151.354 871.919 431.244
1015 0 145.66 20.2252 2946 142.808 870.747 430.837
1016 0 148.538 17.5241 2603 147.956 870.005 430.982
1017 0 151.642 17.5875 2667 147.838 868.7 425.764
1018 0 150.564 15.7077 2365 153.51 868.009 421.207
1019 0 157.559 16.9969 2678 150.353 867.361 424.245
1020 0 160.878 17.8147 2866 150.332 866.427 421.83
1021 0 163.565 17.0758 2793 149.857 865.63 424.855
1022 0 166.678 20.6206 3437 144.044 865.096 418.587
1023 0 167.592 16.3552 2741 155.328 865.221 419.964
1024 0 170.508 18.5505 3163 151.017 865.263 412.854
1025 0 173.744 18.8669 3278 150.218 866.039 412.059
1026 0 178.429 20.602 3676 145.375 866.195 415.53
1027 0 178.708 19.3556 3459 149.648 867.468 410.499
1028 0 182.728 17.9447 3279 151.975 868.551 410.101
1029 0 186.082 18.4865 3440 149.767 870.133 408.811
1030 0 187.63 17.1188 3212 153.358 870.934 407.659
1031 0 191.607 18.4127 3528 150.469 873.802 404.566
1032 0 194.49 16.7001 3248 154.048 874.697 407.19
1033 0 199.438 21.9015 4368 141.464 876.961 404.237
1034 0 200.594 20.2399 4060 145.114 877.719 400.275
1035 0 205.687 20.5993 4237 144.57 877.933 396.562
1036 0 207.434 18.7529 3890 147.227 878.711 394.098
1037 0 215.689 21.072 4545 141.566 878.907 399.772
1038 0 216.539 17.2763 3741 151.296 878.678 396.804
1039 0 217.722 15.8643 3454 152.77 878.808 401.646
1040 0 224.406 20.2 4533 141.955 878.565 408.166
1041 0 227.457 18.487 4205 147.71 877.446 399.48
1042 0 235.755 20.4874 4830 144.983 875.951 386.028
1043 0 241.533 27.5366 6651 130.357 874.317 386.283
1044 0 243.891 22.8545 5574 138.134 872.845 381.918
1045 0 247.696 20.2789 5023 141.536 871.559 373.533
1046 0 249.466 24.1195 6017 135.261 869.378 377.424
1047 0 253.59 22.4457 5692 137.644 867.748 373.666
1048 0 259.757 28.5998 7429 127.191 867.402 363.628
1049 0 261.924 23.6252 6188 135.076 866.077 362.518
1050 0 266.797 27.6652 7381 128.401 865.337 365.939
1051 0 267.654 29.3364 7852 126.253 864.537 353.102
1052 0 269.709 21.7308 5861 137.801 864.535 356.672
1053 0 274.492 21.5999 5929 137.633 863.935 355.555
1054 0 274.541 23.5885 6476 133.926 863.792 360.675
1055 0 276.689 19.6466 5436 140.419 864.058 355.686
1056 0 281.767 20.7228 5839 138.419 864.598 348.922
1057 0 288.535 25.4493 7343 129.438 864.756 350.861
1058 0 288.595 22.6788 6545 134.653 864.435 353.925
1059 0 292.595 22.8985 6700 132.787 865.153 347.512
1060 0 294.565 19.6595 5791 139.077 865.598 344.844
1061 0 299.578 22.3848 6706 133.644 866.119 338.828
1062 0 303.633 22.2966 6770 133.081 867.595 328.211
1063 0 306.654 19.9182 6108 137.333 869.329 333.036
1064 0 312.936 24.6281 7707 129.368 871.197 340.657
1065 0 316.09 22.4114 7084 132.709 873.125 326.104
1066 0 317.92 19.8226 6302 137.254 874.702 332.894
1067 0 322.884 23.9684 7739 130.061 875.821 325.674
1068 0 325.945 20.6661 6736 134.496 876.844 327.42
1069 0 335.018 26.1419 8758 123.426 878.368 323.599
1070 0 335.878 25.6463 8614 124.084 878.764 333.202
1071 0 341.036 25.141 8574 124.899 879.563 317.882
1072 0 343.774 22.634 7781 128.478 878.901 309.153
