time division length width area intensity CMx CMy
0 0 52.1828 13.721 716 119.369 662.39 461.413
1 0 48.2017 9.6677 466 124.929 663.564 461.536
2 0 49.1908 17.6456 868 117.203 663.247 456.824
3 0 48.0636 9.59147 461 124.948 665.581 464.941
4 0 52.0442 23.4993 1223 111.32 664.785 464.147
5 0 56.2349 14.9729 842 118.414 665.354 466.173
6 0 57.4111 15.2932 878 120.772 663.141 462.856
7 0 59.3273 14.5801 865 129.706 662.497 462.48
8 0 57.3213 11.5315 661 145.259 660.313 461.947
9 0 59.1608 11.4265 676 147.697 658.712 463.778
10 0 59.09 12.5571 742 147.524 657.9 461.631
11 0 62.128 12.4743 775 154.115 656.641 462.067
12 0 63.1715 14.5319 918 147.419 656.318 461.544
13 0 67.1312 10.9189 733 152.693 655.791 461.996
14 0 66.28 12.8395 851 156.967 654.394 457.818
15 0 68.2343 15.1976 1037 152.94 652.766 459.045
16 0 70.1595 15.3792 1079 154.104 651.323 456.129
17 0 71.1723 13.4603 958 160.009 650.411 455.689
18 0 74.3593 13.9055 1034 156.359 649.677 454.097
19 0 77.3589 15.2924 1183 154.074 648.924 449.954
20 0 80.2088 16.5693 1329 152.347 648.264 447.449
21 0 81.282 16.1782 1315 153.802 647.643 445.864
22 0 85.1759 14.382 1225 154.199 647.123 444.888
23 0 87.2211 12.1301 1058 160.06 647.365 445.074
24 0 91.2327 13.6026 1241 153.203 648.321 440.853
25 0 95.1094 14.1626 1347 152.968 648.439 438.917
26 1 50.1176 11.3732 570 149.772 649.075 461.491
27 0 52.1811 13.664 713 146.511 649.259 458.672
28 0 52.1941 10.8058 564 151.516 649.069 457.339
29 0 56.3068 13.4264 756 143.852 652.19 455.071
30 0 57.2061 13.0755 748 140.984 652.925 458.164
31 0 59.1694 14.9909 887 136.345 654.851 455.166
32 0 59.2425 12.9299 766 143.962 656.38 455.769
33 0 62.2485 14.0887 877 141.982 657.71 455.031
34 0 64.3753 15.0213 967 137.77 659.09 454.937
35 0 66.4215 14.0768 935 138.197 660.863 454.628
36 0 68.3507 13.1528 899 136.646 661.457 455.723
37 0 72.1694 14.5768 1052 129.639 661.413 456.849
38 0 73.2482 12.4099 909 134.716 661.021 455.044
39 0 73.2276 13.0552 956 138.787 660.543 453.2
40 0 77.3368 14.7019 1137 133.865 660.517 456.962
41 0 80.3087 14.6809 1179 139.374 660.604 454.818
42 1 42.0162 10.8767 457 143.591 660.58 472.98
43 0 43.013 11.6244 500 143.558 659.762 474.438
44 0 42.1362 7.71309 325 154.837 658.308 475.046
45 0 47.4792 10.6152 504 151.56 657.514 470.409
46 0 45.6121 11.0497 504 151.321 654.982 470.536
47 0 47.5268 14.3498 682 150.34 654.249 467.371
48 0 48.0758 11.8355 569 154.856 653.292 471.912
49 0 50.2782 13.5049 679 152.302 649.95 471.436
50 0 51.2278 12.7079 651 153.92 648.722 470.759
51 0 53.0976 13.7671 731 154.231 648.815 469.148
52 0 55.1468 14.3254 790 153.247 647.952 467.722
53 0 54.1187 11.8813 643 160.698 646.858 468.445
54 0 57.2375 13.8546 793 154.093 644.564 467.39
55 0 59.178 14.2283 842 154.752 644.479 461.343
56 0 60.1972 13.788 830 155.71 644.12 461.355
57 0 64.1052 14.7258 944 152.895 643.51 458.869
58 0 65.2054 13.0971 854 156.514 643.029 457.96
59 0 69.207 14.4061 997 152.308 643.269 456.921
60 0 71.1369 14.6478 1042 153.051 643.654 453.598
61 1 36.0352 9.32422 336 160.429 643.271 469.628
62 0 34.0194 9.49459 323 160.452 643.848 469.981
63 0 38.0482 10.3816 395 158.881 644.98 468.266
64 0 39.1503 12.2349 479 153.718 647.288 467.597
65 0 40.0604 10.8586 435 158.354 649.579 468.545
66 0 42.0282 10.3978 437 151.645 652.137 470.741
67 0 43.0316 12.4792 537 141.251 656.088 471.48
68 0 43.1182 11.9671 516 142.76 657.841 471.132
69 0 42.2963 12.6016 533 143.713 657.285 468.201
70 0 45.2803 12.6766 574 142.145 657.855 469.362
71 0 47.4327 14.4837 687 140.157 659.25 468.914
72 0 50.3622 11.8144 595 142.713 659.054 471.037
73 0 50.3585 14.4166 726 138.886 658.795 469.208
74 0 53.2101 13.4749 717 143.897 659.148 471.919
75 0 54.1856 14.9486 810 139.467 658.628 471.14
76 0 55.3942 13.4129 743 145.485 657.463 470.266
77 0 57.1872 13.6919 783 144.84 656.654 470.051
78 0 55.1775 11.4358 631 153.312 655.894 469.775
79 0 57.138 15.1388 865 145.787 655.12 468.979
80 0 58.1757 11.8778 691 156.274 654.004 467.107
81 0 61.1438 12.168 744 156.989 652.405 466.474
82 0 63.1836 13.2946 840 153.914 650.476 466.521
83 0 65.203 15.0147 979 149.311 649.034 465.914
84 0 69.3294 13.7315 952 152.337 647.808 464.366
85 0 72.1834 16.6243 1200 145.847 646.178 462.582
86 0 72.2821 13.5027 976 154.974 645.683 459.272
87 0 74.1328 15.2834 1133 150.718 644.58 456.945
88 0 78.1113 14.6586 1145 150.557 643.792 455.87
89 0 78.1733 13.6747 1069 154.573 643.37 454.426
90 1 39.0677 6.65511 260 161.608 642.008 474.385
91 0 44.1271 10.4698 462 154.119 642.431 470.359
92 0 47.0438 12.1589 572 152.797 642.46 466.797
93 0 46.1173 12.2514 565 150.926 642.45 467.506
94 0 47.0809 12.1068 570 152.639 642.733 465.402
95 0 47.0309 10.525 495 156.632 643.299 464.055
96 0 52.1316 13.159 686 142.446 644.628 463.187
97 0 54.2538 14.7455 800 140.201 647.565 462.378
98 0 54.0809 13.8866 751 142.667 649.86 461.013
99 0 57.0594 12.1803 695 147.393 652.954 461.25
100 0 57.2543 13.2217 757 140.847 653.324 461.966
101 0 61.2405 14.0593 861 135.081 655.57 463.065
102 0 64.2881 17.4527 1122 129.209 657.113 461.78
103 0 63.1647 13.8368 874 136.402 658.618 459.888
104 0 65.2317 12.9232 843 136.711 658.683 460.112
105 0 69.205 16.0393 1110 131.574 659.777 459.255
106 0 71.1938 13.2315 942 137.678 659.139 460.394
107 0 71.2503 14.2877 1018 135.117 659.49 458.204
108 0 75.2455 13.3961 1008 136.876 658.97 459.078
109 0 77.174 13.7741 1063 141.59 657.868 457.303
110 0 80.1885 15.5509 1247 140.149 657.391 454.368
111 0 81.1791 12.7742 1037 149.394 657.062 456.855
112 1 41.2427 7.08005 292 156.962 657.236 477.158
113 0 43.0875 7.3107 315 153.533 656.2 478.898
114 0 44.0608 10.6898 471 150.665 654.072 476.558
115 0 46.0364 11.9688 551 143.871 651.935 479.192
116 0 51.1254 12.5769 643 144.425 649.188 475.677
117 0 48.0994 7.46371 359 157.705 646.71 472.532
118 0 50.2364 8.89794 447 152.338 645.479 473.038
119 0 53.0148 13.6188 722 145.521 643.738 467.6
120 0 55.0408 13.7898 759 144.476 643.744 467.065
121 0 57.1489 13.3511 763 145.679 643.034 466.566
122 0 59.3886 14.1947 843 143.642 642.028 463.617
123 0 60.2392 14.044 846 143.42 641.682 462.773
124 0 61.1276 13.3818 818 146.488 641.285 459.125
125 0 65.2526 13.6546 891 145.046 640.972 455.533
126 0 67.1895 14.6154 982 141.81 640.656 455.186
127 0 68.173 13.0257 888 143.723 641.631 456.109
128 0 70.1898 13.606 955 143.498 641.599 452.708
129 0 72.1962 14.2251 1027 143.348 642.805 452.416
130 0 78.1838 14.581 1140 140.099 644.502 451.346
131 0 76.2114 12.5965 960 145.817 644.928 449.619
132 0 78.2619 12.8798 1008 147.671 646.98 445.741
133 0 83.2411 14.2117 1183 143.093 649.497 445.719
134 0 87.1707 17.5288 1528 134.088 652.084 449.314
135 0 86.0854 13.8932 1196 144.835 653.707 445.043
136 1 48.0195 11.2038 538 141.331 655.227 469.455
137 0 52.1116 12.7035 662 135.793 656.068 471.246
138 0 53.0427 14.4035 764 142.486 656.134 468.149
139 0 54.051 12.0627 652 145.781 655.012 470.373
140 0 57.1818 13.1335 751 144.583 653.061 469.718
141 0 57.1383 14.7537 843 141.88 654.144 467.511
142 0 60.0621 14.1187 848 142.606 656.236 469.19
143 0 62.2056 12.6034 784 147.173 654.858 467.438
144 0 61.1321 12.8901 788 148 654.119 467.259
145 0 66.0478 15.5796 1029 140.916 653.108 465.908
146 0 67.069 14.7907 992 144.277 652.205 464.895
147 0 68.1193 14.5627 992 145.969 650.799 464.802
148 0 71.3779 13.3655 954 147.169 649.527 464.854
149 0 72.1181 14.1851 1023 147.05 647.681 461.934
150 0 76.1463 14.3014 1089 145.867 645.916 462.803
151 1 36.1051 8.86301 320 141.781 644.753 484.241
152 0 40.1971 10.2992 414 144.457 643.894 479.79
153 0 40.2354 8.74852 352 147.426 642.991 478.389
154 0 41.183 11.9952 494 140.737 640.978 477.668
155 0 43.0409 11.2451 484 142.89 640.486 474.638
156 0 45.148 13.9098 628 135.524 639.838 471.43
157 0 46.1039 11.9946 553 138.394 639.018 471.604
158 0 47.1989 13.3054 628 140.565 637.083 467.193
159 0 49.0678 14.7755 725 136.81 636.378 465.047
160 0 49.1499 11.8006 580 142.753 638.755 464.309
161 0 52.064 12.2733 639 140.704 637.243 462.462
162 0 54.1331 14.2611 772 137.516 637.54 460.183
163 0 54.1346 13.8174 748 138.6 638.664 460.15
164 0 56.272 14.3588 808 137.632 640.052 458.911
165 0 57.3137 14.9354 856 136.492 642.376 457.044
166 0 60.1901 14.0721 847 138.614 644.087 459.831
167 0 62.2794 14.5152 904 136.925 646.288 455.929
168 0 62.3317 11.4549 714 141.203 648.732 459.469
169 0 64.232 16.3159 1048 136.528 649.255 456.583
170 0 67.3651 13.5233 911 139.476 650.823 459.281
171 0 68.2428 14.3165 977 135.82 652.3 457.028
172 0 73.2264 13.5607 993 137.053 652.009 461.389
173 0 76.3783 12.3333 942 143.772 652.959 462.401
174 0 78.5182 12.7104 998 139.182 653.191 462.194
175 1 40.3038 11.1404 449 142.646 653.013 474.668
176 0 43.3738 9.17605 398 144.726 652.548 478.033
177 0 45.1511 13.0229 588 139.711 652.362 476.102
178 0 45.198 10.6642 482 146.116 651.44 475.795
179 0 46.2479 11.2438 520 146.683 649.104 474.59
180 0 48.196 13.7563 663 142.534 648.947 475.522
181 0 52.1619 12.7104 663 143.662 646.606 474.864
182 0 51.2221 16.6334 852 133.272 646.507 475.951
183 0 53.0712 12.3231 654 144.946 648.101 475.228
184 0 56.0552 13.7008 768 141.483 645.896 474.449
185 0 57.1024 15.0256 858 137.735 644.661 474.231
186 0 57.183 12.154 695 146.437 643.058 470.941
187 0 60.1074 14.8235 891 140.542 642.227 469.872
188 0 61.1206 12.369 756 146.103 641.061 466.124
189 0 65.141 16.0268 1044 136.123 640.599 467.017
190 0 68.1617 12.7784 871 143.866 639.75 462.986
191 0 68.1934 12.4206 847 145.125 639.306 461.182
192 1 38.1093 9.97133 380 144.253 639.837 475.211
193 0 37.0346 12.5828 466 142.159 639.155 473.03
194 0 42.0207 10.7566 452 140.856 639.168 474.387
195 0 41.0155 10.8739 446 144.076 639.511 472.673
196 0 43.0531 12.6588 545 136.839 640.394 472.949
197 0 42.1589 13.3068 561 139.686 642.157 471.219
198 0 42.1558 11.9082 502 143.865 644.261 468.839
199 0 47.1108 14.7949 697 137.413 645.518 470.709
200 0 48.2353 12.4598 601 140.642 646.902 470.817
201 0 47.1181 13.6678 644 141.391 648.957 470.736
202 0 48.0891 13.0591 628 141.768 650.033 472.366
203 0 48.0891 12.0609 580 154.248 651.176 471.453
204 0 53.261 13.3681 712 143.729 652.254 472.565
205 0 56.3151 15.502 873 136.228 653.276 470.443
206 0 55.0835 14.6686 808 140.371 653.058 470.085
207 0 57.169 15.1481 866 140.497 653.478 471.08
208 0 58.1937 12.3725 720 149.667 653.34 468.974
209 0 57.2289 13.0179 745 150.142 652.365 470.032
210 0 62.2616 14.0697 876 147.232 651.989 469.987
211 0 62.2616 14.166 882 144.61 653.012 469.971
212 0 66.2758 16.4766 1092 142.539 650.659 468.618
213 0 68.2627 12.3786 845 150.46 650.052 468.199
214 0 72.2549 14.9748 1082 141.348 648.415 468.424
215 0 75.2331 17.1467 1290 136.143 647.633 468.126
216 1 36.1174 12.6809 458 139.555 646.788 484.199
217 0 38.1275 11.9861 457 136.667 644.847 485
218 0 41.1676 9.59492 395 142.461 644.17 483.149
219 0 43.2526 10.7508 465 143.594 642.91 478.544
220 0 44.376 10.0505 446 143.583 641.312 477.726
221 0 45.3475 9.63668 437 145.275 639.805 475.824
222 0 48.4082 11.9401 578 134.021 636.642 473.159
223 0 47.1988 14.4072 680 130.268 635.546 472.844
224 0 50.1246 13.0874 656 133.169 635.3 470.631
225 0 50.2348 11.5856 582 138.359 634.983 468.911
226 0 51.126 12.2834 628 136.658 634.99 467.065
227 0 54.2458 13.1807 715 134.063 635.495 465.597
228 0 55.2643 11.0922 613 138.894 635.817 465.568
229 0 55.2544 11.6371 643 140.636 636.866 463.509
230 0 58.2843 10.4659 610 140.279 637.221 465.726
231 0 59.2199 12.3607 732 136.227 639.199 462.164
232 0 61.2451 10.058 616 140.58 640.588 462.481
233 0 61.1606 12.2628 750 137.581 642.721 461.117
234 0 63.3042 12.0845 765 137.108 643.946 462.827
235 0 69.5763 11.4551 797 138.738 645.823 459.935
236 0 71.5605 11.8501 848 136.521 647.893 457.814
237 0 72.6452 14.3575 1043 132.427 648.623 457.793
238 0 72.2513 10.6019 766 143.648 650.775 456.305
239 1 41.3232 9.97018 412 137.141 651.279 478.09
240 0 41.0784 12.0745 496 132.653 651.325 478.851
241 0 42.0382 11.8939 500 134.976 651.442 478.182
242 0 44.0115 10.8835 479 136.843 650.647 480.662
243 0 46.7568 13.9445 652 133.719 651.02 473.644
244 0 46.0593 13.8083 636 131.907 651.099 480.05
245 0 48.2323 12.9581 625 135.549 650.878 478.99
246 0 48.1692 13.245 638 136.312 648.732 477.154
247 0 48.1373 12.2982 592 138.708 648.691 476.172
248 0 52.2401 13.6485 713 134.167 647.647 477.149
249 0 54.3066 14.4365 784 131.819 646.667 476.915
250 0 54.2803 17.0596 926 129.286 645.027 470.643
251 0 55.2492 12.6156 697 136.578 643.824 475.395
252 0 58.1835 14.7808 860 131.881 642.144 473.49
253 0 58.2487 12.7041 740 136.284 641.055 471.866
254 0 62.2848 12.7158 792 134.362 639.381 470.859
255 0 62.2771 13.9056 866 133.834 638.314 466.003
256 0 64.2973 14.9617 962 132.289 638.06 463.63
257 0 65.2823 13.3727 873 134.946 637.569 462.877
258 0 64.1859 13.1026 841 140.427 636.797 459.635
259 0 69.2381 15.4828 1072 130.856 636.633 463.102
260 0 71.3426 15.2784 1090 132.258 636.138 457.518
261 0 74.512 14.9909 1117 131.09 636.611 457.679
262 0 74.2404 10.5064 780 138.314 637.226 456.023
263 0 81.4072 14.1511 1152 130.784 637.968 455.482
264 0 82.3817 16.5085 1360 127.865 638.521 451.076
265 0 84.3592 13.1936 1113 133.469 640.409 450.364
266 0 86.2947 13.4191 1158 134.743 642.611 448.535
267 1 46.058 9.6183 443 136.878 645.068 469.86
268 0 48.0285 13.0547 627 131.367 647.278 469.447
269 0 50.1798 11.7577 590 139.995 648.775 467.205
270 0 53.4055 13.6503 729 135.778 647.985 462.993
271 0 54.2795 12.4172 674 138.355 648.515 466.409
272 0 53.1143 12.3507 656 141.645 651.739 467.733
273 0 55.1998 11.4855 634 142.533 651.973 466.957
274 0 59.1551 15.3664 909 130.487 651.981 468.545
275 0 60.1986 14.0867 848 135.139 651.441 468.805
276 0 63.1281 15.2864 965 134.303 650.984 466.27
277 0 64.1133 15.691 1006 134.285 650.68 467.582
278 0 64.2342 13.6065 874 138.89 650.34 468.768
279 0 67.1873 15.5684 1046 135.129 649.665 467.002
280 0 69.1975 14.0901 975 138.053 648.728 468.04
281 0 71.3183 12.4652 889 142.299 647.368 466.007
282 0 73.1377 13.7275 1004 140.48 646.114 463.792
283 0 74.2065 12.1418 901 144.021 644.961 461.295
284 0 79.219 15.7917 1251 136.518 643.791 461.651
285 0 81.1296 14.7912 1200 137.685 642.932 461.871
286 0 84.2422 13.2713 1118 141.586 641.056 458.019
287 0 86.218 15.7624 1359 136.662 639.943 453.377
288 1 47.0286 11.9502 562 135.584 639.448 477.913
289 0 47.1991 11.9494 564 136.145 638.307 475.583
290 0 50.1692 11.6207 583 137.165 637.575 472.83
291 0 51.09 12.4095 634 135.521 637.038 469.139
292 0 52.1156 12.4147 647 134.516 636.73 466.008
293 0 56.2398 12.2867 691 133.761 636.988 465.162
294 0 52.1517 11.6775 609 138.624 637.458 464.294
295 0 57.1712 12.6987 726 135.818 637.584 463.848
296 0 58.1553 11.3833 662 138.577 638.645 462.13
297 0 60.1591 12.1179 729 136.329 640.044 462.114
298 0 62.1162 11.3336 704 137.983 641.374 462.021
299 0 64.0944 10.9058 699 137.298 642.834 458.894
300 0 68.3409 16.1836 1106 125.56 644.975 460.38
301 0 70.2354 13.0134 914 130.823 646.632 459.376
302 0 72.2999 12.3098 890 132.62 648.767 460.08
303 0 77.112 13.1108 1011 128.607 650.046 461.829
304 0 75.1919 11.5571 869 133.841 651.04 454.013
305 0 84.14 14.8562 1250 125.027 651.058 458.301
306 0 87.3774 16.0453 1402 123.771 651.74 458.267
307 0 85.3362 12.0582 1029 133.051 652.107 455.375
308 0 91.4122 12.5585 1148 130.444 650.858 459.818
309 1 52.371 14.3782 753 123.459 649.912 477.78
310 0 53.15 14.5249 772 126.769 649.282 476.801
311 0 53.2015 13.2327 704 131.999 649.158 474.148
312 0 53.2015 13.2891 707 139.355 649.136 474.243
313 0 59.2112 13.9838 828 129.795 646.301 476.333
314 0 59.2127 14.051 832 132.582 644.291 476.417
315 0 59.1921 14.5121 859 132.232 646.229 475.247
316 0 61.3085 12.7062 779 136.643 644.928 471.665
317 0 63.1748 13.1223 829 135.42 643.777 472.517
318 0 67.1142 15.049 1010 132.569 642.642 468.329
319 0 68.1616 13.7908 940 135.209 640.73 466.319
320 0 70.164 13.2547 930 134.169 640.509 469.611
321 0 72.1185 12.8816 929 136.433 639.864 463.972
322 0 75.1804 13.6339 1025 134.68 639.779 461.308
323 0 77.1498 15.8004 1219 130.895 638.295 458.615
324 0 78.0892 13.126 1025 135.197 638.146 459.469
325 0 84.3012 15.2311 1284 129.841 636.872 454.4
326 0 87.389 19.1786 1676 123.953 636.322 452.938
327 0 87.1929 13.9002 1212 135.163 636.862 449.998
328 0 89.6535 12.3587 1108 137.81 637.372 447.69
329 0 92.4075 14.988 1385 133.849 637.636 443.704
330 1 48.2481 10.218 493 136.931 639.211 468.44
331 0 50.2386 12.3212 619 133.695 641.05 468.331
332 0 52.0784 15.0734 785 124.31 642.594 471.186
333 0 52.0543 13.0057 677 132.207 644.102 469.69
334 0 56.0795 12.1078 679 133.296 646.423 468.406
335 0 56.0942 14.1548 794 130.999 648.567 469.611
336 0 58.1726 15.9009 925 127.151 649.785 469.703
337 0 57.1124 13.5872 776 133.91 651.146 466.276
338 0 58.1828 11.8592 690 139.509 652.251 468.628
339 0 59.1306 12.0411 712 140.303 652.306 470.534
340 0 63.1095 14.4035 909 135.939 651.956 468.879
341 0 66.0701 15.0749 996 135.498 651.972 468.453
342 0 66.1516 13.197 873 140.895 651.159 469.683
343 0 68.1545 12.2809 837 143.556 650.349 469.52
344 0 71.1367 16.8127 1196 135.368 649.68 469.535
345 0 72.1172 14.6012 1053 141.039 648.83 466.199
346 0 75.1382 14.6397 1100 141.891 647.741 467.687
347 1 40.0255 11.7925 472 145.555 647 482.544
348 0 42.0956 12.139 511 144.057 645.468 482.685
349 0 42.1592 8.84742 373 153.697 644.011 480.716
350 0 45.1267 14.0272 633 142.433 643.289 479.439
351 0 46.035 13.859 638 141.422 641.716 480.35
352 0 47.0546 14.0688 662 142.211 639.876 477.181
353 0 46.0712 13.3489 615 145.45 639.047 475.374
354 0 50.0593 15.3218 767 137.724 638.695 473.798
355 0 52.0593 13.3309 694 142.186 637.834 474.565
356 0 53.225 17.1536 913 132.84 636.974 475.143
357 0 54.1679 15.9689 865 137.731 635.791 469.361
358 0 55.2428 14.4091 796 138.26 636.052 468.764
359 0 55.4172 13.7683 763 145.414 635.674 466.48
360 0 57.1583 15.5708 890 140.883 636.066 466.328
361 0 62.2818 14.2578 888 141.25 636.226 466.314
362 0 63.2474 14.973 947 143.131 636.737 461.567
363 0 68.3831 15.9689 1092 138.977 638.126 461.699
364 0 67.1367 13.897 933 141.465 640.006 464.641
365 0 68.3179 15.179 1037 145.758 641.16 458.446
366 0 74.2943 17.1211 1272 137.241 642.962 462.385
367 0 78.1977 15.7422 1231 140.74 644.611 459.665
368 0 77.2052 13.4706 1040 147.098 647.11 460.299
369 0 80.1411 14.1501 1134 147.601 648.233 457.909
370 0 81.3042 13.7385 1117 147.939 648.483 457.115
371 0 84.2187 13.738 1157 148.604 650.501 455.959
372 0 89.2664 16.0979 1437 142.663 650.296 455.862
373 0 91.1225 15.2761 1392 146.078 650.29 456.011
374 1 48.2385 12.6041 608 144.079 651.602 475.033
375 0 49.1077 9.42827 463 149.102 651.603 473.888
376 0 53.2875 13.6618 728 141.22 651.806 472.576
377 0 54.2176 13.87 752 144.012 650.964 469.399
378 0 55.393 14.2437 789 144.617 649.275 468.914
379 0 57.3499 15.3967 883 142.309 648.356 471.327
380 0 60.2275 16.1056 970 139.992 645.742 476.8
381 0 62.0805 15.3833 955 142.821 645.244 474.14
382 0 64.2154 17.1299 1100 140.883 645.409 470.661
383 0 62.0589 13.1649 817 151.632 644.496 470.933
384 0 67.0777 14.3714 964 148.092 642.494 469.267
385 0 70.2626 18.0039 1265 141.1 641.021 467.594
386 0 70.2585 16.297 1145 147.155 639.397 463.87
387 0 72.1436 14.8038 1068 150.899 638.564 463.191
388 0 74.2222 14.1063 1047 153.285 637.915 462.952
389 0 75.2762 15.7155 1183 149.908 637.123 460.757
390 0 78.254 15.6542 1225 150.775 636.389 454.993
391 0 78.2169 13.6671 1069 153.84 636.31 457.094
392 0 81.0884 14.552 1180 153.496 635.94 454.411
393 0 84.2577 16.9836 1431 149.391 636.075 447.87
394 0 89.305 15.1951 1357 152.259 636.383 448.057
395 0 91.2623 14.4309 1317 153.491 637.171 449.446
396 0 94.3457 15.6022 1472 152.318 638.751 445.48
397 0 95.1691 14.1432 1346 157.207 639.272 441.504
398 0 98.0985 16.198 1589 152.205 641.137 438.819
399 0 103.256 18.8948 1951 144.397 643.131 436.875
400 0 105.199 16.3595 1721 150.673 644.643 437.17
401 0 106.191 13.0143 1382 159.234 646.119 433.348
402 0 111.208 14.6033 1624 154.583 646.863 434.476
403 0 116.171 13.6092 1581 157.474 648.736 432.045
404 0 120.144 16.1472 1940 153.282 650.658 431.242
405 1 67.0686 8.90133 597 154.843 650.427 463.635
406 0 71.0956 11.8573 843 151.199 651.024 461.636
407 0 73.1898 9.16795 671 160.346 652.712 451.531
408 0 75.2899 15.6063 1175 145.089 649.729 455.772
409 0 77.324 13.1266 1015 152.739 649.583 460.112
410 0 80.2472 14.1189 1133 150.99 649.011 458.768
411 0 84.3807 14.3398 1210 150.798 648.194 457.225
412 0 86.1924 13.9455 1202 151.968 646.714 456.225
413 0 90.2749 15.0319 1357 149.353 645.99 457.237
414 0 90.48 14.1247 1278 150.72 644.577 455.139
415 0 94.4414 13.3204 1258 153.984 643.572 449.649
416 0 96.4574 13.436 1296 155.556 642.937 447.737
417 0 102.272 14.9503 1529 147.381 642.747 446.046
418 0 102.432 11.6078 1189 155.329 641.093 444.697
419 1 57.2537 10.2352 586 149.828 640.577 466.392
420 0 59.352 9.50263 564 149.755 640.002 468.548
421 0 60.1349 11.125 669 146.885 639.275 465.084
422 0 65.1579 13.7666 897 141.129 639.116 464.139
423 0 67.083 13.8932 932 142.733 638.253 462.284
424 0 69.067 12.3069 850 144.989 637.587 460.507
425 0 73.1932 15.0014 1098 137.71 636.785 454.745
426 0 72.093 11.0552 797 148.237 636.315 456.363
427 0 75.1459 12.9481 973 143.913 637.366 452.857
428 0 80.1818 12.6962 1018 144.661 637.872 451.222
429 0 81.2023 13.4602 1093 145.577 638.727 449.26
430 0 82.1452 11.2606 925 150.405 639.389 446.995
431 0 87.1474 13.2878 1158 144.997 641.384 448.729
432 0 91.2706 12.567 1147 147.908 642.342 446.658
433 0 94.255 13.8879 1309 145.706 644.493 441.632
434 1 52.057 8.81726 459 146.333 647.333 470.495
435 0 51.0436 7.73849 395 150.516 649.873 469.532
436 0 56.0231 12.1914 683 138.29 650.594 472.414
437 0 58.0451 9.94055 577 145.912 652.303 469.454
438 0 57.2358 12.4572 713 139.314 651.328 469.759
439 0 60.1059 18.1513 1091 127.308 652.009 470.203
440 0 59.1011 10.7105 633 147.197 650.368 470.299
441 0 66.1828 11.3171 749 144.933 650.007 468.761
442 0 66.1609 12.6359 836 142.823 649.496 467.766
443 0 69.2242 14.388 996 139.874 649.362 467.472
444 0 71.1003 13.713 975 141.523 648.626 466.252
445 0 72.5043 13.8613 1005 143.41 649.195 464.816
446 0 71.2157 12.3287 878 147.23 647.994 464.748
447 0 75.414 12.5043 943 144.111 647.222 466.506
448 0 77.2534 14.2 1097 141.358 645.98 464.203
449 1 41.0815 11.7084 481 135.031 645.121 483.252
450 0 40.103 7.10669 285 147.509 643.902 479.358
451 0 43.0839 8.00764 345 143.614 641.661 479.925
452 0 43.0979 8.02822 346 138.962 639.587 480.145
453 0 48.3482 11.0656 535 138.366 639.277 477.198
454 0 48.3482 11.169 540 129.437 639.281 477.106
455 0 51.0758 13.6072 695 134.029 639.109 474.83
456 0 51.0972 13.3275 681 135.937 638.144 472.734
457 0 53.0724 12.6619 672 138.007 637.225 470.414
458 0 54.0921 11.3325 613 137.331 636.793 473.018
459 0 55.1158 13.9887 771 135.752 637.425 465.804
460 0 57.1536 15.957 912 129.147 638.208 466.485
461 0 59.0842 14.9617 884 131.955 638.197 461.859
462 0 57.0601 11.2338 641 139.331 639.32 465.385
463 0 59.2538 12.4043 735 141.363 639.724 462.839
464 0 63.0874 14.9317 942 133.744 641.243 461.766
465 0 65.1434 15.7959 1029 132.952 642.895 461.414
466 0 67.127 14.2566 957 134.856 644.902 458.857
467 0 68.0609 14.0022 953 137.491 647.161 457.275
468 0 72.1036 16.8785 1217 129.454 648.772 460.708
469 0 70.0854 10.7155 751 144.738 650.976 456.981
470 0 74.0953 13.2397 981 138.252 652.475 459.07
471 0 77.116 13.8493 1068 137.096 652.674 458.224
472 0 78.2353 14.8526 1162 136.651 653.204 457.187
473 0 81.0753 13.3456 1082 139.671 652.515 460.148
474 0 83.1896 13.9801 1163 140.225 652.358 457.73
475 0 87.1059 12.4217 1082 144.181 651.825 457.903
476 1 48.0403 10.3871 499 143.886 652.18 476.749
477 0 50.2052 13.2257 664 136.642 651.372 478.623
478 0 52.1692 12.1144 632 139.831 650.576 479.981
479 0 48.0545 9.94704 478 147.709 649.475 478.849
480 0 54.1415 12.9106 699 141.056 648.727 479.067
481 0 56.0501 16.8777 946 131.365 647.245 477.081
482 0 58.0832 14.221 826 136.854 645.66 476.76
483 0 60.0605 14.6019 877 138.009 643.903 473.783
484 0 60.0796 17.0441 1024 132.381 640.679 473.235
485 0 62.1224 15.0026 932 136.341 641.769 469.882
486 0 62.1713 14.637 910 137.027 640.24 466.945
487 0 66.1776 13.7358 909 136.079 640.145 467.12
488 0 70.2156 14.1564 994 134.662 639.292 465.3
489 0 73.1797 15.5644 1139 130.599 639.011 464.937
490 0 72.3397 11.681 845 140.354 638.247 461.329
491 0 73.0903 13.5859 993 140.239 637.897 458.547
492 0 76.2037 15.7473 1200 135.393 637.977 457.465
493 0 78.244 16.2441 1271 135.494 638.028 452.72
494 0 78.3434 14.679 1150 140.744 638.041 451.361
495 0 82.2504 15.2704 1256 139.261 638.534 448.972
496 0 84.1906 17.4248 1467 134.55 639.26 452.337
497 0 84.24 13.5209 1139 146.024 640.588 446.214
498 0 91.1765 15.1465 1381 140.797 642.431 452.925
499 0 94.0762 14.6796 1381 144.734 643.781 446.731
500 0 97.1912 15.4541 1502 142.615 646.39 448.585
501 0 100.208 15.5677 1560 143.226 647.981 442.76
502 1 53.0619 11.006 584 147.579 650.604 467.788
503 0 57.0608 12.8284 732 138.988 652.272 469.768
504 0 58.233 13.1197 764 142.348 653.177 470.169
505 0 58.0233 14.0288 814 142.754 652.816 470.115
506 0 61.2338 13.6036 833 135.161 650.121 469.706
507 0 62.1663 16.2307 1009 132.982 649.072 468.143
508 0 62.0657 11.6973 726 147.807 648.91 469.759
509 0 67.0393 13.9023 932 142.377 648.327 469.344
510 0 69.1237 18.6188 1287 131.662 648.399 469.388
511 0 69.1227 15.1904 1050 140.3 647.814 467.631
512 0 70.1088 15.4046 1080 140.767 646.712 466.801
513 0 74.1903 15.1233 1122 139.977 646.308 468.541
514 0 76.1405 15.4189 1174 141.172 645.018 464.748
515 0 79.1203 14.8508 1175 141.809 643.341 464.86
516 0 80.1964 14.8885 1194 143.957 642.347 461.995
517 0 83.1911 13.6072 1132 143.29 641.61 458.708
518 0 86.2744 15.9607 1377 137.913 640.799 457.834
519 0 88.2591 13.7663 1215 144.351 639.524 454.537
520 0 89.2859 14.4368 1289 143.579 638.58 450.275
521 0 92.3147 15.2305 1406 141.318 637.629 447.297
522 0 95.1467 13.2007 1256 144.729 636.966 447.561
523 0 98.2248 15.2813 1501 138.113 635.468 447.873
524 0 103.51 16.1434 1671 133.16 635.026 446.726
525 1 54.2066 9.64826 523 134.671 634.174 468.296
526 0 54.2066 9.70361 526 125.85 634.171 468.171
527 0 60.1893 11.7463 707 134.267 635.492 463.095
528 0 61.2824 12.5485 769 134.694 636.051 464.553
529 0 63.1223 13.1332 829 134.109 637.516 459.87
530 0 64.1045 12.23 784 136.448 638.342 460.99
531 0 66.1202 14.2619 943 130.679 639.629 457.072
532 0 67.1628 14.383 966 134.842 641.622 457.026
533 0 68.1974 11.6427 794 137.456 643.89 455.401
534 0 73.3163 12.7939 938 135.212 645.767 454.903
535 0 74.0849 13.552 1004 135.141 646.886 454.761
536 0 79.1185 16.2288 1284 128.666 648.043 451.978
537 0 82.2281 14.6908 1208 130.012 649.392 450.092
538 0 84.2015 13.7765 1160 133.334 650.517 452.367
539 0 85.157 13.3401 1136 135.718 649.955 453.232
540 1 44.122 8.97511 396 137.217 649.03 476.134
541 0 45.2413 8.84148 400 138.53 648.67 477.888
542 0 45.0867 9.86986 445 136.054 647.753 479.604
543 0 46.088 9.39506 433 140.617 647.637 476.166
544 0 48.145 13.314 641 133.797 646.828 474.204
545 0 48.4109 10.5761 512 138.941 646.172 474.248
546 0 52.1201 14.198 740 126.557 647.422 474.818
547 0 54.1538 14.4034 780 126.944 645.954 471.314
548 0 55.178 14.7523 814 127.397 644.866 473.928
549 0 54.2871 11.3102 614 133.976 644.013 475.762
550 0 54.2871 11.3102 614 118.05 643.011 475.666
551 0 59.3214 13.2161 784 132.033 641.199 467.093
552 0 62.2126 13.7753 857 129.11 640.484 470.466
553 0 62.2497 12.4338 774 132.792 638.934 466.722
554 0 65.2631 14.1581 924 132.305 637.905 462.443
555 0 67.2915 15.4997 1043 128.644 637.985 463.099
556 0 70.3048 15.2906 1075 131.173 637.588 460.194
557 0 72.2154 13.9721 1009 135.01 636.655 458.625
558 0 73.3373 13.8674 1017 135.11 636.762 458.175
559 0 74.1691 12.1209 899 139.744 637.164 456.192
560 0 76.1326 10.8889 829 142.511 636.834 455.433
561 0 83.3093 14.1281 1177 134.746 637.694 455.5
562 0 82.1387 14.6581 1204 137.199 638.184 449.769
563 0 85.2945 14.5379 1240 138.05 638.81 449.919
564 1 45.3807 10.8857 494 137.545 640.476 465.409
565 0 44.4553 9.44768 420 141.793 642.09 460.071
566 0 47.5723 12.192 580 135.216 643.528 463.341
567 0 51.5029 12.7566 657 132.798 645.639 464.123
568 0 53.4706 15.6161 835 126.698 647.345 464.459
569 0 53.2572 13.294 708 132.444 650.346 468.71
570 0 57.0768 15.3302 875 127.674 651.737 469.507
571 0 58.0518 13.953 810 135.574 652.147 466.095
572 0 60.1813 17.0983 1029 129.671 652.94 469.292
573 0 63.1539 14.6309 924 131.471 652.714 470.788
574 0 62.2754 11.5455 719 137.922 652.391 472.727
575 0 64.2349 13.9644 897 137.854 651.137 468.967
576 0 71.1876 16.0702 1144 132.433 650.569 469.449
577 0 72.2223 13.9431 1007 138.099 650.42 470.297
578 0 74.144 16.7647 1243 133.037 649.803 472.475
579 0 74.3191 12.9442 962 141.071 649.334 469.307
580 0 80.2271 15.7802 1266 134.749 648.212 467.465
581 0 79.2067 14.2791 1131 140.072 646.911 465.259
582 1 44.0723 11.8215 521 139.985 645.305 484.405
583 0 46.1095 9.2172 425 140.609 643.96 487.889
584 0 48.0479 10.1982 490 143.431 642.957 484.208
585 0 49.0221 12.8105 628 136.502 641.508 484.632
586 0 50.0497 13.067 654 138.095 640.694 481.083
587 0 50.0552 13.9846 700 137.904 639.16 479.067
588 0 52.1208 15.349 800 133.636 638.479 478.615
589 0 53.0552 12.9111 685 136.553 638.274 477.512
590 0 57.1643 12.9277 739 134.724 637.69 477.551
591 0 53.0536 12.8361 681 138.3 637.176 473.978
592 0 57.0441 14.4099 822 131.696 636.485 475.01
593 0 58.1188 11.9067 692 139.238 635.929 475.014
594 0 61.0589 17.3275 1058 129.563 636.253 472.944
595 0 62.1873 16.8523 1048 131.967 636.809 470.785
596 0 62.0681 11.004 683 143.608 637.376 472.782
597 0 62.0552 10.9902 682 147.166 637.399 472.842
598 0 69.078 14.9831 1035 136.761 640.073 468.713
599 0 68.1467 13.9112 948 139.448 641.244 467.566
600 0 70.0649 14.0584 985 139.781 641.996 465.706
601 0 71.3095 12.0461 859 144.984 643.203 464.473
602 0 75.188 17.2501 1297 134.39 643.37 467.175
603 0 79.1323 16.6557 1318 136.899 645.811 467.102
604 0 80.0498 14.1162 1130 142.939 646.375 466.836
605 0 82.1107 13.835 1136 140.982 647.248 469.109
606 0 84.0996 15.4816 1302 140.326 645.952 464.757
607 1 45.0679 10.4509 471 142.18 645.127 485.926
608 0 45.1157 10.3512 467 142.043 645.722 485.816
609 0 47.0379 13.9675 657 135.339 645.209 485.925
610 0 49.1147 12.766 627 137.372 644.332 485.71
611 0 52.0546 13.678 712 134.737 644.056 486.699
612 0 52.0588 15.0791 785 134.539 642.88 484.623
613 0 53.1129 13.0853 695 138.754 640.881 482.705
614 0 54.1317 13.3378 722 138.418 639.823 483.389
615 0 54.1511 15.8815 860 136.973 638.514 478.259
616 0 58.0841 13.9281 809 139.525 636.785 479.088
617 0 62.0856 16.0907 999 133.15 635.927 479.614
618 0 62.097 17.4082 1081 132.103 635.036 477.812
619 0 62.0651 15.7093 975 137.4 634.002 473.887
620 0 66.1798 19.1901 1270 131.016 633.244 469.694
621 0 68.0892 21.5453 1467 125.899 633.121 469.305
622 0 71.1207 16.2822 1158 135.958 632.295 465.988
623 0 68.1176 14.6952 1001 143.667 632.309 464.006
624 0 74.1828 16.4863 1223 137.51 631.868 461.783
625 0 76.2049 14.8284 1130 141.302 632.683 459.243
626 0 79.1854 14.8133 1173 142.808 633.088 457.367
627 0 81.1757 15.99 1298 141.234 634.032 455.642
628 0 82.2581 14.7098 1210 149.264 634.272 453.067
629 0 85.1883 15.272 1301 146.174 635.736 452.375
630 0 87.1641 15.2356 1328 145.422 637.146 452.32
631 1 46.0681 9.76815 450 145.773 639.056 471.529
632 0 50.0619 11.4858 575 144.962 640.419 468.906
633 0 51.0759 11.7081 598 147.987 642.634 468.604
634 0 53.1263 13.1197 697 147.119 645.187 470.865
635 0 54.0886 13.33 721 146.566 646.53 470.712
636 0 57.0919 14.6956 839 143.434 646.498 470.451
637 0 57.1963 16.6794 954 140.342 646.577 471.031
638 0 58.1907 13.6276 793 149.599 647.908 468.927
639 0 63.2076 15.9949 1011 143.589 647.594 467.661
640 0 63.2209 14.4572 914 149.534 647.524 468.283
641 0 66.126 16.1661 1069 147.079 647.022 469.003
642 0 67.238 15.75 1059 150.158 646.476 468.5
643 0 71.1857 16.8714 1201 146.709 646.391 468.079
644 0 74.1282 15.0415 1115 149.84 645.465 468.789
645 0 74.1555 16.8834 1252 147.59 644.064 466.737
646 0 78.1415 14.8193 1158 152.541 644.011 465.525
647 1 41.0935 10.5613 434 155.392 641.592 484.721
648 0 43.0801 12.5348 540 154.035 640.585 482.3
649 0 44.0425 12.6696 558 151.527 638.842 482.28
650 0 44.0443 12.1242 534 152.506 638.215 483.455
651 0 46.0397 12.4023 571 154.555 637.285 480.292
652 0 48.2508 16.5593 799 144.129 637.925 480.011
653 0 49.1328 15.6718 770 148.605 637.14 476.64
654 0 50.0278 15.4114 771 150.703 635.76 475.021
655 0 52.1987 12.9314 675 155.329 635.092 474.97
656 0 51.047 13.7128 700 155.13 634.126 472.791
657 0 54.0631 14.3536 776 152.876 634.571 470.268
658 0 55.1893 15.6733 865 151.132 635.057 468.646
659 0 56.0625 16.7848 941 149.166 634.289 464.79
660 0 60.144 16.1612 972 146.061 635.475 468.069
661 0 61.0903 13.3082 813 154.348 635.808 465.64
662 0 61.1297 14.0848 861 152.354 637.092 462.202
663 0 64.0946 15.4459 990 149.625 638.941 459.707
664 0 66.0929 16.4617 1088 148.32 640.649 459.28
665 0 68.121 13.8724 945 154.449 642.976 459.4
666 0 73.1536 17.265 1263 145.183 644.926 460.131
667 0 76.1525 15.0487 1146 150.62 646.165 458.171
668 1 42.1431 13.2169 557 147.429 648.804 475.982
669 0 42.1624 12.0961 510 150.445 650.016 476.422
670 0 44.0847 11.1603 492 153.427 650.374 475.445
671 0 45.1642 11.0707 500 149.032 649.466 475.3
672 0 46.1585 10.4423 482 152.081 649.355 474.788
673 0 47.2268 12.5141 591 149.875 649.068 473.711
674 0 49.0369 12.3377 605 155.369 647.823 474.516
675 0 50.0708 12.003 601 156.226 646.799 476.666
676 0 54.0374 15.9519 862 145.487 646.201 473.601
677 0 55.0572 12.0965 666 153.212 645.598 474.781
678 0 54.0297 13.4 724 150.287 645.702 476.242
679 0 57.0583 13.2496 756 151.328 644.694 476.437
680 0 59.1056 12.503 739 151.926 642.885 473.582
681 0 63.1411 15.2357 962 144.297 640.508 470.96
682 0 63.2072 13.6535 863 149.632 639.116 470.218
683 0 65.1576 14.8409 967 147.299 637.272 467.734
684 0 66.188 13.8696 918 150.215 636.122 467.107
685 0 67.1438 13.0019 873 153.306 635.137 465.402
686 0 72.1811 14.713 1062 147.659 634.309 466.653
687 0 74.3925 15.3779 1144 146.901 634.032 463.348
688 0 75.2936 16.522 1244 145.955 633.629 459.74
689 0 76.15 16.2311 1236 149.923 633.065 455.97
690 0 82.2448 15.8308 1302 149.413 632.737 456.104
691 0 81.1442 16.4276 1333 151.708 633.676 452.851
692 0 86.1814 16.5697 1428 150.408 633.953 451.986
693 0 87.5071 17.1529 1501 150.341 634.896 448.145
694 1 49.1709 13.4632 662 151.87 635.63 469.923
695 0 50.0595 13.8435 693 152.958 636.641 467.228
696 0 52.1105 12.3392 643 148.498 637.961 470.765
697 0 54.1297 10.9921 595 155.148 640.368 468.576
698 0 54.0749 15.7744 853 146.03 642.134 467.002
699 0 58.1326 16.5828 964 143.078 644.596 466.365
700 0 59.0314 16.4658 972 145.298 645.664 466.483
701 0 59.1247 15.628 924 153.538 646.233 468.055
702 0 62.1147 16.2281 1008 153.233 648.202 466.613
703 0 64.2709 13.8165 888 156.976 648.516 468.856
704 0 67.1785 18.3243 1231 148.247 648.536 466.378
705 0 67.097 16.2153 1088 156.073 648.233 464.69
706 0 68.0439 13.844 942 161.189 648.034 466.537
707 0 71.0581 16.4935 1172 155.916 647.759 464.451
708 0 74.1194 15.7988 1171 156.284 647.738 466.181
709 0 75.0827 15.5695 1169 158.416 647.631 466.007
710 0 77.0722 14.8692 1146 162.024 645.858 463.92
711 0 80.2068 14.7618 1184 158.781 645.437 461.77
712 0 83.1953 15.4336 1284 157.946 644.452 460.779
713 0 86.1101 15.9795 1376 157.331 642.868 458.346
714 0 87.1864 13.4425 1172 166.247 641.172 456.39
715 1 44.1015 10.9974 485 163.285 640.575 477.577
716 0 48.0615 9.69592 466 161.811 638.133 478.206
717 0 46.1072 13.5987 627 154.785 636.927 477.223
718 0 50.1864 13.5694 681 151.276 635.853 476.533
719 0 53.2453 13.9167 741 153.459 635.387 473.518
720 0 54.0348 13.2507 716 152.989 635.168 474.901
721 0 54.1649 14.3636 778 154.988 633.393 470.893
722 0 54.1795 12.0894 655 163.446 633.737 468.223
723 0 57.0836 17.6758 1009 149.775 634.832 467.54
724 0 59.1315 15.8799 939 155.417 635.575 465.376
725 0 60.2022 13.1058 789 160.696 635.848 467.232
726 0 62.2298 14.5268 904 157.733 637.602 465.092
727 0 63.1636 13.8054 872 162.093 639.205 460.46
728 0 66.0219 14.5861 963 160.292 639.895 462.173
729 0 69.0791 16.0251 1107 158.193 641.412 461.351
730 0 69.0796 14.4326 997 163.106 641.834 462.989
731 0 72.0726 14.7768 1065 164.068 645.208 461.966
732 0 75.1386 14.8659 1117 161.941 647.097 464.498
733 0 76.2978 17.3793 1326 159.808 648.502 458.652
734 0 80.3287 16.5072 1326 161.327 649.34 459.174
735 1 42.2822 10.6428 450 163.958 650.4 478.987
736 0 47.415 13.1393 623 160.191 651.465 477.284
737 0 45.4562 12.2976 559 163.472 651.404 476.902
738 0 51.2697 15.6232 801 151.821 650 480.385
739 0 49.0642 14.3689 705 158.989 648.87 480.417
740 0 51.1092 14.694 751 156.792 648.153 483.719
741 0 54.1781 13.7325 744 158.172 648.078 483.129
742 0 56.0971 14.4393 810 156.64 647.21 482.083
743 0 57.0432 16.0755 917 156.017 645.666 478.803
744 0 59.0656 12.6131 745 163.321 644.412 480.523
745 0 60.1094 13.5253 813 163.986 642.978 477.242
746 0 64.0423 15.7708 1010 156.846 641.221 475.706
747 0 67.1624 17.1673 1153 153.144 639.995 477.065
748 0 65.0572 15.0944 982 161.225 638.098 470.584
749 0 68.1035 12.5544 855 165.553 637.599 472.775
750 0 71.1396 14.8862 1059 161.433 636.559 470.513
751 0 71.0737 14.295 1016 165.589 635.726 468.171
752 0 76.1032 15.4396 1175 157.843 635.757 467.709
753 0 76.1795 14.2296 1084 160.148 634.456 470.007
754 0 78.2473 14.2497 1115 161.646 633.754 463.523
755 0 81.1245 16.6164 1348 155.746 633.779 464.307
756 0 83.1135 15.6894 1304 159.1 633.413 458.695
757 1 44.1056 10.6109 468 160.528 635.049 481.795
758 0 44.129 11.9876 529 159.864 635.072 479.323
759 0 44.1048 10.5884 467 162.281 636.319 478.467
760 0 48.0448 11.1146 534 158.165 636.099 479.221
761 0 46.0899 11.4559 528 160.956 638.411 477.686
762 0 51.1395 15.0764 771 152.023 638.974 477.162
763 0 53.086 15.1452 804 152.042 640.109 475.845
764 0 55.1222 15.765 869 148.005 639.904 474.153
765 0 54.0865 13.4045 725 155.659 641.048 474.458
766 0 58.2146 15.2711 889 153.054 642.441 471.826
767 0 59.1996 16.6386 985 148.207 644.312 473.915
768 0 62.1784 16.0345 997 152.526 644.17 474.714
769 0 61.1194 15.3797 940 156.851 644.701 472.809
770 0 65.1746 18.2893 1192 146.875 644.495 475.565
771 0 67.0704 18.3688 1232 145.603 644.502 477.11
772 0 70.2539 17.5933 1236 148.845 644.598 475.279
773 0 71.3037 15.8477 1130 152.914 643.885 476.166
774 0 72.22 15.3697 1110 156.107 643.986 473.718
775 0 75.2012 14.7205 1107 158.579 642.399 473.547
776 0 80.1241 16.6741 1336 153.983 641.351 474.981
777 0 83.2836 15.5613 1296 156.725 639.977 473.215
778 1 43.171 13.7824 595 158.454 639.395 489.526
779 0 45.1902 10.9316 494 161.294 637.206 490.551
780 0 48.1204 14.1312 680 155.062 635.659 488.107
781 0 46.1595 14.9048 688 156.888 634.651 485.827
782 0 49.1146 16.1663 794 151.868 633.651 484.623
783 0 52.0847 15.2252 793 154.369 632.199 481.965
784 0 50.0386 14.269 714 155.833 631.211 482.44
785 0 54.0753 14.6647 793 153.772 632.032 480.366
786 0 52.0244 15.6273 813 151.186 630.924 479.17
787 0 56.0382 14.6686 822 153.776 629.58 476.471
788 0 58.028 15.9406 925 152.349 629.344 471.866
789 0 57.0655 15.4735 883 152.512 629.597 471.925
790 0 60.0678 13.9676 839 158.416 629.341 466.356
791 0 63.0455 14.0692 887 155.468 630.52 467.445
792 0 65.0895 16.2853 1060 150.929 631.159 464.476
793 0 66.1638 15.9604 1056 149.583 633.209 465.762
794 0 69.0598 18.5491 1281 146.011 634.262 460.236
795 0 75.1376 14.2139 1068 152.894 635.934 462.439
796 0 74.1791 17.3903 1290 147.139 637.061 462.194
797 0 77.2107 15.5807 1203 149.236 640.021 456.127
798 0 80.3414 16.8157 1351 146.536 642.289 454.21
799 1 44.0769 11.2531 496 153.435 643.833 475.123
800 0 46.2221 10.7092 495 154.875 645.501 473.992
801 0 46.0854 14.7335 679 147.673 646.37 475.37
802 0 47.0781 8.58149 404 160.171 648.074 475.653
803 0 49.2335 11.7603 579 154.499 648.572 476.817
804 0 49.1458 15.0166 738 149.176 648.44 474.45
805 0 51.2303 14.0152 718 153.21 647.398 477.802
806 0 54.2253 15.8229 858 147.669 648.147 478.987
807 0 52.1565 14.3415 748 153.568 647.453 478.682
808 0 55.273 18.9242 1046 145.663 647.716 477.291
809 0 60.1477 16.2267 976 149.194 646.689 478.281
810 0 61.1854 20.3317 1244 142.284 646.086 473.997
811 0 62.4275 14.2565 890 155.181 645.744 476.26
812 0 62.3307 14.8402 925 155.662 644.442 475.364
813 0 68.2246 17.9701 1226 148.33 643.045 473.745
814 0 67.2457 13.815 929 160.095 641.686 470.616
815 1 38.0297 8.99298 342 164.292 641 486.023
816 0 36.0554 10.2065 368 163.742 639.981 484.802
817 0 39.0691 10.1615 397 164.39 638.738 484.486
818 0 41.1759 11.0745 456 164.029 638.046 482.217
819 0 42.0724 10.7909 454 161.093 637.707 483.313
820 0 40.037 13.1378 526 163.169 637.418 478.852
821 0 43.1433 11.3111 488 165.504 637.113 476.08
822 0 46.2016 14.2852 660 156.808 635.791 474.965
823 0 45.1997 15.1107 683 145.47 635.764 474.827
824 0 50.3666 14.7717 744 151.839 635.374 473.339
825 0 51.1423 15.4471 790 151.161 636.152 472.678
826 0 52.1377 17.3387 904 148.488 637.621 471.874
827 0 53.0958 14.3326 761 157.742 638.258 469.821
828 0 53.1359 13.6631 726 158.587 640.103 470.977
829 0 56.0658 15.9455 894 151.632 641.255 472.058
830 0 58.0981 17.6942 1028 149.382 642.955 467.09
831 0 62.1675 18.0802 1124 147.697 644.407 467.65
832 0 63.1125 14.8306 936 156.615 646.191 467.307
833 0 64.0925 12.8096 821 158.706 648.236 470.368
834 0 66.0829 16.7214 1105 151.46 648.699 468.238
835 0 70.0549 16.9438 1187 150.784 650.194 466.483
836 0 71.1582 17.1027 1217 151.097 650.435 465.785
837 0 74.1522 16.1964 1201 150.114 651.617 467.635
838 0 76.2304 15.7155 1198 152.278 651.093 464.072
839 0 77.3001 11.1255 860 162.349 650.359 466.184
840 0 83.3381 20.0389 1670 144.371 651.013 464.242
841 0 88.31 16.7478 1479 151.01 650.98 460.038
842 1 47.2234 11.9432 564 153.115 649.966 482.895
843 0 44.1679 9.84878 435 158.513 648.347 482.175
844 0 49.1987 13.6386 671 148.666 647.429 482.711
845 0 52.1072 12.6854 661 150.626 645.997 481.106
846 0 52.148 15.0725 786 146.599 644.823 482.407
847 0 53.0841 15.353 815 147.694 642.415 480.679
848 0 56.1779 15.6289 878 146.883 640.267 481.935
849 0 56.0878 16.7951 942 146.219 639.13 477.89
850 0 57.2425 15.6003 893 149.517 637.473 475.265
851 0 61.1772 16.6565 1019 145.268 636.512 475.095
852 0 62.1047 16.3273 1014 145.653 635.864 474.576
853 0 65.1169 18.6741 1216 141.234 635.51 472.573
854 0 64.0728 13.9373 893 152.671 634.789 469.785
855 0 69.1373 17.4435 1206 145.692 634.422 465.67
856 0 70.2062 17.2634 1212 144.365 634.209 465.744
857 0 72.1783 16.002 1155 148.998 635.278 461.725
858 0 76.1579 16.6496 1268 146.029 635.447 462.462
859 0 77.0948 13.5418 1044 151.137 636.084 458.847
860 1 40.0645 10.9573 439 148.415 636.774 475.713
861 0 44.018 9.90505 436 152.333 636.966 472.553
862 0 44.0857 11.3869 502 147.233 638.588 474.371
863 0 46.1266 13.5497 625 141.68 641.138 476.592
864 0 44.1988 12.7379 563 147.162 642.915 472.052
865 0 50.2714 13.9841 703 139.654 644.294 470.851
866 0 51.1073 14.1271 722 138.271 645.213 473.212
867 0 53.1546 14.4484 768 137.84 646.793 472.168
868 0 52.0532 11.1232 579 145.585 646.827 474.763
869 0 54.0582 12.3941 670 142.31 648.157 473.297
870 0 58.2129 14.928 869 135.307 648.018 475.245
871 0 62.1365 18.9743 1179 129.24 648.579 472.272
872 0 63.0524 16.2246 1023 133.809 648.427 473.412
873 0 66.0839 13.6796 904 137.437 648.64 473.142
874 0 66.1145 13.5825 898 139.448 648.924 474.118
875 0 68.1769 14.5357 991 137.38 648.523 476.277
876 0 69.2282 15.5283 1075 137.3 647.544 472.034
877 0 70.2333 14.6512 1029 133.251 646.5 472.643
878 0 76.1193 17.223 1311 134.802 644.814 468.084
879 0 77.445 16.2051 1255 138.814 643.178 472.394
880 0 78.2149 12.0054 939 146.693 641.798 470.163
881 0 82.1278 14.4044 1183 140.66 640.307 469.319
882 1 43.0129 12.9728 558 139.611 639.127 484.821
883 0 42.2162 11.0147 465 141.708 637.583 484.422
884 0 44.0939 12.0878 533 140.086 635.912 479.989
885 0 44.1545 12.0939 534 142.013 635.045 475.584
886 0 46.2822 15.1246 700 135.56 634.989 475.797
887 0 48.1001 14.054 676 137.58 634.593 475.451
888 0 48.2683 11.2082 541 143.307 634.854 475.416
889 0 51.1463 12.3567 632 140.672 634.024 474.361
890 0 53.076 11.5495 613 146.45 635.316 470.418
891 0 53.1236 17.6193 936 136.237 635.494 468.142
892 0 57.1141 13.867 792 140.798 636.12 468.241
893 0 57.1264 13.1463 751 144.333 637.483 464.794
894 0 58.1187 13.1799 766 147.234 638.53 466.102
895 0 58.1818 13.5266 787 148.324 639.909 464.983
896 0 61.1587 13.931 852 146.527 641.075 465.995
897 0 66.0797 15.9807 1056 142.092 643.123 464.559
898 0 69.395 18.8054 1305 136.455 645.421 465.805
899 0 65.2434 15.9863 1043 147.889 646.156 462.714
900 0 69.1274 14.1767 980 148.526 647.795 467.603
901 0 72.1283 18.2453 1316 141.885 648.774 465.514
902 0 74.1982 18.1271 1345 144.054 648.975 465.453
903 0 75.2183 16.8576 1268 146.507 649.338 465.886
904 0 74.1664 16.5304 1226 151.379 649.725 461.896
905 0 79.1985 19.9499 1580 141.495 650.052 468.226
906 0 80.3573 17.4222 1400 147.254 649.261 465.108
907 0 84.3939 18.8165 1588 145.336 647.923 459.398
908 0 84.6146 17.4083 1473 149.405 647.895 461.149
909 0 86.4585 18.3672 1588 148.554 646.952 461.403
910 0 87.3727 17.9576 1569 151.994 645.82 457.185
911 0 90.2824 18.3203 1654 151.828 644.965 458.521
912 0 91.3796 16.0867 1470 158.459 643.616 456.148
913 0 92.3244 18.5108 1709 154.637 641.988 452.869
914 0 97.3749 19.2349 1873 152.148 640.643 454.192
915 0 96.3713 16.9449 1633 159.486 639.544 452.468
916 0 97.2991 19.3013 1878 155.267 638.519 450.858
917 0 99.4688 18.9306 1883 156.833 637.437 448.434
918 0 99.4688 18.8501 1875 153.673 636.434 448.272
919 0 101.383 17.7249 1797 160.903 636.203 444.346
920 0 104.368 17.4192 1818 161.482 635.696 444.723
921 0 106.288 19.9082 2116 156.183 635.937 442.473
922 0 108.654 18.5819 2019 159.929 635.344 438.064
923 0 107.488 17.5461 1886 163.99 634.781 437.725
924 0 112.425 18.8659 2121 159.414 635.194 438.001
925 0 110.557 17.1947 1901 164.968 636.678 434.314
926 0 116.51 19.4233 2263 155.928 636.611 435.836
927 0 115.308 18.2555 2105 161.763 638.271 432.889
928 0 117.471 20.2347 2377 155.992 639.375 433.477
929 0 120.264 19.3241 2324 158.061 641.209 434.407
930 0 120.626 18.9345 2284 159.047 643.581 434.449
931 0 120.359 17.506 2107 163.978 645.269 432.458
932 0 122.298 18.6103 2276 160.482 646.846 434.553
933 0 125.386 19.093 2394 159.066 648.885 432.357
934 0 127.259 18.372 2338 161.8 649.962 433.194
935 0 127.703 19.561 2498 159.082 649.978 433.848
936 0 130.286 19.3114 2516 158.31 651.071 433.453
937 0 131.335 18.7688 2465 158.61 650.738 433.607
938 0 134.378 19.4601 2615 156.52 650.816 433.668
939 0 136.377 22.4524 3062 150.685 650.533 431.542
940 0 135.576 16.7138 2266 161.863 650.006 437.365
941 0 139.59 18.6976 2610 157.652 649.398 433.164
942 0 139.475 19.7383 2753 154.573 648.771 436.86
943 0 139.234 16.7129 2327 162.528 647.154 433.309
944 0 142.66 21.2393 3030 152.015 646.191 430.751
945 0 145.346 22.677 3296 148.285 645.232 431.096
946 0 143.491 18.259 2620 156.525 643.743 434.637
947 0 144.434 19.746 2852 153.838 642.554 429.643
948 0 147.417 18.0712 2664 155.565 640.641 433.492
949 0 147.464 19.4692 2871 153.5 639.783 426.083
950 0 149.48 18.5978 2780 154.59 639.337 429.007
951 0 151.627 20.6032 3124 149.786 638.515 426.697
952 0 152.519 20.8761 3184 149.738 637.281 421.205
953 0 152.546 18.6566 2846 153.549 636.911 420.67
954 0 154.532 17.841 2757 153.696 636.329 426.74
955 0 158.363 19.5121 3090 150.33 636.069 417.817
956 0 157.226 20.4483 3215 148.316 636.424 416.107
957 0 156.373 19.6197 3068 149.746 636.777 414.783
958 0 158.347 21.4024 3389 146.376 636.701 411.41
959 0 162.229 21.2539 3448 143.86 637.386 416.908
960 0 164.367 23.4231 3850 139.91 638.753 413.878
961 0 162.316 20.1582 3272 146.806 639.487 409.719
962 0 162.359 19.0011 3085 148.042 641.468 419.858
