time division length width area intensity CMx CMy
0 0 48.0844 10.3984 500 135.308 586.21 459.252
1 0 49.1535 11.1284 547 133.32 587.589 459.046
2 0 51.205 9.74514 499 134.808 588.182 460.331
3 0 56.4829 14.0573 794 125.344 589.771 463.46
4 0 53.1351 15.9405 847 127.985 588.687 460.478
5 0 53.3334 13.9687 745 131.687 588.16 458.805
6 0 56.3639 14.3354 808 131.402 586.886 460.045
7 0 57.1089 14.0959 805 135.188 587.727 461.311
8 0 57.0468 15.4259 880 140.514 585.907 462.46
9 0 60.124 13.3557 803 145.922 585.019 462.751
10 0 60.0579 12.8876 774 151.933 584.419 457.699
11 0 62.1003 15.6199 970 151.431 582.951 457.078
12 0 63.119 16.4134 1036 145.676 582.477 460.688
13 0 66.0569 15.1082 998 149.561 581.681 456.023
14 0 69.0964 15.1238 1045 154.761 579.832 454.448
15 0 67.0773 15.102 1013 160.722 578.242 446.573
16 0 72.0884 16.7017 1204 154.439 576.481 451.002
17 0 76.2961 14.719 1123 158.362 575.635 452.104
18 0 76.1272 14.1868 1080 155.509 574.709 450.774
19 0 80.1206 14.0913 1129 156.392 573.845 449.265
20 1 39.0877 9.5938 375 162.501 573.68 465.696
21 0 44.0299 10.3793 457 158.713 573.05 464.162
22 0 44.0243 9.31305 410 155.859 572.195 465.027
23 0 45.0746 8.43046 380 159.968 572.182 463.016
24 0 47.021 9.44259 444 154.052 573.173 459.91
25 0 48.0971 10.562 508 152.469 573.217 459.045
26 0 51.0407 12.7154 649 150.394 573.102 456.043
27 0 52.0257 11.6865 608 151.383 573.622 457.268
28 0 53.0803 12.7354 676 149.232 573.586 451.768
29 0 55.0841 12.8531 708 147.253 576.065 454.11
30 0 57.0175 12.3471 704 145.212 577.564 452.773
31 0 59.0811 12.9822 767 140.605 579.478 453.37
32 0 63.315 15.9678 1011 134.148 580.429 448.706
33 0 64.094 15.4461 990 135.918 581.751 448.682
34 0 66.0266 12.5707 830 139.011 583.317 450.031
35 0 66.0606 14.411 952 134.913 585.15 448.462
36 0 71.2517 17.8662 1273 125.159 585.446 450.896
37 0 69.2245 10.4587 724 137.301 586.195 451.957
38 0 74.2708 12.5621 933 135.579 585.712 448.737
39 0 80.1981 13.741 1102 134.983 585.068 450.692
40 0 81.3106 14.6229 1189 136.283 584.569 447.25
41 1 43.2209 13.5814 587 134.211 584.46 471.109
42 0 44.0459 12.4416 548 142.677 583.812 467.182
43 0 47.2151 12.7713 603 142.177 582.68 468.871
44 0 45.1175 12.7223 574 144.193 582.584 467.875
45 0 46.3263 11.2679 522 148.812 579.914 468.898
46 0 50.0273 14.4321 722 143.799 577.809 466.74
47 0 49.0328 11.89 583 154.448 576.997 467.141
48 0 51.0971 15.7543 805 144.899 575.494 466.533
49 0 52.0205 12.9949 676 151.947 573.084 466.42
50 0 53.0862 14.241 756 148.894 571.939 465.168
51 0 54.0856 15.1796 821 148.907 570.803 463.37
52 0 55.0411 11.5005 633 156.493 570.066 464.524
53 0 59.024 12.0968 714 151.954 569.158 463.971
54 0 59.0384 12.9238 763 152.236 568.299 462.317
55 0 62.0509 15.1972 943 146.001 567.779 458.427
56 0 64.1077 13.4929 865 149.138 567.445 457.576
57 0 67.0584 17.2834 1159 139.511 566.896 458.496
58 0 65.0759 11.0333 718 156.925 566.221 454.82
59 0 69.0894 17.3109 1196 142.691 566.57 452.489
60 0 70.1642 15.0362 1055 148.588 566.939 449.22
61 0 71.0719 12.3537 878 155.17 567.226 447.22
62 0 76.213 16.7163 1274 143.739 567.992 447.688
63 0 79.2491 16.5175 1309 145.704 570.804 445.509
64 1 42.0621 11.2215 472 149.932 574.424 462.03
65 0 43.0912 11.1624 481 151.988 576.464 462.443
66 0 45.0309 13.3686 602 142.186 579.189 463.488
67 0 47.0242 10.484 493 142.925 581.432 465.947
68 0 49.1681 13.0369 641 135 582.629 466.93
69 0 53.2076 13.062 695 133.849 583.938 465.757
70 0 58.3875 14.0441 820 131.307 584.251 464.516
71 0 52.114 12.511 652 139.288 585.379 465.635
72 0 56.1727 16.3247 917 131.551 585.069 462.534
73 0 57.1935 17.7468 1015 129.49 584.783 462.812
74 0 55.0573 13.7675 758 143.613 585.128 464.256
75 0 60.2042 17.64 1062 133.346 583.94 462.917
76 0 60.2035 15.3313 923 140.609 582.991 461.293
77 0 61.1445 15.1608 927 142.655 582.266 461.937
78 0 60.0994 12.7455 766 150.291 581.7 461.352
79 0 64.0889 15.026 963 145.919 580.779 462.052
80 0 68.1727 14.8593 1013 148.416 579.494 461.418
81 0 73.0827 17.5144 1280 142.602 577.791 462.352
82 0 72.1342 15.2078 1097 153.568 574.176 456.796
83 0 73.2139 13.8362 1013 154.181 572.848 456.314
84 0 77.0997 14.5526 1122 152.027 571.51 456.827
85 1 41.195 10.778 444 155.205 569.664 474.032
86 0 42.166 10.933 461 158.208 569.26 471.722
87 0 42.0598 12.2682 516 154.494 568.233 471.531
88 0 44.1262 12.6229 557 154.901 566.077 468.878
89 0 45.1507 12.6687 572 158.703 566.528 455.631
90 0 47.0415 13.031 613 152.039 568.525 456.031
91 0 47.091 13.5482 638 149.685 568.795 462.931
92 0 51.0329 14.3045 730 154.173 569.047 463.696
93 0 52.1221 17.0369 888 146.801 569.012 462.386
94 0 52.0732 13.9035 724 154.797 568.986 462.142
95 0 56.1736 16.3244 917 145.853 569.368 458.582
96 0 56.0398 15.3462 860 149.307 570.264 459.155
97 0 57.0472 14.9876 855 154.804 571.301 458.615
98 0 60.0461 16.1376 969 149.116 573.256 457.677
99 0 61.1362 14.6885 898 151.091 575.909 453.217
100 0 65.4863 14.2625 934 143.794 576.254 457.251
101 0 65.0771 15.7967 1028 146.91 576.783 455.555
102 0 67.0858 15.6218 1048 146.082 578.449 455.844
103 0 69.1307 15.5358 1074 143.209 580.02 459.402
104 0 71.157 15.1777 1080 143.26 580.389 457.366
105 0 73.1357 15.9293 1165 141.264 581.717 450.415
106 0 75.2325 15.7778 1187 143.924 581.334 452.928
107 0 78.1023 15.1084 1180 141.969 582.388 454.008
108 0 79.0883 15.6028 1234 141.724 581.939 454.411
109 0 81.1523 15.8837 1289 154.151 579.928 449.441
110 0 84.3493 15.5188 1309 155.283 579.573 450.463
111 0 86.1353 15.5221 1337 159.098 579.193 453.034
112 0 88.1752 18.1003 1596 156.367 578.425 450.754
113 0 93.2307 19.3498 1804 152.326 577.288 450.207
114 0 95.2024 17.1634 1634 157.676 575.528 450.237
115 1 50.1058 9.55977 479 168.33 573.637 472.856
116 0 54.0871 9.24435 500 166.62 572.412 472.774
117 0 57.1066 13.361 763 160.031 570.921 466.275
118 0 59.0699 13.5941 803 156.643 569.878 467.179
119 0 64.1046 17.2531 1106 148.416 567.846 462.813
120 0 64.1536 14.6056 937 155.32 567.027 461.13
121 0 67.2684 15.401 1036 154.07 565.264 459.76
122 0 67.1461 14.6546 984 156.39 564.108 456.763
123 0 70.2315 14.7939 1039 153.698 563.333 457.144
124 0 75.1581 16.738 1258 149.164 563.172 454.352
125 0 76.2984 18.4277 1406 146.975 563.195 451.133
126 0 80.0867 15.4707 1239 152.599 563.179 449.072
127 0 79.1678 15.7261 1245 152.442 563.83 448.259
128 0 84.423 16.6424 1405 150.065 564.171 442.617
129 0 86.096 15.204 1309 154.05 565.241 445.312
130 0 91.2931 16.5949 1515 147.411 567.127 442.535
131 0 98.3763 21.0925 2075 135.04 567.156 443.877
132 1 48.1422 10.3444 498 153.414 568.769 463.62
133 0 49.0594 11.2924 554 151.536 571.764 463.74
134 0 49.1047 8.98082 441 151.993 574.701 465.875
135 0 55.2629 13.9877 773 141.017 577.03 464.4
136 0 54.3589 10.5594 574 150.051 578.432 462.474
137 0 57.4335 12.6059 724 148.518 578.572 460.598
138 0 58.6227 14.0389 823 152.704 578.719 458.916
139 0 61.26 15.3281 939 144.597 579.621 463.599
140 0 62.0569 12.2146 758 153.761 579.063 464.772
141 0 62.0674 13.3081 826 154.473 578.619 463.012
142 0 66.0688 14.0762 930 150.518 578.691 465.082
143 0 69.1154 15.1486 1047 150.055 577.315 462.579
144 0 73.0908 15.6107 1141 147.938 576.472 463.528
145 0 74.1457 14.9975 1112 149.494 575.559 463.281
146 0 77.1019 17.1461 1322 145.658 574.536 461.314
147 0 78.1327 16.9071 1321 147.833 573.318 459.41
148 0 81.0949 14.9085 1209 150.653 571.874 459.467
149 0 83.2644 15.3847 1281 152.72 569.995 456.104
150 0 86.1427 15.0448 1296 152.461 568.106 456.353
151 0 90.1591 15.395 1388 153.053 566.957 452.674
152 1 43.0423 10.5478 454 157.28 565.619 474.714
153 0 48.1237 12.7588 614 151.381 564.839 473.29
154 0 49.1592 11.6357 572 154.797 563.253 469.916
155 0 52.1794 11.2496 587 155.804 562.608 467.407
156 0 52.1261 11.3571 592 153.985 562.748 468.302
157 0 55.3215 13.8463 766 149.188 562.07 464.238
158 0 57.2097 14.1235 808 148.145 561.335 462.666
159 0 59.2439 15.5459 921 141.862 560.787 462.89
160 0 61.2659 14.331 878 143.689 560.654 460.567
161 0 61.3368 12.2602 752 150.73 561.184 457.928
162 0 63.2122 14.5542 920 145.855 561.601 455.255
163 0 65.4173 12.4126 812 149.823 562.547 455.683
164 0 66.1301 12.7174 841 150.509 563.803 453.084
165 0 71.3012 12.2438 873 148.624 565.953 456.34
166 0 73.3103 12.9995 953 149.809 568.086 452.76
167 0 76.2225 13.4606 1026 149.636 569.686 450.625
168 0 79.2792 13.6101 1079 147.615 572.242 451.374
169 0 82.3899 14.6256 1205 147.716 573.231 448.898
170 1 43.164 11.8386 511 146.247 573.84 471.785
171 0 43.343 10.2439 444 148.631 574.707 470.597
172 0 46.1105 10.0194 462 148.634 574.426 471.968
173 0 48.5714 14.8853 723 142.043 576.867 470.047
174 0 51.2829 14.3128 734 139.041 575.943 471.223
175 0 51.0918 11.4891 587 143.809 578.073 472.571
176 0 51.1802 13.1692 674 144.51 576.285 470.145
177 0 54.2002 12.2324 663 145.015 576.902 471.299
178 0 57.1575 14.3813 822 141.12 576.073 472.064
179 0 54.0776 11.391 616 151.726 574.744 471.12
180 0 59.1394 12.4452 736 148.447 574.185 472.719
181 0 58.0493 11.6108 674 151.384 572.699 470.47
182 0 61.0592 13.7899 842 146.002 571.751 468.496
183 0 63.1021 14.2151 897 144.464 570.886 468.093
184 0 68.066 14.9855 1020 139.73 568.768 470.246
185 0 68.0575 17.0885 1163 138.762 567.23 462.825
186 0 70.1618 12.4427 873 148.71 565.971 463.166
187 0 72.1036 13.3697 964 146.558 565.056 461.328
188 0 74.2007 12.4797 926 144.924 563.99 463.352
189 0 77.0944 11.3238 873 148.575 563.386 459.54
190 1 41.1194 12.184 501 144.802 562.818 473.892
191 0 43.0142 12.089 520 144.967 562.325 472.096
192 0 45.0394 11.39 513 143.058 561.684 472.234
193 0 45.1428 10.6772 482 145.154 560.734 470.417
194 0 46.1014 13.6655 630 137.586 559.971 463.987
195 0 47.0748 12.1084 570 145.279 559.433 462.825
196 0 50.1429 15.9544 800 133.372 560.872 464.386
197 0 50.0699 12.4826 625 142.515 562.142 464.373
198 0 52.3407 13.393 701 139.897 564.827 462.301
199 0 55.0671 13.6197 750 141.361 565.892 461.935
200 0 54.2111 12.1193 657 140.95 567.381 464.402
201 0 55.1187 13.4256 740 139.762 569.831 463.453
202 0 57.254 13.9379 798 138.721 570.853 462.763
203 0 57.254 13.8156 791 121.63 570.837 462.895
204 0 62.0847 12.5957 782 144.344 572.985 462.102
205 0 61.2431 14.8262 908 137.622 574.043 460.946
206 0 65.2835 14.0464 917 135.83 573.977 465.336
207 0 68.3171 15.9257 1088 136.676 574.359 461.855
208 0 69.345 14.2764 990 141.425 574.329 463.31
209 0 73.343 14.8753 1091 142.405 573.358 456.938
210 0 76.2577 14.1363 1078 145.946 573.261 461.62
211 1 36.1868 9.17463 332 146.822 573.898 480.828
212 0 41.3477 13.4953 558 144.921 572.631 477.05
213 0 40.4474 8.1093 328 156.78 571.601 477.308
214 0 43.3882 9.77225 424 152.179 570.054 475.649
215 0 45.606 13.4851 615 145.202 569.033 475.607
216 0 44.1322 10.7631 475 151.278 568.116 474.019
217 0 47.1186 14.75 695 140.807 566.659 474.245
218 0 49.0605 13.4324 659 143.677 566.742 469.29
219 0 49.2259 13.4279 661 144.006 565.806 470.511
220 0 52.096 14.646 763 139.093 564.78 471.059
221 0 54.0663 13.058 706 141.884 563.581 472.034
222 0 54.0451 14.4139 779 140.811 562.008 469.86
223 0 56.1633 13.069 734 144.901 560.929 466.823
224 0 56.263 12.2283 688 148.163 560.711 466.299
225 0 58.1628 13.2903 773 147.163 560.018 457.624
226 0 62.2228 17.8873 1113 136.851 558.705 452.546
227 0 63.2688 15.6633 991 141.202 559.214 456.765
228 0 64.2574 13.9906 899 145.947 560.228 460.264
229 0 68.0593 13.1356 894 145.569 561.508 460.944
230 0 67.1372 13.7331 922 147.733 562.131 455.58
231 0 72.1808 14.9347 1078 141.043 564.023 455.988
232 0 71.2086 13.2287 942 147.307 565.61 453.807
233 0 77.1344 16.1666 1247 140.235 567.395 453.213
234 0 78.2199 13.705 1072 146.824 568.668 453.438
235 1 40.1265 8.12431 326 149.684 569.856 472.923
236 0 45.0631 13.8029 622 139.232 572.113 470.482
237 0 48.1487 10.966 528 141.638 572.672 472.907
238 0 50.2292 14.5732 732 139.343 575.18 472.492
239 0 51.3009 12.144 623 146.807 575.154 471.101
240 0 54.2238 16.6348 902 138.017 575.661 474.511
241 0 54.241 13.6797 742 149.101 576.098 473.794
242 0 55.0958 14.9739 825 148.103 575.535 472.442
243 0 54.0269 12.4382 672 152.211 575.688 473.824
244 0 59.2032 15.4215 913 146.574 574.816 472.211
245 0 63.0872 17.9751 1134 140.268 574.373 470.768
246 0 62.0563 14.1807 880 148.923 572.683 473.761
247 0 62.1189 16.6455 1034 146.386 572.515 469.646
248 0 65.1259 15.9076 1036 147.723 571.312 469.528
249 0 67.139 17.4712 1173 145.553 570.182 465.661
250 0 68.1079 14.6092 995 152.558 569.064 466.807
251 0 72.2867 17.4721 1263 145.258 567.473 464.083
252 0 74.1336 16.0251 1188 147.449 566.018 467.134
253 0 77.1558 15.8122 1220 149.698 564.728 457.679
254 0 80.1576 16.8917 1354 142.487 562.858 452.173
255 0 82.2173 15.8361 1302 145.978 561.624 453.325
256 1 38.0176 10.1532 386 155.443 561.764 470.298
257 0 45.0339 12.3462 556 146.622 561.182 468.906
258 0 42.0911 11.9503 503 155.789 560.497 466.429
259 0 46.0707 10.4405 481 157.11 560.135 463.994
260 0 49.2016 12.5809 619 154.774 559.95 462.604
261 1 98.3321 16.1392 1587 149.679 560.221 435.599
262 1 51.1864 13.0503 668 148.921 561.319 462.229
263 0 54.0645 15.0931 816 144.577 562.214 459.906
264 0 52.1158 13.2398 690 150.923 563.197 458.457
265 0 57.2397 14.4655 828 145.094 564.815 458.11
266 0 54.0846 13.6268 737 150.096 566.966 457.37
267 0 56.1442 12.9844 729 153.606 568.674 454.929
268 0 60.1853 16.4326 989 144.284 570.853 455.831
269 0 61.0652 12.7569 779 156.316 573.205 458.603
270 0 64.0486 15.5975 999 152.34 573.958 454.765
271 0 66.1272 16.1204 1066 151.336 575.009 456.429
272 0 70.1288 16.7406 1174 149.127 574.934 456.618
273 0 71.1828 15.8184 1126 153.508 575.488 452.274
274 0 75.2824 16.3252 1229 145.645 575.094 457.151
275 0 78.2558 15.8966 1244 149.672 574.539 455.302
276 0 80.2982 19.4027 1558 143.681 574.285 451.675
277 1 41.0643 12.1273 498 156.157 574.309 474.833
278 0 41.0832 9.68767 398 160.198 573.907 476.947
279 0 44.0655 12.6403 557 158.458 573.379 474.436
280 0 47.0493 13.6453 642 155.304 572.165 473.966
281 0 48.1838 13.6768 659 157.476 570.959 472.09
282 0 49.046 11.3159 555 164.697 570.065 472.721
283 0 54.1589 16.8209 911 149.783 568.597 472.806
284 0 55.1045 17.6211 971 146.411 564.847 472.001
285 0 55.1271 13.7863 760 158.209 563.764 469.617
286 0 56.0384 14.5614 816 157.265 561.821 466.924
287 0 59.0525 15.9519 942 152.589 561.103 465.858
288 0 60.0805 17.3268 1041 150.123 560.289 463.443
289 0 63.0391 17.2591 1088 148.268 559.517 461.836
290 0 66.0953 18.2464 1206 144.917 558.561 457.954
291 0 67.2418 17.043 1146 146.737 558.149 457.401
292 0 70.1368 15.5696 1092 150.445 557.783 454.599
293 0 72.3697 17.4106 1260 146.379 558.712 455.507
294 0 74.3401 16.3035 1212 147.986 558.52 454.997
295 1 41.2121 12.739 525 153.086 559.13 470.192
296 0 40.2449 13.07 526 154.587 560.226 467.766
297 0 43.1545 16.522 713 146.718 561.297 466.467
298 0 41.2405 13.5061 557 155.551 562.46 465.874
299 0 46.1316 15.6726 723 144.823 564.003 467.131
300 0 48.1201 14.9833 721 144.95 566.926 465.831
301 0 46.064 16.0863 741 144.286 568.318 463.404
302 0 50.308 18.188 915 136.133 570.516 461.017
303 0 52.0371 16.4306 855 141.428 572.053 456.529
304 0 50.1401 16.0151 803 140.21 573.441 462.465
305 0 52.0864 14.0152 730 141.821 573.584 464.556
306 0 57.3078 17.3624 995 133.277 574.281 465.782
307 0 59.1345 15.9636 944 137.468 574.631 464.587
308 0 58.1511 16.1992 942 141.142 573.785 465.952
309 0 60.231 15.9884 963 141.433 573.592 465.093
310 0 63.1005 17.0205 1074 141.125 572.632 463.993
311 0 64.1755 14.1331 907 149.458 572.363 464.841
312 0 64.1755 14.0396 901 134.92 572.366 464.781
313 0 67.4856 17.1888 1160 146.708 569.609 461.866
314 0 67.4856 17.1888 1160 133.886 566.609 461.866
315 1 35.1641 13.1384 462 153.465 567.589 479.344
316 0 34.1475 13.9103 475 152.307 566.362 479.459
317 0 38.0447 11.2762 429 156.072 565.394 478.054
318 0 36.073 11.5599 417 158.221 564.211 478.165
319 0 38.0868 12.4453 474 157.523 562.532 475.207
320 0 40.132 16.0221 643 150.451 562.495 473.073
321 0 43.4314 13.009 565 153.816 561.88 471.285
322 0 42.0873 15.159 638 149.571 561.835 469.735
323 0 46.2426 17.8191 824 142.549 560.752 466.211
324 0 48.3729 15.6906 759 147.353 560.511 464.842
325 0 49.3003 17.8295 879 142.379 559.418 462.461
326 0 49.1 18.0041 884 143.882 559.195 460.276
327 0 52.5844 16.1455 849 146.066 559.697 459.342
328 0 53.2748 17.2877 921 142.464 560.223 458.886
329 0 58.289 16.1265 940 142.944 560.769 458.604
330 0 58.2781 16.4728 960 145.475 562.304 456.097
331 0 61.5377 18.7527 1154 140.355 564.039 454.845
332 0 64.867 19.1161 1240 138.135 565.394 452.659
333 0 65.4695 14.7397 965 151.22 566.615 453.821
334 0 68.2026 15.1021 1030 148.538 568.708 453.761
335 0 70.7721 17.5775 1244 144.515 571.488 454.174
336 0 73.5486 16.778 1234 145.053 572.969 455.029
337 0 74.2773 14.8498 1103 151.757 573.368 449.886
338 0 77.3666 19.3753 1499 142.464 574.496 453.694
339 0 82.4818 17.4705 1441 148.459 574.661 453.21
340 0 86.5007 20.8091 1800 139.356 574.688 455.549
341 0 86.7366 18.4236 1598 148.925 574.518 450.866
342 0 92.1929 20.1751 1860 144.648 573.869 452.922
343 0 95.3617 20.0185 1909 146.245 572.808 450.21
344 1 46.2833 13.0285 603 160.823 572.761 474.33
345 0 50.5909 13.283 672 158.626 572.054 474.378
346 0 51.4564 13.8953 715 161.741 570.917 471.625
347 0 54.493 14.0569 766 159.151 570.043 472.486
348 0 53.5382 13.99 749 165.331 568.223 468.439
349 0 59.3902 17.444 1036 154.92 566.943 467.889
350 0 58.4625 15.3261 896 162.481 566.296 466.895
351 0 63.5143 15.3666 976 160.814 564.578 466.27
352 0 66.4406 17.399 1156 155.83 562.997 463.36
353 0 68.3202 15.0907 1031 160.99 562.301 462.976
354 0 71.4247 16.3389 1167 157.091 561.946 461.64
355 0 75.3335 17.7876 1340 151.171 561.031 460.272
356 0 74.472 16.0732 1197 159.236 560.232 456.266
357 0 79.6499 17.9285 1428 152.938 559.276 455.328
358 0 82.4026 15.9582 1315 154.854 559.508 453.021
359 0 83.4134 17.5631 1465 157.459 559.094 449.654
360 0 87.3028 16.5516 1445 159.016 559.721 450.976
361 0 89.4021 16.3978 1466 159.207 559.776 447.902
362 0 90.4281 16.4108 1484 160.7 560.325 446.949
363 0 97.359 17.2763 1682 153.209 561.85 447.392
364 0 101.269 17.1327 1735 152.951 563.772 442.989
365 0 104.478 19.1331 1999 151.18 565.229 442.583
366 0 106.267 16.5997 1764 159.68 566.57 436.369
367 1 59.1836 11.8952 704 157.369 569.17 463.139
368 0 62.1498 9.97589 620 157.787 571.356 463.811
369 0 63.0599 10.7675 679 157.044 572.184 463.58
370 0 64.0726 11.1748 716 159.782 572.789 459.82
371 0 68.1304 13.4595 917 153.168 574.394 461.348
372 0 69.1246 15.624 1080 149.797 573.823 459.662
373 0 71.1084 12.4458 885 157.788 573.694 462.035
374 0 73.1285 15.2745 1117 152.517 573.756 460.725
375 0 75.1414 11.9907 901 160.808 573.697 456.691
376 0 77.0825 13.1028 1010 157.723 573.659 456.572
377 0 80.173 12.3483 990 159.637 573.048 458.114
378 0 83.2225 13.9626 1162 157.26 571.952 451.928
379 0 88.2019 15.6006 1376 150.789 570.883 458.4
380 0 91.2179 14.0762 1284 156.969 570.414 451.51
381 1 51.0499 8.36436 427 149.396 569.756 476.11
382 0 51.0874 10.1199 517 148.346 568.702 472.578
383 0 54.0702 8.6924 470 145.717 567.396 476.949
384 0 56.0815 10.4134 584 144.875 565.76 472.99
385 0 57.0306 13.4314 766 140.654 564.646 469.979
386 0 59.0774 11.7473 694 144.246 562.939 466.921
387 0 61.1813 11.8173 723 143.676 560.429 468.048
388 0 61.1783 9.51318 582 148.651 560.055 469.16
389 0 63.1735 9.21273 582 149.873 559.43 466.204
390 0 68.2873 11.2027 765 145.536 559.183 463.244
391 0 72.12 13.4359 969 139.91 558.958 461.045
392 0 70.2854 9.71753 683 148.969 558.81 459.772
393 0 74.213 11.5074 854 147.563 559.119 455.749
394 0 76.2858 10.6311 811 148.905 559.598 455.649
395 1 39.1209 12.4742 488 141.027 560.234 472.883
396 0 39.1039 11.917 466 142.165 561.979 472.702
397 1 85.3315 10.008 854 149.699 562.445 453.979
398 1 42.3065 9.24207 391 148.182 564.414 470.593
399 0 44.1027 11.0877 489 143.027 566.538 472.677
400 0 45.1578 10.8287 489 143.1 568.282 473.583
401 0 47.2554 7.42772 351 154.04 569.764 472.103
402 0 48.6479 11.1002 540 149.141 571.561 470.978
403 0 48.0483 11.1971 538 146.4 573.901 471.812
404 0 48.1498 11.5473 556 150.574 575.288 472.59
405 0 50.2287 11.4078 573 151.373 574.82 472.264
406 0 51.1088 10.6831 546 153.725 575.755 474.22
407 0 51.1243 10.8363 554 130.029 575.765 474.128
408 0 55.1162 13.7346 757 150.614 574.749 471.532
409 0 57.2807 14.6123 837 148.995 574.601 469.723
410 0 61.3378 13.7762 845 149.993 573.956 472.073
411 0 59.4989 12.4876 743 155.087 573.04 472.491
412 0 63.5115 13.4936 857 153.294 571.517 471.743
413 0 64.5071 12.6343 815 156.828 570.92 470.945
414 0 64.4466 13.8719 894 156.891 569.06 467.624
415 0 65.4954 13.5735 889 159.639 568.065 464.395
416 0 71.1302 14.1712 1008 157.761 567.059 465.088
417 0 71.8163 12.4484 894 160.051 565.8 467.911
418 0 72.9659 12.8553 938 161.32 564.242 465.322
419 0 77.7548 12.8867 1002 160.799 563.126 462.623
420 0 77.0054 12.5446 966 164.696 562.411 460.468
421 0 82.1069 13.4946 1108 161.444 561.573 456.633
422 0 82.8979 12.063 1000 164.399 561.046 454.942
423 0 85.0462 10.8059 919 168.281 560.114 453.109
424 0 89.8825 11.2369 1010 165.754 560.39 451.902
425 0 94.7344 13.2476 1255 161.49 559.967 444.103
426 0 98.9006 13.9635 1381 159.133 559.254 441.719
427 0 102.827 14.1694 1457 156.975 560.03 442.433
428 1 54.1144 10.8289 586 152.017 560.788 467.749
429 0 57.4066 11.7931 677 154.425 561 462.183
430 0 59.3929 12.1227 720 154.135 561.243 460.36
431 0 61.3714 13.4102 823 151.776 562.942 458.383
432 0 62.3323 13.0911 816 155.583 564.325 458.422
433 0 64.3492 14.2504 917 154.402 566.606 459.256
434 0 64.4556 12.9081 832 159.916 568.363 460.972
435 0 67.5932 13.1374 888 160.149 570.855 459.257
436 0 70.2977 13.5993 956 159.793 571.575 458.767
437 0 71.3532 13.1038 935 162.57 573.358 459.387
438 0 73.5467 12.2643 902 165.299 573.85 459.621
439 0 76.5124 13.854 1060 162.507 574.554 458.244
440 0 80.622 13.9416 1124 159.923 574.65 458.73
441 0 81.3406 12.9087 1050 166.194 574.52 456.119
442 1 40.2059 6.88953 277 162.668 573.628 478.372
443 0 44.3765 9.3518 415 159.831 573.865 476.904
444 0 44.3862 9.21458 409 163.2 572.932 476.359
445 0 46.2145 10.5162 486 162.121 572.66 473.784
446 0 48.5143 12.7179 617 155.668 570.562 471.366
447 0 49.3668 12.7616 630 158.606 570.759 472.314
448 0 51.4072 12.8387 660 159.174 569.912 474.862
449 0 55.3434 15.7742 873 151.096 567.832 472.885
450 0 52.3831 11.1105 582 164.529 567.163 474.225
451 0 58.4054 12.4304 726 161.39 565.227 471.437
452 0 56.5265 11.9236 674 162.819 564.243 471.433
453 0 56.4083 12.1082 683 165.315 562.742 468.141
454 0 60.386 11.3934 688 166.949 562.269 459.419
455 0 60.3574 13.2875 802 161.843 561.717 464.961
456 0 63.5111 14.5014 921 157.236 561.163 463.775
457 0 65.4876 12.3993 812 162.144 560.534 461.701
458 0 66.4974 12.7524 848 159.169 560.479 461.226
459 0 66.4324 12.7498 847 160.379 560.723 458.667
460 0 70.5842 13.4166 947 155.024 560.881 454.731
461 0 73.7305 13.1967 973 152.559 560.773 454.657
462 0 73.7305 13.1832 972 135.349 560.762 454.609
463 0 76.3673 10.0698 769 164.938 562.307 449.934
464 0 80.6395 12.0784 974 157.488 563.574 445.553
465 0 84.7593 13.3319 1130 155.178 565.198 444.778
466 1 49.3928 10.9328 540 142.898 567.069 464.924
467 0 46.4452 10.2486 476 151.489 569.261 460.687
468 0 48.5851 11.8761 577 148.539 570.834 463.913
469 0 51.4723 11.3459 584 147.039 572.807 465.952
470 0 51.2415 13.2119 677 143.285 575.027 465.378
471 0 54.2443 13.4761 731 141.019 574.758 467.642
472 0 55.022 16.139 888 135.63 572.279 470.793
473 0 55.0382 13.318 733 145.015 572.769 468.767
474 0 58.2047 14.7411 858 141.614 572.911 469.652
475 0 57.14 13.0731 747 146.213 572.406 470.25
476 0 60.1403 12.7203 765 146.991 572.209 470.878
477 0 61.2136 13.8041 845 143.622 571.621 471.679
478 0 64.1024 14.274 915 141.957 570.69 472.29
479 0 67.1326 11.8869 798 146.9 570.346 471.281
480 0 70.3753 13.6269 959 142.541 571.139 468.967
481 0 71.4264 13.6364 974 143.167 569.771 467.913
482 0 69.4396 13.1481 913 145.867 568.157 467.125
483 1 35.0975 10.4281 366 142.557 567.358 484.186
484 0 40.0929 9.30339 373 142.483 566.987 483.756
485 0 38.0221 9.88898 376 143.077 565.606 481.362
486 0 43.0399 12.3606 532 137.427 563.959 478.357
487 0 43.0789 12.4655 537 136.203 563.516 478.631
488 0 47.1819 10.8728 513 137.749 562.267 477.854
489 0 44.1021 10.2489 452 142.055 562.65 473.075
490 0 46.0622 11.8535 546 138.352 561.877 472.581
491 0 49.1513 10.8441 533 144.328 561.735 470.347
492 0 52.1339 14.0216 731 136.446 561.852 466.83
493 0 50.1265 11.471 575 138.03 561.903 462.318
494 0 53.0397 13.8764 736 131.808 561.47 464.726
495 0 55.2707 11.7784 651 135.183 562.614 464.169
496 0 55.178 11.2182 619 137.509 563.523 462.291
497 0 57.0674 12.9671 740 135.435 564.353 458.509
498 0 60.1195 14.1052 848 134.925 566.221 457.954
499 0 62.0739 13.7095 851 136.2 568.021 459.176
500 0 59.0408 11.0093 650 144.778 570.509 457.094
501 0 64.0937 15.0873 967 133.41 572.023 459.526
502 0 63.292 11.8814 752 140.302 573.441 457.302
503 0 69.0938 14.227 983 135.87 574.965 453.87
504 0 70.1343 12.3335 865 140.312 576.321 457.928
505 0 71.1896 12.3754 881 142.638 576.125 457.304
506 0 76.0833 13.7218 1044 138.952 576.405 455.604
507 0 76.209 12.1114 923 144.02 575.143 458.054
508 0 79.2356 15.7379 1247 137.901 574.921 456.893
509 0 81.1755 14.1545 1149 142.299 573.56 456.823
510 0 84.0701 12.7751 1074 151.326 574.053 410.494
511 0 91.2057 15.4486 1409 136.502 572.726 450.151
512 1 46.1204 11.8819 548 139.914 572.285 465.969
513 0 51.1626 11.0237 564 138.707 571.812 469.23
514 0 49.0227 13.8915 681 137.768 570.358 467.069
515 0 56.8905 12.5328 713 136.334 567.506 470.6
516 0 52.1318 14.0797 734 137.114 566.488 469.041
517 0 52.0732 11.9639 623 146.433 566.604 465.796
518 0 56.0814 14.2115 797 141.257 565.238 468.004
519 0 57.2229 14.1552 810 136.437 563.809 467.3
520 0 60.134 16.7293 1006 133.901 561.233 472.562
521 0 57.1624 15.8496 906 139.834 559.949 470.348
522 0 61.2192 13.9989 857 142.483 559.354 468.268
523 0 61.3596 14.6676 900 142.207 558.526 465.451
524 0 64.1365 17.2912 1109 134.801 558.405 462.226
525 0 68.2561 16.6432 1136 133.968 558.447 463.328
526 0 69.1684 15.7008 1086 137.551 558.6 461.171
527 0 70.2192 14.7538 1036 143.328 559.337 460.208
528 0 72.2623 13.5894 982 145.983 560.012 458.144
529 0 75.1477 18.0179 1354 137.13 561.558 455.843
530 0 77.2838 15.9413 1232 140.33 562.458 457.607
531 0 80.3864 17.0924 1374 137.221 563.683 450.868
532 0 81.2289 15.6225 1269 144.359 565.462 451.587
533 0 84.2311 17.9031 1508 137.302 567.912 447.958
534 0 88.2208 18.8051 1659 134.475 569.992 448.716
535 0 90.4275 16.1124 1457 140.113 571.204 450.601
536 0 96.5059 19.2942 1862 132.868 572.612 445.723
537 1 52.424 12.0937 634 138.325 574.879 465
538 0 51.4437 11.9937 617 135.348 575.332 462.264
539 0 51.3063 11.4411 587 142.371 574.319 462.295
540 0 56.3224 13.2274 745 136.393 574.958 468.436
541 0 56.3799 15.165 855 136.508 574.317 466.942
542 0 58.0766 14.412 837 134.158 573.735 471.996
543 0 58.1369 14.9991 872 135.3 573.392 471.265
544 0 60.284 13.8345 834 137.778 571.39 469.179
545 0 63.278 12.7691 808 139.723 569.853 468.538
546 0 65.1223 13.2673 864 138.73 570.499 468.468
547 0 70.2311 21.1445 1485 122.082 569.142 471.477
548 0 69.1108 11.9952 829 142.253 568.17 467.891
549 0 71.1876 14.9605 1065 136.694 567.435 465.315
550 0 71.1876 15.1431 1078 136.674 566.47 465.171
551 0 78.1374 17.2133 1345 130.883 564.96 463.975
552 0 81.1608 18.0013 1461 130.308 563.864 456.895
553 0 83.4534 16.2007 1352 133.654 562.368 454.51
554 0 86.1788 14.6788 1265 137.342 561.735 456.093
555 0 89.2478 19.9333 1779 126.185 561.73 452.931
556 0 91.1528 14.4483 1317 139.617 561.014 447.778
557 0 93.4135 15.2976 1429 137.855 560.62 448.204
558 0 98.1886 15.7961 1551 135.563 560.909 447.767
559 1 50.0662 12.7831 640 133.552 561.748 471.312
560 0 51.117 9.5076 486 141.942 561.23 465.475
561 0 54.1161 12.6765 686 134.719 561.985 465.223
562 0 57.1856 13.8147 790 130.994 562.038 463.832
563 0 59.13 15.4406 913 129.526 563.782 462.805
564 0 60.1216 15.4021 926 128.026 565.396 462.922
565 0 65.2184 17.8631 1165 122.698 567.53 461.175
566 0 63.1507 15.9301 1006 129.256 568.892 459.946
567 0 67.1054 16.72 1122 126.113 571.026 461.611
568 0 69.2953 14.6907 1018 130.771 572.512 459.896
569 0 70.1054 14.6779 1029 130.907 573.256 458.487
570 0 75.2292 16.4697 1239 126.446 574.734 459.952
571 0 78.1264 15.8461 1238 134.028 575.855 459.434
572 0 79.2537 14.5356 1152 136.418 576.449 460.792
573 0 81.1481 15.3546 1246 135.127 576.148 460.461
574 0 85.0802 14.3277 1219 136.139 575.555 458.878
575 0 87.1255 15.8737 1383 137.48 574.545 454.338
576 0 91.2175 16.1044 1469 137.924 573.848 456.792
577 1 45.0538 10.1878 459 139.736 574.209 485.952
578 0 49.0408 11.5414 566 145.058 573.905 479.544
579 0 54.0609 11.5055 622 139.232 573.35 482.511
580 0 55.0973 12.9589 714 139.444 572.186 479.59
581 0 55.0731 14.2719 786 136.111 570.02 477.669
582 0 59.601 15.2514 909 136.091 565.886 478.294
583 0 58.1438 15.3241 891 136.753 565.02 478.373
584 0 59.2692 13.464 798 144.506 564.044 473.966
585 0 64.2123 14.1094 906 141.396 562.72 472.736
586 0 65.2088 15.8721 1035 137.573 561.63 472.744
587 0 67.1304 15.3284 1029 138.411 560.403 472.623
588 0 70.0649 14.5437 1019 140.712 560.662 469.27
589 0 70.1212 13.0061 912 143.372 559.629 470.868
590 0 76.0865 15.5481 1183 137.769 559.488 467.366
591 0 78.1552 13.1149 1025 142.065 559.222 467.217
592 0 81.2453 14.5485 1182 138.861 557.34 460.379
593 1 43.0651 11.2388 484 144.944 555.988 478.07
594 0 43.095 9.6531 416 145.178 556.26 479.411
595 0 48.109 9.45769 455 144.013 556.422 478.813
596 0 44.0734 9.12115 402 149.458 557.316 475.699
597 0 44.0734 9.18922 405 142.672 557.341 475.704
598 0 51.1599 15.4027 788 134.964 560.133 472.885
599 0 53.32 11.4591 611 142.426 562.182 468.823
600 0 52.3498 11.9962 628 142.045 563.522 470.728
601 0 53.0409 11.8776 630 144.848 565.132 474.203
602 0 53.0445 10.3309 548 150.204 565.633 472.135
603 0 56.0557 15.0208 842 139.67 566.931 474.575
604 0 59.0451 14.2434 841 139.712 567.366 475.493
605 0 60.1097 13.2591 797 143.304 567.523 473.013
606 0 63.0798 13.1262 828 144.367 566.693 470.937
607 0 64.152 15.6815 1006 140.921 565.697 470.984
608 0 67.039 14.4543 969 143.147 565.785 471.19
609 0 67.1767 13.859 931 146.7 565.938 467.692
610 0 72.1979 13.74 992 145.803 564.917 471.444
611 0 72.0953 14.8692 1072 146.18 564.202 470.495
612 0 75.2234 13.7457 1034 150.505 563.035 467.88
613 0 78.0573 15.3093 1195 147.403 561.181 466.514
614 0 81.0709 16.9728 1376 144.969 560.356 465.004
615 0 85.167 14.9001 1269 148.954 558.903 464.059
616 1 46.0544 10.4007 479 147.169 556.495 484.129
617 0 47.0884 11.4041 537 146.803 555.866 482.212
618 0 45.0602 10.2308 461 150.349 555.03 481.085
619 0 48.0921 11.2908 543 147.611 553.727 479.755
620 0 50.057 13.205 661 146.168 553.605 474.396
621 0 51.0247 14.6008 745 141.785 553.907 473.191
622 0 56.1422 17.8119 1000 135.294 552.168 468.013
623 0 56.1283 17.0324 956 131.346 552.188 467.91
624 0 56.0515 15.1289 848 143.369 552.133 468.213
625 0 60.1032 16.2054 974 140.537 553.035 465.388
626 0 60.0326 13.8092 829 146.573 553.077 464.906
627 0 61.135 13.0204 796 149.039 554.381 462.247
628 0 65.1254 14.4491 941 144.087 555.386 463.995
629 0 67.0855 16.7697 1125 138.677 556.592 461.18
630 0 68.097 13.5395 922 147.937 558.457 456.412
631 0 72.111 14.9908 1081 144.913 560.321 456.142
632 0 73.0375 13.4178 980 150.47 561.58 452.906
633 0 75.2441 15.4298 1161 146.716 563.454 451.336
634 0 76.177 13.2455 1009 151.352 565.55 448.736
635 0 82.1956 15.3901 1265 146.331 566.659 452.292
636 0 84.1852 15.941 1342 145.221 568.63 452.06
637 0 84.1474 14.13 1189 149.933 568.957 451.637
638 1 45.095 10.7329 484 149.882 569.754 471.742
639 0 48.1836 10.1487 489 148.712 569.29 472.836
640 0 50.2046 14.2218 714 142.975 569.496 469.293
641 0 52.113 11.3407 591 148.14 568.646 472.386
642 0 52.1898 14.6006 762 142.434 569.29 469.961
643 0 54.3898 13.5503 737 146.387 569.347 469.246
644 0 55.269 12.2673 678 144.229 568.063 472.792
645 0 57.3118 12.1267 695 143.668 566.842 472.371
646 0 61.1872 16.1635 989 134.149 567.725 470.501
647 0 62.3855 17.8407 1113 131.029 565.551 471.624
648 0 61.2611 13.6302 835 141.224 564.714 469.451
649 0 65.2247 15.025 980 135.238 562.497 470.162
650 0 64.1409 12.3634 793 143.231 561.607 467.574
651 0 67.2063 15.6087 1049 136.279 560.617 465.786
652 0 70.1192 16.0441 1125 135.204 559.991 466.709
653 0 73.1018 14.5961 1067 138.485 559.43 464.148
654 0 71.0901 12.027 855 143.906 559.992 445.897
655 0 78.3909 15.4227 1209 133.535 559.787 455.932
656 0 77.2394 14.824 1145 137.661 559.664 450.212
657 0 81.2085 14.2103 1154 137.654 559.354 449.802
658 0 83.2038 12.5595 1045 142.889 559.965 445.102
659 1 46.3269 13.34 618 122.762 558.273 472.992
660 0 43.2644 10.9097 472 133.678 559.358 469.129
661 0 51.2411 11.5727 593 130.737 559.59 468.123
662 0 50.1362 11.9873 601 134.15 562.126 467.369
663 0 49.2806 13.9406 687 139.144 563.128 463.857
664 0 52.3091 17.6069 921 130.832 564.197 464.061
665 0 57.0676 17.2427 984 132.244 566.066 465.784
666 0 54.1161 13.6189 737 142.09 568.678 467.152
667 0 55.1042 13.5561 747 142.561 568.941 465.439
668 0 57.1028 14.8329 847 140.287 571.144 467.11
669 0 58.0883 13.8927 807 142.312 572.032 469.197
670 0 63.1489 16.2948 1029 134.312 572.847 468.997
671 0 65.1191 17.1071 1114 134.585 572.662 466.106
672 0 64.0834 18.7724 1203 131.776 572.551 469.188
673 0 68.0401 15.5643 1059 138.954 572.428 468.125
674 0 68.0933 18.3572 1250 135.405 571.635 466.909
675 0 69.0982 14.0669 972 144.685 570.828 467.123
676 0 73.07 17.4627 1276 137.281 569.903 464.502
677 0 75.1637 17.1625 1290 138.873 569.495 459.541
678 0 76.1113 13.27 1010 145.802 568.431 467.016
679 1 41.1327 10.9645 451 142.257 566.523 483.827
680 0 40.0833 8.53223 342 149.939 564.547 479.942
681 0 45.1109 12.0813 545 141.565 563.174 478.279
682 0 45.0534 10.987 495 145.978 561.81 477.812
683 0 46.0419 13.0099 599 142.706 560.336 475.815
684 0 48.0487 11.197 538 141.716 558.901 477.374
685 0 48.0821 10.4197 501 141.281 559.066 469.359
686 0 51.0099 12.8799 657 138.817 558.272 464.63
687 0 54.0696 11.7071 633 139.014 557.668 462.409
688 0 50.1284 13.226 663 139.757 557.374 464.157
689 0 54.2412 14.2143 771 141.821 556.546 466.818
690 0 58.2926 14.5302 847 139.476 556.066 466.809
691 0 60.0774 16.9448 1018 135.945 556.925 464.388
692 0 60.0896 14.1289 849 143.484 557.198 462.299
693 0 60.1201 13.5728 816 145.871 557.98 460.048
694 0 62.0986 14.9601 929 143.349 559.029 459.439
695 0 66.065 15.3182 1012 139.654 560.191 460.219
696 0 65.1215 14.8031 964 146.43 561.309 455.387
697 0 71.2159 15.8111 1126 140.617 563.677 459.988
698 0 74.1587 17.6109 1306 138.764 566.103 457.995
699 0 73.1307 14.9458 1093 147.032 568.189 456.642
700 0 77.3331 14.1466 1094 149.344 570.046 447.725
701 0 81.4356 16.0126 1304 146.702 571.187 450.896
702 1 42.1105 9.47507 399 153.386 573.053 476.173
703 0 41.1604 8.84345 364 153.503 573.478 478.544
704 0 44.136 9.78792 432 154.69 572.958 476.389
705 0 42.1662 13.1622 555 145.78 572.223 478.443
706 0 47.0735 12.7673 601 147.624 572.161 477.549
707 0 49.0136 12.2211 599 155.815 571.347 467.038
708 0 50.0196 13.5347 677 153.347 570.551 472.994
709 0 51.0747 13.6467 697 147.857 572.931 471.824
710 0 53.0185 11.562 613 150.653 571.021 473.023
711 0 56.2076 17.9869 1011 136.674 569.938 473.052
712 0 57.1395 13.4933 771 151.571 569.366 472.536
713 0 59.1487 14.7256 871 149.366 567.986 470.851
714 0 62.1489 17.7155 1101 142.54 566.256 468.115
715 0 62.1767 16.2601 1011 146.525 564.73 468.153
716 0 64.1251 16.0468 1029 145.931 562.232 468.186
717 0 66.0589 15.0472 994 149.154 561.568 467.32
718 0 70.1484 16.3368 1146 147.271 560.556 462.534
719 0 71.0848 15.7277 1118 149.635 560.109 461.216
720 0 73.0925 16.4449 1202 148.896 559.832 461.495
721 0 76.1066 15.7148 1196 153.245 559.317 460.637
722 0 78.0912 17.185 1342 150.429 558.445 459.275
723 0 79.098 16.5364 1308 153.84 559.197 457.898
724 0 84.1961 17.7087 1491 151.239 559.221 456.016
725 0 85.1531 17.5214 1492 151.79 559.711 455.259
726 0 85.1932 15.0834 1285 163.671 560.247 452.398
727 0 91.2073 16.5667 1511 156.048 561.391 453.799
728 0 92.3292 14.47 1336 164.201 562.635 449.936
729 0 97.2827 15.2134 1480 159.579 564.315 450.986
730 0 100.32 17.3743 1743 155.508 565.867 447.983
731 0 104.525 14.2549 1490 162.329 568.307 447.463
732 1 50.0875 10.4018 521 165.161 571.455 471.434
733 0 54.0465 11.5456 624 159.08 572.532 472.963
734 0 57.0763 13.5433 773 153.272 573.259 474.038
735 0 60.2658 16.6927 1006 148.764 571.699 466.785
736 0 60.1733 12.8296 772 154.386 574.93 472.452
737 0 61.1663 14.1908 868 152.215 574.43 472.421
738 0 65.1763 15.2356 993 149.97 573.28 470.988
739 0 65.1121 16.0492 1045 149.077 572.601 473.23
740 0 66.299 15.3999 1021 153.22 572.253 471.575
741 0 72.3406 16.2288 1174 149.221 570.338 469.899
742 0 75.3955 12.6798 956 156.446 569.642 468.838
743 0 77.4547 17.8685 1384 146.493 567.834 467.608
744 0 77.6677 14.3174 1112 157.543 566.914 464.788
745 1 42.3292 12.9698 549 153.26 564.381 483.24
746 0 42.301 9.95248 421 160.817 562.841 481.888
747 0 43.272 11.4393 495 157.125 561.414 482.271
748 0 46.467 13.9454 648 152.073 559.988 478.304
749 0 46.272 12.5346 580 157.984 559.322 476.369
750 0 46.4771 12.0489 560 162.527 558.452 474.68
751 0 49.4319 15.1926 751 154.694 557.325 475.899
752 0 47.2671 13.1804 623 160.247 557.461 473.536
753 0 51.2539 13.9697 716 157.184 557.008 475.175
754 0 53.3221 15.8096 843 151.569 555.372 470.37
755 0 53.182 13.388 712 156.733 556.84 475.861
756 0 52.1661 12.4219 648 160.272 556.691 474.176
757 0 57.2138 15.8528 907 149.555 557.018 473.998
758 0 58.364 12.7133 742 157.976 557.031 470.323
759 0 64.2398 15.5511 999 146.261 558.147 472.269
760 0 62.1683 16.4232 1021 147.461 557.998 469.076
761 0 65.3619 17.8544 1167 145.099 559.752 465.056
762 0 64.394 15.4983 998 151.497 560.758 460.373
763 0 68.4396 18.2058 1246 144.719 561.946 459.157
764 0 71.5843 14.4166 1032 149.933 564.281 463.125
765 0 73.5059 15.6314 1149 148.455 565.111 462.339
766 0 76.4426 14.9786 1145 150.941 566.431 461.522
767 0 76.8089 15.6492 1202 149.231 568.479 462.487
768 1 44.7927 12.6806 568 146.403 568.183 479.85
769 0 43.4826 12.8787 560 150.657 569.12 477.688
770 0 46.3073 14.5765 675 145.36 568.708 477.147
771 0 47.3183 11.7291 555 150.404 569.71 481.007
772 0 50.0754 16.3154 817 140.088 569.87 483.186
773 0 51.0998 14.9707 765 143.382 568.225 483.936
774 0 51.0859 16.2276 829 144.043 569.373 474.206
775 0 54.2699 14.6306 794 144.316 568.23 482.938
776 0 54.1847 10.7041 580 155.779 566.464 480.734
777 0 58.8255 16.1325 949 142.721 565.164 479.616
778 0 57.5119 15.875 913 147.999 563.945 474.725
779 0 59.1796 17.4722 1034 144.033 561.664 474.365
780 0 65.6932 18.2363 1198 141.165 560.148 472.78
781 0 66.541 16.2306 1080 144.718 558.894 472.731
782 0 67.6591 15.519 1050 147.172 557.964 468.625
783 0 70.8662 14.9436 1059 145.857 556.937 471.022
784 0 69.6651 14.2683 994 151.164 555.99 464.105
785 1 36.641 10.6984 392 149.207 556.543 480.454
786 0 38.5016 10.2593 395 146.967 555.858 479.894
787 0 39.5623 12.9669 513 143.793 555.255 477.733
788 0 40.3915 12.2798 496 145.849 554.984 475.698
789 0 43.3945 14.518 630 140.851 555.287 473.354
790 0 43.33 12.2548 531 148.226 554.874 470.866
791 0 46.6003 15.8368 738 141.775 555.163 469.755
792 0 47.3769 15.3028 725 143.015 555.854 469.026
793 0 48.326 15.4989 749 142.79 557.316 468.613
794 0 49.2763 17.8788 881 138.696 558.528 463.633
795 0 50.5372 14.1282 714 148.101 560.268 462.81
796 0 52.2739 12.9128 675 151.037 561.982 454.652
797 0 54.3435 14.7948 804 142.279 564.544 466.735
798 0 54.2707 14.5382 789 146.433 565.995 463.759
799 0 57.3719 14.5367 834 146.691 566.968 462.583
800 0 60.4896 13.8867 840 148.121 568.76 460.964
801 0 62.409 13.6038 849 149.4 569.839 461.173
802 0 61.7722 12.9508 800 152.469 571.281 462.278
803 0 64.508 13.6107 878 150.087 571.779 463.169
804 0 68.4892 16.9516 1161 143.102 571.995 460.777
805 0 71.5299 13.8823 993 149.418 571.653 464.879
806 0 72.5058 14.8402 1076 150.23 572.242 460.98
807 0 74.3627 16.1237 1199 149.118 571.656 460.972
808 0 79.6827 15.9508 1271 149.205 571.911 462.865
809 0 80.6264 17.116 1380 149.12 570.97 462.064
810 0 82.5553 17.2854 1427 148.191 570.16 458.568
811 0 86.5958 17.8531 1546 146.631 569.743 461.566
812 0 88.5109 16.7211 1480 151.395 568.291 458.117
813 0 92.3226 16.8864 1559 151.869 566.841 456.468
814 1 46.2991 8.94186 414 158.63 566.068 476.623
815 0 48.3293 9.8491 476 155.756 565.095 476.601
816 0 51.3279 9.87768 507 156.582 563.744 473.371
817 0 54.7134 11.6242 636 152.162 562.64 473.159
818 0 52.3426 10.928 572 157.934 561.159 468.862
819 0 58.6135 13.4952 791 148.121 561.491 469.922
820 0 59.1649 13.3863 792 149.899 561.159 467.203
821 0 61.2193 14.1459 866 149.546 561.391 465.132
822 0 63.3519 13.938 883 149.81 560.798 463.814
823 0 63.3519 13.9065 881 136.471 560.778 463.919
824 0 66.6414 12.9349 862 153.492 561.005 460.139
825 0 70.4179 15.4506 1088 147.451 561.002 457.381
826 0 71.6175 13.8374 991 152.486 562.513 456.401
827 0 73.3218 14.866 1090 149.882 562.992 456.313
828 0 76.3963 14.3986 1100 150.551 564.923 455.348
829 0 81.48 16.9244 1379 142.046 566.298 456.643
830 0 82.4924 14.6923 1212 148.481 567.584 451.75
831 0 85.3233 14.2282 1214 147.807 569.35 453.488
832 0 88.3348 14.9771 1323 147.306 570.928 449.967
833 1 43.1309 10.8507 468 143.318 574.274 473.885
834 0 47.1159 10.6758 503 140.207 574.716 475.877
835 0 48.0873 9.33718 449 142.443 575.982 476.272
836 0 49.0349 10.9514 537 143.03 575.873 472.559
837 0 54.0404 11.5469 624 139.76 576.085 474.952
838 0 55.0552 15.4935 853 132.36 575.424 472.865
839 0 56.0165 12.2464 686 138.557 573.953 474.051
840 0 57.1716 14.7626 844 134.4 574.177 473.482
841 0 58.1016 10.4472 607 142.311 574.707 472.526
842 0 61.0477 13.3338 814 137.319 573.553 474.67
843 0 62.1225 11.9602 743 139.139 570.864 476.89
844 0 65.086 12.7831 832 140.345 569.118 471.859
845 0 67.1347 13.3612 897 139.979 567.952 472.527
846 0 71.0771 14.0129 996 139.113 566.524 471.287
847 0 73.1322 13.1132 959 141.081 565.05 470.63
848 0 71.0478 11.3022 803 146.654 563.603 470.442
849 0 74.0757 11.9607 886 147.573 562.409 466.792
850 0 79.0497 14.3581 1135 143.505 561.589 466.62
851 0 78.1327 13.6051 1063 147.029 560.564 462.33
852 0 81.101 13.9209 1129 145.246 560.017 465.383
853 0 85.1202 16.882 1437 140.546 559.669 460.294
854 0 88.1349 13.3205 1174 149.176 559.354 457.452
855 0 89.2503 14.2409 1271 148.893 558.869 455.694
856 0 91.1021 16.1357 1470 144.968 558.806 450.983
857 1 45.1336 8.30867 375 154.107 560.792 475.112
858 0 51.0844 12.1759 622 144.055 560.627 475.045
859 0 50.2093 10.3566 520 149.602 561.21 473.088
860 0 55.1557 11.259 621 147.622 562.393 472.122
861 0 55.1188 12.8994 711 144.346 562.453 470.709
862 0 56.0906 12.7829 717 145.423 564.05 469.83
863 0 59.0896 15.3834 909 142 565.363 469.537
864 0 57.1046 13.519 772 146.469 566.443 470.259
865 0 63.0385 15.8316 998 142.343 567.644 465.235
866 0 63.0932 13.8208 872 148.362 569.009 466.087
867 0 65.0889 14.365 935 145.371 570.337 468.318
868 0 68.184 13.9476 951 146.936 570.603 468.635
869 0 67.4454 13.7445 927 150.083 571.518 463.368
870 0 72.1647 13.8711 1001 147.18 571.396 467.65
871 0 71.0777 11.2412 799 156.309 573.114 465.557
872 0 75.1404 15.2648 1147 147.496 572.779 465.556
873 0 75.0871 12.6387 949 153.296 572.961 463.783
874 1 41.0317 10.7722 442 142.507 572.145 488.489
875 0 42.0224 11.0655 465 147.594 571.034 483.056
876 0 43.1162 12.5243 540 143.659 569.626 483.646
877 0 43.1009 12.5983 543 123.923 568.621 483.6
878 0 46.1046 13.5128 623 141.244 566.679 483.657
879 0 46.0829 12.6728 584 144.959 565.024 483.019
880 0 47.0286 12.4818 587 146.221 563.865 479.484
881 0 46.0735 11.0693 510 151.151 562.435 478.629
882 0 50.0806 14.876 745 142.027 561.164 478.396
883 0 54.0382 13.9161 752 141.734 559.945 477.799
884 0 55.1995 16.0509 886 138.185 558.516 474.36
885 0 56.0189 13.6561 765 144.289 557.868 472.817
886 0 57.0712 15.4894 884 140.538 557.179 471.607
887 0 60.13 17.4123 1047 135.88 556.575 471.955
888 0 60.048 15.854 952 140.53 557.066 466.227
889 0 62.1615 15.8941 988 141.064 556.323 462.576
890 0 64.1669 15.0545 966 143.519 556.995 462.982
891 0 67.0373 16.3044 1093 141.846 557.059 461.691
892 0 69.0189 15.0973 1042 145.528 557.762 460.896
893 0 71.1317 14.185 1009 149.28 559.177 448.608
894 1 36.0304 9.49199 342 153.33 559.535 475.69
895 0 39.0241 13.0945 511 146.986 560.793 473.063
896 0 40.0186 12.2943 492 150.12 563.295 471.927
897 0 41.0149 13.873 569 146.856 564.337 471.956
898 0 43.0808 14.3219 617 141.269 568.558 476.159
899 0 45.0294 15.3899 693 143.87 567.857 470.681
900 0 44.0717 14.8621 655 147.559 569.379 472.754
901 0 47.021 14.2277 669 145.344 570.359 473.118
902 0 51.0497 17.5515 896 137.92 570.68 474.201
903 0 51.0909 14.347 733 146.46 571.187 472.645
904 0 52.111 18.5949 969 139.368 571.915 471.753
905 0 53.1323 15.3767 817 146.268 571.996 472.137
906 0 55.0639 15.364 846 142.865 571.757 476.91
907 0 56.146 15.4775 869 144.658 570.875 473.188
908 0 61.278 15.2094 932 143.102 570.782 475.725
909 0 62.1325 17.9938 1118 138.197 570.093 476.182
910 0 63.2343 17.6803 1118 140.103 568.814 472.127
911 0 65.0662 19.0421 1239 137.333 567.278 473.301
912 0 68.0805 18.2431 1242 137.455 566.142 473.232
913 0 69.0796 19.8322 1370 136.593 564.591 467.747
914 0 68.066 17.6006 1198 141.867 563.51 467.865
915 0 73.1439 18.5388 1356 139.278 562.658 463.021
916 1 36.1165 9.88467 357 152.476 563.798 478.697
917 0 38.0606 9.93153 378 148.095 561.521 481.659
918 0 39.2489 14.4717 568 139.658 562.31 475.886
919 0 42.1976 14.7165 621 138.789 561.947 473.673
920 0 42.0457 13.1048 551 142.163 561.127 474.8
921 0 44.19 15.2976 676 135.976 561.663 473.439
922 0 44.2308 12.6383 559 143.25 560.422 471.392
923 0 46.133 13.7862 636 142.781 560.291 468.585
924 0 46.1494 13.6946 632 143.369 560.584 467.858
925 0 50.1035 15.8871 796 137.454 561.515 466.16
926 0 52.273 14.6921 768 138.203 559.74 465.613
927 0 54.1593 15.6206 846 135.801 561.092 467.352
928 0 53.1635 13.1293 698 142.189 562.252 464.668
929 0 53.1221 13.7608 731 142.531 564.222 464.877
930 0 55.1428 11.7332 647 145.437 566.779 465.082
931 0 57.1746 14.5344 831 141.214 568.509 463.548
932 0 60.1242 15.1852 913 139.591 570.2 462.793
933 0 62.1661 13.287 826 142.829 572.166 458.821
934 0 63.1639 14.6286 924 140.623 573.398 464.314
935 0 70.3252 16.1393 1135 136.125 573.144 465.088
936 0 70.0794 13.5703 951 142.768 574.41 462.818
937 0 70.2056 14.2866 1003 142.08 574.255 462.571
938 0 73.1269 17.0115 1244 137.107 574.13 463.634
939 0 78.1555 15.7506 1231 142.261 573.921 444.577
940 0 81.2467 14.2406 1157 142.981 573.21 453.277
941 0 84.485 16.5947 1402 140.023 572.512 453.369
942 0 85.2455 16.8455 1436 141.556 571.937 456.73
943 0 90.235 18.3188 1653 139.797 570.203 456.04
944 0 91.2322 15.5099 1415 146.567 569.356 453.871
945 0 95.3537 15.217 1451 146.334 568.516 454.569
946 0 98.2405 14.7699 1451 146.715 566.837 455.402
947 0 102.415 15.8083 1619 144.512 566.508 449.521
948 0 104.482 17.5533 1834 142.749 564.664 444.013
949 0 106.378 17.5131 1863 144.053 563.881 443.855
950 0 110.215 17.5385 1933 144.085 563.373 442.207
951 0 114.329 17.021 1946 145.471 562.486 438.534
952 0 118.188 17.3875 2055 145.308 561.291 438.07
953 0 121.252 15.7358 1908 150.364 560.702 432.469
954 1 67.2421 15.7491 1059 140.34 559.195 460.714
955 0 67.1792 12.7123 854 146.139 559.158 462.376
956 0 71.2032 14.3954 1025 146.093 560.54 459.945
957 0 72.147 11.7954 851 150.833 560.984 462.613
958 0 77.3173 15.9602 1234 143.353 559.665 456.938
959 0 75.1586 12.3472 928 153.519 560.117 453.957
960 0 79.212 13.3187 1055 150.42 561.818 453.835
961 0 84.38 16.0702 1356 145.012 562.729 451.412
962 0 87.3521 17.1948 1502 143.063 564.649 448.543
963 0 88.209 14.8851 1313 149.484 566.453 448.58
964 0 90.1522 16.9935 1532 145.796 570.247 446.821
965 0 94.1523 16.9619 1597 145.303 571.093 446.89
966 0 97.172 17.4433 1695 145.913 572.468 444.725
967 0 102.069 15.8618 1619 149.805 573.698 446.721
968 0 104.316 17.5716 1833 145.598 574.514 444.37
969 0 107.134 17.9869 1927 143.295 574.91 444.462
970 1 56.1963 12.4741 701 142.613 574.825 471.984
971 0 59.2469 12.777 757 144.495 574.526 471.474
972 0 60.1985 13.6548 822 146.921 573.446 468.002
973 0 62.1132 13.25 823 146.406 573.281 469.563
974 0 64.1489 15.4173 989 144.966 575.553 463.536
975 0 68.1045 14.3456 977 144.322 574.803 467.167
976 0 70.0821 15.8956 1114 141.411 572.828 468.739
977 0 73.1218 14.8793 1088 145.696 571.586 465.51
978 0 74.0436 13.8972 1029 148.347 570.467 464.099
979 0 79.2258 15.3485 1216 145.431 568.053 451.93
980 0 81.3969 15.3077 1246 146.163 567.218 457.321
981 0 84.2002 17.4703 1471 142.43 565.95 456.013
982 0 87.3799 17.5555 1534 141.808 564.9 460.615
983 0 87.2855 14.1719 1237 153.432 563.2 452.698
984 0 89.1682 17.1474 1529 148.46 561.916 450.595
985 0 93.1962 16.4384 1532 148.704 561.738 451.773
986 0 94.2674 16.2729 1534 149.546 560.435 446.578
987 0 99.1956 15.2023 1508 152.582 559.327 445.979
988 1 47.0422 8.24792 388 162.178 560.276 470.147
989 0 53.0194 14.3344 760 147.617 560.854 467.189
990 0 53.0436 11.3869 604 156.136 560.854 465.286
991 0 57.0855 13.1732 752 151.729 561.618 464.468
992 0 59.16 14.0974 834 150.221 561.225 456.789
993 0 60.054 14.2871 858 149.89 563.578 459.318
994 0 61.1906 12.3058 753 155.943 564.25 457.122
995 0 66.1263 14.0791 931 150.87 565.734 456.472
996 0 69.102 14.3122 989 148.221 567.239 453.641
997 0 69.2313 14.921 1033 147.54 568.987 455.377
998 0 74.1947 17.5215 1300 140.095 570.522 454.642
999 0 77.1786 18.7617 1448 138.482 571.496 454.624
1000 0 78.2312 13.9842 1094 147.612 573.427 457.095
1001 0 82.1133 17.4028 1429 142.475 573.474 452.316
1002 0 86.1934 16.9038 1457 142.581 574.311 454.867
1003 0 90.1403 16.3079 1470 143.794 574.686 455.828
1004 0 90.2293 16.3583 1476 146.742 574.608 452.684
1005 0 90.2421 14.9376 1348 151.583 574.509 453.829
1006 1 44.0494 11.9865 528 151.765 574.214 476.064
1007 0 47.2269 11.9212 563 148.377 572.714 479.563
1008 0 44.0272 10.7206 472 156.333 572.256 478.712
1009 0 50.4548 15.499 782 146.233 572.115 477.747
1010 0 52.0916 15.9719 832 144.367 570.662 477.466
1011 0 55.6155 16.3444 909 143.56 570.435 480.064
1012 0 53.0984 16.347 868 147.894 568.706 478.061
1013 0 56.176 17.196 966 146.529 567.488 477.846
1014 0 61.254 16.603 1017 147.085 565.066 476.1
1015 0 60.0838 14.2967 859 152.092 563.792 478.357
1016 0 62.1963 13.7146 853 154.12 563.124 475.305
1017 0 62.5608 16.3361 1022 150.188 561.695 471.506
1018 0 65.2569 17.6993 1155 147.929 561.281 467.068
1019 0 69.4843 17.0254 1183 147.961 560.82 469.021
1020 0 68.6067 17.5639 1205 149.545 559.925 466.144
1021 0 72.3599 18.0763 1308 147.126 558.772 461.074
1022 0 73.2905 14.9951 1099 155.604 558.297 456.945
1023 0 75.3066 16.9308 1275 151.047 558.483 459.997
1024 0 78.3204 14.9769 1173 149.879 559.399 462.402
1025 0 79.3826 14.0711 1117 154.174 560.032 460.287
1026 1 37.26 11.9163 444 152.345 560.493 477.599
1027 0 41.301 14.1643 585 146.715 562.109 477.889
1028 0 40.3718 11.6418 470 156.057 562.872 475.249
1029 0 41.2751 13.3979 553 151.414 564.333 473.631
1030 0 44.3756 16.2026 719 144.257 565.103 473.712
1031 0 45.0603 14.3807 648 148.715 567.569 478.531
1032 0 46.13 15.1745 700 147.011 567.96 477.446
1033 0 49.1245 15.7762 775 141.721 570.36 481.426
1034 0 50.3004 15.9045 800 144.475 571.059 477.952
1035 0 51.2198 15.5409 796 145.554 571.416 479.356
1036 0 54.1113 17.2053 931 140.621 572.295 478.866
1037 0 57.3988 17.3871 998 141.425 571.719 474.277
1038 0 58.4243 17.8179 1041 143.444 571.5 474.857
1039 0 60.3897 21.3613 1290 136.96 570.978 475.046
1040 0 63.442 15.4945 983 145.428 570.718 475.777
1041 0 64.4076 17.9171 1154 143.392 569.548 475.288
1042 0 69.5578 15.5698 1083 146.769 568.208 473.666
1043 0 71.4945 16.4488 1176 145.009 566.565 470.753
1044 0 75.7969 17.8635 1354 142.722 565.196 468.524
1045 0 76.4162 18.3076 1399 140.026 563.805 469.723
1046 0 79.603 18.0898 1440 143.141 561.594 464.911
1047 0 80.5139 14.7304 1186 151.285 560.169 461.772
1048 0 82.5883 17.7749 1468 144.295 559.658 461.755
1049 1 41.3668 11.2409 465 153.628 558.692 477.46
1050 0 48.5217 10.6756 518 149.239 557.427 479.911
1051 0 48.5899 14.2828 694 145.452 556.984 475.586
1052 0 47.4913 12.1707 578 154.005 557.138 472.581
1053 0 49.5694 13.8795 688 149.201 555.919 471.65
1054 0 52.3856 12.9425 678 151.485 556.159 470.481
1055 0 53.4333 14.1672 757 150.262 556.736 468.683
1056 0 53.2765 14.528 774 147.522 556.988 467.824
1057 0 54.3348 13.2696 721 152.331 557.047 467.519
1058 0 56.3084 15.9124 896 147.301 556.922 466.246
1059 0 59.2007 14.1046 835 150.279 557.81 464.807
1060 0 60.1689 14.4261 868 152.061 558.35 462.642
1061 0 64.2661 17.3342 1114 144.986 558.872 460.454
1062 0 66.2669 18.3802 1218 144.193 560.337 457.025
1063 0 68.2002 16.3049 1112 148.36 562.153 459.973
1064 0 70.1832 16.6991 1172 149.457 564.061 458.055
1065 0 74.238 17.2284 1279 147.836 565.908 456.944
1066 0 75.1417 14.2398 1070 155.022 567.62 458.058
1067 0 78.2846 14.6772 1149 153.909 568.816 457.195
1068 0 79.2187 14.7187 1166 155.332 570.155 454.073
1069 1 46.0669 11.7438 541 147.68 572.05 475.447
1070 0 46.073 13.153 606 145.248 574.878 475.223
1071 0 46.2052 12.293 568 147.71 575.662 475.22
1072 0 50.132 13.5442 679 143.993 574.857 473.01
1073 0 48.1614 13.2887 640 145.875 574.762 473.288
1074 0 54.1712 16.1156 873 138.871 574.845 473.451
1075 0 55.2196 16.6608 920 135.184 574.257 475.903
1076 0 56.193 14.2545 801 141.94 574.215 474.191
1077 0 58.1477 15.6154 908 140.124 573.607 472.608
1078 0 57.0786 13.5077 771 146.962 572.9 472.182
1079 0 62.1701 16.664 1036 137.768 570.85 472.897
1080 0 61.0973 16.531 1010 138.168 569.712 475.306
1081 0 64.1283 13.816 886 145.368 569.405 470.47
1082 0 65.1037 17.6334 1148 137.922 567.439 468.645
1083 0 68.227 17.3538 1184 137.889 566.726 467.057
1084 0 68.1535 14.35 978 145.155 564.773 462.237
1085 0 73.0867 14.0928 1030 144.302 564.017 462.336
1086 0 74.1525 15.3602 1139 141.634 562.715 458.687
1087 0 77.1571 17.0432 1315 138.725 562.656 456.013
1088 0 81.2494 16.874 1371 138.23 562.252 455.81
1089 0 82.177 14.5905 1199 143.849 558.741 456.487
1090 0 85.133 15.3642 1308 143.224 559.006 452.635
1091 1 44.0211 11.7444 517 142.718 558.075 472.743
1092 0 43.0282 12.9915 559 144.243 558.776 469.399
1093 0 51.0238 10.6421 543 145.808 559.024 469.766
1094 0 50.0169 12.6157 631 144.52 560.648 467.9
1095 0 51.107 14.8903 761 139.302 562.076 466.904
1096 0 51.1485 14.4872 741 141.444 564.316 465.596
1097 0 53.2007 14.5111 772 141.105 566.557 465.19
1098 0 56.0754 15.3365 860 141.4 567.792 465.39
1099 0 57.0241 16.3615 933 141.081 567.697 463.513
1100 0 59.2541 14.2944 847 143.431 569.626 466.942
1101 0 60.0738 17.7615 1067 138.52 571.721 464.77
1102 0 63.0687 16.3631 1032 141.087 571.99 463.356
1103 0 65.1163 16.0636 1046 140.271 572.772 465.27
1104 0 67.192 16.0287 1077 139.973 572.85 466.847
1105 0 69.04 14.5568 1005 141.584 573.16 468.777
1106 0 71.0551 15.0024 1066 141.238 573.598 468.709
1107 0 70.1694 15.7904 1108 143.745 572.575 464.234
1108 0 77.1869 18.7985 1451 137.943 572.256 457.975
1109 0 77.1841 15.7157 1213 144.552 571.599 463.896
1110 0 81.0975 17.6331 1430 139.055 570.464 465.986
1111 0 82.1862 17.7524 1459 140.138 569.154 464.412
1112 0 83.1105 16.4119 1364 144.315 566.795 463.581
1113 0 86.2312 14.6351 1262 148.729 565.87 460.373
1114 1 41.0933 13.4572 553 148.025 564.353 481.828
1115 0 44.0446 12.8506 566 150.178 563.247 482.002
1116 0 45.0466 12.476 562 148.877 560.961 483.096
1117 0 47.0129 9.95472 468 158.096 559.323 470.438
1118 0 51.087 13.8196 706 146.256 558.28 474.999
1119 0 49.1384 12.1697 598 149.577 560.231 473.308
1120 0 53.077 13.5275 718 144.653 559.656 476.479
1121 0 53.0693 13.228 702 144.631 558.813 470.181
1122 0 52.0563 15.5024 807 143.921 558.584 472.173
1123 0 55.1354 13.9112 767 144.817 557.325 469.691
1124 0 57.0506 14.4083 822 143.9 557.909 467.831
1125 0 59.1238 14.2582 843 144.044 557.858 467.58
1126 0 60.1667 14.5429 875 144.905 558.519 464.294
1127 0 63.1162 15.2734 964 143.52 558.873 465.585
1128 0 64.1091 15.4892 993 141.599 559.908 469.809
1129 0 66.0281 14.509 958 145.766 560.568 465.426
1130 0 68.0365 14.3746 978 147.194 561.667 464.718
1131 0 74.2733 17.5029 1300 138.614 561.841 458.643
1132 0 77.1919 19.1859 1481 137.125 563.288 459.259
1133 1 38.1016 11.1282 424 149.585 564.37 476.981
1134 0 38.055 11.9827 456 152.077 567.086 477.23
1135 0 41.1923 9.05508 373 155.005 568.212 480.678
1136 0 45.1437 12.8257 579 148.361 568.57 473.399
1137 0 45.1162 13.7423 620 147.781 569.366 466.866
1138 0 48.0516 16.2326 780 142.737 568.933 453.676
1139 0 47.4425 14.1223 670 149.748 569.642 461.546
1140 0 51.3413 17.8024 914 139.038 568.989 475.573
1141 0 52.2236 15.2804 798 145.189 569.645 481.627
1142 0 52.2766 16.7761 877 142.425 566.964 477.382
1143 0 55.2772 16.8424 931 142.553 565.957 474.248
1144 0 55.215 17.4953 966 142.287 564.816 470.73
1145 0 58.4103 16.9319 989 140.729 563.341 475.838
1146 0 61.2667 15.408 944 142.325 561.898 472.504
1147 0 60.2892 14.729 888 145.771 560.255 469.779
1148 0 63.3064 15.2275 964 144.69 558.528 466.717
1149 0 63.4305 15.6707 994 146.587 557.612 462.399
1150 1 31.5935 11.6163 367 148.946 556.51 480.294
1151 0 34.1697 12.555 429 139.126 555.464 483.375
1152 0 33.277 10.7281 357 145.272 555.003 481.952
1153 0 36.5358 11.2219 410 145.929 554.82 476.02
1154 0 39.6593 10.9684 435 145.871 554.837 476.366
1155 0 38.3162 12.188 467 144.788 554.857 475.272
1156 0 39.3118 13.1513 517 142.598 555.24 474.944
1157 0 39.2081 11.5282 452 146.232 555.593 472.593
1158 0 41.1992 11.6507 480 148.727 555.948 469.652
1159 0 44.0553 13.4831 594 138.074 558.379 466.724
1160 0 45.0817 12.2001 550 142.622 559.251 464.645
1161 0 44.0935 14.1064 622 137.511 560.204 464.791
1162 0 46.1856 13.3808 618 138.464 561.275 461.969
1163 0 50.1509 14.237 714 134.024 563.022 460.857
1164 0 51.0835 14.584 745 132.616 564.976 462.864
1165 0 51.2236 13.6851 701 137.31 566.385 460.847
1166 0 54.349 15.1613 824 131.801 568.132 464.473
1167 0 55.4215 13.4966 748 134.5 569.151 462.773
1168 0 55.1966 13.008 718 140.196 571.497 463.136
1169 0 58.1406 16.0989 936 136.677 572.577 464.193
1170 0 60.1086 15.8879 955 136.333 573.542 467.094
1171 0 63.2098 15.6305 988 138.602 573.474 464.054
1172 0 62.2896 15.5082 966 139.801 573.311 466.043
1173 0 65.2364 15.1603 989 142.298 573.316 461.887
1174 0 69.224 16.8005 1163 137.987 573.118 465.929
1175 0 71.3678 21.3121 1521 131.278 572.696 463.993
1176 0 74.2925 15.8966 1181 142.84 571.561 449.454
1177 0 74.2891 13.5417 1006 149.137 570.422 461.366
1178 0 78.5605 16.4586 1293 142.801 569.513 458.659
1179 0 80.5178 15.0153 1209 146.475 568.433 457.856
1180 1 45.1415 12.0731 545 144.352 566.369 474.692
1181 0 47.2384 10.8598 513 146.084 565.263 473.101
1182 0 47.0837 12.9344 609 139.507 565.622 471.91
1183 0 46.1041 10.9535 505 148.135 564.582 470.493
1184 0 48.0748 11.4821 552 147.871 563.864 470.437
1185 0 53.1433 14.3198 761 144.971 561.047 472.695
1186 0 54.2213 15.5658 844 140.974 559.686 469.981
1187 0 53.2116 14.9404 795 143.4 557.952 469.691
1188 0 55.1113 13.3729 737 147.395 558.67 466.277
1189 0 54.2161 13.6122 738 148.06 557.538 462.295
1190 0 58.1067 13.5268 786 144.028 558.221 466.724
1191 0 58.2694 13.4891 786 145.136 558.204 463.744
1192 0 61.1743 15.1371 926 141.315 558.683 462.035
1193 0 63.4157 14.0344 890 145.243 559.738 457.779
1194 0 65.1181 15.8021 1029 141.126 560.692 457.517
1195 0 66.1519 13.1667 871 146.109 562.518 457.803
1196 0 68.1314 13.9436 950 145.125 565.031 454.259
1197 0 70.1144 14.7188 1032 141.998 565.849 455.322
1198 0 71.209 15.0543 1072 143.183 568.23 453.44
1199 0 75.1613 14.8348 1115 142.72 570.15 453.749
1200 0 76.2267 14.7848 1127 143.917 571.941 449.319
1201 0 79.1471 15.4902 1226 144.517 573.079 451.894
1202 0 82.2778 13.3329 1097 147.356 574.172 451.606
1203 0 83.1776 13.2247 1100 147.772 574.071 452.042
1204 0 86.2656 14.2235 1227 145.355 574.321 454.6
1205 0 91.1787 15.1351 1380 144.486 573.918 433.328
1206 0 93.223 13.2156 1232 149.749 574.097 439.592
1207 0 96.2404 14.9417 1438 146.932 573.18 452.36
1208 0 99.1745 14.8324 1471 146.995 573.039 451.359
1209 0 104.208 14.1255 1472 149.059 572.094 450.317
1210 0 106.248 15.8591 1685 146.46 571.339 447.8
1211 0 112.345 16.1912 1819 145.492 569.837 443.677
1212 0 117.263 13.6445 1600 151.261 568.833 445.486
1213 1 63.1785 9.92426 627 152.702 566.687 471.75
1214 0 67.1643 12.2089 820 148.402 565.501 469.102
1215 0 71.124 13.8631 986 146.034 564.018 466.299
1216 0 72.079 13.5823 979 151.076 562.323 466.228
1217 0 75.1608 15.7662 1185 142.971 563.419 462.97
1218 0 76.0836 19.0185 1447 135.92 561.997 460.044
1219 0 79.1851 14.6618 1161 142.905 560.89 461.408
1220 0 81.0976 13.6256 1105 147.033 559.745 456.837
1221 0 85.3075 16.0713 1371 140.116 559.735 456.365
1222 0 89.1117 16.1595 1440 137.406 559.357 453.393
1223 0 89.1388 14.2026 1266 140.91 559.392 449.23
1224 0 93.1627 11.979 1116 143.685 558.961 450.072
1225 0 97.3784 14.4077 1403 138.853 558.175 447.431
1226 0 98.2044 12.9322 1270 142.705 558.994 442.669
1227 0 105.467 15.8533 1672 135.903 559.494 439.903
1228 0 106.401 12.9792 1381 143.828 559.848 436.643
1229 0 111.344 14.1094 1571 139.715 561.656 442.875
1230 0 114.396 13.6456 1561 144.108 562.641 438.514
1231 0 119.305 16.5458 1974 138.698 564.26 433.832
1232 0 122.322 12.4916 1528 148.27 565.69 435.249
1233 0 128.397 14.977 1923 142.632 567.274 430.228
1234 1 50.253 10.4471 525 141.029 567.789 471.55
1235 0 53.1529 12.9814 690 136.783 569.303 470.281
1236 0 56.1002 14.0998 791 134.975 570.683 470.249
1237 0 56.104 13.8849 779 134.928 570.611 469.286
1238 0 57.1537 11.2679 644 141.741 570.644 471.239
1239 0 58.2137 13.2615 772 137.627 571.149 471.333
1240 0 60.2261 14.6448 882 133.912 570.715 472.778
1241 0 64.3153 13.4649 866 136.387 570.851 467.807
1242 0 64.3613 13.4397 865 137.999 570.228 468.691
1243 0 64.3613 13.4087 863 132.884 568.233 468.625
1244 0 72.1334 15.6516 1129 130.337 567.322 466.045
1245 1 37.0595 8.36493 310 138.1 564.884 487.8
1246 0 38.0579 9.69575 369 136.447 563.304 485.453
1247 0 39.051 11.4978 449 131.085 562.225 486.793
1248 0 38.0461 12.2746 467 130.857 560.944 485.39
1249 0 43.0967 14.0846 607 126.483 559.303 484.888
1250 0 42.0459 11.1783 470 131.126 558.651 485.547
1251 0 43.1476 12.3761 534 131.142 557.927 480.476
1252 0 44.0662 14.2059 626 126.989 556.856 478.597
1253 0 47.3405 13.7937 653 127.755 556.092 478.202
1254 0 48.1982 12.6561 610 131.028 556.13 475.111
1255 0 49.1542 14.6071 718 125.893 556.008 476.421
1256 0 48.2684 12.1197 585 133.369 555.672 472.966
1257 0 50.1344 18.7895 942 120.317 555.26 472.886
1258 0 50.0812 12.6594 634 133.994 555.494 470.606
1259 0 53.1285 14.2673 758 130.454 555.301 470.219
1260 0 53.1094 12.8791 684 134.484 556.469 469.073
1261 0 53.0795 15.8253 840 128.998 558.06 470.932
1262 0 56.1184 16.0197 899 129.458 558.376 467.951
1263 0 57.0714 12.1602 694 138.318 559.536 468.314
1264 0 58.049 15.7281 913 133.508 562.111 468.004
1265 0 59.1668 15.2112 900 134.708 563.302 466.667
1266 0 63.1338 13.3367 842 138.429 564.948 466.432
1267 0 66.2672 15.8299 1049 132.997 565.902 465.829
1268 0 66.206 14.032 929 137.915 567.952 461.324
1269 0 67.4302 13.4213 905 139.583 568.659 464.832
1270 0 68.1473 13.3828 912 140.678 569.808 463.474
1271 0 72.157 16.2424 1172 133.603 570.355 459.235
1272 0 75.1686 13.9819 1051 138.638 571.019 458.999
1273 0 78.2229 17.8209 1394 130.316 570.425 462.933
1274 1 43.1387 13.2364 571 134.371 569.352 482.744
1275 0 40.1309 11.313 454 140.198 568.626 484.099
1276 0 44.1019 11.5868 511 136.945 568.157 486.125
1277 0 43.1577 9.66223 417 141.393 566.64 486.206
1278 0 45.1125 14.9404 674 133.083 566.285 485.81
1279 0 48.1225 11.8448 570 137.844 566.995 485.17
1280 0 50.1308 15.9981 802 128.899 565.458 484.223
1281 0 51.0441 15.1242 772 129.646 563.38 484.405
1282 0 55.1242 18.0139 993 124.432 563.097 481.616
1283 0 55.1214 18.5046 1020 123.376 561.404 480.075
1284 0 57.0753 16.3118 931 126.265 560.686 479.772
1285 0 58.1778 16.9308 985 125.681 560.089 476.578
1286 0 60.2756 14.6494 883 129.476 558.58 472.148
1287 0 64.0954 13.1367 842 129.895 558.22 469.589
1288 0 66.1018 15.1131 999 126.012 557.413 472.658
1289 0 67.1719 16.3908 1101 124.293 557.036 470.934
1290 0 67.1054 12.6666 850 132.794 556.551 467.701
1291 0 70.1809 12.6815 890 131.471 556.302 467.248
1292 0 72.1158 15.4612 1115 126.307 557.636 466.466
1293 0 76.1077 15.0576 1146 128.148 557.462 460.581
1294 0 79.1634 13.15 1041 129.56 557.841 461.797
1295 0 82.1607 16.5529 1360 123.01 558.951 458.821
1296 1 42.0944 13.8736 584 123.873 560.75 477.591
1297 0 42.0873 11.3098 476 126.456 561.494 478.441
1298 0 44.0526 12.3489 544 128.594 562.25 457.377
1299 0 46.3292 13.8789 643 125.435 563.392 459.051
1300 0 46.136 11.6178 536 128.319 564.55 462.424
1301 0 48.1194 13.5081 650 123.005 566.543 469.875
1302 0 51.086 14.779 755 120.342 567.518 468.375
1303 0 54.1786 12.4957 677 124.315 567.907 472.031
1304 0 51.1272 14.8453 759 121.822 568.491 474.614
1305 0 53.1098 12.879 684 124.874 569.181 474.807
1306 0 56.0693 14.3037 802 122.156 569.05 472.211
1307 0 61.0711 17.5042 1069 116.574 568.9 468.393
1308 0 59.1103 12.8066 757 125.742 568.456 467.72
1309 0 63.1708 15.1969 960 120.552 568.122 474.707
1310 0 65.2333 14.8697 970 121.744 566.742 474.468
1311 0 65.1511 12.9699 845 125.601 565.698 474.36
1312 1 34.0117 10.5258 358 124.626 565.684 489.095
1313 0 38.0315 12.0427 458 122.264 564.266 474.755
1314 0 40.0843 11.9997 481 123.825 562.353 482.923
1315 0 38.1557 13.3139 508 123.571 561.598 484.837
1316 0 39.0634 8.65259 338 133.281 560.287 483.704
1317 0 42.0859 14.3754 605 124.055 557.154 483.221
1318 0 45.1198 14.4947 654 122.876 556.061 481.982
1319 0 46.188 16.173 747 121.94 555.424 479.007
1320 0 46.1071 13.5337 624 127.119 553.771 479.611
1321 0 46.1072 11.6468 537 133.101 553.872 477.972
1322 0 47.0494 15.0905 710 126.146 553.634 476.454
1323 0 49.1114 12.5226 615 130.865 552.987 474.328
1324 0 52.142 12.2934 641 132.137 554.872 460.262
1325 0 54.1031 13.1785 713 129.641 555.227 463.631
1326 0 55.148 14.035 774 128.323 555.941 463.73
1327 0 54.0901 12.812 693 131.814 557.074 465.768
1328 0 59.1508 14.556 861 127.589 556.487 464.842
1329 0 61.0618 13.1506 803 131.016 557.938 462.513
1330 0 63.1463 15.8362 1000 126.515 559.735 463.523
1331 0 66.0839 14.7388 974 129.309 561.678 461.72
1332 0 69.0349 13.5149 933 132.541 563.437 461.732
1333 1 38.051 9.4347 359 135.549 565.632 477.596
1334 0 39.0457 12.6262 493 134.055 567.17 476.487
1335 0 40.1906 10.7986 434 132.735 568.995 479.638
1336 0 41.2122 12.2779 506 134.763 570.53 476.773
1337 0 44.1028 13.8313 610 131.964 570.78 476.944
1338 0 43.3022 13.0017 563 134.075 570.73 476.256
1339 0 46.0369 15.9437 734 128.653 570.631 476.215
1340 0 47.0738 15.104 711 132.72 569.135 478.26
1341 0 49.1133 12.7664 627 137.257 570.311 477.352
1342 0 52.1915 14.6192 763 135.037 569.95 475.937
1343 0 51.0964 12.5449 641 141.998 569.129 476.388
1344 0 56.0356 18.3098 1026 128.006 567.359 478.88
1345 0 55.0849 15.8846 875 134.541 564.192 477.247
1346 0 58.101 14.2511 828 138.17 562.4 475.908
1347 0 57.067 14.6495 836 139.514 561.126 474.963
1348 0 58.1132 13.577 789 141.624 559.563 475.658
1349 0 62.2911 15.9092 991 136.543 558.709 472.678
1350 0 64.1234 15.0335 964 138.649 557.987 472.008
1351 0 67.1198 18.102 1215 131.676 556.64 470.146
1352 0 67.0616 14.9415 1002 139.702 556.031 466.784
1353 0 69.1827 14.599 1010 137.449 555.264 465.063
1354 0 71.2721 15.6443 1115 135.959 554.688 463.25
1355 0 74.1758 16.3665 1214 134.122 554.054 464.382
1356 0 75.064 17.3852 1305 131.667 554.753 458.474
1357 0 79.162 17.041 1349 131.628 554.357 457.811
1358 0 81.1183 15.0767 1223 133.993 554.118 454.246
1359 0 85.3598 13.1209 1120 136.199 554.033 453.239
1360 1 43.0942 11.0688 477 138.669 554.654 471.486
1361 0 47.139 11.5828 546 135.031 556.075 472.912
1362 0 49.3813 11.0771 547 136.728 557.642 471.925
1363 0 47.3713 12.7503 604 136.997 559.561 463.642
1364 0 50.1892 12.7119 638 133.11 559.87 460.32
1365 0 53.3646 12.9487 691 130.847 562.23 461.03
1366 0 53.4178 13.254 708 131.531 564.428 460.218
1367 0 56.1637 11.2706 633 133.346 566.749 464.796
1368 0 58.2523 15.5359 905 126.798 567.536 461.176
1369 0 62.1843 15.4701 962 126.76 568.738 460.102
1370 0 62.3011 10.9629 683 135.43 569.924 462.807
1371 0 64.2389 13.6522 877 130.556 570.58 460.035
1372 0 67.1739 12.6537 850 131.656 570.287 461.749
1373 0 69.1768 12.9812 898 133.216 569.888 450.986
1374 0 70.2355 14.9639 1051 129.131 570.006 456.285
1375 0 76.1077 13.5466 1031 131.301 569.723 460.774
1376 0 75.1793 12.1443 913 134.74 569.641 461.724
1377 0 81.3039 11.9551 972 135.203 568.202 453.678
1378 0 82.3328 13.1296 1081 134.252 566.996 436.856
1379 0 85.474 15.4316 1319 129.913 565.909 442.102
1380 0 89.3398 16.7115 1493 127.064 564.273 444.009
1381 0 91.4572 13.4489 1230 134.724 563.355 443.379
1382 1 43.0682 8.1963 353 142.275 562.051 467.742
1383 0 47.0813 9.7491 459 140.227 560.614 472.157
1384 0 48.1353 11.1145 535 140.019 559.931 472.497
1385 0 51.2476 14.1665 726 135.022 558.85 472.438
1386 0 54.0607 12.7449 689 137.361 558.633 470.329
1387 0 55.103 18.0389 994 127.499 558.001 467.363
1388 0 55.1253 15.1292 834 133.392 556.552 467.893
1389 0 60.095 14.2774 858 133.935 556.652 466.896
1390 0 61.282 12.7117 779 137.24 556.184 466.578
1391 0 63.2089 13.1311 830 137.527 556.913 462.648
1392 0 64.1915 13.6623 877 137.507 557.499 461.363
1393 0 66.4847 13.1609 875 139.03 557.267 459.842
1394 0 69.2553 12.8654 891 140.148 558.444 459.086
1395 0 73.161 14.8986 1090 136.676 559.62 459.383
1396 0 73.175 13.3652 978 142.591 561.511 455.13
1397 0 74.1388 10.9659 813 149.355 562.721 455.165
1398 0 80.4061 13.2453 1065 142.593 564.726 454.818
1399 0 82.354 13.3812 1102 143.818 567.831 453.179
1400 0 85.3244 13.3373 1138 144.946 568.975 454.315
1401 0 87.249 13.6964 1195 144.477 570.341 453.936
1402 0 92.3479 14.3696 1327 144.302 570.367 453.328
1403 1 47.1457 12.175 574 139.369 572.629 479.625
1404 0 46.1356 9.277 428 144.549 573.362 481.357
1405 0 51.0209 12.2107 623 138.624 573.764 481.738
1406 0 52.1311 13.6387 711 140.442 572.632 477.394
1407 0 58.0213 15.0979 876 134.404 571.697 481.298
1408 0 55.1451 14.0357 774 136.952 570.411 484.452
1409 0 61.1438 13.0512 798 140.653 569.728 481.533
1410 0 60.1397 13.9841 841 141.309 569.233 480.376
1411 0 63.0916 13.837 873 142.666 567.704 480.007
1412 0 64.2563 11.921 766 148.124 566.751 479.748
1413 0 65.1641 12.599 821 146.063 565.418 478.978
1414 0 67.1599 13.3711 898 143.293 563.133 480.128
1415 0 72.0875 13.3865 965 146.124 561.762 476.142
1416 0 74.1926 12.0228 892 151.955 560.546 472.501
1417 0 77.1158 15.548 1199 141.336 559.297 472.58
1418 1 43.1504 12.0972 522 138.554 558.013 488.874
1419 0 48.1853 12.0161 579 143.002 557.174 482.66
1420 0 46.2748 11.2588 521 141.468 556.236 484.977
1421 0 46.2617 9.18686 425 147.918 555.795 482.555
1422 0 49.257 11.6532 574 144.547 554.491 477.375
1423 0 47.3959 10.7393 509 149.542 554.519 475.591
1424 0 47.2189 11.4361 540 147.233 554.293 473.315
1425 0 53.3645 12.4802 666 143.569 555.014 472.688
1426 0 53.6024 13.0032 697 145.317 555.129 472.166
1427 0 54.3636 13.8696 754 143.293 555.093 471.863
1428 0 54.2636 13.2686 720 144.529 555.689 473.746
1429 0 58.2649 15.5325 905 139.201 556.16 472.724
1430 0 57.2636 13.8657 794 147.038 557.307 470.644
1431 0 59.224 11.904 705 152.355 558.705 471.245
1432 0 62.3915 14.5533 908 147.59 560.391 469.273
1433 0 64.2547 13.8978 893 149.564 562.212 468.786
1434 0 66.2896 12.9885 861 153.33 563.377 452.934
1435 0 69.271 15.8508 1098 144.872 564.891 453.821
1436 0 73.2066 13.5507 992 151.111 565.316 454.648
1437 0 74.2047 13.2471 983 153.813 566.036 455.917
1438 0 78.1894 17.0356 1332 145.689 566.125 455.171
1439 0 79.1646 13.6046 1077 153.266 566.243 458.001
1440 0 84.1014 17.3243 1457 143.592 566.386 457.328
1441 1 45.0844 9.51548 429 149.256 564.562 479.434
1442 0 46.0618 10.8984 502 154.076 564.223 475.815
1443 0 48.1432 10.9257 526 150.162 563.158 472.73
1444 0 50.1095 11.1755 560 151.504 561.729 476.48
1445 0 50.0659 10.2865 515 155.247 559.808 480.794
1446 0 55.1216 12.5359 691 147.313 558.818 480.682
1447 0 54.127 11.9534 647 149.725 557.521 478.085
1448 0 59.0475 13.921 822 143.884 556.071 474.511
1449 0 57.0761 13.5784 775 145.214 555.507 476.074
1450 0 61.0967 14.698 898 139.931 554.491 476.585
1451 0 61.098 13.6829 836 144.597 553.339 473.028
1452 0 64.0715 15.0925 967 140.403 552.601 471.338
1453 0 65.1485 13.7685 897 142.412 552.138 469.29
1454 0 65.1338 13.1115 854 144.488 551.977 467.007
1455 0 69.0844 15.0541 1040 138.048 552.195 466.918
1456 0 70.1966 14.8155 1040 137.852 552.345 465.713
1457 0 73.1701 15.7715 1154 135.691 552.196 460.892
1458 0 72.118 14.8091 1068 137.849 552.305 460.713
1459 0 77.0874 13.7636 1061 138.616 552.166 458.893
1460 0 80.1033 13.4576 1078 138.875 553.29 456.35
1461 0 82.1694 13.8251 1136 139.794 555.209 454.235
1462 0 85.0557 12.1215 1031 143.197 555.781 454.724
1463 0 89.2372 12.7862 1141 140.919 557.063 450.124
1464 0 91.2913 15.8613 1448 133.352 559.218 450.448
1465 0 92.3002 13.6619 1261 139.022 562.253 448.251
1466 0 98.38 14.9116 1467 135.532 564.055 445.363
1467 1 47.2434 7.49311 354 144.627 564.486 472.619
1468 0 52.2699 9.58487 501 141.655 567.076 469.978
1469 0 58.2406 12.5686 732 134.898 568.161 468.84
1470 0 58.2427 13.3064 775 132.445 568.221 470.054
1471 0 58.5874 9.76318 572 143.808 570.5 469.119
1472 0 61.2006 15.0162 919 131.125 572.075 473.489
1473 0 62.218 12.6651 788 136.049 572.709 471.768
1474 0 65.1467 13.554 883 132.733 572.062 468.886
1475 0 66.1603 14.7369 975 131.236 572.324 468.702
1476 0 70.3631 14.5389 1023 131.647 571.586 470.91
1477 0 72.1269 13.3931 966 134.581 570.726 470.341
1478 0 73.3204 14.0343 1029 134.14 570.233 468.202
1479 0 76.381 15.3965 1176 131.849 568.32 469.015
1480 0 80.3368 14.9993 1205 133.939 567.227 465.241
1481 0 85.5759 16.0676 1375 132.504 564.952 453.996
1482 0 84.4397 18.6168 1572 128.644 563.202 458.561
1483 0 83.123 15.6154 1298 136.04 565.187 461.24
1484 0 83.134 16.5997 1380 131.334 564.232 460.219
1485 0 79.201 13.9392 1104 129.365 562.708 453.716
1486 0 79.2598 13.8279 1096 128.13 561.68 461.638
1487 0 78.0991 12.3945 968 132.463 560.799 459.896
1488 0 79.1304 12.4099 982 131.044 560.275 459.067
1489 0 81.2432 17.2938 1405 121.54 559.716 458.457
