index division length width area intensity CMx CMy
2870 0 98.2814 14.1227 1388 103.739 493.549 289.885
2871 0 103.453 14.5476 1505 95.6146 493.718 289.896
2872 0 107.277 14.1502 1518 94.2108 494.458 294.013
2873 0 112.365 14.2304 1599 88.4934 494.063 296.401
2874 0 117.235 13.9975 1641 92.1018 492.655 300.758
2875 1 58.0755 12.2599 712 88.4228 491.485 334.423
2876 0 62.2084 12.3456 768 87.625 491.276 337.263
2877 0 64.2025 12.1179 778 87.6542 491.886 340.621
2878 0 64.2025 12.1179 778 160.871 492.886 340.621
2879 0 69.093 12.3312 852 84.1326 492.032 347.526
2880 0 69.3039 12.7121 881 79.3053 492.066 352.19
2881 0 74.2911 12.6933 943 80.3945 492.707 355.548
2882 0 75.3247 12.4528 938 82.6599 492.848 360.195
2883 0 77.3902 13.1024 1014 81.1371 492.88 363.844
2884 0 79.1876 13.0197 1031 80.225 493.565 365.841
2885 0 84.3156 12.7853 1078 76.5455 493.055 368.344
2886 0 86.3593 12.8417 1109 80.6312 492.929 371.052
2887 0 86.3822 13.1972 1140 78.0605 493.047 375.185
2888 0 90.2858 12.8259 1158 82.9775 493.026 377.771
2889 0 94.3133 12.5433 1183 81.6036 492.948 381.128
2890 0 95.2681 12.5855 1199 80.1868 493.13 383.646
2891 0 98.2316 12.7352 1251 79.6803 492.789 386.549
2892 1 56.1298 10.6182 596 87.1963 492.859 414.468
2893 0 58.0236 10.8921 632 88.3402 493.544 419.112
2894 0 60.1744 11.4334 688 84.1352 492.987 423.148
2895 0 61.0385 11.632 710 83.4423 493.53 427.504
2896 0 64.3367 11.2844 726 87.4421 492.846 432.822
2897 0 65.2623 12.0897 789 86.0418 492.72 438.831
2898 0 69.3678 11.6048 805 87.313 492.034 444.653
2899 0 72.2718 11.7473 849 81.7797 492.376 450.319
2900 0 74.2211 11.9373 886 85.044 491.844 456.248
2901 0 77.1992 11.8654 916 87.1419 491.338 455.508
2902 0 79.0783 11.8743 939 89.5836 491.474 454.673
2903 0 82.1176 11.3618 933 87.4705 491.981 454.161
2904 0 85.1135 11.6433 991 86.8012 492.625 452.651
2905 0 86.3981 11.4702 991 85.2048 493.274 451.396
2906 0 91.4247 11.277 1031 89.8623 493.784 450.651
2907 0 92.4904 11.3201 1047 89.0621 494.022 448.595
2908 1 48.403 9.23497 447 91.1566 494.329 470.754
2909 0 47.1937 9.42923 445 89.1438 494.16 470.663
2910 0 50.2133 10.077 506 85.3458 493.846 470.19
2911 0 52.2498 10.2201 534 81.8015 493.624 468.951
2912 0 54.2207 9.97774 541 73.78 493.553 467.863
2913 0 54.1715 10.1714 551 72.5426 493.637 467.935
2914 0 56.1511 9.67034 543 72.1068 493.228 467.087
2915 0 57.2389 10.1679 582 78.2337 493.23 466.098
2916 0 59.2193 9.82787 582 77.9416 493.18 466.065
2917 0 61.0671 9.90714 605 79.1388 493.258 466.469
2918 0 61.1338 10.2398 626 80.5958 493.176 465.203
2919 0 62.1419 10.1381 630 80.1175 493.487 464.038
2920 0 64.0612 10.0061 641 78.3136 493.685 462.663
2921 0 65.1997 10.2608 669 81.2616 493.948 461.975
2922 0 66.2002 10.574 700 79.9486 493.976 459.884
2923 0 70.1867 10.1444 712 82.2177 493.959 458.656
2924 0 65.1626 7.99538 521 84.9443 494.589 463.463
2925 0 59.0795 5.14561 304 92.2007 494.507 467.816
2926 0 60.0935 5.3916 324 93.2284 495.037 468.361
2927 0 66.0413 7.28332 481 90.3576 495.048 462.428
2928 0 65.039 7.31869 476 83.2752 495.261 463.891
2929 1 127.46 10.4817 1336 84.2126 495.388 428.286
2930 1 174.732 8.79063 1536 92.196 494.462 406.337
2931 0 176.935 12.5583 2222 88.4982 494.943 403.023
2932 0 176.881 11.9968 2122 85.4797 495.056 401.845
2933 0 173.867 11.0429 1920 89.0667 493.896 401.497
2934 0 175.078 10.818 1894 97.6262 492.856 402.993
2935 1 185.784 6.29225 1169 104.258 493.636 416.224
2936 1 51.1213 10.1719 520 88.6019 493.006 468.413
2937 1 184.994 6.13535 1135 94.9727 494.109 417.051
2938 1 108.904 9.29256 1012 93.6443 493.782 437.574
2939 0 107.727 10.7123 1154 91.818 493.844 436.89
2940 0 114.037 11.6629 1330 87.1421 493.913 437.747
2941 0 116.914 11.3502 1327 91.5004 493.929 437.125
2942 0 117.749 10.896 1283 94.1013 493.548 433.555
2943 1 165.742 7.20398 1194 105.761 493.714 422.387
2944 1 110.36 6.63283 732 101.933 493.245 444.27
2945 0 128.774 11.2289 1446 89.2365 493.537 427.673
2946 0 133.578 12.3448 1649 92.6337 492.939 429.035
2947 0 137.723 12.1548 1674 93.2168 492.535 426.255
2948 0 140.665 11.7869 1658 92.9783 492.824 421.633
2949 0 144.567 11.5794 1674 94.632 493.017 418.038
2950 1 76.1428 11.6492 887 91.9459 492.336 457.317
2951 0 78.159 11.95 934 93.2409 492.768 456.328
2952 0 82.1072 11.6068 953 93.5803 492.595 454.851
2953 0 83.1337 11.8003 981 92.5892 493.221 452.746
2954 1 45.0313 9.19361 414 91.5217 494.089 472.418
2955 0 46.0993 8.95892 413 95.2736 494.053 472.845
2956 0 48.0928 10.3342 497 95.6016 494.481 473.296
2957 0 49.1169 10.9127 536 90.2705 493.562 471.479
2958 0 50.3772 11.0566 557 92.702 492.359 470.174
2959 0 50.3583 11.3586 572 88.8846 492.222 469.713
2960 0 49.3536 10.8807 537 88.6723 492.393 469.877
2961 0 42.2318 8.12184 343 100.886 491.353 473.735
2962 0 53.2915 11.1275 593 89.3204 493.093 467.307
2963 0 53.3191 11.1405 594 89.0842 492.838 466.604
2964 0 57.2912 11.4328 655 88.974 492.195 467.663
2965 0 58.3246 11.1617 651 86.2888 491.544 466.988
2966 0 60.1183 11.3942 685 83.1387 491.407 467.162
2967 0 61.0971 11.6045 709 84.426 491.181 465.639
2968 0 62.0783 11.711 727 84.5475 491.308 464.711
2969 0 63.0672 11.6225 733 86.9482 491.497 464.52
2970 0 66.0988 11.8913 786 92.57 491.234 463.308
2971 0 67.1259 11.8136 793 85.1816 491.188 462.905
2972 0 70.1983 11.6669 819 90.5482 491.32 461.172
2973 0 72.0965 11.8175 852 87.1854 491.343 461.107
2974 0 76.2326 11.924 909 90.4323 490.514 460.303
2975 0 78.1061 11.7276 916 89.9083 490.355 459.072
2976 0 80.142 11.9663 959 88.8665 490.816 457.918
2977 0 81.1332 12.1282 984 89.5701 491.103 456.689
2978 0 84.0954 12.0815 1016 87.4862 491.124 455.211
2979 0 85.1772 12.1159 1032 91.1444 490.663 454.106
2980 0 89.1379 11.8692 1058 89.2779 490.447 452.585
2981 0 92.183 12.1497 1120 89.2366 490.046 450.804
2982 0 95.1752 11.6522 1109 88.2831 490.103 447.417
2983 1 50.1233 10.5939 531 90.9266 491.672 471.883
2984 0 50.1233 10.5939 531 138.635 491.672 471.883
2985 0 54.0301 11.8638 641 91.4353 492.353 469.635
2986 0 55.082 12.0729 665 91.9925 491 469.671
2987 0 57.1384 12.0584 689 86.1132 490.478 468.594
2988 0 59.1332 11.9899 709 85.2482 490.911 468.929
2989 0 61.1765 11.8019 722 86.759 490.087 468.863
2990 0 63.2231 12.3531 781 86.1306 491.229 467.166
2991 0 63.0959 12.2987 776 86.9124 491.064 466.921
2992 0 66.1254 12.3856 819 91.3419 490.947 465.825
2993 0 70.1854 12.3672 868 87.9839 491.118 464.551
2994 0 70.1318 12.5478 880 88.1534 490.933 463.492
2995 0 73.153 12.6174 923 86.7172 491.26 462.269
2996 0 76.1614 12.6836 966 84.6387 491.259 460.754
2997 0 78.0626 12.9255 1009 83.888 492.533 459.317
2998 0 80.0444 13.2177 1058 83.5142 492.464 457.875
2999 0 83.0324 12.9468 1075 81.946 492.448 456.201
3000 0 85.0812 13.3167 1133 88.1836 492.024 455.882
3001 0 88.1783 13.2119 1165 92.0567 491.921 453.628
3002 0 91.1318 12.6739 1155 92.5861 492.579 453.135
3003 0 93.0668 13.0659 1216 94.3791 491.494 451.529
3004 1 49.0129 11.5888 568 91.2254 492.694 473.775
3005 0 51.0331 11.9726 611 91.6498 492.938 471.714
3006 0 54.0784 12.112 655 86.2855 493.147 471.489
3007 0 53.0773 11.8695 630 85.4825 493.23 470.897
3008 0 55.0212 12.1044 666 84.1201 492.914 470.74
3009 0 59.0535 12.4802 737 79.3379 492.643 469.326
3010 0 59.0288 12.2313 722 85.7825 492.92 468.792
3011 0 61.0716 12.2643 749 84.6101 492.988 468.454
3012 0 62.0399 12.5726 780 79.0615 493.351 467.892
3013 0 65.05 12.4827 812 78.1305 493.514 466.578
3014 0 66.0448 12.7186 840 77.681 493.064 465.125
3015 0 67.1286 12.5282 841 88.6504 492.322 464.074
3016 0 70.0729 12.5298 878 83.6583 491.508 462.823
3017 0 71.1822 12.7279 906 85.1556 491.821 462.236
3018 0 75.2078 12.4987 940 83.8574 491.661 459.874
3019 0 77.1591 12.8566 992 83.6421 491.511 459.419
3020 0 78.094 13.0356 1018 82.5737 492.059 458.331
3021 0 81.1635 12.9245 1049 84.1811 491.929 456.637
3022 0 84.1912 13.1368 1106 84.1293 491.484 455.177
3023 0 88.1971 12.6988 1120 82.1893 491.847 453.421
3024 0 91.0749 13.0332 1187 81.1811 491.703 452.58
3025 0 93.3737 12.7873 1194 82.7437 491.834 451.281
3026 1 50.0655 11.485 575 86.1548 492.762 470.906
3027 0 52.044 11.3942 593 82.371 492.358 468.944
3028 0 55.0414 11.8638 653 87.6003 492.83 469.346
3029 0 54.1191 12.4171 672 87.8244 493.074 468.381
3030 0 55.1359 12.1518 670 85.6 493.015 467.507
3031 0 57.21 12.2531 701 88.1897 492.902 467.151
3032 0 59.0969 12.691 750 89.124 493.571 466.631
3033 0 60.1877 12.8432 773 85.7063 493.533 465.288
3034 0 63.1337 12.5448 792 87.6869 493.367 464.706
3035 0 63.1114 12.2799 775 85.1755 493.677 462.778
3036 0 64.1237 12.8658 825 88.0594 494.164 462.548
3037 0 68.0952 12.5706 856 85.9579 493.933 460.901
3038 0 69.1283 13.0771 904 87.9978 494.053 459.032
3039 0 72.0856 12.7349 918 86.2538 493.938 457.984
3040 0 75.1201 12.673 952 87.4254 495.009 456.209
3041 0 77.1862 13.1112 1012 85.751 495.762 452.988
3042 0 79.1871 12.6788 1004 93.0179 495.533 453.179
3043 0 83.0802 12.6023 1047 90.1757 495.309 452.091
3044 0 85.0669 12.6724 1078 93.2013 495.699 450.415
3045 0 88.1594 13.0672 1152 92.1675 495.322 449.479
3046 0 89.1757 12.9744 1157 90.2282 495.564 447.944
3047 1 45.0402 10.2353 461 92.0152 496.121 469.993
3048 0 46.056 10.5307 485 92.7856 495.489 470.425
3049 0 48.0268 11.1813 537 97.8808 495.022 469.22
3050 0 49.058 11.6393 571 94.0718 494.506 468.975
3051 0 51.1431 12.2597 627 92.1691 493.297 468.791
3052 0 51.1298 12.1455 621 84.3494 493.873 467.588
3053 0 52.146 12.6376 659 77.1745 494.226 466.892
3054 0 55.1189 12.6454 697 71.8608 493.997 465.904
3055 0 56.0228 12.8341 719 69.4659 494.7 464.627
3056 0 58.0934 12.3938 720 76.8917 494.271 464.976
3057 0 59.0824 12.8126 757 65.6658 494.324 463.188
3058 0 60.0896 12.7476 766 54.5614 494.381 463.817
3059 0 61.1587 13.4731 824 54.9248 495.727 462.642
3060 0 63.0888 13.2353 835 53.8731 495.528 461.77
3061 0 65.0877 13.259 863 53.3129 495.715 459.947
3062 0 65.0553 13.6499 888 56.2331 495.117 459.643
3063 0 68.0896 14.2166 968 55.4845 494.725 459.104
3064 0 70.1004 14.1511 992 54.6401 494.427 458.865
3065 0 71.1089 14.527 1033 51.5973 494.41 458.036
3066 0 74.128 13.8544 1027 53.7488 494.406 456.65
3067 0 75.1032 13.5547 1018 57.8821 493.793 455.133
3068 0 77.1464 13.8827 1071 55.6667 493.021 453.298
3069 0 79.1704 13.4394 1064 53.8289 493.19 451.573
3070 0 81.138 13.779 1118 53.627 494.022 451.216
3071 0 181.273 15.0823 2734 53.1401 493.912 403.301
3072 0 187.308 15.2209 2851 53.464 493.635 399.632
3073 0 192.425 15.4709 2977 50.3107 493.96 396.031
3074 0 197.478 15.2878 3019 53.2153 494.336 392.259
3075 0 204.518 13.3827 2737 58.8422 493.596 389.725
3076 1 98.1589 13.6004 1335 57.4517 492.619 441.915
3077 1 53.196 12.7077 676 123.473 492.393 469.324
3078 0 54.2628 12.9186 701 134.669 492.728 468.949
3079 0 55.3431 13.1543 728 127.117 492.272 468.863
3080 0 58.4171 12.4963 730 131.127 491.967 467.67
3081 0 59.2519 13.2485 785 130.604 492.991 467.327
3082 0 61.1841 13.3531 817 133.437 492.284 466.011
3083 0 63.2674 13.1347 831 130.174 492.297 464.774
3084 0 64.2102 13.2845 853 134.632 492.844 464.314
3085 0 66.2167 13.0783 866 132.975 492.447 463.04
3086 0 69.1861 13.4565 931 127.348 492.015 461.747
3087 0 70.2202 13.1444 923 131.287 491.897 460.342
3088 0 73.2389 13.4491 985 131.057 492.264 459.531
3089 0 74.1886 13.4387 997 125.571 492.139 459.012
3090 0 78.1976 13.4787 1054 128.92 491.519 457.595
3091 0 80.1672 13.4594 1079 132.177 492.101 457.551
3092 0 82.1396 13.5866 1116 129.674 492.6 456.994
3093 0 85.1844 13.5588 1155 122.194 492.054 455.971
3094 0 86.2025 13.5611 1169 121.451 491.765 454.388
3095 0 91.1362 13.3536 1217 128.803 491.583 452.56
3096 0 92.0818 13.4554 1239 127.753 491.241 450.866
3097 0 97.1752 13.3162 1294 129.106 491.125 449.737
3098 0 99.3113 13.5735 1348 126.154 491.142 448.114
3099 1 56.0662 11.3259 635 123.128 490.69 471.649
3100 0 58.0096 12.1876 707 126.154 491.525 469.702
3101 0 59.0902 12.2863 726 122.103 491.083 469.262
3102 0 61.099 12.4388 760 124.492 491.024 467.908
3103 0 65.1047 12.4722 812 125.597 491.926 465.55
3104 0 66.1265 12.5517 830 120.442 491.713 465.551
3105 0 68.1395 12.7092 866 117.085 492.304 464.062
3106 0 71.1356 12.4973 889 111.768 492.733 462.4
3107 0 74.1818 12.8873 956 114.703 492.136 461.174
3108 0 76.1154 12.7964 974 120.031 492.488 458.902
3109 0 79.1731 12.4537 986 121.712 493.245 458.022
3110 0 81.171 12.5414 1018 121.296 492.916 456.842
3111 0 84.1808 12.5088 1053 122.196 492.757 455.326
3112 1 45.0543 10.6094 478 128.5 493.651 474.377
3113 0 46.0485 10.9667 505 122.048 493.608 474.263
3114 0 47.0345 11.6085 546 122.553 493.353 473.544
3115 0 49.0683 12.1871 598 121.102 493.279 471.737
3116 0 50.1078 12.2336 613 114.488 492.515 471.507
3117 0 52.1719 12.0755 630 116.205 492.267 469.344
3118 0 53.1928 12.5581 668 116.159 492.587 468.386
3119 0 55.0936 12.143 669 114.203 493.051 468.704
3120 0 55.099 12.3051 678 115.257 492.324 468.494
3121 0 58.145 12.658 736 111.673 492.38 466.848
3122 0 58.1116 12.9234 751 110.459 492.563 465.455
3123 0 61.1211 12.5816 769 110.774 492.745 465.001
3124 0 61.1589 13.1624 805 112.117 492.766 463.966
3125 0 64.132 13.2071 847 110.898 492.564 462.762
3126 0 67.0918 12.9673 870 107.14 492.957 461.263
3127 0 69.1505 12.7982 885 110.163 492.975 460.137
3128 0 72.0965 12.9687 935 113.048 493.063 458.706
3129 0 75.1174 12.8199 963 111.637 493.222 457.597
3130 0 75.1535 13.2263 994 122.232 493.524 456.037
3131 0 77.1523 13.091 1010 108.352 494.179 455.157
3132 0 82.1037 13.1176 1077 103.806 494.74 454.263
3133 0 84.1408 13.0496 1098 110.997 493.976 452.675
3134 0 86.1246 13.016 1121 109.016 494.073 450.92
3135 0 90.1792 12.9631 1169 114.3 494.405 449.79
3136 1 47.0248 11.9299 561 113.462 495.275 469.873
3137 0 50.1935 11.9338 599 105.487 494.603 468.835
3138 0 49.1723 12.8934 634 107.912 495.333 468.241
3139 0 52.291 12.3922 648 106.364 494.676 466.304
3140 0 54.2063 12.5262 679 104.654 495.851 466.119
3141 0 55.1566 12.6911 700 111.713 495.763 465.517
3142 0 57.212 13.0043 744 105.816 496.035 463.684
3143 0 57.103 13.1167 749 109.94 496.211 464.075
3144 0 59.1557 12.932 765 111.129 496.288 462.915
3145 0 61.1738 13.241 810 106.01 495.899 461.833
3146 0 64.1237 13.2244 848 104.932 495.935 461.084
3147 0 67.1021 12.8908 865 104.98 495.587 459.679
3148 0 69.1486 12.9142 893 106.225 495.149 459.129
3149 0 71.0746 13.0426 927 107.739 494.713 457.807
3150 0 73.1699 12.9561 948 107.639 494.893 456.393
3151 0 77.1688 12.9586 1000 103.877 494.413 454.556
3152 0 78.1263 13.2606 1036 94.6303 494.478 453.625
3153 0 79.1421 13.4947 1068 113.783 494.392 453.6
3154 0 83.241 13.1546 1095 116.582 493.76 452.23
3155 0 83.0663 13.1582 1093 109.757 493.994 450.837
3156 0 89.0555 13.3961 1193 107.274 494.298 448.578
3157 0 92.2455 12.9112 1191 114.804 494.113 448.937
3158 0 95.1628 12.694 1208 114.022 493.959 447.097
3159 1 48.0453 11.3226 544 116.619 494.688 470.193
3160 0 50.0291 11.7731 589 110.767 494.594 467.969
3161 0 51.0605 12.3579 631 113.361 495.198 469.1
3162 0 53.0961 12.3926 658 108.763 494.018 468.52
3163 0 52.1933 12.5303 654 104.933 493.258 468.472
3164 0 54.1317 12.4881 676 103.63 493.913 467.62
3165 0 57.0222 12.3811 706 102.775 494.03 466.144
3166 0 58.2004 12.3539 719 103.64 494.353 466.015
3167 0 60.2452 12.6649 763 103.844 494.651 464.026
3168 0 61.2553 13.2397 811 109.11 494.631 462.666
3169 0 62.1586 13.2403 823 108.017 494.572 462.061
3170 0 67.1114 12.7102 853 105.851 493.591 462.59
3171 0 68.1923 13.1393 896 105.019 494.469 457.32
3172 0 69.1271 13.1208 907 106.859 493.819 460.228
3173 0 71.0995 13.249 942 107.979 493.931 458.737
3174 0 74.1592 13.5654 1006 103.159 493.636 458.334
3175 0 76.21 12.9248 985 105.413 493.946 458.006
3176 0 78.198 13.2868 1039 112.376 493.644 457.314
3177 0 79.1344 13.3823 1059 112.269 493.72 455.316
3178 0 82.1104 13.1896 1083 111.934 493.607 454.408
3179 0 85.13 13.403 1141 106.93 493.636 453.479
3180 0 88.1689 13.7237 1210 103.038 492.941 451.977
3181 0 92.172 13.4314 1238 109.315 493.141 450.832
3182 0 94.3066 13.6152 1284 120.815 493.157 449.085
3183 0 98.2134 13.4707 1323 114.901 492.403 445.596
3184 0 100.167 13.787 1381 114.949 492.571 444.804
3185 0 104.268 13.9928 1459 113.412 491.988 443.485
3186 0 106.189 13.5985 1444 118.412 491.935 442.825
3187 0 110.253 13.1787 1453 113.312 491.785 440.579
3188 0 114.38 13.6562 1562 115.81 491.632 438.323
3189 0 119.289 13.6727 1631 113.498 491.575 436.044
3190 1 62.0791 12.1297 753 115.778 490.865 465.025
3191 0 68.0703 12.3255 839 109.496 491.085 463.434
3192 0 70.0276 12.3808 867 103.89 490.433 461.352
3193 0 72.0665 12.5301 903 107.327 490.36 459.653
3194 0 74.0887 12.5525 930 107.738 490.504 458.998
3195 0 77.0949 12.5559 968 108.908 490.718 457.178
3196 0 79.1722 12.4286 984 110.246 490.79 455.351
3197 0 80.0507 12.8668 1030 106.674 491.091 454.243
3198 0 85.1768 12.7734 1088 103.821 490.922 454.934
3199 0 88.2065 13.219 1166 101.196 490.768 453.659
3200 0 91.1716 12.9317 1179 101.979 490.329 452.042
3201 0 96.205 13.6791 1316 102.334 490.52 450.125
3202 0 95.2176 12.9808 1236 113.04 491.135 449.957
3203 1 51.0717 11.3762 581 108.15 490.454 471.8
3204 0 52.0536 11.7187 610 115.697 490.138 472.564
3205 0 53.337 12.0742 644 116.269 492.247 471.775
3206 0 56.268 11.5341 649 117.279 492.194 471.263
3207 0 57.2482 11.7384 672 114.28 492.329 470.44
3208 0 60.1972 11.4789 691 116.472 492.836 469.463
3209 0 61.2251 12.1029 741 113.861 492.873 468.641
3210 0 63.2401 12.1284 767 116.836 492.979 467.359
3211 0 65.1954 11.9487 779 114.725 492.709 466.076
3212 0 65.1674 12.4909 814 113.805 492.482 465.047
3213 0 68.2245 12.2976 839 114.269 492.603 463.733
3214 0 72.0971 12.1364 875 116.8 491.274 462.951
3215 0 73.1387 12.3601 904 114.924 491.554 461.94
3216 0 75.0394 12.4335 933 111.245 490.703 460.435
3217 0 77.1049 12.1782 939 111.045 490.342 458.443
3218 0 77.112 12.7477 983 110.431 490.892 458.244
3219 0 80.1552 12.7752 1024 110.191 491.694 455.467
3220 0 85.2096 12.3695 1054 106.15 491.64 454.161
3221 0 87.2005 12.0412 1050 113.12 491.695 452.929
3222 1 46.0502 9.25078 426 117.669 491.009 474.545
3223 0 47.0385 9.75796 459 110.747 490.479 473.767
3224 0 50.0594 10.2678 514 112.387 490.669 474.619
3225 0 50.0382 10.6918 535 110.164 489.979 471.114
3226 0 53.1918 10.8099 575 112.878 490.344 468.936
3227 0 53.1918 10.8099 575 152.337 490.344 468.936
3228 0 56.0976 11.783 661 106.504 491.51 468.256
3229 0 58.0927 12.0841 702 103.766 491.564 467.339
3230 0 60.1072 12.0951 727 104 491.732 467.069
3231 0 61.0634 12.1022 739 111.012 491.495 466.031
3232 0 62.0618 12.0686 749 109.243 490.701 465.3
3233 0 64.0372 11.9618 766 106.855 491.048 463.914
3234 0 67.0742 12.2998 825 108.338 491.161 462.604
3235 0 69.0626 11.714 809 112.016 491.399 460.428
3236 0 70.283 12.5635 883 106.912 493.951 459.559
3237 0 74.1845 12.0241 892 109.603 494.124 458.084
3238 0 75.2585 11.7595 885 100.218 494.27 456.634
3239 0 78.2034 12.6849 992 110.601 494.328 456.671
3240 0 82.2824 12.6272 1039 109.011 494.209 455.591
3241 1 43.0157 10.4845 451 112.902 494.736 473.929
3242 0 44.0505 10.9193 481 120.091 495.555 473.64
3243 0 44.3018 11.7151 519 112.73 493.948 472.281
3244 0 44.1369 11.2378 496 112.091 494.607 471.784
3245 0 45.3757 11.4379 519 103.592 493.919 471.283
3246 0 46.3363 11.9345 553 104.08 494.472 470.203
3247 0 49.3117 11.985 591 107.118 494.457 469.523
3248 0 51.3055 12.2209 627 110.458 494.121 469.193
3249 0 51.2346 12.3549 633 109.659 493.908 467.937
3250 0 52.3568 12.5867 659 110.534 494.144 467.219
3251 0 54.3254 12.3699 672 115.905 493.868 466.743
3252 0 55.3498 12.701 703 112.969 494.639 466.316
3253 0 56.1808 12.9226 726 111.387 494.339 466.472
3254 0 57.1268 12.7611 729 114.499 494.545 464.492
3255 0 61.2117 12.906 790 117.044 494.514 463.939
3256 0 62.1602 13.2883 826 122.944 494.381 463.019
3257 0 63.1516 13.0638 825 122.319 494.228 461.899
3258 0 63.1481 13.2704 838 117.082 493.926 460.663
3259 0 67.1266 13.1393 882 123.694 494.026 461.277
3260 0 66.117 13.7332 908 121.692 494.037 459.948
3261 0 70.1185 13.3203 934 124.089 494.34 458.664
3262 0 72.1708 13.3018 960 127.142 493.758 456.406
3263 0 74.165 13.6587 1013 119.527 494.006 456.575
3264 0 76.1682 13.7196 1045 126.334 493.621 455.208
3265 0 79.116 13.6888 1083 134.825 493.807 454.089
3266 0 81.1906 13.7331 1115 135.884 494.108 453.08
3267 0 83.1522 13.9263 1158 132.921 494.395 451.661
3268 0 85.1408 13.8124 1176 134.134 493.972 451.12
3269 0 88.1166 14.095 1242 137.771 494.054 449.244
3270 0 92.2268 13.9873 1290 138.229 493.972 448.843
3271 0 94.2623 13.5367 1276 139.724 494.6 448.262
3272 1 47.0622 12.2179 575 136.026 493.717 470.598
3273 0 48.1395 12.9623 624 131.508 492.688 469.835
3274 0 49.1339 12.9849 638 135.752 493.088 469.549
3275 0 52.0247 12.9554 674 134.43 492.58 467.113
3276 0 54.0323 12.9552 700 127.5 492.87 467.859
3277 0 56.0766 12.8039 718 129.887 492.613 468.421
3278 0 57.0373 12.7811 729 120.553 492.549 466.977
3279 0 59.0534 12.8697 760 118.663 492.072 464.753
3280 0 59.0534 12.8697 760 165.955 491.072 464.753
3281 0 63.0494 13.4022 845 116.634 492.927 463.508
3282 0 64.0448 13.272 850 129.762 492.793 462.861
3283 0 66.0328 13.569 896 116.717 492.881 461.151
3284 0 69.1107 13.3554 923 118.164 492.69 460.956
3285 0 71.1865 13.1205 934 122.667 493.772 460.277
3286 0 73.2496 13.1605 964 126.674 493.673 458.701
3287 0 74.149 13.7021 1016 126.234 493.612 458.468
3288 0 77.0554 13.5487 1044 124.209 493.58 457.222
3289 0 78.2349 13.9452 1091 127.188 494.013 455.812
3290 0 81.19 13.7209 1114 135.093 492.675 454.318
3291 0 84.1642 13.8063 1162 131.767 492.752 453.273
3292 0 88.2899 13.6029 1201 119.883 492.718 451.994
3293 0 90.2508 13.6841 1235 122.065 492.758 452.232
3294 0 94.2087 13.7673 1297 125.53 492.81 451.249
3295 0 95.1818 13.8787 1321 122.329 492.528 448.695
3296 1 52.3856 12.5607 658 119.644 492.565 470.381
3297 0 53.2982 12.6083 672 121.452 493.223 470.129
3298 0 54.2095 12.7099 689 118.025 492.865 471.097
3299 0 55.1392 12.8946 711 114.288 492.983 470.872
3300 0 57.1491 13.1586 752 110.174 492.87 469.868
3301 0 59.1684 13.0813 774 114.584 492.598 467.207
3302 0 61.3814 13.0821 803 116.671 492.978 468.035
3303 0 62.1922 13.3296 829 119.709 492.806 466.668
3304 0 65.2078 13.3266 869 121.709 492.791 466.422
3305 0 67.1098 13.3513 896 117.641 492.739 465.276
3306 0 69.162 13.5045 934 121.211 492.8 463.884
3307 0 72.2488 13.4673 973 118.254 491.784 462.292
3308 0 75.1954 13.2854 999 117.699 491.975 460.538
3309 0 77.1683 13.8917 1072 109.909 491.635 459.243
3310 0 80.286 13.6014 1092 115.105 491.696 457.834
3311 0 84.2911 13.2991 1121 113.761 492.02 457.133
3312 0 87.2077 13.1984 1151 115.06 491.72 455.101
3313 0 88.2827 13.7853 1217 117.054 491.551 454.197
3314 0 94.1467 13.2347 1246 116.795 492.051 453.213
3315 0 97.0927 13.3275 1294 115.296 491.87 451.926
3316 1 55.1232 12.2816 677 117.501 492.077 472.012
3317 0 58.1485 12.7432 741 119.227 491.537 470.842
3318 0 59.2644 12.7902 758 114.728 492.131 469.672
3319 0 61.2365 12.5415 768 116.241 492.361 468.461
3320 0 63.2609 12.5986 797 115.368 492.231 467.21
3321 0 65.1611 12.5535 818 109.941 492.235 466.436
3322 0 68.2336 12.8236 875 109.293 492.082 463.016
3323 0 70.3916 12.7146 895 109.225 492.362 463.525
3324 0 72.4437 12.8514 931 110.354 492.565 461.257
3325 0 76.3379 13.0211 994 109.759 492.478 460.047
3326 0 79.3454 12.8048 1016 108.717 492.282 459.223
3327 0 82.4271 12.8599 1060 106.902 492.297 456.799
3328 0 86.6188 12.8148 1110 107.206 492.661 450.699
3329 0 87.3859 12.851 1123 107.326 492.835 453.147
3330 0 91.4823 12.6691 1159 113.669 492.949 453.209
3331 1 49.2419 11.8192 582 116.601 492.529 472.576
3332 0 49.2082 11.5834 570 111.611 492.086 468.998
3333 0 51.1639 11.8638 607 109.209 492.801 469.077
3334 0 52.3239 11.7919 617 104.746 492.066 467.16
3335 0 53.1765 11.8661 631 117.151 492.301 466.661
3336 0 55.45 11.578 642 109.731 492.136 465.829
3337 0 56.237 11.7005 658 118.064 492.299 465.295
3338 0 59.6961 11.8433 707 116.574 492.283 463.704
3339 0 61.6062 11.8982 733 112.447 492.93 459.726
3340 0 60.4133 12.4807 754 106.895 492.757 461.54
3341 0 63.4374 11.9961 761 115.997 492.866 460.064
3342 0 63.4374 11.9961 761 153.055 493.866 460.064
3343 0 69.3423 11.9696 830 115.423 492.99 458.201
3344 0 70.2304 12.4875 877 110.569 493.345 456.553
3345 0 72.6446 11.8935 864 108.966 493.168 455.023
3346 0 76.8145 12.1722 935 110.533 493.825 454.225
3347 0 76.5422 12.3331 944 106.069 494.053 452.663
3348 0 80.8179 12.1755 984 98.7724 493.816 451.451
3349 0 82.5061 12.0718 996 101.083 494.037 450.494
3350 1 45.279 10.2034 462 103.758 493.989 468.232
3351 0 45.3787 11.0404 501 101.146 494.313 467.77
3352 0 49.2208 11.0522 544 99.3824 494.579 466.836
3353 0 48.1812 12.3285 594 93.5657 494.414 466.582
3354 0 51.1586 11.5718 592 95.1655 494.38 465.657
3355 0 52.1876 11.9377 623 93.7239 494.963 465.093
3356 0 54.2758 11.6442 632 89.8354 494.932 463.199
3357 0 54.1426 12.2639 664 96.2274 494.884 463.14
3358 0 57.2271 11.4631 656 93.1616 495.037 461.204
3359 0 60.3385 12.3304 744 94.6492 494.336 460.157
3360 0 62.5645 12.4192 777 97.7207 494.891 459.649
3361 0 63.4803 12.9332 821 94.5055 494.039 458.157
3362 0 65.7562 12.4095 816 99.3186 494.743 457.505
3363 0 66.8202 13.0051 869 97.481 494.876 455.354
3364 0 70.8711 12.4875 885 94.2927 494.202 454.451
3365 0 74.9305 12.9587 971 97.6571 494.079 454.551
3366 0 76.7983 12.7998 983 92.4395 494.378 453.151
3367 0 78.7261 12.7277 1002 92.3822 494.45 452.359
3368 0 82.019 12.9604 1063 89.3678 494.664 450.086
3369 0 83.7933 13.2469 1110 90.9297 494.214 449.257
3370 0 85.6531 13.2394 1134 92.5018 493.876 448.195
3371 0 93.6902 14.612 1369 84.4492 494.214 443.875
3372 1 47.3992 10.8652 515 88.2 494.062 465.934
3373 0 49.3533 11.8128 583 88.1475 494.744 463.842
3374 0 50.175 11.7389 589 88.5806 494.228 464.399
3375 0 52.2098 11.5687 604 88.2914 495.061 464.581
3376 0 54.2799 12.1408 659 82.9332 494.099 464.344
3377 0 56.193 11.763 661 81.7504 494.002 463.802
3378 0 58.2761 12.2863 716 83.5587 493.792 462.496
3379 0 59.2502 12.3713 733 84.5089 493.723 461.469
3380 0 61.2324 12.0524 738 87.9973 494.446 460.981
3381 0 61.158 12.0344 736 86.6372 493.635 459.429
3382 0 62.1513 12.2604 762 95.2546 493.136 458.975
3383 0 65.116 12.04 784 96.5663 493.332 457.574
3384 0 66.1528 12.456 824 93.0121 493.29 455.715
3385 0 71.0519 12.3712 879 96.3106 493.307 455.14
3386 0 73.2006 12.6912 929 86.5178 493.905 454.777
3387 0 74.3405 12.4831 928 88.6778 493.556 453.253
3388 0 78.2957 12.6699 992 89.3901 493.431 451.57
3389 0 81.5289 12.3269 1005 87.1652 494.05 449.848
3390 0 84.4366 12.2577 1035 87.8106 493.935 449.891
3391 0 88.4076 12.4876 1104 86.9212 494.268 446.605
3392 0 90.5426 12.2152 1106 84.038 494.034 446.128
3393 1 48.3157 9.37583 453 82.1987 494.7 467.57
3394 0 50.1899 10.8986 547 81.3857 494.711 469.305
3395 0 52.2435 11.2167 586 79.2799 494.176 468.167
3396 0 53.0812 12.0758 641 75.9126 493.147 468.133
3397 0 55.0439 11.9723 659 87.7041 493.897 466.32
3398 0 56.1509 11.9499 671 86.1475 494.349 466.387
3399 0 58.0546 12.1265 704 86.3935 493.766 465.162
3400 0 59.0705 12.375 731 91.8427 493.417 464.687
3401 0 61.097 11.9973 733 91.4093 493.446 463.604
3402 0 62.102 12.1413 754 95.2414 493.61 462.531
3403 0 65.0975 12.0435 784 89.6837 493.925 461.5
3404 0 66.1303 12.2637 811 95.3132 493.366 460.962
3405 0 69.1084 12.285 849 97.7668 493.241 459.258
3406 0 71.1601 12.3384 878 96.0547 493.049 458.475
3407 0 74.19 12.5623 932 100.329 492.712 457.37
3408 0 76.2515 12.2621 935 99.2684 492.725 456.967
3409 0 78.1749 12.4976 977 102.912 492.758 456.453
3410 1 43.0631 10.3337 445 102.056 493.148 474.081
3411 0 43.0351 11.2234 483 97 493.246 473.865
3412 0 46.0213 11.4947 529 100.561 493.019 473.278
3413 0 46.086 12.238 564 98.0762 493.67 473.23
3414 0 48.0995 12.0375 579 100.563 493.335 473.259
3415 0 50.0739 12.2819 615 101.351 492.93 471.844
3416 0 52.0618 12.4083 646 102.116 492.85 471.808
3417 0 52.0382 12.5485 653 100.544 492.352 471.337
3418 0 53.094 12.9393 687 98.4032 492.482 469.93
3419 0 56.1028 12.5484 704 95.679 492.064 469.959
3420 0 57.1488 13.1061 749 97.0481 491.83 468.899
3421 0 59.089 13.065 772 97.408 491.843 469.645
3422 0 59.1347 13.3424 789 98.8758 492.033 469.129
3423 0 61.105 13.2722 811 101.619 492.441 467.525
3424 0 62.1005 13.3332 828 104.6 491.883 467.069
3425 0 65.0809 13.7214 893 105.841 491.816 465.834
3426 0 67.0645 13.2708 890 100.635 491.794 465.815
3427 0 69.1225 13.7003 947 103.364 491.677 465.245
3428 0 73.1118 13.9102 1017 103.914 491.352 462.596
3429 0 75.2014 13.7896 1037 111.878 490.935 461.922
3430 0 77.1178 13.9138 1073 109.349 490.843 461.158
3431 0 79.1839 13.7275 1087 107.375 490.961 460.082
3432 0 83.1696 13.9113 1157 104.5 490.994 457.79
3433 0 85.1499 14.222 1211 108.435 490.912 457.507
3434 0 89.2062 13.8667 1237 109.717 491.133 456.292
3435 0 93.197 13.4232 1251 108.947 491.189 454.558
3436 1 51.115 12.6773 648 104.221 490.671 473.631
3437 0 53.1401 12.6646 673 105.909 491.602 473.12
3438 0 54.2005 13.0811 709 107.468 490.961 471.942
3439 0 58.3246 12.7905 746 107.874 490.954 471.678
3440 0 58.1439 12.9162 751 108.372 490.581 464.462
3441 0 60.279 13.0559 787 105.262 490.501 468.427
3442 0 62.2863 13.149 819 108.278 490.617 466.592
3443 0 64.2672 13.1482 845 102.749 490.493 467.836
3444 0 65.2142 13.1106 855 106.118 490.698 467.72
3445 0 68.248 13.2312 903 108.028 490.509 466.664
3446 0 71.3021 13.0571 931 113.603 490.396 464.745
3447 0 73.2801 13.1414 963 109.531 490.63 465.593
3448 0 74.4695 13.2672 988 118.598 490.861 464.653
3449 0 78.303 13.2434 1037 114.195 490.739 462.508
3450 0 82.3875 13.1452 1083 112.419 490.466 460.524
3451 0 82.3275 13.3613 1100 113.568 490.516 458.477
3452 1 44.1709 11.6366 514 110.905 490.399 477.745
3453 0 46.2127 12.1612 562 104.027 490.272 477.185
3454 0 48.2415 11.7948 569 109.081 490.221 476.812
3455 0 48.2109 12.5283 604 105.555 490.166 476.791
3456 0 49.2075 12.742 627 105.59 490.758 476.485
3457 0 50.1486 12.8817 646 103.074 490.791 475.087
3458 0 52.0736 13.1737 686 95.3309 490.665 474.418
3459 0 54.1586 13.0542 707 104.907 490.479 473.775
3460 0 57.0593 12.7061 725 106.695 490.354 471.662
3461 0 57.0963 13.1007 748 104.561 490.46 472.374
3462 0 60.0594 13.4533 808 103.218 490.889 470.754
3463 0 61.2239 13.2465 811 103.751 491.055 470.123
3464 0 62.2434 13.6721 851 104.215 491.417 468.724
3465 0 66.197 13.1728 872 110.498 490.995 467.842
3466 0 68.1305 13.4888 919 106.155 491.011 465.376
3467 0 70.2365 13.8532 973 106.036 491.249 463.903
3468 0 72.1894 13.6031 982 109.994 490.395 463.193
3469 0 74.0831 14.1058 1045 105.93 491.054 461.214
3470 0 78.1384 13.9112 1087 106.334 491.184 459.983
3471 0 80.1773 13.7944 1106 105.382 490.56 459.721
3472 0 82.0965 13.8008 1133 105.297 490.202 457.632
3473 0 86.1761 13.5652 1169 106.18 490.282 456.621
3474 0 89.2139 13.8431 1235 104.131 490.602 454.718
3475 0 92.2503 13.7127 1265 99.0435 490.523 452.697
3476 0 97.2829 13.4556 1309 104.845 490.114 451.451
3477 1 51.2232 12.9238 662 101.207 490.35 474.329
3478 0 54.1983 13.2108 716 121 490.994 472.32
3479 0 55.4149 13.3177 738 121.814 490.789 469.86
3480 0 58.1414 13.3124 774 128.495 492.326 469.583
3481 0 57.1432 13.8074 789 127.354 490.266 469.307
3482 0 60.2473 13.6438 822 120.697 490.42 468.406
3483 0 63.1371 13.6687 863 122.648 490.784 467.532
3484 0 64.0865 13.6846 877 126.763 491 466.946
3485 0 66.1666 14.0101 927 130.617 490.948 465.77
3486 0 69.2264 13.9253 964 132.078 491.336 463.824
3487 0 72.2515 13.5499 979 127.128 492.005 462.599
3488 0 74.1925 13.8693 1029 129.431 491.743 459.763
3489 0 76.1881 13.8211 1053 132.775 492.266 459.237
3490 0 78.2869 13.8848 1087 128.644 491.24 457.27
3491 0 83.2621 13.5596 1129 129.488 492.035 456.26
3492 0 85.3401 13.3232 1137 136.774 492.118 454.968
3493 1 45.0372 12.3231 555 131.058 493.429 474.795
3494 0 47.0582 12.7927 602 133.865 493.586 474.083
3495 0 48.0882 13.5168 650 126.863 493.329 471.154
3496 0 50.0539 13.2058 661 108.735 493.876 471.315
3497 0 52.0705 13.4241 699 123.308 493.901 471.162
3498 0 53.0755 13.4902 716 136.486 493.845 469.818
3499 0 54.1929 13.6549 740 135.25 493.973 469.288
3500 0 57.1684 13.5564 775 123.966 494.285 468.155
3501 0 57.1394 13.6858 782 140.448 494.049 467.614
3502 0 60.0521 13.838 831 140.011 493.821 467.079
3503 0 61.1292 13.8723 848 141.713 494.205 466.892
3504 0 64.106 13.9301 893 132.695 494.454 465.423
3505 0 65.0788 14.1213 919 134.678 494.753 464.19
3506 0 67.2483 14.0524 945 133.745 493.368 461.744
3507 0 70.1481 14.5834 1023 133.452 493.52 462.027
3508 0 73.2223 14.2033 1040 132.293 493.33 461.406
3509 0 76.3427 13.9634 1066 134.126 493.364 460.189
3510 0 77.3192 14.6923 1136 128.329 493.683 458.589
3511 0 80.3607 14.5718 1171 119.048 493.745 457.148
3512 0 85.3368 14.4135 1230 115.708 493.346 454.507
3513 0 87.1752 14.3504 1251 116.679 493.725 454.306
3514 0 91.2816 14.2964 1305 110.413 493.804 452.111
3515 0 94.369 14.2526 1345 110.857 494.388 451.016
3516 0 98.4241 14.275 1405 108.552 493.215 448.296
3517 1 53.533 13.3749 716 133.983 492.92 468.983
3518 0 53.4566 14.2545 762 128.196 492.508 467.142
3519 0 54.8061 14.5239 796 128.798 492.665 466.945
3520 0 58.896 15.2642 899 118.709 492.709 464.616
3521 0 58.601 14.4025 844 124.117 492.352 465.884
3522 0 61.5774 14.0149 863 123.127 492.808 465.322
3523 0 61.8171 14.915 922 131.732 493.053 463.923
3524 0 63.8025 14.6389 934 129.171 492.855 462.122
3525 0 66.5767 14.5547 969 128.119 492.674 462.46
3526 0 67.4607 14.8383 1001 130.737 492.987 460.974
3527 0 70.6888 14.6416 1035 129.088 492.911 459.323
3528 0 73.6491 14.3654 1058 139.41 493.079 458.117
3529 0 76.8357 14.8759 1143 149.276 493.005 456.179
3530 0 76.6197 14.8917 1141 144.94 493.303 456.408
3531 0 81.6716 14.8889 1216 145.322 492.738 455.535
3532 0 84.492 14.9718 1265 145.886 493.538 453.933
3533 0 86.8559 14.8061 1286 150.495 493.277 453.606
3534 0 90.773 14.8833 1351 144.748 492.674 451.804
3535 0 93.7372 14.7327 1381 145.45 492.459 450.773
3536 0 97.8022 14.7645 1444 142.965 492.288 448.125
3537 0 100.894 14.7977 1493 150.589 492.053 447.048
3538 0 104.753 14.8445 1555 145.102 492.065 445.65
3539 1 56.4472 13.3045 751 142.466 491.333 467.895
3540 0 59.4426 13.8285 822 152.247 491.835 467.687
3541 0 61.5405 13.6983 843 147.238 491.872 466.587
3542 0 62.4066 13.6524 852 128.772 492.008 465.932
3543 0 64.5638 13.9862 903 129.116 491.807 465.262
3544 0 67.4876 13.8099 932 138.207 491.865 463.955
3545 0 71.6032 13.5608 971 133.937 491.689 462.161
3546 0 73.2644 14.0996 1033 129.553 491.077 458.939
3547 0 76.2975 14.024 1070 129.175 491.539 459.556
3548 0 78.2289 13.9974 1095 134.014 491.331 458.243
3549 0 81.3619 13.9008 1131 124.134 491.918 458.042
3550 0 84.4566 13.7704 1163 126.991 491.553 455.983
3551 0 86.4146 13.956 1206 137.655 491.821 455.251
3552 0 89.2671 14.0253 1252 141.26 491.789 453.927
3553 0 93.4948 14.0543 1314 142.896 490.839 451.873
3554 0 96.2621 14.0346 1351 140.933 490.889 450.645
3555 0 97.3439 14.382 1400 132.876 490.881 448.778
3556 0 101.308 14.0561 1424 138.827 491.091 448.001
3557 0 104.248 14.2256 1483 134.908 491.399 446.39
3558 0 108.42 14.121 1531 139.675 491.339 443.952
3559 0 112.286 14.2405 1599 136.152 491.173 441.944
3560 0 116.276 14.4828 1684 136.312 491.428 439.346
3561 0 120.296 14.2897 1719 138.987 491.379 436.583
3562 0 125.238 13.9096 1742 136.997 491.65 434.982
3563 1 68.0431 12.1247 825 135.453 490.858 463.752
3564 0 70.1284 12.2347 858 128.763 491.677 463.945
3565 0 73.1132 12.0908 884 137.702 491.673 462.339
3566 0 76.0866 12.4332 946 133.09 491.461 461.036
3567 0 78.2217 12.439 973 134.303 491.687 458.751
3568 0 80.1437 12.6148 1011 139.278 491.366 456.979
3569 0 82.071 12.5867 1033 141.552 492.341 457.378
3570 0 86.2529 12.2547 1057 145.573 492.505 455.411
3571 0 89.1704 12.4593 1111 144.302 492.713 454.235
3572 0 92.1923 12.6366 1165 136.495 492.518 451.303
3573 0 95.1768 12.6186 1201 128.916 492.795 449.162
3574 0 98.1321 12.6156 1238 140.127 492.155 448.701
3575 0 98.1321 12.6156 1238 172.758 491.155 448.701
3576 0 105.186 12.5872 1324 134.05 492.214 443.61
3577 0 108.233 12.9259 1399 135.058 492.848 442.317
3578 1 59.2185 10.9425 648 123.696 492.037 467.846
3579 0 62.2091 11.3488 706 123.771 492.275 466.101
3580 0 63.157 11.3368 716 119.771 492.67 465.33
3581 0 67.2666 11.3727 765 121.967 492.665 463.298
3582 0 68.2385 11.8408 808 119.339 492.575 461.649
3583 0 73.201 11.5026 842 129.704 492.652 460.051
3584 0 73.2761 11.4498 839 137.646 492.496 458.88
3585 0 76.2159 11.5461 880 132.178 492.658 456.632
3586 0 79.1593 11.7232 928 133.012 492.904 456.941
3587 0 80.1828 11.798 946 115.64 492.722 455.756
3588 0 82.1509 11.6736 959 112.302 493.031 454.706
3589 0 86.2182 11.8884 1025 117.026 492.84 452.107
3590 0 89.2152 11.9374 1065 113.866 492.789 450.604
3591 0 92.1404 11.7864 1086 108.907 492.871 449.912
3592 0 92.3148 11.8833 1097 111.055 493.416 447.394
3593 0 94.6076 11.5847 1096 110.404 493.329 445.502
3594 0 97.309 11.7358 1142 105.916 493.039 444.35
3595 0 102.297 11.9456 1222 104.785 493.07 442.642
3596 1 56.1635 10.1846 572 101.626 493.182 467.131
3597 0 58.0924 10.5521 613 98.5775 492.299 466.258
3598 0 59.2258 10.671 632 111.669 492.987 465.524
3599 0 59.1497 11.0229 652 108.02 492.345 464.419
3600 0 62.1505 11.1665 694 109.677 493.837 463.51
3601 0 64.1505 11.4107 732 101.995 493.549 462.962
3602 0 64.1295 11.773 755 105.197 493.514 462.056
3603 0 66.1081 11.6022 767 99.4368 493.678 461.909
3604 0 67.1517 11.69 785 97.8522 493.654 460.696
3605 0 70.3178 11.6756 821 99.0171 493.644 459.256
3606 0 71.394 12.2559 875 92.7554 494.522 457.464
3607 0 73.3503 11.7109 859 92.2608 494.829 456.278
3608 0 77.317 12.0284 930 85.6344 495.008 455.729
3609 0 79.3818 11.5266 915 83.7978 494.412 454.679
3610 0 82.394 11.7242 966 81.2319 494.753 452.227
3611 0 83.5337 12.462 1041 85.6158 494.84 451.81
3612 1 46.3179 9.45639 438 94.9909 494.041 471.183
3613 0 48.1943 9.98043 481 93.1809 493.753 469.933
3614 0 50.1981 10.4785 526 95.2262 494.302 468.759
3615 0 51.2692 10.9617 562 89.4573 493.769 468.11
3616 0 53.1618 11.6437 619 81.6656 493.763 468.199
3617 0 54.1505 11.2649 610 80.4262 495.52 467.339
3618 0 55.1787 11.653 643 85.2815 494.681 465.908
3619 0 56.1783 11.6771 656 84.1631 495.431 465.646
3620 0 58.1696 11.5868 674 82.2359 494.323 464.221
3621 0 60.1879 12.2284 736 86.1168 494.333 463.651
3622 0 61.1954 12.0597 738 87.8957 495.084 462.965
3623 0 63.3709 12.2927 779 88.8139 494.34 461.842
3624 0 66.242 12.3034 815 85.2785 494.696 461.694
3625 0 68.2312 12.0766 824 92.3143 494.863 461.552
3626 0 71.3343 12.14 866 91.6189 494.583 459.447
3627 0 72.207 12.5888 909 93.0319 493.998 458.57
3628 0 74.2616 12.2944 913 90.4107 493.83 458.12
3629 0 76.2116 12.5571 957 92.0627 493.829 457.494
3630 0 79.2801 12.3486 979 91.1696 493.695 454.756
3631 0 81.2191 12.4355 1010 88.0871 493.385 454.424
3632 0 82.1903 11.9357 981 93.3884 493.344 452.357
3633 0 87.1503 12.2776 1070 86.7701 493.821 451.49
3634 1 47.0816 10.1526 478 85.4686 492.232 471.519
3635 0 48.107 11.0587 532 87.4342 491.773 470.098
3636 0 48.057 11.1118 534 87.6311 492.758 468.629
3637 0 51.0936 11.5279 589 90.0102 491.666 466.431
3638 0 53.1595 11.2304 597 88.2312 492.715 469.198
3639 0 53.0861 10.8691 577 90.7366 492.631 467.522
3640 0 55.0681 10.8411 597 105.76 491.112 464.866
3641 0 56.167 11.3946 640 101.591 491.444 466.205
3642 0 56.167 11.3946 640 132.155 491.444 466.205
3643 0 60.041 11.6587 700 97.2929 492.037 465.704
3644 0 62.0778 11.8239 734 94.6281 491.837 465.817
3645 0 64.0928 11.889 762 96.2638 491.727 463.496
3646 0 65.1231 12.1923 794 95.3753 491.484 462.296
3647 0 66.1647 12.6049 834 93.476 491.802 461.339
3648 0 69.1003 12.5759 869 91.3475 491.524 460.083
3649 0 71.2677 12.867 917 92.4427 491.386 459.634
3650 0 72.1827 12.3575 892 105.222 493.943 460.897
3651 0 75.3417 12.6623 954 107.152 494.308 459.249
3652 0 75.2531 12.9297 973 115.183 494.939 458.848
3653 0 77.3583 12.8364 993 109.709 494.734 459.747
3654 0 80.4193 12.6462 1017 112.613 494.47 458.113
3655 0 83.297 12.8576 1071 113.202 494.389 456.092
3656 0 84.5741 12.9354 1094 115.127 492.644 453.136
3657 0 87.4064 12.6306 1104 125.552 492.533 452.582
3658 0 90.2786 12.3507 1115 121.371 492.9 450.489
3659 0 92.3614 12.5594 1160 118.901 492.172 448.342
3660 0 96.4231 13.0259 1256 119.657 492.193 446.997
3661 0 101.441 13.1702 1336 123.507 491.899 444.8
3662 0 104.449 13.0303 1361 124.965 492.003 443.729
3663 1 56.0635 11.2551 631 122.315 490.997 468.171
3664 0 58.0879 11.0522 642 123.506 490.852 465.528
3665 0 59.1495 12.1218 717 115.914 491.538 465.029
3666 0 62.0492 12.2806 762 109.535 491.639 467.623
3667 0 64.0705 12.2677 786 107.19 491.528 467.438
3668 0 65.0874 12.1222 789 102.527 491.793 466.393
3669 0 66.1261 12.7937 846 108.648 490.905 464.357
3670 0 69.0687 12.9436 894 130.906 491.697 463.613
3671 0 70.1205 13.1345 921 133.872 491.35 463.405
3672 0 72.0784 12.9165 931 132.029 490.894 462.104
3673 0 75.0959 12.8635 966 125.704 491.701 461.59
3674 0 77.1892 13.305 1027 132.357 491.103 459.544
3675 0 80.1287 13.029 1044 137.125 491.055 458.851
3676 0 83.1292 13.1723 1095 131.542 491.813 458.14
3677 0 83.1717 13.3699 1112 129.935 491.573 456.285
3678 0 85.147 13.0128 1108 132.738 491.773 454.44
3679 0 89.1653 13.2563 1182 126.873 491.774 451.929
3680 0 92.1109 12.9301 1191 131.586 491.693 450.202
3681 0 95.2866 13.3597 1273 121.732 491.936 447.672
3682 0 98.1493 14.9772 1470 128.113 491.879 444.85
3683 0 101.121 13.3306 1348 126.236 491.978 445.398
3684 0 103.374 13.485 1394 132.963 492.094 444.458
3685 0 106.3 13.1703 1400 128.034 492.034 442.722
3686 0 109.423 13.1691 1441 130.713 493.092 441.028
3687 1 58.2063 10.4971 611 131.426 492.592 466.064
3688 0 59.1044 11.0144 651 126.75 492.67 465.519
3689 0 63.171 11.3818 719 128.758 493.282 463.14
3690 0 65.0921 11.8755 773 128.918 493.807 464.084
3691 0 67.149 12.2563 823 125.448 493.288 463.38
3692 0 69.3623 11.7355 814 130.337 493.098 462.176
3693 0 70.2662 12.2961 864 128.655 493.037 461.475
3694 0 72.0915 12.4009 894 128.527 493.593 460.464
3695 0 74.179 12.1733 903 128.495 493.64 459.949
3696 0 74.4145 12.6051 938 136.295 494.278 458.893
3697 0 77.2582 12.7495 985 129.539 494.119 456.002
3698 0 80.1933 12.8066 1027 132.393 494.03 456.193
3699 0 83.3223 12.5777 1048 134.973 493.965 454.586
3700 0 86.3101 12.7563 1101 131.635 494.384 452.429
3701 0 87.3267 12.8483 1122 134.898 493.959 450.842
3702 0 90.3886 12.9552 1171 132.74 494.176 450.295
3703 0 92.6621 12.9611 1201 138.268 494.139 447.259
3704 0 97.6208 12.9276 1262 140.04 494.034 443.551
3705 0 98.5255 13.3569 1316 140.705 494.103 441.96
3706 0 101.584 13.3288 1354 142.491 494.547 441.285
3707 0 104.609 12.8765 1347 141.739 494.253 440.169
3708 0 108.486 13.3658 1450 141.12 494.438 438.448
3709 0 111.728 13.1749 1472 140.545 494.651 438.998
3710 1 59.3323 11.3092 671 137.116 494.261 464.554
3711 0 60.4382 12.0454 728 144.723 495.462 465.247
3712 0 63.3208 12.2709 777 138.6 495.577 464.097
3713 0 65.2904 12.4827 815 137.004 495.34 463.254
3714 0 66.3752 12.2034 810 140.148 495.336 462.468
3715 0 69.2462 12.665 877 137.214 495.16 461.895
3716 0 70.2525 12.4551 875 144.609 495.486 459.696
3717 0 71.2853 12.9339 922 142.839 495.573 459.924
3718 0 75.1351 12.7637 959 146.904 495.722 457.118
3719 0 77.2071 12.8356 991 149.513 495.563 456.154
3720 0 80.1604 13.0488 1046 146.045 495.793 454.506
3721 0 83.4747 12.5667 1049 147.591 495.724 453.977
3722 0 85.1948 12.8764 1097 148.117 495.857 452.676
3723 0 89.349 12.7366 1138 145.108 496.428 451.525
3724 0 93.2731 12.8976 1203 144.206 496.298 449.481
3725 0 95.4264 12.8057 1222 148.335 495.8 447.248
3726 0 98.5337 12.7571 1257 151.204 495.126 446.866
3727 1 53.374 11.5412 616 152.205 495.138 468.612
3728 0 55.3491 11.9424 661 155.123 495.136 467.312
3729 0 57.3061 12.2675 703 154.065 494.967 467.484
3730 0 59.2974 12.3614 733 155.771 495.139 466.644
3731 0 58.2831 12.4393 725 155.137 494.512 465.979
3732 0 62.3382 12.3199 768 158.449 494.449 465.038
3733 0 64.3453 12.7748 822 156.687 494.479 463.79
3734 0 67.3588 12.6338 851 153.694 494.804 462.875
3735 0 67.3237 12.8335 864 153.707 494.747 460.97
3736 0 67.2178 13.4042 901 157.032 494.165 461.786
3737 0 73.167 12.8063 937 147.443 494.44 459.693
3738 0 74.2518 12.8482 954 155.386 494.814 458.086
3739 0 76.3038 12.7779 975 159.299 495.154 458.404
3740 0 78.224 13.065 1022 156.45 494.695 456.569
3741 0 81.2495 13.0585 1061 140.502 494.192 456.029
3742 0 84.3055 12.8106 1080 146.981 494.594 454.832
3743 1 46.3875 12.0722 560 154.252 493.643 471.898
3744 0 49.1329 12.0083 590 152.702 494.002 472.359
3745 0 49.1945 12.1355 597 153.931 493.407 471.853
3746 0 50.0474 12.4082 621 155.374 494.57 471.932
3747 0 53.0385 12.5569 666 151.261 493.964 470.532
3748 0 54.0616 12.5043 676 149.74 494.163 471.293
3749 0 55.1442 12.7484 703 148.442 493.343 470.191
3750 0 58.1249 12.5936 732 147.783 493.173 468.825
3751 0 59.0752 12.6788 749 150.168 493.228 468.626
3752 0 60.1439 12.6862 763 139.95 492.662 468.482
3753 0 64.2547 12.1703 782 147.012 493.22 467.531
3754 0 64.2852 12.6157 811 147.448 493.01 466.656
3755 0 65.3351 12.765 834 146.205 493.016 466.813
3756 0 68.2486 12.5424 856 144.026 492.784 466.14
3757 0 70.4324 13.1474 926 140.844 492.947 463.852
3758 0 73.4795 12.8063 941 144.068 493.167 461.24
3759 0 75.3247 13.3555 1006 147.686 492.91 461.403
3760 0 77.307 13.22 1022 144.444 492.915 460.315
3761 0 82.6325 14.1833 1172 138.585 493.334 458.004
3762 0 83.4016 13.6808 1141 142.169 493.387 457.136
3763 0 87.4607 13.2974 1163 147.956 493.009 456.606
3764 1 47.2264 11.8789 561 152.481 492.774 475.943
3765 0 50.1856 12.1748 611 142.308 492.642 475.977
3766 0 51.5343 12.5936 649 153.718 493.022 475.112
3767 0 53.3747 13.1336 701 149.689 492.893 472.95
3768 0 55.4651 13.1614 730 147.81 492.886 470.105
3769 0 55.5736 13.0997 728 144.905 492.349 471.724
3770 0 57.2904 13.5276 775 146.591 492.693 470.859
3771 0 59.2678 13.8018 818 146.167 492.224 470.33
3772 0 59.3044 13.8607 822 146.97 492.073 468.04
3773 0 63.4529 13.2855 843 147.695 492.074 467.001
3774 0 64.3934 13.8523 892 153.47 491.869 466.939
3775 0 64.3498 14.2192 915 147.53 492.352 465.932
3776 0 69.5687 13.7993 960 154.611 492.271 463.44
3777 0 72.4818 13.8242 1002 153.163 492.148 461.811
3778 0 73.5612 14.3418 1055 147.457 492.178 462.579
3779 0 75.4574 14.3127 1080 146.756 492.434 463.663
3780 0 78.4768 14.208 1115 146.132 491.708 460.317
3781 0 80.4509 14.4312 1161 149.663 491.325 459.33
3782 0 82.3211 14.164 1166 149.451 490.988 459.57
3783 0 86.5267 14.4464 1250 141.64 490.274 455.493
3784 0 90.3278 14.3588 1297 141.278 490.661 453.324
3785 0 91.4701 14.0702 1287 153.799 491.736 456.468
3786 0 95.314 14.2896 1362 145.38 491.312 454.716
3787 0 96.5154 14.2775 1378 145.898 491.451 455.29
3788 0 101.592 14.4205 1465 147.074 491.917 450.027
3789 0 106.523 14.0251 1494 147.507 491.467 451.018
3790 0 111.37 15.1836 1691 140.368 491.325 446.974
3791 1 62.2532 13.3487 831 151.239 490.953 472.019
3792 0 63.2391 14.0103 886 149.749 490.85 470.371
3793 0 65.2734 14.2171 928 148.352 491.327 470.327
3794 0 66.3575 14.8438 985 138.962 490.779 468.988
3795 0 68.2712 14.9258 1019 146.535 490.685 467.305
3796 0 73.3184 14.2256 1043 145.912 491.109 466.315
3797 0 73.2602 14.742 1080 144.995 491.074 464.628
3798 0 76.4045 14.7635 1128 142.622 491.445 463.002
3799 0 80.2623 14.7641 1185 147.223 492.023 460.905
3800 0 81.3692 14.9565 1217 141.54 492.085 460.745
3801 0 83.2797 15.0577 1254 140.778 492.016 458.673
3802 0 87.2787 14.6657 1280 145.929 491.975 457.987
3803 0 90.3767 14.8379 1341 141.743 492.306 456.506
3804 0 92.4049 14.9343 1380 143.5 492.406 455.767
3805 0 97.138 14.5566 1414 145.813 492.414 454.055
3806 0 100.291 14.9366 1498 136.391 492.071 451.772
3807 0 104.165 14.6979 1531 135.69 491.911 449.446
3808 0 106.269 14.341 1524 149.964 491.828 448.46
3809 1 59.2393 13.4033 794 145.727 491.786 470.771
3810 0 60.2543 13.6256 821 149.387 492.582 470.314
3811 0 62.2905 13.8544 863 153.05 492.728 468.262
3812 0 63.2942 14.1877 898 144.428 492.577 467.185
3813 0 65.2807 14.2921 933 146.464 492.814 465.541
3814 0 67.3159 14.3354 965 144.577 492.915 464.467
3815 0 69.2909 14.5762 1010 143.584 493.828 463.386
3816 0 71.4802 14.3536 1026 141.906 493.236 462.345
3817 0 74.3899 14.6122 1087 139.304 492.942 460.699
3818 0 75.3668 14.8606 1120 141.782 493.011 458.786
3819 0 77.3845 15.0676 1166 148.348 492.882 458.583
3820 0 79.5155 15.0159 1194 151.806 493.173 456.206
3821 0 83.3082 14.5724 1214 146.757 493.722 456.007
3822 0 88.4305 14.6782 1298 141.73 493.371 452.786
3823 0 91.2763 14.5602 1329 150.953 493.178 451.839
3824 0 92.3053 15.0371 1388 150.556 493.287 450.252
3825 0 97.3665 14.7998 1441 149.38 493.488 448.054
3826 0 98.3926 14.9097 1467 154.74 493.304 446.3
3827 0 101.592 15.1685 1541 149.153 493.55 444.831
3828 0 105.358 15.1768 1599 153.143 493.487 444.085
3829 0 108.654 15.3055 1663 143.692 493.626 442.825
3830 0 112.484 14.5621 1638 145.036 493.802 442.21
3831 0 116.421 14.7311 1715 153.571 493.896 440.552
3832 0 119.562 14.8542 1776 156.192 494.035 437.369
3833 0 124.434 14.8994 1854 153.049 494.211 434.472
3834 0 131.321 14.8186 1946 154.024 494.094 432.703
3835 1 72.2274 13.6513 986 155.68 494.81 459.958
3836 0 75.269 13.8437 1042 161.917 494.306 458.012
3837 0 76.2205 13.9989 1067 161.695 494.451 456.508
3838 0 77.1666 14.4752 1117 169.441 494.732 455.048
3839 0 82.2993 14.3136 1178 165.461 495.065 453.126
3840 0 85.2132 14.6808 1251 164.221 495.287 451.809
3841 0 87.1209 14.83 1292 166.564 495.793 451.183
3842 0 91.2264 14.5024 1323 165.922 495.794 448.917
3843 0 94.2492 14.642 1380 162.026 495.909 447.293
3844 0 98.3483 14.591 1435 167.289 495.69 446.376
3845 0 101.215 14.6718 1485 168.886 496.079 445.222
3846 0 101.273 14.9695 1516 168.538 495.517 443.629
3847 0 106.139 14.9238 1584 166.975 496.18 440.994
3848 0 109.155 15.3085 1671 162.391 495.615 439.613
3849 0 109.155 15.3085 1671 173.454 495.615 439.613
3850 0 116.192 15.044 1748 164.236 495.938 437.043
3851 0 120.18 15.5101 1864 159.938 495.71 435.235
3852 0 124.257 15.2829 1899 161.649 495.414 431.938
3853 0 126.127 15.6112 1969 163.198 495.011 430.718
3854 0 132.23 15.2537 2017 171.122 494.954 426.714
3855 0 137.269 15.1819 2084 168.782 495.223 425.143
3856 0 139.27 15.2725 2127 164.418 495.851 423.668
3857 0 145.2 15.2341 2212 163.457 495.618 421.665
3858 0 151.209 15.3827 2326 165.662 495.726 418.116
3859 0 155.367 15.3572 2386 170.505 495.173 416.685
3860 0 160.458 15.7487 2527 161.811 494.593 413.672
3861 0 165.205 15.278 2524 164.192 494.883 410.859
3862 0 171.2 15.2512 2611 162.995 494.76 408.245
3863 0 177.466 15.2987 2715 159.956 495.052 405.274
3864 0 180.362 15.6352 2820 161.415 495.139 402.008
3865 0 188.331 16.0091 3015 159.629 494.866 398.471
3866 0 195.442 15.3396 2998 160.465 494.561 395.142
3867 1 107.12 13.2842 1423 158.77 494.46 438.652
3868 0 110.148 13.9993 1542 164.979 494.01 436.256
3869 0 113.149 13.8489 1567 159.506 494.247 433.346
3870 0 118.109 13.8601 1637 171.226 494.339 432.485
3871 0 124.202 13.937 1731 164.168 493.498 430.349
3872 0 128.152 14.0849 1805 162.961 493.574 426.867
3873 0 132.213 13.811 1826 163.354 493.831 424.895
3874 0 137.116 14.3456 1967 161.131 493.714 422.778
3875 0 143.258 14.1772 2031 164.515 493.966 419.938
3876 0 147.175 14.296 2104 170.14 493.329 420.291
3877 0 153.279 14.6074 2239 160.692 493.605 418.169
3878 0 157.262 14.4791 2277 152.562 493.732 416.363
3879 0 163.33 14.6207 2388 160.276 493.086 412.907
3880 1 93.3819 11.8545 1107 156.116 492.74 448.941
3881 0 94.3621 11.7102 1105 152.585 493.007 447.957
3882 0 96.3107 11.3487 1093 151.382 493.744 445.61
3883 0 98.3673 11.9857 1179 149.787 493.432 445.201
