index division length width area intensity CMx CMy
0 0 51.113 14.2234 727 168.531 632.084 333.744
1 0 54.1365 13.743 744 173.957 631.977 335.464
2 0 54.0628 14.4277 780 175.956 632.63 336.681
3 0 58.2108 14.0696 819 170.506 632.399 338.183
4 0 60.0982 14.077 846 172.301 631.405 339.792
5 0 61.0536 14.5282 887 173.015 630.493 340.86
6 0 64.0388 14.4131 923 174.315 630.088 342.173
7 0 66.1035 14.4924 958 175.429 629.842 343.641
8 0 68.0593 14.7665 1005 171.961 630.698 345.902
9 0 72.0969 14.5915 1052 169.44 630.175 347.913
10 0 74.0658 14.8247 1098 169.998 630.352 350.179
11 0 78.1204 14.7337 1151 171.505 630.448 352.684
12 0 81.354 14.5045 1180 179.524 631.13 354.897
13 0 85.1843 14.6506 1248 170.28 631.581 356.842
14 0 88.1869 14.4239 1272 173.412 632.263 358.789
15 0 90.1392 14.4554 1303 166.041 633.479 359.997
16 0 93.256 14.3047 1334 167.491 634.394 362.167
17 0 96.2213 14.4874 1394 173.505 635.296 364.214
18 0 99.1717 14.5707 1445 169.581 636.203 367.269
19 1 50.1311 13.2253 663 169.624 637.004 395.917
20 0 52.0952 13.3794 697 170.544 636.99 397.706
21 0 53.1162 13.7999 733 167.349 637.91 400.206
22 0 56.1272 13.6119 764 165.995 637.568 404.74
23 0 57.118 13.7085 783 166.908 637.816 408.257
24 0 59.0578 13.8 815 169.665 638.453 411.848
25 0 61.1314 13.5937 831 171.381 638.925 415.236
26 0 63.088 13.9171 878 162.352 639.026 418.319
27 0 66.1527 13.8921 919 173.584 639.508 421.949
28 0 67.0949 14.1889 952 175.111 639.506 426.216
29 0 71.1061 14.2463 1013 170.902 639.452 430.806
30 0 74.182 14.1005 1046 170.359 639.77 435.363
31 0 76.1876 13.913 1060 168.157 639.502 440.915
32 0 78.2709 13.926 1090 170.481 639.216 445.648
33 0 82.1726 13.9219 1144 168.302 638.23 451.001
34 0 85.2008 13.8496 1180 164.55 637.373 456.403
35 1 40.0352 12.2143 489 166.129 636.667 485.642
36 0 44.1082 12.288 542 167.295 637.044 484.987
37 0 44.0678 12.5035 551 165.483 636.938 486.147
38 0 46.2198 12.3107 569 165.787 636.195 486.267
39 0 48.2174 12.5473 605 170.051 635.721 484.998
40 0 49.3101 12.8168 632 167.35 634.866 483.63
41 0 52.1855 12.5705 656 175.098 633.811 482.276
42 0 52.117 12.8365 669 168.664 633.572 481.076
43 0 54.2634 12.9553 703 167.245 633.982 479.963
44 0 56.1253 13.2382 743 173.471 633.658 478.859
45 0 58.121 13.0762 760 165.291 633.49 478.078
46 0 60.1375 13.2031 794 167.942 633.297 477.365
47 0 62.124 12.9258 803 167.169 633.433 477.086
48 0 63.0752 13.2223 834 166.405 632.815 476.239
49 0 64.1414 13.1117 841 172.999 632.424 475.633
50 0 66.0746 13.3183 880 164.397 632.099 473.275
51 0 69.1071 13.3127 920 161.536 633.22 472.987
52 0 71.2396 13.3072 948 162.303 633.095 471.582
53 0 73.2411 13.3532 978 157.821 633.445 470.505
54 0 76.2387 12.9724 989 164.021 633.459 469.87
55 0 78.1658 13.2667 1037 162.467 633.402 467.335
56 0 82.1346 13.2222 1086 161.124 633.582 466.091
57 0 84.1659 13.0694 1100 163.049 633.946 464.578
58 0 86.2573 13.1003 1130 163.919 634.011 464.79
59 0 89.3285 12.9634 1158 156.04 634.377 463.356
60 0 92.3634 13.4577 1243 155.751 634.446 461.924
61 0 95.4592 13.2308 1263 162.807 634.313 460.444
62 1 50.081 12.34 618 158.55 634.159 481.045
63 0 53.1886 12.4087 660 163.538 634.108 480.361
64 0 54.1306 13.0425 706 161.822 634.329 479.126
65 0 55.0884 12.725 701 160.297 634.418 478.812
66 0 58.1785 12.4788 726 163.135 634.774 478.72
67 0 58.2301 13.1375 765 153.578 634.596 477.068
68 0 61.1191 12.8765 787 156.431 635.266 475.896
69 0 64.3525 12.9754 835 160.195 635.907 474.873
70 0 66.1756 12.9806 859 160.112 635.689 474.086
71 0 67.3638 12.5735 847 161.499 635.536 473.654
72 0 70.3049 13.0432 917 158.036 635.602 472.147
73 0 71.3094 13.757 981 157.351 635.498 470.277
74 0 74.4641 13.3487 994 160.196 635.381 470.044
75 0 78.2618 13.3782 1047 162.681 635.444 467.212
76 0 80.4398 13.5008 1086 162.066 634.812 467.164
77 0 83.3417 13.7866 1149 162.802 634.51 464.355
78 0 84.442 13.9386 1177 160.562 634.392 463.544
79 0 89.4928 13.5318 1211 155.836 634.467 462.264
80 0 92.5285 13.6823 1266 163.825 634.423 460.701
81 0 95.4219 13.5399 1292 147.713 633.909 459.195
82 0 98.4287 12.9739 1277 163.854 634.178 458
83 1 50.2791 12.0129 604 164.975 633.046 480.323
84 0 52.3677 12.4695 653 153.345 633.253 479.917
85 0 53.3133 12.7173 678 160.934 633.289 479.844
86 0 54.1745 12.5889 682 162.314 633.179 478.491
87 0 57.3968 12.5094 718 162.366 632.592 478.432
88 0 58.28 12.6802 739 159.195 632.046 477.436
89 0 61.2402 12.5898 771 159.61 631.585 475.603
90 0 63.255 12.8686 814 157.533 631.964 474.002
91 0 65.2783 12.822 837 155.257 631.804 473.033
92 0 68.3015 12.7523 871 154.994 631.944 472.239
93 0 70.3976 13.0402 918 155.527 632.403 470.666
94 0 72.5219 12.5204 908 154.968 633.013 470.546
95 0 74.4409 13.0036 968 155.638 633.097 469.223
96 0 77.3679 12.628 977 158.12 632.943 468.754
97 0 78.3679 13.0028 1019 158.532 633.228 466.591
98 0 80.3654 13.1151 1054 155.27 633.563 464.988
99 0 85.367 12.8035 1093 152.499 633.3 463.206
100 1 44.2905 11.0182 488 152.359 633.824 483.203
101 0 45.1685 11.2025 506 158.974 633.749 483.215
102 0 46.158 11.6339 537 149.829 633.069 483.577
103 0 48.1596 12.1679 586 150.005 633.092 482.638
104 0 50.1248 11.8704 595 148.383 633.215 481.852
105 0 50.1879 11.9351 599 153.998 633.326 479.835
106 0 52.1063 12.1099 631 147.824 633.181 479.631
107 0 54.1692 12.0733 654 147.144 633.138 479.145
108 0 55.2505 12.2714 678 147.91 633.279 478.58
109 0 57.0768 12.4394 710 141.838 633.308 478.234
110 0 59.2691 12.6373 749 148.816 634.481 476.358
111 0 60.0707 12.5685 755 151.359 635.098 475.319
112 0 64.0817 12.3904 794 143.338 634.594 472.89
113 0 65.1402 12.6189 822 148.67 634.42 471.682
114 0 68.2141 12.5194 854 152.31 633.758 471
115 0 70.2167 12.6181 886 151.647 633.696 469.843
116 0 73.204 12.6359 925 152.572 633.584 467.828
117 0 75.0735 13.0406 979 145.887 633.541 467.515
118 0 77.2019 12.8494 992 147.19 633.897 466.523
119 0 80.2315 12.9625 1040 152.949 633.721 466.054
120 0 82.1458 13.4152 1102 144.502 633.388 463.889
121 0 85.2415 13.2682 1131 147.004 634.426 462.271
122 0 89.1814 13.0296 1162 149.838 634.667 461.364
123 0 92.1888 13.5483 1249 142.54 634.516 458.218
124 0 94.224 13.3724 1260 141.554 634.398 456.78
125 0 98.2524 13.3228 1309 141.671 635.163 455.215
126 0 100.251 13.2568 1329 151.048 634.969 452.948
127 0 103.333 13.1033 1354 143.054 634.233 450.935
128 0 108.337 13.3472 1446 143.348 635.226 448.771
129 0 113.5 13.3216 1512 146.628 635.138 447.124
130 0 117.484 13.3721 1571 155.755 634.979 445.016
131 0 121.56 13.4255 1632 157.8 634.789 444.164
132 1 61.3258 11.4634 703 152.196 635.397 474.196
133 0 62.2238 11.9247 742 151.282 634.478 472.721
134 0 66.1749 12.1647 805 149.296 634.251 471.478
135 0 67.139 12.2581 823 147.286 634.265 470.395
136 0 70.0719 13.058 915 145.124 634.876 469.387
137 0 71.0904 13.0116 925 151.986 635.061 469.61
138 0 74.1206 13.2622 983 145.866 635.185 467.717
139 0 77.1115 12.7997 987 152.099 635.144 465.997
140 0 78.1304 13.3239 1041 148.964 635.373 464.826
141 0 81.1643 12.8258 1041 148.955 635.546 463.714
142 0 84.1605 13.3198 1121 143.712 635.853 461.572
143 0 86.2568 13.4134 1157 152.924 635.709 460.522
144 0 88.1525 13.3519 1177 141.158 636.127 458.721
145 0 93.1406 13.1951 1229 150.334 636.753 456.689
146 0 96.2679 13.2858 1279 144.632 637.288 455.579
147 0 99.2323 12.9595 1286 146.124 637.528 453.657
148 0 104.322 12.9887 1355 147.742 637.704 451.425
149 1 56.1081 11.7808 661 144.085 637.905 473.599
150 0 58.1718 11.827 688 147.625 638.328 473.85
151 0 59.2355 12.4081 735 143.562 638.361 471.479
152 0 61.129 12.8581 786 140.983 638.262 470.145
153 0 64.0477 12.5375 803 140.524 638.365 468.54
154 0 66.2563 12.5422 831 140.189 639.016 468.479
155 0 68.1734 12.4535 849 142.005 638.989 467.203
156 0 71.1423 12.5664 894 135.001 639.162 466.032
157 0 73.3456 12.707 932 132.956 639.072 464.134
158 0 76.1294 13.2406 1008 138.431 638.993 463.046
159 0 79.259 13.0711 1036 145.766 639.268 460.909
160 0 81.1288 12.9054 1047 145.532 639.17 460.53
161 0 84.1896 13.2083 1112 146.481 639.438 457.515
162 0 85.244 13.0918 1116 147.281 639.336 457.291
163 0 88.2686 13.3343 1177 137.965 639.544 455.048
164 0 92.2209 12.8713 1187 150.014 639.787 455.031
165 0 95.2493 13.113 1249 148.483 640.045 452.545
166 1 49.1071 11.0982 545 142.33 639.688 474.558
167 0 52.0958 11.9204 621 147.82 639.38 473.024
168 0 53.1033 12.5416 666 142.895 640.258 472.101
169 0 55.2281 12.0229 664 144.143 640.431 472.087
170 0 56.192 12.3505 694 145.523 640.143 470.618
171 0 57.2889 12.0791 692 151.001 640.354 469.555
172 0 58.1835 12.7699 743 144.351 640.059 468.778
173 0 61.1163 12.4517 761 143.879 640.066 468.138
174 0 64.4088 12.5449 808 144.905 640.752 467.743
175 0 65.181 12.7798 833 146.874 641.359 466.977
176 0 66.4648 12.7586 848 148.638 641.035 465.079
177 0 68.382 12.9712 887 144.743 640.794 464.45
178 0 71.316 12.8022 913 153.263 640.756 463.793
179 0 72.2663 13.1735 952 150.81 640.8 462.125
180 0 74.2412 13.281 986 150.906 641.077 461.67
181 0 78.1712 13.2018 1032 145.494 641.585 460.89
182 0 80.3801 13.3242 1071 149.136 641.556 458.533
183 0 82.3064 13.6077 1120 136.332 641.885 457.053
184 0 85.1931 13.3579 1138 151.822 641.873 455.431
185 0 85.3196 13.7835 1176 151.399 642.193 454.054
186 1 46.3013 11.598 537 133.194 641.944 474.633
187 0 46.2264 11.6816 540 142.011 641.622 475.08
188 0 49.1802 12.1797 599 143.022 641.294 473.184
189 0 49.1411 12.1283 596 141.284 641.232 473.354
190 0 51.1249 11.912 609 137.174 641.003 472.803
191 0 54.2899 11.7702 639 138.03 640.962 472.366
192 0 54.2877 12.7285 691 137.15 640.89 470.644
193 0 56.2099 12.8091 720 137.336 640.918 470.685
194 0 57.186 12.5905 720 134.335 640.315 470.676
195 0 58.2386 12.9124 752 135.657 640.451 469.906
196 0 61.1503 12.6573 774 138.304 640.292 467.776
197 0 61.1278 13.3 813 137.415 640.028 466.654
198 0 64.2303 13.3582 858 132.899 640.028 465.606
199 0 65.17 12.9661 845 132.807 640.157 464.781
200 0 68.1689 13.4519 917 137.51 639.784 464.631
201 0 71.1871 13.2749 945 136.533 639.656 462.901
202 0 73.2063 13.2229 968 139.546 639.912 462.538
203 0 76.1814 13.0872 997 137.342 639.647 461.595
204 0 77.1364 13.8067 1065 133.206 640.293 459.916
205 0 80.1673 13.372 1072 136.737 640.608 458.598
206 0 83.2008 13.5696 1129 142.635 639.905 457.753
207 0 85.1491 13.4822 1148 141.174 640.406 456.455
208 0 90.1893 13.2943 1199 148.261 639.951 454.227
209 0 46.1505 11.2675 520 141.673 639.862 476.092
210 0 47.1637 11.6615 550 146.409 639.424 474.753
211 0 47.192 11.8876 561 145.996 639.57 474.524
212 0 48.189 12.4717 601 138.491 639.313 474.644
213 0 51.2433 12.4504 638 148.044 639.4 473.906
214 0 53.1612 13.1111 697 150.069 639.043 473.509
215 0 52.1479 12.8097 668 156.991 638.653 472.82
216 0 56.2157 12.7189 715 151.222 638.133 472.75
217 0 56.0987 12.9593 727 155.376 638.077 471.155
218 0 59.1306 13.2588 784 153.403 638.459 470.644
219 0 61.0944 13.2254 808 156.197 638.359 470.291
220 0 63.1137 13.0083 821 156.557 638.426 469.095
221 0 64.0654 13.096 839 158.396 638.647 468.002
222 0 67.0911 13.3103 893 153.052 638.604 467.293
223 0 67.0933 13.4142 900 159.688 638.532 466.087
224 0 70.1872 13.1078 920 163.26 638.676 465.593
225 0 74.1128 12.7913 948 150.2 638.879 463.91
226 0 76.2228 13.1325 1001 157.298 638.814 463.122
227 0 78.1133 13.058 1020 146.57 638.48 460.319
228 0 81.1952 13.1412 1067 143.328 638.343 459.742
229 1 38.0183 10.4686 398 147.166 638.116 480.342
230 0 39.0618 11.1362 435 149.145 638.384 480.126
231 0 42.0864 11.619 489 152.245 638.687 479.356
232 0 45.1064 11.5283 520 147.206 637.713 477.156
233 0 46.1484 12.4815 576 91.7396 638.182 477.399
234 0 47.1444 12.1117 571 147.334 638.375 476.228
235 0 47.1556 12.3421 582 147.943 638.265 475.945
236 0 49.1763 12.4653 613 152.372 638.408 476.002
237 0 50.1793 12.2959 617 154.428 638.483 475.301
238 0 54.2406 12.0205 652 152.259 638.353 474.063
239 0 56.3056 12.3966 698 150.026 638.112 473.711
240 0 57.1722 12.3137 704 153.108 637.707 472.395
241 0 58.1429 12.1941 709 137.427 637.811 471.793
242 0 60.2393 12.4504 750 154.395 637.22 470.747
243 0 63.095 12.5208 790 149.811 637.247 469.451
244 0 64.1035 12.667 812 155.851 637.437 468.897
245 0 66.2883 12.7172 843 151.101 637.836 467.558
246 0 68.2657 12.759 871 148.998 638.13 466.777
247 0 69.1499 12.914 893 153.207 638.177 464.839
248 0 73.236 12.7943 937 158.707 638.539 464.003
249 0 76.297 12.8839 983 148.968 638.251 462.869
250 0 78.281 12.8767 1008 158.36 637.889 461.353
251 0 82.2589 12.8132 1054 149.232 637.466 460.137
252 0 84.3413 12.6273 1065 155.02 638.605 459.106
253 0 87.4637 12.7481 1115 154.284 639.173 458.144
254 1 44.1689 10.9353 483 143.431 638.843 478.882
255 0 46.1323 11.4237 527 149.195 639.068 477.877
256 0 47.0713 11.8544 558 147.595 638.871 476.299
257 0 50.0578 11.8863 595 145.074 639.479 474.629
258 0 52.0695 11.8688 618 150.17 639.634 473.15
259 0 54.0488 12.1557 657 146.989 639.839 471.843
260 0 56.1859 11.8179 664 149.726 640.221 471.602
261 0 56.1003 12.5311 703 140.023 639.966 470.73
262 0 58.0849 12.7055 738 148.427 640.298 469.757
263 0 59.1892 12.6881 751 148.522 641.028 469.3
264 0 62.1903 12.3331 767 148.116 640.78 468.695
265 0 63.2857 12.6727 802 153.712 640.388 467.896
266 0 66.3015 12.4884 828 147.487 641.059 466.691
267 0 67.2889 12.9442 871 151.185 640.951 464.559
268 0 70.5011 12.8934 909 147.597 640.682 463.259
269 0 73.4514 12.7703 938 146.925 640.939 462.022
270 0 75.6169 12.9997 983 144.95 640.647 460.407
271 0 77.5622 12.635 980 146.215 641.844 459.518
272 0 81.7144 12.5559 1026 146.461 641.28 455.539
273 0 83.4608 12.8204 1070 143.333 641.718 455.668
274 1 44.3118 10.2907 456 152.41 642.007 475.719
275 0 47.3323 10.965 519 151.692 642.285 473.707
276 0 49.3277 11.231 554 152.208 642.117 474.056
277 0 50.1269 12.1691 610 147.598 641.621 472.767
278 0 49.235 12.6942 625 153.736 641.584 472.899
279 0 53.1884 12.0515 641 151.292 642.164 472.265
280 0 55.125 12.2449 675 154.951 642.421 471.16
281 0 56.0719 12.7336 714 150.074 641.99 468.438
282 0 58.2245 12.8812 750 146.383 641.391 467.145
283 0 60.2969 12.4882 753 151.936 641.611 466.825
284 0 61.1117 13.0581 798 152.982 641.258 465.664
285 0 65.3242 13.1651 860 150.514 641.651 465.564
286 0 66.21 13.291 880 142.066 641.586 464.419
287 0 68.1446 13.2072 900 155.588 641.432 462.227
288 0 72.2631 13.2018 954 146.747 641.51 461.852
289 0 75.2937 13.268 999 151.987 641.586 460.443
290 0 76.3873 13.4185 1025 149.386 641.267 459.184
291 0 78.5323 13.574 1066 149.009 641.255 456.697
292 0 82.4634 13.6667 1127 152.964 641.428 455.968
293 0 86.2856 13.1772 1137 153.476 642.413 453.866
294 0 88.5647 13.4026 1187 151.575 642.333 452.2
295 1 47.4861 11.3507 539 148.538 643.295 473.941
296 0 49.2514 11.7357 578 150.99 642.632 472.343
297 0 49.27 11.8125 582 151.198 641.808 472.517
298 0 51.2047 12.0497 617 142.478 641.298 471.783
299 0 54.2121 11.9531 648 152.759 641.08 470.383
300 0 53.1302 12.7234 676 147.879 640.571 469.447
301 0 57.415 12.07 693 148.354 640.157 468.046
302 0 59.1566 12.2049 722 149.795 640.302 467.975
303 0 60.1062 12.7108 764 147.395 640.219 466.215
304 0 61.1476 12.2981 752 146.608 639.763 466.422
305 0 63.2259 12.5582 794 151.13 639.796 465.259
306 0 65.1292 12.9281 842 151.291 639.533 464.391
307 0 67.1852 12.9939 873 147.292 639.717 462.01
308 0 68.298 13.0604 892 148.212 639.682 462.537
309 0 70.1319 13.0896 918 149.03 639.274 460.117
310 0 73.2473 12.9561 949 147.786 639.417 459.142
311 0 76.2212 13.4083 1022 142.359 639.241 458.05
312 0 78.143 13.0402 1019 139.024 638.969 457.697
313 0 79.2348 13.5168 1071 141.118 639.371 457.179
314 0 83.2656 13.2348 1102 143.794 639.889 454.742
315 0 85.2353 13.7032 1168 144.384 638.995 454.576
316 0 86.1957 13.5042 1164 136.07 638.838 453.309
317 0 91.2304 13.2741 1211 137.006 638.779 452.215
318 0 93.2876 13.2815 1239 140.192 638.825 450.463
319 0 98.4441 13.2766 1307 138.334 638.893 448.703
320 1 53.2528 12.1684 648 135.605 638.5 470.562
321 0 55.2476 12.5435 693 139.329 638.694 469.126
322 0 54.3592 12.9877 706 141.745 638.667 469.516
323 0 59.3639 12.9203 767 137.357 639.095 468.455
324 0 61.5585 12.4597 767 143.838 638.975 467.995
325 0 63.5381 12.3076 782 145.861 638.378 466.394
326 0 64.2847 13.1446 845 138.806 638.572 465.833
327 0 67.628 12.7462 862 144.795 638.574 464.443
328 0 68.5904 12.7715 876 145.765 638.491 462.872
329 0 70.3174 12.7422 896 142.407 638.202 462.22
330 0 73.3747 12.8655 944 142.017 638.107 462.429
331 0 75.5766 12.4642 942 154.966 637.895 460.519
332 0 77.569 13.0336 1011 146.85 637.689 459.388
333 0 80.5656 12.9708 1045 152.369 638.044 457.821
334 0 83.6807 12.7269 1065 148.743 638.307 457.523
335 0 85.5469 12.8818 1102 148.274 638.794 456.638
336 0 88.6895 12.5832 1116 148.306 638.85 455.832
337 0 90.494 13.0064 1177 150.819 638.667 454.466
338 0 94.598 13.3301 1261 151.589 638.454 452.153
339 0 97.5347 12.6519 1234 152.852 638.774 451.953
340 1 54.2304 11.8199 641 146.63 638.683 472.382
341 0 55.0601 12.1867 671 140.595 638.934 470.921
342 0 58.4052 12.3961 724 146.604 638.997 469.736
343 0 60.2818 12.3752 746 154.956 638.318 469.559
344 0 62.2699 12.3976 772 146.13 637.861 469.948
345 0 64.3038 12.612 811 152.388 637.593 468.731
346 0 65.3571 12.6077 824 152.522 637.642 467.521
347 0 68.3407 12.9352 884 149.748 638.182 465.635
348 0 72.4762 12.6938 920 153.123 638.066 465.022
349 0 73.4783 13.1604 967 150.359 638.953 463.151
350 0 74.4425 13.0974 975 152.691 638.47 462.663
351 0 78.6526 12.8413 1010 145.388 638.575 461.29
352 0 80.3602 13.5142 1086 150.681 638.728 460.005
353 0 84.56 13.1386 1111 152.126 638.517 458.738
354 0 86.5593 13.4012 1160 149.275 638.681 456.664
355 0 89.4615 13.5142 1209 152.98 638.509 455.341
356 0 91.5702 13.334 1221 145.197 638.079 454.527
357 0 95.4745 13.2601 1266 153.869 638.526 452.939
358 0 97.6794 13.3805 1307 153.01 639.118 450.985
359 0 100.382 12.9505 1300 153.497 638.917 450.309
360 0 104.458 13.0483 1363 152.406 638.812 448.689
361 1 54.2126 10.6986 580 149.674 638.469 473.769
362 0 55.1345 11.3722 627 144.99 638.344 471.788
363 0 59.1317 11.5674 684 146.554 637.456 471.057
364 0 61.1959 11.357 695 145.033 637.708 470.75
365 0 63.4199 12.1571 771 143.562 638.411 469.411
366 0 65.276 11.9646 781 150.548 638.26 466.93
367 0 66.2098 12.0073 795 142.766 638.03 467.054
368 0 69.2789 12.1826 844 147.861 638.178 465.97
369 0 71.167 12.5761 895 143.744 637.804 464.041
370 0 73.2804 12.227 896 150.273 638.604 463.209
371 0 76.2427 12.6176 962 151.477 639.032 461.768
372 0 78.2782 12.6344 989 153.154 638.935 460.9
373 0 81.2585 12.6879 1031 152.841 639.228 459.41
374 0 84.4542 13.013 1099 153.968 639.6 458.499
375 0 86.3821 12.491 1079 157.734 639.38 456.61
376 0 89.3834 12.8212 1146 150.542 639.948 455.322
377 0 91.2943 12.9143 1179 151.531 639.59 454.539
378 0 95.3981 13.2288 1262 155.01 640.078 453.532
379 0 97.296 13.0735 1272 159.233 639.796 451.68
380 0 101.281 13.112 1328 151.489 640.11 450.181
381 1 53.122 11.1065 590 162.315 640.453 474.68
382 0 54.1363 11.9883 649 151.097 640.319 473.055
383 0 55.1269 12.0994 667 146.093 640.835 472.564
384 0 57.1721 11.824 676 152.643 639.479 473.031
385 0 57.2354 12.9291 740 155.609 639.639 472.051
386 0 59.1058 12.3169 728 161.804 639.804 471.647
387 0 60.1184 12.7914 769 155.512 639.876 469.748
388 0 63.3123 12.9201 818 150.743 639.764 468.582
389 0 65.2615 12.4729 814 160.496 639.416 467.849
390 0 66.265 12.9782 860 156.109 640.005 468.149
391 0 68.4331 12.8885 882 157.889 640.155 467.033
392 0 70.2593 13.0374 916 159.644 639.556 465.695
393 0 71.2725 13.4835 961 156.195 639.283 463.984
394 0 74.2197 13.1636 977 156.896 640.25 462.584
395 0 76.3362 12.982 991 157.146 640.767 462.457
396 0 78.4915 13.2881 1043 154.108 640.763 461.27
397 0 82.6424 13.2499 1095 156.468 640.926 459.618
398 0 82.3615 13.4529 1108 157.952 640.799 457.527
399 0 87.2488 13.4099 1170 152.313 640.456 455.691
400 0 91.3192 13.1188 1198 148.316 640.493 454.48
401 1 49.2108 11.0545 544 150.487 640.195 475.892
402 0 50.1947 11.6347 584 152.748 639.769 474.589
403 0 53.2342 12.0787 643 148.446 639.613 473.656
404 0 53.2485 12.3384 657 148.304 639.342 472.25
405 0 54.1129 12.6033 682 147.598 640.292 470.855
406 0 56.1721 12.6219 709 152.267 639 471.767
407 0 57.2953 12.4094 711 151.74 639.298 470.601
408 0 60.4857 12.3996 750 146.551 638.877 468.925
409 0 62.2094 12.7312 792 137.034 639.804 468.657
410 0 64.3821 12.3326 794 147.521 639.724 466.846
411 0 65.4043 12.4457 814 143.797 639.022 465.642
412 0 67.4387 12.2482 826 144.782 639.178 465.278
413 0 69.7288 12.8641 897 142.152 639.797 464.511
414 0 72.4602 13.1658 954 146.56 639.295 463.442
415 0 75.2982 13.161 991 142.126 639.639 461.975
416 0 77.3848 13.1163 1015 141.038 639.218 460.44
417 0 80.5587 12.9967 1047 142.432 639.038 460.172
418 1 43.2156 10.6906 462 145.474 639.297 478.786
419 0 44.1047 11.1553 492 145.972 639.098 477.378
420 0 46.0526 11.7474 541 142.882 639.558 476.035
421 0 46.0562 11.7682 542 138.727 639.391 474.963
422 0 49.1664 11.6746 574 137.028 638.993 474.754
423 0 50.1273 12.0892 606 136.49 638.812 473.893
424 0 53.1517 11.8341 629 125.537 638.984 473.07
425 0 54.1098 11.9387 646 136.938 638.797 472.218
426 0 56.0887 11.6601 654 135.627 639.217 470.647
427 0 57.0854 11.947 682 137.581 638.732 470.07
428 0 59.0396 12.6695 748 137.318 638.977 468.568
429 0 60.1178 12.8082 770 140.06 638.509 468.829
430 0 63.157 12.461 787 139.97 638.313 469.76
431 0 64.0461 13.2249 847 136.707 638.632 467.392
432 0 67.0816 12.4475 835 142.583 638.441 467.365
433 0 69.1173 13.2528 916 140.469 638.575 465.109
434 0 71.2353 13.322 949 145.533 638.825 465.165
435 0 73.096 13.407 980 150.265 639.004 464.565
436 0 76.1405 13.2781 1011 149.345 639.082 464.021
437 0 76.1824 13.8221 1053 141.907 638.596 461.267
438 0 80.1225 13.3171 1067 153.204 638.575 461.519
439 0 83.2139 13.1228 1092 145.555 638.339 460.231
440 1 47.0445 12.0737 568 143.268 638.199 477.498
441 0 47.121 12.3724 583 145.623 636.309 475.82
442 0 49.088 13.2008 648 135.988 636.718 475.904
443 0 50.1146 13.4292 673 143.471 637.883 475.563
444 0 52.1247 13.2375 690 141.191 638.078 473.261
445 0 54.0487 13.0438 705 144.434 638.206 472.921
446 0 54.1029 13.2156 715 146.669 638.417 472.541
447 0 56.1428 13.7685 773 142.704 638.6 472.075
448 0 58.0782 13.5679 788 145.15 638.616 471.023
449 0 59.0571 13.6817 808 147.347 637.929 470.547
450 0 59.0571 13.6817 808 156.734 636.929 470.547
451 0 64.0726 13.4223 860 145.829 638.038 468.315
452 0 66.1073 14.0529 929 141.812 638.272 467.745
453 0 67.2986 14.1756 954 143.889 637.764 467
454 0 70.2725 13.6469 959 147.443 637.67 467.354
455 0 72.2216 13.8047 997 148.549 637.487 465.138
456 0 74.1858 13.8167 1025 151.641 637.17 463.609
457 0 77.1249 14.1329 1090 145.162 637.402 462.52
458 0 79.34 14.0282 1113 149.848 636.655 460.732
459 0 81.3117 14.2907 1162 156.035 637.344 459.727
460 0 84.4263 14.0359 1185 153.506 636.562 458.629
461 1 46.199 12.273 567 161.748 636.808 479.317
462 0 46.3326 12.8635 596 159.827 636.718 477.95
463 0 49.1269 12.3965 609 159.856 637.947 476.938
464 0 50.1395 12.4852 626 160.048 637.363 476.978
465 0 52.0783 12.9421 674 158.184 638.128 475.509
466 0 51.156 13.1363 672 154.942 638.012 475.214
467 0 53.057 13.4007 711 160.158 637.81 474.305
468 0 56.1235 12.9892 729 157.466 638.198 472.368
469 0 56.0406 13.0263 730 151.384 638.147 471.941
470 0 58.095 13.4951 784 158.097 638.685 471.476
471 0 61.1354 13.2002 807 160.77 638.88 470.209
472 0 63.1844 13.0729 826 159.472 638.731 468.966
473 0 64.1339 13.846 888 153.25 638.846 467.645
474 0 67.1326 13.6744 918 159.561 639.716 466.474
475 0 70.1949 13.605 955 159.607 639.608 465.581
476 0 73.2007 13.6064 996 168.142 640.407 464.122
477 0 74.224 13.6479 1013 163.701 640.388 463.572
478 0 76.1101 14.0192 1067 163.33 640.361 461.24
479 0 80.152 13.8612 1111 162.86 640.53 461.028
480 0 82.1999 13.9295 1145 164.998 640.644 459.056
481 0 85.2146 14.1877 1209 158.847 640.454 457.129
482 0 87.2465 14.2814 1246 166.669 640.543 455.569
483 0 89.1348 13.7993 1230 163.04 640.754 453.863
484 0 94.1314 13.7149 1291 158.834 640.833 451.33
485 0 96.1408 13.7195 1319 164.976 640.808 449.691
486 1 50.0216 12.0148 601 157.481 641.334 473.043
487 0 52.1752 12.228 638 146.633 641.342 472.439
488 0 54.1033 12.8088 693 160.33 641.26 471.101
489 0 56.1038 13.0829 734 153.061 641.292 469.969
490 0 58.0437 13.1453 763 154.748 641.063 468.035
491 0 62.1354 12.6015 783 153.314 641.098 467.928
492 0 64.1848 13.0405 837 150.335 640.55 466.881
493 0 66.1037 13.0855 865 152.229 640.955 465.861
494 0 69.1965 13.1654 911 155.146 641.589 464.008
495 0 71.2428 13.0118 927 150.23 641.073 462.517
496 0 73.1897 13.3762 979 149.274 641.875 459.892
497 0 78.5381 13.0128 1022 145.427 641.254 458.28
498 0 80.4005 13.0845 1052 148.233 641.523 455.997
499 0 82.2917 13.1727 1084 151.444 642.496 455.337
500 0 87.3298 13.3059 1162 141.233 641.7 454.355
501 1 48.2128 11.5737 558 149.88 641.529 475.652
502 0 50.2032 12.0311 604 148.704 642.005 474.301
503 0 50.1487 12.2835 616 151.596 642.037 473.102
504 0 51.0891 12.4684 637 152.697 641.502 472.042
505 0 54.1584 11.9834 649 149.636 641.049 471.401
506 0 55.1232 12.6081 695 149.643 641.17 470.242
507 0 57.1347 12.4793 713 152.01 641.01 468.452
508 0 57.1123 12.8344 733 145.029 641.175 468.554
509 0 60.0881 12.5316 753 147.92 641.037 467.514
510 0 62.1315 12.3126 765 149.508 641.173 465.841
511 0 65.1139 12.5012 814 149.004 640.76 465.512
512 0 67.138 12.735 855 147.126 641.06 464.257
513 0 69.2208 12.6118 873 148.252 640.913 462.497
514 0 71.097 12.9119 918 146.229 639.861 462.173
515 0 73.0941 12.8738 941 147.203 640.634 459.726
516 0 77.1028 12.8919 994 132.243 640.512 456.554
517 0 79.2009 12.866 1019 149.307 640.98 457.193
518 0 82.2476 12.7906 1052 148.335 640.865 456.675
519 1 45.0623 11.2955 509 143.619 641.004 474.666
520 0 45.1122 11.815 533 147.432 640.919 473.086
521 0 48.118 12.1368 584 143.553 641.5 472.8
522 0 48.0489 12.4457 598 143.686 641.535 472.423
523 0 49.0482 12.2329 600 146.39 640.642 471.167
524 0 51.0884 12.0771 617 147.122 639.786 470.366
525 0 53.022 12.0893 641 139.978 640.573 469.314
526 0 54.1564 12.5193 678 142.891 639.677 468.583
527 0 56.0495 12.6674 710 144.745 640.004 467.903
528 0 56.0294 13.6178 763 147.033 639.191 467.263
529 0 60.0871 12.7814 768 147.499 639.569 466.884
530 0 60.046 13.3897 804 140.781 639.502 466.54
531 0 60.1039 13.3436 802 138.854 639.309 464.758
532 0 64.0861 13.2322 848 148.863 640.055 464.783
533 0 68.0718 13.1773 897 144.977 639.851 463.805
534 0 69.1747 13.2707 918 141.827 639.851 463.038
535 0 72.0481 13.4077 966 143.642 640.203 460.992
536 0 74.0437 13.5866 1006 147.837 639.789 460.593
537 0 77.0877 13.3484 1029 149.879 640.15 459.949
538 0 80.1108 13.4064 1074 151.621 639.712 458.691
539 0 82.0985 13.6543 1121 151.657 640.422 457.3
540 0 86.408 13.7256 1186 146.478 639.946 456.208
541 1 42.3155 11.5797 490 154.986 639.526 478.349
542 0 44.236 12.0038 531 152.232 639.637 476.846
543 0 43.226 12.1917 527 153.44 639.954 476.123
544 0 47.2881 12.1384 574 151.756 640.094 475.852
545 0 48.325 12.4366 601 148.336 640.03 475.842
546 0 47.2171 13.0885 618 141.207 640 474.893
547 0 52.2496 12.5743 657 33.554 639.658 473.592
548 0 52.2095 12.4882 652 155.385 639.794 472.256
549 0 54.1244 12.693 687 150.151 639.859 471.833
550 0 54.1575 13.0914 709 154.237 639.306 471.006
551 0 57.1476 13.1764 753 141.292 639.299 470.364
552 0 58.2015 13.144 765 150.578 639.085 468.495
553 0 58.2015 13.144 765 152.056 640.085 468.495
554 0 63.1499 13.08 826 152.989 638.738 466.448
555 0 65.0804 13.2452 862 151.396 638.729 465.958
556 0 67.1578 13.6246 915 151.279 638.883 464.434
557 0 68.0817 13.4838 918 154.336 638.61 463.283
558 0 70.0808 13.5272 948 148.158 638.504 462.21
559 0 73.0612 13.5229 988 150.656 638.122 461.329
560 0 76.1239 13.478 1026 149.54 637.887 460.548
561 0 77.1283 13.7822 1063 143.823 637.79 459.27
562 0 80.1284 13.3286 1068 155.952 638.288 458.834
563 0 82.1583 13.4131 1102 152.364 638.494 457.9
564 0 86.277 13.7696 1188 145.892 637.965 456.134
565 0 88.123 13.9464 1229 155.64 637.999 455.45
566 0 90.1586 14.0863 1270 153.141 637.717 454.309
567 0 92.0896 14.0189 1291 156.383 637.72 453.582
568 0 94.1942 14.279 1345 158.022 637.666 451.363
569 0 100.161 14.0375 1406 156.78 637.723 449.494
570 0 104.304 13.8825 1448 153.689 638.175 448.006
571 0 108.121 13.8179 1494 158.221 638.115 446.151
572 1 59.0827 12.1525 718 157.205 638.539 470.176
573 0 61.2113 13.0531 799 156.804 637.693 469.113
574 0 62.1378 13.1965 820 151.783 638.315 468.913
575 0 64.1708 13.1836 846 149.456 638.177 466.851
576 0 68.1392 13.1496 896 153.521 637.714 464.883
577 0 69.0438 12.7455 880 146.814 638.031 463.527
578 0 73.2973 13.1246 962 152.96 638.365 462.238
579 0 75.1968 12.8596 967 124.821 638.66 460.804
580 0 78.1942 13.0828 1023 148.504 638.539 459.127
581 0 80.3544 12.4822 1003 145.789 638.708 458.879
582 0 84.3461 13.1601 1110 145.196 638.282 456.784
583 1 43.1218 10.4124 449 142.61 638.688 477.385
584 0 46.1895 10.9765 507 152.511 636.533 475.469
585 0 45.2794 11.1088 503 142.614 637.038 475.914
586 0 48.2192 11.6966 564 148.652 637.502 475.491
587 0 50.1259 11.1719 560 138.248 637.366 474.191
588 0 51.0681 11.6903 597 146.762 637.524 473.36
589 0 53.1022 11.5814 615 144.052 637.67 472.206
590 0 55.1501 11.6228 641 144.747 637.875 471.699
591 0 55.1147 12.0295 663 146.532 638.285 470.71
592 0 56.089 12.2306 686 145.953 638.453 470.14
593 0 58.1 12.3924 720 149.704 638.303 468.912
594 0 61.206 12.2047 747 141.028 639.038 468.544
595 0 62.0821 12.3868 769 150.553 638.658 467.294
596 0 65.3757 12.2829 803 147.812 639.328 465.79
597 0 66.1999 12.0846 800 146.089 640.255 464.956
598 0 69.2295 12.3791 857 144.594 640.184 462.405
599 0 72.251 12.3874 895 143.55 640.211 461.208
600 0 74.2834 12.4119 922 136.973 639.59 459.434
601 0 77.2405 12.7135 982 147.314 640.135 458.993
602 0 81.3584 12.8567 1046 138.902 639.782 456.098
603 0 83.3091 12.8317 1069 146.476 639.818 454.403
604 1 43.1672 10.1929 440 146.743 639.216 474.291
605 0 43.1357 10.3858 448 144.94 639.556 472.897
606 0 45.121 10.6602 481 150.004 639.418 473.358
607 0 47.1131 11.674 550 151.989 640.429 472.695
608 0 48.0177 11.4749 551 144.002 641.686 472.336
609 0 50.0981 11.7969 591 146.983 640.634 471.584
610 0 51.2514 11.9997 615 141.073 641.021 471.811
611 0 52.1385 11.9681 624 138.011 641.619 471.812
612 0 54.4192 11.7789 641 149.384 641.401 470.426
613 0 56.1994 12.3133 692 145.699 640.939 469.061
614 0 58.163 12.2243 711 140.7 641.703 468.29
615 0 59.1535 12.1379 718 149.71 642.003 468.113
616 0 62.1152 12.2031 758 146.521 642.472 466
617 0 63.2097 12.7354 805 148.273 641.989 465.198
618 0 65.143 12.3881 807 142.881 641.832 463.912
619 0 65.1649 12.8904 840 154.073 641.551 462.517
620 0 69.219 12.4099 859 149.485 641.008 461.304
621 0 71.1879 12.5162 891 150.941 640.829 460.806
622 0 75.312 12.5345 944 152.307 641.406 459.066
623 0 78.2024 12.2631 959 145.514 641.095 458.111
624 1 39.1946 10.2565 402 147.915 641.759 477.751
625 0 42.1837 10.4543 441 146.415 641.608 475.862
626 0 42.2445 11.0074 465 148.538 641.637 475.641
627 0 46.3223 11.6359 539 147.844 640.965 474.25
628 0 47.2709 11.5081 544 150.548 640.748 474.928
629 0 49.4447 11.4067 564 149.956 640.34 473.608
630 0 50.4067 12.0817 609 151.01 640.192 472.053
631 0 52.5105 11.8452 622 148.892 639.706 470.061
632 0 54.6259 12.2103 667 153.21 639.744 469.996
633 0 56.3473 12.2632 691 144.111 639.334 468.347
634 0 58.5371 12.1974 714 141.189 640.368 467.922
635 0 60.3463 12.1797 735 143.924 639.936 466.746
636 0 61.4399 12.028 739 145.444 639.758 466.391
637 0 64.336 11.9062 766 147.803 640.003 466.103
638 0 66.3417 12.104 803 140.852 640.817 463.954
639 0 67.2207 12.8532 864 142.877 640.141 463.444
640 0 69.4067 12.5492 871 144.398 639.673 462.583
641 0 71.2655 12.7271 907 139.804 639.617 461.536
642 0 73.3122 12.6036 924 143.644 639.408 460.726
643 0 76.2822 12.3489 942 139.824 639.614 459.643
644 0 78.214 12.6192 987 141.446 639.177 458.271
645 0 80.202 12.8925 1034 147.995 639.883 457.13
646 1 42.0226 10.1374 426 153.817 640.486 475.697
647 0 44.0967 10.0915 445 153.897 640.292 475.96
648 0 46.2325 10.4256 482 154.506 639.9 475.562
649 0 48.2055 11.368 548 147.407 639.303 475.06
650 0 48.2207 11.9866 578 146.453 639.844 474.26
651 0 51.3783 12.3398 634 144.248 639.475 473.013
652 0 51.4176 12.4471 640 143.083 639.519 473.067
653 0 53.4703 12.1002 647 143.714 638.918 472.53
654 0 56.2414 11.9129 670 140.125 638.846 471.442
655 0 54.338 12.7535 693 138.012 639.276 471.332
656 0 59.3005 11.9898 711 141.968 639.612 469.855
657 0 61.4466 12.6614 778 140.87 639.71 469.676
658 0 62.2872 13.0685 814 138.697 639.125 468.195
659 0 65.4499 12.6967 831 134.415 638.986 467.996
660 0 68.4972 12.5553 860 140.642 639.042 466.151
661 0 70.6125 12.8164 905 132.782 638.775 463.947
662 0 71.5711 12.9801 929 135.62 638.029 463.018
663 0 75.7584 12.8567 974 139.66 638.029 463.382
664 0 76.4109 13.0217 995 139.428 638.442 462.343
665 0 78.4765 13.1122 1029 142.29 638.62 460.359
666 0 82.4309 12.7379 1050 141.987 638.196 458.804
667 0 83.504 12.9335 1080 146.253 638.254 457.281
668 0 86.4796 13.1592 1138 138.66 638.308 455.794
669 0 86.5139 13.1424 1137 146.52 638.396 455.206
670 0 92.5391 12.9999 1203 135.114 638.958 453.35
671 0 95.6844 13.0742 1251 140.021 639.207 451.83
672 0 100.547 12.9492 1302 143.773 638.913 450.421
673 0 103.521 13.2244 1369 136.026 638.698 448.279
674 1 56.4824 11.6496 658 148.457 637.457 471.011
675 0 58.2058 12.4043 722 145.812 638.715 469.608
676 0 60.4826 12.0531 729 139.957 638.525 468.844
677 0 62.3957 12.565 784 141.745 637.588 467.443
678 0 63.3684 12.6719 803 138.031 637.826 467.562
679 0 66.3679 12.265 814 137.898 637.577 465.645
680 0 69.2943 12.3964 859 133.12 637.81 465.397
681 0 72.2642 12.3436 892 137.265 637.901 464.111
682 0 73.3277 12.7101 932 136.043 637.744 462.823
683 0 75.2132 12.5377 943 138.247 636.976 460.927
684 0 78.3356 12.3698 969 136.375 636.432 460.81
685 0 82.4605 12.3332 1017 138.244 637.329 458.713
686 0 85.4134 12.6093 1077 138.639 637.261 457.755
687 0 87.7246 12.5506 1101 135.948 637.307 456.816
688 0 89.527 12.8229 1148 140.681 637.41 455.659
689 0 91.425 12.7974 1170 141.514 637.52 454.771
690 0 96.4415 12.7227 1227 142.812 637.541 452.46
691 0 100.457 13.2395 1330 139.041 636.894 450.371
692 0 102.41 12.9675 1328 142.297 637.752 449.321
693 0 106.317 13.1211 1395 141.075 637.408 446.618
694 0 108.41 13.0338 1413 148.448 637.419 446.281
695 0 111.397 12.9716 1445 147.46 638.257 445.298
696 0 115.534 13.1649 1521 143.71 637.818 442.321
697 0 118.495 13.1398 1557 149.139 637.717 441.592
698 0 119.443 13.1863 1575 142.742 637.439 441.544
699 0 123.308 13.5108 1666 147.723 637.932 439.307
700 0 128.482 13.387 1720 144.369 638.439 437.641
701 0 132.485 13.6166 1804 148.483 638.416 434.472
702 0 137.33 13.4858 1852 147.989 638.528 433.281
703 0 139.296 13.561 1889 150.542 638.424 431.636
704 0 144.43 13.8267 1997 131.626 638.153 430.188
705 0 148.376 13.6747 2029 145.133 637.864 427.899
706 0 152.469 13.9701 2130 150.121 637.392 424.958
707 0 158.426 13.7667 2181 151.589 637.955 423.853
708 0 164.41 13.8921 2284 153.068 637.949 420.823
709 0 168.375 13.5887 2288 155.262 637.807 416.908
710 0 174.466 13.5614 2366 152.32 637.652 414.961
711 1 96.3706 11.902 1147 156.232 637.561 454.448
712 0 97.2416 12.6592 1231 149.658 637.367 453.252
713 0 102.242 12.7834 1307 151.963 636.871 450.196
714 0 104.291 12.8295 1338 152.954 638.34 448.861
715 0 107.207 12.8443 1377 155.316 637.887 448.261
716 0 112.375 13.6507 1534 149.672 637.404 445.836
717 0 113.341 12.9609 1469 156.271 637.887 446.199
718 0 117.372 13.1633 1545 160.908 637.155 442.863
719 0 122.331 13.0711 1599 153.848 636.768 441.932
720 0 126.305 12.9211 1632 151.544 637.314 439.819
721 0 129.307 13.2631 1715 158.642 636.743 437.882
722 0 133.306 13.1952 1759 161.496 636.928 437.073
723 0 137.384 13.2766 1824 162.967 637.002 434.312
724 0 141.348 13.6896 1935 159.59 636.848 432.5
725 0 145.413 13.3551 1942 161.359 637.369 430.496
726 0 149.407 13.3528 1995 164.163 637.024 427.025
727 0 154.412 13.3474 2061 158.424 637.219 425.713
728 0 160.402 13.7966 2213 158.505 637.434 422.686
729 0 163.304 13.6923 2236 150.61 637.82 420.074
730 0 166.411 13.5868 2261 162.121 637.472 416.669
731 0 173.344 14.5029 2514 151.486 637.816 412.736
732 0 179.263 13.5778 2434 160.616 637.797 411.833
733 0 184.459 13.5585 2501 153.117 637.877 409.869
734 0 190.421 13.7169 2612 162.618 638.358 405.852
735 0 196.527 13.9777 2747 167.665 638.371 401.891
736 0 200.442 13.8594 2778 155.881 638.8 398.188
737 0 210.475 14.7523 3105 150.226 639.493 393.14
738 0 213.45 14.1438 3019 162.06 639.944 393.678
739 0 220.467 14.1563 3121 161.65 639.957 388.175
740 0 225.371 13.9415 3142 157.905 640.09 382.016
741 0 232.619 14.2207 3308 145.851 640.206 379.651
742 0 241.706 13.8723 3353 161.207 640.131 375.255
743 0 248.698 14.5156 3610 153.085 640.374 371.269
744 1 78.2287 10.7889 844 155.859 641.083 460.783
745 0 81.2103 11.0454 897 141.881 641.414 458.369
746 0 83.0918 11.2887 938 148.214 641.954 456.186
747 0 83.0944 11.4328 950 149.594 641.93 454.407
748 0 87.0575 11.6819 1017 143.837 642.489 451.521
749 0 90.1456 11.4149 1029 135.633 642.036 450.279
750 0 93.1581 11.4751 1069 134.835 642.008 447.51
751 0 95.147 11.7082 1114 139.171 642.275 447.419
752 0 97.1309 11.7573 1142 142.66 643.071 445.342
753 0 102.075 11.952 1220 144.276 643.04 442.87
754 0 106.156 11.8128 1254 146.454 643.49 441.559
755 0 109.066 11.5984 1265 143.327 643.079 439.648
756 1 61.2288 8.4274 516 137.789 642.384 465.764
757 0 62.1326 8.57842 533 136.615 642.287 464.696
758 0 65.1618 9.06974 591 129.753 641.904 464.79
759 0 67.3309 9.83203 662 129.802 642.375 462.813
760 0 70.2032 10.4981 737 128.316 641.957 460.596
761 0 70.2567 10.2054 717 123.544 642.23 460.014
762 0 71.3246 10.0807 719 124.04 642.28 458.686
763 0 75.1758 10.4289 784 128.767 642.652 458.759
764 0 78.2125 11.635 910 128.936 643.174 457.107
765 0 81.2103 11.4394 929 130.62 643.803 455.707
766 0 84.1204 11.6143 977 125.983 643.735 454.552
767 0 84.3179 11.8124 996 121.325 643.444 453.442
768 0 88.1094 11.202 987 126.304 643.848 450.921
769 0 91.1341 11.324 1032 128.47 643.423 448.386
770 0 92.2032 11.7783 1086 128.123 643.497 448.724
771 1 48.0501 7.57543 364 119.126 643.489 470.343
772 0 50.1435 8.55545 429 119.203 642.774 468.434
773 0 51.0663 9.0079 460 122.802 642.422 467.946
774 0 52.0235 9.59182 499 124.768 642.681 467.096
775 0 53.0845 9.5508 507 125.047 642.684 465.03
776 0 52.0572 9.00931 469 117.748 643.365 464.102
777 0 60.1099 7.88555 474 115.926 642.871 461.962
778 0 57.0364 7.60918 434 114.668 643.417 461.846
779 0 54.0843 8.17242 442 115.014 642.792 461.652
780 0 61.0944 7.92216 484 114.847 642.24 463.085
781 0 63.2875 9.82817 622 129.27 642.199 461.759
782 0 64.1363 10.3062 661 118.222 641.289 460.607
783 0 69.1601 10.8733 752 126.987 642.5 461.774
784 0 69.2658 11.593 803 8.69988 642.269 460.101
785 0 72.2151 11.355 820 126.504 641.946 459.924
786 0 72.157 11.2671 813 130.391 640.747 458.189
787 0 74.252 11.865 881 136.872 640.725 458.671
788 0 75.1358 10.8337 814 135.235 639.187 456.856
789 0 78.2302 11.7729 921 135.637 638.577 457.257
790 0 79.219 12.1309 961 136.256 638.574 456.037
791 0 81.3293 12.2711 998 134.731 638.581 455.746
792 0 84.11 12.4242 1045 143.178 638.232 453.508
793 0 88.1091 12.4618 1098 137.14 638.395 452.744
794 0 89.3844 12.3959 1108 137.839 639.902 451.862
795 0 92.1833 12.3667 1140 141.429 639.516 451.999
796 0 94.2575 12.1264 1143 143.465 639.242 449.868
797 0 98.3474 12.9846 1277 133.971 639.2 448.33
798 0 98.3117 12.5112 1230 146.728 640.347 448.027
799 0 102.228 12.3547 1263 146.493 640.438 446.582
800 1 52.2554 10.6975 559 146.02 640.886 469.682
801 0 55.4156 11.1882 620 146.956 640.994 467.032
802 0 56.4914 11.8248 668 147.091 640.948 465.975
803 0 56.1612 11.5738 650 136.477 641.2 465.492
804 0 57.2185 11.1153 636 137.925 640.942 464.064
805 0 59.1932 11.7581 696 135.595 641.068 463.233
806 0 60.2328 12.4683 751 131.891 640.891 462.306
807 0 60.2568 12.1646 733 136.613 640.997 461.385
808 0 64.3054 12.3473 794 135.772 641.045 459.252
809 0 65.1764 12.259 799 141.628 641.394 458.806
810 0 65.0473 13.0674 850 144.661 642.186 458.392
811 0 70.1797 12.7957 898 147.649 641.276 459.774
812 0 71.2004 12.9774 924 149.999 641.299 459.531
813 0 75.1253 13.0316 979 147.948 640.928 458.213
814 0 76.2243 12.6862 967 142.518 641.22 457.601
815 0 78.2582 12.9827 1016 152.477 641.607 456.044
816 0 82.2472 12.815 1054 155.138 641.517 454.926
817 0 84.23 12.7152 1071 153.908 641.352 453.68
818 0 86.3437 13.0177 1124 158.09 641.118 451.388
819 0 90.3852 12.9889 1174 155.233 641.771 451.595
820 0 92.3259 13.2899 1227 155.271 642.041 449.671
821 0 96.2987 13.022 1254 156.132 641.74 448.005
822 1 54.2502 11.152 605 157.317 642.75 470.162
823 0 56.1492 11.79 662 149.891 643.066 468.634
824 0 56.0949 11.8014 662 148.06 641.766 466.85
825 0 58.0611 11.7807 684 150.57 642.722 467.934
826 0 57.0306 12.239 698 156.324 642.712 466.397
827 0 60.1002 12.1797 732 156.085 643.467 466.13
828 0 61.0325 12.649 772 152.304 643.712 464.745
829 0 62.0828 12.8377 797 153.13 643.434 462.848
830 0 66.076 12.637 835 158.411 643.4 461.795
831 0 68.0698 12.9279 880 158.55 643.63 460.644
832 0 69.1661 12.535 867 155.467 643.796 460.201
833 0 73.0631 13.0161 951 152.996 643.388 458.597
834 0 77.1194 12.0981 933 155.244 643.875 458.147
835 0 78.0655 12.6304 986 151.52 643.932 456.312
836 0 81.1246 12.6102 1023 150.955 643.873 455.248
837 0 83.0516 12.7511 1059 151.45 643.632 453.976
838 1 43.0834 10.7466 463 149.793 642.929 474.004
839 0 45.246 11.0065 498 141.829 642.807 473.285
840 0 46.1629 11.5894 535 149.187 641.927 471.183
841 0 46.1773 12.1705 562 143.899 643.174 471.662
842 0 48.1652 12.1249 584 149.545 642.813 471.425
843 0 49.2185 12.2312 602 149.736 642.781 469.791
844 0 51.1383 12.0262 615 145.904 642.873 469.624
845 0 52.1232 12.4321 648 146.157 643.003 469.154
846 0 54.2112 12.5251 679 148.365 643.635 468.622
847 0 54.1531 13.2033 715 142.296 643.54 468.406
848 0 57.1105 12.397 708 152.397 643.326 467.903
849 0 59.2214 12.4448 737 143.106 642.616 467.129
850 0 60.0647 12.8695 773 148.706 642.603 464.706
851 0 62.1591 13.015 809 143.433 642.676 464.119
852 0 63.1499 12.8266 810 149.949 642.028 464.721
853 0 64.2376 13.4345 863 147.452 641.73 463.412
854 0 66.1305 13.186 872 148.525 642.934 461.146
855 0 67.1135 12.6949 852 148.739 642.853 458.871
856 0 69.1379 13.3501 923 151.598 642.421 457.772
857 0 74.3437 12.8726 957 143.85 642.19 458.998
858 0 77.3554 12.8627 995 141.782 641.951 458.305
859 0 79.2111 12.7255 1008 150.73 641.718 456.791
860 0 81.1718 13.2066 1072 138.795 641.715 455.347
861 1 42.2158 10.6358 449 154.702 642.659 474.842
862 0 45.1922 10.4664 473 148.44 641.448 473.922
863 0 45.1378 11.055 499 139.399 641.046 472.475
864 0 47.3318 11.7257 555 138.423 640.861 471.519
865 0 50.1642 11.7016 587 134.744 642.888 468.748
866 0 52.3055 12.5417 656 145.005 642.099 469.741
867 0 54.385 12.9999 707 149.071 642.512 468.713
868 0 55.3947 12.4019 687 145.849 641.978 467.712
869 0 55.3279 12.8687 712 144.086 640.972 466.739
870 0 58.3721 13.294 776 144.428 640.995 465.644
871 0 59.1067 13.3149 787 145.438 641.84 465.605
872 0 62.1968 12.8624 800 144.456 641.315 464.746
873 0 63.2011 13.2751 839 146.766 642.828 464.44
874 0 65.1755 12.8576 838 144.916 642.128 463.453
875 0 66.2329 13.0751 866 144.411 641.395 462.203
876 0 69.2919 13.003 901 144.305 640.826 459.808
877 0 71.0708 13.3529 949 145.909 642.104 460.021
878 0 72.049 13.4769 971 142.541 641.36 457.866
879 0 73.1065 13.3914 979 138.985 641.652 456.338
880 0 77.0542 13.2893 1024 144.267 642.318 455.583
881 0 77.0671 13.5726 1046 137.134 642.308 453.149
882 0 81.145 13.2602 1076 140.683 641.866 454.125
883 0 84.0919 13.188 1109 141.524 641.62 452.783
884 0 87.1033 13.5471 1180 137.562 642.296 451.975
885 0 89.0781 13.5724 1209 141.009 641.896 452.374
886 0 92.2126 13.5448 1249 130.996 641.91 449.237
887 1 46.0545 11.1824 515 145 641.755 471.984
888 0 49.0476 11.7029 574 145.124 642.436 472.422
889 0 51.3369 11.5512 593 144.3 641.423 471.091
890 0 53.2946 12.4403 663 139.977 641.149 469.154
891 0 56.1246 12.401 696 133.703 642.481 468.799
892 0 57.0776 13.105 748 136.417 642.497 467.981
893 0 59.132 12.9541 766 137.345 642.971 466.886
894 0 62.0719 12.7111 789 147.809 643.506 465.76
895 0 63.1296 12.6248 797 147.921 642.882 465.829
896 0 65.1468 12.7405 830 143.686 643.017 465.323
897 0 67.1442 13.2997 893 145.141 642.567 463.49
898 0 70.0316 13.0941 917 146.311 641.635 460.911
899 0 70.2005 13.7748 967 144.362 642.308 459.726
900 0 74.0671 13.1502 974 143.781 642.383 458.618
901 0 76.184 13.0999 998 146.403 642.217 456.499
902 0 79.1244 12.9543 1025 144.196 642.557 455.888
903 0 80.4158 13.1069 1054 147.733 642.29 453.452
904 0 83.205 13.8573 1153 143.354 642.515 452.332
905 0 88.2181 13.3873 1181 143.516 642.428 452.158
906 1 46.0292 11.1668 514 145.304 641.844 473.319
907 0 48.0609 11.2773 542 148.157 642.07 473.714
908 0 49.1398 11.9659 588 133.194 642.02 472.425
909 0 50.0227 11.4348 572 143.03 641.115 469.252
910 0 53.2564 11.9234 635 135.479 642.328 470.704
911 0 55.1768 12.3059 679 128.252 642.536 469.451
912 0 56.2225 11.7746 662 128.248 642.103 469.038
913 0 58.1768 11.9979 698 141.054 642.309 467.739
914 0 59.2135 12.1932 722 137.938 641.769 466.738
915 0 62.2142 12.0069 747 132.58 642.501 466.422
916 0 63.3336 11.7 741 137.463 641.648 465.9
917 0 66.2293 12.0793 800 136.486 643.436 464.619
918 0 68.2407 12.0896 825 136.813 643.416 463.162
919 0 68.1011 11.9822 816 136.347 643.018 461.914
920 0 72.1876 11.8718 857 139.383 643.327 461.41
921 0 72.2055 11.7581 849 135.266 642.344 460.232
922 0 74.1896 12.6568 939 140.803 642.262 459.283
923 0 78.3767 12.4144 973 129.469 642.313 458.366
924 0 79.3787 12.0813 959 141.14 642.089 457.682
925 1 43.3529 10.2415 444 138.216 642.586 475.239
926 0 44.4167 11.167 496 136.192 642.718 474.452
927 0 46.3167 11.6157 538 139.664 642.355 473.533
928 0 48.2278 11.5908 559 130.798 642.175 473.161
929 0 49.1811 12.0575 593 141.894 641.735 471.585
930 0 52.2058 11.5313 602 135.894 642.093 471.233
931 0 52.1431 12.0246 627 139.083 641.758 469.984
932 0 53.2012 12.6125 671 140.458 642.133 469.045
933 0 57.3085 12.0401 690 142.525 642.617 468.33
934 0 58.1556 11.6928 680 134.651 642.598 467.454
935 0 60.1321 12.1399 730 138.488 642.847 465.877
936 0 63.085 12.1265 765 139.95 642.76 465.255
937 0 62.1758 12.1912 758 132.943 642.563 464.72
938 0 64.1705 12.7161 816 133.261 642.197 462.548
939 0 66.3344 12.2712 814 129.517 642.593 461.939
940 0 70.1776 12.3259 865 137.247 642.635 459.882
941 0 70.1769 12.896 905 133.469 641.62 457.508
942 0 76.2805 11.8903 907 132.376 642.31 457.202
943 0 75.4322 13.0316 983 136.085 641.652 456.136
944 0 78.3871 12.7827 1002 135.054 641.516 455.143
945 0 81.6672 13.2489 1082 137.814 641.958 455.317
946 1 45.2233 10.3044 466 140.464 642.434 473.502
947 0 48.1629 11.0251 531 129.605 641.299 470.979
948 0 49.2062 10.7303 528 139.39 641.22 471.549
949 0 50.2632 11.3005 568 138.551 641.246 469.986
950 0 52.2732 11.9947 627 132.582 641.375 468.276
951 0 52.2513 12.2294 639 137.468 641.772 466.814
952 0 54.1854 12.4203 673 137.098 642.003 467.021
953 0 56.0721 11.5922 650 135.978 642.989 466.691
954 0 57.1371 12.3212 704 137.053 642.817 464.83
955 0 59.0596 11.9032 703 129.802 642.838 465.522
956 0 60.1573 12.5504 755 133.915 642.909 464.909
957 0 62.1672 12.7559 793 134.736 642.671 463.187
958 0 64.1514 12.0808 775 138.985 643.143 463.453
959 0 65.0755 12.278 799 141.335 643.061 462.506
960 0 66.2046 12.8088 848 141.555 642.923 460.849
961 0 69.1686 12.7225 880 140.592 643.125 459.615
962 0 72.159 12.7219 918 132.057 642.101 458.554
963 0 75.3819 12.4566 939 137.354 641.84 457.482
964 0 77.252 12.7375 984 134.873 641.68 456.66
965 0 80.3961 12.7121 1022 137.405 641.914 454.759
966 1 45.1786 10.4474 472 135.831 642.013 472.731
967 0 45.2629 10.9803 497 144.366 640.982 472.493
968 0 47.186 11.1686 527 139.556 642.658 472.319
969 0 49.2636 11.4283 563 135.872 642.215 470.698
970 0 50.0633 11.865 594 133.803 643.145 469.369
971 0 51.2605 11.6464 597 138.477 643.732 469.4
972 0 50.2303 12.0644 606 132.384 643.286 468.729
973 0 54.2152 12.3213 668 135.638 642.961 467.763
974 0 56.1167 11.9572 671 139.516 642.465 467.204
975 0 56.1584 11.8593 666 136.878 642.521 467.096
976 0 57.187 12.3979 709 136.079 642.677 462.618
977 0 61.096 12.4722 762 134.496 641.499 464.891
978 0 63.1784 12.4093 784 137.865 641.909 464.364
979 0 65.0968 12.6734 825 131.779 642.897 461.754
980 0 67.1901 12.4721 838 135.082 643.159 460.976
981 0 70.1031 12.5672 881 130.233 642.927 459.977
982 0 72.1517 12.349 891 129.701 643.323 459.144
983 0 74.1726 12.3226 914 127.446 643.556 457.42
984 0 77.2802 12.4741 964 129.701 643.514 456.919
985 0 77.3626 12.4737 965 134.365 643.217 456.223
986 0 81.3517 12.4521 1013 134.01 643.65 455.118
987 0 84.2687 12.4245 1047 136.77 643.434 453.807
988 0 87.2381 12.7009 1108 131.425 643.717 452.177
989 0 91.2968 12.3005 1123 134.206 644.156 450.279
990 0 94.5442 12.3646 1169 138.672 643.045 448.465
991 1 51.1542 10.8886 557 128.912 643.725 470.618
992 0 52.1296 11.8359 617 135.982 642.554 469.066
993 0 54.0656 11.3936 616 135.627 641.295 468.544
994 0 57.1057 11.8552 677 136.189 641.708 467.567
995 0 58.1643 11.6394 677 133.801 642.422 467.275
996 0 61.106 11.9137 728 128.37 642.979 466.129
997 0 61.1559 12.2474 749 135.2 642.72 464.907
998 0 63.0871 12.8394 810 136.878 642.749 463.572
999 0 63.127 13.1164 828 142.987 643.475 463.448
1000 0 67.0613 12.9136 866 141.993 642.884 461.696
1001 0 69.0876 13.1283 907 144.168 641.338 460.462
1002 0 72.0866 13.3451 962 136.185 641.787 459.389
1003 0 74.1521 12.9059 957 142.804 642.049 458.166
1004 0 76.1148 13.0592 994 140.753 641.582 457.603
1005 0 79.1618 13.125 1039 138.383 641.999 457.586
1006 0 80.2369 14.0085 1124 130.658 641.34 454.802
1007 0 83.211 13.616 1133 136.095 642.61 454.488
1008 0 86.1639 13.5091 1164 136.823 642.882 453.451
1009 0 87.2954 13.9183 1215 131.012 642.566 450.905
1010 0 91.3743 13.5049 1234 142.753 642.934 449.63
1011 0 95.4107 13.6777 1305 134.298 642.663 448.354
1012 0 99.4183 14.0316 1395 138.642 643.212 443.292
1013 0 102.306 13.4401 1375 142.767 643.548 444.277
1014 0 104.292 13.5868 1417 135.964 643.506 443.642
1015 1 56.1714 11.3937 640 146.495 642.711 468.167
1016 0 57.0332 11.9229 680 142.549 644.621 466.4
1017 0 57.1817 12.0843 691 145.677 644.942 466.326
1018 0 60.0726 12.2186 734 147.813 645.011 461.369
1019 0 62.1088 12.3815 769 134.195 644.736 463.953
1020 0 65.134 11.699 762 142.484 645.07 462.43
1021 0 66.1963 12.1306 803 141.555 644.983 463.128
1022 0 67.1476 12.6289 848 140.57 644.906 460.663
1023 0 71.1284 12.3158 876 145.182 644.745 460.542
1024 0 72.1091 12.4811 900 139.014 644.002 459.209
1025 0 75.151 12.2553 921 146.065 644.397 458.776
1026 0 77.3194 12.429 961 145.656 644.956 456.447
1027 0 81.287 12.3144 1001 141.015 644.352 455.58
1028 0 82.272 12.3493 1016 140.235 644.184 455.772
1029 1 45.0993 10.4436 471 139.301 644.639 473.359
1030 0 46.2625 11.0241 510 148.894 644.488 472.669
1031 0 46.2747 11.9072 551 142.969 643.904 471.96
1032 0 47.5006 11.0104 523 133.382 642.478 471.055
1033 0 50.5694 10.9157 552 139.21 642.449 471.543
1034 0 49.5989 11.3712 564 146.248 642.225 470.619
1035 0 53.5122 11.5674 619 142.079 642.023 469.393
1036 0 53.51 11.923 638 139.995 642.586 467.669
1037 0 56.5578 11.8286 669 134.979 642.019 467.783
1038 0 56.4875 11.8256 668 140.232 641.573 467.073
1039 0 57.4271 12.2764 705 140.769 641.718 465.294
1040 0 58.307 12.2627 715 141.041 642.88 465.056
1041 0 59.3585 12.7025 754 144.344 642.988 463.931
1042 0 62.4301 12.5901 786 140.889 642.428 464.183
1043 0 62.2906 12.5701 783 140.3 642.69 465.384
1044 0 63.2413 13.2508 838 139.539 643.103 463.754
1045 0 66.3102 13.0447 865 144.629 642.769 461.871
1046 0 69.2738 13.0497 904 135.986 642.561 461.156
1047 0 71.2485 12.9827 925 147.142 642.977 459.118
1048 0 73.1626 13.3812 979 142.267 642.669 458.281
1049 0 76.2573 13.3627 1019 149.329 642.603 457.7
1050 0 77.141 13.1707 1016 142.268 642.481 456.301
1051 0 80.3146 13.4596 1081 146.136 642.302 456.086
1052 0 82.2809 13.1501 1082 148.47 642.152 455.588
1053 0 85.2086 13.1442 1120 149.554 643.563 452.613
1054 0 88.3453 13.0737 1155 147.821 643.725 451.355
1055 0 89.2769 13.0717 1167 145.498 643.087 449.933
1056 1 52.0695 11.5807 603 150.42 643.318 468.92
1057 0 54.3101 12.1524 660 150.483 643.412 468.579
1058 0 56.5458 12.7507 721 142.458 643 468.466
1059 0 57.1605 11.7564 672 145.613 643.243 467.232
1060 0 57.2017 12.4647 713 141.311 643.014 467.128
1061 0 60.265 12.4284 749 146.274 643.073 466.076
1062 0 61.5051 12.7144 782 147.951 643.046 464.605
1063 0 62.3956 12.6451 789 148.798 642.842 463.25
1064 0 64.499 12.6514 816 147.273 642.784 463.238
1065 0 67.4971 12.4894 843 150.853 643.212 462.164
1066 0 68.4923 12.6292 865 152.8 643.135 460.921
1067 0 71.5594 12.3254 882 153.164 642.966 459.654
1068 0 73.5964 13.0849 963 154.984 641.957 458.61
1069 0 75.5626 13.0885 989 153.22 642.62 456.493
1070 0 79.6768 13.743 1095 148.393 641.978 451.258
1071 0 80.7446 13.0535 1054 158.92 641.945 450.748
1072 0 84.5373 13.2368 1119 157.715 641.49 449.3
1073 0 86.5979 13.2336 1146 151.656 642.019 448.029
1074 0 90.58 12.7953 1159 156.764 641.648 447.248
1075 1 47.593 11.7244 558 156.523 641.934 468.097
1076 0 49.2679 11.6506 574 156.329 641.519 468.678
1077 0 52.2961 11.7026 612 153.201 641.663 468.319
1078 1 56.0672 11.3257 635 152.269 641.461 457.967
1079 0 57.0954 11.7172 669 150.55 641.178 454.698
1080 0 60.0728 12.1353 729 149.029 641.582 455.414
1081 0 60.1833 12.2625 738 150.133 641.72 457.385
1082 0 64.1403 12.0205 771 149.067 641.891 452.792
1083 0 64.157 12.3915 795 149.016 641.965 452.016
1084 0 66.1613 12.2277 809 149.464 641.959 455.162
1085 0 67.2268 12.0339 809 143.59 642.268 459.345
1086 0 69.3486 11.9541 829 140.764 642.514 460.481
1087 0 73.1865 12.4203 909 147.826 642.109 458.2
1088 0 75.2928 12.1127 912 149.72 642.298 457.742
1089 0 74.3141 12.4203 923 149.381 644.047 457.482
1090 0 78.3986 12.4364 975 146.081 644.555 455.783
1091 0 80.4696 12.4519 1002 143.338 643.754 454.486
1092 0 85.4385 12.6875 1084 141.949 643.275 453.527
1093 0 87.516 12.672 1109 148.263 643.347 452.06
1094 1 48.375 10.1085 489 149.07 644.583 472.501
1095 0 48.3471 10.3832 502 151.928 643.984 472.633
1096 0 50.3686 11.0982 559 149.14 643.574 471.256
1097 0 50.2206 11.2105 563 153.622 643.892 471.336
1098 0 54.3626 11.736 638 144.58 643.458 470.679
1099 0 54.5457 11.9166 650 144.617 643.523 469.843
1100 0 55.2347 12.2749 678 144.379 642.816 468.524
1101 0 58.4149 12.0004 701 144.813 642.807 466.986
1102 0 61.5774 12.3747 762 149.024 642.884 465.915
1103 0 63.547 13.1714 837 143.044 642.791 465.216
1104 0 64.6298 13.2911 859 143.787 642.803 464.657
1105 0 65.6524 13.1145 861 147.683 643.037 462.322
1106 0 68.4397 12.7265 871 145.076 643.033 459.781
1107 0 69.6618 13.0775 911 140.066 643.101 458.352
1108 0 72.8013 12.8569 936 144.673 643.575 459.244
1109 0 73.8659 13.1725 973 141.156 643.776 457.281
1110 0 78.6818 13.0017 1023 148.266 643.668 456.029
1111 0 80.0274 13.083 1047 142.624 643.219 454.801
1112 0 82.6318 12.7675 1055 57.8123 643.109 454.388
1113 0 82.7599 13.521 1119 143.452 643.054 452.289
1114 0 86.9045 13.0948 1138 142.974 642.996 451.288
1115 0 90.6654 13.0259 1181 144.841 642.788 450.085
1116 0 92.7368 13.479 1250 147.17 643.188 447.946
1117 0 95.942 12.9662 1244 145.779 643.643 447.297
1118 0 100.685 12.7427 1283 145.81 642.749 445.528
1119 1 54.7309 11.3464 621 148.947 643.19 467.024
1120 0 54.5528 12.5016 682 147.239 643.628 467.119
1121 0 56.3796 12.6996 716 143.663 642.777 467.094
1122 0 58.5209 12.9185 756 143.585 642.358 464.893
1123 0 61.5668 12.5067 770 146.987 642.62 464.653
1124 0 63.757 12.2496 781 148.492 641.891 463.706
1125 0 64.6475 12.4676 806 145.641 642.001 461.44
1126 0 66.6482 12.6785 845 144.391 642.647 459.987
1127 0 67.8532 12.5123 849 148.289 642.576 459.622
1128 0 70.4942 13.0082 917 143.214 642.673 457.828
1129 0 73.6232 13.2567 976 140.196 642.374 457.257
1130 0 76.8547 13.506 1038 148.003 642.177 456.428
1131 0 79.7308 13.6208 1086 143.099 642.003 455.192
1132 0 82.5443 13.7744 1137 145.106 642.019 454.004
1133 0 84.565 13.7054 1159 146.046 641.85 453.8
1134 0 88.6042 13.1709 1167 144.29 642.244 451.614
1135 0 90.594 13.4115 1215 141.886 642.761 451.227
1136 0 94.4431 13.1825 1245 145.231 642.235 449.787
1137 0 96.517 13.3241 1286 143.653 642.2 448.126
1138 0 101.44 13.0225 1321 145.048 642.825 445.899
1139 1 55.381 11.1952 620 149.781 641.711 468.797
1140 0 57.1672 11.5101 658 154.971 642.553 467.833
1141 0 58.0773 12.7761 742 151.22 642.817 467.896
1142 0 59.1641 12.5076 740 149.512 643.53 466.685
1143 0 61.16 13.1785 806 143.474 643.23 465.476
1144 0 64.1402 12.5194 803 152.208 643.138 464.816
1145 0 68.1787 12.8486 876 146.362 642.675 462.966
1146 0 69.1773 12.6053 872 149.352 642.822 461.038
1147 0 70.085 12.9985 911 143.952 642.482 459.765
1148 0 81.1809 17.1099 1389 118.538 642.193 452.744
1149 0 82.2558 16.1204 1326 132.743 642.284 453.714
1150 0 83.2169 16.1265 1342 135.435 642.265 453.456
1151 0 82.1707 15.6503 1286 138.281 642.296 451.23
1152 0 85.1195 14.932 1271 144.648 642.175 450.398
1153 0 86.212 13.6408 1176 149.07 642.4 451.722
1154 0 89.2468 12.9753 1158 151.95 642.35 449.636
1155 0 91.1916 13.8719 1265 155.677 643.124 447.418
1156 0 93.3621 13.7529 1284 154.934 641.901 446.543
1157 0 98.266 13.4431 1321 157.414 641.596 444.774
1158 0 102.392 13.6143 1394 162.422 641.476 443.873
1159 0 103.456 13.7159 1419 156.66 641.722 441.715
1160 0 106.343 13.4659 1432 162.527 641.696 440.782
1161 0 112.244 14.3972 1616 162.8 642.727 437.811
1162 0 113.339 13.7817 1562 157.476 643.292 437.065
1163 1 61.0404 11.5825 707 158.738 642.726 464.151
1164 0 61.2299 12.2163 748 153.976 643.104 463.902
1165 0 64.1576 12.0484 773 154.189 643.757 463.115
1166 0 68.1658 12.3816 844 158.882 643.947 462.198
1167 0 69.246 12.8816 892 158.266 643.866 460.739
1168 0 70.3367 12.2838 864 157.4 643.384 460.012
1169 0 73.2218 13.0835 958 160.595 643.332 458.74
1170 0 75.0958 12.8236 963 157.532 643.282 456.367
1171 0 77.1502 12.7932 987 163.536 643.192 454.933
1172 0 79.2137 13.2048 1046 159.14 643.678 455.106
1173 0 83.1536 13.0722 1087 159.193 643.079 452.432
1174 0 86.2509 12.8694 1110 154.74 642.885 451.741
1175 0 89.2003 13.0829 1167 153.701 643.203 449.683
1176 0 91.3331 12.8321 1172 157.315 642.919 449.125
1177 0 93.3449 13.5626 1266 158.405 642.761 447.509
1178 0 97.3569 13.0551 1271 158.934 642.948 444.997
1179 0 100.252 13.5458 1358 159.56 643.768 444.865
1180 0 103.382 13.9677 1444 155.107 643.37 441.209
1181 0 106.293 13.4628 1431 163.289 643.31 441.488
1182 0 108.401 13.7084 1486 164.026 643.223 440.365
1183 0 112.377 13.517 1519 165.456 643.274 438.765
1184 1 60.2593 11.5667 697 156.71 642.624 464.409
1185 0 63.5791 12.2367 778 146.542 642.658 463.661
1186 0 66.3586 12.4325 825 161.886 643.149 461.464
1187 0 70.557 12.5856 888 155.918 643.032 459.91
1188 0 71.5129 12.5152 895 154.392 643.545 459.678
1189 0 72.4982 13.0486 946 155.704 643.697 457.84
1190 0 75.3782 12.298 927 156.584 643.329 457.315
1191 0 78.442 12.9905 1019 158.044 643.157 455.898
1192 0 82.5257 12.796 1056 151.439 644.084 455.148
1193 0 84.4187 12.9948 1097 156.408 644.043 453.37
1194 0 85.1707 12.8448 1094 156.748 644.017 450.59
1195 0 88.2641 12.7232 1123 157.455 643.816 449.404
1196 0 92.2826 12.9602 1196 155.501 643.377 448.159
1197 0 94.2116 12.8965 1215 154.072 643.444 445.458
1198 0 97.3264 12.5762 1224 156.688 643.029 443.993
1199 0 102.223 12.6195 1290 153.356 642.939 441.991
1200 0 105.176 12.7596 1342 158.698 643.344 440.879
1201 0 109.222 12.9919 1419 154.948 643.589 439.593
1202 1 62.1726 10.8729 676 150.463 644.229 462.923
1203 0 62.2673 11.4827 715 147.825 643.041 462.427
1204 0 65.2925 12.3904 809 150.656 643.121 460.972
1205 0 67.3574 11.8324 797 151.39 643.354 460.197
1206 0 69.2803 12.0814 837 149.044 643.294 459.079
1207 0 70.376 12.1064 852 154.579 642.465 459.561
1208 0 73.1273 12.0338 880 155.298 641.995 457.327
1209 0 74.1288 12.5053 927 156.984 643.105 456.635
1210 0 77.2071 12.175 940 155.878 642.864 455.734
1211 0 79.3282 12.3916 983 157.296 642.839 453.407
1212 0 82.193 12.8478 1056 144.919 642.756 453.056
1213 0 84.2041 12.6716 1067 154.018 643.047 451.708
1214 0 87.3374 12.4689 1089 151.559 643.028 451.48
1215 0 90.2233 12.6575 1142 143.254 642.199 448.547
1216 0 93.2704 12.7586 1190 147.693 642.555 447.394
1217 0 96.2242 13.0944 1260 143.855 643.036 444.59
1218 0 98.2187 12.9507 1272 140.715 644.748 444.77
1219 0 101.198 13.182 1334 148.304 644.627 442.107
1220 1 57.0543 10.4988 599 144.157 644.613 463.73
1221 0 59.1685 10.9518 648 139.176 645.096 461.667
1222 0 61.1294 11.4348 699 144.273 643.841 460.674
1223 0 64.1665 12.2338 785 139.066 644.66 462.651
1224 0 64.2958 12.6136 811 152.851 645.025 462.779
1225 0 67.3859 12.6881 855 143.701 645.025 461.434
1226 0 68.3034 12.7958 874 146.292 644.541 459.404
1227 0 71.3475 12.7685 911 150.093 644.191 458.936
1228 0 73.1892 12.8298 939 151.891 644.698 457.493
1229 0 75.2688 13.7109 1032 143.058 644.737 456.123
1230 0 76.3255 12.9708 990 149.979 644.569 455.643
1231 0 77.2889 13.4043 1036 150.261 645.005 455.063
1232 0 81.3179 13.3304 1084 151.017 644.546 453.028
1233 0 83.3491 13.4375 1120 151.471 644.732 451.377
1234 0 83.4147 14.0862 1175 156.195 644.863 450.711
1235 0 89.4225 13.6655 1222 156.072 644.73 448.732
1236 0 92.2974 13.6732 1262 149.537 644.864 446.437
1237 0 93.507 13.4428 1257 147.392 645.327 446.893
1238 0 98.391 13.0296 1282 152.502 645.792 444.958
1239 0 100.349 13.2039 1325 152.974 645.502 442.922
1240 0 105.475 13.5862 1433 156.786 644.907 439.726
1241 0 108.691 14.4355 1569 148.157 644.929 435.57
1242 0 111.509 13.4787 1503 153.87 644.455 434.056
1243 0 113.839 13.4927 1536 155.073 644.917 430.824
1244 0 118.742 13.4241 1594 151.691 645.393 426.44
1245 1 67.5565 11.9308 806 153.617 643.893 452.624
1246 0 69.2252 12.6977 879 151.953 644.049 451.809
1247 0 72.4728 11.7285 850 148.012 644.26 449.759
1248 0 72.2901 12.3115 890 144.542 643.838 448.119
1249 0 76.3327 11.9477 912 138.077 644.446 446.925
1250 0 79.7018 11.932 951 138.513 644.186 446.095
1251 0 79.4239 12.4648 990 134.05 644.366 444.474
1252 0 82.5865 12.3144 1017 145.996 644.375 443.86
1253 0 88.5959 12.6642 1122 144.514 644.245 444.388
1254 0 89.4904 12.6159 1129 143.438 644.261 439.996
1255 0 92.6447 12.6181 1169 147.731 644.09 439.158
1256 0 94.5787 12.9628 1226 138.208 645.916 437.232
1257 0 98.6334 12.5921 1242 147.709 645.54 434.344
1258 0 101.417 12.6606 1284 141.544 645.172 435.168
1259 0 106.446 12.6167 1343 145.582 644.753 434.128
1260 0 109.53 12.2706 1344 149.553 644.221 430.934
1261 0 114.986 12.3146 1416 148.834 644.546 429.681
1262 0 115.512 12.7779 1476 145.011 644.324 427.693
1263 1 65.5719 11.2243 736 144.952 645.038 452.476
1264 0 67.5647 12.2401 827 145.871 644.872 453.155
1265 0 68.4851 12.2216 837 143.312 644.805 454.82
1266 0 68.2514 12.6884 866 141.512 644.439 451.614
1267 0 71.2101 12.3718 881 138.983 644.317 448.771
1268 0 72.5214 12.2171 886 147.713 644.045 447.819
1269 0 77.4378 12.3841 959 138.157 644.398 447.394
1270 0 78.497 12.5355 984 138.427 644.487 445.32
1271 0 79.3765 12.4974 992 146.923 643.968 444.949
1272 0 83.4244 12.7061 1060 134.342 643.981 442.978
1273 0 87.6505 13.2116 1158 142.114 644.294 440.904
1274 0 91.7765 12.3997 1138 141.599 644.888 441.555
1275 0 93.8585 12.6893 1191 144.465 644.2 440.467
1276 0 95.668 12.4911 1195 146.637 644.095 439.12
1277 0 98.578 12.447 1227 147.395 644.292 437.211
1278 0 100.392 12.6405 1269 148.563 644.14 435.304
1279 0 104.611 12.3505 1292 150.317 644.981 433.432
1280 0 106.537 12.2399 1304 147.047 644.733 430.573
1281 1 61.2825 10.2476 628 146.416 645.03 453.325
1282 0 61.298 10.5713 648 144.941 645.485 452.983
1283 0 65.327 10.5316 688 135.948 645.592 451.717
1284 0 65.4867 11.3153 741 143.799 645.154 450.128
1285 0 67.5501 11.5766 782 134.786 644.858 448.109
1286 0 71.6064 11.5632 828 135.519 645.122 448.337
1287 0 72.2608 11.417 825 134.228 645.427 446.87
1288 0 74.7244 11.5892 866 130.917 644.846 446.128
1289 0 76.5705 11.6363 891 137.974 644.965 445.498
1290 0 77.4751 12.0426 933 135.995 644.77 443.048
1291 0 82.2751 11.7897 970 132.972 645.016 441.589
1292 0 84.7056 12.5848 1066 129.361 644.907 438.553
1293 0 86.5803 12.1968 1056 138.621 644.81 438.652
1294 0 88.4578 12.2092 1080 140.795 645.336 437.847
1295 0 93.3855 12.0254 1123 136.83 645.18 436.877
1296 0 95.6302 12.2555 1172 140.318 644.898 434.616
1297 1 50.1911 9.38414 471 145.461 645.028 457.807
1298 0 55.3116 9.83519 544 140.636 644.697 459.204
1299 0 59.4494 10.3617 616 143.437 644.373 463.83
1300 0 59.3264 11.1418 661 138.408 643.596 460.893
1301 0 60.1805 11.316 681 131.693 643.88 460.709
1302 0 62.2618 11.1304 693 136.696 645.671 459.882
1303 0 63.3025 11.4056 722 138.093 647.06 458.625
1304 0 63.2593 11.524 729 137.108 645.984 458.196
1305 0 67.5462 11.8141 798 136.113 645.452 457.396
1306 0 68.4779 11.4489 784 134.31 645.4 456.733
1307 0 70.5023 11.9854 845 133.798 645.759 455.508
1308 0 73.5241 12.1321 892 147.18 645.728 454.821
1309 0 75.2872 12.5254 943 139.26 645.122 453.41
1310 0 77.4717 12.6111 977 150.465 645.574 452.978
1311 0 78.5813 12.7257 1000 151.288 646.189 451.786
1312 0 83.2763 13.0169 1084 143.794 645.916 451.098
1313 0 86.8432 12.5053 1086 145.805 646.042 449.863
1314 0 87.9827 12.8434 1130 152.95 646.312 447.43
1315 0 90.8059 12.6864 1152 153.888 645.666 446.344
1316 0 91.7522 13.0896 1201 155.527 645.708 445.032
1317 0 95.8024 12.745 1221 158.739 645.706 444.031
1318 0 99.5581 12.8468 1279 154.041 645.371 441.996
1319 0 102.68 12.9821 1333 154.002 645.86 439.605
1320 1 58.3593 11.2921 659 158.173 645.442 462.364
1321 0 60.1356 11.7568 707 153.655 645.535 460.796
1322 0 61.2658 12.4703 764 155.298 645.376 461.039
1323 0 64.334 12.3418 794 153.417 645.739 460.039
1324 0 65.1734 12.7353 830 153.817 645.804 457.79
1325 0 66.1769 12.5724 832 148.519 646.165 458.107
1326 0 68.1728 12.7177 867 152.752 646.065 456.453
1327 0 70.3442 12.8369 903 151.722 645.658 455.926
1328 0 73.2682 13.1844 966 156.732 645.118 454.944
1329 0 73.2401 13.0803 958 159.625 645.153 453.963
1330 0 78.3372 13.11 1027 159.276 645.399 453.057
1331 0 78.3109 13.2804 1040 151.757 645.6 451.32
1332 0 81.3699 12.8057 1042 154.4 645.985 449.008
1333 0 84.3776 13.3448 1126 149.609 645.96 446.432
1334 0 87.4077 12.8364 1122 158.043 645.497 445.326
1335 0 89.3674 13.4837 1205 158.954 645.363 444.096
1336 0 92.4409 13.295 1229 155.399 645.684 442.098
1337 0 93.3523 13.4437 1255 148.326 646.288 439.261
1338 0 97.3226 12.7 1236 151.159 645.578 440.04
1339 0 99.3514 13.0748 1299 149.35 646.022 437.228
1340 0 103.323 12.9496 1338 149.588 646.926 436.239
1341 0 105.294 12.8402 1352 147.51 646.714 435.567
1342 1 60.0762 11.1192 668 141.882 647.139 457.853
1343 0 60.0782 12.1342 729 154.804 645.83 458.594
1344 0 64.2294 12.3152 791 145.724 645.517 456.564
1345 0 66.1614 12.3637 818 153.031 645.148 456.863
1346 0 66.188 12.6458 837 146.4 644.981 455.599
1347 0 69.0724 12.5086 864 153.301 645.259 455.038
1348 0 71.1649 12.2251 870 153.051 644.602 454.468
1349 0 72.179 12.5244 904 145.738 644.812 452.748
1350 0 75.1895 12.5017 940 148.093 646.146 452.535
1351 0 78.1341 12.9137 1009 149.517 647.291 451.562
1352 0 79.1248 12.5877 996 155.291 647.598 450.618
1353 0 83.2336 12.6632 1054 153.189 646.79 449.289
1354 0 85.1425 13.2014 1124 152.886 647.045 448.023
1355 0 88.2684 12.9378 1142 156.629 646.99 447.081
1356 0 88.2241 13.273 1171 159.201 646.425 445.29
1357 0 92.1565 12.9671 1195 149.142 646.536 444.075
1358 0 94.1646 13.5507 1276 160.39 646.678 442.422
1359 0 97.1688 13.3273 1295 160.627 646.002 440.497
1360 0 101.146 13.2284 1338 153.372 645.966 438.821
1361 0 103.22 13.3501 1378 160.168 645.183 436.923
1362 0 108.155 12.9629 1402 159.828 646.548 435.753
1363 0 111.337 12.9068 1437 160.311 646.769 433.253
1364 0 114.327 13.4439 1537 160.956 647.054 430.869
1365 0 119.359 13.0196 1554 158.94 646.7 430.115
1366 1 64.1169 11.2451 721 159.957 646.689 457.849
1367 0 65.1467 11.6506 759 157.49 645.735 456.614
1368 0 69.2426 11.8424 820 156.34 644.441 455.44
1369 0 71.3228 12.2682 875 150.687 644.92 453.982
1370 0 74.3245 11.5036 855 148.786 644.241 452.643
1371 0 75.3567 12.2882 926 150.545 644.428 451.57
1372 0 79.3652 11.8818 943 145.809 645.181 450.278
1373 0 82.4238 12.5449 1034 151.746 645.241 448.644
1374 0 82.5332 12.3223 1017 153.805 645.72 447.502
1375 0 85.3375 12.6205 1077 148.724 646.108 445.505
1376 0 87.3866 12.6793 1108 156.46 645.89 444.597
1377 0 91.417 12.9407 1183 141.806 646.303 444.203
1378 0 93.5888 12.3412 1155 151.462 646.741 443.255
1379 0 96.4978 12.6635 1222 152.065 646.532 441.221
1380 0 99.718 12.3348 1230 147.141 646.603 440.578
1381 0 101.669 12.6883 1290 145.226 646.154 438.916
1382 0 102.505 12.4579 1277 148.707 645.464 436.762
1383 0 105.868 12.8179 1357 148.253 645.776 436.413
1384 0 110.62 12.439 1376 149.581 646.035 434.598
1385 0 113.632 12.9364 1470 146.46 645.513 433.503
1386 0 116.635 12.4405 1451 148.944 645.181 432.66
1387 1 62.7103 9.98241 626 149.184 646.03 459.984
1388 0 65.7188 10.758 707 145.982 646.372 458.644
1389 0 66.7074 11.5429 770 144.851 645.379 458.632
1390 0 69.7129 11.6191 810 137.574 645.759 455.322
1391 0 69.6711 11.9849 835 145.726 646.127 455.583
1392 0 71.5989 12.0952 866 155.876 646.304 453.809
1393 0 75.9789 11.6875 888 148.652 645.918 454.33
1394 0 75.956 12.4414 945 151.582 646.422 452.179
1395 0 79.7703 11.9468 953 151.793 646.22 451.859
1396 0 81.7906 12.4464 1018 152.596 646.254 450.194
1397 0 84.8401 11.893 1009 155.385 646.104 449.743
1398 0 86.9257 12.2403 1064 156.148 645.62 448.017
1399 0 89.9754 12.4034 1116 159.884 645.655 446.869
1400 0 92.8636 12.2868 1141 159.774 645.969 446.15
1401 0 95.7774 12.2472 1173 158.675 645.742 445.504
1402 0 97.7445 12.3178 1204 161.325 645.271 443.767
1403 0 100.747 12.7348 1283 155.191 645.471 442.108
1404 0 102.695 12.3472 1268 154.463 645.024 440.864
1405 0 106.56 12.6032 1343 159.256 644.032 439.506
1406 0 109.69 12.4988 1371 157.096 644.511 437.599
1407 1 60.2545 11.1195 670 159.387 644.524 463.178
1408 0 63.2277 11.593 733 158.925 644.108 462.124
1409 0 63.1367 11.5622 730 150.577 645.845 461.415
1410 0 65.1962 11.7338 765 152.02 646.195 459.668
1411 0 69.2754 11.9379 827 145.37 646.618 460.447
1412 0 70.1809 12.197 856 145.011 645.953 458.674
1413 0 72.2988 11.8812 859 150.581 645.884 458.765
1414 0 72.2022 12.2573 885 145.93 646.128 457.826
1415 0 74.2248 12.1927 905 151.978 644.649 456.985
1416 0 75.3014 12.3769 932 149.203 644.198 456.046
1417 0 79.3529 12.1609 965 153.676 644.012 454.101
1418 0 81.4759 12.1017 986 151.265 644.555 453.439
1419 0 84.3756 11.8518 1000 151.201 644.861 453.44
1420 0 86.2963 12.4223 1072 149.754 644.484 452.981
1421 0 87.3439 12.3191 1076 143.421 644.264 452.331
1422 0 91.2151 12.5199 1142 151.282 643.915 450.144
1423 0 93.4428 12.307 1150 151.842 644.021 449.5
1424 0 96.3332 12.7993 1233 150.723 643.937 448.225
1425 0 100.313 12.6504 1269 142.558 644.393 446.443
1426 0 104.368 12.0343 1256 150.564 643.177 444.041
1427 1 62.1072 10.2565 637 146.418 643.078 465.614
1428 0 63.3189 10.7867 683 143.277 643.796 463.549
1429 0 64.4585 10.9218 704 139.148 643.095 465.013
1430 0 66.5242 11.3943 758 137.84 643.128 463.19
1431 0 68.25 11.4139 779 137.683 642.986 462.431
1432 0 70.4434 11.6973 824 142.333 643.523 458.422
1433 0 73.3658 11.4222 838 129.408 643.068 458.767
1434 0 74.3707 12.0343 895 132.036 642.98 457.702
1435 0 77.4638 11.9152 923 144.924 642.633 457.029
1436 0 78.7246 12.5755 990 139.039 642.981 453.721
1437 0 82.5408 12.091 998 142.592 642.9 452.366
1438 0 84.6814 12.423 1052 142.092 642.729 451.55
1439 0 86.6136 12.3422 1069 146.479 642.383 449.987
1440 0 89.4731 13.1324 1175 136.968 642.718 448.472
1441 0 92.735 12.5088 1160 142.603 643.184 448.133
1442 0 94.7924 13.25 1256 141.145 643.402 445.887
1443 0 97.7915 12.6289 1235 149.444 643.101 446.02
1444 0 100.633 14.1704 1426 143.424 642.446 442.731
1445 0 102.64 13.1527 1350 139.144 641.757 443.106
1446 0 105.674 13.0496 1379 145.814 642.603 441.964
1447 0 109.598 13.6316 1494 142.583 642.325 438.602
1448 0 110.548 13.1527 1454 144.163 642.15 439.389
1449 0 114.835 13.1928 1515 145.636 641.869 436.853
1450 0 117.883 13.0044 1533 145.078 642.516 434.618
1451 0 121.698 13.2377 1611 149.921 642.485 434.039
1452 1 66.3535 10.5797 702 147.865 642.463 462.919
1453 0 68.4564 11.3357 776 139.577 641.749 462.631
1454 0 71.3251 11.9733 854 146.656 642.098 461.185
1455 0 73.4642 11.4886 844 147.232 642.348 459.649
1456 0 74.3574 12.2382 910 145.459 642.916 457.901
1457 0 77.4158 12.0001 929 136.367 642.35 459.146
1458 0 79.4131 12.1139 962 142.522 642.412 456.576
1459 0 82.5807 12.3879 1023 141.045 642.87 452.552
1460 0 82.4176 12.6429 1042 154.62 643.411 454.033
1461 0 87.4986 12.3545 1081 144.851 643.004 453.045
1462 0 87.5497 12.5643 1100 153.855 642.943 450.982
1463 0 92.3501 12.301 1136 152.981 643.144 449.474
1464 0 95.518 12.5317 1197 154.344 643.256 447.338
1465 0 99.452 12.5086 1244 153.429 642.861 445.826
1466 0 101.523 12.874 1307 146.811 643.578 443.839
1467 0 103.446 12.7796 1322 149.238 643.81 443.322
1468 0 108.409 13.2646 1438 149.953 643.694 441.68
1469 1 60.3786 10.252 619 147.349 644.365 465.478
1470 0 61.2336 10.4028 637 138.705 644.429 465.568
1471 0 64.3697 11.1388 717 140.833 644.134 463.873
1472 0 64.2407 10.9588 704 145.378 644.521 463.104
1473 0 65.285 11.2736 736 140.512 644.451 462.66
1474 0 68.2821 11.0571 755 150.093 644.727 461.84
1475 0 70.348 11.2583 792 146.443 644.817 460.441
1476 0 72.2721 11.4844 830 149.677 645.526 460.039
1477 0 73.3793 11.2021 822 149.201 645.678 458.352
1478 0 76.305 11.8734 906 146.895 645.737 456.427
1479 0 77.3182 11.8083 913 150.647 645.311 456.023
1480 0 80.429 11.7992 949 150.228 645.394 455.002
1481 0 79.4163 12.403 985 154.017 644.957 454.397
1482 0 83.3865 12.2922 1025 152.951 645.537 453.175
1483 0 85.4423 12.0432 1029 156.707 645.463 452.198
1484 0 87.3834 12.1419 1061 150.81 645.222 451.141
1485 0 89.4097 12.2582 1096 150.541 645.654 449.922
1486 0 93.4344 12.8218 1198 153.214 645.78 448.592
1487 0 95.7683 13.0941 1254 155.053 645.666 447.211
1488 0 98.2405 12.6933 1247 155.739 645.038 445.942
1489 0 100.311 13.0694 1311 153.007 644.912 444.018
1490 0 104.332 12.4603 1300 149.345 644.598 441.438
1491 1 61.1526 10.7109 655 152.348 643.931 462.782
1492 0 63.0458 10.8651 685 153.112 645.603 462.472
1493 0 66.1136 11.0114 728 148.799 645.801 461.543
1494 0 66.12 11.1615 738 146.533 644.654 461.654
1495 0 66.1701 11.1833 740 146.326 644.212 461.491
1496 0 70.3751 11.2966 795 148.706 643.955 459.327
1497 0 73.2472 11.4134 836 142.434 643.941 458.496
1498 0 75.3025 11.3409 854 152.027 644.121 457.14
1499 0 78.4041 11.3642 891 149.031 644.2 456.262
1500 0 79.2911 11.7668 933 146.777 643.932 454.852
1501 0 79.2554 12.4786 989 149.145 643.883 453.256
1502 0 81.2059 11.9942 974 138.802 643.709 450.038
1503 0 85.281 11.7494 1002 144.118 643.705 449.816
1504 0 85.4699 12.3786 1058 145.914 643.39 445.916
1505 0 89.3576 12.2206 1092 141.048 643.665 448.392
1506 0 91.2194 12.1356 1107 141.195 642.84 445.303
1507 0 94.2277 12.4698 1175 146.951 643.134 446.453
1508 0 98.527 12.423 1224 143.98 643.657 440.593
1509 0 98.3028 12.8481 1263 154.073 643.561 441.438
1510 0 102.415 12.7032 1301 153.072 643.417 441.406
1511 0 107.588 12.2411 1317 143.688 643.39 440.152
1512 0 111.599 12.3926 1383 161.916 643.731 439.025
1513 0 114.447 12.2677 1404 159.18 643.667 438.739
1514 1 64.3824 10.8104 696 160.027 643.842 465.145
1515 0 65.4198 11.9994 785 149.313 644.442 464.176
1516 0 66.3553 12.1317 805 159.352 643.998 463.042
1517 0 69.4894 12.1026 841 152.295 644.012 462.905
1518 0 72.3244 11.7526 850 158.645 644.1 461.916
1519 0 71.315 12.3957 884 154.489 643.11 459.769
1520 0 74.316 12.6756 942 154.921 642.96 459.33
1521 0 77.4605 12.2772 951 157.288 643.625 457.939
1522 0 79.3706 12.4857 991 161.86 643.353 457.575
1523 0 81.2646 12.6623 1029 158.341 643.373 456.037
1524 0 86.2421 15.8275 1365 139.97 643.048 451.769
1525 0 88.3792 14.6414 1294 148.393 642.992 451.818
1526 0 85.2111 13.1438 1120 162.914 643.054 455.439
1527 0 88.1849 12.5872 1110 158.165 641.992 452.737
1528 0 89.2613 13.13 1172 154.801 642.679 450.038
1529 0 92.3349 12.9853 1199 152.024 642.832 449.349
1530 0 95.2284 12.8638 1225 162.329 642.584 448.312
1531 0 97.2861 13.6196 1325 153.054 642.013 446.449
1532 0 99.2204 13.8076 1370 161.316 642.387 447.571
1533 0 102.277 13.4341 1374 159.828 642.321 444.843
1534 0 106.305 13.038 1386 151.323 642.693 444.48
1535 0 109.408 12.8784 1409 155.422 642.077 442.89
1536 0 111.317 13.4121 1493 158.025 642.638 441.692
1537 0 113.322 12.9983 1473 159.565 642.315 439.568
1538 0 116.414 13.4519 1566 160.141 643.432 435.691
1539 0 121.323 13.1138 1591 161.236 643.702 434.45
1540 1 71.1747 11.1978 797 154.858 643.639 461.385
1541 0 75.2023 11.5688 870 160.131 643.598 459.891
1542 0 76.1793 11.788 898 157.393 643.462 458.977
1543 0 77.1551 12.5721 970 153.456 642.833 457.526
1544 0 81.2535 12.7748 1038 157.673 642.032 455.731
1545 0 85.2446 12.4583 1062 153.127 642.647 453.327
1546 0 88.4064 12.6235 1116 154.299 642.959 452.961
1547 0 89.4946 12.5818 1126 150.283 643.325 451.675
1548 0 94.2802 12.325 1162 154.552 643.631 450.707
1549 0 96.1998 12.5468 1207 149.022 642.986 449.602
1550 0 97.4666 13.0199 1269 148.158 642.627 446.97
1551 0 99.2792 13.0239 1293 155.487 642.578 446.442
1552 0 105.251 13.026 1371 154.49 642.577 444.815
1553 0 106.299 13.0105 1383 150.333 642.716 442.586
1554 0 110.255 12.8248 1414 151.174 643.308 440.844
1555 0 113.425 12.678 1438 136.784 643.613 436.532
1556 0 116.686 12.538 1463 129.256 643.516 433.602
1557 0 120.272 13.245 1593 144.323 642.845 435.225
1558 0 125.348 13.2511 1661 149.616 642.961 433.5
1559 0 127.342 12.9258 1646 155.764 643.75 431.612
1560 1 72.1315 11.3127 816 150.131 642.112 459.642
1561 0 75.3078 11.8182 890 138.991 641.378 456.893
1562 0 74.265 12.819 952 149.502 642.202 455.79
1563 0 78.1561 11.9376 933 141.105 642.175 455.382
1564 0 80.2915 12.1308 974 156.531 642.066 454.351
1565 0 83.1965 12.1039 1007 152.851 642.146 452.758
1566 0 85.2385 12.424 1059 155.363 642.701 451.113
1567 0 89.2492 12.3699 1104 153.077 642.801 449.678
1568 0 89.1846 12.8946 1150 150.374 643.707 448.57
1569 0 93.1547 12.6349 1177 155.985 643.617 447.15
1570 0 97.2136 12.8891 1253 151.585 644.01 446.152
1571 0 101.258 12.9274 1309 152.979 643.719 444.015
1572 0 104.222 13.1642 1372 153.941 644.289 442.721
1573 0 107.247 13.1658 1412 152.304 644.094 441.295
1574 0 110.171 12.8709 1418 153.063 643.523 440.329
1575 1 65.1438 11.5744 754 148.763 645.659 463.513
1576 0 67.1787 11.9681 804 146.44 645.408 461.189
1577 0 69.2011 11.8206 818 139.966 644.875 459.934
1578 0 72.1292 12.3251 889 147.135 645.38 459.128
1579 0 73.201 12.2403 896 149.661 645.396 458.518
1580 0 75.2187 12.4171 934 145.885 645.515 456.584
1581 0 76.1596 12.8283 977 143.813 645.172 454.9
1582 0 80.2218 12.5153 1004 138.672 644.685 454.257
1583 0 81.1862 12.4405 1010 148.394 644.665 453.464
1584 0 84.1457 13.0963 1102 147.721 645.17 451.762
1585 0 85.2294 13.1175 1118 139.377 645.214 452.827
1586 0 89.1193 13.0275 1161 148.517 645.599 450.417
1587 0 90.1247 13.4702 1214 146.703 645.276 449.357
1588 0 93.0936 13.5133 1258 150.854 644.456 447.44
1589 0 96.2801 13.6061 1310 149.685 645.072 445.034
1590 0 98.2946 13.368 1314 155.236 645.477 445.396
1591 0 100.135 13.3519 1337 144.12 645.326 441.966
1592 0 104.228 13.5664 1414 151.351 645.455 441.993
1593 0 107.216 13.8693 1487 155.145 645.791 427.541
1594 0 110.241 13.3797 1475 156.621 644.463 426.839
1595 0 114.187 13.9771 1596 152.195 644.655 427.514
1596 0 115.374 13.4086 1547 162.314 644.198 428.754
1597 0 118.252 13.6826 1618 146.124 644.18 432.664
1598 0 122.467 13.7344 1682 158.971 644.136 432.235
1599 1 70.2013 11.6522 818 151.086 643.686 460.049
1600 0 72.124 12.2705 885 157.821 643.212 457.898
1601 0 75.1534 12.5211 941 156.519 644.156 459.106
1602 0 75.1276 12.6585 951 152.504 643.361 459.559
1603 0 78.2783 12.4172 972 148.536 643.341 457.487
1604 0 81.3774 12.5342 1020 151.032 644.48 457.27
1605 0 81.2998 12.9644 1054 146.611 644.246 454.732
1606 0 84.2062 12.7544 1074 155.593 644.679 453.587
1607 0 86.3444 13.145 1135 156.284 644.94 453.037
1608 0 89.2433 13.2111 1179 154.382 644.658 451.768
1609 0 93.2423 12.9984 1212 153.37 644.955 451.323
1610 0 97.3153 13.1326 1278 155.214 644.988 448.776
1611 0 100.252 13.4562 1349 154.285 644.652 447.458
1612 0 103.512 13.6023 1408 159.18 644.793 446.178
1613 0 104.505 13.5495 1416 152.486 644.398 444.033
1614 0 107.49 13.1454 1413 159.113 643.72 441.512
1615 1 15.0075 7.32968 110 134.491 647.1 487.9
1616 0 18.0187 7.82521 141 137.113 647.014 487.411
1617 0 16.065 8.65235 139 134.504 646.094 488.755
1618 0 17.071 8.37676 143 128.874 645.846 488.28
1619 0 18.1149 8.33568 151 137.305 645.901 488.503
1620 0 16.0013 9.18674 147 130.898 645.156 489.299
1621 0 16.0428 8.66431 139 131.748 645.23 489.432
1622 0 17.0053 8.52676 145 131.255 644.366 490.166
1623 0 16.0419 8.72714 140 132.971 644.736 489.971
1624 0 19.0264 6.46469 123 134.049 645.154 489.789
1625 0 18.0718 8.63226 156 134.756 645.378 489.628
1626 0 18.0183 7.4369 134 132.119 645.351 490.231
1627 0 17.0046 8.11545 138 131.804 644.775 490.138
1628 0 14.1238 8.56707 121 130.678 645.107 487.851
1629 0 16.0381 7.85629 126 134.683 644.413 488.508
1630 0 15.0444 8.50817 128 135.633 645.188 489.148
1631 0 16.0571 7.53561 121 136.488 644.76 490.471
1632 0 16.052 9.22003 148 131.601 645.047 491.588
1633 0 17.0585 8.61741 147 132.66 644.891 490.571
1634 0 18.094 8.89797 161 132.199 644.571 490.311
1635 0 17.0452 9.09345 155 134.735 644.523 490.471
1636 0 17.0778 8.31491 142 137.739 644.739 491.014
1637 1 62.2853 11.9611 745 144.777 641.459 469.342
1638 0 66.212 11.8256 783 148.105 641.158 467.958
1639 0 66.3241 11.8509 786 150.435 642.313 467.77
1640 0 68.268 11.8943 812 136.919 642.453 466.594
1641 0 70.3549 12.8776 906 150.05 643.029 464.477
1642 0 72.2756 12.6875 917 147.18 643.413 464.102
1643 0 75.2718 12.6874 955 148.846 643.312 463.231
1644 0 76.4215 12.9806 992 148.972 643.509 461.197
1645 1 18.0129 9.65972 174 136.172 644.805 490.488
1646 0 17.0219 8.87093 151 131.662 644.934 491.258
1647 0 16.1741 8.53218 138 136.645 644.529 492.565
1648 0 14.0173 8.56087 120 136.392 644.183 492.758
1649 0 17.0267 9.04463 154 137.987 644.442 489.916
1650 0 19.0369 9.45533 180 135.606 643.878 489.472
1651 0 18.0536 8.8071 159 138.465 645.031 490.031
1652 0 18.0295 9.26257 167 137.671 644.485 490.365
1653 0 19.0188 8.72821 166 142.922 645.042 490.633
1654 0 17.0154 10.755 183 138.339 644.273 489.896
1655 0 18.0406 10.6426 192 136.135 644.229 490.609
1656 0 17.0434 9.38782 160 140.306 645.106 489.781
1657 0 18.106 10.3833 188 132.548 645.66 490.112
1658 0 17.0139 9.99185 170 135.735 645.176 490.347
1659 0 17.0672 8.90595 152 135.237 645.559 490.592
1660 0 12.0058 8.32931 100 126.37 646 492.03
1661 1 125.289 13.6485 1710 160.833 643.633 436.77
1662 0 130.515 14.0137 1829 155.374 643.812 433.355
1663 0 133.369 13.8938 1853 156.049 644.275 431.81
1664 0 138.398 14.0753 1948 151.891 644.185 429.25
1665 0 145.349 13.7187 1994 154.732 644.202 427.935
1666 0 147.428 14.129 2083 147.708 644.544 425.498
1667 1 83.1948 12.3325 1026 150.053 643.526 456.3
1668 0 87.1974 13.005 1134 150.062 643.417 449.35
1669 0 89.261 12.5475 1120 149.278 643.107 451.246
1670 0 92.2665 12.7457 1176 151.338 643.923 451.014
1671 0 94.2534 13.1242 1237 150.258 644.134 449.492
1672 0 98.3899 13.2737 1306 146.061 644.901 448.359
1673 0 100.359 13.4717 1352 146.084 645.027 446.43
1674 0 103.242 13.1439 1357 144.766 645.07 445.584
1675 0 106.292 13.2748 1411 143.977 646.138 443.612
1676 0 109.272 13.4252 1467 142.662 645.982 442.165
1677 0 113.354 13.4358 1523 142.053 646.519 441.046
1678 0 114.498 13.5112 1547 145.628 646.193 438.685
1679 0 119.452 13.9889 1671 139.238 645.998 434.707
1680 0 123.242 13.8832 1711 139.641 646.029 433.337
1681 0 127.564 13.9303 1777 137.307 646.042 432.59
1682 0 131.402 14.3909 1891 144.899 646.379 429.828
1683 0 135.429 14.2141 1925 145.268 646.353 430.029
1684 0 139.43 14.1361 1971 136.309 646.832 429.412
1685 0 145.327 14.2781 2075 145.929 646.672 427.073
1686 0 150.305 14.0714 2115 147.648 646.454 424.8
1687 0 154.342 14.2282 2196 148.863 646.279 422.87
1688 0 162.309 14.0843 2286 152.482 646.083 419.248
1689 0 167.341 14.091 2358 154.139 645.872 417.61
1690 0 173.443 14.339 2487 152.462 645.823 415.242
1691 1 97.1066 12.9548 1258 143.595 646.31 452.798
1692 0 100.28 13.5222 1356 148.644 645.399 450.426
1693 0 103.525 13.5136 1399 158.297 645.545 448.671
1694 0 107.559 13.9272 1498 150.151 645.676 446.334
1695 0 109.429 13.8812 1519 156.81 645.888 445.949
1696 0 113.496 14.2384 1616 156.551 645.577 441.39
1697 0 115.738 13.7034 1586 157.631 645.513 441.642
1698 0 117.8 14.1766 1670 156.728 645.285 439.819
1699 0 121.581 14.2375 1731 156.725 645.215 436.668
1700 0 124.684 13.6986 1708 161.222 644.725 435.299
1701 0 128.598 14.1838 1824 152.324 644.777 432.378
1702 0 129.738 13.6505 1771 159.558 643.944 433.425
1703 0 131.239 13.3268 1749 157.28 644.471 432.985
1704 0 130.994 13.451 1762 166.364 644.491 432.621
1705 0 131.054 13.5364 1774 162.917 644.116 432.738
1706 1 82.4849 13.1297 1083 161.297 643.972 457.66
1707 0 86.5832 14.0905 1220 157.345 643.78 455.602
1708 0 89.6688 14.9662 1342 153.235 644.268 453.4
1709 0 92.8911 15.4267 1433 155.276 644.294 452.038
1710 0 91.4805 14.6698 1342 156.283 643.958 452.252
1711 0 96.7062 14.0115 1355 160.042 643.842 451.072
1712 0 99.5134 14.179 1411 159.466 643.409 450.831
1713 0 103.41 14.4377 1493 163.999 644.495 449.616
1714 0 105.516 14.4339 1523 159.159 644.584 449.043
1715 0 108.282 14.3975 1559 154.648 644.18 447.471
1716 0 112.292 14.5692 1636 164.66 644.366 447.419
1717 0 118.328 15.6684 1854 155.728 644.05 442.132
1718 0 119.201 14.5301 1732 167.033 644.252 443.665
1719 0 123.288 14.4297 1779 157.14 644.458 442.297
1720 1 66.1985 14.245 943 178.024 644.187 468.448
1721 0 70.3066 14.451 1016 174.189 643.88 467.344
1722 0 72.1857 14.9753 1081 172.81 644.206 464.972
1723 0 75.1851 15.1094 1136 163.136 644.398 464.849
1724 0 78.2367 14.814 1159 165.96 644.275 464.036
1725 0 80.0903 14.9332 1196 171.89 644.152 462.574
1726 0 82.2716 14.9383 1229 171.228 643.869 462.097
1727 0 84.1826 14.8249 1248 171.244 644.002 461.554
1728 0 87.5598 15.0069 1314 168.389 643.653 459.635
1729 0 88.2526 14.5605 1285 166.633 644.014 458.195
1730 0 92.2322 14.7779 1363 169.104 643.234 458.293
1731 0 95.1385 14.9992 1427 169.854 642.136 456.157
1732 0 98.2122 14.7232 1446 174.037 642.522 455.156
1733 0 100.412 14.9385 1500 167.945 641.959 453.947
1734 0 102.348 15.1542 1551 161.057 642.057 451.797
1735 0 106.517 14.946 1592 168.309 641.528 450.497
1736 0 109.297 15.0141 1641 169.523 641.021 449.887
1737 0 113.565 14.8462 1686 171.238 641.4 448.668
1738 0 116.519 15.0619 1755 171.911 642.205 446.507
1739 0 117.347 15.1431 1777 164.022 641.827 444.842
1740 0 123.385 14.8884 1837 166.487 642.74 442.475
1741 0 128.487 14.9587 1922 170.752 643.24 440.777
1742 0 131.469 15.38 2022 162.823 641.81 438.03
1743 0 136.39 15.4997 2114 170.337 641.522 436.155
1744 1 75.3178 14.565 1097 176.647 641.559 465.339
1745 0 76.4275 15.06 1151 177.642 641.899 464.096
1746 0 81.3878 15.5429 1265 173.15 641.539 461.33
1747 0 85.3098 15.4027 1314 171.155 641.266 459.775
1748 0 88.3263 15.839 1399 171.05 641.748 456.567
1749 0 95.417 17.2296 1644 147.11 641.776 451.79
1750 0 98.4179 17.5273 1725 154.221 641.622 449.609
1751 0 100.319 17.554 1761 156.119 641.628 448.744
1752 0 101.216 16.4994 1670 165.641 641.423 449.895
1753 0 104.473 15.0277 1570 165.726 642.109 449.717
1754 0 107.287 15.2767 1639 160.819 642.637 446.756
1755 0 112.193 15.7764 1770 165.325 642.824 446.649
1756 1 61.2127 14.3598 879 173.912 643.399 471.346
1757 0 64.2258 14.8538 954 171.709 643.34 469.522
1758 0 67.1454 14.9824 1006 167.149 642.108 468.097
1759 0 67.3028 14.7542 993 170.719 642.577 466.906
1760 0 70.1901 14.9736 1051 167.985 642.226 465.951
1761 0 73.1515 15.0646 1102 170.258 643.04 464.664
1762 0 74.1606 15.3316 1137 172.682 643.167 463.965
1763 0 77.2592 15.1438 1170 167.219 643.289 461.426
1764 0 80.3343 15.0496 1209 172.484 643.122 460.27
1765 0 82.2421 15.1869 1249 164.695 642.916 459.826
1766 0 84.3376 15.438 1302 168.081 643.574 457.17
1767 0 88.2863 15.4724 1366 173.348 643.354 455.492
1768 0 91.2241 15.3359 1399 174.196 643.976 454.794
1769 0 93.2526 15.2811 1425 169.653 643.88 454.58
1770 0 96.1614 15.6612 1506 174.429 643.892 452.535
1771 0 98.2991 15.697 1543 171.576 643.848 450.54
1772 0 100.321 15.6797 1573 171.966 644.247 448.397
1773 0 105.219 15.7195 1654 168.714 644.831 446.804
1774 0 107.295 15.8162 1697 164.648 644.203 445.214
1775 0 112.357 15.7801 1773 165.624 644.425 444.232
1776 0 115.501 15.8094 1826 174.096 643.912 442.18
1777 0 118.552 15.8918 1884 164.686 643.71 439.169
1778 0 123.57 15.6591 1935 164.873 643.935 437.994
1779 0 128.398 15.8803 2039 171.641 644.24 435.475
1780 0 133.368 15.5285 2071 168.349 643.545 431.796
1781 0 137.642 15.9108 2190 171.333 643.725 429.34
1782 0 143.778 15.4683 2224 169.888 644.092 426.976
1783 1 78.3612 13.8972 1089 174.004 644.857 458.737
1784 0 81.3842 14.1182 1149 167.973 644.688 456.278
1785 0 84.3717 14.045 1185 171.329 645.299 455.962
1786 0 87.3162 14.2242 1242 168.262 645.337 454.957
1787 0 89.4157 14.3375 1282 164.97 645.631 452.613
1788 0 92.3839 14.1258 1305 167.897 645.198 451.22
1789 0 97.7743 14.3187 1400 164.834 645.828 448.796
1790 0 99.4334 14.4519 1437 167.246 645.651 447.195
1791 0 102.416 14.4119 1476 171.109 645.856 445.352
1792 0 106.477 14.388 1532 159.394 646.172 443.163
1793 0 108.662 14.6417 1591 164.918 645.556 441.553
1794 0 112.528 14.3786 1618 160.032 645.839 440.132
1795 0 115.445 14.2579 1646 164.922 645.004 437.694
1796 1 63.3116 11.9725 758 151.975 645.328 465.427
1797 0 65.5783 12.1077 794 151.503 644.358 464.64
1798 0 65.3574 12.271 802 154.178 645.137 463.416
1799 0 68.3529 12.1282 829 150.341 645.256 463
1800 0 70.3404 12.1694 856 157.804 645.574 462.222
1801 0 72.3932 12.3907 897 154.734 645.204 461.38
1802 0 74.4782 12.3795 922 151.717 645.902 460.249
1803 0 77.5776 11.988 930 155.277 645.511 459.203
1804 0 80.6399 11.7436 947 155.441 645.001 458.672
1805 1 41.6959 9.35343 390 141.562 646.033 479.18
1806 0 43.4147 9.48988 412 137.044 644.743 478.228
1807 0 42.5986 10.2116 435 138.016 645.529 478.423
1808 0 43.6431 10.6317 464 142.696 644.384 477.526
1809 0 46.6201 10.5534 492 141.602 644.278 476.691
1810 0 45.4537 10.4502 475 138.899 644.48 475.901
1811 0 47.4407 11.0664 525 143.531 643.998 474.594
1812 0 49.4423 11.0229 545 141.879 644.022 475.53
1813 0 51.5906 10.9904 567 139.36 644.538 474.862
1814 0 52.6092 10.9677 577 139.416 644.634 473.558
1815 0 54.5061 10.8061 589 138.626 643.983 472.109
1816 0 54.5955 10.6602 582 132.802 643.701 471.579
1817 0 57.7047 11.0216 636 133.412 643.049 470.824
1818 1 26.3533 8.23427 217 136.88 644.336 486.18
1819 0 30.37 8.8245 268 127.869 643.563 483.687
1820 0 32.675 8.66105 283 126.792 643.671 483.717
1821 0 32.5553 9.21509 300 134.083 643.39 484.217
1822 0 34.3675 9.60209 330 135.1 643.406 482.927
1823 0 35.5365 10.243 364 133.203 643.753 481.184
1824 0 35.5978 10.0287 357 128.832 643.221 481.356
1825 0 36.6158 9.88643 362 136.431 642.102 480.79
1826 0 36.5988 10.3282 378 133.243 642.307 481.513
1827 0 38.6102 9.73835 376 132.856 642.503 482.106
1828 0 40.286 9.68077 390 135.549 642.451 480.367
1829 0 39.4463 10.2925 406 136.022 642.798 479.251
1830 0 40.5334 11.0773 449 137.209 642.541 478.207
1831 0 42.3954 11.0861 470 138.5 642.326 477.177
1832 0 45.5481 10.67 486 135.103 642.179 476.732
1833 0 45.5189 11.2041 510 126.4 641.792 476.51
1834 0 46.2763 10.7614 498 133.548 641.809 476.124
1835 0 47.3934 11.0775 525 132.638 641.573 476.16
1836 0 48.3976 10.951 530 133.308 642.06 474.379
1837 0 50.5292 11.1421 563 135.86 641.83 473.14
1838 0 51.4634 11.5616 595 136.086 641.383 472.929
1839 0 52.3854 11.6636 611 131.077 641.535 473.126
1840 0 55.3663 11.4149 632 138.562 641.911 472.036
1841 0 58.4338 11.3462 663 138.632 642.54 472.19
1842 0 59.331 11.6465 691 141.764 641.962 471.919
1843 0 62.4702 11.6696 729 142.536 642.026 471.285
1844 0 62.544 11.6878 731 147.425 641.544 470.352
1845 0 64.5061 12.8825 831 146.001 642.118 467.32
1846 0 68.6999 12.4746 857 162.074 642.467 468.032
1847 0 68.5143 13.4716 923 173.651 642.171 468.374
1848 0 71.5325 13.0151 931 166.99 642.233 467.205
1849 0 73.9883 13.0832 968 166.984 642.464 463.13
1850 0 82.6704 15.8945 1314 144.891 643.258 457.888
1851 0 83.7705 15.4112 1291 143.617 642.658 458.816
1852 1 40.3987 12.4261 502 164.922 642.647 481.424
1853 0 43.3761 12.4032 538 168.5 642.56 479.511
1854 0 44.5317 12.5079 557 168.628 641.788 479.12
1855 0 44.4137 12.8114 569 168.155 642.455 478.545
1856 0 46.2971 12.139 562 166.838 642.222 478.258
1857 0 47.3884 13.0623 619 166.275 642.149 478.184
1858 0 49.2063 13.1284 646 165.935 642.763 477.539
1859 0 50.288 12.8261 645 167.698 641.74 475.726
1860 0 50.2963 13.0029 654 166.102 642.515 474.898
1861 0 51.3064 13.1563 675 170.476 642.818 474.812
1862 0 52.6405 13.3167 701 171.666 642.197 472.742
1863 0 53.9086 13.764 742 163.395 642.488 471.642
1864 0 54.5673 13.6529 745 174.14 641.85 471.301
1865 0 55.6543 13.9253 775 171.48 641.506 470.568
1866 0 56.8924 14.378 818 165.353 641.504 469.149
1867 0 58.5733 13.8288 810 159.414 641.204 468.626
1868 0 59.6114 14.5106 865 166.853 642.03 468.379
1869 0 59.7185 14.4511 863 164.465 641.331 467.007
1870 0 61.5155 14.9231 918 172.777 641.157 466.566
1871 0 65.6404 14.0767 924 165.096 641.708 465.068
1872 0 67.7875 14.2209 964 159.575 642.11 463.233
1873 0 68.6138 14.5598 999 165.401 641.818 464.329
1874 0 72.6746 14.2416 1035 173.883 642.156 463.014
1875 0 72.4519 14.4786 1049 172.142 642.276 462.614
1876 0 75.5016 14.4765 1093 166.275 642.494 460.438
1877 0 77.5248 14.5244 1126 172.08 642.527 459.563
1878 0 80.7405 14.6271 1181 166.524 642.445 457.95
1879 0 83.4518 14.4874 1209 173.012 643.055 457.793
1880 0 85.484 14.8566 1270 171.446 643.138 455.017
1881 0 87.4792 14.8721 1301 165.722 643.777 453.917
1882 0 91.4704 14.9775 1370 166.054 643.355 451.967
1883 0 93.3576 14.6748 1370 169.684 643.2 451.24
1884 0 98.3727 15.0347 1479 168.861 643.312 449.06
1885 0 102.537 14.8922 1527 165.705 643.13 448.075
1886 0 105.278 14.6564 1543 162.436 643.436 447.265
1887 1 54.2337 13.3865 726 175.004 644.937 469.866
1888 0 56.8222 13.4982 767 174.072 644.823 469.327
1889 0 60.4948 13.4392 813 171.305 645.009 467.856
1890 0 61.486 13.19 811 167.454 644.898 466.797
1891 0 64.4786 13.2912 857 170.026 645.254 465.726
1892 0 65.4491 13.4914 883 174.753 645.309 464.272
1893 0 68.4944 13.5193 926 168.113 645.085 462.71
1894 0 70.6569 13.5019 954 171.204 645.738 461.158
1895 0 72.4968 13.642 989 173.282 645.709 461.253
1896 0 76.5585 13.6236 1043 167.217 645.923 459.468
1897 0 78.5904 13.6531 1073 165.125 645.884 458.407
1898 0 80.4705 14.0051 1127 162.885 646.319 455.315
1899 0 83.6339 13.8102 1155 174.139 645.151 454.49
1900 0 84.5642 13.9894 1183 164.564 645.164 453.988
1901 0 88.5716 14.079 1247 170.691 644.933 452.013
1902 0 91.5018 13.5844 1243 175.8 644.924 451.213
1903 0 93.5691 14.2034 1329 168.853 644.764 449.87
1904 0 96.5679 14.2594 1377 166.67 644.84 447.592
1905 0 99.5646 14.1416 1408 162.473 644.236 446.333
1906 0 101.543 14.5259 1475 170.107 644.628 444.773
1907 0 105.363 14.5308 1531 161.713 644.523 443.089
1908 0 111.34 14.3794 1601 162.785 643.991 441.265
1909 0 114.274 14.5353 1661 161.149 644.41 438.09
1910 0 118.218 14.3125 1692 167.476 644.17 437.241
1911 1 63.1679 11.9364 754 162.558 644.133 464.923
1912 0 65.1557 11.956 779 166.905 644.539 463.617
1913 0 67.1283 12.0218 807 162.846 644.512 463.259
1914 0 68.2039 12.36 843 155.023 644.713 462.192
1915 0 73.1723 12.2041 893 152.581 644.05 459.92
1916 0 73.1923 12.515 916 160.345 643.781 457.96
1917 0 76.1295 12.6758 965 161.463 643.799 457.15
1918 0 78.2477 12.5627 983 159.636 643.807 455.362
1919 0 78.294 12.964 1015 152.695 643.556 455.406
1920 0 83.3732 12.51 1043 159.244 643.998 454.241
1921 0 87.3594 12.7061 1110 160.887 643.728 452.204
1922 0 90.4011 12.5662 1136 164.031 644.107 451.694
1923 0 91.3607 13.1347 1200 165.728 643.281 450.316
1924 0 96.4824 12.8728 1242 166.253 642.809 449.803
1925 0 95.5509 13.2076 1262 158.803 643.093 447.456
1926 0 101.597 12.6283 1283 159.699 642.799 444.263
1927 1 55.4775 10.2204 567 152.705 643.083 470.097
1928 0 56.4179 10.7945 609 149.322 643.135 470.197
1929 0 59.3332 10.7528 638 138.801 642.124 468.973
1930 0 61.406 10.7807 662 139.19 641.438 468.136
1931 0 63.2794 10.6354 673 140.548 640.89 467.106
1932 0 63.3948 11.1681 708 142.582 641.264 466.723
1933 0 66.3408 10.642 706 144.618 641.932 465.494
1934 0 66.3933 10.6185 705 142.563 642.6 465.475
1935 1 35.1239 8.42731 296 140.861 641.084 481.503
1936 0 35.2019 7.8973 278 142.709 642.061 481.921
1937 0 38.1244 8.44602 322 136.879 642.814 480.466
1938 0 42.1741 8.79687 371 135.66 642.518 479.48
1939 0 44.3008 8.93889 396 139.444 642.169 480.217
1940 0 44.2471 9.28875 411 138.153 641.762 478.672
1941 0 46.343 9.58073 444 137.342 642.194 476.95
1942 0 48.3592 10.2359 495 90.8121 642.087 476.513
1943 0 49.3344 10.1957 503 142.207 641.809 475.926
1944 0 52.4352 10.451 548 139.305 640.971 474.958
1945 0 52.3064 10.9356 572 136.01 641.355 474.879
1946 0 53.2363 10.7446 572 137.74 640.976 472.862
1947 0 55.2907 10.6347 588 137.277 640.896 472.418
1948 0 57.3669 10.7728 618 138.655 639.814 471.628
1949 0 59.261 10.7491 637 135.64 639.044 470.093
1950 0 60.17 11.0022 662 126.193 639.766 468.432
1951 1 32.1082 8.31563 267 136.352 638.27 485.76
1952 0 33.1507 8.35577 277 135.09 638.531 483.776
1953 0 33.0263 8.62948 285 135.982 638.291 484.593
1954 0 36.0422 8.29583 299 140.344 638.1 483.154
1955 0 34.0814 8.39167 286 138.399 638.136 484.112
1956 0 36.0577 8.54186 308 133.409 639.023 483.435
1957 0 37.0354 8.88338 329 134.711 639.103 482.559
1958 0 37.0667 9.01079 334 137.521 639.162 482.036
1959 0 40.0231 9.31963 373 136.619 638.802 481.228
1960 0 41.1401 8.84782 364 132.266 638.772 480.975
1961 0 42.1398 9.80071 413 135.816 639.385 480.857
1962 0 43.1694 10.4472 451 130.758 640.435 479.009
1963 0 42.3002 10.6382 450 131.233 641.338 478.589
1964 0 44.2171 10.4258 461 132.564 641.965 477.826
1965 0 45.1785 10.9787 496 131.304 641.411 478.468
1966 0 47.2582 10.4532 494 133.366 641.2 477.812
1967 0 47.1891 10.744 507 132.529 641.132 475.866
1968 0 48.3507 10.8375 524 134.506 640.952 474.834
1969 0 50.1688 10.8832 546 130.745 641.126 473.698
1970 0 50.3695 11.1377 561 133.572 641.004 472.875
1971 0 54.4176 10.6216 578 132.263 640.991 472.505
1972 0 56.3916 10.9768 619 129.75 641.128 471.491
1973 0 61.3256 11.4308 701 146.291 639.972 469.114
1974 0 66.3643 14.0889 935 123.047 640.004 463.986
1975 0 70.2256 14.5531 1022 134.134 639.965 462.164
1976 0 70.2415 14.2793 1003 124.023 640.685 463.1
1977 0 69.328 13.9482 967 138.694 640.737 463.302
1978 0 69.1877 13.3405 923 142.261 641.303 462.927
1979 0 72.2242 12.8904 931 138.059 640.991 462.917
1980 0 71.2221 12.6225 899 147.536 641.171 463.932
1981 0 74.3656 11.9948 892 158.173 641.252 461.673
1982 0 74.184 12.4825 926 159.446 640.7 460.404
1983 0 78.2658 12.7259 996 166.911 641.25 458.188
1984 0 79.4203 12.8808 1023 157.724 641.152 457.053
1985 1 44.1114 10.7455 474 159.728 643.76 476.068
1986 0 45.139 10.7003 483 163.553 644.066 475.752
1987 0 45.1125 11.3494 512 155.957 643.334 473.738
1988 0 48.0565 11.5697 556 158.813 643.851 473.099
1989 0 48.2211 13.0234 628 153.898 645.382 472.677
1990 0 51.2221 11.8894 609 160.57 645.072 473.534
1991 0 52.1998 12.4905 652 153.977 644.739 472.002
1992 0 55.2793 13.0067 719 152.401 645.526 470.459
1993 0 54.2843 11.7714 639 163.413 645.222 471.515
1994 0 55.1679 12.2354 675 165.461 645.428 469.887
1995 0 57.2608 12.609 722 157.539 645.668 468.457
1996 0 59.1787 12.1665 720 160.778 645.933 467.858
1997 0 60.2857 11.827 713 152.453 645.177 467.443
1998 0 61.1396 12.6759 775 156.585 645.707 466.426
1999 0 62.2597 12.496 778 161.406 646.062 466.386
2000 0 65.1806 12.3503 805 157.754 645.872 464.834
2001 0 67.2311 12.5091 841 158.553 645.407 463.681
2002 0 68.3675 12.5644 859 160.647 645.371 461.836
2003 0 70.2685 12.623 887 159.31 644.996 461.422
2004 0 72.1879 12.98 937 153.724 644.958 459.361
2005 0 76.4199 12.6538 967 159.895 644.393 458.443
2006 0 78.4383 12.9784 1018 154.87 644.733 457.163
2007 0 79.3954 13.0108 1033 159.427 644.74 455.611
2008 0 81.3247 12.7636 1038 161.013 644.579 455.547
2009 0 87.4183 12.6976 1110 152.721 644.537 453.41
2010 0 90.1792 12.4752 1125 155.68 644.449 450.522
2011 0 92.3483 12.886 1190 150.838 644.079 449.428
2012 1 47.1658 10.5373 497 150.01 644.767 470.932
2013 0 50.1437 11.0482 554 151.487 644.384 471.106
2014 0 51.3313 11.494 590 152.234 642.9 470.8
2015 0 54.4294 11.8135 643 145.524 642.502 469.703
2016 0 55.3521 11.7972 653 148.706 642.61 468.075
2017 0 57.4576 12.1829 700 146.556 643.096 467.969
2018 0 57.3869 12.285 705 149.332 643.481 466.959
2019 0 60.2432 12.267 739 149.329 642.993 466.852
2020 0 61.3237 12.2628 752 153.923 642.63 465.633
2021 0 63.3824 12.5429 795 145.694 642.891 465.36
2022 0 65.2709 12.946 845 149.007 642.952 465.18
2023 0 67.3123 12.8951 868 142.977 643.075 463.832
2024 0 70.4337 12.4798 879 155.529 642.994 463.435
2025 0 72.3865 12.6267 914 150.314 642.363 462.231
2026 0 75.6082 12.7764 966 141.186 642.092 459.71
2027 0 76.363 12.637 965 139.515 642.075 459.75
2028 0 78.6068 12.9378 1017 148.735 642.882 456.887
2029 0 80.5218 13.2883 1070 149.499 642.631 455.988
2030 0 82.5914 13.476 1113 141.72 642.164 453.823
2031 0 87.7478 13.0374 1144 142.598 641.926 451.66
2032 0 88.6847 13.3281 1182 153.2 641.951 452.577
2033 0 92.828 12.7655 1185 150.342 641.462 451.421
2034 0 96.5729 12.6433 1221 149.197 641.778 449.979
2035 1 50.4183 11.1071 560 152.711 642.048 470.961
2036 0 51.2599 11.9587 613 146.728 642.421 472.742
2037 0 53.1984 12.2184 650 146.523 639.642 472.012
2038 0 53.2808 12.162 648 147.071 641.068 472.787
2039 0 53.2926 12.5909 671 143.63 641.587 472.508
2040 0 56.3249 12.4456 701 149.141 641.456 471.732
2041 0 59.3927 11.9207 708 149.901 641.766 469.749
2042 0 61.3578 12.5331 769 147.419 641.017 468.684
2043 0 63.2512 12.4741 789 152.342 641.004 467.844
2044 0 64.1923 12.6807 814 151.495 640.219 466.73
2045 0 66.2858 12.1444 805 153.237 640.564 466.512
2046 0 69.1599 12.6374 874 155.228 640.753 465.871
2047 0 70.1855 12.9799 911 156.696 640.621 463.964
2048 0 73.3119 12.7537 935 150.932 640.732 464.302
2049 0 75.2862 12.6584 953 158.377 640.326 462.795
2050 0 77.387 12.6636 980 155.121 639.982 461.605
2051 0 79.2275 12.7355 1009 154.869 640.696 460.842
2052 0 80.1458 12.9389 1037 153.613 640.815 460.527
2053 0 83.3073 12.904 1075 158.732 640.235 457.642
2054 0 87.2397 12.8382 1120 160.271 639.773 456.719
2055 0 89.2909 12.8681 1149 161.71 640.674 455.904
2056 1 48.2343 10.5112 507 156.852 639.483 476.552
2057 0 49.2228 11.2956 556 159.545 641.007 475.736
2058 0 49.6138 12.0733 599 158.447 640.965 473.674
2059 0 52.301 11.778 616 148.677 640.401 473.843
2060 0 53.4782 11.6683 624 153.032 639.641 472.747
2061 0 54.3144 12.1515 660 145.917 639.258 472.544
2062 0 57.3779 11.7815 676 152.454 639.296 471.099
2063 0 58.4557 12.3512 722 156.339 639.864 470.068
2064 0 60.4101 12.1337 733 148.22 639.929 468.812
2065 0 61.359 12.158 746 154.31 640.54 468.749
2066 0 65.4645 12.3578 809 149.347 640.215 468.168
2067 0 66.3867 12.2464 813 147.653 640.075 466.662
2068 0 68.3839 11.8595 811 149.286 640.217 465.313
2069 0 68.3333 12.4098 848 147.783 640.814 463.518
2070 0 72.2928 11.9791 866 151.057 640.561 462.696
2071 0 74.2985 12.0056 892 146 640.077 461.719
2072 0 75.3358 12.2651 924 147.56 641.027 461.032
2073 0 79.1286 11.8415 937 149.377 640.56 459.733
2074 0 81.1618 12.358 1003 148.251 639.435 457.909
2075 0 85.1147 11.9721 1019 152.685 640.167 456.479
2076 1 45.1198 10.3059 465 148.462 640.015 475.817
2077 0 47.1375 10.5861 499 155.852 640.481 475.102
2078 0 48.3151 11.1145 537 154.361 640.946 474.102
2079 0 50.1959 12.0129 603 153.216 640.206 473.298
2080 0 51.3688 11.544 593 147.809 641.772 473.106
2081 0 52.4369 12.1289 636 152.593 641.561 472.083
2082 0 56.4655 11.4583 647 152.45 641.923 471.737
2083 0 56.3676 12.1169 683 154.529 642.223 470.788
2084 0 57.3255 12.5424 719 159.7 642.325 469.189
2085 0 61.3321 12.7013 779 154.434 641.895 466.92
2086 0 62.325 12.6915 791 151.599 642.341 466.474
2087 0 65.3151 12.2177 798 161.7 642.472 466.38
2088 0 65.3264 12.537 819 156.624 642.58 465.37
2089 0 68.2736 12.406 847 150.478 643.035 464.874
2090 0 68.2294 12.7218 868 154.858 642.904 463.316
2091 0 70.233 12.9142 907 155.001 643.979 461.7
2092 0 74.182 12.4693 925 153.915 643.494 460.995
2093 0 77.2356 12.8438 992 157.104 644.024 458.421
2094 0 79.2739 12.9425 1026 155.454 643.466 456.915
2095 0 82.325 13.1552 1083 153.816 643.302 455.358
2096 0 86.301 13.0589 1127 155.689 642.768 455.097
2097 0 86.3195 13.1836 1138 152.151 642.793 453.147
2098 0 90.2862 13.1914 1191 160.366 643.192 450.936
2099 0 94.2283 12.9579 1221 155.398 643.725 449.066
2100 0 97.3376 13.1912 1284 155.09 644.151 447.614
2101 0 101.317 13.0679 1324 160.954 644.723 446.336
2102 1 54.2593 11.9058 646 164.345 644.42 468.885
2103 0 56.2431 12.1082 681 158.576 644.36 468.009
2104 0 58.4266 12.1349 709 161.828 643.625 467.126
2105 0 58.3254 12.2074 712 160.152 644.247 466.233
2106 0 62.2865 12.1214 755 155.727 644.436 465.706
2107 0 63.3403 11.9671 758 159.256 643.724 465.447
2108 0 64.2844 12.3514 794 153.409 643.888 463.406
2109 0 67.2277 12.2568 824 162.917 643.732 462.904
2110 0 68.3151 12.5594 858 162.359 644.089 461.662
2111 0 69.2434 12.7954 886 158.502 644.312 459.924
2112 0 73.3131 12.3852 908 152.494 644.55 458.139
2113 0 75.2371 12.4008 933 160.555 644.342 457.643
2114 0 77.2431 12.1046 935 162.299 644.808 455.728
2115 0 79.2725 12.6147 1000 153.754 645.172 449.965
2116 0 83.3765 12.8933 1075 156.603 645.074 450.661
2117 0 85.2827 12.5465 1070 156.163 645.16 452.491
2118 0 88.2719 12.824 1132 161.267 645.078 450.784
2119 0 90.285 12.5492 1133 156.896 645.78 442.707
2120 0 92.359 12.6788 1171 150.333 645.547 442.896
2121 0 50.2757 9.52747 479 153.952 645.902 450.99
2122 0 52.1282 9.82194 512 151.404 645.992 453.293
2123 0 54.1534 10.5072 569 156.42 644.19 458.211
2124 0 56.2911 10.801 608 150.528 645.219 465.438
2125 0 57.5263 11.8555 682 148.16 645.069 467.581
2126 0 57.3619 12.2555 703 145.936 645.386 465.982
2127 0 61.3851 11.6478 715 143.487 645.727 466.351
2128 0 62.3809 11.7985 736 139.596 645.221 464.959
2129 0 63.3365 12.0626 764 149.478 645.716 464.243
2130 0 65.4641 12.1899 798 150.759 645.635 462.323
2131 0 67.4392 12.1591 820 148.212 645.452 462.063
2132 0 68.4279 12.2026 835 148.453 645.493 461.024
2133 0 71.4102 12.1551 868 150.432 644.979 460.071
2134 0 72.3971 12.5972 912 148.742 644.924 459.032
2135 0 75.3263 12.6914 956 141.182 645.016 456.274
2136 0 78.2986 12.5417 982 150.342 644.387 455.947
2137 0 80.3132 12.7501 1024 153.018 644.284 454.651
2138 0 83.444 12.4395 1038 148.233 644.462 447.569
2139 0 85.1643 12.517 1066 152.565 644.63 450.77
2140 0 89.2608 12.738 1137 144.779 644.836 450.941
2141 0 91.3234 12.4393 1136 143.544 644.053 449.497
2142 0 93.1737 12.5465 1169 150.015 644.122 447.855
2143 0 94.3509 13.1636 1242 153.532 644.238 446.95
2144 0 98.5106 12.892 1270 156.775 644.456 445.765
2145 0 100.468 13.0091 1307 151.114 644.813 443.612
2146 0 106.347 12.7883 1360 154.743 644.421 443.417
2147 0 108.464 12.8614 1395 151.848 644.794 441.368
2148 0 112.427 12.6838 1426 152.968 644.625 439.506
2149 1 57.0453 11.2016 639 155.56 645.099 467.502
2150 0 59.0739 11.6126 686 163.478 644.503 466.755
2151 0 61.2618 11.9977 735 154.453 643.407 463.924
2152 0 63.428 12.7704 810 154.284 641.869 464.443
2153 0 64.5017 12.5578 810 155.88 642.496 464.956
2154 0 66.4062 12.0922 803 150.699 642.839 463.761
2155 0 68.3365 12.5555 858 153.718 642.756 461.852
2156 0 71.3863 12.6635 904 159.683 641.867 461.774
2157 0 72.4654 12.5853 912 156.741 642.395 460.148
2158 0 76.3272 12.5774 960 156.134 642.907 459.429
2159 0 77.3892 12.2627 949 156.377 642.702 459.44
2160 0 82.407 12.147 1001 164.522 643.862 458.129
2161 0 84.2811 12.577 1060 163.107 643.75 456.708
2162 0 85.4203 12.7136 1086 163.504 643.575 454.567
2163 0 88.4268 12.6319 1117 167.353 643.087 454.85
2164 0 91.3585 12.8505 1174 165.585 643.161 452.181
2165 0 91.3522 13.0156 1189 162.213 643.095 452.494
2166 0 95.2892 12.6352 1204 168.746 643.151 451.597
2167 0 97.3268 12.9564 1261 171.901 642.446 450.385
2168 0 102.297 13.1479 1345 164.028 642.34 446.522
2169 0 104.389 13.2007 1378 168.417 642.647 445.399
2170 0 107.429 13.1995 1418 171.709 642.406 444.9
2171 0 110.501 13.3754 1478 169.582 642.314 444.141
2172 0 114.401 13.5051 1545 167.077 642.656 441.163
2173 0 117.549 13.5433 1592 161.354 642.166 439.243
2174 0 121.37 13.3806 1624 164.674 641.837 437.709
2175 0 125.319 13.4058 1680 164.804 641.986 432.452
2176 1 68.2996 11.5813 791 173.028 642.262 459.611
2177 0 72.3489 11.7763 852 175.736 641.112 463.538
2178 0 75.2666 12.1302 913 167.358 641.047 461.418
2179 0 77.2643 12.6449 977 170.353 642.022 461.474
2180 0 79.3291 12.5049 992 168.271 641.873 459.492
2181 0 81.3028 12.6441 1028 172.226 641.287 459.976
2182 0 82.3094 12.5988 1037 169.577 641.749 458.904
2183 0 85.4295 12.4898 1067 169.36 640.843 456.485
2184 0 88.395 12.512 1106 164.869 641.432 455.603
2185 0 92.4289 12.5177 1157 168.372 641.874 454.311
2186 0 95.3248 12.2423 1167 167.428 641.994 452.997
2187 0 98.2789 12.6884 1247 165.043 642.067 451.517
2188 1 52.1786 11.4606 598 160.309 640.811 473.574
2189 0 53.2461 11.1182 592 157.424 640.799 473.242
2190 0 55.4456 11.0378 612 155.042 640.453 472.271
2191 0 55.3797 11.8274 655 148.692 639.959 470.359
2192 0 58.3468 11.2431 656 155.652 640.075 470.514
2193 0 59.3054 11.4998 682 146.594 640.177 469.51
2194 0 60.3362 11.6348 702 148.88 640.537 466.355
2195 0 60.2378 11.936 719 152.339 640.968 467.414
2196 0 63.3898 11.8 748 150.214 640.42 466.217
2197 0 65.3621 12.1171 792 151.574 639.991 464.114
2198 0 65.3621 12.1171 792 148.775 638.991 464.114
2199 0 68.2522 12.322 841 151.39 640.842 464.539
2200 0 71.2341 12.3256 878 157.703 640.841 463.246
2201 0 74.245 12.122 900 155.708 640.469 461.646
2202 0 78.2598 14.273 1117 143.829 640.578 456.131
2203 0 79.1925 13.726 1087 135.93 640.442 455.81
2204 0 80.1984 12.5439 1006 152.25 640.703 456.959
2205 0 81.2542 12.7378 1035 156.213 640.035 457.181
2206 1 43.3418 10.2672 445 152.811 640.786 475.56
2207 0 45.4415 10.8271 492 154.992 640.596 475.445
2208 0 47.345 11.8703 562 150.973 641.053 474.343
2209 0 47.2551 11.9564 565 155.005 641.276 474.035
2210 0 50.17 11.9195 598 151.977 641.363 472.696
2211 0 53.2479 13.4278 715 140.706 642.435 469.845
2212 0 54.2874 13.5575 736 142.55 642.671 469.738
2213 0 55.1377 13.167 726 142.518 642.66 469.264
2214 0 56.202 12.3661 695 146.781 642.732 470.115
2215 0 56.234 12.9459 728 152.5 642.397 467.934
2216 0 58.1282 12.8853 749 152.884 642.684 463.015
2217 0 59.0991 12.7413 753 158.826 643.563 463.312
2218 0 61.1193 12.9583 792 156.99 643.763 466.548
2219 0 62.1526 12.9842 807 155.436 643.405 466.403
2220 0 63.1876 12.8506 812 159.232 643.378 464.434
2221 0 67.147 12.912 867 156.556 643.968 464.007
2222 0 69.2951 13.6518 946 149.944 644.075 462.416
2223 0 71.1874 13.3591 951 158.736 643.783 461.195
2224 0 74.163 13.2141 980 161.535 643.943 459.603
2225 0 76.1678 13.3258 1015 159.741 643.819 458.273
2226 0 79.3735 13.0774 1038 159.788 643.968 457.697
2227 0 79.2088 13.2182 1047 157.268 644.652 456.187
2228 0 83.2877 12.859 1071 157.421 645.145 454.979
2229 0 85.2211 13.4474 1146 155.228 644.809 453.469
2230 1 44.0625 11.5291 508 152.681 645.299 473.793
2231 0 45.1696 12.3313 557 157.88 645.7 473.19
2232 0 47.0657 12.2382 576 154.762 644.974 472.691
2233 0 47.2468 12.6569 598 151.443 644.893 471.12
2234 0 48.134 12.7353 613 157.308 645.158 469.93
2235 0 51.2369 12.3739 634 155.776 644.841 470.224
2236 0 53.2118 12.6664 674 152.54 644.252 470.639
2237 0 53.1471 13.0769 695 158.263 645.132 470.181
2238 0 55.161 13.3971 739 157.392 644.828 468.594
2239 0 56.2599 13.4199 755 155.024 645.497 468.677
2240 0 57.1589 13.5587 775 158.747 644.294 465.905
2241 0 60.1869 13.1092 789 160.082 645.257 464.868
2242 0 62.1463 13.0016 808 154.548 644.672 466.033
2243 0 63.0487 13.0375 822 151.403 643.704 464.291
2244 0 65.0418 13.5605 882 145.23 643.659 463.505
2245 0 67.063 13.629 914 158.263 644.429 462.571
2246 0 69.2223 13.305 921 156.127 644.414 461.168
2247 0 72.1792 13.3834 966 155.307 644.324 460.631
2248 0 73.2349 13.327 976 151.205 644.345 459.582
2249 0 76.2905 13.4486 1026 152.328 643.77 457.322
2250 0 77.1451 13.4941 1041 150.593 643.263 456.564
2251 0 81.2011 13.054 1060 146.075 643.171 454.015
2252 0 84.2433 13.4254 1131 147.753 643.22 453.631
2253 1 43.0514 10.7546 463 145.488 643.177 474.097
2254 0 46.1871 11.6699 539 149.763 643.905 473.469
2255 0 48.1245 12.2599 590 151.453 643.324 473.464
2256 0 48.1477 12.1709 586 150.282 642.988 472.08
2257 0 50.1512 12.223 613 142.109 643.299 471.382
2258 0 51.1066 12.2489 626 144.545 643.417 470.816
2259 0 53.1386 12.3263 655 143.269 642.869 470.484
2260 0 54.1222 12.5457 679 145.745 643.136 469.577
2261 0 56.1896 12.6002 708 144.579 642.901 468.219
2262 0 57.2015 12.3598 707 138.075 642.513 466.231
2263 0 60.2377 12.6333 761 144.338 641.706 466.936
2264 0 62.197 12.9106 803 145.55 642.206 466.281
2265 0 64.1608 12.7804 820 145.782 641.449 465.657
2266 0 66.2947 12.8819 854 149.248 642.097 464.738
2267 0 68.1845 13.0528 890 155.427 641.731 462.931
2268 0 71.2166 12.9183 920 151.985 641.642 461.635
2269 0 74.214 12.8547 954 149.433 642.805 460.65
2270 0 76.2607 13.1916 1006 154.856 642.022 460.392
2271 0 79.154 12.861 1018 149.202 640.53 458.211
2272 0 82.3124 13.2665 1092 152.715 641.261 456.765
2273 1 42.2071 10.8749 459 158.708 640.538 475.963
2274 0 45.2353 10.567 478 151.324 641.197 475.837
2275 0 47.1973 10.7845 509 144.265 640.725 475.136
2276 0 49.1033 11.0583 543 156.899 641.125 473.755
2277 0 50.1126 11.8932 596 148.149 640.72 473.721
2278 0 51.1095 12.2286 625 149.19 640.768 473.282
2279 0 51.2348 12.3939 635 147.584 641.706 472.465
2280 0 54.2851 11.5501 627 148.325 640.635 473.132
2281 0 54.1278 12.3227 667 152.954 639.927 472.6
2282 0 57.1775 12.7498 729 152.959 640.834 471.208
2283 0 59.2787 12.8377 761 146.661 640.674 469.949
2284 0 60.2137 12.9207 778 154.67 641.247 468.662
2285 0 63.2219 12.5115 791 160.034 641.463 469.13
2286 0 64.1578 12.9992 834 160.025 642.041 467.929
2287 0 65.2415 13.2891 867 159.795 642.36 465.938
2288 0 69.3788 13.1452 912 156.409 642.201 464.248
2289 0 71.2955 12.9321 922 157.437 641.205 463.559
2290 0 74.3651 12.9765 965 163.048 641.026 462.059
2291 0 76.2652 13.2433 1010 163.558 640.773 461.854
2292 0 79.3581 12.8783 1022 157.45 640.869 460.733
2293 0 81.4376 12.9424 1054 165.316 641.332 458.764
2294 0 82.3782 13.0496 1075 160.485 641.448 457.529
2295 0 86.6759 13.4178 1163 167.922 641.432 455.739
2296 0 89.4581 13.0117 1164 167.994 640.732 453.371
2297 1 49.2186 11.7638 579 166.807 641.879 474.254
2298 0 50.36 12.3709 623 169.01 641.518 472.936
2299 0 51.3005 12.0856 620 165.379 641.8 472.61
2300 0 53.0323 12.087 641 163.203 642.041 471.256
2301 0 54.1303 12.9318 700 167.921 642.239 470.174
2302 0 56.041 12.9013 723 159.058 642.201 468.697
2303 0 58.0716 12.7429 740 163.147 641.758 467.542
2304 0 59.1173 13.1095 775 161.844 641.955 466.543
2305 0 62.1537 13.0805 813 167.245 641.775 464.219
2306 0 64.1458 12.9237 829 166.1 642.373 462.684
2307 0 67.1871 13.2912 893 163.905 642.98 462.898
2308 0 68.11 12.8909 878 160.181 643.003 461.313
2309 0 70.1629 13.4259 942 165.593 643.041 459.512
2310 0 73.3357 13.145 964 167.349 642.918 458.468
2311 0 74.1897 13.1689 977 156.419 643.119 456.254
2312 0 78.1572 13.2297 1034 165.831 643.208 454.991
2313 0 79.1863 13.3862 1060 161.669 643.638 454.317
2314 0 82.234 13.1211 1079 156.641 642.854 452.681
2315 0 85.1242 13.6506 1162 166.88 643.792 451.814
2316 0 88.2177 13.1946 1164 162.533 644.235 451.499
2317 0 91.2074 12.9266 1179 162.232 644.78 449.501
2318 0 94.2318 13.4668 1269 157.89 644.727 447.276
2319 0 95.1324 13.1606 1252 163.854 644.989 444.993
2320 1 49.0755 11.0646 543 157.494 644.827 468.295
2321 0 50.082 12.0203 602 158.018 644.306 468.463
2322 0 54.2498 12.2213 663 155.814 642.94 466.24
2323 0 54.3373 12.312 669 153.157 643.499 464.824
2324 0 57.3236 12.5254 718 157.599 643.957 464.379
2325 0 59.2358 12.4587 738 156.787 644.121 464.187
2326 0 61.2048 12.1886 746 157.251 644.783 463.57
2327 0 63.2196 12.4645 788 161.038 644.704 461.44
2328 0 66.2194 12.3982 821 155.255 644.328 460.596
2329 0 67.1375 13.7181 921 152.985 644.594 458.456
2330 0 68.1767 12.585 858 152.001 644.288 458.691
2331 0 70.0949 12.5544 880 161.744 645.541 459.939
2332 0 72.1534 12.7645 921 151.425 645.268 458.269
2333 0 78.1831 13.7498 1075 148.708 645.527 455.074
2334 0 76.1925 13.1903 1005 159.487 645.716 456.139
2335 0 80.2402 13.0608 1048 158.463 645.362 453.63
2336 0 81.1896 13.0312 1058 156.85 644.328 453.553
2337 0 85.2446 13.2208 1127 161.21 644.971 452.077
2338 0 86.1231 13.3414 1149 157.477 644.733 450.665
2339 0 91.1807 13.5445 1235 155.688 645.322 447.65
2340 0 93.3281 13.1793 1230 161.893 645.819 447.363
2341 0 96.1327 13.471 1295 155.68 645.998 445.041
2342 0 100.287 13.5511 1359 161.748 645.937 444.3
2343 0 102.25 13.2127 1351 160.07 645.416 443.99
2344 0 105.215 13.116 1380 164.952 646.368 441.608
2345 1 55.1403 11.4435 631 158.014 646.041 468.227
2346 0 57.3009 11.9893 687 159.865 645.937 467.93
2347 0 60.2556 11.584 698 158.189 645.342 468.183
2348 0 60.279 12.0606 727 160.926 644.849 466.294
2349 0 62.1547 11.954 743 160.147 645.159 465.532
2350 0 64.2873 11.9308 767 164.227 644.708 464.094
2351 0 66.1512 12.1389 803 163.12 644.74 464.717
2352 0 69.2269 12.2496 848 165.186 645.057 462.984
2353 0 69.1956 12.732 881 162.027 645.123 462.395
2354 0 72.1198 12.1603 877 162.12 645.316 460.966
2355 0 74.1556 12.3524 916 154.043 645.108 459.907
2356 0 75.123 12.5528 943 169.722 645.23 460.1
2357 0 78.147 12.5277 979 170.041 645.358 459.74
2358 0 80.1097 12.7825 1024 168.657 645.805 457.827
2359 0 83.0844 12.71 1056 167.396 645.149 455.997
2360 0 86.1276 12.8066 1103 160.197 645.824 454.398
2361 0 89.2167 12.5873 1123 167.246 645.531 452.749
2362 0 93.2423 12.3871 1155 174.119 644.456 452.506
2363 0 97.2434 12.587 1224 166.614 644.24 451.255
2364 0 100.243 13.168 1320 167.533 643.675 447.497
2365 1 50.2654 10.9021 548 159.02 644.48 468.838
2366 0 52.1439 11.5258 601 159.376 644.333 471.131
2367 0 54.1541 11.8735 643 166.621 643.518 471.725
2368 0 55.1663 12.2539 676 170.664 645.012 472.024
2369 0 58.0403 12.1295 704 158.893 645.125 470.453
2370 0 58.0381 12.354 717 166.696 645.13 469.708
2371 0 62.0182 12.3835 768 165.965 644.822 469.18
2372 0 62.053 12.4732 774 165.441 644.815 469.19
2373 0 65.0801 12.4001 807 166.744 644.408 467.704
2374 0 66.0178 12.4209 820 161.161 644.444 466.505
2375 0 69.0482 12.7302 879 168.162 644.362 465.692
2376 0 69.0498 13.1354 907 163.724 643.771 465.039
2377 0 73.0696 12.5634 918 164.962 644.009 464.862
2378 0 73.1273 13.0868 957 163.907 643.592 462.697
2379 0 76.1282 12.7679 972 165.58 643.598 461.805
2380 0 79.0286 12.6536 1000 166.695 643.639 461.34
2381 0 82.1229 12.7735 1049 161.877 643.988 459.354
2382 0 85.0919 12.7744 1087 166.454 643.588 458.649
2383 0 86.1063 13.1698 1134 159.795 642.785 457.556
2384 0 88.1745 13.9723 1232 158.578 643.095 455.602
2385 0 91.1456 13.1328 1197 168.394 642.948 455.09
2386 1 50.0452 11.7494 588 169.395 642.854 477.19
2387 0 51.1231 11.8733 607 164.018 643.789 475.842
2388 0 52.1559 12.2517 639 158.377 642.407 472.746
2389 0 53.2647 12.0342 641 161.743 642.498 471.956
2390 0 54.3328 12.3682 672 160.655 642.798 471.859
2391 0 55.2273 12.8197 708 165.525 642.9 471.544
2392 0 55.2451 12.8699 711 167.253 642.886 470.978
2393 0 58.2368 12.9471 754 157.885 642.914 470.483
2394 0 60.2534 13.2441 798 165.791 643.402 468.996
2395 0 60.1436 13.4179 807 169.055 643.077 468.571
2396 0 63.2221 12.9702 820 155.261 643.044 467.827
2397 0 65.1522 13.2459 863 165.33 643.122 467.47
2398 0 66.1834 13.2964 880 170.805 642.949 465.322
2399 0 69.1507 13.0295 901 168.838 643.15 465.563
2400 0 70.1843 13.3791 939 172.55 643.213 463.97
2401 0 72.175 13.1763 951 169.26 643.326 463.24
2402 0 74.3145 13.6312 1013 168.275 643.873 465.341
2403 0 77.2207 14.2449 1100 165.293 643.265 462.439
2404 0 80.2353 13.3607 1072 169.782 642.76 462.754
2405 0 82.2543 13.5069 1111 169.266 642.909 460.751
2406 0 85.2882 13.2609 1131 166.651 643.202 459.859
2407 0 88.2881 13.3314 1177 160.85 643.1 457.344
2408 0 88.2412 13.7124 1210 163.658 643.478 456.36
2409 0 93.3378 13.2208 1234 165.209 642.417 453.72
2410 0 95.3988 13.2496 1264 167.233 642.618 453.572
2411 1 48.2782 11.9309 576 167.302 643.538 476.146
2412 0 50.5113 12.2151 617 160.622 643.407 474.924
2413 0 53.2879 12.5169 667 156.402 642.937 473.459
2414 0 54.2221 12.9652 703 157.532 643.454 472.62
2415 0 55.153 12.837 708 157.568 643.023 471.661
2416 0 56.3343 12.8874 726 160.775 643.041 471.157
2417 0 58.2669 12.8546 749 158.952 642.913 470.414
2418 0 60.2501 12.8796 776 158.238 643.037 470.05
2419 0 63.273 12.8649 814 163.165 643.576 469.101
2420 0 64.2129 12.9257 830 164.241 643.559 467.42
2421 0 65.2045 13.4653 878 152.585 643.073 465.941
2422 0 67.2595 12.9945 874 155.88 643.183 465.241
2423 0 70.1421 13.1875 925 159.463 643.945 464.321
2424 0 74.2008 12.9648 962 155.374 643.84 462.37
2425 0 75.2258 13.2933 1000 153.521 643.955 462.119
2426 0 76.2444 13.3256 1016 157.518 643.43 460.357
2427 0 79.202 13.3078 1054 156.392 643.78 459.021
2428 0 80.1854 13.2942 1066 160.174 643.757 458.192
2429 0 83.2086 13.4481 1119 167.218 644.047 455.914
2430 1 42.0723 12.1695 512 163.785 644.223 476.334
2431 0 44.0276 12.6057 555 168.56 643.922 475.324
2432 0 45.0939 12.7955 577 162.695 644.085 474.943
2433 0 47.0695 13.3207 627 171.45 643.856 474.421
2434 0 49.1899 13.1938 649 163.553 645.228 474.81
2435 0 50.1706 13.0555 655 167.376 645.107 474.209
2436 0 51.1689 12.7226 651 172.551 644.739 474.247
2437 0 53.0901 12.6577 672 161.152 644.972 473.06
2438 0 55.116 12.9363 713 172.195 644.874 471.9
2439 0 56.13 13.4687 756 167.479 645.086 471.189
2440 0 58.1421 13.3294 775 167.952 644.836 470.557
2441 0 61.2484 13.6983 839 166.218 644.62 468.747
2442 0 62.1668 13.7372 854 167.156 644.984 469.262
2443 0 63.0349 13.8812 875 170.502 645.52 468.048
2444 0 64.1311 14.2053 911 168.424 645.878 465.986
2445 0 67.1741 14.053 944 166.028 645.707 466.085
2446 0 71.2068 13.3836 953 170.675 645.208 465.213
2447 0 73.0751 13.8488 1012 169.658 645.294 463.966
2448 0 73.1635 13.9824 1023 173.148 645.716 462.636
2449 0 76.2007 13.6219 1038 166.524 645.493 461.85
2450 0 78.262 13.8892 1087 166.309 645.327 461.52
2451 0 81.2329 13.8983 1129 169.895 644.752 459.213
2452 0 84.2356 13.9727 1177 167.322 644.992 458.02
2453 0 88.2749 13.5033 1192 167.104 645.654 456.354
2454 0 89.2533 14.0947 1258 165.766 645.393 455.117
2455 1 48.1013 12.8895 620 173.966 644.703 476.087
2456 0 49.2253 13.164 648 170.429 644.319 475.596
2457 0 50.064 13.4228 672 171.704 645.165 474.815
2458 0 53.1526 13.3578 710 169.932 645.021 473.549
2459 0 54.1549 13.7753 746 166.914 645.083 473.023
2460 0 57.0647 13.8615 791 164.35 645.067 471.222
2461 0 58.174 13.5284 787 163.49 644.694 470.54
2462 0 61.1784 13.5178 827 168.987 644.514 470.178
2463 0 62.0885 13.6901 850 167.056 644.504 469.388
2464 0 65.1602 13.4745 878 172.113 644.317 468.766
2465 0 64.1524 14.0759 903 166.797 644.205 468.695
2466 0 68.2414 13.8039 942 170.428 643.671 467.361
2467 0 68.1613 13.8935 947 161.159 643.079 466.211
2468 0 72.1486 13.9989 1010 167.852 643.157 465.333
2469 0 75.1567 13.9309 1047 165.93 643.235 463.053
2470 0 78.0745 14.0123 1094 163 643.2 462.164
2471 0 81.2184 14.1347 1148 168.244 642.945 460.744
2472 0 82.2077 13.8186 1136 165.904 643.212 459.499
2473 0 86.2052 13.5839 1171 160.896 643.104 458.772
2474 1 47.0898 12.2532 577 167.288 643.343 478.78
2475 0 48.0691 12.3156 592 170.769 642.601 477.421
2476 0 49.168 12.8132 630 166.094 642.765 476.706
2477 0 51.1033 12.7389 651 163.551 643.499 475.634
2478 0 52.0928 13.1496 685 165.928 643.387 475.54
2479 0 54.105 12.8639 696 155.986 643.806 475.226
2480 0 55.2001 12.9348 714 163.996 643.352 474.888
2481 0 57.2456 13.1364 752 160.324 642.999 474.016
2482 0 60.2837 12.8227 773 162.366 643.194 473.458
2483 0 60.1068 13.1266 789 158.762 643.347 472.119
2484 0 64.1938 13.0386 837 164.129 642.829 471.519
2485 0 66.1452 13.0168 861 164.698 642.735 470.175
2486 0 68.2129 13.0767 892 166.372 642.517 469.665
2487 0 70.1335 13.2462 929 168.931 642.341 468.079
2488 0 70.3004 13.5277 951 167.52 642.616 467.07
2489 0 74.1841 13.3317 989 163.914 642.508 465.696
2490 0 77.1705 13.2823 1025 160.871 642.674 463.72
2491 0 79.2815 13.4584 1067 164.026 643.033 462.704
2492 0 82.244 13.1681 1083 166.174 643.063 461.681
2493 0 83.229 13.4208 1117 161.233 643.188 460.522
2494 0 87.1622 13.4347 1171 166.61 643.105 458.798
2495 1 46.113 12.2091 563 163.036 644.172 478.336
2496 0 47.2219 13.0236 615 158.995 643.311 478.621
2497 0 47.1243 12.9233 609 165.677 642.928 478.929
2498 0 49.1607 12.8558 632 162.658 643.01 478.008
2499 0 50.1068 12.9523 649 166.199 643.206 476.978
2500 0 52.0837 12.7103 662 159.949 642.737 475.5
2501 0 52.115 13.2783 692 163.182 643.066 475.149
2502 0 55.0968 12.959 714 164.704 643.263 474.627
2503 0 56.0922 13.3352 748 167.131 643.082 473.869
2504 0 58.0806 13.3091 773 166.092 643.193 472.263
2505 0 60.1721 12.8963 776 167.178 643.241 472.499
2506 0 62.2282 13.3059 828 157.629 642.929 470.711
2507 0 64.2014 13.1617 845 158.905 643.214 469.89
2508 0 65.3241 13.41 876 167.716 643.725 469.429
2509 0 69.1298 13.1781 911 164.595 643.596 467.808
2510 0 71.0993 13.2491 942 169.497 643.966 466.141
2511 0 73.0916 13.8046 1009 170.282 644.47 464.585
2512 0 78.173 13.1759 1030 167.383 644.535 463.991
2513 0 80.2015 13.5908 1090 167.794 644.368 462.218
2514 0 81.314 13.5032 1098 165.704 643.593 461.302
2515 0 83.1566 13.8173 1149 172.473 643.982 458.733
2516 0 87.2224 13.6089 1187 163.755 643.624 457.27
2517 1 44.0927 11.7707 519 161.493 644.222 478.337
2518 0 46.1144 11.5148 531 168.316 644.58 478.222
2519 0 46.1745 12.6693 585 155.099 644.721 476.812
2520 0 47.1472 12.2171 576 161.488 644.408 476.439
2521 0 49.1547 12.5929 619 165.024 644.291 476.019
2522 0 50.1623 12.6988 637 162.397 644.345 475.185
2523 0 53.2862 12.78 681 164.706 644.324 473.698
2524 0 55.355 12.8444 711 163.682 644.776 473.093
2525 0 56.2873 12.8093 721 162.932 644.029 472.481
2526 0 57.2421 13.0149 745 167.885 644.682 471.627
2527 0 59.2593 13.2637 786 166.169 645.088 470.527
2528 0 59.1878 13.6852 810 163.942 645.206 469.422
2529 0 63.2196 13.4452 850 165.041 645.636 468.312
2530 0 62.374 13.7076 855 164.299 645.172 466.885
2531 0 66.3735 13.3035 883 153.733 645.128 466.578
2532 0 67.3468 13.4825 908 159.108 645.323 465.427
2533 0 69.3039 13.6789 948 160.73 645.293 462.762
2534 0 71.561 13.7645 985 159.931 645.199 460.99
2535 0 73.3961 13.8018 1013 157.038 644.853 457.469
2536 0 76.2566 13.8349 1055 157.05 644.849 456.674
2537 0 79.4475 13.7072 1089 161.919 645.428 454.92
2538 0 81.8331 13.6986 1121 163.452 645.512 454.322
2539 0 82.2398 13.5579 1115 158.591 645.766 453.151
2540 0 86.5171 13.5927 1176 163.491 646.151 451.982
2541 0 89.4832 13.7232 1228 159.423 646.108 451.093
2542 0 94.393 13.2319 1249 163.696 645.962 451.041
2543 1 47.4605 12.5578 596 168.332 645.758 474.065
2544 0 47.3236 13.5028 639 164.817 645.828 473.102
2545 0 51.4218 13.3017 684 162.294 645.064 471.443
2546 0 53.3395 13.4984 720 163.003 645.768 471.015
2547 0 55.3544 13.9104 770 161.181 645.905 470.947
2548 0 56.4029 13.4745 760 165.13 645.574 469.171
2549 0 59.4404 13.9972 832 162.606 645.612 468.826
2550 0 61.5181 13.8008 849 156.832 646.231 468.051
2551 0 64.4848 13.7707 888 155.802 645.93 466.447
2552 0 65.4599 14.1766 928 152.357 646.42 465.76
2553 0 67.5074 13.5689 916 156.047 646.316 462.992
2554 0 68.4396 14.2023 972 150.277 645.966 462.556
2555 0 69.5128 14.2276 989 158.881 646.113 459.722
2556 0 73.7055 14.2866 1053 147.922 645.916 457.344
2557 0 76.4421 13.9844 1069 165.281 646.04 457.421
2558 0 79.6484 14.1622 1128 170.887 645.779 456.905
2559 0 83.491 13.6661 1141 165.564 645.817 456.076
2560 0 86.5411 14.0165 1213 166.357 646.569 454.078
2561 0 89.5368 13.8267 1238 166.644 646.427 452.847
2562 0 92.4399 14.0416 1298 164.215 646.26 452.905
2563 1 45.171 13.2386 598 170.893 645.597 476.876
2564 0 43.1789 13.942 602 170.556 645.967 477.879
2565 0 47.3973 13.5873 644 167.88 646.002 476.011
2566 0 49.2234 13.4286 661 168.758 646.455 475.086
2567 0 49.3682 13.6525 674 163.184 646.101 473.804
2568 0 52.5007 13.3141 699 162.127 646.33 473.016
2569 0 53.3858 13.5804 725 160.869 646.138 471.367
2570 0 54.5289 14.0843 768 161.904 646.098 470.874
2571 0 56.5938 14.1182 799 162.819 644.685 468.772
2572 0 58.6121 14.0074 821 163.129 645.052 469.458
2573 0 60.3539 14.0836 850 160.835 645.101 466.985
2574 0 61.5806 14.55 896 162.265 645.222 462.494
2575 0 65.621 14.0961 925 164.725 645.338 461.693
2576 0 66.7724 14.3772 960 170.881 645.235 461.776
2577 0 69.6 14.3247 997 168.235 645.785 459.379
2578 0 72.7282 14.1898 1032 165.881 646.365 457.857
2579 0 73.6717 14.266 1051 174.279 646.111 456.785
2580 0 78.484 14.2832 1121 168.814 646.252 455.527
2581 0 82.5585 14.6442 1209 163.603 645.828 453.54
2582 0 82.4971 14.0611 1160 164.491 646.081 453.272
2583 0 87.5583 13.9564 1222 161.062 646.29 452.044
2584 1 42.2961 12.7198 538 179.504 646.141 473.284
2585 0 43.3409 13.2208 573 166.257 646.942 473.757
2586 0 44.4982 13.3713 595 177.04 646.437 475.045
2587 0 46.3795 13.3033 617 167.462 646.65 472.697
2588 0 47.4635 13.463 639 171.055 645.897 472.069
2589 0 49.347 13.4963 666 163.851 646.032 471.098
2590 0 49.4765 13.8652 686 172.724 645.622 470.396
2591 0 52.4525 13.4979 708 170.667 645.631 468.945
2592 0 53.4545 13.7126 733 175.119 645.786 468.465
2593 0 54.519 14.1602 772 172.328 645.136 468.027
2594 0 58.752 13.7697 809 171.248 645.192 467.829
2595 0 60.5237 13.3667 809 175.295 645.544 467.075
2596 0 61.466 14.0077 861 173.979 645.246 465.184
2597 0 61.5483 14.1515 871 171.971 645.488 464.431
2598 0 66.6213 14.0045 933 172.83 645.188 462.643
2599 0 69.6895 13.4741 939 175.469 645.556 461.499
2600 0 70.5345 14.0073 988 170.87 646.025 460.417
2601 0 72.7107 13.8494 1007 167.424 645.561 459.494
2602 0 76.4758 13.9652 1068 170.947 645.519 458.702
2603 0 77.8647 13.7032 1067 167.483 645.495 457.4
2604 0 79.709 14.164 1129 166.359 645.438 456.251
2605 0 84.6802 13.8167 1170 163.082 645.647 454.932
2606 0 86.5879 14.2976 1238 167.146 645.408 453.133
2607 0 89.5696 14.2124 1273 166.107 645.096 452.091
2608 0 93.5233 14.0072 1310 164.373 645.255 450.573
2609 0 95.429 14.0209 1338 158.152 644.661 448.874
2610 1 49.3049 11.3376 559 156.995 644.317 472.728
2611 0 52.1619 11.2343 586 155.903 644.423 472.538
2612 0 53.1169 11.7665 625 154.714 644.166 472.33
2613 0 54.1074 11.6435 630 152.163 643.697 471.243
2614 0 54.1405 12.1536 658 154.044 643.976 469.913
2615 0 59.113 11.4019 674 156.613 643.81 468.743
2616 0 60.1295 12.0074 722 160.644 643.963 468.321
2617 0 63.137 11.7997 745 149.078 643.733 467.795
2618 0 65.3625 11.9487 781 151.994 643.959 466.385
2619 0 65.1062 12.3183 802 156.339 643.95 464.883
2620 0 69.2174 11.9623 828 156.676 644.214 464.029
2621 0 71.133 12.0619 858 157 644.445 462.343
2622 0 72.2335 12.4319 898 153.785 644.193 460.381
2623 0 76.1302 11.9532 910 155.826 644.92 458.978
2624 0 77.1822 12.3215 951 151.326 644.449 458.883
2625 0 81.143 11.9912 973 147.295 644.35 456.152
2626 0 85.206 11.7832 1004 156.315 643.641 455.366
2627 1 44.0741 9.89243 436 146.564 645.222 475.977
2628 0 47.0384 9.90681 466 146.296 645.712 475.459
2629 0 48.054 10.8836 523 147.566 646.197 475.279
2630 0 49.0436 10.7455 527 138.055 646.212 474.48
2631 0 50.059 11.027 552 135.056 645.661 473.605
2632 0 52.0382 11.0688 576 138.094 645.521 472.842
2633 0 55.0511 10.8808 599 136.656 644.882 471.689
2634 0 55.0555 11.225 618 137.026 644.809 471.934
2635 0 58.0846 11.2939 656 131.268 644.194 470.05
2636 0 59.0287 11.2996 667 136.927 644.675 469.175
2637 0 60.0206 11.696 702 136.588 644.613 468.58
2638 0 64.0358 11.7903 755 144.75 645.151 467.237
2639 0 66.1648 11.7736 779 139.566 644.698 466.494
2640 0 66.1912 12.0711 799 141.016 644.941 464.792
2641 0 69.0958 12.0991 836 139.626 644.348 464.008
2642 0 73.1305 11.6778 854 131.979 644.648 462.991
2643 0 75.1148 11.8485 890 129.742 644.617 461.71
2644 1 38.0194 8.8376 336 134.378 644.366 480.875
2645 0 40.0718 9.23343 370 127.076 644.938 479.822
2646 0 42.0512 9.44087 397 129.469 644.219 478.965
2647 0 42.0211 10.5185 442 130.12 644.434 478.878
2648 0 44.1195 10.5395 465 121.387 644.163 476.413
2649 0 44.0955 10.8628 479 120.835 644.294 476.693
2650 0 47.0573 10.2641 483 113.934 643.625 477.447
2651 0 46.0354 10.9264 503 116.28 643.68 476.581
2652 0 49.0257 10.8514 532 118.756 644.385 476.325
2653 0 51.034 10.9731 560 114.234 643.87 475.4
2654 0 53.0444 10.8588 576 104.91 643.896 474.91
2655 0 52.0145 11.6314 605 104.501 644.569 474.583
2656 0 54.0684 11.5224 623 105.806 645.276 474.668
2657 0 55.0727 12.0931 666 103.39 645.485 473.928
2658 0 59.1044 11.8096 698 105.917 644.987 473.334
2659 0 61.1717 12.0971 740 109.73 645.514 471.5
2660 0 60.1022 12.4621 749 125.622 644.94 470.822
2661 0 63.0628 12.4003 782 114.381 643.93 470.105
2662 0 65.115 12.5777 819 108.773 643.832 469.134
2663 0 67.1877 12.4874 839 102.691 643.026 468.247
2664 0 70.1634 12.3711 868 107.899 642.914 466.664
2665 0 71.1161 12.2898 874 103.928 643.432 464.808
2666 0 75.1591 12.2939 924 103.381 643.117 463.747
2667 0 76.1549 12.3695 942 105.987 643.442 463.191
2668 0 79.0763 12.4563 985 103.566 644.366 462.098
2669 0 82.1549 12.4277 1021 102.001 644.382 460.12
2670 0 86.1349 12.701 1094 103.422 643.37 458.74
2671 1 43.0426 11.5235 496 109.669 642.351 480.306
2672 0 46.0723 11.5471 532 105.041 644.712 478.946
2673 0 45.1533 12.0036 542 108.651 642.895 479.179
2674 0 48.397 11.7982 571 110.1 643.807 477.352
2675 0 49.3166 11.9432 589 112.71 643.26 477.679
2676 0 49.3585 12.2168 603 115.99 642.992 477.219
2677 0 51.3011 12.066 619 109.995 642.963 476.985
2678 0 53.0173 11.9961 636 106.866 640.576 475.94
2679 0 54.0394 11.9357 645 113.998 640.794 476.29
2680 0 56.1005 11.9607 671 115.022 640.759 473.991
2681 0 57.0258 12.0296 686 114.628 640.866 472.866
2682 0 59.0629 12.292 726 109.193 640.562 472.993
2683 0 59.1312 12.3116 728 111.486 640.541 471.668
2684 0 61.0843 12.1963 745 112.44 640.828 472.126
2685 0 61.0972 12.4065 758 111.553 640.599 471.439
2686 0 66.0934 12.1041 800 111.96 642.038 470.774
2687 0 66.0934 12.1041 800 168.38 644.038 470.774
2688 0 69.2095 12.5127 866 122.609 642.58 468.688
2689 0 71.2492 12.7019 905 122.039 642.788 468.108
2690 0 71.3323 12.7852 912 119.217 642.954 467.455
2691 0 76.271 12.7178 970 117.837 642.696 465.092
2692 0 78.2104 12.607 986 128.842 643.243 465.894
2693 0 81.2785 12.8201 1042 126.838 642.864 462.99
2694 0 84.2886 13.0267 1098 129.368 642.87 462.913
2695 0 87.4 12.5858 1100 128.999 642.666 461.09
2696 0 88.237 13.2937 1173 129.182 642.929 460.198
2697 0 95.165 14.1228 1344 122.532 642.731 455.651
2698 1 48.1745 11.5829 558 127.118 642.564 480.072
2699 0 48.0413 12.177 585 125.318 641.443 478.306
2700 0 51.2391 12.3929 635 125.757 642.339 478.011
2701 0 52.2472 12.0389 629 126.266 642.377 478.475
2702 0 53.1656 12.1695 647 121.505 642.314 476.107
2703 0 55.2296 12.6019 696 115.228 643.02 473.81
2704 0 56.1322 12.6309 709 122.267 643.07 474.513
2705 0 57.1856 13.1152 750 127.033 642.995 473.172
2706 0 59.1542 13.1183 776 124.131 642.682 473.284
2707 0 62.1271 12.4744 775 132.458 642.39 472.228
2708 0 62.0907 13.1743 818 120.05 642.677 471.59
2709 0 65.1092 12.5481 817 128.624 642.834 470.799
2710 0 68.16 12.4853 851 119.182 642.444 469.476
2711 0 69.0894 12.7226 879 134.391 642.973 469.609
2712 0 70.1145 12.665 888 130.749 642.813 468.591
2713 0 74.0965 12.4702 924 114.409 643.425 468.765
2714 0 77.2659 12.4117 959 116.006 642.783 465.878
2715 0 80.1076 12.608 1010 113.55 643.345 465.045
2716 0 82.0782 12.5856 1033 112.04 643.953 462.868
2717 0 83.1686 12.673 1054 111.892 643.981 462.218
2718 0 84.2369 12.631 1064 112.135 643.099 460.985
2719 1 46.0658 11.4836 529 106.796 643.752 480.106
2720 0 49.1074 11.5054 565 110.29 643.634 477.669
2721 0 50.1623 11.8416 594 100.412 642.692 476.33
2722 0 52.2236 11.2593 588 102.765 642.565 476.932
2723 0 51.1484 11.5546 591 114.12 642.577 475.218
2724 0 54.1509 11.8004 639 100.438 643.056 474.803
2725 0 54.2423 12.0201 652 108.767 642.693 474.876
2726 0 59.1851 11.6077 687 109.348 642.571 474.358
2727 0 59.1771 11.8796 703 105.027 642.906 472.512
2728 0 60.125 11.9252 717 106.265 642.898 471.608
2729 0 62.163 11.679 726 107.23 642.594 470.803
2730 0 64.2145 12.0378 773 108.483 642.815 470.577
2731 0 67.2082 12.1414 816 106.235 643.04 468.228
2732 0 68.1958 12.1415 828 116.523 642.704 468.175
2733 0 69.1947 12.0963 837 113.898 642.625 467.004
2734 0 71.1532 12.2131 869 109.029 644.22 465.463
2735 0 71.1312 12.1044 861 116.77 643.893 464.506
2736 0 76.1113 12.0219 915 114.887 643.832 462.61
2737 0 79.0885 12.8969 1020 112.679 643.94 462.341
2738 0 81.1203 12.8451 1042 104.166 643.643 458.877
2739 0 84.0297 12.924 1086 102.957 643.503 459.188
2740 0 87.1216 12.8556 1120 113.724 643.505 457.765
2741 0 90.0546 13.0921 1179 110.353 643.44 456.104
2742 0 93.131 12.8529 1197 104.547 642.804 455.614
2743 0 98.1303 13.1662 1292 110.128 643.741 453.71
2744 0 99.1261 13.1953 1308 107.589 642.698 451.332
2745 0 103.194 12.6752 1308 111.391 643.047 451.083
2746 1 55.121 11.2661 621 115.691 643.256 473.738
2747 0 57.069 12.4411 710 113.131 643.401 473.163
2748 0 58.0837 12.4303 722 116.652 643.688 472.596
2749 0 61.1037 12.2742 750 109.771 644.069 472.648
2750 0 61.0433 12.5976 769 104.594 643.713 471.458
2751 0 65.034 12.4858 812 101.284 643.797 470.427
2752 0 67.1536 12.3448 829 105.127 643.634 468.946
2753 0 67.073 12.3895 831 115.842 643.184 469.167
2754 0 70.1237 12.5207 878 107.82 643.016 467.191
2755 0 73.0546 11.9637 874 115.692 643.897 466.308
2756 0 73.0591 12.4009 906 118.689 643.595 465.401
2757 0 77.1371 12.4583 961 113.503 643.265 464.09
2758 0 81.0955 12.2818 996 114.705 643.538 461.872
2759 0 83.1272 12.0298 1000 111.617 643.788 459.586
2760 0 87.1556 11.9556 1042 119.268 644.072 457.112
2761 0 89.1062 11.9857 1068 114.336 643.82 454.962
2762 1 46.0103 9.88909 455 120.598 643.934 476.916
2763 0 48.0223 9.49559 456 119.904 644.89 477.842
2764 0 49.0371 10.2168 501 123.429 644.285 477.333
2765 0 52.0296 10.6478 554 118.935 643.895 475.944
2766 0 56.0215 10.6031 594 118.584 644.148 475.355
2767 0 57.039 11.3606 648 115.318 643.849 473.914
2768 0 58.0614 11.7806 684 110.481 643.886 472.532
2769 0 57.1637 11.6508 666 114.97 642.984 472.589
2770 0 60.0823 12.1999 733 111.879 642.969 469.862
2771 0 63.1878 12.1384 767 114.409 642.897 469.322
2772 0 64.1649 12.5146 803 110.237 643.765 469.461
2773 0 66.1779 12.27 812 115.447 643.592 468.18
2774 0 69.1877 12.3288 853 117.073 643.601 464.218
2775 0 72.1443 12.4334 897 114.056 643.182 464.27
2776 0 74.2063 12.6 935 111.468 643.758 463.14
2777 0 76.2389 12.4608 950 120.014 644.048 458.801
2778 0 81.2646 13.5976 1105 105.136 644.431 455.676
2779 0 81.2649 12.4654 1013 114.938 645.036 452.612
2780 1 84.173 12.807 1078 113.229 645.388 441.632
2781 0 86.1658 12.6848 1093 117.578 645.404 443.108
2782 0 90.249 12.5985 1137 122.325 645.031 442.647
2783 0 89.2707 12.7365 1137 114.905 645.014 443.38
2784 0 95.3857 12.6329 1205 119.5 644.027 442.62
2785 0 98.457 12.8787 1268 115.35 644.454 446.089
2786 0 101.481 12.4457 1263 111.936 644.789 446.966
2787 1 55.0523 11.3528 625 112.664 644.493 470.962
2788 0 56.1164 10.8168 607 111.74 644.853 467.527
2789 0 60.1939 12.0776 727 113.751 642.933 466.733
2790 0 61.053 11.8422 723 117.815 644.068 467.945
2791 0 64.0436 12.0075 769 124.179 644.235 466.06
2792 0 65.0934 12.459 811 116.614 644.076 464.457
2793 0 67.1699 12.1781 818 113.731 646.124 464.417
2794 0 67.1577 12.3739 831 110.611 646.444 463.836
2795 0 71.1475 12.5373 892 117.156 645.951 462.504
2796 0 71.1508 12.6773 902 110.951 646.38 461.07
2797 0 74.2076 12.8019 950 107.138 646.484 459.212
2798 0 77.096 12.5428 967 102.663 646.449 456.913
2799 0 78.0659 12.6944 991 97.5772 646.84 456.02
2800 0 81.2108 12.3629 1004 115.695 646.429 455.31
2801 0 84.2146 12.385 1043 117.591 646.161 453.01
2802 0 86.1918 12.3794 1067 119.268 645.886 452.406
2803 0 91.1816 12.009 1095 121.16 646.073 451.412
2804 1 46.0286 9.92861 457 121.217 648.018 472.77
2805 0 48.1576 9.78039 471 116.958 645.894 471.696
2806 0 50.2221 10.2545 515 123.423 645.821 469.359
2807 0 51.2482 10.3809 532 111.688 645.705 469.083
2808 0 52.345 11.2905 591 113.496 646.684 468.431
2809 0 56.3082 12.0586 679 111.046 645.552 468.181
2810 0 56.3082 12.0586 679 160.15 643.552 468.181
2811 0 59.1414 11.5655 684 122.335 647.225 466.092
2812 0 60.172 11.9823 721 110.282 647.262 465.373
2813 0 62.0651 11.7618 730 108.562 648.193 464.789
2814 0 65.0649 11.6345 757 102.682 647.511 463.696
2815 0 65.0567 11.5438 751 101.815 647.421 460.103
2816 0 68.1911 11.7317 800 119.664 646.642 461.72
2817 0 70.14 11.6481 817 118.192 646.787 460.536
2818 0 72.1673 11.8336 854 110.666 646.86 458.746
2819 0 75.1258 11.554 868 113.665 646.725 456.796
2820 0 78.2522 11.8335 926 109.568 646.815 456.379
2821 0 79.2537 11.5578 916 128.586 646.222 455.055
2822 1 41.1815 10.2716 423 120.452 644.811 475.861
2823 0 42.2121 10.4709 442 117.002 645.903 475.482
2824 0 44.4977 11.0118 490 111.312 644.59 471.312
2825 0 46.4969 11.162 519 82.5723 644.482 471.418
2826 0 47.3799 11.2073 531 116.356 644.872 472.653
2827 0 49.4384 11.2261 555 116.508 644.418 471.613
2828 0 50.3176 11.4672 577 112.809 645.068 470.052
2829 0 51.2416 11.1628 572 113.871 645.556 468.724
2830 0 55.2746 11.8318 654 109.076 645.002 468.442
2831 0 56.2701 11.4626 645 107.253 644.454 468.786
2832 0 56.1912 11.5854 651 113.344 644.045 467.773
2833 0 56.2901 11.6362 655 109.983 644.423 467.26
2834 0 60.3659 11.7616 710 107.055 644.316 466.492
2835 0 63.2462 11.7952 746 107.408 644.21 465.252
2836 0 63.2257 11.2771 713 105.993 644.405 465.492
2837 0 64.1972 11.7606 755 99.3947 643.486 463.566
2838 0 65.2719 11.184 730 95.6616 644.059 460.866
2839 0 68.2255 11.6672 796 91.1621 644.103 460.427
2840 0 71.2733 12.2767 875 88.5223 643.473 460.142
2841 0 75.3208 12.1215 913 96.184 644.118 459.864
2842 0 77.2407 12.0403 930 104.015 643.656 457.93
2843 0 79.1744 11.4052 903 94.9646 643.556 456.132
2844 0 83.3187 12.1581 1013 103.277 644.576 456.463
2845 0 85.1763 12.2569 1044 103.448 644.315 453.178
2846 1 44.0816 8.71111 384 103.724 645.091 474.302
2847 0 46.1349 9.40719 434 113.583 645.369 474.18
2848 0 48.0638 9.21692 443 110.93 644.388 473.402
2849 0 52.1315 9.93641 518 108.865 644.874 470.956
2850 0 53.0414 10.3127 547 104.183 646.132 471.26
2851 0 56.193 10.9444 615 90.3333 646.377 469.517
2852 0 58.1962 11.4956 669 92.4798 645.589 467.555
2853 0 58.104 11.6171 675 101.788 646.77 465.588
2854 0 61.1635 12.2949 752 99.6569 645.574 465.31
2855 0 62.1288 12.0395 748 97.9064 645.524 465.608
2856 0 64.1808 12.0597 774 94.0762 646.037 465.503
2857 0 65.1582 12.0476 785 94.7783 646.252 463.755
2858 0 69.1344 12.642 874 96.5137 645.645 462.882
2859 0 73.1989 12.1996 893 98.6473 646.013 462.305
2860 0 73.1792 12.5582 919 97.3754 645.582 461.575
2861 0 75.1917 12.4748 938 89.5768 645.596 459.882
2862 0 79.3666 12.5116 993 92.3112 645.391 458.889
2863 0 82.1864 12.6298 1038 91.8931 645.199 457.334
2864 0 85.2556 12.0227 1025 87.9698 645.681 456.22
2865 1 44.0485 9.89818 436 92.4564 646.05 475.08
2866 0 46.0345 10.5573 486 93.7901 646.121 474.039
2867 0 47.0539 10.4348 491 93.112 645.892 473.984
2868 0 48.3005 11.0351 533 93.0675 644.863 472.46
2869 0 49.124 11.2979 555 102.577 645.049 472.483
2870 0 49.2454 10.5188 518 100.174 643.618 471.919
2871 0 52.3884 10.8612 569 93.0967 643.94 468.511
2872 0 54.4281 10.9502 596 91.1191 644.483 468.881
2873 0 59.3994 10.3536 615 87.4667 644.485 465.66
2874 0 59.3197 10.3676 615 92.1594 643.654 466.072
2875 0 59.2442 11.1572 661 91.4191 643.896 464.772
2876 1 123.472 11.7922 1456 92.1848 643.633 430.4
2877 1 50.1906 6.55501 329 100.581 643.04 470.398
2878 0 64.2878 11.1996 720 94.3792 644.228 460.778
2879 0 68.1976 11.2761 769 89.2107 644.23 459.475
2880 0 73.2312 11.0335 808 83.8267 644.615 457.165
2881 0 72.3107 11.4506 828 86.4287 644.697 456.338
2882 0 70.2448 11.1325 782 89.3248 644.785 453.939
2883 0 73.2999 11.1733 819 89.1917 644.89 455.247
2884 0 81.2055 11.5633 939 84.5069 645.01 453.151
2885 0 74.1448 8.0653 598 88.0619 644.854 457.647
2886 0 91.2515 12.0875 1103 82.3137 645.024 451.784
2887 0 93.4214 12.2028 1140 80.3377 645.328 449.727
2888 0 97.3777 12.2923 1197 84.411 645.39 445.669
2889 0 99.5545 12.1943 1214 85.5494 644.978 442.602
2890 0 99.5803 11.0062 1096 88.6214 645.431 439.326
2891 0 104.544 11.3446 1186 85.3971 644.863 443.562
2892 0 107.456 11.1581 1199 99.2836 644.888 439.389
2893 0 110.46 11.1081 1227 101.758 644.766 438.249
2894 1 167.874 10.7104 1798 106.05 644.816 407.308
2895 1 107.544 6.35088 683 109.777 644.663 449.858
2896 0 105.347 6.84408 721 115.605 644.67 448.406
2897 1 60.3395 11.3524 685 102.384 644.75 464.982
2898 0 61.1811 11.2453 688 105.135 644.22 464.253
2899 0 62.2571 11.4043 710 99.2662 644.58 464.463
2900 0 66.2349 11.6706 773 101.332 644.779 463.048
2901 0 67.0763 11.5987 778 103.438 643.622 460.722
2902 1 104.24 7.56906 789 116.83 645.355 449.284
2903 0 109.131 7.90795 863 116.844 645.932 446.439
2904 0 110.197 7.84956 865 115.564 646.254 446.103
2905 0 115.232 7.87107 907 110.832 646.529 445.44
2906 0 119.416 8.47457 1012 118.298 646.515 441.808
2907 1 93.6626 12.6945 1189 102.402 646.523 449.536
2908 0 90.7138 12.556 1139 108.649 646.549 449.038
2909 0 90.5502 11.7173 1061 108.343 646.393 449.398
2910 0 91.4849 11.1057 1016 108.215 646.191 449.731
2911 0 90.6109 11.9743 1085 102.385 646.01 448.285
2912 1 104.523 11.232 1174 94.1661 646.164 441.347
2913 0 104.698 11.6717 1222 92.2979 646.262 441.287
2914 0 104.406 11.3691 1187 91.6605 645.992 441.064
2915 1 160.665 11.8694 1907 104.252 646.008 411.223
2916 1 104.554 11.7451 1228 99.3103 645.805 439.121
2917 1 168.571 11.6983 1972 105.793 646.278 407.662
2918 1 111.64 11.143 1244 102.498 646.164 437.869
2919 0 111.47 11.6444 1298 100.025 646.304 436.539
2920 1 184.254 11.457 2111 102.542 646.586 398.484
2921 1 122.639 11.6276 1426 98.6711 646.462 431.974
2922 0 132.848 11.1857 1486 97.0437 646.441 428.324
2923 0 70.0457 13.3342 934 111.864 647.405 327.24
2924 0 72.1819 12.9949 938 111.618 647.603 321.333
2925 0 74.1102 12.9132 957 116.029 647.113 315.741
2926 1 36.0208 4.66398 168 132.417 647.72 330.661
2927 0 65.1673 11.0638 721 108.191 646.706 384.982
2928 0 80.3737 12.2926 988 86.003 646.616 455.918
2929 0 82.3522 12.3737 1019 87.4691 647.218 455.837
2930 1 44.0671 9.75784 430 91.6465 646.514 475.542
2931 0 45.1674 9.54228 431 98.5476 646.009 474.267
2932 0 44.252 10.0108 443 94.7562 646.047 473.391
2933 0 46.1691 10.5482 487 94.4292 644.768 472.501
2934 0 48.0381 10.5333 506 102.743 646.476 472.389
2935 0 38.1776 6.91505 264 110.144 647.769 478.121
2936 0 36.237 6.15394 223 109.664 648.049 479.287
2937 0 39.1135 5.75249 225 99.9822 647.92 478.116
2938 0 44.2099 8.64059 382 102.555 647.448 473.73
2939 0 46.2246 8.28564 383 102.016 647.517 474.112
2940 0 47.3216 10.3758 491 98.7495 647.356 470.697
2941 0 47.2297 10.3325 488 103.389 647.309 470.912
2942 0 48.1027 10.2905 495 102.663 647.19 472.939
2943 1 62.2381 11.7131 729 100.514 646.391 465.599
2944 0 63.225 11.8782 751 96.6019 646.206 465.108
2945 0 66.213 11.8557 785 91.6688 646.501 465.208
2946 0 67.1264 11.8731 797 99.0364 645.688 463.365
2947 0 70.1669 12.1995 856 98.229 645.329 462.394
2948 0 72.1251 12.4229 896 97.0034 645.278 461.792
2949 0 73.0652 12.5915 920 95.1717 645.385 460.484
2950 0 77.1722 12.66 977 100.144 645.408 459.498
2951 0 78.1517 12.5909 984 98.9715 645.716 457.999
2952 1 42.094 10.9279 460 98.7956 646.43 476.45
2953 0 44.1178 11.0613 488 98.0922 646.543 474.104
2954 0 47.1282 10.5669 498 93.5823 645.687 474.721
2955 0 48.0624 11.2978 543 97.0866 645.961 474.173
2956 0 50.023 12.2344 612 98.5425 646.528 473.32
2957 0 50.3042 11.9274 600 96.6033 645.455 471.785
2958 0 50.3312 12.2389 616 98.9253 645.419 471.742
2959 0 53.1478 11.9854 637 96.2229 645.458 471.11
2960 0 54.3918 12.0974 658 93.3161 645.664 470.751
2961 0 55.3555 12.0855 669 98.3513 645.057 469.916
2962 0 57.2066 12.2538 701 94.0613 646.175 468.217
2963 0 59.2761 12.3996 735 89.7864 645.936 467.684
2964 0 61.4179 12.358 759 90.78 645.335 466.344
2965 0 62.4488 12.8585 803 87.4159 644.77 463.476
2966 0 64.3323 12.0779 777 85.7246 644.634 466.448
2967 0 66.1868 12.4496 824 86.4454 644.487 464.789
2968 0 69.1792 12.4604 862 85.8852 644.457 463.34
2969 0 71.1805 12.5034 890 87.5629 644.533 462.984
2970 0 72.3011 12.7937 925 94.2897 644.492 460.491
2971 0 76.3546 12.6122 963 87.3645 644.166 455.661
2972 0 76.3292 12.8129 978 93.9806 644.438 459.088
2973 1 38.1758 9.82297 375 94.36 644.856 480.416
2974 0 38.2957 10.5495 404 99.7129 643.648 479.795
2975 0 40.1045 10.9713 440 98.0091 642.477 479.216
2976 0 42.1429 11.3898 480 97.3625 642.898 479.146
2977 0 42.0982 11.877 500 94.13 642.982 478.298
2978 0 43.4044 12.7637 554 90.6859 644.004 472.76
2979 0 45.123 12.5878 568 93.2799 643.171 465.69
2980 0 48.1701 12.1652 586 91.5666 643.329 460.019
2981 0 49.2215 12.0882 595 94.5244 643.392 458.116
2982 0 50.145 12.4638 625 91.5776 643.437 461.157
2983 0 50.1496 12.9413 649 96.6533 643.74 464.271
2984 0 54.1793 12.5878 682 96.5865 644.394 460.567
2985 0 54.2047 12.4159 673 102.49 643.704 460.525
2986 0 56.1766 12.5853 707 101.645 643.952 461.355
2987 0 58.151 12.6395 735 95.4326 643.366 462.053
2988 0 59.1049 12.4863 738 96.6531 643.367 469.424
2989 0 61.1326 12.5629 768 97.2096 642.702 465.16
2990 0 63.0707 12.589 794 97.5151 643.811 467.702
2991 0 64.2025 12.8344 824 97.8701 643.674 467.007
2992 0 66.1594 12.6815 839 103.98 643.675 465.22
2993 0 68.1773 12.5408 855 100.636 643.795 464.428
2994 0 71.1004 12.2643 872 100.534 643.861 460.161
2995 0 73.3808 12.7826 938 98.2079 644.401 461.514
2996 0 75.3857 12.6682 955 97.2157 644.052 460.272
2997 0 76.252 12.498 953 96.5971 644.1 459.547
2998 1 41.3946 9.92882 411 101.109 644.083 477.762
2999 0 41.5458 10.1575 422 96.2559 643.339 476.872
3000 0 43.3806 10.1197 439 103.121 643.141 475.182
3001 0 45.4821 10.5316 479 104.311 643.046 474.591
3002 0 48.2782 11.268 544 100.491 643.552 475.066
3003 0 49.2511 11.9185 587 102.123 643.363 474.293
3004 0 50.332 11.9407 601 97.0832 643.927 472.767
3005 0 52.289 12.5839 658 97.345 644.006 470.251
3006 0 53.486 12.2836 657 93.6636 644.306 466.384
3007 0 55.5774 12.0913 672 91.1101 644.269 466.152
3008 0 57.4031 12.0551 692 90.0694 644.49 468.421
3009 0 60.438 11.7641 711 87.616 644.276 466.691
3010 0 61.2577 11.574 709 93.5472 644.69 465.839
3011 0 63.1836 11.9809 757 91.0462 644.905 465.551
3012 0 66.3884 11.975 795 85.2327 644.898 461.742
3013 0 68.6326 13.0259 894 82.3222 645.039 460.549
3014 0 71.5553 12.941 926 82.3488 644.555 459.22
3015 0 74.5551 12.5008 932 93.1438 644.65 456.217
3016 0 76.5954 12.5595 962 88.185 643.701 455.373
3017 0 78.6464 12.41 976 90.4314 644.096 455.946
3018 0 80.9093 12.718 1029 88.4247 643.703 454.318
3019 1 41.444 10.665 442 91.6968 643.726 474.772
3020 0 43.4729 11.0874 482 89.1929 644.201 473.658
3021 0 44.5613 11.4674 511 90.8669 644.072 473.472
3022 0 47.2859 11.8852 562 86.8167 644.004 474.256
3023 0 49.2387 11.9215 587 84.7411 644.029 472.835
3024 0 51.3555 11.7222 602 84.0997 643.997 471.826
3025 0 51.2509 11.7461 602 85.8621 643.948 471.409
3026 0 53.2538 11.4921 612 89.3072 644.44 470.627
3027 0 55.3221 11.8397 655 85.8504 645.586 469.655
3028 0 56.1164 12.385 695 91.2835 644.826 468.368
3029 0 59.1586 12.1369 718 88.8148 645.866 467.338
3030 0 59.3021 12.3773 734 88.545 645.702 465.486
3031 0 61.353 12.3384 757 91.4544 645.909 464.983
3032 0 61.495 12.1148 745 95.5114 646.452 463.635
3033 0 64.2075 11.9301 766 91.1319 646.497 461.548
3034 0 65.2684 11.9506 780 90.5551 646.318 458.377
3035 0 69.3416 11.9697 830 85.988 646.766 455.489
3036 0 70.3577 12.3512 869 90.2854 647.112 453.978
3037 1 35.3053 8.4973 300 90.62 647.813 471.527
3038 0 37.1749 8.36587 311 93.4437 647.958 470.273
3039 0 41.1132 8.63469 355 90.8451 647.907 468.935
3040 0 42.2058 9.80908 414 91.215 648.546 470.809
3041 0 43.07 11.5161 496 90.4274 649.427 472.302
3042 0 46.2499 11.3297 524 95.2729 646.639 471.414
3043 0 46.2448 11.4824 531 91.8211 646.62 470.527
3044 0 47.3257 11.854 561 93.8699 647.225 469.811
3045 0 49.3674 11.6879 577 94.1664 646.565 469.178
3046 0 51.3501 11.3145 581 95.2651 646.974 467.329
3047 0 52.2314 10.9321 571 97.5552 646.795 466.007
3048 0 54.2644 11.5914 629 93.3148 646.599 466.002
3049 0 56.1968 11.9046 669 100.115 645.966 465.695
3050 0 58.2289 11.7639 685 99.146 646.053 465.712
3051 0 58.2421 12.3622 720 98.8944 645.967 464.386
3052 0 59.2298 12.5275 742 89.2035 646.561 464.016
3053 0 61.2054 12.3845 758 82.839 646.811 462.718
3054 0 64.1515 11.8314 759 77.9262 646.559 462.228
3055 0 66.1183 12.3113 814 74.274 647.297 459.957
3056 0 67.2201 12.407 834 82.1607 646.981 459.289
3057 0 70.2321 12.3448 867 71.0381 647.039 449.73
3058 0 73.2244 12.4412 911 58.8167 646.824 448.78
3059 0 73.2108 12.8123 938 59.5853 646.986 447.819
3060 0 76.2166 12.3858 944 58.1568 647.365 445.523
3061 0 78.2042 12.4418 973 58.0565 647.255 446.741
3062 0 79.2272 12.5209 992 61.8558 646.698 449.506
3063 0 42.064 9.20027 387 61.155 646.636 472.455
3064 0 42.1061 9.61856 405 60.1185 646.049 471.146
3065 0 40.157 8.39206 337 57.4718 645.125 470.947
3066 0 40.2219 8.62715 347 59.5187 645.049 471.19
3067 0 42.2272 9.99357 422 61.2062 644.739 471.735
3068 0 50.369 10.0061 504 60.1885 644.726 468.728
3069 1 101.188 11.6516 1179 59.1866 645.838 443.933
3070 0 107.451 11.6891 1256 59.0932 646.416 438.912
3071 0 107.412 11.3768 1222 55.9452 646.393 440
3072 0 107.321 12.1784 1307 55.176 646.19 438.711
3073 0 104.346 9.32478 973 52.887 646.218 442.392
3074 0 106.343 11.1714 1188 54.4444 645.873 438.13
3075 0 120.215 11.338 1363 58.942 645.72 434.293
3076 1 60.1855 10.5175 633 59.2654 645.705 464.114
3077 0 65.2026 12.3308 804 127.689 646.054 463.756
3078 0 69.1993 12.4857 864 138.321 645.824 462.463
3079 0 72.26 12.1921 881 129.098 645.298 462.169
3080 0 74.1303 12.2082 905 128.086 644.804 460.206
3081 0 77.1426 12.0297 928 131.733 645.848 459.828
3082 0 78.277 12.5835 985 131.806 645.166 456.932
3083 0 81.1722 12.8 1039 128.105 645.263 456.457
3084 0 84.1386 12.8716 1083 130.518 645.787 455.035
3085 1 42.0656 10.5312 443 127.133 646.569 475.718
3086 0 44.0379 10.1276 446 124.61 646 475.608
3087 0 44.0728 10.8457 478 125.536 646.356 474.782
3088 0 47.0525 10.7114 504 126.649 646.456 473.994
3089 0 48.1182 11.5964 558 118.025 646.14 473.453
3090 0 48.3516 11.6439 563 122.163 645.023 473.027
3091 0 50.3692 11.8723 598 123.642 644.816 473.124
3092 0 52.3217 11.6969 612 125.221 645.188 472.662
3093 0 54.3991 11.82 643 117.442 644.722 471.947
3094 0 55.1932 11.9761 661 115.463 644.39 471.684
3095 0 55.1688 12.0177 663 123.332 644.226 471.32
3096 0 57.2566 12.0161 688 122.192 643.824 470.046
3097 0 58.3716 12.6089 736 121.533 643.636 469.435
3098 0 60.1007 12.4291 747 119.513 643.597 468.827
3099 0 61.0872 12.6704 774 118.227 643.705 468.771
3100 0 63.1581 13.11 828 120.737 644.053 467.075
3101 0 65.1434 13.0021 847 117.617 643.548 466.348
3102 0 67.1594 13.2967 893 120.701 643.408 466.274
3103 0 69.3521 13.1503 912 122.549 644.144 464.101
3104 0 71.3257 13.0248 929 119.623 644.058 463.842
3105 0 73.3652 13.1534 965 116.544 644.713 463.287
3106 0 75.2687 13.4053 1009 111.758 645.113 461.68
3107 0 77.2959 13.2737 1026 116.338 644.634 459.794
3108 0 80.3926 13.8694 1115 118.985 644.959 457.285
3109 0 81.4839 13.4137 1093 122.303 645.816 457.144
3110 0 85.4137 13.0775 1117 124.303 645.269 456.188
3111 0 88.3219 13.4168 1185 123.418 645.258 453.434
3112 0 93.7373 13.0471 1223 128.433 645.072 448.995
3113 0 92.4983 13.4705 1246 123.655 645.166 447.026
3114 1 52.4518 11.4391 600 127.753 644.925 470.572
3115 0 55.3332 11.7832 652 128.69 644.929 466.73
3116 0 54.5404 12.9629 707 120.266 645.769 465.267
3117 0 57.3664 12.5683 721 120.673 645.422 463.358
3118 0 57.5293 12.637 727 122.333 645.803 462.201
3119 0 60.3744 12.9359 781 116.487 645.965 465.147
3120 0 62.4877 12.8825 805 117.794 644.806 466.906
3121 0 64.2418 13.0912 841 113.38 644.788 465.131
3122 0 65.244 13.1966 861 111.66 645.05 463.597
3123 0 68.3425 13.2129 903 110.738 645.233 462.499
3124 0 70.579 13.1909 931 111.807 645.322 461.013
3125 0 72.3958 13.1638 953 110.152 645.13 459.66
3126 0 74.4645 12.9726 966 106.074 645.338 459.625
3127 0 77.412 13.5896 1052 107.227 645.398 458.099
3128 0 80.2896 13.2147 1061 110.497 645.341 456.515
3129 0 83.4127 13.0076 1085 108.446 645.296 455.512
3130 0 85.3792 13.0945 1118 117.048 645.552 453.392
3131 0 91.4838 13.609 1245 100.653 646.736 449.392
3132 0 94.5383 13.3808 1265 96.7352 647.308 448.84
3133 1 48.1644 11.5023 554 104.121 646.874 471.816
3134 0 51.0713 11.4742 586 101.399 647.457 469.944
3135 0 52.1553 12.2327 638 103.176 646.837 469.908
3136 0 54.3937 12.1705 662 102.47 647.174 468.529
3137 0 56.3139 12.1107 682 94.9296 647.642 467.919
3138 0 57.3261 12.1411 696 98.6897 647.786 467.017
3139 0 58.2151 12.6084 734 94.748 648.135 466.252
3140 0 60.2012 12.724 766 93.3094 647.996 464.567
3141 0 62.2688 12.6709 789 98.1964 648.016 463.36
3142 0 64.1737 12.8246 823 93.7035 648.137 461.748
3143 0 66.2241 12.6842 840 95.2774 648.508 461.486
3144 0 67.1379 12.9137 867 95.3726 648.63 459.791
3145 0 72.1608 12.8047 924 89.6548 648.23 458.654
3146 0 75.1214 12.4998 939 89.4739 648.257 457.883
3147 0 77.2016 12.4609 962 90.0322 647.615 455.742
3148 0 80.0814 12.0752 967 91.575 647.44 455.114
3149 1 44.1231 10.448 461 94.9111 647.844 472.466
3150 0 45.0624 10.43 470 96.7957 648.294 471.285
3151 0 47.0942 11.6575 549 92.3971 646.896 469.707
3152 0 48.0438 12.2804 590 83.6034 647.82 470.63
3153 0 50.2059 11.7118 588 96.5561 647.677 469.9
3154 0 51.2376 11.6126 595 99.7983 647.071 468.6
3155 0 53.2093 11.3138 602 93.2558 647.322 468.224
3156 0 56.2289 11.5777 651 92.2366 647.455 466.759
3157 0 57.3045 11.4476 656 99.7637 647.183 466.473
3158 0 58.3331 11.6401 679 99.1826 647.015 465.306
3159 0 60.1574 11.8855 715 101.969 647.196 464.587
3160 0 62.1811 12.5279 779 96.7638 646.746 463.522
3161 0 63.2661 12.9769 821 101.034 647.34 464.035
3162 0 66.2065 12.3402 817 99.9033 646.993 463.293
3163 0 68.2273 12.6636 864 94.7431 646.184 461.939
3164 0 68.113 12.6554 862 93.5951 646.674 460.908
3165 0 72.2303 12.5432 906 92.6843 646.692 458.81
3166 0 73.146 12.5092 915 95.0918 646.742 458.079
3167 0 78.1751 12.7023 993 94.7573 646.559 456.963
3168 0 80.2139 12.5539 1007 102.21 646.486 456.124
3169 0 82.1197 12.5914 1034 101.057 647.162 454.739
3170 1 47.0825 9.77008 460 102.896 646.894 472.754
3171 0 49.0905 10.0834 495 103.394 647.117 471.491
3172 0 50.1478 11.147 559 102.304 646.623 470.664
3173 0 53.1859 11.9393 635 105.929 645.287 470.499
3174 0 54.0607 12.523 677 100.282 644.694 468.988
3175 0 56.1457 12.3251 692 100.876 645.632 469.406
3176 0 58.1036 12.5121 727 107.829 645.296 469.098
3177 0 59.1131 12.586 744 106.251 645.305 467.238
3178 0 60.1847 12.4284 748 106.04 645.187 467.159
3179 0 63.2224 12.6696 801 102.276 645.236 467.198
3180 0 64.0926 12.5443 804 99.6891 644.886 466.692
3181 0 65.1244 12.5759 819 107.737 644.855 465.726
3182 0 68.1199 12.5074 852 118.655 644.825 464.651
3183 0 69.0721 12.6969 877 114.959 644.59 463.591
3184 0 71.1702 13.0251 927 113.727 644.849 462.627
3185 0 74.1062 12.9274 958 111.706 644.314 460.735
3186 0 78.2015 13.0944 1024 112.833 643.873 460.865
3187 0 81.155 13.2462 1075 106.414 643.84 458.754
3188 0 82.1905 13.3592 1098 109.063 643.653 457.129
3189 0 85.1503 13.3176 1134 108.006 643.993 456.021
3190 0 88.2294 13.1475 1160 109.627 644.604 455.357
3191 1 48.1187 10.5364 507 108.032 645.391 475.034
3192 0 50.0686 11.1247 557 102.546 645.44 469.088
3193 0 49.0149 12.0372 590 103.485 645.339 470.558
3194 1 52.0733 11.8103 615 105.05 644.377 461.127
3195 0 52.1909 12.4926 652 104.393 644.558 464.305
3196 0 54.1808 12.2368 663 105.388 644.83 464.683
3197 0 56.2686 12.4048 698 101.074 644.923 466.281
3198 0 58.3325 12.1373 708 98.8291 644.477 466.401
3199 0 59.1914 12.0288 712 99.8596 644.402 467.397
3200 0 60.3316 12.7296 768 95.6068 643.928 465.648
3201 0 63.2518 13.6913 866 96.321 643.952 465.028
3202 0 64.1803 12.9167 829 105.725 644.271 464.788
3203 0 64.1745 12.9491 831 103.974 643.811 464.4
3204 0 66.1806 14.0676 931 107.331 644.171 462.6
3205 0 70.0957 13.0678 916 113.111 644.75 463.236
3206 0 71.1485 13.3383 949 113.024 644.666 461.823
3207 0 73.4101 13.7175 1007 111.201 644.509 463.514
3208 0 76.1384 13.1865 1004 114.477 645.06 461.434
3209 0 78.1548 13.8315 1081 109.934 645.402 460.258
3210 0 82.3312 13.7008 1128 111.976 645.487 458.32
3211 0 83.345 13.5941 1133 109.404 645.311 456.955
3212 0 86.478 13.5988 1176 108.755 645.039 455.469
3213 0 89.443 13.5058 1208 109.416 645.173 453.856
3214 0 89.2174 13.4727 1202 112.047 645.3 452.099
3215 0 95.3462 13.6555 1302 108.651 645.601 450.791
3216 0 96.3083 13.5814 1308 106.94 644.742 449.059
3217 0 101.195 13.3999 1356 105.047 644.518 446.182
3218 0 104.344 13.5993 1419 106.459 644.565 445.028
3219 0 107.369 13.598 1460 105.991 645.181 441.292
3220 0 110.238 13.7339 1514 101.733 644.863 441.243
3221 1 58.1654 11.5017 669 109.037 645.176 467.419
3222 0 61.2022 11.6826 715 112.639 644.902 467.898
3223 0 61.1939 12.0437 737 103.262 644.554 465.495
3224 0 64.0726 12.6419 810 108.465 645.353 466.454
3225 0 66.2572 12.4968 828 106.081 644.121 466.248
3226 0 68.1428 12.4738 850 109.692 644.366 464.969
3227 0 70.2441 12.9121 907 104.184 644.069 462.166
3228 0 73.0897 12.8609 940 102.21 644.606 461.189
3229 0 76.2032 12.7685 973 102.036 644.796 460.407
3230 0 77.2023 13.0437 1007 103.218 645.403 459.241
3231 0 80.1827 12.7708 1024 111.222 645.445 458.23
3232 0 83.1487 13.085 1088 109.108 644.839 456.716
3233 0 85.2823 13.2736 1132 106.314 645.075 456.015
3234 0 88.2194 13.3417 1177 109.398 644.993 454.461
3235 0 91.1808 13.4458 1226 111.027 645.167 452.945
3236 0 95.1578 13.1886 1255 108.925 645.598 450.654
3237 0 98.2488 13.0689 1284 110.957 646.119 449.357
3238 0 101.18 12.9571 1311 100.384 646.407 447.947
3239 0 104.234 13.1914 1375 113.141 646.415 445.921
3240 0 108.27 13.0045 1408 112.935 647.008 444.679
3241 0 112.188 13.0674 1466 115.19 647.243 441.609
3242 0 114.155 13.0612 1491 123.506 647.525 440.261
3243 1 60.0644 11.7707 707 116.163 648.249 467.464
3244 0 61.2225 12.1034 741 114.487 648.323 466.323
3245 0 63.2887 12.6879 803 104.956 647.213 465.207
3246 0 65.1835 13.1935 860 105.305 646.774 463.199
3247 0 68.5414 12.3283 845 108.805 647.026 462.033
3248 0 69.0846 13.1722 910 110.987 647.284 460.935
3249 0 72.3121 12.8748 931 108.902 647.131 459.768
3250 0 75.3875 13.0526 984 107.786 647.521 458.934
3251 0 78.2884 13.0288 1020 111.9 647.438 456.729
3252 0 81.3371 12.774 1039 110.231 648.036 456.258
3253 0 82.5207 13.1724 1087 107.227 647.837 455.068
3254 0 86.3757 13.1055 1132 107.187 648.272 452.118
3255 0 89.246 13.0762 1167 109.913 648.074 450.825
3256 0 92.4131 12.9852 1200 116.586 647.98 449.633
3257 0 95.5357 13.2516 1266 112.57 647.828 447.217
3258 0 97.5305 13.3189 1299 108.557 647.427 444.901
3259 0 101.428 13.1719 1336 114.061 647.531 444.325
3260 0 105.481 13.1588 1388 111.978 647.666 442.034
3261 0 107.511 13.2824 1428 115.41 648.051 440.839
3262 0 111.627 12.9987 1451 117.071 647.609 437.629
3263 0 113.447 13.0633 1482 111.115 647.928 436.889
3264 1 63.5298 10.861 690 118.38 647.186 462.97
3265 0 65.543 11.3361 743 127.629 647.369 460.845
3266 0 66.4938 12.5726 836 125.39 647.778 459.465
3267 0 70.6593 12.0013 848 125.281 647.923 458.594
3268 0 72.6596 12.2489 890 125.689 647.444 457.789
3269 0 75.7583 12.5399 950 129.109 647.516 456.501
3270 0 76.7256 12.7337 977 131.561 647.4 456.688
3271 0 80.6529 12.5972 1016 129.906 647.381 455.125
3272 0 82.5943 12.6522 1045 125.933 646.948 453.507
3273 0 83.4656 12.6759 1058 125.986 646.911 451.854
3274 0 87.486 13.4764 1179 127.809 647.371 451.202
3275 0 92.7662 12.8818 1195 126.516 646.823 449.917
3276 0 95.6564 12.7226 1217 122.881 647.016 448.486
3277 0 98.5023 13.0961 1290 124.928 646.607 448.391
3278 0 101.495 12.8577 1305 116.09 646.582 446.174
3279 0 104.565 12.7481 1333 114.785 646.279 444.065
3280 1 56.3059 11.5974 653 113.375 646.412 468.035
3281 0 58.2491 11.9315 695 110.501 647.022 467.567
3282 0 60.4107 12.0012 725 122.585 646.975 465.796
3283 0 60.1974 12.4092 747 111.4 647.301 464.996
3284 0 63.1667 12.6966 802 111.57 646.673 464.379
3285 0 65.3582 12.3779 809 116.239 646.618 464.197
3286 0 68.3218 12.5143 855 119.571 646.446 462.476
3287 0 69.2179 12.7279 881 119.469 646.054 462.016
3288 0 72.266 12.6477 914 116.76 646.156 462.13
3289 0 74.181 13.0896 971 119.227 646.297 460.352
3290 0 77.3913 13.0247 1008 125.066 645.56 459.092
3291 0 80.4759 13.0598 1051 121.882 645.511 458.521
3292 0 81.746 12.808 1047 112.85 645.514 457.313
3293 0 84.4139 12.9363 1092 113.774 645.526 456.596
3294 0 86.4391 12.7604 1103 118.425 645.663 455.332
3295 0 91.3305 12.6464 1155 113.815 645.316 452.863
3296 0 94.3824 14.8121 1398 102.909 645.311 449.705
3297 0 97.4561 13.1752 1284 110.414 645.495 450.038
3298 1 50.0754 11.6025 581 109.463 645.709 473.952
3299 0 52.0407 11.5679 602 106.083 645.683 472.317
3300 0 55.1152 12.3015 678 103.562 645.658 472.401
3301 0 56.0208 12.1205 679 105.885 645.831 470.654
3302 0 57.0188 12.0136 685 107.715 646.327 469.911
3303 0 61.0741 12.9187 789 104.923 646.188 468.676
3304 0 60.0764 12.6339 759 109.709 646.236 470.022
3305 0 62.0533 12.7632 792 104.09 646.088 468.408
3306 0 63.0427 13.0071 820 105.934 646.027 467.028
3307 0 67.1214 12.6636 850 103.778 645.156 465.982
3308 0 69.0391 12.5291 865 102.729 645.223 464.683
3309 0 70.1051 12.4813 875 97.072 644.937 463.147
3310 0 74.0301 13.1838 976 97.5676 645.084 462.058
3311 0 76.0444 12.5979 958 97.8925 645.455 462.138
3312 0 77.1329 12.9906 1002 98.1766 645.136 459.795
3313 0 80.0824 12.662 1014 100.962 644.798 458.345
3314 0 84.1388 12.1466 1022 101.252 645.261 457.975
3315 0 87.1793 12.675 1105 98.5674 645.074 456.871
3316 0 90.1197 12.5611 1132 99.2465 645.148 455.268
3317 0 92.162 12.5865 1160 102.242 645.107 454.56
3318 0 94.1936 12.6654 1193 99.6924 643.982 452.583
3319 0 96.2406 12.7389 1226 100.808 644.155 450.563
3320 1 52.2389 9.99256 522 104.397 644.86 471.99
3321 0 54.2117 9.90561 537 96.1769 643.844 470.052
3322 0 56.1997 11.6727 656 93.1479 644.471 468.227
3323 0 61.1073 11.5534 706 94.3456 645.697 471.204
3324 0 61.1372 12.382 757 94.2431 645.971 468.871
3325 0 63.093 12.3152 777 94.6551 645.828 468.525
3326 0 64.1234 12.4915 801 94.221 645.554 467.457
3327 0 65.0522 12.4362 809 94.5674 645.488 466.553
3328 0 70.2942 11.8217 831 95.4404 644.986 464.484
3329 0 69.2231 11.9035 824 96.5134 645.142 463.333
3330 0 72.1822 12.1914 880 99.9375 645.368 461.457
3331 0 74.1455 11.7472 871 103.701 645.394 459.755
3332 0 78.1863 12.6109 986 100.802 645.144 458.454
3333 0 81.2038 12.1669 988 97.3421 645.582 457.945
3334 0 83.1422 12.0516 1002 97.5669 645.161 456.041
3335 0 85.2086 11.7007 997 110.554 645.395 454.285
3336 0 90.1888 12.6845 1144 100.441 645.337 452.858
3337 0 93.2349 12.1736 1135 109.824 645.635 452.004
3338 0 97.2211 11.9419 1161 109.717 644.791 450.773
3339 1 51.1396 11.3415 580 104.503 643.803 471.629
3340 0 54.0245 11.2727 609 101.217 646.583 472.036
3341 0 53.0451 11.4808 609 106.787 645.762 471.241
3342 0 54.1205 11.2157 607 109.267 645.437 470.244
3343 0 56.128 11.8301 664 107.425 646.02 468.47
3344 0 58.2098 12.2488 713 102.568 646.482 466.405
3345 0 60.3656 11.596 700 101.95 646.356 465.743
3346 0 63.1424 11.6879 738 104.041 646.958 465.172
3347 0 63.1464 12.2256 772 97.9495 647.041 464.365
3348 0 64.2556 12.0612 775 92.6942 646.969 463.019
3349 0 66.1688 11.8485 784 97.0026 646.838 464.315
3350 0 67.1257 12.3649 830 98.8916 646.29 462.384
3351 0 70.144 12.232 858 96.9685 646.552 460.955
3352 0 70.1144 12.4511 873 97.9622 646.993 459.979
3353 0 75.2314 12.4815 939 93.9755 646.812 458.628
3354 0 76.2242 12.8699 981 91.6137 646.481 455.513
3355 0 79.2031 12.449 986 92.002 646.957 454.496
3356 0 83.2418 12.5057 1041 87.4111 646.002 453.071
3357 0 82.2466 13.1799 1084 97.4391 646.571 453.326
3358 0 88.4457 12.731 1126 90.5631 646.389 450.384
3359 0 91.4992 12.3608 1131 97.3846 645.94 448.38
3360 1 51.1199 10.2113 522 101.27 645.864 469.421
3361 0 52.1597 10.7938 563 97.9982 645.286 468.442
3362 0 54.142 11.1004 601 100.815 645.995 468.073
3363 0 55.1472 11.8048 651 100.124 646.611 465.702
3364 0 58.0839 11.9138 692 92.6604 648.163 465.762
3365 0 58.1451 12.1936 709 101.137 646.877 465.43
3366 0 61.2216 12.1526 744 93.9207 647.331 464.501
3367 0 62.186 12.2053 759 93.249 647.423 463.654
3368 0 64.1419 12.3944 795 89.7497 647.581 461.224
3369 0 66.1703 12.2411 810 91.9852 647.217 461.733
3370 0 69.2167 12.3959 858 91.9755 646.518 460.367
3371 0 70.0777 12.4719 874 90.0961 647.118 459.167
3372 0 72.1938 12.6465 913 90.1457 647.13 459.099
3373 0 75.0915 12.2118 917 86.9651 647.762 457.773
3374 0 77.187 13.2147 1020 86.1755 646.78 454.817
3375 0 80.2939 12.4916 1003 87.7976 647.271 455.214
3376 0 82.0957 12.7169 1044 83.3142 647.298 454.366
3377 0 84.2169 12.9072 1087 81.3505 647.089 453.129
3378 0 87.2668 13.0978 1143 84.203 646.762 450.493
3379 0 90.2964 12.5143 1130 87.6292 646.736 450.281
3380 0 93.5157 12.9069 1207 89.1011 647.264 448.647
3381 1 50.1327 10.5121 527 89.3757 646.605 469.958
3382 0 52.0857 10.3867 541 95.9002 646.695 469.845
3383 0 54.1586 10.9678 594 96.6869 646.157 468.933
3384 0 56.1393 10.9905 617 92.7196 645.922 467.256
3385 0 56.0529 11.7746 660 95.9273 646.268 464.944
3386 0 59.1577 11.6299 688 89.0858 646.775 466.032
3387 0 60.3657 12.3249 744 90.6277 646.768 464.597
3388 0 61.1674 12.1143 741 92.3887 646.889 463.541
3389 0 63.2908 12.3873 784 88.9145 647.566 462.543
3390 0 65.228 12.6173 823 89.0851 647.023 462.253
3391 0 68.3902 12.2094 835 89.7353 647.242 460.623
3392 0 73.4302 13.3732 982 82.2851 647.332 458.554
3393 0 74.3345 12.8473 955 83.7267 647.566 459.177
3394 0 76.3203 12.6703 967 82.849 647.461 458.326
3395 0 78.2091 13.157 1029 81.378 646.793 456.137
3396 0 79.3457 13.0316 1034 80.4604 646.543 456.501
3397 0 81.179 12.8728 1045 93.3321 647.11 454.214
3398 0 86.1749 12.7299 1097 90.114 648.269 453.709
3399 0 88.1476 12.7627 1125 92.3547 647.543 451.38
3400 0 89.1454 12.833 1144 98.2579 647.184 449.802
3401 1 50.1069 9.22029 462 99.7035 645.749 471.104
3402 0 50.0744 10.3646 519 101.339 645.942 470.435
3403 0 52.0916 9.88643 515 96.3282 646.377 470.017
3404 0 54.0595 10.8029 584 100.014 645.822 468.404
3405 0 57.0537 11.1649 637 101.424 645.413 468.011
3406 0 57.2488 12.0701 691 101.91 646.554 464.764
3407 0 57.0824 12.4907 713 105.766 646.83 466.137
3408 0 60.138 12.0889 727 104.197 646.557 465.926
3409 0 61.0842 12.0981 739 108.11 646.308 465.263
3410 0 64.0523 13.9105 891 97.5926 645.99 462.678
3411 0 65.2231 11.959 780 98.7167 645.988 465.053
3412 0 66.0874 12.7104 840 100.919 645.648 463.814
3413 0 75.1057 15.2851 1148 86.6211 646.398 460.503
3414 0 75.0585 15.2414 1144 92.2893 646.369 458.886
3415 0 80.1314 16.0112 1283 86.8168 646.026 456.15
3416 0 83.0601 15.856 1317 89.2703 646.049 456.096
3417 0 83.1407 15.7925 1313 89.1691 645.532 454.631
3418 0 85.2188 15.2314 1298 90.4022 645.506 453.459
3419 0 84.2347 14.3171 1206 92.7015 645.125 453.582
3420 0 88.3007 15.0735 1331 91.0428 643.996 453.138
3421 0 91.4 14.0044 1280 94.457 644.016 454.057
3422 0 92.2804 13.5998 1255 96.0032 644.195 450.457
3423 0 96.2902 13.0543 1257 100.023 644.581 448.674
3424 0 98.4137 13.555 1334 100.391 644.506 446.804
3425 1 54.2 12.1587 659 103.704 644.461 470.038
3426 0 55.2682 12.8103 708 95.7768 644.606 469.099
3427 0 55.2541 12.9221 714 101.189 644.599 469.307
3428 0 58.1744 12.7376 741 101.733 644.42 468.252
3429 0 60.1807 12.9776 781 106.862 643.839 466.999
3430 0 62.2425 13.1743 820 104.621 643.926 468.626
3431 0 64.1843 13.4768 865 99.9977 644.013 467.787
3432 0 65.2854 13.4333 877 99.3033 643.991 466.917
3433 0 69.2033 13.8577 959 100.96 643.857 466.434
3434 0 68.2665 14.1797 968 102.887 644.012 466.459
3435 0 72.3818 13.8294 1001 101.921 644.147 464.946
3436 0 73.1723 13.8577 1014 98.9527 644.26 462.833
3437 0 75.1506 13.7191 1031 103.058 643.735 462.974
3438 0 76.2757 14.1592 1080 104.587 643.434 461.607
3439 0 78.1555 14.1257 1104 107.18 643.692 461.344
3440 0 82.3624 13.8291 1139 106.044 643.609 458.604
3441 0 84.3137 13.6395 1150 106.408 643.389 456.977
3442 0 87.2782 13.9095 1214 108.518 643.493 456.436
3443 0 91.3114 13.7989 1260 102.821 643.428 457.153
3444 0 93.3478 13.9157 1299 105.681 643.831 454.02
3445 0 96.4884 14.1468 1365 108.927 643.781 452.483
3446 0 97.3915 14.2107 1384 115.748 643.373 450.63
3447 0 101.614 13.8663 1409 112.081 643.572 451.309
3448 0 106.392 13.8451 1473 119.8 643.836 449.691
3449 1 59.111 12.2989 727 120.553 643.447 472.387
3450 0 61.1311 13.2502 810 114.931 643.456 470.368
3451 0 63.1186 13.0389 823 117.651 643.405 469.959
3452 0 65.1454 13.2166 861 111.674 643.037 467.83
3453 0 66.2019 13.7458 910 107.593 643.004 466.637
3454 0 68.13 13.577 925 112.769 643.169 466.382
3455 0 72.2202 13.2373 956 110.164 643.021 465.896
3456 0 74.2308 13.3772 993 111.689 643.571 464.188
3457 0 76.2187 13.435 1024 108.672 643.702 463.43
3458 0 79.3331 13.6387 1082 101.987 643.459 461.742
3459 0 82.1857 13.6277 1120 111.438 643.272 460.31
3460 0 84.1852 13.7435 1157 113.01 643.182 456.87
3461 0 88.2785 13.582 1199 110.578 643.179 456.895
3462 0 90.3464 13.6807 1236 110.48 643.5 455.074
3463 0 94.2955 13.3198 1256 110.068 643.723 453.3
3464 0 94.1873 13.9191 1311 110.876 644.103 451.883
3465 0 99.339 13.2878 1320 119.336 643.682 450.358
3466 0 103.179 13.84 1428 114.704 643.852 448.043
3467 1 56.0869 11.4822 644 114.528 644.099 472.557
3468 0 57.1104 12.257 700 116.283 642.833 472.021
3469 0 58.1334 12.3853 720 113.789 644.079 470.732
3470 0 61.1172 12.4515 761 112.574 644.273 469.901
3471 0 61.1134 12.9595 792 110.729 643.638 469.591
3472 0 64.0862 13.0449 836 109.809 643.122 468.234
3473 0 67.1366 12.7203 854 108.552 643.403 467.429
3474 0 68.0759 12.8092 872 107.174 644.142 465.693
3475 0 71.192 12.8104 912 101.497 643.67 464.511
3476 0 74.0754 12.9328 958 105.192 643.473 462.857
3477 0 78.0407 12.8651 1004 98.7659 643.786 461.999
3478 0 79.2311 12.8737 1020 121.51 643.867 460.182
3479 0 83.1306 12.9435 1076 120.581 643.789 457.329
3480 0 84.1251 13.0995 1102 127.632 644.223 456.296
3481 0 87.1602 13.1253 1144 124.647 643.74 454.919
3482 0 90.1277 13.0592 1177 119.014 643.814 453.754
3483 0 93.1215 13.0582 1216 120.248 643.956 452.971
3484 1 51.08 10.7478 549 124.326 644.78 473.8
3485 0 53.1436 11.3466 603 125.461 644.784 473.818
3486 0 54.1676 12.0183 651 128.548 644.186 472.373
3487 0 55.1504 11.786 650 124.243 645.211 473.154
3488 0 55.1641 12.0549 665 128.239 644.904 470.571
3489 0 57.1542 11.5477 660 133.414 645.221 470.726
3490 0 58.2232 12.1601 708 127.442 644.062 468.879
3491 0 61.153 11.741 718 128.422 644.756 467.957
3492 0 64.2923 11.5099 740 134.468 644.765 466.527
3493 0 66.1734 12.1046 801 125.197 645.582 466.459
3494 0 67.1764 12.0727 811 131.274 645.702 464.661
3495 0 70.2435 12.3428 867 125.696 645.384 463.069
3496 0 70.2065 12.5345 880 107.928 645.897 462.9
3497 0 72.1899 12.952 935 123.468 645.558 462.211
3498 0 75.1365 13.003 977 135.035 645.376 459.755
3499 0 75.1393 13.1755 990 135.679 645.573 459.702
3500 0 80.3155 13.0112 1045 123.885 646.045 458.126
3501 0 81.3801 13.1973 1074 138.304 645.821 456.683
3502 0 85.2531 13.325 1136 139.438 645.716 455.889
3503 0 87.1534 13.2754 1157 137.857 646.309 455.237
3504 0 88.2966 13.4546 1188 130.276 646.474 452.927
3505 0 92.2585 13.3646 1233 131.601 646.947 451.465
3506 0 94.273 13.4927 1272 130.145 645.902 449.095
3507 0 98.38 13.5495 1333 129.428 646.167 448.26
3508 0 101.165 13.6214 1378 126.331 645.98 447.159
3509 0 104.272 12.803 1335 129.244 646.103 445.161
3510 0 106.296 13.4624 1431 122.435 646.687 444.138
3511 1 58.0788 11.0195 640 111.712 646.442 469.336
3512 0 61.1619 11.3306 693 107.183 646.293 467.274
3513 0 63.2735 12.2326 774 106.959 646.838 465.93
3514 0 68.2703 12.4944 853 97.6577 646.526 464.764
3515 0 68.1796 12.6724 864 98.3183 647.17 463.748
3516 0 70.1231 12.3925 869 98.5834 646.016 461.634
3517 0 73.1862 12.7073 930 116.071 646.453 461.105
3518 0 74.1866 12.9808 963 110.823 645.983 458.721
3519 0 78.1393 12.7337 995 110.947 646.3 457.999
3520 0 80.1427 12.877 1032 104.298 646.298 457.413
3521 0 83.0942 12.5881 1046 105.447 646.933 456.219
3522 0 86.0758 13.0002 1119 102.954 647.528 455.557
3523 0 88.0553 13.06 1150 111.505 647.518 453.865
3524 0 90.1755 12.8638 1160 109.861 647.403 452.025
3525 0 92.1573 13.2491 1221 108.312 646.986 451.174
3526 0 97.0996 12.8734 1250 110.878 647.312 449.821
3527 0 98.1557 13.2646 1302 109.702 646.961 448.294
3528 0 103.142 12.8464 1325 117.669 647.004 446.395
3529 0 106.135 13.0306 1383 127.964 646.825 444.667
3530 0 108.18 12.9691 1403 122.197 647.443 443.512
3531 0 112.329 13.1844 1481 124.25 646.658 442.074
3532 1 60.1921 11.131 670 125.307 646.658 469.075
3533 0 61.1504 11.7088 716 127.084 646.563 469.239
3534 0 63.202 12.1199 766 122.554 645.765 467.04
3535 0 64.1651 12.499 802 123.069 645.567 467.131
3536 0 67.2802 12.277 826 121.732 645.433 464.614
3537 0 69.2353 12.6669 877 128.228 645.209 464.027
3538 0 72.2068 12.0903 873 126.943 645.371 463.625
3539 0 72.299 12.8217 927 119.947 645.359 461.17
3540 0 76.2556 12.5892 960 130.135 645.636 460.989
3541 0 79.2767 12.8033 1015 124.612 645.891 459.495
3542 0 80.3457 13.1059 1053 109.302 645.898 458.796
3543 0 85.4379 12.91 1103 108.892 645.753 457.684
3544 0 85.2868 13.0853 1116 118.44 645.897 456.665
3545 0 90.4199 12.5857 1138 116.383 645.816 454.661
3546 0 92.4299 12.9936 1201 113.868 645.038 451.787
3547 0 95.243 13.0088 1239 114.5 645.574 451.917
3548 1 54.2906 11.2542 611 115.75 645.414 472.966
3549 0 57.2278 11.7425 672 106.202 645.731 471.362
3550 0 59.2222 11.955 708 108.212 645.236 470.917
3551 0 60.1656 12.6651 762 119.794 645.051 470.155
3552 0 61.1484 13.181 806 120.677 644.976 469.583
3553 0 63.2569 13.042 825 122.472 644.035 468.383
3554 0 66.1741 12.7089 841 119.922 644.193 467.307
3555 0 69.1125 13.3261 921 111.206 644.182 465.881
3556 0 69.1844 12.8931 892 119.217 644.498 466.212
3557 0 72.2169 12.864 929 115.282 644.661 464.093
3558 0 75.1225 12.3798 930 120.819 644.525 463.286
3559 0 74.092 13.1188 972 119.055 644.35 463.02
3560 0 78.2308 12.8594 1006 121.663 644.563 461.55
3561 0 80.1574 13.3113 1067 122.457 644.41 459.933
3562 0 82.1768 13.3858 1100 120.505 644.572 459.245
3563 0 85.2793 13.3913 1142 121.136 644.542 457.849
3564 0 86.1748 13.3682 1152 117.82 644.628 457.827
3565 0 89.3263 13.4451 1201 126.939 645.082 456.911
3566 0 92.3026 13.6941 1264 123.001 644.832 454.851
3567 0 93.18 13.7154 1278 125.875 644.922 453.227
3568 0 98.3805 13.7121 1349 129.357 644.401 450.602
3569 0 101.344 13.469 1365 132.407 644.99 450.251
3570 0 105.339 13.898 1464 133.954 644.932 447.159
3571 0 110.244 13.6788 1508 133.23 645.082 446.177
3572 0 112.451 13.9705 1571 126.011 645.01 443.912
3573 1 65.2544 11.5088 751 121.555 645.024 468.362
3574 0 65.2098 12.5135 816 129.271 644.308 467.726
3575 0 68.1203 12.3018 838 126.551 645.067 465.921
3576 0 70.096 12.1262 850 123.772 644.844 463.518
3577 0 72.1259 12.1732 878 122.958 645.319 463.856
3578 0 73.1406 12.141 888 118.35 644.989 462.482
3579 0 76.2257 12.5811 959 118.771 645.062 460.004
3580 0 79.4244 12.2129 970 116.421 645.267 459.381
3581 0 82.2958 12.1877 1003 120.501 645.24 457.827
3582 0 84.2894 12.03 1014 118.064 645.056 456.129
3583 0 86.241 12.3955 1069 130.154 645.1 454.76
3584 0 88.2906 12.5495 1108 138.423 644.859 453.082
3585 0 91.3265 12.3184 1125 134.794 645.105 451.395
3586 0 95.3356 12.7654 1217 137.06 645.287 450.752
3587 0 97.327 12.7611 1242 120.658 645.277 449.011
3588 0 100.406 12.5192 1257 117.88 645.555 447.239
3589 0 102.32 12.412 1270 126.261 645.491 445.528
3590 0 107.346 12.3712 1328 124.133 645.359 443.276
3591 0 109.29 12.6635 1384 118.983 645.521 441.765
3592 0 112.296 12.6986 1426 122.429 645.626 441.032
3593 0 115.318 12.7387 1469 124.002 646.343 438.024
3594 0 118.287 12.6894 1501 120.05 646.266 437.273
3595 0 124.382 12.5581 1562 117.341 646.504 435.672
3596 0 129.354 12.6474 1636 119.589 646.529 433.631
3597 0 132.305 12.9851 1718 117.907 646.782 429.274
3598 1 64.2742 11.5443 742 132.729 647.096 464.369
3599 0 68.3489 11.6169 794 126.956 646.521 463.588
3600 0 69.203 11.6324 805 131.954 646.179 462.025
3601 0 71.1765 11.886 846 122.113 646.141 461.402
3602 0 74.2104 12.3702 918 123.534 646.327 459.727
3603 0 76.13 11.9401 909 120.128 646.552 459.138
3604 0 79.2627 12.1873 966 116.319 646.629 457.579
3605 0 82.1651 11.8785 976 119.903 646.693 455.999
3606 0 84.1296 12.1004 1018 114.764 647.779 454.528
3607 0 87.2417 11.6458 1016 113.976 648.048 453.476
3608 0 91.1985 12.2919 1121 104.933 647.9 452.299
3609 0 92.1839 12.193 1124 104.559 647.284 450.511
3610 0 95.2182 12.3401 1175 102.027 647.627 448.496
3611 0 98.1554 12.3783 1215 109.498 647.656 447.887
3612 0 104.145 13.9997 1458 113.15 647.682 442.944
3613 0 107.392 13.2971 1428 111.557 647.303 441.873
3614 0 110.269 13.721 1513 113.317 648.48 439.188
3615 1 54.2074 10.7919 585 110.279 648.434 469.991
3616 0 55.4599 11.7562 652 105.877 647.187 466.827
3617 0 57.289 11.9045 682 99.7889 648.419 467.893
3618 0 58.3781 12.1107 707 107.676 647.743 466.774
3619 0 59.3322 12.1688 722 104.996 648.517 466.452
3620 0 60.5545 12.3195 746 100.315 647.542 465.591
3621 0 62.6747 12.3814 776 105.223 647.41 464.271
3622 0 64.3366 11.9839 771 108.012 648.172 463.973
3623 0 66.1766 12.0435 797 109.4 648.281 463.237
3624 0 66.3144 12.4106 823 107.066 648.462 463.886
3625 0 70.287 12.2071 858 113.867 648.105 462.732
3626 0 71.368 12.1483 867 114.433 648.458 461.206
3627 0 74.4411 12.4528 927 115.22 647.98 459.252
3628 0 78.3358 12.1018 948 111.404 647.621 458.993
3629 0 80.7225 12.2766 991 114.019 646.656 449.427
3630 0 82.7333 12.5705 1040 112.572 646.488 448.33
3631 0 84.6776 12.4472 1054 109.628 646.195 450.353
3632 0 85.591 12.4546 1066 117.717 646.146 453.147
3633 0 88.8368 12.765 1134 111.373 646.435 450.288
3634 0 91.6583 12.5793 1153 107.179 646.278 447.369
3635 0 95.6854 12.4052 1187 110.905 645.872 446.563
3636 0 97.6392 12.3004 1201 116.443 646.205 444.92
3637 0 101.731 12.248 1246 116.86 646.058 444.101
3638 1 57.6146 11.4728 661 116.743 646.501 465.734
3639 0 60.4086 11.9188 720 116.621 646.39 464.526
3640 0 61.484 12.4585 766 128.607 646.014 462.845
3641 0 62.2351 12.5653 782 126.019 645.862 463.563
3642 0 61.319 12.753 782 125.935 646.153 462.84
3643 0 64.3442 13.0082 837 122.808 646.306 462.56
3644 0 66.3293 12.9204 857 119.546 646.041 462.543
3645 0 68.3163 12.9691 886 122.178 646.363 462.008
3646 0 70.3643 12.9043 908 120.23 645.905 460.51
3647 0 73.3584 12.7456 935 116.24 646.281 460.61
3648 0 75.4044 13.0099 981 115.648 645.914 459.161
3649 0 77.4414 12.9646 1004 117.985 645.671 458.727
3650 0 80.5409 13.2107 1064 131.035 645.96 457.66
3651 0 82.4205 13.2734 1094 134.771 646.186 455.8
3652 0 84.5664 13.1731 1114 143.04 646.789 454.74
3653 0 87.4691 13.2161 1156 135.068 646.618 453.731
3654 1 46.285 11.8829 550 142.264 646.324 473.796
3655 0 49.4232 11.9984 593 140.373 646.304 473.75
3656 0 49.2791 12.4597 614 140.301 645.707 472.902
3657 0 50.449 12.6861 640 150.758 645.755 473.089
3658 0 51.2199 12.7294 652 147.505 646.136 471.845
3659 0 53.4243 12.7096 679 139.087 645.239 469.907
3660 0 56.223 12.4504 700 140.044 645.291 469.964
3661 0 56.322 12.9789 731 144.425 645.082 468.124
3662 0 57.3156 13.0331 747 144.479 645.226 467.47
3663 0 58.3284 12.9611 756 144.181 645.065 467.015
3664 0 61.2666 12.9598 794 143.631 644.893 465.705
3665 0 62.2131 13.0841 814 138.235 645.219 465.125
3666 0 64.344 12.8683 828 132.545 644.963 465.031
3667 0 67.3574 12.7826 861 126.555 644.695 465.031
3668 0 68.3209 13.6269 931 117.752 644.9 463.776
3669 0 70.4039 13.3089 937 125.721 644.615 462.356
3670 0 73.4043 13.4325 986 152.525 645.28 461.501
3671 0 75.403 13.6201 1027 154.971 645.078 460.067
3672 0 78.4888 13.5051 1060 150.623 644.549 458.991
3673 0 81.3703 12.9654 1055 145.825 645.17 458.815
3674 0 82.5717 13.3581 1103 153.863 644.065 456.324
3675 0 86.4552 13.3248 1152 155.756 644.09 455.436
3676 0 89.4021 13.1876 1179 151.997 644.69 454.189
3677 0 92.3184 13.2151 1220 150.534 644.324 452.096
3678 1 46.1464 11.9186 550 158.178 644.582 473.967
3679 0 48.2434 11.9395 576 153.417 644.526 472.41
3680 0 48.2752 12.843 620 156.74 644.524 471.384
3681 0 51.2254 12.9037 661 146.669 644.672 470.467
3682 0 52.2439 12.7287 665 163.814 644.386 470.153
3683 0 55.1918 12.828 708 154.751 644.822 470.364
3684 0 55.2893 13.2756 734 162.614 644.67 469.428
3685 0 57.1335 13.1972 754 154.174 644.529 469.444
3686 0 58.1692 13.3232 775 158.472 645.303 469.246
3687 0 60.1399 13.0695 786 162.648 645.136 467.2
3688 0 61.2462 13.3396 817 158.43 645.002 466.714
3689 0 63.2433 13.8671 877 163.836 645.517 464.08
3690 0 66.2837 13.925 923 166.348 645.193 463.03
3691 0 67.2942 13.8496 932 165.695 645.217 462.102
3692 0 69.355 14.0869 977 165.017 645.004 460.755
3693 0 71.4015 14.1454 1010 164.923 645.215 460.328
3694 0 74.3414 14.1913 1055 163.923 645.633 458.683
3695 0 77.199 14.3136 1105 166.061 645.676 457.833
3696 0 78.233 14.3673 1124 172.035 646.415 456.698
3697 0 80.2312 14.3086 1148 164.973 646.208 453.626
3698 0 82.2284 14.7273 1211 168.538 646.191 454.28
3699 0 85.311 14.1482 1207 172.38 646.147 453.172
3700 0 89.3251 14.5984 1304 164.549 646.39 450.606
3701 0 91.4348 14.1303 1292 168.921 646.058 449.494
3702 0 94.2017 14.055 1324 166.016 646.421 448.622
3703 0 96.315 14.4526 1392 171.571 646.546 446.721
3704 0 99.2312 14.2596 1415 174.132 646.693 444.204
3705 0 103.462 14.5658 1507 171.293 646.829 442.33
3706 0 106.291 14.686 1561 171.094 647.107 442.635
3707 0 107.284 14.8671 1595 168.487 646.732 439.91
3708 0 112.457 14.8857 1674 167.916 646.799 438.22
3709 0 116.267 14.7505 1715 165.875 646.999 437.747
3710 0 120.374 14.7623 1777 160.278 646.9 434.596
3711 0 125.31 14.9469 1873 169.038 647.366 432.792
3712 0 127.515 14.9002 1900 165.904 647.057 431.997
3713 0 132.473 14.9012 1974 165.166 647.017 430.066
3714 0 136.538 15.1459 2068 164.592 647.055 427.671
3715 0 138.238 15.4227 2132 163.57 646.964 426.715
3716 0 145.235 15.1892 2206 168.557 647.372 422.786
3717 0 150.409 15.1321 2276 166.212 647.598 421.488
3718 0 155.431 15.6983 2440 168.14 648.068 416.845
3719 0 161.532 15.1054 2440 170.91 647.696 415.084
3720 0 167.562 15.1228 2534 166.888 647.608 411.198
3721 0 173.544 15.4658 2684 163.79 647.615 408.078
3722 0 181.629 15.6252 2838 160.962 647.799 404.959
3723 1 66.2688 13.7923 914 167.109 647.804 460.686
3724 0 68.3678 14.4805 990 164.644 647.744 458.827
3725 0 70.4275 14.4262 1016 170.192 647.669 457.771
3726 0 73.2616 14.8782 1090 169.676 647.326 455.183
3727 0 76.4688 14.7773 1130 169.034 647.41 454.557
3728 0 77.31 14.6682 1134 174.758 647.687 453.659
3729 0 80.3715 15.6896 1261 165.577 647.492 452.171
3730 0 82.3948 15.3529 1265 169.379 647.545 450.673
3731 0 86.2885 14.9267 1288 165.623 646.975 449.229
3732 0 90.3982 15.4096 1393 165.33 646.876 447.545
3733 0 95.4315 14.4816 1382 168.676 646.667 445.412
3734 0 98.4874 14.9359 1471 163.606 646.937 443.693
3735 0 100.383 14.8532 1491 162.302 646.914 440.431
3736 0 104.235 14.5153 1513 166.741 646.383 440.367
3737 1 58.3482 12.4768 728 156.985 646.236 463.327
3738 0 58.2238 13.2592 772 163.899 646.766 461.894
3739 0 60.2386 13.4299 809 167.572 646.616 462.094
3740 0 65.3475 12.8237 838 166.794 645.965 460.348
3741 0 67.2495 12.9666 872 147.565 645.696 459.766
3742 0 68.3312 13.2736 907 153.541 646.266 459.16
3743 0 70.3158 13.3398 938 161.836 645.712 458.419
3744 0 73.1379 13.331 975 158.63 645.716 456.833
3745 0 75.2403 13.4104 1009 159.051 645.436 455.743
3746 0 78.3708 13.4999 1058 160.747 645.103 454.454
3747 0 81.2246 13.4442 1092 156.679 644.782 452.652
3748 0 83.3017 13.6852 1140 154.507 644.913 453.217
3749 0 86.3761 13.337 1152 155.476 644.621 451.859
3750 0 88.153 13.624 1201 155.052 644.892 450.736
3751 0 91.3063 13.7011 1251 154.974 645.146 450.24
3752 0 94.31 13.339 1258 149.856 645.029 448.408
3753 0 97.3578 13.6404 1328 153.971 645.512 446.738
3754 0 102.237 13.5078 1381 155.82 645.388 445.395
3755 0 105.216 13.3154 1401 153.86 645.375 444.741
3756 0 109.224 13.2205 1444 150.303 645.503 444.92
3757 1 58.0789 11.6221 675 147.431 644.996 469.618
3758 0 61.1029 12.258 749 146.506 645.048 468.614
3759 0 63.1098 11.8048 745 148.02 645.42 468.608
3760 0 63.0695 12.3197 777 144.825 646.081 468.09
3761 0 67.1108 12.01 806 143.297 646.042 467.464
3762 0 66.0479 12.5818 831 143.776 646 465.922
3763 0 69.0859 12.7522 881 147.003 645.851 464.896
3764 0 74.1507 12.2184 906 146.84 645.393 463.903
3765 0 73.1506 12.7135 930 137.488 645.394 463.341
3766 0 78.1429 12.3108 962 148.494 645.666 461.889
3767 0 79.2705 12.615 1000 146.85 645.536 459.286
3768 0 84.2628 12.7814 1077 143.59 645.277 457.685
3769 0 87.2692 12.5818 1098 139.32 645.001 456.836
3770 0 90.3283 12.1999 1102 141.843 645.235 455.705
3771 0 90.2736 12.296 1110 142.409 644.928 454.16
3772 0 94.2717 12.273 1157 139.916 644.664 452.4
3773 0 99.3619 12.5803 1250 136.796 644.918 450.278
3774 1 52.1052 9.38487 489 138.798 646.119 476.568
3775 0 53.0676 9.94957 528 130.973 646.438 475.708
3776 0 54.0832 10.188 551 137.486 646.461 475.151
3777 0 56.0798 10.7704 604 136.808 646.224 474.27
3778 0 57.1148 10.5927 605 132.788 645.719 474.258
3779 0 57.1394 11.5682 661 130.082 646.109 472.224
3780 0 60.1573 11.7858 709 127.237 645.346 471.819
3781 0 61.1782 11.5728 708 133.96 644.76 470.198
3782 0 65.1167 11.2721 734 133.252 644.589 469.689
3783 0 66.246 11.9856 794 125.748 643.943 468.9
3784 0 68.147 12.5024 852 125.309 644.15 467.347
3785 0 69.1562 12.5224 866 136.853 644.538 466.38
3786 0 72.225 12.3641 893 130.962 644.222 465.813
3787 0 73.247 12.7241 932 131.519 644.324 464.932
3788 0 76.1667 12.9059 983 133.634 644.6 464.681
3789 0 77.1892 13.2013 1019 136.223 644.16 463.521
3790 0 78.086 13.0625 1020 136.769 643.831 462.234
3791 0 82.2742 12.8108 1054 139.087 643.381 461.103
3792 0 83.2153 12.8582 1070 140.493 643.064 460.428
3793 0 85.4204 12.9477 1106 140.962 643.298 457.992
3794 0 87.3601 13.141 1148 134.84 642.789 456.834
3795 0 90.2987 12.8241 1158 143.892 642.872 456.073
3796 0 92.4322 13.1448 1215 141.971 642.837 451.425
3797 0 94.5986 13.2666 1255 140.999 642.881 452.141
3798 0 98.3225 13.5167 1329 137.327 643.157 450.126
3799 0 100.358 13.3223 1337 143.057 643.638 445.301
3800 0 104.243 14.2456 1485 133.029 643.724 443.626
3801 0 106.336 13.8711 1475 134.34 643.534 443.245
3802 0 110.24 13.4162 1479 139.311 643.456 443.093
3803 0 112.379 13.3477 1500 137.973 643.817 442.135
3804 0 115.244 13.5625 1563 139.266 643.986 441.599
3805 0 119.276 13.7413 1639 139.812 644.01 439.365
3806 0 121.335 13.8789 1684 133.034 643.6 436.385
3807 0 126.498 13.8579 1753 132.337 643.334 434.086
3808 0 129.283 13.8921 1796 144.518 643.445 432.792
3809 0 133.236 13.9227 1855 137.238 643.326 431.394
3810 0 137.164 13.9468 1913 141.775 644.233 429.583
3811 0 142.347 14.2047 2022 143.976 644.345 425.307
3812 0 144.313 13.7202 1980 139.045 644.198 424.71
3813 0 149.203 13.9743 2085 140.659 644.623 421.43
3814 0 154.26 13.9375 2150 138.877 644.488 418.89
3815 1 85.1081 11.832 1007 135.145 644.703 456.008
3816 0 89.1403 12.3513 1101 131.332 645.514 455.061
3817 0 90.2689 12.3852 1118 127.769 644.823 453.625
3818 0 94.1342 12.6415 1190 130.064 644.614 451.717
3819 0 97.0737 12.7841 1241 134.29 644.742 451.215
3820 0 97.1045 12.8418 1247 139.557 645.84 448.769
3821 0 102.23 12.7262 1301 134.048 646.48 447.402
3822 0 106.263 12.949 1376 129.321 646.216 444.524
3823 0 111.219 12.7586 1419 135.908 645.443 444.082
3824 1 62.2086 11.2203 698 134.272 645.864 468.092
3825 0 65.1296 11.5308 751 129.977 645.461 466.98
3826 0 67.2442 11.9713 805 131.184 645.394 465.145
3827 0 69.1162 12.2113 844 128.594 644.947 464.802
3828 0 69.1504 12.4656 862 131.791 644.946 464.028
3829 0 71.3766 12.0067 857 125.323 645.162 463.51
3830 0 75.2395 12.1612 915 122.844 645.425 462.72
3831 0 77.2097 12.343 953 130.512 645.477 461.375
3832 0 79.1747 12.6934 1005 132.724 645.674 460.338
3833 0 82.1163 12.1779 1000 133.752 645.722 458.378
3834 0 85.132 12.9798 1105 132.785 645.713 458.473
3835 0 87.1515 12.6102 1099 134.85 646.08 456.77
3836 0 91.1634 12.5928 1148 141.818 645.387 453.736
3837 0 92.2802 12.9497 1195 141.939 645.37 452.438
3838 0 98.1811 12.701 1247 148.825 645.73 450.931
3839 1 50.1742 10.8622 545 146.437 646.13 474.569
3840 0 51.1056 11.1338 569 147.789 646.139 473.183
3841 0 55.0894 11.9987 661 147.722 646.893 472.014
3842 0 54.0727 11.9099 644 145.484 646.573 471.78
3843 0 58.1096 11.6504 677 143.403 646.6 470.292
3844 0 60.1898 11.7129 705 149.014 646.593 469.316
3845 0 61.1256 12.3025 752 149.695 647.037 469.411
3846 0 64.1418 11.8955 763 149.339 646.533 467.876
3847 0 67.1698 12.3418 829 150.737 647.888 465.608
3848 0 66.2837 12.7181 843 146.421 647.259 463.73
3849 0 70.2118 12.6759 890 146.747 647.186 463.209
3850 0 72.2788 12.6316 913 145.375 647.498 462.544
3851 0 75.2574 12.424 935 143.821 647.326 462.001
3852 0 79.1871 12.0727 956 144.94 646.917 459.547
3853 0 80.3098 12.5763 1010 143.86 646.621 457.381
3854 0 82.2409 12.9984 1069 148.168 646.839 454.704
3855 0 85.278 12.9576 1105 147.053 647.186 453.309
3856 1 46.2992 11.1233 515 145.573 647.829 473.225
3857 0 47.1488 10.8804 513 146.604 647.487 473.448
3858 0 50.3336 11.5231 580 146.593 647.634 469.814
3859 0 51.3275 12.5469 644 147.854 647.298 468.407
3860 0 53.2002 12.8383 683 141.514 646.558 469.136
3861 0 55.169 12.3983 684 142.798 646.576 471.886
3862 0 57.1505 12.4233 710 143.49 646.435 470.676
3863 0 57.1264 12.9187 738 140.762 646.808 469.946
3864 0 59.1589 12.7791 756 142.344 646.639 469.693
3865 0 62.1172 14.1024 876 136.981 646.392 466.828
3866 0 62.1656 13.1102 815 140.876 646.247 467.356
3867 0 64.1555 13.1399 843 135.27 646.235 466.664
3868 0 66.2483 13.2079 875 143.328 645.824 465.631
3869 0 68.2115 13.3262 909 137.129 646.026 463.967
3870 0 70.3982 13.3952 943 148.759 646.453 462.016
3871 0 72.517 13.4727 977 144.374 645.748 458.383
3872 0 74.5463 13.7096 1022 142.194 645.696 457.748
3873 0 76.5158 13.5658 1038 143.324 646.021 457.654
3874 0 81.5253 13.4069 1093 142.037 646.016 456.623
3875 0 80.3971 13.993 1125 145.156 646.372 454.489
3876 0 86.3717 13.7892 1191 148.727 645.776 454.002
3877 0 88.3939 13.7 1211 141.459 645.893 452.728
3878 0 92.4287 13.8377 1279 132.814 646.122 451.243
3879 0 94.5222 13.7005 1295 140.752 645.476 449.863
3880 0 99.4736 13.8228 1375 140.298 645.534 448.316
3881 0 102.614 13.6921 1405 137.478 645.705 446.631
3882 1 53.1601 12.5846 669 138.202 646.172 471.287
3883 0 55.197 13.1348 725 134.728 645.709 469.03
