index division length width area intensity CMx CMy
3219 0 79.1689 13.7807 1091 106.962 188.81 279.381
3220 0 81.157 14.281 1159 101.93 188.477 281.994
3221 0 84.1645 13.937 1173 108.83 188.548 283.409
3222 0 86.2166 13.7328 1184 113.239 188.412 284.722
3223 0 89.2283 13.7737 1229 107.775 188.324 286.526
3224 0 92.1557 13.4121 1236 112.181 188.245 288.662
3225 0 94.2471 14.1118 1330 107.577 188.42 288.079
3226 0 98.2183 13.9791 1373 111.967 188.693 288.328
3227 0 98.2183 13.9791 1373 143.221 188.693 288.328
3228 0 105.279 14.4664 1523 102.668 189.078 291.665
3229 0 107.25 14.648 1571 102.568 189.398 293.102
3230 0 111.285 14.3326 1595 102.549 189.309 295.848
3231 1 57.0861 12.1045 691 109.336 189.424 326.76
3232 0 60.0679 12.6856 762 105.033 188.631 329.764
3233 0 61.0997 13.2079 807 101.05 188.825 332.26
3234 0 64.0301 12.869 824 104.242 188.528 334.78
3235 0 66.0754 13.2122 873 105.136 188.611 337.11
3236 0 66.0942 13.8439 915 102.421 188.844 339.681
3237 0 68.0683 13.5746 924 104.566 189.049 342.145
3238 0 73.1515 13.2328 968 93.3926 189.161 344.564
3239 0 74.1207 13.451 997 105.886 189.318 346.938
3240 0 77.1621 13.4004 1034 104.967 190.065 349.358
3241 0 78.0681 13.5651 1059 106.852 189.822 350.976
3242 0 82.132 13.4418 1104 114.679 190.195 353.245
3243 0 85.1115 13.3237 1134 110.116 190.257 355.854
3244 0 86.1328 13.2702 1143 108.417 190.925 358.683
3245 0 90.0714 13.5337 1219 100.051 190.906 361.358
3246 0 93.2603 13.3926 1249 100.632 190.546 363.08
3247 0 97.2166 12.9608 1260 103.013 190.86 365.931
3248 1 51.379 11.2303 577 106.742 190.851 393.198
3249 0 53.2988 11.8014 629 102.921 190.423 396.55
3250 0 55.2454 12.0553 666 101.907 190.335 399.988
3251 0 55.0815 12.0912 666 108.107 190.089 403.802
3252 0 58.3066 12.5029 729 102.999 190.547 407.818
3253 0 60.3329 12.4476 751 100.061 190.044 412.2
3254 0 61.2142 12.4154 760 101.438 190.5 416.082
3255 0 62.1581 12.5647 781 104.21 190.279 420.309
3256 0 64.3699 12.4748 803 110.508 189.945 424.068
3257 0 66.2791 12.6435 838 107.689 190.334 427.462
3258 0 69.4492 12.6567 879 102.055 189.977 431.842
3259 0 71.3826 12.1879 870 110.102 190.026 438.221
3260 0 73.3185 12.0843 886 108.66 189.853 442.249
3261 0 76.3211 12.8143 978 110.666 189.855 446.987
3262 0 77.3974 12.5198 969 114.348 189.572 447.893
3263 0 81.3411 12.1218 986 109.143 189.83 447.152
3264 0 82.4138 12.5828 1037 114.714 189.364 446.478
3265 0 86.4408 12.39 1071 123.432 189.569 445.16
3266 0 89.3764 12.453 1113 125.653 190.004 444.712
3267 1 48.1531 10.6327 512 124.691 190.035 466.082
3268 0 48.2423 11.0899 535 124.912 189.671 465.391
3269 0 50.2434 11.4244 574 129.033 189.99 464.247
3270 0 51.1328 11.3039 578 128.792 190.017 466.182
3271 0 53.1835 11.6013 617 126.912 190.024 465.149
3272 0 54.1841 12.1438 658 122.289 189.708 463.217
3273 0 56.23 12.0043 675 122.797 189.686 462.979
3274 0 59.1499 12.071 714 127.034 190.111 462.318
3275 0 59.1929 12.1467 719 127.072 189.662 461.419
3276 0 63.2424 12.0647 763 121.067 189.962 460.539
3277 0 62.1449 11.9077 740 127.278 189.673 459.869
3278 0 64.1102 12.1354 778 118.758 189.654 459.226
3279 0 67.2408 12.1652 818 117.625 189.408 457.06
3280 0 67.2408 12.1652 818 150.271 189.408 457.06
3281 0 70.2518 12.8395 902 117.337 189.98 456.04
3282 0 74.291 12.7606 948 131.927 189.867 454.461
3283 0 75.1592 12.5068 940 122.873 189.917 454.156
3284 0 76.1757 12.6418 963 126.37 189.72 453.186
3285 0 80.1589 12.6748 1016 131.307 189.531 452.173
3286 0 82.1405 12.8804 1058 136.54 189.31 451.897
3287 0 83.1892 12.8021 1065 139.485 188.837 451.001
3288 0 87.1117 12.9374 1127 136.256 188.878 449.29
3289 0 90.0704 13.0232 1173 139.391 189.061 448.285
3290 0 91.1464 13.2753 1210 147.974 188.249 446.921
3291 0 96.0798 12.9684 1246 145.014 188.257 446.014
3292 1 49.0169 11.7306 575 127.739 188.186 469.553
3293 0 51.0908 11.6851 597 128.834 187.948 469.765
3294 0 50.1006 12.3751 620 133.281 188.044 469.058
3295 0 52.1048 12.1486 633 131.111 187.889 467.926
3296 0 53.0604 12.1748 646 128.305 187.831 468.059
3297 0 55.1352 12.2608 676 131.093 187.953 466.028
3298 0 58.0784 12.2421 711 125.702 187.793 466.052
3299 0 58.114 12.6992 738 122.11 187.837 465.714
3300 0 61.105 12.143 742 120.757 187.712 464.6
3301 0 63.045 12.1025 763 126.834 187.366 462.612
3302 0 65.0599 12.4347 809 128.054 188.096 463.485
3303 0 65.1078 12.3641 805 132.558 187.865 462.096
3304 0 68.135 12.5339 854 133.101 188.084 462.319
3305 0 71.1834 12.4186 884 127.063 187.835 461.752
3306 0 73.0869 12.4372 909 131.047 187.968 459.377
3307 0 75.1161 12.3542 928 129.483 187.155 457.671
3308 0 78.1104 12.6104 985 127.226 187.31 457.127
3309 0 81.1337 12.1528 986 120.047 187.327 455.989
3310 1 38.0393 10.5417 401 124.868 187.825 475.282
3311 0 40.0361 10.8402 434 119.977 188.26 476.115
3312 0 41.0383 11.2334 461 121.035 187.894 474.26
3313 0 42.0281 11.4685 482 123.952 187.434 475.044
3314 0 43.154 10.6132 458 122.775 186.943 475.395
3315 0 44.1639 10.7327 474 122.089 186.759 474.983
3316 0 45.1589 11.1163 502 120.869 186.598 474.014
3317 0 46.1939 11.6899 540 121.196 186.472 473.233
3318 0 47.184 11.4446 540 118.139 186.317 472.439
3319 0 47.2604 11.5107 544 118.871 186.436 471.675
3320 0 50.2211 11.4494 575 118.57 186.28 470.257
3321 0 50.1988 11.5939 582 112.5 186.21 469.625
3322 0 52.1504 11.9079 621 112.227 186.132 468.285
3323 0 53.183 11.9023 633 111.67 186.529 468.992
3324 0 56.2214 11.1523 627 115.45 186.833 467.501
3325 0 59.177 11.3727 673 114.327 186.863 467.018
3326 0 60.1624 11.6518 701 113.377 186.856 466.153
3327 0 61.1698 11.9503 731 112.434 186.808 464.692
3328 0 63.3795 11.9597 758 113.997 187.24 463.456
3329 0 67.4483 11.7275 791 114.273 187.528 462.727
3330 0 69.4258 11.7248 814 120.026 187.743 462.028
3331 1 35.2908 10.0309 354 120.452 187.393 478.11
3332 0 36.2915 10.085 366 119.751 187.194 477.09
3333 0 38.2965 10.732 411 112.735 187.479 476.226
3334 0 38.3281 10.3579 397 115.448 187.123 475.438
3335 0 39.1517 11.3661 445 126.175 187.27 475.661
3336 0 40.2116 10.8178 435 121.251 186.959 475.021
3337 0 40.1925 11.0219 443 132.885 187.386 474.919
3338 0 42.164 10.6015 447 133.494 188.277 473.501
3339 0 43.1211 11.201 483 128.973 188.139 472.876
3340 0 46.2351 11.0955 513 123.041 188.318 472.723
3341 0 47.1822 11.5722 546 131.81 188.278 471.987
3342 0 47.1822 11.5722 546 161.24 188.278 471.987
3343 0 48.2709 11.6841 564 135.759 188 470.927
3344 0 50.1801 11.4189 573 130.965 188.37 470.073
3345 0 52.2506 11.7511 614 128.138 188.401 469.308
3346 0 52.2417 12.021 628 133.93 189.003 469.597
3347 0 53.3608 11.7315 626 129.962 189.288 467.506
3348 0 55.4343 11.5091 638 123.914 189.188 466.152
3349 0 57.1891 12.1177 693 125.075 189.33 465.96
3350 0 58.4821 12.0379 704 129.315 188.821 464.543
3351 0 60.5369 12.2735 743 126.925 189.121 463.432
3352 0 63.3645 12.1046 767 127.244 189.398 463.156
3353 0 64.4847 12.1114 781 124.43 189.2 462.074
3354 0 68.5158 11.8367 811 125.096 189.197 460.258
3355 0 67.3772 12.5117 843 124.297 189.735 460.071
3356 0 73.6442 12.3567 910 116.684 189.793 457.23
3357 0 74.4087 12.1894 907 129.062 189.875 456.601
3358 0 77.5727 12.4528 966 122.909 190.077 455.152
3359 0 81.4562 12.387 1009 129.308 189.636 453.485
3360 0 82.4655 12.6962 1047 136.15 190.224 452.356
3361 0 84.4861 12.6411 1068 134.379 189.726 451.646
3362 0 84.9008 12.8738 1093 140.495 190.77 451.432
3363 0 89.0458 12.7575 1136 137.026 191.355 449.666
3364 0 89.8106 12.7268 1143 132.87 190.73 448.695
3365 0 93.8712 12.7302 1195 139.954 190.748 447.428
3366 0 95.5205 13.1281 1254 129.386 191.005 445.909
3367 0 98.9304 12.7665 1263 129.354 191.162 444.88
3368 0 101.74 12.9742 1320 125.164 191.295 442.62
3369 0 102.871 13.2011 1358 127.791 190.908 441.748
3370 0 107.629 13.2306 1424 128.315 190.46 440.369
3371 1 55.2103 12.1354 670 123.837 190.431 464.555
3372 0 57.4097 11.8273 679 124.959 190.346 465.178
3373 0 59.3169 12.037 714 119.875 190.983 463.116
3374 0 61.2035 12.0581 738 120.157 189.927 461.821
3375 0 62.2647 12.2702 764 120.571 190.243 461.903
3376 0 63.2717 12.2962 778 116.839 190.402 461.123
3377 0 66.1601 11.7594 778 117.117 189.882 459.988
3378 0 67.2401 11.9869 806 120.222 189.711 458.61
3379 0 69.3875 12.0771 838 123.081 189.55 457.959
3380 0 71.481 12.325 881 124.407 190.234 457.022
3381 0 72.4642 12.4199 900 124.918 189.55 454.906
3382 0 75.4165 12.3183 929 137.73 189.424 454.287
3383 1 39.2521 10.9803 431 134.095 190.051 473.886
3384 0 39.3381 11.4139 449 128.022 189.947 472.63
3385 0 40.1592 11.056 444 134.712 190.185 471.676
3386 0 41.1585 11.4193 470 123.953 190.589 471.962
3387 0 43.1726 11.3729 491 127.086 190.232 471.145
3388 0 44.1896 11.3828 503 129.773 190.083 470.366
3389 0 45.1059 11.5949 523 125.191 190.623 469.291
3390 0 47.2607 11.4683 542 126.502 190.057 469.653
3391 0 48.1865 11.5593 557 127.447 190.068 468.706
3392 0 51.2491 11.5514 592 122.243 190.098 468.382
3393 0 50.2858 12.3494 621 120.378 190.108 467.675
3394 0 52.202 11.8003 616 120.867 189.972 467.185
3395 0 53.1453 11.8167 628 119.925 189.42 466.081
3396 0 55.3483 11.9064 659 115.264 189.129 466.493
3397 0 55.2163 12.2428 676 130.328 189.638 464.512
3398 0 58.1761 12.084 703 128.829 190.24 464.044
3399 0 60.1854 11.7969 710 131.625 189.123 462.983
3400 0 63.144 11.7509 742 137.747 189.011 462.14
3401 0 65.3004 12.1132 791 134.583 188.794 461.158
3402 0 68.0997 11.9677 815 138.193 188.899 459.709
3403 0 68.1644 12.4992 852 128.473 189.322 458.837
3404 0 71.2301 12.0735 860 136.351 188.71 457.192
3405 0 72.1535 11.919 860 141.555 188.556 456.735
3406 0 75.2054 12.0071 903 138.516 188.213 455.581
3407 0 78.3173 11.9131 933 144.058 187.92 453.76
3408 0 81.1395 11.8191 959 139.275 187.677 453.876
3409 1 43.0482 10.3837 447 143.707 186.94 471.962
3410 0 44.1304 10.7409 474 137.395 186.466 471.243
3411 0 45.0714 11.4041 514 129.881 186.471 471.457
3412 0 47.0744 11.7686 554 133.625 186.265 470.801
3413 0 48.1101 11.827 569 127.522 188.647 470.933
3414 0 48.0645 12.2336 588 131.611 188.42 469.889
3415 0 50.1404 11.6273 583 132.688 187.801 469.787
3416 0 52.1029 11.5541 602 133.095 187.694 468.699
3417 0 54.1125 11.9011 644 128.124 187.109 467.877
3418 0 57.2031 11.9224 682 124.226 187.114 466.617
3419 0 58.1697 12.1197 705 119.759 186.8 466.122
3420 0 60.1532 12.0858 727 118.58 186.396 465.256
3421 0 61.1908 12.1587 744 118.816 186.648 465.618
3422 0 63.1341 11.9745 756 119.343 186.841 464.585
3423 0 65.2348 11.9875 782 121.114 187.054 463.038
3424 0 68.2261 11.9309 814 122.296 186.569 462.318
3425 0 69.2372 12.2766 850 124.316 186.408 461.124
3426 0 72.2952 11.9233 862 118.015 186.597 459.948
3427 0 74.2579 12.1603 903 121.569 186.701 459.898
3428 1 40.0457 11.1623 447 121.696 186.36 476.309
3429 0 40.0722 11.8536 475 127.897 186.347 475.695
3430 0 39.2196 11.7288 460 125.163 186.778 476
3431 0 42.1607 11.4799 484 120.804 186.76 475.236
3432 0 44.1728 11.3871 503 118.63 186.748 473.978
3433 0 44.1533 11.6866 516 123.014 186.68 474.465
3434 0 46.0756 11.9586 551 122.552 186.779 474.263
3435 0 48.1036 11.891 572 121.421 186.899 472.79
3436 0 49.1363 11.7021 575 116.122 187.019 471.593
3437 0 50.1434 12.1851 611 118.016 186.9 471.447
3438 0 53.1392 11.9686 636 120.311 186.766 469.907
3439 0 54.2007 11.5312 625 123.611 186.77 470.666
3440 0 57.0998 12.2592 700 119.531 186.52 468.579
3441 0 58.1916 12.5791 732 117.373 186.299 467.913
3442 0 59.1337 12.2265 723 122.448 186.34 467.513
3443 0 63.2308 11.9878 758 115.307 186.459 466.677
3444 0 64.2578 11.9519 768 119.486 186.819 466.126
3445 0 64.4152 12.3884 798 124.093 186.719 465.607
3446 0 67.2374 12.2997 827 129.873 186.225 463.955
3447 0 70.1749 12.5116 878 123.855 186.551 464.409
3448 0 73.1819 12.3118 901 133.932 186.649 463.582
3449 0 75.1872 12.3292 927 130.934 186.556 461.823
3450 0 77.2192 12.0177 928 129.765 186.27 460.19
3451 1 39.065 10.4441 408 132.034 185.216 479.598
3452 0 39.0194 10.7639 420 126.529 184.243 477.843
3453 0 41.1221 11.6725 480 120.246 184.462 477.119
3454 0 42.06 11.6025 488 125.086 184.725 476.744
3455 0 44.1275 11.3308 500 121.494 184.682 477.088
3456 0 46.0494 11.3139 521 123.722 185.313 476.006
3457 0 45.0849 11.6003 523 120.784 185.403 475.631
3458 0 48.2018 11.5141 555 112.89 185.076 474.946
3459 0 48.1159 11.6386 560 125.661 185.025 474.845
3460 0 50.0437 12.1094 606 125.962 184.993 472.66
3461 0 51.1047 11.9167 609 124.368 185.089 473.544
3462 0 53.1112 11.7301 623 125.162 185.499 472.528
3463 0 53.1088 11.8813 631 123.926 185.813 471.485
3464 0 56.1512 11.8787 667 124.1 186.225 470.996
3465 0 57.1022 12.2062 697 130.778 185.957 470.317
3466 0 59.0472 12.1428 717 126.565 186.07 468.682
3467 0 60.1202 11.9926 721 126.969 186.141 467.89
3468 0 62.12 12.2183 759 129.016 185.773 466.476
3469 0 64.1575 11.955 767 125.797 186.677 465.278
3470 0 66.3167 12.003 796 124.872 187.01 464.003
3471 0 66.1329 11.8852 786 123.444 186.417 463.588
3472 0 70.1474 12.0033 842 122.083 185.81 461.831
3473 0 71.1774 11.9841 853 122.161 186.1 461.368
3474 0 74.1637 11.542 856 121.058 186.386 459.725
3475 0 73.0941 11.1911 818 116.297 186.207 457.428
3476 1 37.0671 10.6024 393 118.781 186.137 476.504
3477 0 40.0428 10.5387 422 111.917 186.64 475.614
3478 0 43.033 10.9916 473 132.106 187.108 475.797
3479 0 41.054 11.5701 475 131.097 185.834 474.455
3480 0 43.1102 11.2966 487 138.316 186.429 474.084
3481 0 43.1102 11.2966 487 150.706 187.429 474.084
3482 0 45.1112 11.3054 510 127.733 186.124 472.714
3483 0 48.0862 11.2506 541 127.336 186.466 472.734
3484 0 50.2161 11.1916 562 130.226 186.911 472.249
3485 0 51.1102 11.4263 584 134.156 186.983 471.596
3486 0 52.1664 11.4058 595 136.553 187.351 470.901
3487 0 54.175 11.0198 597 132.742 187.687 470.697
3488 0 56.1457 11.6661 655 132.634 187.426 467.844
3489 0 57.1754 11.8757 679 133.694 187.703 467.679
3490 0 58.1817 11.5157 670 130.479 186.799 466.061
3491 0 61.2285 11.4979 704 129.342 187.622 465.2
3492 0 62.1635 11.7111 728 134.349 187.699 464.511
3493 0 63.1545 11.6856 738 126.275 188.542 464.102
3494 0 66.2381 11.6096 769 129.762 188.606 461.969
3495 0 68.1041 11.5558 787 125.36 188.282 460.637
3496 0 70.0931 11.4562 803 106.783 188.844 459.115
3497 0 73.1009 11.9834 876 120.272 188.831 459.457
3498 0 74.1756 12.1603 902 132.211 188.875 457.399
3499 1 40.0694 10.1574 407 134.489 189.924 474.231
3500 0 41.0744 10.274 422 122.282 190.275 473.803
3501 0 42.0398 10.4663 440 135.075 190.145 473.239
3502 0 43.04 11.3848 490 134.384 189.737 472.712
3503 0 45.1023 11.3076 510 133.69 190.092 472.88
3504 0 47.0702 11.4935 541 124.835 190.691 471.464
3505 0 47.1013 11.6133 547 124.744 190.676 470.881
3506 0 48.0531 11.5081 553 123.926 189.425 468.826
3507 0 49.0852 11.7143 575 124.819 189.496 469.661
3508 0 51.1199 11.209 573 123.271 189.314 469.651
3509 0 51.0746 12.1195 619 123.561 189.436 468.412
3510 0 56.1807 11.2672 633 120.436 189.714 468.103
3511 0 56.0876 12.4448 698 108.84 189.772 466.771
3512 0 57.178 11.9801 685 107.758 189.314 465.358
3513 0 58.0656 11.7453 682 110.155 189.657 465.499
3514 0 59.109 11.9102 704 104.44 189.801 464.926
3515 0 62.1274 12.2651 762 104.033 190.392 463.819
3516 0 63.1328 12.7826 807 101.123 189.244 462.322
3517 0 66.1281 12.627 835 120.674 189.795 461.771
3518 0 68.0807 12.8818 877 115.656 189.416 460.341
3519 0 71.1321 12.8072 911 116.113 189.794 458.977
3520 0 71.1588 12.2543 872 113.787 189.665 458.405
3521 0 74.0916 12.525 928 112.1 189.349 458.208
3522 0 77.169 12.8031 988 109.487 189.995 456.94
3523 0 79.1031 12.7302 1007 118.372 190.015 455.374
3524 0 79.1031 12.7302 1007 155.952 191.015 455.374
3525 1 43.1331 10.6415 459 114.438 189.251 474.24
3526 0 44.128 11.6706 515 116.043 189.406 472.979
3527 0 46.0437 11.3153 521 112.731 188.908 472.296
3528 0 47.0749 12.3208 580 120.909 189.51 470.655
3529 0 47.0769 11.7255 552 133.748 189.237 470.442
3530 0 50.1511 11.7844 591 127.164 189.648 470.36
3531 0 50.1857 12.2346 614 129.94 189.05 469.814
3532 0 52.1839 11.9577 624 130.362 189.753 469.793
3533 0 53.1467 12.1739 647 132.513 189.567 469.773
3534 0 54.1802 12.1631 659 128.809 188.91 468.219
3535 0 55.2001 12.1014 668 129.729 188.774 468.139
3536 0 58.084 11.8621 689 127.334 188.583 466.565
3537 0 59.0911 12.523 740 134.188 188.4 466.312
3538 0 60.1886 12.8928 776 130.269 188.351 465.336
3539 0 63.103 12.3608 780 124.335 188.059 464.085
3540 0 66.1141 12.4633 824 133.2 188.407 463.614
3541 0 67.1464 12.778 858 128.495 188.438 462.548
3542 0 67.2491 12.3124 828 114.675 188.571 460.626
3543 0 70.1535 12.715 892 113.763 188.328 460.99
3544 0 72.1133 12.7022 916 121.826 188.416 460.184
3545 0 75.149 12.3222 926 120.812 188.282 458.837
3546 0 78.2575 12.6889 993 116.962 187.46 456.347
3547 0 78.2735 12.6096 987 119.208 187.922 456.782
3548 0 81.262 12.712 1033 121.063 187.732 455.631
3549 0 85.2125 12.5686 1071 111.937 188.312 455.043
3550 0 85.2327 12.3896 1056 116.342 187.738 453.389
3551 0 90.1414 12.6357 1139 124.734 187.942 452.188
3552 0 91.3698 12.5205 1144 129.525 187.96 451.212
3553 0 94.2401 12.6061 1188 131.46 186.865 449.009
3554 0 98.2679 12.7712 1255 129.747 187.044 447.694
3555 1 53.2029 11.334 603 119.857 187.469 470.655
3556 0 54.2093 11.8245 641 126.017 187.598 470.19
3557 0 56.0957 11.7656 660 121.668 187.488 469.403
3558 0 57.2156 12.0072 687 125.936 187.445 468.467
3559 0 59.1341 11.7191 693 124.335 187.395 468.276
3560 0 62.138 11.6515 724 124.119 187.649 467.396
3561 0 62.1715 11.7256 729 127.222 187.56 466.021
3562 0 65.1963 11.7645 767 123.906 187.785 465.441
3563 0 66.2215 11.6125 769 127.702 187.827 464.194
3564 0 70.1685 11.3584 797 121.725 187.915 464.051
3565 0 72.2271 11.4777 829 130.929 187.861 462.79
3566 0 75.2638 11.5726 871 127.604 187.525 461.435
3567 0 77.3456 12.3213 953 127.568 187.53 458.974
3568 0 79.2899 11.994 951 132.562 186.971 458.614
3569 1 43.0921 10.9765 473 132.92 187.945 477.309
3570 0 45.1327 11.5659 522 135.663 187.741 476.109
3571 0 45.193 11.9266 539 138.167 187.816 474.946
3572 0 46.0988 12.4298 573 129.913 187.606 473.921
3573 0 49.153 11.3726 559 124.476 187.694 473.403
3574 0 51.1341 11.6165 594 135.847 187.056 472.912
3575 0 51.1341 11.6165 594 156.912 187.056 472.912
3576 0 54.1184 12.0846 654 129.402 186.801 469.599
3577 0 54.1768 11.7947 639 133.524 187.394 470.086
3578 0 56.2825 12.1174 682 127.375 187.065 468.905
3579 0 57.1739 12.2259 699 129.734 187.236 467.255
3580 0 60.2194 12.0393 725 126.346 187.479 466.666
3581 0 61.1386 12.3653 756 130.103 187.571 465.557
3582 0 64.1622 12.2034 783 128.199 187.448 464.166
3583 0 65.2257 12.4338 811 142.386 187.381 462.991
3584 0 66.2412 12.998 861 149.798 187.063 461.487
3585 0 69.3129 12.5229 868 147.132 187.477 459.881
3586 0 73.2113 12.4025 908 150.937 187.66 460.272
3587 0 73.2483 12.601 923 132.352 187.634 459.023
3588 0 77.4776 12.5068 969 129.206 187.956 457.313
3589 1 43.2306 11.2652 487 137.528 187.749 473.961
3590 0 42.4375 12.0177 510 135.225 188.357 472.408
3591 0 44.3217 11.5745 513 130.864 188.489 471.971
3592 0 47.3141 11.9203 564 132.934 188.504 471.179
3593 0 47.5207 12.2473 582 135.134 189.132 469.433
3594 0 49.3328 12.4866 616 131.08 189.119 469.969
3595 0 51.2934 12.0873 620 130.829 189.331 468.416
3596 0 52.3119 12.4637 652 132.853 189.302 467.922
3597 0 54.3768 12.726 692 131.354 189.382 466.991
3598 0 55.3297 12.2719 679 151.577 189.479 466.719
3599 0 56.3576 12.6514 713 145.827 189.128 466.045
3600 0 58.2841 12.5592 732 150.228 188.933 464.318
3601 0 61.308 12.6574 776 138.314 188.945 463.656
3602 0 60.071 13.2011 793 142.485 189.329 462.718
3603 0 61.0541 13.0704 798 137.807 189.569 462.129
3604 0 63.0943 12.9489 817 133.19 189.734 461.777
3605 0 68.0812 12.7642 869 133.766 189.96 460.099
3606 0 69.138 12.9596 896 127.791 191.299 458.453
3607 0 72.1217 12.4235 896 126.989 191.711 456.843
3608 0 75.1432 12.8555 966 117.476 191.535 456.265
3609 0 77.1036 12.4897 963 115.845 191.022 455.051
3610 0 80.2473 12.8852 1034 110.797 190.888 453.523
3611 0 84.2892 12.9435 1091 116.75 190.608 452.912
3612 1 49.2341 12.532 617 128.194 190.809 468.958
3613 0 50.0718 12.9414 648 128.591 190.48 467.767
3614 0 53.1168 12.689 674 130.249 190.623 467.028
3615 0 52.2082 12.8715 672 123.153 190.11 466.795
3616 0 56.1526 12.7154 714 114.765 189.941 466.167
3617 0 57.1581 13.1215 750 112.321 190.141 464.64
3618 0 59.1702 12.4387 736 121.952 189.473 463.654
3619 0 62.16 12.8861 801 117.032 190.32 462.662
3620 0 64.1908 12.7121 816 114.009 189.581 461.533
3621 0 65.1031 12.9487 843 119.044 189.434 460.493
3622 0 66.1908 12.887 853 121.526 190.358 459.855
3623 0 69.1202 13.0931 905 122.053 190.341 458.424
3624 0 73.1893 12.9937 951 117.633 190.748 458.097
3625 0 75.2093 12.8973 970 126.495 190.201 457.093
3626 0 79.0988 12.9079 1021 124.802 190.641 454.674
3627 0 80.1852 13.4189 1076 126.804 190.085 452.637
3628 0 84.1392 13.24 1114 121.271 189.758 453.024
3629 0 88.1888 13.2103 1165 123.627 189.76 451.897
3630 0 90.2196 13.323 1202 122.177 189.557 448.798
3631 0 93.2942 13.2055 1232 117.673 189.333 447.701
3632 0 97.3404 13.1292 1278 126.186 189.312 446.358
3633 0 100.439 13.3714 1343 119.119 189.622 445.281
3634 0 103.359 13.2064 1365 114.363 189.424 443.415
3635 0 106.517 13.35 1422 117.268 189.039 441.321
3636 0 111.407 12.9794 1446 123.017 189.588 439.586
3637 1 56.1551 12.323 692 121.793 189.095 465.831
3638 0 59.2112 12.0416 713 119.02 189.383 465.02
3639 0 60.3317 12.4313 750 117.833 189.169 464.103
3640 0 61.144 12.6586 774 135.141 189.138 462.92
3641 0 62.1919 12.6061 784 130.773 188.834 462.955
3642 0 62.1919 12.6061 784 174.561 188.834 462.955
3643 0 67.2516 12.6986 854 124.936 188.872 461.041
3644 0 70.3585 12.5216 881 121.351 188.642 460.969
3645 0 71.3132 12.985 926 122.747 188.879 459.416
3646 0 73.3049 12.755 935 121.939 188.533 458.891
3647 0 76.2426 12.8012 976 118.219 188.719 457.38
3648 0 79.4209 12.289 976 117.066 188.331 455.509
3649 0 81.3124 12.6549 1029 117.479 188.218 454.768
3650 0 84.3622 12.8731 1086 130.154 188.548 453.4
3651 0 87.4448 12.7395 1114 132.9 188.694 451.56
3652 0 90.4199 12.7737 1155 140.902 189.33 450.437
3653 0 93.3627 12.9281 1207 132.223 189.196 450.189
3654 0 97.5122 12.3882 1208 136.208 189.137 448.031
3655 0 100.477 12.6795 1274 135.631 189.203 446.363
3656 1 51.2846 11.212 575 133.856 188.301 470.605
3657 0 53.1554 11.7956 627 142.558 188.845 470.766
3658 0 54.1337 11.9519 647 139.917 188.326 469.386
3659 0 56.1852 12.1918 685 136.654 187.813 467.647
3660 0 58.3438 12.2721 716 135.617 187.929 466.976
3661 0 58.2025 12.7142 740 139.951 187.723 465.299
3662 0 60.2511 12.5807 758 140.653 187.891 465.033
3663 0 62.2131 12.5697 782 138.137 187.734 463.983
3664 0 65.226 12.6177 823 137.774 187.515 462.465
3665 0 63.2622 12.9935 822 132.465 187.811 461.337
3666 0 68.3615 12.6533 865 125.496 187.736 460.753
3667 0 69.2074 12.5998 872 122.013 187.534 460.071
3668 0 72.225 12.6549 914 115.689 187.885 458.62
3669 0 74.3466 12.9932 966 121.348 187.918 458.034
3670 0 76.1808 12.746 971 148.628 188.828 456.919
3671 0 77.4492 12.7955 991 151.022 188.596 456.18
3672 0 81.6389 12.9105 1054 146.025 188.095 454.644
3673 0 82.5619 12.851 1061 140.316 188.644 454.026
3674 0 85.6438 13.1008 1122 147.53 187.542 452.452
3675 0 88.3968 12.7606 1128 149.873 187.447 451.113
3676 0 91.4177 12.7984 1170 145.392 188.136 449.698
3677 1 49.2361 10.2567 505 147.313 188.43 470.394
3678 0 51.2389 10.3242 529 147.174 188.548 469.117
3679 0 50.1169 11.0741 555 139.339 188.467 467.838
3680 0 54.0765 10.9105 590 144.453 188.403 466.822
3681 0 53.127 11.896 632 132.679 188.421 464.497
3682 0 56.2152 12.4344 699 144.581 188.299 465.333
3683 0 57.0736 12.4751 712 135.298 188.468 464.643
3684 0 60.1439 12.3205 741 141.811 188.093 464.034
3685 0 62.0523 12.006 745 136.889 188.439 463.223
3686 0 63.2053 12.7046 803 137.031 188.714 462.036
3687 0 67.206 12.6477 850 138.518 188.582 459.696
3688 0 66.099 12.1484 803 139.436 188.773 459.74
3689 0 68.223 12.6057 860 143.006 189.205 457.181
3690 0 73.1683 12.3961 907 144.38 188.561 456.969
3691 0 76.1235 12.6899 966 140.317 188.522 455.564
3692 0 79.2029 12.8278 1016 141.853 188.451 453.298
3693 0 79.1852 13.1338 1040 141.029 188.578 452.277
3694 0 83.2028 12.5116 1041 143.09 189.06 450.953
3695 0 86.2927 12.7241 1098 142.662 189.024 450.081
3696 1 45.1277 11.5007 519 142.815 190.38 470.16
3697 0 46.0864 10.5888 488 136.346 190.098 468.326
3698 0 48.0937 10.9786 528 138.284 189.472 468.559
3699 0 49.1338 11.4585 563 134.096 190.334 468.366
3700 0 50.0953 10.8194 542 131.638 190.517 466.631
3701 0 51.0391 10.6585 544 133.868 190.213 465.491
3702 0 51.0876 11.0203 563 129.243 190.456 465.892
3703 0 53.0841 11.2086 595 132.884 190.516 464.425
3704 0 56.1605 11.5206 647 131.59 190.654 462.51
3705 0 57.1064 11.4523 654 131.194 190.751 461.82
3706 0 59.1674 10.9182 646 133.915 190.387 462.667
3707 0 62.2102 11.5576 719 128.051 190.051 460.285
3708 0 62.1913 11.4164 710 129.808 190.315 459.534
3709 0 65.3313 11.7402 767 126.628 190.495 459.228
3710 0 66.1675 11.8336 783 122.716 190.577 457.607
3711 0 68.1101 12.1274 826 130.006 191.036 456.747
3712 0 71.1348 11.9773 852 126.816 190.871 455.995
3713 0 73.1438 11.6346 851 127.391 190.932 455.459
3714 0 76.3003 11.6251 887 127.36 190.944 453.948
3715 0 78.3575 11.9197 934 125.91 190.835 453.668
3716 0 81.2391 11.5092 935 132.487 191.099 451.395
3717 0 83.283 12.1874 1015 129.737 191.154 450.478
3718 0 86.1879 12.2407 1055 134.925 191.603 447.639
3719 1 48.0978 10.25 493 134.523 192.061 467.44
3720 0 48.144 10.4478 503 132.201 191.712 466.078
3721 0 51.1773 10.2584 525 131.177 191.244 465.406
3722 0 53.2146 11.2187 597 128.189 191.384 464.978
3723 0 54.0663 11.1345 602 127.457 192.397 464.397
3724 0 57.0728 11.5817 661 126.014 192.244 462.952
3725 0 58.1595 11.5888 674 130.451 192.098 462.785
3726 0 60.1282 11.4755 690 133.542 191.658 460.917
3727 0 61.1677 11.9017 728 132.254 191.808 460.316
3728 0 64.1028 11.5128 738 137.339 191.985 459.463
3729 0 65.1408 11.928 777 134.87 191.792 459.084
3730 0 67.1081 11.8019 792 137.078 191.824 458.02
3731 0 68.1335 12.0645 822 134.931 191.197 457.502
3732 0 71.1516 12.2977 875 140.016 191.033 456.623
3733 0 72.1822 12.5516 906 141.332 190.791 454.141
3734 0 75.1819 12.1705 915 139.122 190.948 453.836
3735 0 76.2714 12.4555 950 138.738 190.784 452.248
3736 0 79.2592 12.4023 983 144.042 190.213 452.852
3737 0 81.2254 12.336 1002 136.499 190.11 451.008
3738 0 84.2558 12.8893 1086 141.676 190.058 449.09
3739 0 86.3136 12.4778 1077 147.932 190.015 449.662
3740 0 89.3742 12.7665 1141 146.434 189.341 446.81
3741 0 91.3894 12.9555 1184 130.461 189.188 446.199
3742 0 93.3444 13.0485 1218 137.039 189.68 445.861
3743 0 98.3956 12.8563 1265 143.415 189.188 444.873
3744 1 53.0805 10.8326 575 141.55 189.732 467.04
3745 0 56.0604 10.8811 610 140.675 189.516 466.413
3746 0 56.1088 11.4955 645 142.113 189.016 465.253
3747 0 58.0659 11.6764 678 139.504 188.965 464.336
3748 0 60.0809 11.4346 687 140.993 189.067 465.182
3749 0 61.1172 12.0752 738 139.32 188.622 464.199
3750 0 62.1145 12.1228 753 139.481 188.668 463.77
3751 0 62.0704 12.1475 754 142.265 188.914 462.739
3752 0 65.1041 12.288 800 133.914 188.749 462.396
3753 0 67.1303 12.1257 814 140.229 188.959 461.377
3754 0 69.1252 12.3544 854 141.434 188.664 460.427
3755 0 70.1445 12.5455 880 140.253 188.506 459.927
3756 0 74.2015 12.5469 931 135.129 188.237 458.97
3757 0 75.1786 12.5834 946 135.532 188.142 457.947
3758 0 77.1004 12.7756 985 136.742 188.111 456.008
3759 0 79.1384 12.7498 1009 139.122 187.863 455.223
3760 0 81.1415 12.9034 1047 136.293 187.791 453.407
3761 0 85.2272 12.9771 1106 135.478 188.246 452.619
3762 0 88.3154 12.7611 1127 135.964 188.673 451.013
3763 0 91.2962 12.7935 1168 142.047 188.854 450.066
3764 0 91.3691 13.0241 1190 142.182 188.576 449.38
3765 0 96.3326 12.6956 1223 134.095 188.688 447.891
3766 0 99.4898 12.5742 1251 146.474 189.012 446.43
3767 1 55.1304 10.9558 604 144.142 189.409 467.836
3768 0 56.14 11.9344 670 142.042 187.697 466.616
3769 0 59.0855 11.9149 704 138.312 187.315 466.324
3770 0 59.072 12.5271 740 140.691 188.514 466.514
3771 0 62.2139 12.4249 773 140.617 188.176 465.159
3772 0 64.1788 12.4963 802 140.266 187.621 464.162
3773 0 66.1704 12.226 809 141.917 187.398 463.335
3774 0 68.2301 12.4579 850 146.771 186.954 463.413
3775 0 71.1092 12.8394 913 139.786 187.624 461.225
3776 0 72.2778 12.5903 910 150.908 187.511 460.827
3777 0 74.3996 12.9571 964 150.665 187.535 459.457
3778 0 76.3046 12.9088 985 146.346 187.69 458.468
3779 0 78.2604 12.8929 1009 146.953 188.08 457.315
3780 0 82.4372 13.0645 1077 144.571 187.788 455.966
3781 0 87.3881 12.6676 1107 148.431 187.418 454.336
3782 0 90.3509 12.7835 1155 146.925 187.202 452.508
3783 0 92.2804 12.8955 1190 141.463 186.418 450.934
3784 1 50.1 11.4172 572 140.696 186.365 471.374
3785 0 52.0799 12.116 631 147.645 185.824 470.344
3786 0 53.0337 12.1809 646 139.336 186.961 469.929
3787 0 55.0747 12.1834 671 139.209 186.942 469.765
3788 0 57.1021 12.0836 690 140.232 187.314 469.158
3789 0 57.0919 12.7163 726 140.083 186.73 468.085
3790 0 60.0978 12.1136 728 139.548 186.578 467.071
3791 0 60.0951 12.9628 779 138.436 186.244 466.44
3792 0 64.1196 12.3831 794 138.666 186.096 465.445
3793 0 65.1069 12.61 821 138.076 186.292 464.339
3794 0 67.1415 12.5705 844 130.006 185.594 463.222
3795 0 68.1118 12.7584 869 136.281 185.869 462.422
3796 0 71.2897 12.849 916 133.669 186.111 460.964
3797 0 74.2696 12.8989 958 131.227 186.102 459.046
3798 0 74.3342 13.3855 995 129.959 186.275 457.707
3799 0 75.352 13.6161 1026 135.02 186.818 455.964
3800 0 80.4607 13.2736 1068 128.142 186.916 455.949
3801 0 82.3723 13.3783 1102 128.502 186.867 454.21
3802 0 82.2671 13.675 1125 132.268 186.916 453.42
3803 0 84.4656 13.8044 1166 129.625 187.275 452.191
3804 0 88.4293 13.9207 1231 130.153 187.437 450.747
3805 0 93.3985 13.7475 1284 130.286 187.322 449.062
3806 0 96.5063 13.6364 1316 124.435 187.102 446.711
3807 0 99.4861 13.62 1355 123.79 186.881 444.554
3808 0 101.446 13.4358 1363 136.849 186.94 443.529
3809 0 105.386 13.74 1448 129.227 186.592 440.823
3810 0 109.361 13.652 1493 133.265 187.565 439.898
3811 1 60.3063 11.3255 683 136.347 187.859 463.612
3812 0 63.3145 11.5613 732 129.205 187.564 463.372
3813 0 66.2502 12.0754 800 131.429 187.894 461.552
3814 0 65.2424 12.2926 802 131.055 187.657 460.623
3815 0 69.2025 12.3695 856 131.322 188.673 459.251
3816 0 71.2859 12.513 892 128.885 188.251 457.946
3817 0 73.273 12.5694 921 126.595 188.035 456.342
3818 0 77.2252 12.0815 933 130.581 188.042 454.479
3819 0 78.28 12.4936 978 136.501 187.971 454.262
3820 0 83.2427 12.6257 1051 137.633 188.287 452.181
3821 0 84.3023 12.7043 1071 133.911 188.937 451.833
3822 0 88.1851 12.7232 1122 131.021 188.658 448.701
3823 0 91.2743 12.7966 1168 138.924 188.412 447.018
3824 0 95.3244 12.6515 1206 139.633 188.669 445.652
3825 0 98.4437 12.9719 1277 138.448 188.98 443.141
3826 0 102.417 13.0251 1334 141.238 188.828 441.001
3827 0 105.526 12.8878 1360 139.099 189.104 439.53
3828 0 109.471 12.5787 1377 144.122 189.076 438.547
3829 1 59.1803 11.2706 667 132.465 189.787 463.514
3830 0 60.0844 11.8666 713 129.689 189.986 463.146
3831 0 63.1601 11.2888 713 139.011 189.734 462.778
3832 0 65.2692 11.5981 757 139.589 189.812 461.106
3833 0 66.2433 11.5483 765 138.665 189.895 459.723
3834 0 67.1587 12.0312 808 141.02 189.715 459.736
3835 0 69.2137 11.674 808 138.825 190.182 458.287
3836 0 73.2702 11.9694 877 143.722 189.551 456.046
3837 0 75.2466 12.1202 912 142.745 189.48 453.938
3838 0 78.158 12.0269 940 149.922 189.877 453.781
3839 0 78.1291 12.6201 986 146.816 190.043 452.18
3840 0 83.2171 12.2451 1019 148.647 190.22 450.328
3841 0 84.1881 12.4483 1048 151.327 190.739 449.272
3842 0 88.2891 12.2552 1082 149.982 190.796 447.75
3843 0 89.1942 12.7362 1136 146.325 190.843 445.711
3844 0 93.3893 12.4532 1163 153.701 190.648 443.942
3845 0 96.2374 12.8225 1234 152.842 190.954 442.967
3846 0 100.346 12.2576 1230 155.374 190.626 440.98
3847 1 58.0711 10.9865 638 150.991 192.055 462.243
3848 0 61.1519 11.0871 678 146.22 191.437 461.025
3849 0 61.1519 11.0871 678 161.572 190.437 461.025
3850 0 63.1591 11.9381 754 145.084 191.698 459.759
3851 0 67.1754 11.6412 782 143.395 191.412 458.821
3852 0 66.2882 12.1288 804 143.633 190.993 456.646
3853 0 70.1502 11.9173 836 146.958 190.403 456.094
3854 0 73.3596 11.5186 845 151.942 190.356 455.129
3855 0 74.2159 11.9112 884 150.305 190.607 453.778
3856 0 78.2299 11.7602 920 143.24 191.343 453.799
3857 0 78.2583 12.2543 959 142.677 191.03 451.4
3858 0 82.1635 11.6962 961 144.493 190.88 450.094
3859 0 83.1973 11.9595 995 146.631 190.398 448.517
3860 0 86.2375 12.0945 1043 139.886 189.867 448.116
3861 0 90.2032 12.1171 1093 139.816 190.08 446.136
3862 0 92.2604 11.9986 1107 138.956 189.809 444.602
3863 0 96.2206 12.3466 1188 134.645 190.124 442.801
3864 0 99.2214 12.1647 1207 136.77 190.283 442.072
3865 0 102.285 12.0936 1237 138.16 190 440.001
3866 0 105.283 11.8252 1245 138.206 189.8 438.62
3867 0 109.218 12.2507 1338 132.01 189.625 437.375
3868 0 111.23 12.0921 1345 139.413 189.079 435.706
3869 0 114.242 12.0884 1381 135.14 189.264 433.752
3870 0 118.177 12.202 1442 145.764 189.148 432.933
3871 0 120.128 12.6282 1517 140.622 188.276 431.914
3872 0 124.173 12.6437 1570 138.815 188.056 430.008
3873 0 127.222 12.8044 1629 139.273 188.355 428.714
3874 0 132.16 12.6286 1669 137.816 188.397 425.8
3875 0 137.217 12.411 1703 140.756 189.039 423.965
3876 0 139.206 12.7581 1776 144.425 188.647 422.038
3877 0 145.18 12.7841 1856 134.904 189.382 419.537
3878 1 83.1478 10.4272 867 125.482 190.213 453.103
3879 0 85.0527 11.4282 972 129.949 189.533 451.051
3880 0 88.0981 11.8845 1047 129.373 189.474 448.503
3881 0 92.182 12.3234 1136 123.415 189.148 447.018
3882 0 94.2091 11.9946 1130 122.346 189.735 445.82
3883 0 98.1868 12.1911 1197 122.314 189.351 444.201
