index division length width area intensity CMx CMy
0 0 61.104 15.5636 951 145.597 861.261 243.517
1 0 64.1279 15.0636 966 152.202 861.277 242.585
2 0 65.0644 15.4155 1003 155.036 861.811 242.573
3 0 68.1197 15.37 1047 151.219 861.655 243.202
4 0 70.1107 15.4755 1085 153.67 860.672 242.742
5 0 74.2373 15.4774 1149 153.613 859.85 242.512
6 0 76.1134 15.6214 1189 155.872 859.484 242.114
7 0 79.1694 15.7005 1243 157.12 859.124 241.205
8 0 82.2041 15.7048 1291 154.208 859.921 242.035
9 0 83.1249 15.6391 1300 153.929 859.388 242.58
10 0 86.1164 17.3718 1496 143.715 859.65 241.427
11 0 89.1303 17.3678 1548 145.216 859.691 242.493
12 0 91.0976 17.4867 1593 152.274 860.454 242.793
13 0 95.1192 17.2625 1642 145.809 860.886 242.781
14 0 100.125 16.9987 1702 146.855 861.622 243.286
15 0 102.204 17.2009 1758 139.791 862.801 243.089
16 1 55.0427 13.8438 762 146.433 863.58 271.35
17 0 56.1093 14.7035 825 148.96 864.124 272.602
18 0 58.0327 14.13 820 146.97 865.235 275.226
19 0 58.0327 14.13 820 177.36 866.235 275.226
20 0 63.1226 14.2738 901 144.357 866.272 277.59
21 0 66.0644 14.607 965 140.665 867.187 278.465
22 0 68.0323 14.5519 990 140.992 867.105 281.152
23 0 70.0253 14.7804 1035 140.997 867.288 282.755
24 0 73.0933 14.5978 1067 143.526 867.847 284.025
25 0 75.0669 14.8534 1115 143.202 868.398 286.477
26 0 79.0612 14.6595 1159 135.759 868.42 288.287
27 0 81.1118 14.7944 1200 145.677 868.872 290.105
28 0 85.1437 14.5636 1240 146.295 869.045 292.269
29 0 85.1922 15.1305 1289 143.601 868.939 294.414
30 0 89.0871 15.0302 1339 144.372 869.264 295.59
31 0 93.0996 14.6832 1367 141.842 869.057 297.88
32 0 96.2333 14.6519 1410 141.766 868.752 299.963
33 0 99.1161 14.4981 1437 141.581 867.784 302.468
34 0 102.122 14.8645 1518 137.578 867.11 304.643
35 0 105.178 14.9651 1574 137.029 866.337 307.729
36 1 56.1016 12.5487 704 139.409 865.827 337.891
37 0 58.2241 12.8469 748 137.799 864.874 342.824
38 0 60.2947 13.5501 817 136.891 864.365 346.458
39 0 62.1887 13.6681 850 142.186 864.207 350.055
40 0 64.0854 13.7161 879 140.597 863.476 352.862
41 0 67.2777 13.1396 884 147.946 862.376 357.162
42 0 67.2646 13.7219 923 141.999 862.28 360.693
43 0 69.3721 13.9826 970 141.053 862.643 364.836
44 0 71.4343 13.6629 976 148.636 862.633 368.907
45 0 75.3006 13.6918 1031 141.046 862.528 373.17
46 0 77.2908 13.6886 1058 144.435 862.147 378.725
47 0 80.298 14.0477 1128 141.862 862.277 382.528
48 0 84.2687 13.4213 1131 143.414 861.608 388.164
49 0 86.3766 14.2979 1235 145.436 861.394 392.808
50 0 90.3141 13.7852 1245 139.76 861.21 397.102
51 0 94.3376 13.6213 1285 138.932 862.481 401.405
52 0 98.4286 13.7358 1352 137.771 862.348 406.027
53 0 101.311 13.5919 1377 134.788 862.529 409.99
54 1 50.1864 12.0152 603 137.473 862.171 441.517
55 0 52.3786 13.0588 684 133.681 862.14 445.466
56 0 62.2291 15.5554 968 113.019 862.139 460.378
57 0 71.5019 14.8947 1065 109.729 862.466 472.5
58 0 66.2631 15.6195 1035 114.811 862.674 474.999
59 0 66.2446 15.4126 1021 113.665 862.863 474.478
60 0 65.1402 13.7242 894 127.717 862.784 476.399
61 0 64.2528 12.8243 824 141.722 862.979 478.159
62 0 65.2311 13.0306 850 137.976 863.012 475.961
63 0 69.2171 12.9448 896 144.406 862.871 474.22
64 0 71.3043 12.9585 924 146.95 863.17 473.656
65 0 73.2831 12.9634 950 145.135 863.236 472.698
66 0 76.415 13.4659 1029 146.423 863.359 471.731
67 0 78.1883 13.2373 1035 140.371 863.287 470.503
68 0 81.4682 13.0726 1065 143.972 863.857 469.174
69 0 82.195 13.4315 1104 148.688 864.043 468.519
70 0 87.4226 13.3032 1163 147.003 863.974 466.705
71 0 90.2172 13.0796 1180 147.247 863.839 465.814
72 0 93.2479 12.9118 1204 147.483 863.796 464.543
73 1 49.0761 11.309 555 148.481 863.25 485.054
74 0 48.2045 11.4927 554 149.839 863.211 484.957
75 0 52.0786 11.5979 604 144.95 863.061 484.798
76 0 51.0877 12.1164 619 144.945 862.522 484.947
77 0 54.2004 12.4353 674 145.466 862.343 483.393
78 0 53.2817 12.5934 671 143.49 862.246 483.283
79 0 58.1747 12.2046 710 138.204 862.283 481.875
80 0 60.1561 12.6006 758 144.036 862.166 481.111
81 0 62.242 12.596 784 129.795 861.648 480.267
82 0 62.2063 12.3139 766 145.782 861.935 479.696
83 0 65.0742 12.2629 798 146.753 861.437 478.454
84 0 65.1194 12.6076 821 140.331 861.471 478.157
85 0 69.11 12.5886 870 146.32 861.563 477.091
86 0 71.1522 12.93 920 144.889 861.848 474.387
87 0 73.1196 13.0881 957 145.786 861.268 474.193
88 0 75.1369 12.3641 929 144.737 860.629 473.099
89 0 77.1886 12.6314 975 147.322 860.192 471.901
90 0 78.2001 12.9923 1016 147.479 860.603 470.255
91 0 80.0726 13.0881 1048 146.759 860.5 468.987
92 0 84.0591 13.324 1120 146.961 860.784 467.948
93 0 87.1882 13.0178 1135 149.292 861.108 466.933
94 0 89.175 13.6137 1214 146.51 861.743 465.356
95 0 93.1825 13.436 1252 146.69 861.751 464.407
96 0 96.1359 13.5641 1304 149.397 861.725 462.905
97 1 52.064 11.4666 597 152.052 862.293 484.521
98 0 54.0238 11.6986 632 148.384 862.259 483.361
99 0 57.0164 12.3122 702 143.208 861.927 482.635
100 0 56.0394 12.8838 722 141.424 862.776 482.443
101 0 60.0344 12.4762 749 147.162 863.467 481.65
102 0 61.1264 12.9077 789 140.587 862.76 482.019
103 0 61.09 13.0136 795 146.523 862.649 481.127
104 0 65.0427 13.1298 854 142.936 862.556 479.463
105 0 65.0422 13.2376 861 147.051 862.85 477.944
106 0 69.047 13.2663 916 140.828 862.711 476.893
107 0 71.1409 12.8759 916 141.825 861.483 476.648
108 0 72.133 13.4058 967 140.653 861.748 475.349
109 0 75.0607 13.3092 999 134.925 861.86 473.969
110 0 77.2716 13.0967 1012 144.774 862.487 471.233
111 0 81.1354 13.2741 1077 144.774 863.289 469.825
112 1 40.0984 10.4992 421 138.34 862.24 489.551
113 0 42.0965 10.856 457 145.551 861.932 488.475
114 0 43.1201 11.4332 493 150.047 861.507 489.134
115 0 46.0514 11.726 540 148.635 861.446 487.294
116 0 48.02 11.7451 564 148.454 862.098 486.046
117 0 48.0287 12.0553 579 139.066 862.459 486.235
118 0 49.0378 12.1539 596 137.289 862.574 485.678
119 0 52.0506 12.1805 634 142.585 862.454 485.83
120 0 53.1097 12.2388 650 134.354 861.843 484.297
121 0 54.1697 12.4608 675 136.15 862.874 483.834
122 0 57.0497 12.6206 720 136.226 863.062 482.826
123 0 55.0946 12.9051 711 132.648 862.788 481.387
124 0 58.0789 12.6208 733 129.449 862.587 481.171
125 0 60.0485 12.8063 769 128.941 863.445 479.993
126 0 61.0156 12.6525 772 137.67 863.475 477.93
127 0 63.0696 12.8112 808 127.866 862.741 477.371
128 0 64.1162 12.6801 813 129.149 863.54 475.235
129 0 65.1069 12.7329 829 133.162 863.264 475.568
130 0 70.224 12.2323 859 139.522 862.966 475.095
131 0 70.1356 12.7182 892 141.668 862.666 473.886
132 0 73.2409 12.8071 938 138.446 862.765 472.563
133 0 75.1958 12.647 951 140.404 862.816 471.211
134 1 40.048 10.2377 410 137.798 861.941 489.11
135 0 42.0369 10.4908 441 134.54 862.209 487.338
136 0 43.1255 10.5042 453 135.28 862.85 487.689
137 0 44.1511 11.0983 490 139.065 863.331 486.996
138 0 45.2914 10.9513 496 130.964 864.038 486.202
139 0 47.1114 11.1226 524 131.624 864.05 484.99
140 0 50.1956 11.3357 569 128.381 864.293 484.401
141 0 50.105 11.0169 552 128.098 864.554 484.043
142 0 51.1949 11.1534 571 125.489 864.981 483.173
143 0 52.1634 11.8474 618 132.618 864.574 481.464
144 0 55.1298 11.1918 617 123.204 864.99 481.366
145 0 56.1454 11.9867 673 131.331 865.667 479.979
146 0 57.0553 12.041 687 129.208 866.661 479.218
147 0 57.0839 12.0524 688 132.285 866.382 479.089
148 0 59.1027 11.9115 704 135.874 866.588 477.325
149 0 61.1259 12.2043 746 134.035 866.255 476.084
150 0 64.0867 12.1398 778 137.288 866.754 475.889
151 0 66.2115 12.5356 830 133.886 866.863 474.125
152 0 67.0782 12.1947 818 134.219 866.432 473.556
153 0 69.1717 12.6352 874 134.47 866.452 472.232
154 0 71.2277 12.8181 913 134.473 867.025 471.729
155 0 72.0753 12.5979 908 136.806 867.097 470.91
156 0 74.1574 12.8376 952 130.978 867.287 469.293
157 0 78.1135 12.4818 975 128.677 867.358 467.854
158 0 80.2236 13.0386 1046 133.957 867.33 466.176
159 0 83.2353 13.0473 1086 138.9 867.556 464.344
160 1 44.1535 10.4408 461 135.289 867.388 485.364
161 0 44.0776 11.0033 485 138.786 868.631 482.959
162 0 46.133 11.2501 519 136.969 868.509 481.84
163 0 47.0381 11.2462 529 129.323 868.594 481.629
164 0 48.0851 11.4173 549 140.055 868.958 482.741
165 0 48.0425 11.8021 567 138.709 869.153 481.654
166 0 47.0763 11.9168 561 135.016 869.308 479.538
167 0 50.0239 11.7344 587 144.738 868.918 479.191
168 0 52.0866 12.0376 627 142.949 869.595 478.678
169 0 53.1073 12.2959 653 144.773 869.417 478.132
170 0 55.0658 12.3125 678 144.538 868.95 476.658
171 0 57.1346 12.1118 692 149.789 869.027 475.514
172 0 59.1787 12.42 735 142.897 868.239 474.22
173 0 60.1733 12.4141 747 141.556 868.337 474.178
174 0 62.2173 12.0063 747 143.953 869.059 473.224
175 0 64.251 12.4823 802 142.216 869.61 471.727
176 0 65.1754 12.3513 805 142.412 869.35 470.791
177 0 69.0545 12.6711 875 134.99 869.082 469.49
178 0 71.2407 12.5771 896 142.718 869.031 467.842
179 0 73.248 12.2734 899 141.156 869.088 467.521
180 0 76.3102 12.1478 927 141.238 869.493 467.009
181 1 39.06 10.0871 394 132.109 869.878 485.533
182 0 40.0506 10.6365 426 135.744 869.486 483.054
183 0 41.0129 10.5089 431 125.014 869.675 482.571
184 0 44.1031 11.2237 495 135.659 869.562 480.99
185 0 44.049 11.2375 495 136.347 870.145 480.463
186 0 45.1205 11.6355 525 122.08 870.072 479.463
187 0 47.1014 11.4434 539 131.197 869.891 479.217
188 0 48.0376 11.8033 567 132.242 869.628 478.222
189 0 49.0601 11.8222 580 130.8 869.503 477.597
190 0 50.1582 12.4008 622 124.773 869.394 477.624
191 0 51.1044 12.269 627 126.802 869.316 477.378
192 0 52.0921 12.5547 654 127.142 869.511 476.144
193 0 55.2115 12.1895 673 130.493 869.657 475.516
194 0 56.1708 12.6756 712 125.914 869.208 475.388
195 0 58.1904 12.5107 728 129.394 869.371 474.82
196 0 59.0999 12.7919 756 131.349 869.111 472.829
197 0 61.0825 12.9333 790 131.832 868.927 471.349
198 0 64.123 12.554 805 131.807 868.852 470.675
199 0 66.107 13.2512 876 128.79 868.936 469.532
200 0 67.1257 12.7522 856 138.548 868.633 469.45
201 0 70.2624 12.311 865 138.231 868.517 467.832
202 0 71.1685 13.2081 940 140.3 868.569 466.79
203 0 74.1865 13.4661 999 138.303 868.418 465.917
204 0 77.0501 13.1733 1015 135.121 869.119 464.542
205 0 78.1255 13.1711 1029 138.527 869.509 463.151
206 0 82.2374 13.2908 1093 144.783 868.647 462.989
207 0 85.1999 13.3216 1135 142.359 869.135 462.093
208 0 88.1627 13.5658 1196 149.455 868.763 459.409
209 0 47.0557 11.8158 556 141.502 868.367 480.45
210 0 48.1545 12.3145 593 145.415 867.956 478.84
211 0 50.1353 12.187 611 142.966 868.452 478.851
212 0 51.0702 12.473 637 136.851 868.181 478.568
213 0 52.107 12.6471 659 146.973 868.3 477.668
214 0 54.1509 12.9638 702 151.017 867.862 477.756
215 0 55.1066 13.1745 726 153.409 867.8 477.083
216 0 56.0866 13.0512 732 150.495 867.512 476.514
217 0 61.1919 12.8612 787 152.069 867.316 474.135
218 0 63.0628 12.876 812 149.677 867.723 474.224
219 0 65.1317 12.7127 828 152.854 867.601 474.069
220 0 64.1959 13.8326 888 151.244 867.126 472.652
221 0 68.2887 13.15 898 153.854 867.131 471.611
222 0 71.2987 13.0858 933 151.267 867.056 470.239
223 0 73.1871 13.199 966 154.633 866.682 469.443
224 0 76.4584 13.3406 1020 156.598 866.535 467.859
225 0 78.4831 13.3532 1048 143.56 866.646 465.922
226 0 81.5268 13.0755 1066 154.175 866.763 465.209
227 0 84.2576 13.0433 1099 142.4 866.733 462.807
228 0 87.3956 13.2615 1159 137.915 866.726 462.525
229 1 46.1701 11.3493 524 141.565 866.941 483.044
230 0 48.0434 11.7186 563 143.279 868.078 482.433
231 0 51.0472 12.2044 623 145.953 867.913 481.467
232 0 52.0474 12.796 666 145.973 867.119 479.125
233 0 53.0921 12.337 655 91.5695 867.685 479.183
234 0 54.0562 13.005 703 143.969 867.945 477.935
235 0 57.0501 12.5153 714 144.461 867.619 477.81
236 0 57.0766 12.527 715 150.441 867.669 478.05
237 0 59.1219 12.2797 726 153.056 867.625 477.577
238 0 61.087 12.5231 765 149.001 867.613 475.856
239 0 62.0354 12.2672 761 150.447 867.068 475.325
240 0 65.0671 12.6024 820 149.312 866.798 473.81
241 0 67.0464 12.469 836 134.173 866.667 473.665
242 0 69.0989 12.8367 887 147.071 866.147 472.123
243 0 71.0764 12.1278 862 145.712 866.181 470.752
244 0 73.0898 12.2863 898 147.782 866.402 469.72
245 0 76.1647 12.5911 959 143.959 866.759 467.426
246 0 80.1623 12.2127 979 140.454 866.713 466.559
247 0 82.1576 11.9161 979 144.335 866.719 464.54
248 1 45.0468 10.7444 484 149.037 866.434 482.895
249 0 47.044 11.0322 519 142.245 866.073 482.888
250 0 48.1299 11.095 534 152.788 865.152 481.976
251 0 50.0536 11.5876 580 145.209 865.159 481.071
252 0 52.1328 11.7968 615 148.681 866.449 480.063
253 0 53.2069 11.4271 608 146.913 867.704 480.49
254 0 54.2276 11.5808 628 139.618 867.432 479.36
255 0 56.1192 11.2439 631 147.997 867.529 478.288
256 0 57.1071 12.6254 721 146.221 867.592 477.098
257 0 60.1773 11.7154 705 144.665 867.499 475.174
258 0 60.1869 12.0126 723 151.21 867.831 475.441
259 0 62.1726 12.417 772 148.132 867.973 473.671
260 0 65.2064 12.2994 802 150.852 868.516 472.512
261 0 66.2003 12.0392 797 144.394 868.376 471.872
262 0 70.1674 12.2422 859 153.959 868.65 470.846
263 0 71.1831 12.5732 895 154.82 869.664 470.177
264 0 73.1353 12.7298 931 151.894 869.584 469.076
265 0 76.1841 12.8242 977 159.318 869.26 467.833
266 0 76.1449 12.6863 966 154.314 869.982 467.216
267 0 80.1529 12.9502 1038 157.379 870.056 465.316
268 0 81.2801 12.7461 1036 155.74 869.533 464.064
269 0 85.257 12.8553 1096 154.888 869.777 462.124
270 0 87.1674 13.2274 1153 155.417 869.559 459.927
271 0 92.0713 12.8487 1183 155.642 870.781 459.01
272 0 95.1644 12.8409 1222 156.983 870.155 456.177
273 0 99.1664 12.8269 1272 152.263 870.611 455.91
274 0 101.294 12.7154 1288 162.078 869.922 453.805
275 0 106.326 12.6968 1350 162.61 870.268 451.501
276 1 56.1267 11.9373 670 162.387 869.652 476.273
277 0 58.0534 11.8339 687 160.734 869.771 475.348
278 0 59.1385 12.0903 715 165.828 870.078 475.473
279 0 59.1503 12.2738 726 164.686 870.733 475.387
280 0 60.2018 12.8734 775 170.138 871.316 473.743
281 0 63.1418 12.4482 786 165.795 870.989 471.975
282 0 65.1657 12.7828 833 160.215 870.078 469.902
283 0 66.2296 13.2569 878 165.408 870.188 468.782
284 0 69.1676 13.0119 900 166.571 869.808 468.264
285 0 72.0961 13.1769 950 165.352 870.198 467.627
286 0 75.2722 13.139 989 155.961 869.997 466.121
287 0 78.2902 13.0029 1018 168.732 869.948 464.246
288 0 80.206 13.2908 1066 159.888 870.078 462.954
289 0 82.2466 13.3379 1097 167.079 870.17 461.944
290 0 84.2124 13.3353 1123 164.377 869.836 460.694
291 0 86.2794 13.1781 1137 164.473 869.734 458.646
292 0 92.248 12.9 1190 169.836 869.837 457.5
293 0 94.5068 13.0996 1238 168.65 870.888 454.583
294 0 96.3272 13.3088 1282 165.915 870.524 452.79
295 1 49.1736 11.5509 568 162.183 870.701 473.195
296 0 53.1041 11.8258 628 164.484 870.691 473.481
297 0 53.4019 12.8834 688 164.331 869.391 475.23
298 0 56.056 12.4162 696 160.881 870.108 474.82
299 0 58.0949 12.7034 738 170.397 869.645 473.86
300 0 60.0209 12.7122 763 166.062 868.052 472.834
301 0 62.0391 13.0563 810 164.528 868.16 471.033
302 0 61.0819 13.6211 832 166.304 868.56 471.376
303 0 64.0261 13.557 868 166.23 868.224 469.831
304 0 65.0863 13.3054 866 164.897 867.919 469.143
305 0 69.1328 13.5247 935 165.439 868.375 467.63
306 0 72.1526 13.6932 988 167.435 868.128 466.831
307 0 72.2329 13.8718 1002 164.627 868.688 464.711
308 0 75.1076 13.8069 1037 166.144 868.647 464.495
309 0 77.1738 14.098 1088 164.619 868.119 462.887
310 0 77.1814 14.3947 1111 163.422 867.955 461.772
311 0 81.1828 14.2764 1159 159.447 867.868 460.603
312 0 84.1848 13.8267 1164 156.493 867.729 460.051
313 0 88.1465 14.3511 1265 156.632 868.04 458.883
314 0 91.11 13.8624 1263 160.542 868.583 456.799
315 0 93.3322 13.7145 1280 163.415 867.586 456.032
316 0 97.229 13.679 1330 152.562 867.426 455.286
317 0 98.0618 14.1849 1391 152.811 867.274 452.959
318 0 103.15 13.97 1441 154.23 867.336 451.282
319 1 53.0264 12.6541 671 149.234 866.861 475.139
320 0 55.1021 12.2863 677 154.936 867.066 476.23
321 0 57.0902 12.8744 735 157.859 867.141 474.669
322 0 58.1405 13.0546 759 159.544 867.146 475.158
323 0 60.1818 12.645 761 158.206 867.566 474.222
324 0 61.1351 13.0694 799 162.907 867.39 473.576
325 0 64.0815 13.1239 841 163.411 866.96 471.587
326 0 64.0842 13.139 842 158.476 867.242 471.558
327 0 66.0954 13.0569 863 163.956 867.282 469.838
328 0 68.0924 13.8929 946 160.032 867.171 467.669
329 0 73.1625 13.2855 972 154.774 866.901 467.08
330 0 76.1335 13.4895 1027 154.108 866.843 466.474
331 0 77.0291 13.2547 1021 167.683 866.534 464.982
332 0 77.0977 13.7618 1061 158.907 866.33 464.116
333 0 80.0797 13.6364 1092 163.126 866.573 462.451
334 0 85.1047 13.3718 1138 157 867.123 461.209
335 0 85.1249 14.0147 1193 156.496 867.09 460.185
336 0 92.3429 13.2333 1222 155.44 867.016 458.57
337 1 48.0997 11.289 543 156.604 866.923 480.998
338 0 50.0407 12.1301 607 154.189 866.951 479.633
339 0 51.077 12.5497 641 153.126 867.381 479.615
340 0 52.1172 12.5678 655 147.279 867.102 478.173
341 0 54.0742 12.7048 687 145.095 867.77 477.237
342 0 57.1235 12.9194 738 150.111 867.675 476.007
343 0 59.0597 12.8345 758 158.968 867.165 475.467
344 0 60.1143 12.9254 777 150.51 866.432 474.669
345 0 62.0945 12.8031 795 155.996 866.035 474.483
346 0 64.1428 12.7684 819 156.306 865.934 473.314
347 0 66.1032 12.9948 859 154.419 866.447 472.04
348 0 68.1743 12.8934 879 155.125 866.093 471.7
349 0 70.2231 12.7878 898 153.313 866.557 470.21
350 0 73.1491 12.6454 925 154.882 866.09 469.311
351 0 75.3519 12.7535 961 146.157 866.343 468.433
352 0 78.2679 12.8916 1009 154.346 866.36 466.629
353 0 82.3127 13.2908 1094 153.814 866.338 465.481
354 0 82.336 13.2749 1093 153.044 866.424 464.016
355 0 87.3148 12.9302 1129 158.473 866.352 461.914
356 0 90.4523 12.7692 1155 148.022 865.99 461.233
357 0 93.2406 12.9557 1208 157.108 866.308 459.438
358 0 95.4582 12.9481 1236 156.421 866.803 457.924
359 1 49.0925 11.733 576 149.745 866.438 481.561
360 0 50.179 11.9173 598 150.405 866.344 481.045
361 0 50.0899 12.2979 616 146.812 867.221 480.492
362 0 53.0819 12.7162 675 143.169 867.213 479.019
363 0 52.0482 12.5269 652 150.075 866.256 479.532
364 0 55.0611 12.5497 691 148.54 866.302 478.851
365 0 57.045 12.8846 735 147.276 866.8 478.127
366 0 58.1701 12.7213 740 151.915 866.726 476.012
367 0 62.1082 12.5909 782 142.935 866.477 475.731
368 0 62.1606 13.1595 818 147.672 866.703 474.698
369 0 63.2247 13.1278 830 144.59 866.167 473.586
370 0 67.1785 13.2483 890 146.154 867.044 472.174
371 0 68.182 13.1413 896 146.887 867.472 470.68
372 0 71.1618 13.3358 949 146.378 867.281 470.259
373 0 72.3625 13.4324 972 144.706 867.832 468.556
374 0 76.2105 13.3577 1018 146.759 868.257 467.658
375 0 76.2527 13.311 1015 149.032 867.519 466.241
376 0 80.1584 12.8246 1028 143.556 868.175 465.515
377 0 83.2832 12.9318 1077 143.798 867.869 464.168
378 0 86.2011 13.0393 1124 148.192 868.371 463.417
379 0 89.1901 13.118 1170 150.241 868.127 460.852
380 0 93.2017 12.9182 1204 142.385 868.38 459.366
381 0 95.1496 13.0111 1238 153.555 869.006 457.428
382 0 98.2664 13.4634 1323 146.27 868.791 455.082
383 0 102.272 13.1708 1347 139.774 869.022 454.036
384 0 104.382 13.7667 1437 144.181 868.585 452.414
385 1 56.1978 11.4595 644 150.194 869.07 476.84
386 0 57.2086 11.8514 678 152.335 869.164 476.004
387 0 60.1515 12.3023 740 141.896 868.182 474.386
388 0 62.1393 12.134 754 139.598 868.748 473.711
389 0 65.1484 12.5559 818 145.561 868.188 472.554
390 0 66.0833 12.1059 800 144.66 868.831 472.614
391 0 67.2231 12.5106 841 146.73 868.698 472.229
392 0 70.1162 12.6362 886 148.432 868.123 470.703
393 0 73.4159 12.3406 906 148.765 867.528 468.414
394 0 75.2151 13.0293 980 147.505 868.727 467.132
395 0 76.2991 12.9097 985 148.97 869.191 466.138
396 0 80.2021 12.5558 1007 147.858 869.268 464.638
397 0 84.3812 12.7517 1076 148.783 869.705 462.82
398 0 87.2838 12.9004 1126 147.368 869.614 460.34
399 0 90.1478 12.8678 1160 142.72 869.265 458.936
400 1 45.1152 10.8389 489 139.55 870.546 481.333
401 0 48.093 10.9164 525 138.939 870.299 481.143
402 0 49.1549 11.2908 555 141.159 869.762 479.827
403 0 49.0596 11.9447 586 141.258 869.411 479.031
404 0 53.1322 11.7255 623 141.953 869.003 477.666
405 0 54.0759 12.2236 661 139.073 869.236 476.626
406 0 55.0882 12.3438 680 144.312 867.944 477.441
407 0 57.0859 12.1221 692 146.538 868.289 476.345
408 0 58.0849 12.6883 737 142.315 867.973 474.959
409 0 61.0326 12.1411 741 138.757 868.883 474.669
410 0 62.0823 12.4673 774 145.895 869.001 473.506
411 0 62.0909 12.4495 773 144.076 867.144 472.087
412 0 65.0557 12.374 805 145.839 867.443 471.246
413 0 66.0767 12.7125 840 146.148 868.267 471.258
414 0 69.0781 12.7826 883 151.444 867.734 470.446
415 0 70.169 12.7692 896 148.698 868.237 469.518
416 0 73.1323 12.6893 928 147.54 867.738 468.333
417 0 74.1714 12.9969 964 148.674 867.811 467.636
418 0 76.2679 13.0592 996 148.452 868.047 466.87
419 0 78.2967 13.27 1039 150.242 867.709 465.131
420 0 80.2705 12.9313 1038 150.782 867.079 464.412
421 0 84.3176 13.0578 1101 151.373 866.878 461.443
422 0 86.352 12.7501 1101 150.144 867.014 460.791
423 0 90.3928 12.6891 1147 149.345 867.003 459.241
424 0 90.3001 12.8793 1163 137.688 867.186 457.681
425 0 95.2397 12.9988 1238 148.161 867.128 456.246
426 1 49.1552 10.5177 517 148.012 867.199 478.847
427 0 49.2607 11.2057 552 148.083 866.627 478.225
428 0 52.0914 11.5566 602 149.166 867.626 477.651
429 0 54.095 12.2562 663 149.214 867.544 477.306
430 0 56.1947 12.1898 685 146.996 867.399 477.578
431 0 58.0862 12.2576 712 142.803 867.347 476.416
432 0 59.059 12.1573 718 149.114 866.962 476.302
433 0 61.0312 12.5673 767 147.829 867.02 474.16
434 0 62.0732 13.0813 812 149.624 867.012 473.809
435 0 65.0743 12.8008 833 153.747 867.315 472.934
436 0 65.2512 13.2565 865 152.661 867.377 472.608
437 0 67.2474 12.8035 861 147.204 866.782 471.443
438 0 70.1233 12.8773 903 156.171 866.565 470.882
439 0 73.1475 13.0968 958 147.801 866.333 469.445
440 0 74.2414 13.2136 981 148.35 866.754 468.182
441 0 76.1718 12.9838 989 151.423 865.78 465.888
442 0 80.2047 13.2411 1062 142.335 866.178 465.916
443 0 81.1514 13.407 1088 149.977 866.47 464.111
444 0 85.2481 13.6777 1166 146.078 866.627 461.799
445 0 88.2507 13.5863 1199 146.381 866.862 460.099
446 0 91.3236 13.5233 1235 148.502 867.318 459.702
447 0 94.3325 13.6326 1286 144.495 867.314 459.023
448 0 96.3926 13.5591 1307 147.888 867.602 457.758
449 0 99.233 12.9191 1282 150.785 866.858 457.342
450 0 101.322 13.5311 1371 148.599 866.455 454.964
451 1 53.2459 11.4938 612 148.261 866.458 478.632
452 0 55.1638 12.5444 692 144.341 866.519 478.299
453 0 56.1237 13.1139 736 143.03 865.819 477.777
454 0 59.0515 12.5822 743 145.595 865.892 477.556
455 0 61.0572 12.8404 784 145.453 865.838 476.161
456 0 62.1082 12.768 793 149.851 865.492 474.883
457 0 65.182 12.5495 818 142.94 865.527 473.747
458 0 66.1273 12.5969 833 148.391 864.741 472.486
459 0 69.1285 12.9614 896 151.632 865.653 471.416
460 0 71.0611 12.7355 905 148.804 864.929 470.857
461 0 74.1062 12.644 937 155.936 865.585 470.841
462 0 76.0879 13.3004 1012 152.633 865.635 468.787
463 0 79.14 13.394 1060 152.436 866.079 466.792
464 0 80.1465 13.4878 1081 153.255 865.426 466.099
465 0 85.1764 12.9613 1104 153.496 866.913 464.479
466 0 87.114 13.7865 1201 145.974 866.621 462.953
467 0 90.1 13.8735 1250 151.307 866.516 461.462
468 0 92.1514 13.8685 1278 147.162 866.598 459.009
469 0 96.155 14.1022 1356 140.035 866.736 457.416
470 0 101.211 13.704 1387 147.265 867.358 456.372
471 0 102.175 13.6922 1399 150.44 867.637 454.583
472 1 55.0983 11.543 636 150.5 867.656 478.563
473 0 58.0763 12.2597 712 141.458 867.761 477.205
474 0 59.0659 12.3422 729 142.818 868.476 476.166
475 0 61.0335 12.5013 763 142.182 868.19 475.74
476 0 62.0627 12.5357 778 150.405 868.675 474.699
477 0 65.0525 12.6821 825 143.45 868.57 473.513
478 0 66.0935 12.4823 825 143.634 868.442 472.229
479 0 69.1844 12.3727 856 144.265 868.458 471.568
480 0 70.1694 12.6836 890 144.642 868.629 470.124
481 0 73.1365 12.798 936 138.976 868.342 468.572
482 0 74.0902 12.7412 944 148.131 868.45 467.708
483 0 76.1804 12.4179 946 143.569 868.709 466.392
484 0 79.1635 12.6447 1001 141.197 868.961 463.979
485 0 82.1118 12.8483 1055 145.318 869.231 462.685
486 0 82.0891 12.7666 1048 144.259 869.181 461.625
487 0 87.1079 12.7084 1107 136.41 869.5 460.306
488 0 90.1594 12.4224 1120 151.834 868.953 458.862
489 0 92.0565 12.8399 1182 145.772 869.287 456.673
490 1 46.0267 10.7329 494 146.136 868.431 479.777
491 0 50.0755 11.5625 579 140.587 867.665 478.846
492 0 51.1884 11.5846 593 141.111 867.648 478.413
493 0 52.0772 11.6942 609 145.077 868.966 477.975
494 0 54.1326 12.0076 650 148.922 869.377 476.189
495 0 54.0848 12.7947 692 142.564 868.977 475.303
496 0 57.1769 12.2602 701 142.519 869.763 473.599
497 0 59.1802 12.5887 745 140.032 869.85 471.646
498 0 61.1013 12.1929 745 145.293 869.843 470.537
499 0 63.2057 12.6887 802 145.499 870.369 469.319
500 0 65.1984 12.623 823 138.256 869.53 468.582
501 0 68.1089 12.1864 830 147.347 869.696 470.166
502 0 69.2137 12.7865 885 145.376 869.794 468.212
503 0 71.1509 12.8881 917 147.659 870.116 466.598
504 1 36.0744 10.5615 381 148.774 869.021 484.9
505 0 38.0923 10.4221 397 145.499 868.917 483.942
506 0 38.2041 10.4963 401 146.958 869.628 483.431
507 0 40.1883 10.6499 428 148.012 869.514 482.1
508 0 41.2377 10.9851 453 141.79 869.453 482.177
509 0 43.1859 11.6705 504 140.742 869.897 480.494
510 0 44.0875 12.2484 540 139.133 868.744 479.583
511 0 46.1067 11.9939 553 141.166 869.385 479.91
512 0 46.0232 12.5372 577 139.964 869.721 478.232
513 0 48.027 12.4513 598 138.95 869.595 477.147
514 0 49.0626 12.8611 631 137.25 868.422 477.166
515 0 50.0628 13.0436 653 136.13 869.138 474.764
516 0 51.0579 12.7502 651 123.587 868.954 473.8
517 0 53.1392 12.2885 653 139.96 869.106 474.884
518 0 54.0845 12.7578 690 136.126 868.959 474.686
519 0 55.197 12.6637 699 134.123 868.392 473.302
520 0 57.1681 13.1892 754 137.2 868.545 471.027
521 0 58.0715 13.1218 762 135.139 868.667 472.079
522 0 59.057 12.9875 767 133.863 868.589 471.389
523 0 61.2067 13.2502 811 134.699 867.703 470.533
524 0 62.2014 13.4081 834 134.902 866.999 469.371
525 0 65.1504 13.1695 858 127.105 867.923 468.578
526 0 68.0985 13.084 891 132.008 866.91 466.782
527 0 69.0434 12.9194 892 134.4 867.358 466.857
528 0 72.1085 13.2439 955 136.702 866.617 465.281
529 0 73.1208 13.129 960 136.995 867.074 464.304
530 0 76.221 13.4084 1022 129.991 867.111 463.551
531 0 79.2302 13.5302 1072 125.878 867.169 461.053
532 1 41.0376 10.4295 428 139.554 867.25 481.972
533 0 43.0699 10.6339 458 137.876 866.703 480.587
534 0 44.2582 10.981 486 132.856 866.763 480.136
535 0 47.0553 11.4759 540 131.711 867.231 479.198
536 0 48.0592 12.0476 579 135.085 866.82 478.385
537 0 50.1327 12.6265 633 136.07 867.079 477.839
538 0 51.0648 12.7485 651 139.894 867.553 477.084
539 0 53.1489 13.02 692 139.329 868.075 476.231
540 0 56.1626 12.5885 707 133.89 867.902 476.263
541 0 56.0743 13.2503 743 139.292 867.789 475.314
542 0 60.1216 12.7076 764 137.488 867.715 474.817
543 0 61.1155 13.3845 818 141.457 867.77 473.097
544 0 63.1559 13.2688 838 144.3 867.817 472.715
545 0 63.1157 13.8159 872 140.502 867.828 472.039
546 0 66.2318 13.8604 918 133.815 867.871 470.629
547 0 70.3525 14.1999 999 31.1111 867.59 469.075
548 0 73.4369 13.2767 975 144.223 867.829 467.03
549 0 74.2804 13.5029 1003 141.08 867.996 466.659
550 0 77.265 13.8484 1070 144.566 867.451 464.829
551 0 79.5117 13.7338 1092 135.661 867.499 462.89
552 0 83.433 13.7236 1145 148.075 867.56 462.517
553 1 44.1317 12.508 552 142.707 866.846 481.598
554 0 46.1173 12.5333 578 153.789 866.952 481.047
555 0 47.1728 13.122 619 150.559 866.649 480.472
556 0 49.0658 12.4323 610 154.893 866.757 479.379
557 0 51.1423 12.9834 664 156.438 866.66 478.423
558 0 52.1591 13.363 697 149.396 866.607 477.996
559 0 53.2412 13.5046 719 152.523 866.398 477.59
560 0 55.0972 13.3219 734 151.458 866.012 477.283
561 0 56.1572 13.6403 766 146.876 865.962 476.351
562 0 58.1283 13.6078 791 159.325 866.597 475.397
563 0 59.3081 13.9947 830 153.735 866.812 475.776
564 0 61.2036 14.2475 872 149.419 866.3 475.153
565 0 63.1808 14.324 905 158.79 866.376 474.513
566 0 62.2409 14.4921 902 158.09 866.039 473.831
567 0 66.2524 14.5504 964 159.739 866.185 473.072
568 0 69.2599 14.0918 976 161.837 865.97 471.777
569 0 70.2118 14.7126 1033 160.352 865.645 469.743
570 0 73.1684 14.2684 1044 159.138 866.186 469.114
571 0 78.2351 14.2903 1118 162.376 866.332 467.543
572 0 78.2081 14.6276 1144 162.704 866.652 466.272
573 0 81.2491 14.6217 1188 167.787 866.294 465.353
574 0 83.2729 14.5906 1215 162.428 866.947 464.595
575 0 87.2711 14.5982 1274 161.46 866.743 463.274
576 0 88.3143 14.6182 1291 167.851 866.211 460.934
577 0 91.246 14.7733 1348 157.039 866.411 458.993
578 0 96.3616 14.7362 1420 167.261 866.706 457.486
579 0 98.1663 14.7607 1449 135.394 867.046 455.938
580 1 54.2891 13.4834 732 164.157 866.908 477.62
581 0 55.2763 13.9481 771 158.322 867.039 477.472
582 0 57.1899 13.9885 800 160.468 867 475.946
583 0 60.1191 14.0887 847 154.836 867.169 474.835
584 0 62.2246 14.1423 880 160.117 866.525 473.515
585 0 64.3328 14.1452 910 150.416 866.927 472.453
586 0 65.2287 14.2882 932 156.796 867.147 472.744
587 0 66.5027 14.5708 969 146.722 867.105 471.266
588 0 70.4299 14.2837 1006 156.77 867.691 470.405
589 0 73.3887 14.0212 1029 152.775 867.755 468.965
590 0 75.3276 13.9922 1054 154.026 867.956 467.886
591 0 77.6771 14.2127 1104 155.803 867.991 465.941
592 0 81.5004 14.0981 1149 152.788 868.176 465.402
593 0 83.5285 14.498 1211 156.101 868.05 463.676
594 0 86.4303 14.6361 1265 147.181 868.575 462.586
595 0 90.4391 14.0537 1271 158.402 868.167 461.277
596 0 92.5141 14.3762 1330 155.949 868.766 459.408
597 0 96.2575 14.4197 1388 154.205 868.548 458.208
598 1 49.4567 12.6778 627 159.703 868.601 479.987
599 0 51.2967 13.0613 670 156.669 868.978 479.888
600 0 50.2987 13.6186 685 148.619 868.844 479.597
601 0 55.6719 13.1305 731 164.99 869.402 477.862
602 0 56.6379 13.3833 758 155.761 869.038 476.656
603 0 58.4869 13.4731 788 162.614 869.039 475.458
604 0 59.4261 14.0511 835 159.131 869.006 474.643
605 0 61.4771 13.9076 855 153.193 868.816 473.711
606 0 62.4487 14.1076 881 160.002 868.549 472.68
607 0 66.7151 13.9099 928 164.926 869.357 471.416
608 0 67.5807 13.6873 925 155.355 869.326 471.418
609 0 69.5734 13.7121 954 159.232 868.607 470.52
610 0 72.6013 13.8427 1005 156.707 869.187 468.961
611 0 73.5142 13.6844 1006 151.794 869.648 468.877
612 0 77.8238 13.7233 1068 158.628 869.528 467.712
613 0 80.5733 13.255 1068 157.723 869.203 466.348
614 0 82.529 13.7527 1135 150.725 869.862 464.967
615 0 85.3861 13.316 1137 162.179 870.168 464.608
616 0 88.2609 12.9616 1144 160.164 871.003 463.184
617 1 44.1593 12.9757 573 165.145 870.609 483.314
618 0 45.1494 13.6879 618 156.146 870.456 482.401
619 0 45.0907 13.9275 628 171.221 870.373 481.013
620 0 46.3886 13.8612 643 166.935 869.84 480.554
621 0 48.3067 13.9111 672 168.083 869.6 480.555
622 0 53.3696 13.9405 744 168.159 870.022 478.528
623 0 53.511 13.0814 700 166.326 870.054 478.727
624 0 53.3397 13.9483 744 164.712 870.312 477.599
625 0 56.3107 13.6564 769 162.35 870.243 476.087
626 0 59.2795 13.8834 823 160.157 870.42 474.634
627 0 60.3274 13.5096 815 163.537 870.069 473.989
628 0 63.4708 13.9749 887 161.975 869.861 472.812
629 0 66.747 14.128 943 154.768 869.69 469.793
630 0 66.571 14.3155 953 159.758 869.532 468.042
631 0 70.6256 14.5415 1027 155.232 868.988 464.862
632 0 74.8509 14.2951 1070 154.155 869.039 463.539
633 0 74.8509 14.2951 1070 161.022 870.039 463.539
634 0 78.6027 14.2489 1120 148.43 869.333 461.935
635 0 81.5523 13.942 1137 153.546 868.878 460.716
636 0 85.7761 14.0016 1201 152.094 868.875 459.138
637 1 44.289 12.712 563 160.588 869.384 479.432
638 0 45.3948 12.9971 590 155.505 869.922 478.102
639 0 46.4895 13.8096 642 157.849 869.38 477.227
640 0 49.4872 13.7409 680 158.785 868.954 476.581
641 0 50.5833 13.6606 691 155.463 868.8 475.508
642 0 51.7058 13.5575 701 159.86 868.562 475.519
643 0 53.5811 14.0721 754 153.249 868.854 474.584
644 0 55.5668 13.1913 733 162.606 868.353 475.196
645 0 56.3968 14.1675 799 162.096 868.84 474.088
646 0 58.5446 13.5965 796 164.621 868.736 472.557
647 0 61.6568 13.6725 843 165.058 868.565 471.718
648 0 62.6617 13.8522 868 166.657 868.537 471.339
649 0 63.5661 14.3315 911 163.682 868.668 470.678
650 0 67.379 14.2478 960 162.768 868.483 469.338
651 0 69.4816 14.2196 988 163.644 868.776 468.269
652 0 71.5459 14.5082 1038 161.4 868.744 467.086
653 0 75.4798 13.9772 1055 163.11 868.158 465.664
654 0 77.6342 14.4524 1122 158.094 868.038 464.103
655 0 80.5447 14.1164 1137 156.373 868.48 463.618
656 0 83.3443 14.0622 1172 160.864 868.875 461.743
657 0 88.4493 13.9063 1230 163.09 868.87 460.689
658 0 90.3739 13.8536 1252 161.691 868.276 459.112
659 0 93.2148 14.193 1323 155.285 868.223 456.633
660 0 99.396 14.2662 1418 163.073 868.33 455.826
661 1 49.0544 10.8655 533 155.086 868.623 479.994
662 0 51.0248 12.1313 619 155.672 867.141 479.357
663 0 51.2344 12.2964 630 160.405 866.237 479.598
664 0 53.3532 12.3142 657 157.525 866.805 479.085
665 0 53.2704 12.7087 677 158.561 866.963 477.436
666 0 56.1525 12.3592 694 158.285 866.47 476.638
667 0 58.1888 12.3048 716 160.236 866.751 474.69
668 0 61.295 12.5296 768 151.979 866.77 474.078
669 0 63.2046 12.5307 792 157.804 866.769 472.994
670 0 66.3118 12.969 860 143.574 867.193 471.976
671 0 66.4859 12.3786 823 151.637 867.482 471.321
672 0 68.267 13.1982 901 153.622 867.169 469.917
673 0 72.292 12.5602 908 144.562 866.92 467.872
674 0 73.3643 12.7991 939 154.187 866.924 467.328
675 0 76.498 12.7193 973 155.184 867.699 465.547
676 0 78.4777 12.5386 984 149.437 867.835 464.466
677 0 81.3827 12.8774 1048 153.508 866.802 462.868
678 0 84.2755 12.649 1066 149.27 867.265 461.886
679 0 85.4761 13.2084 1129 147.754 867.01 460.147
680 0 90.4506 12.7362 1152 143.888 867.185 458.583
681 0 92.4002 13.0844 1209 147.443 867.18 458.55
682 0 95.2892 13.4433 1281 147.121 867.105 456.502
683 0 95.3618 12.9507 1235 153.265 867.011 455.422
684 0 100.398 13.2174 1327 150.055 866.195 454.087
685 0 103.321 13.1048 1354 151.239 866.733 452.549
686 0 108.581 12.6449 1373 149.869 866.768 450.076
687 0 113.357 12.6768 1437 144.628 867.003 447.64
688 0 115.204 12.6471 1457 149.708 867.016 446.058
689 1 62.0896 10.968 681 142.275 866.611 476
690 0 64.1023 11.9496 766 142.696 867.748 473.805
691 0 68.2482 11.8098 806 148.445 865.748 472.457
692 0 71.1937 11.3212 806 150.22 866.561 471.524
693 0 73.0827 12.0822 883 146.365 866.33 469.484
694 0 74.1855 11.9296 885 151.694 866.53 468.944
695 0 76.1935 12.2189 931 148.052 867.078 467.206
696 0 79.1613 12.1271 960 145.692 866.474 465.627
697 0 82.192 12.0693 992 150.056 866.432 464.233
698 0 84.147 12.0622 1015 144.118 866.043 464.333
699 0 87.1286 11.8101 1029 149.576 866.961 463.845
700 0 89.1825 12.0539 1075 147.685 867.674 460.935
701 0 92.1676 12.3145 1135 151.876 867.774 460.521
702 0 95.1924 12.1858 1160 152.312 867.805 459.607
703 1 51.117 10.7205 548 146.035 868.447 482.535
704 0 51.0674 10.9659 560 130.046 868.036 482.28
705 0 53.1014 11.6758 620 143.126 867.873 481.584
706 0 53.1535 10.8742 578 145.794 865.443 481.488
707 0 55.0811 11.4377 630 145.194 866.268 481.532
708 0 56.1344 11.4012 640 147.484 866.375 480.117
709 0 57.1145 11.5207 658 149.831 866.356 478.704
710 0 58.1618 11.7431 683 146.47 866.449 478.262
711 0 61.2251 11.6129 711 151.617 867.115 477.896
712 0 63.3284 11.922 755 150.118 867.007 477.437
713 0 66.1826 11.8762 786 154.106 867.093 476.522
714 0 67.1972 11.8755 798 151.714 867.799 475.692
715 0 69.3206 12.3628 857 151.566 867.186 474.742
716 0 69.182 11.7516 813 156.798 867.246 474.776
717 0 74.3128 11.8822 883 155.867 867.309 472.442
718 0 78.3286 11.8858 931 155.696 866.672 470.654
719 0 80.504 12.223 984 147.511 866.56 469.526
720 0 81.3032 12.5579 1021 142.918 866.829 468.036
721 0 84.3149 12.2398 1032 151.181 866.374 465.953
722 0 87.4128 12.3895 1083 151.841 866.599 465.342
723 0 92.395 12.3167 1138 152.507 866.714 463.683
724 0 92.3119 12.5878 1162 150.306 866.569 462.452
725 0 97.5437 12.2509 1195 150.309 867.003 460.486
726 0 100.284 12.2851 1232 152.491 866.617 458.238
727 0 104.341 12.3825 1292 146.711 866.56 455.56
728 0 106.389 12.4543 1325 149.268 866.737 453.866
729 0 110.322 12.1009 1335 140.74 866.886 450.823
730 0 115.334 12.2687 1415 148.982 866.249 449.286
731 1 60.414 10.2956 622 136.166 865.569 475.846
732 0 62.2185 10.9453 681 138.327 866.727 476.289
733 0 63.6648 11.1522 710 133.328 865.714 472.268
734 0 66.3498 11.1832 742 143.131 866.12 472.287
735 0 66.3382 11.6072 770 148.745 866.081 469.804
736 0 70.6141 11.3292 800 137.816 866.646 467.271
737 0 71.6094 11.6465 834 136.807 867.685 465.544
738 0 73.1828 11.6967 856 143.833 869.182 469.72
739 0 75.2432 11.5359 868 145.052 868.417 468.327
740 0 77.2461 12.0006 927 140.968 868.462 467.229
741 0 80.3045 11.7926 947 133.79 868.407 465.734
742 0 83.4993 11.5091 961 149.805 868.179 465.444
743 0 85.2565 11.9639 1020 144.974 868.156 462.007
744 0 87.3973 12.0027 1049 150.487 868.858 461.202
745 0 90.559 12.0364 1090 143.841 869.275 459.1
746 0 93.5145 12.1799 1139 151.68 869.218 457.045
747 0 95.5276 11.9128 1138 154.52 869.518 456.189
748 1 52.2849 11.0166 576 153.807 870.255 478.13
749 0 53.2423 11.0063 586 144.785 870.167 477.676
750 0 55.2879 11.7205 648 148.994 870.429 476.167
751 0 57.2912 11.171 640 146.331 869.609 475.703
752 0 59.3856 10.9959 653 150.04 870.317 474.73
753 0 60.1544 11.6367 700 152.059 870.277 473.686
754 0 60.2465 11.5027 693 150.166 871.504 473.756
755 0 61.2572 11.3293 694 147.804 871.18 473.474
756 0 62.0887 11.4836 713 149.698 871.314 472.806
757 0 64.2468 11.4247 734 148.044 871.031 463.108
758 0 66.2383 11.836 784 142.596 871.157 460.958
759 0 67.1867 11.9964 806 145.944 870.785 463.236
760 0 69.1556 11.7272 811 146.618 870.559 468.216
761 0 72.2512 12.0136 868 138.319 870.863 466.863
762 0 72.2588 12.1369 877 139.296 870.872 466.214
763 0 75.2599 12.4103 934 146.136 870.918 465.086
764 0 76.3403 12.5622 959 146.779 871.033 464.442
765 0 79.2864 12.3603 980 148.3 870.906 463.336
766 1 40.2862 9.60627 387 147.76 871.643 483.287
767 0 44.2042 9.70496 429 142.221 871.494 481.604
768 0 46.217 10.0829 466 148.144 871.622 480.232
769 0 46.077 10.3305 476 151.668 871.452 480.67
770 0 47.2718 11.4021 539 148.135 871.315 478.725
771 0 49.3846 11.4611 566 144.899 870.482 475.972
772 0 47.1965 11.5263 544 144.092 869.68 472.048
773 0 49.4815 10.8727 538 144.375 869.128 471.612
774 0 50.3095 11.3696 572 142.509 869.168 470.787
775 0 54.2226 11.3421 615 131.498 868.948 470.418
776 0 54.205 11.5856 628 130.409 869.487 469.99
777 0 54.2537 11.6306 631 125.629 869.071 469.691
778 0 56.2312 11.2749 634 123.76 869.675 467.498
779 0 58.2463 11.9321 695 121.432 869.21 467.154
780 0 60.2528 11.6177 700 123.183 869.499 466.471
781 0 61.22 12.0059 735 143.252 869.337 465.252
782 0 63.267 11.9019 753 132.312 868.506 464.803
783 0 63.1997 12.1203 766 147.09 869.642 464.901
784 0 67.1343 12.2739 824 9.95146 869.508 463.466
785 0 70.1933 11.6678 819 143.298 869.105 462.272
786 0 72.1881 12.5505 906 142.595 868.009 460.784
787 0 75.2321 12.3617 930 151.18 867.954 459.626
788 0 77.4624 13.3613 1035 141.933 868.869 456.216
789 0 80.3965 12.7493 1025 147.26 868.092 454.779
790 0 80.4675 13.2352 1065 148.464 867.976 453.649
791 0 88.6664 12.8346 1138 140.669 867.25 452.693
792 1 46.503 10.7305 499 152.094 867.707 473.22
793 0 48.4215 11.1521 540 146.972 867.893 472.069
794 0 47.2122 11.586 547 147.064 868.583 472.731
795 0 51.1204 11.9913 613 146.979 869.403 472.628
796 0 54.1196 13.0267 705 147.243 867.323 475.454
797 0 56.0908 12.9433 726 141.233 867.448 475.196
798 0 59.059 13.1225 775 146.929 869.6 473.898
799 0 60.1697 12.6476 761 149.217 869.518 472.869
800 0 64.1977 12.6952 815 149.402 868.515 470.432
801 0 66.1777 12.9953 860 150.419 869.051 469.838
802 0 67.1643 12.6109 847 153.838 868.465 468.921
803 0 68.1148 12.8166 873 152.616 869.021 468.354
804 0 71.273 13.0484 930 148.97 868.849 466.542
805 0 72.2458 13.4818 974 149.282 869.085 465.044
806 0 75.3026 13.2134 995 148.962 868.831 464.101
807 0 77.2664 13.1493 1016 151.681 869.141 463.721
808 0 79.1418 13.3431 1056 153.171 869.348 460.938
809 0 82.2695 13.2127 1087 157.706 869.49 460.665
810 0 84.4059 13.6128 1149 155.934 869.675 458.635
811 0 87.2939 13.4717 1176 157.212 870.069 457.394
812 0 91.3292 13.7196 1253 157.424 869.657 455.986
813 0 93.2733 13.2085 1232 158.664 869.339 454.427
814 0 93.2733 13.2085 1232 160.188 869.339 454.427
815 0 102.493 13.4644 1380 156.801 870.136 449.432
816 0 106.396 13.4591 1432 160.161 870.189 448.509
817 0 108.393 13.5341 1467 156.483 870.265 446.926
818 0 112.433 13.528 1521 161.066 870.056 443.689
819 1 61.3418 11.0854 680 158.146 870.391 471.275
820 0 62.2373 11.8257 736 156.897 870.374 470.211
821 0 64.1796 12.1222 778 155.41 869.775 469.59
822 0 66.0612 12.6549 836 155.584 870.472 468.605
823 0 69.1247 12.2387 846 150.652 870.85 467.443
824 0 72.0731 12.7232 917 156.184 870.764 464.549
825 0 75.0994 13.6619 1026 146.905 871.782 461.7
826 0 78.1037 12.8163 1001 154.464 871.411 462.749
827 0 79.1005 12.7686 1010 158.134 872.34 461.017
828 0 82.1709 12.6322 1038 155.902 872.249 459.677
829 0 86.0796 12.6743 1091 156.895 871.941 457.561
830 0 88.1501 12.6602 1116 163.223 871.736 457.453
831 0 91.144 12.8039 1167 164.213 871.716 455.302
832 0 91.2397 13.3385 1217 157.509 871.709 454.224
833 0 95.1751 13.1442 1251 158.986 871.199 452.095
834 0 98.354 12.9735 1276 158.916 871.312 451.259
835 0 101.613 12.8527 1306 157.008 871.694 448.597
836 0 105.392 12.9327 1363 156.721 872.116 446.814
837 0 108.534 13.0742 1419 158.523 871.952 445.619
838 1 59.1891 11.1169 658 157.921 872.179 468.609
839 0 59.1618 11.9841 709 147.087 872.326 470.801
840 0 61.218 12.2186 748 153.606 872.111 468.647
841 0 62.0257 11.7854 731 152.066 870.614 470.141
842 0 65.0551 12.036 783 155.946 870.516 468.944
843 0 67.0752 11.8971 798 155.333 871.053 468.11
844 0 68.1127 12.1416 827 150.341 870.889 466.963
845 0 71.0282 12.2909 873 149.21 870.769 465.899
846 0 72.1425 12.7387 919 151.983 871.497 464.829
847 0 75.1201 12.3136 925 146.926 871.059 464.588
848 0 77.189 12.2427 945 153.862 871.347 463.544
849 0 79.1196 12.4874 988 139.729 870.241 460.342
850 0 83.2581 12.2391 1019 148.616 870.495 459.08
851 0 85.2585 12.3976 1057 142.965 870.631 458.202
852 0 87.1575 12.4028 1081 150.513 870.522 458.636
853 0 91.1779 12.7882 1166 147.094 870.497 457.721
854 0 92.2065 12.8299 1183 149.52 871.802 454.494
855 0 97.3473 12.9331 1259 145.372 871.446 453.04
856 0 99.2834 13.0938 1300 149.753 871.382 451.535
857 0 105.435 13.8664 1462 139.191 871.667 448.275
858 1 52.0942 11.0953 578 142.817 871.571 475.028
859 0 57.2223 11.0796 634 151.89 870.871 472.257
860 0 57.3512 11.787 676 140.688 870.189 470.433
861 0 57.5843 12.3124 709 148.935 869.726 467
862 0 62.455 12.537 783 141.78 869.209 467.777
863 0 64.1766 12.6993 815 135.545 869.049 469.82
864 0 67.2318 11.9884 806 137.06 868.705 467.764
865 0 67.2805 12.6931 854 133.286 870.046 465.964
866 0 69.1467 12.8133 886 144.104 869.242 465.817
867 0 72.1916 12.6608 914 151.928 869.71 464.867
868 0 74.3087 12.9864 965 144.753 869.234 462.831
869 0 76.1932 12.9539 987 145.438 868.717 462.589
870 0 78.1931 13.2876 1039 148.881 868.774 461.115
871 0 80.277 13.0174 1045 150.767 868.806 460.702
872 0 81.3423 13.1543 1070 148.325 868.25 460.632
873 0 84.2421 13.2594 1117 151.308 869.763 459.688
874 0 85.2352 13.1988 1125 151.311 869.324 458.549
875 0 89.2574 13.3098 1188 150.015 869.118 457.099
876 0 92.257 13.0505 1204 152.988 868.444 456.453
877 0 94.257 13.1767 1242 154.87 869.68 455.122
878 0 96.2882 13.2 1271 153.393 868.715 454.469
879 0 99.2775 13.1148 1302 149.763 869.144 452.366
880 0 104.497 13.0243 1361 153.223 869.925 450.584
881 1 54.183 10.28 557 146.257 870.334 476.113
882 0 55.1163 10.3236 569 148.643 870.726 476.151
883 0 58.0919 11.1375 647 144.901 869.915 474.793
884 0 59.0921 11.6598 689 144.761 870.765 474.2
885 0 61.1097 11.9294 729 142.997 869.549 473.824
886 0 63.0997 11.5848 731 134.075 869.61 472.737
887 0 64.075 11.8611 760 143.139 869.414 471.804
888 0 66.0561 11.9898 792 143.143 869.62 470.889
889 0 68.1274 11.9482 814 142.188 869.876 470.08
890 0 71.1786 11.5625 823 140.704 869.632 467.735
891 0 72.1074 12.4259 896 135.182 869.93 465.296
892 0 75.1264 12.1795 915 141.744 870.802 464.824
893 0 78.1986 12.2892 961 141.476 871.451 463.53
894 0 79.3103 12.2809 974 153.631 871.843 461.82
895 0 81.2952 12.5715 1022 151.043 871.057 462.025
896 0 85.2363 12.3422 1052 147.452 871.135 460.849
897 0 88.1027 12.3719 1090 149.474 870.845 458.372
898 0 90.2211 12.3031 1110 152.455 871.417 457.067
899 0 93.1544 12.5061 1165 153.737 871.821 456.114
900 1 50.0504 10.6692 534 147.285 872.375 479.266
901 0 50.0694 10.9248 547 155.166 872.585 477.87
902 0 52.1098 10.7465 560 146.198 872.259 477.707
903 0 53.1849 11.131 592 145.228 871.019 476.125
904 0 55.0944 11.4168 629 140.657 871.8 475.547
905 0 57.1699 11.8944 680 139.681 871.768 475.043
906 0 58.1084 11.8227 687 140.975 871.885 474.178
907 0 58.1048 11.9784 696 143.859 871.487 474.471
908 0 60.1222 11.6762 702 138.624 870.503 472.181
909 0 63.0615 11.9249 752 143.412 870.6 470.842
910 0 66.2384 11.6549 772 137.278 870.899 470.451
911 0 67.0942 11.2379 754 134.405 870.906 469.101
912 0 68.0617 11.5484 786 131.37 870.757 467.751
913 0 70.1781 11.7416 824 145.363 871.133 466.254
914 0 72.1357 11.3675 820 142.656 870.859 466.446
915 0 74.1692 11.7973 875 137.248 871.512 464.258
916 0 78.1793 11.6783 913 140.826 870.789 464.243
917 1 43.0488 9.84929 424 141.163 871.939 482.09
918 0 44.0475 9.8984 436 144.849 872.131 481.429
919 0 46.0411 10.4037 479 140.783 871.994 480.106
920 0 47.1254 10.0158 472 145.85 872.456 480.352
921 0 47.1171 10.3784 489 138.117 871.221 479.274
922 0 48.1326 11.1359 536 147.5 871.386 478.978
923 0 49.1074 11.2814 554 137.847 871.865 478.753
924 0 52.0734 11.695 609 145.118 871.67 477.718
925 0 51.0742 12.7657 652 146.137 871.735 476.577
926 0 52.0619 12.2162 636 146.384 871.645 476.119
927 0 55.1296 12.1169 668 148.54 871.277 475.507
928 0 58.0696 11.6584 677 144.461 871.634 475.072
929 0 58.0629 12.4348 722 150.26 871.194 474.288
930 0 60.0786 12.0342 723 144.224 871.383 474.089
931 0 62.0836 12.3221 765 147.14 871.28 472.931
932 0 63.078 12.7461 804 148.405 871.683 472.113
933 0 65.1362 12.7579 831 150.659 872.084 471.272
934 0 67.0665 12.7485 855 142.658 871.985 470.74
935 0 65.0959 13.1498 856 153.397 871.25 469.452
936 0 70.2365 12.6145 886 153.792 871.254 468.121
937 0 71.1091 12.9941 924 143.998 871.055 467.923
938 0 74.2301 12.6498 939 146.551 870.592 466.749
939 0 75.1555 13.3324 1002 138.415 870.98 464.552
940 0 79.1481 12.4577 986 148.018 870.841 464.214
941 0 81.1571 12.5313 1017 145.307 869.806 460.682
942 1 41.0767 9.88396 406 145.222 871.67 481.367
943 0 43.0436 10.1757 438 146.475 871.235 480.952
944 0 44.0403 11.0126 485 144.763 871.101 480.755
945 0 45.1613 11.3814 514 151.833 872.091 480.648
946 0 45.2379 11.959 541 142.804 871.163 479.896
947 0 48.1776 11.3746 548 133.526 870.073 477.953
948 0 49.148 11.8621 583 147.621 870.029 477.78
949 0 50.1421 11.7865 591 145.284 870.1 477.122
950 0 53.3673 11.8987 635 141.701 869.524 475.121
951 0 52.1419 12.4468 649 149.165 870.083 475.088
952 0 54.1875 12.3829 671 148.396 870.082 474.073
953 0 58.0739 11.8642 689 144.34 872.293 473.157
954 0 59.1472 11.9363 706 150.03 872.177 472.833
955 0 59.0686 12.731 752 139.134 872.191 471.517
956 0 62.0825 12.2096 758 147.183 872.266 471.704
957 0 64.1303 12.4902 801 147.715 872.122 470.829
958 0 64.042 12.648 810 150.836 872.506 470.2
959 0 68.0996 13.304 906 147.925 872.351 468.254
960 0 68.0474 13.2848 904 151.444 872.117 467.625
961 0 72.0695 12.6683 913 152.311 872.445 466.307
962 0 74.0576 13.4085 993 141.895 872.174 464.314
963 0 76.0655 13.0545 993 151.433 872.107 463.667
964 0 78.0811 12.9481 1011 149.53 871.845 462.835
965 1 41.1072 11.1173 457 157.284 872.05 479.457
966 0 43.0431 10.7102 461 159.679 872.243 479.618
967 0 46.0208 11.4296 526 165.046 871.53 478.846
968 0 45.0498 12.4085 559 162.365 872.88 478.517
969 0 46.0441 12.7704 588 158.228 872.148 477.655
970 0 48.0301 12.5963 605 153.342 872.071 477.22
971 0 49.0332 12.9708 636 154.206 872.734 476.365
972 0 50.0202 13.1547 658 148.19 872.074 475.334
973 0 51.0854 13.1153 670 156.824 871.991 475.388
974 0 53.0728 12.8314 681 160.223 871.674 474.89
975 0 54.0392 13.6012 735 155.173 871.619 474
976 0 55.0872 13.1791 726 159.935 872.058 473.793
977 0 56.1529 13.9619 784 151.913 871.552 473.168
978 0 59.0245 13.3335 787 158.484 871.591 472.68
979 0 60.0813 13.2321 795 154.348 872.345 471.15
980 0 63.0321 13.39 844 155.801 871.441 469.879
981 0 63.0421 13.5306 853 151.921 871.208 469.234
982 0 66.0338 13.1448 868 150.325 871.756 468.68
983 0 67.1497 13.5369 909 146.971 871.927 466.795
984 0 70.0717 13.6717 958 149.048 871.865 466.211
985 0 73.1219 13.8399 1012 151.396 871.525 465.34
986 0 75.0688 13.8939 1043 151.226 871.86 463.642
987 0 76.1287 13.5166 1029 153.612 872.091 461.809
988 0 79.0631 13.5209 1069 148.645 872.276 461.441
989 0 81.1008 13.3414 1082 150.408 871.514 459.114
990 0 88.0792 15.6677 1380 140.063 870.118 453.899
991 0 88.139 14.2616 1257 139.527 870.035 455.78
992 0 90.3858 13.9845 1264 147.335 870.312 454.081
993 1 47.0735 12.0662 568 152.687 870.468 477.403
994 0 50.1895 12.2336 614 154.585 870.839 476.406
995 0 51.1992 13.0471 668 146.232 871.254 476.06
996 0 54.1077 12.4197 672 142.311 872.1 475.573
997 0 54.1656 13.1449 712 144.32 872.197 474.083
998 0 57.1815 12.9762 742 150.354 872.35 473.322
999 0 59.1204 12.9735 767 154.574 873.082 471.983
1000 0 61.2143 13.1669 806 152.37 872.682 470.82
1001 0 64.1941 13.3969 860 151.266 871.669 468.953
1002 0 65.1857 13.0857 853 144.318 872.103 468.454
1003 0 65.3474 13.6501 892 148.687 872.358 466.652
1004 0 68.4597 13.2779 909 148.175 871.924 465.592
1005 0 71.3725 13.6888 977 145.703 872.282 465.878
1006 0 72.5402 13.813 1002 139.02 871.625 463.632
1007 0 77.3967 13.5535 1049 142.786 871.975 462.231
1008 0 78.3908 13.5475 1062 145.658 871.859 460.758
1009 0 82.8744 13.5506 1123 139.273 871.757 457.816
1010 0 84.4709 13.6142 1150 152.517 871.956 456.098
1011 1 44.2674 11.679 517 146.451 871.636 477.567
1012 0 45.4262 11.7113 532 155.235 872.365 476.483
1013 0 48.2854 12.1362 586 153.251 872.28 475.654
1014 0 49.1812 12.6674 623 145.453 871.796 475.957
1015 0 51.3367 12.3693 635 153.279 871.772 475.546
1016 0 52.1689 12.8237 669 151.272 871.671 474.734
1017 0 53.1676 13.0531 694 159.524 872.473 474.026
1018 0 56.1244 12.5792 706 159.113 871.878 472.833
1019 0 57.195 13.3054 761 143.283 871.784 472.411
1020 0 60.2467 12.897 777 153.797 872.158 471.076
1021 0 61.4599 13.4234 825 153.133 872.433 469.767
1022 0 63.4401 13.1935 837 155.502 872.237 468.234
1023 0 64.3121 13.1235 844 159.701 872.969 467.719
1024 0 67.4025 13.3971 903 150.34 872.441 465.105
1025 0 69.4127 13.9456 968 156.276 873.144 464.089
1026 0 71.3531 13.0898 934 158.647 873.785 462.555
1027 0 76.3229 13.3643 1020 150.883 873.202 462.134
1028 0 76.4352 13.6979 1047 149.508 873.076 461.102
1029 0 80.2727 13.1925 1059 147.317 872.74 459.635
1030 0 82.4289 13.1871 1087 159.669 872.976 457.705
1031 0 85.2753 13.7203 1170 154.249 872.581 455.57
1032 0 86.4019 13.2983 1149 149.856 872.017 455.851
1033 0 91.3936 13.2504 1211 157.78 872.211 453.833
1034 0 94.3221 13.4433 1268 162.785 871.476 453.894
1035 1 50.0579 11.4467 573 163.874 870.412 476.171
1036 0 50.0893 12.5576 629 155.099 870.819 474.404
1037 0 53.095 12.1104 643 148.358 871.087 473.897
1038 0 53.1192 12.3119 654 152.584 870.823 473.391
1039 0 55.0869 12.7435 702 153.342 870.855 471.462
1040 0 56.0436 13.2397 742 153.5 871.86 471.371
1041 0 58.0703 13.0532 758 156.533 871.889 470.595
1042 0 61.0874 12.9487 791 154.642 871.451 470.286
1043 0 63.0994 13.138 829 152.064 871.055 469.427
1044 0 63.1371 13.3677 844 153.786 871.358 468.464
1045 0 66.2167 13.7579 911 155.992 871.346 466.95
1046 0 69.1653 13.6774 946 148.432 871.268 465.536
1047 0 70.2295 13.4417 944 158.922 871.76 464.695
1048 0 73.2334 13.2726 972 154.348 871.488 464.043
1049 0 76.2667 13.4266 1024 159.863 871.477 463.021
1050 0 78.278 13.4521 1053 148.831 871.342 460.531
1051 0 82.2356 13.1573 1082 155.221 870.869 460.603
1052 0 83.372 13.6737 1140 155.198 870.593 459.725
1053 0 84.4212 13.7169 1158 155.995 872.096 457.128
1054 0 89.5197 13.6506 1222 151.754 872.142 455.489
1055 0 91.3721 13.3958 1224 151.652 871.43 453.293
1056 0 95.3946 13.5542 1293 155.456 871.084 451.827
1057 0 97.4869 13.4582 1312 157.668 871.234 451.514
1058 0 99.5611 14.0617 1400 155.061 871.425 450.181
1059 1 56.2056 11.6892 657 153.038 871.091 471.773
1060 0 58.1307 12.5407 729 146.446 871.782 471.859
1061 0 59.0629 12.7491 753 152.845 872.007 471.669
1062 0 60.0931 13.0298 783 152.421 871.72 470.755
1063 0 63.1505 13.1432 830 149.584 871.407 468.666
1064 0 65.1843 13.0246 849 151.79 871.312 468.389
1065 0 68.2953 13.1488 898 151.284 871.667 466.412
1066 0 70.1643 13.3686 938 153.8 871.869 466.138
1067 0 72.1337 13.1145 946 154.47 871.831 464.36
1068 0 75.1123 13.167 989 160.723 870.962 463.805
1069 0 77.0941 13.516 1042 157.663 871.515 462.411
1070 0 79.1259 13.5101 1069 158.471 871.297 460.947
1071 0 81.1365 14.075 1142 162.263 871.317 460.003
1072 0 83.11 13.7047 1139 163.561 870.617 458.263
1073 0 87.1356 13.7257 1196 157.856 870.819 457.705
1074 0 90.2944 13.8436 1250 162.084 870.219 454.985
1075 0 94.2528 13.5593 1278 163.229 871.017 454.652
1076 0 97.2836 13.6714 1330 162.65 870.433 453.792
1077 0 101.2 13.5079 1367 162.167 870.955 451.748
1078 0 104.158 13.6236 1419 164.885 871.133 450.438
1079 0 108.245 14.652 1586 154.909 870.891 445.619
1080 1 55.1007 12.7403 702 164.563 870.746 473.746
1081 0 56.163 13.0869 735 157.527 871.263 474.701
1082 0 58.1388 12.6766 737 158.847 871.406 473.744
1083 0 59.1069 13.2979 786 157.268 871.366 472.518
1084 0 61.1186 13.0729 799 158.207 870.743 471.234
1085 0 64.2014 13.1617 845 150.032 871.434 469.222
1086 0 67.1399 13.2708 891 143.935 871.695 468.351
1087 0 68.147 13.691 933 154.388 871.278 466.055
1088 0 71.2289 13.6181 970 154.438 871.428 465.171
1089 0 73.1475 13.3566 977 157.493 871.986 465.053
1090 0 77.1824 13.0211 1005 155.389 872.563 463.349
1091 0 79.2324 13.3531 1058 151.514 871.754 462.828
1092 0 83.1617 13.4437 1118 152.05 871.425 461.431
1093 0 83.1523 14.2389 1184 151.772 871.211 459.246
1094 0 87.2137 13.3809 1167 157.739 871.872 458.039
1095 0 91.2243 13.4394 1226 161.889 871.579 456.365
1096 0 93.1317 13.8084 1286 162.586 871.547 454.821
1097 0 98.1472 13.5613 1331 164.268 871.608 453.544
1098 0 101.181 13.3226 1348 160.646 871.197 452.579
1099 0 104.217 13.7118 1429 157.501 871.562 450.337
1100 0 107.32 13.3247 1430 159.411 871.655 448.993
1101 1 56.304 11.4734 646 156.986 872.189 474.426
1102 0 57.1725 12.2786 702 162.14 872.051 471.934
1103 0 61.2571 12.1292 743 160.923 871.301 472.459
1104 0 62.1588 12.5807 782 161.63 871.405 471.409
1105 0 65.1699 12.4137 809 163.592 871.687 469.714
1106 0 67.1675 12.6251 848 158.906 871.71 466.416
1107 0 70.1993 12.3506 867 155.153 871.766 466.095
1108 0 71.2579 12.4618 888 160.245 872.503 465.981
1109 0 72.2418 12.6243 912 156.104 872.502 464.56
1110 0 77.2349 12.6886 980 161.044 873.129 463.589
1111 0 79.2055 13.2314 1048 152.487 872.747 461.829
1112 0 79.1378 12.8889 1020 61.7216 872.615 461.686
1113 0 84.1284 12.4928 1051 151.696 872.43 459.643
1114 0 86.2753 12.6224 1089 147.758 872.397 457.725
1115 0 90.2765 12.6279 1140 148.016 872.103 455.788
1116 0 94.339 12.5293 1182 151.758 872.25 453.362
1117 0 96.2305 12.3869 1192 148.733 872.721 453.034
1118 1 48.2618 10.3187 498 148 871.281 475.847
1119 0 51.1599 10.2033 522 152.349 871.602 475.387
1120 0 49.2856 11.3015 557 146.149 871.968 475.194
1121 0 52.3507 11.7095 613 142.586 870.661 473.258
1122 0 54.2023 11.4571 621 143.717 870.915 473.09
1123 0 54.2409 11.3199 614 148.373 871.197 473.228
1124 0 56.3017 11.7048 659 145.152 870.249 472.483
1125 0 58.1874 11.8067 687 142.652 870.293 471.1
1126 0 59.2444 11.7479 696 146.017 870.832 470.325
1127 0 61.1848 12.2743 751 146.088 870.88 469.874
1128 0 65.426 11.9371 781 143.649 870.813 468.563
1129 0 65.2082 12.6978 828 140.804 870.464 468.076
1130 0 69.1768 11.9404 826 150.288 870.369 467.179
1131 0 70.2258 12.4313 873 144.659 870.52 465.876
1132 0 73.2195 12.3328 903 148.27 870.466 464.761
1133 0 75.2947 12.6171 950 148.349 870.356 464.134
1134 0 76.2462 12.9187 985 146.098 870.748 461.877
1135 0 79.2044 12.2847 973 146.4 871.313 461.898
1136 0 83.3134 12.2069 1017 150.804 870.782 460.006
1137 0 85.1793 12.2565 1044 149.341 870.65 458.616
1138 0 87.2598 12.5373 1094 150.349 870.719 457.192
1139 1 47.0352 10.1413 477 155.86 869.105 478.579
1140 0 48.0915 10.5008 505 158.402 870.251 478.044
1141 0 49.2184 10.8699 535 153.394 871.89 477.222
1142 0 49.1823 11.5895 570 145.604 873.047 475.289
1143 0 52.0833 11.6544 607 141.112 869.83 476.381
1144 0 53.0988 12.0718 641 150.212 869.668 474.643
1145 0 54.0546 11.7659 636 150.127 869.525 474.561
1146 0 56.1928 12.1724 684 148.825 869.67 473.776
1147 0 55.2146 11.9534 660 139.418 869.452 472.898
1148 0 57.1747 11.9983 686 140.682 869.284 471.328
1149 0 58.4644 12.3323 721 150.012 869.34 470.193
1150 0 58.3716 12.5917 735 152.265 869.288 470.282
1151 0 60.369 12.5395 757 152.979 869.625 468.429
1152 0 63.3644 12.6096 799 154.183 869.471 467.917
1153 0 64.3658 12.7863 823 148.656 869.707 466.947
1154 0 66.2586 13.3417 884 146.878 869.681 466.053
1155 0 67.1811 13.5008 907 158.389 870.239 464.626
1156 0 72.1078 12.7587 920 155.615 869.246 463.74
1157 0 73.2238 12.8374 940 158.557 869.128 462.607
1158 0 73.2722 13.3339 977 159.285 869.223 463.776
1159 0 74.2862 13.5826 1009 150.572 869.342 462.616
1160 0 79.2513 13.413 1063 154.159 869.355 460.716
1161 0 87.1221 15.5988 1359 142.581 870.628 456.773
1162 0 84.1874 15.0854 1270 141.986 871.973 456.26
1163 0 89.2573 15.4497 1379 141.17 871.74 454.724
1164 0 88.1732 14.3921 1269 147.503 871.235 454.817
1165 0 94.1758 15.0676 1419 142.482 871.52 452.03
1166 0 93.1456 13.6775 1274 155.907 871.177 453.138
1167 1 49.0837 10.6553 523 157.337 870.296 476.748
1168 0 50.1394 11.7473 589 149.353 869.915 475.801
1169 0 52.1465 11.832 617 154.073 869.806 475.355
1170 0 54.032 12.0669 652 148.653 870.067 474.104
1171 0 53.3109 12.5115 667 153.97 872 471.247
1172 0 56.1415 13.0741 734 147.766 872.243 472.429
1173 0 57.166 12.6649 724 153.971 871.432 472.349
1174 0 58.0983 13.0124 756 149.411 871.557 471.563
1175 0 61.1317 12.8248 784 147.585 872.533 470.95
1176 0 62.216 12.7138 791 148.976 872.044 470.118
1177 0 64.2979 13.1575 846 149.856 871.861 468.547
1178 0 67.205 13.4067 901 147.681 871.867 466.663
1179 0 69.2009 13.1935 913 150.327 872.683 467.14
1180 0 71.1585 13.1818 938 148.139 872.44 465.069
1181 0 73.2045 13.1549 963 154.048 872.24 465.138
1182 0 73.2017 13.1827 965 156.074 872.137 465.673
1183 0 76.2377 13.3398 1017 157.328 872.057 463.464
1184 0 78.1798 13.3794 1046 151.734 871.622 461.641
1185 0 82.1577 13.2428 1088 139.26 871.681 460.482
1186 0 84.1521 13.4162 1129 156.323 872.231 458.074
1187 0 86.1686 13.7985 1189 150.962 872.154 456.667
1188 0 89.1795 13.8373 1234 148.216 872.476 456.45
1189 0 93.2632 13.3279 1243 153.144 872.622 455.159
1190 0 96.3507 13.3575 1287 153.089 872.228 453.063
1191 1 51.2092 11.4433 586 160.109 872.628 475.266
1192 0 52.029 11.3206 589 150.277 873.655 475.604
1193 0 53.1162 12.3126 654 153.922 873.436 474.286
1194 0 53.3875 12.7183 679 149.735 872.969 473.418
1195 0 57.2263 12.0923 692 151.64 872.814 472.471
1196 0 60.2252 12.5363 755 147.166 872.359 471.849
1197 0 61.2606 11.9163 730 148.123 872.342 469.984
1198 0 63.2727 11.8693 751 150.957 872.104 468.92
1199 0 65.1666 12.3069 802 148.009 871.8 467.792
1200 0 66.1808 12.8587 851 151.934 872.358 466.25
1201 0 69.2416 12.4347 861 151.403 872.7 465.757
1202 0 70.1978 12.593 884 150.977 873.103 464.351
1203 0 74.1942 12.5482 931 147.888 872.53 463.551
1204 0 78.1232 12.6979 992 151.47 872.607 461.21
1205 0 79.3043 12.4331 986 153.173 872.903 460.584
1206 0 81.3556 12.6236 1027 149.241 872.855 458.986
1207 0 85.2628 12.8778 1098 154.391 871.781 457.804
1208 1 44.2658 10.8662 481 153.272 871.807 478.356
1209 0 45.3454 11.5557 524 157.183 873.141 476.865
1210 0 47.304 11.7115 554 148.24 872.419 476.749
1211 0 48.2333 11.5688 558 152.05 872.108 475.828
1212 0 48.2319 11.8386 571 142.417 872.229 474.942
1213 0 52.2361 11.7926 616 155.573 872.292 473.461
1214 0 53.3139 11.9669 638 151.538 871.945 473.212
1215 0 55.2927 11.8822 657 146.33 871.534 471.9
1216 0 55.2778 11.9759 662 150.006 871.704 471.585
1217 0 57.4436 11.9596 687 147.447 872.199 470.31
1218 0 59.2362 11.9015 705 141.348 872.235 469.349
1219 0 60.215 12.1731 733 148.667 872.121 468.884
1220 0 60.0928 11.9315 717 149.086 871.674 469.802
1221 0 62.1103 12.3329 766 142.658 871.486 467.149
1222 0 65.0519 12.2671 798 150.096 870.883 467.382
1223 0 66.246 12.1064 802 143.786 871.554 466.044
1224 0 68.3671 12.4914 854 147.1 873.431 466.302
1225 0 69.2111 12.0934 837 145.705 873.499 464.438
1226 0 73.119 12.7737 934 143.457 873.055 462.716
1227 0 76.2995 12.4902 953 150.212 872.552 461.711
1228 0 78.1589 12.2187 955 149.043 873.141 460.366
1229 0 81.3201 12.7521 1037 144.093 873.095 459.442
1230 0 82.5626 12.8993 1065 146.04 872.842 457.388
1231 1 45.2832 10.335 468 146.929 872.885 477.092
1232 0 47.2536 10.4754 495 148.586 872.691 476.111
1233 0 51.1088 11.0744 566 147.516 872.841 474.604
1234 0 53.0296 11.4464 607 151.674 873.53 474.259
1235 0 55.0769 12.1285 668 153.915 871.973 472.165
1236 0 54.1456 11.8569 642 151.005 872.338 471.154
1237 0 55.1313 12.5337 691 146.007 872.59 471.417
1238 0 60.0756 12.1347 729 149.18 873.173 469.856
1239 0 61.0557 12.2511 748 151.102 872.981 469.029
1240 0 63.1391 12.4645 787 153.677 873.006 467.948
1241 0 65.0877 12.414 808 148.595 873.327 465.963
1242 0 65.2561 12.3054 803 150.691 873.204 466.843
1243 0 67.1652 12.1938 819 152.295 873.618 465.725
1244 0 70.1366 12.5755 882 145.833 874.016 463.461
1245 0 71.2297 12.4808 889 146.036 872.606 462.829
1246 0 71.4309 12.5156 894 148.068 872.673 461.992
1247 0 76.2595 12.4312 948 150.651 873.166 460.117
1248 0 80.2695 12.5701 1009 146.145 873.455 459.744
1249 0 82.4069 12.5232 1032 139.367 873.395 458.774
1250 0 83.3833 12.4126 1035 139.811 872.96 458.853
1251 0 85.4979 12.5149 1070 135.101 872.888 456.978
1252 0 88.4824 12.6805 1122 143.13 872.895 455.423
1253 0 92.5779 12.1087 1121 142.794 872.873 453.963
1254 0 94.5242 12.2932 1162 141.219 872.757 452.364
1255 0 97.4189 12.3179 1200 143.378 872.628 450.435
1256 0 99.3273 12.7357 1265 132.258 874.53 448.643
1257 0 101.46 12.5074 1269 141.921 874.26 445.429
1258 0 101.46 12.5074 1269 152.868 873.26 445.429
1259 0 105.345 12.0842 1273 142.52 873.5 445.566
1260 0 109.359 11.8601 1297 146.039 872.839 443.264
1261 0 113.389 12.7085 1441 143.707 873.284 440.6
1262 1 62.1262 10.7684 669 143.744 872.951 466.653
1263 0 63.2037 11.1069 702 145.028 872.906 464.873
1264 0 65.1499 10.2993 671 150.669 873.501 466.49
1265 0 67.1235 10.9798 737 149.723 873.22 464.598
1266 0 71.1478 10.7804 767 149.27 873.167 462.764
1267 0 70.1869 11.0277 774 147.714 873.102 462.341
1268 0 74.1414 11.1948 830 152.452 872.866 460.795
1269 0 75.1594 11.3359 852 145.737 873.678 459.906
1270 0 77.2837 11.7877 911 144.061 873.471 457.082
1271 0 81.2307 12.2121 992 151.084 872.891 455.236
1272 0 84.175 12.1414 1022 138.524 872.614 456.052
1273 0 85.1864 12.8894 1098 143.638 872.892 455.705
1274 0 87.2929 13.0824 1142 139.25 873.452 454.872
1275 0 89.37 13.6063 1216 144.066 873.908 453.006
1276 0 93.3204 13.459 1256 145.691 873.791 451.321
1277 0 97.2129 13.0332 1267 148.017 874.032 450.648
1278 0 100.404 13.0672 1312 148.71 873.889 448.984
1279 0 103.37 13.0308 1347 150.278 874.621 446.771
1280 0 107.188 13.593 1457 143.252 874.021 443.817
1281 0 108.354 13.2621 1437 145.769 874.488 440.737
1282 0 115.479 13.2059 1525 143.117 874.548 439.889
1283 1 60.4464 11.0677 669 136.323 873.882 467.284
1284 0 62.3149 11.6505 726 145.758 873.913 467.105
1285 0 63.1392 12.1794 769 143.406 873.633 465.424
1286 0 66.2397 11.6848 774 145.634 873.911 465.412
1287 0 68.2454 12.118 827 138.489 874.282 463.089
1288 0 71.3667 11.7982 842 138.606 873.714 462.629
1289 0 72.2371 12.3898 895 141.032 873.835 460.598
1290 0 76.268 12.0627 920 138.6 873.362 460.19
1291 0 76.5196 12.1015 926 136.011 873.653 458.104
1292 0 80.2344 12.1644 976 133.508 873.429 456.697
1293 0 81.2624 12.4904 1015 140.294 873.181 454.865
1294 0 83.479 12.9973 1085 139.807 873.299 452.909
1295 0 86.4117 12.8918 1114 134.997 873.171 451.409
1296 0 89.5226 12.7119 1138 137.967 872.618 449.88
1297 0 92.6709 12.8735 1193 138.28 872.531 447.786
1298 0 94.5997 12.4842 1181 139.639 872.322 446.798
1299 0 98.7383 12.4876 1233 142.363 872.47 445.35
1300 0 101.572 12.3263 1252 143.07 872.426 442.08
1301 0 103.88 12.7936 1329 135.201 872.442 440.345
1302 0 105.712 12.3354 1304 144.072 873.887 438.188
1303 0 109.515 12.6193 1382 144.544 875.386 435.535
1304 1 59.221 10.1315 600 141.91 874.13 459.542
1305 0 59.2344 10.5682 626 139.073 873.821 459.442
1306 0 60.2948 10.3823 626 133.963 873.987 458.623
1307 0 64.6378 11.0616 715 128.42 874.331 457.162
1308 0 66.0729 11.9414 789 139.819 875.305 462.947
1309 0 68.0489 11.8444 806 133.324 874.623 462.16
1310 0 70.0373 11.9936 840 141.758 874.915 461.418
1311 0 73.0492 11.9372 872 142.116 875.784 458.905
1312 0 74.0899 12.1609 901 138.406 875.373 457.687
1313 0 77.1577 12.0014 926 136.843 874.384 457.761
1314 0 79.0588 12.6488 1000 142.422 875.065 455.79
1315 0 82.4472 12.4079 1023 141.421 873.508 455.077
1316 0 84.2102 12.1838 1026 144.327 872.953 453.834
1317 0 89.2176 12.2846 1096 148.006 873.107 451.953
1318 1 47.0557 9.81815 462 142.448 871.9 472.548
1319 0 48.0935 9.37756 451 145.306 873.104 472.122
1320 0 50.0859 10.3422 518 146.473 872.774 471.081
1321 0 52.1179 10.4954 547 144.729 873.234 470.612
1322 0 54.2038 11.014 597 142.474 873.901 469.362
1323 0 55.0532 11.2073 617 142.593 872.567 469.392
1324 0 56.1018 11.5861 650 142.871 874.312 468.295
1325 0 56.1643 11.8403 665 135.319 874.574 468.537
1326 0 59.0526 11.7014 691 138.001 874.263 466.541
1327 0 61.072 11.8549 724 137.653 874.78 466.019
1328 0 61.1006 12.1766 744 143.758 874.163 465.395
1329 0 64.0261 11.7452 752 143.726 873.932 464.822
1330 0 65.0424 12.4534 810 142.869 874.28 463.702
1331 0 66.0664 12.0939 799 137.507 874.427 462.902
1332 0 68.1125 12.1857 830 138.599 874.999 461.823
1333 0 71.0278 12.1361 862 136.616 874.99 460.002
1334 0 74.0518 12.4102 919 143.49 874.524 458.64
1335 0 75.0956 12.3176 925 145.403 874.125 457.966
1336 0 78.054 12.5554 980 143.013 874.656 455.821
1337 0 81.0523 12.202 989 135.453 875.388 454.702
1338 0 82.0441 11.9448 980 138.102 874.663 455.076
1339 0 83.1986 12.2478 1019 136.222 874.997 453.293
1340 0 88.0961 12.4069 1093 136.383 875.561 452.269
1341 0 91.1863 12.2277 1115 135.354 875.443 451.675
1342 1 48.1276 9.70338 467 130.844 874.927 472.715
1343 0 49.1595 9.72345 478 143.262 874.914 472.726
1344 0 51.1945 10.1378 519 137.322 874.8 470.624
1345 0 53.127 10.4467 555 139.737 874.933 469.494
1346 0 55.0998 10.7623 593 131.103 874.708 469.852
1347 0 56.3877 11.1904 631 138.022 874.428 467.694
1348 0 57.4464 11.3671 653 135.876 873.113 466.652
1349 0 60.4643 11.329 685 127.893 873.291 465.594
1350 0 62.2499 11.3735 708 132.329 874.285 466.181
1351 0 63.136 11.7999 745 133.372 874.773 466.191
1352 0 64.1834 11.8722 762 136.982 875.419 464.521
1353 0 65.2524 11.785 769 137.035 874.012 463.252
1354 0 67.3412 11.6274 783 137.535 874.037 461.668
1355 0 68.2615 12.54 856 139.879 875.06 461.903
1356 0 71.1704 12.4771 888 144.048 875.357 460.28
1357 0 74.209 12.8286 952 132.772 875.52 459.086
1358 0 77.18 12.1923 941 147.038 875.153 458.47
1359 0 77.3629 12.2927 951 148.04 874.297 457.862
1360 0 80.2961 12.4414 999 140.017 873.943 456.21
1361 0 83.2626 11.9021 991 146.64 873.512 454.07
1362 0 87.2288 11.9456 1042 146.881 874.685 452.333
1363 1 47.0385 10.4383 491 148.098 876.46 471.935
1364 0 48.0927 11.3115 544 138.443 874.796 470.658
1365 0 49.2086 11.7053 576 134.747 875.094 471.194
1366 0 48.2863 12.2188 590 143.18 874.419 470.695
1367 0 51.1891 11.6822 598 144.291 873.687 470.368
1368 0 53.2323 11.6283 619 144.627 874.092 469.62
1369 0 53.2394 11.8333 630 144.663 874.506 469.368
1370 0 55.2709 12.3211 681 140.762 873.765 467.771
1371 0 58.1898 11.6687 679 146.527 873.971 467.113
1372 0 57.2195 12.3909 709 139.815 874.539 465.743
1373 0 60.2047 12.009 723 143.17 874.574 465.156
1374 0 61.1491 11.9707 732 145.01 874.75 464.803
1375 0 63.1485 12.1301 766 141.65 874.953 463.257
1376 0 64.2049 12.3355 792 148.133 874.761 462.923
1377 0 65.1589 12.0014 782 139.418 875.228 462.283
1378 0 66.1207 12.2352 809 145.895 875.265 461.596
1379 0 71.243 12.0714 860 144.867 875.214 460.129
1380 0 74.2178 12.1804 904 137.971 875.237 458.893
1381 0 75.1946 11.9822 901 137.376 874.807 458.645
1382 0 80.1812 11.8731 952 138.122 874.634 455.891
1383 1 41.1106 10.338 425 142.819 875.802 475.334
1384 0 45.041 10.3239 465 140.611 876.155 473.51
1385 0 45.0643 10.4073 469 138.002 875.49 474.646
1386 0 48.0343 10.5758 508 137.642 874.959 474.154
1387 0 49.0872 11.286 554 139.563 875.697 473.085
1388 0 51.076 11.8647 606 138.038 875.789 471.556
1389 0 55.0782 11.3475 625 138.384 874.781 472.227
1390 0 55.1535 11.8941 656 137.53 874.075 469.758
1391 0 56.0881 12.3021 690 136.488 874.291 468.909
1392 0 58.1791 11.9631 696 145.443 874.47 467.838
1393 0 61.1498 11.8398 724 138.587 874.192 467.709
1394 0 63.0626 12.2735 774 138.643 874.761 466.236
1395 0 64.0426 12.5385 803 137.255 874.564 465.958
1396 0 67.0926 12.4008 832 136.022 874.532 465.49
1397 0 67.1625 12.2836 825 138.335 874.434 464.183
1398 0 68.049 12.5498 854 137.546 874.104 463.39
1399 0 71.1903 12.7967 911 141.415 874.889 461.926
1400 0 73.1369 12.4971 914 141.643 875.105 461.142
1401 0 76.1447 12.7914 974 137.468 874.825 460.987
1402 0 77.4091 13.0347 1009 138.901 874.496 459.125
1403 0 81.2643 12.4901 1015 136.278 874.497 457.956
1404 0 84.1851 12.9358 1089 132.475 874.031 456.454
1405 0 85.613 12.5448 1074 141.533 872.867 455.907
1406 0 88.3832 12.9323 1143 136.164 873.351 454.041
1407 0 90.243 12.8764 1162 140.644 874.022 453.789
1408 1 49.3723 11.4639 566 142.97 873.048 473.133
1409 0 51.5814 11.8454 611 142.809 872.682 472.36
1410 0 52.445 12.1651 638 144.788 873.266 472.149
1411 0 55.0385 12.3005 677 138.402 873.352 473.79
1412 0 57.0154 12.1546 693 140.459 872.592 472.408
1413 0 57.0474 12.3757 706 142.343 872.999 471.891
1414 0 57.0793 12.4739 712 138.736 873.272 471.813
1415 0 61.1287 12.5964 770 143.43 872.083 469.63
1416 0 62.0857 12.9176 802 139.162 871.771 469.627
1417 0 64.0692 12.5645 805 145.586 871.643 468.318
1418 0 65.0658 13.1098 853 141.363 872.196 466.781
1419 0 68.0706 13.3097 906 137.674 871.328 467.3
1420 0 71.0431 12.7247 904 140.671 871.023 466.035
1421 0 72.0902 13.1779 950 133.469 870.836 465.926
1422 0 73.0944 13.2021 965 142.15 870.596 464.46
1423 0 77.1119 13.3183 1027 140.159 870.528 462.322
1424 0 80.1937 13.218 1060 139.529 870.772 462.077
1425 0 81.3486 13.854 1127 131.878 871.957 460.179
1426 0 86.3005 13.4993 1165 141.08 871.284 458.398
1427 0 86.2003 13.8283 1192 137.727 871.647 455.772
1428 0 90.1572 13.3323 1202 139.196 871.823 453.176
1429 0 95.4137 13.5096 1289 137.63 871.077 454.66
1430 1 50.0847 11.3009 566 137.378 870.267 478.375
1431 0 52.3535 11.4414 599 137.214 872.013 472.052
1432 0 53.215 12.4401 662 139.131 871.656 475.566
1433 0 55.1265 11.9725 660 129.394 870.297 478.142
1434 0 56.0335 12.0464 675 133.738 870.127 477.738
1435 0 58.195 12.544 730 143.344 869.564 477.54
1436 0 60.0671 12.253 736 141.846 869.461 475.333
1437 0 63.1327 12.149 767 142.576 869.567 473.7
1438 0 62.2268 12.3419 768 145.535 869.262 473.725
1439 0 65.0855 12.2147 795 149.525 868.981 471.702
1440 0 69.1562 12.5947 871 138.923 869.383 468.386
1441 0 75.1003 14.7802 1110 128.575 870.232 464.4
1442 0 77.166 15.3565 1185 127 870.711 463.732
1443 0 74.1505 13.7693 1021 145.024 870.301 465.441
1444 0 74.306 13.0138 967 148.372 869.759 466.532
1445 0 78.2437 12.8189 1003 137.861 869.181 465.972
1446 0 81.3443 12.3549 1005 146.476 870.076 464.567
1447 0 80.2761 12.6314 1014 145.702 869.816 462.696
1448 0 86.3003 12.7925 1104 141.271 869.746 462.261
1449 0 88.2837 12.3805 1093 144.588 869.519 461.076
1450 0 92.3071 12.3284 1138 142.812 869.951 458.35
1451 0 92.2158 13.0346 1202 147.125 869.836 456.563
1452 0 95.2475 12.9242 1231 147.656 869.854 454.958
1453 0 99.2332 13.2818 1318 140.223 869.249 452.14
1454 0 103.381 13.1262 1357 148.296 869.469 447.913
1455 0 107.361 12.7886 1373 146.855 870.224 449.217
1456 0 108.307 13.3878 1450 147.75 871.584 446.475
1457 0 115.355 13.194 1522 135.228 870.982 446.474
1458 1 60.2466 10.9882 662 142.125 871.569 471.162
1459 0 61.188 12.1919 746 139.188 871.61 469.046
1460 0 67.1127 12.3673 830 148.033 872.842 467.93
1461 0 67.3152 12.5083 842 139.115 872.376 467.147
1462 0 71.3912 12.2144 872 144.993 870.87 467.249
1463 0 73.204 12.6086 923 149.252 871.085 465.736
1464 0 76.3526 12.7173 971 150.331 871.234 463.715
1465 0 77.1455 13.0144 1004 141.537 871.013 462.41
1466 0 80.383 13.0251 1047 138.623 871.564 461.836
1467 0 83.3165 12.9026 1075 139.654 872.088 460.948
1468 0 85.2401 12.5997 1074 144.215 871.887 459.696
1469 0 88.3004 13.1596 1162 145.46 872.377 457.047
1470 0 91.6437 13.2797 1217 137.027 872.566 456.048
1471 0 93.5727 13.1128 1227 142.329 872.639 454.7
1472 0 96.5149 13.1586 1270 141.024 873.211 453.853
1473 0 99.3846 13.5635 1348 135.426 873.024 453.139
1474 0 101.463 13.6996 1390 143.591 873.419 451.227
1475 0 104.634 13.724 1436 141.232 873.54 449.494
1476 0 107.536 13.9395 1499 147.736 874.424 446.253
1477 0 110.49 13.5306 1495 147.647 874.854 443.656
1478 0 113.419 13.9483 1582 147.082 875.041 441.561
1479 0 118.632 13.8243 1640 149.052 874.482 441.222
1480 0 122.495 13.6577 1673 148.53 874.666 438.697
1481 0 126.665 14.3055 1812 148.698 874.283 435.728
1482 0 129.506 13.9839 1811 149.78 874.316 433.263
1483 1 69.3264 12.03 834 152.161 874.393 463.586
1484 0 72.4314 12.6188 914 145.147 873.721 462.791
1485 0 75.5827 12.8733 973 138.264 874.304 459.914
1486 0 77.3634 13.0811 1012 142.071 873.738 450.903
1487 0 80.4747 13.0973 1054 143.996 873.81 449.523
1488 0 81.4143 13.0198 1060 145.501 873.728 452.477
1489 0 84.3412 13.2794 1120 145.224 873.041 457.874
1490 0 87.3853 13.286 1161 139.679 872.878 456.861
1491 0 88.4014 13.5179 1195 146.277 872.31 454.507
1492 0 90.3187 13.5188 1221 157.07 873.114 454.729
1493 0 92.393 12.9988 1201 156.502 873.24 454.011
1494 0 96.4444 13.189 1272 153.96 872.686 453.158
1495 0 98.4296 13.2887 1308 151.554 873.023 452.564
1496 0 100.281 13.4921 1353 155.688 872.907 450.575
1497 0 104.289 14.3927 1501 147.422 872.911 446.663
1498 0 106.184 14.1075 1498 158.76 873.325 446.559
1499 0 107.181 13.939 1494 159.124 873.267 446.562
1500 0 112.216 13.8662 1556 156.355 872.94 443.434
1501 0 117.235 13.861 1625 159.43 872.694 442.158
1502 0 121.262 13.945 1691 150.574 872.76 439.393
1503 0 125.251 14.0198 1756 151.744 872.956 437.987
1504 0 129.312 14.0281 1814 156.085 872.488 435.831
1505 0 132.538 13.9658 1851 147.708 872.742 431.863
1506 0 136.525 14.0047 1912 147.495 872.029 429.784
1507 0 141.444 13.9348 1971 154.376 871.855 427.944
1508 1 78.4174 11.4515 898 151.597 871.948 461.733
1509 0 81.4181 12.184 992 155.056 871.849 460.454
1510 0 84.2277 12.5612 1058 150.123 871.738 459.412
1511 0 85.3607 12.9568 1106 138.984 871.363 457.39
1512 0 88.3085 13.3169 1176 155.832 871.827 455.667
1513 0 91.5666 13.1598 1205 152.304 871.764 454.768
1514 0 95.5985 13.2429 1266 156.877 871.724 452.468
1515 0 98.4757 13.0286 1283 147.708 872.515 452.181
1516 0 101.609 13.1976 1341 156.162 872.295 448.254
1517 0 104.621 13.0566 1366 150.503 872.313 447.225
1518 0 108.635 13.596 1477 151.507 872.479 445.451
1519 0 110.662 13.3921 1482 147.421 871.508 444.133
1520 0 115.72 13.6882 1584 148.441 871.636 440.518
1521 0 117.542 13.1187 1542 151.215 872.093 439.801
1522 0 121.55 13.2538 1611 154.192 871.873 438.788
1523 0 127.602 13.354 1704 148.782 872.063 433.524
1524 0 130.678 13.6749 1787 146.979 871.656 431.533
1525 0 134.802 13.5532 1827 146.421 871.555 429.739
1526 0 139.793 13.3197 1862 149.057 871.472 428.081
1527 0 144.729 13.5011 1954 145.151 870.463 424.933
1528 0 146.782 13.6802 2008 142.958 870.894 424.321
1529 0 146.782 13.6802 2008 156.191 871.894 424.321
1530 0 157.554 13.4811 2124 147.918 870.76 419.837
1531 0 162.625 13.3313 2168 142.53 870.223 418.762
1532 0 167.76 13.3882 2246 149.364 870.469 416.837
1533 0 170.459 13.6807 2332 143.835 870.446 413.458
1534 0 176.508 13.4158 2368 136.323 870.942 411.108
1535 0 183.577 13.6455 2505 138.463 870.195 408.749
1536 0 189.518 13.5027 2559 141.896 870.844 406.61
1537 1 40.1301 8.3977 337 128.816 871.89 480.944
1538 0 44.1683 8.01481 354 129.39 873.627 478.573
1539 0 45.0093 8.77596 395 127.106 873.18 478.752
1540 0 48.0592 9.28022 446 125.188 873.253 479.009
1541 0 49.0556 10.4371 512 124.914 872.818 476.953
1542 0 49.2814 9.67912 477 121.524 871.887 478.055
1543 0 51.2331 9.40798 482 120.763 871.985 477.1
1544 0 54.2822 9.94802 540 124.181 870.98 474.906
1545 0 55.1683 10.1508 560 122.18 870.927 473.736
1546 0 57.2529 10.5846 606 123.81 871.224 472.842
1547 0 60.2373 10.525 634 119.833 871.494 471.632
1548 0 62.33 10.7653 671 123.025 871.462 471.627
1549 0 63.3388 11.3201 717 120.266 870.983 470.194
1550 0 65.2766 10.8462 708 121.578 870.554 469.03
1551 0 66.3029 11.4776 761 126.177 870.599 467.355
1552 0 70.2384 11.162 784 129.415 870.555 466.415
1553 0 72.3129 11.9896 867 128.555 870.601 465.446
1554 0 74.2539 11.5145 855 127.647 870.77 463.828
1555 0 76.4936 11.3604 869 114.197 870.942 462.322
1556 0 78.2677 12.355 967 110.504 870.945 458.843
1557 0 82.3325 12.2916 1012 124.663 870.272 458.985
1558 0 82.3445 12.6906 1045 129.489 870.438 458.476
1559 0 86.4325 12.5069 1081 134.957 871.29 456.507
1560 0 89.3826 12.2283 1093 131.878 871.613 455.121
1561 0 91.3554 12.3364 1127 123.896 870.717 452.533
1562 0 94.4713 12.2259 1155 139.549 871.527 451.579
1563 1 50.2896 10.2407 515 117.553 872.262 474.788
1564 0 50.5861 11.0109 557 128.955 872.329 473.136
1565 0 52.4779 10.8617 570 126.139 872.402 472.288
1566 0 52.394 10.7646 564 131.207 872.911 469.69
1567 0 62.5645 13.8737 868 107.923 872.579 463.286
1568 0 58.4023 12.2598 716 119.567 873.687 466.161
1569 0 58.2518 11.1241 648 132.383 873.438 470.747
1570 0 62.3676 13.0677 815 118.987 873.766 464.49
1571 1 75.7645 14.7299 1116 102.996 873.554 458.617
1572 0 73.6621 14.6344 1078 107.956 874.061 459.71
1573 0 71.7418 15.1237 1085 110.471 873.843 460.334
1574 0 73.5544 15.6891 1154 109.562 873.18 458.324
1575 0 74.4306 16.203 1206 110.365 873.502 458.624
1576 0 74.5012 14.9931 1117 113.423 873.716 457.887
1577 0 76.4919 15.4265 1180 111.101 873.097 456.458
1578 0 76.5933 14.1527 1084 124.835 873.447 456.61
1579 0 74.5476 13.3203 993 134.264 873.032 452.377
1580 0 77.3973 13.3209 1031 129.228 873.073 446.638
1581 0 80.3957 13.3962 1077 129.481 872.643 446.153
1582 0 80.5579 13.3817 1078 125.936 872.673 454.365
1583 0 82.4628 13.4849 1112 130.856 872.791 453.874
1584 0 86.579 13.479 1167 134.297 873.371 452.332
1585 0 88.5267 13.8038 1222 125.26 873.179 450.777
1586 0 90.5244 13.5875 1230 135.936 873.609 450.376
1587 0 95.5792 13.6013 1300 132.457 873.385 448.489
1588 0 97.4426 13.567 1322 136.49 872.536 449.132
1589 0 99.6495 13.7883 1374 135.644 873.483 445.363
1590 0 104.539 13.5548 1417 139.932 873.667 446.634
1591 0 105.426 13.5355 1427 130.413 873.585 439.685
1592 1 57.2171 11.5525 661 142.452 873.534 466.062
1593 0 57.3116 12.8944 739 139.602 873.38 463.468
1594 0 57.3634 12.3772 710 139.89 873.115 463.356
1595 0 59.2165 12.4965 740 135.385 873.205 461.726
1596 0 62.1844 12.479 776 140.674 872.907 460.526
1597 0 63.1939 12.5962 796 127.657 872.876 459.47
1598 0 66.1682 12.2415 810 139.646 872.822 458.756
1599 0 68.2091 12.8722 878 129.395 872.893 458.302
1600 0 70.1472 12.7731 896 137.895 872.44 458.477
1601 0 72.1459 13.1678 950 138.427 873.146 458.537
1602 0 72.3466 13.3247 964 138.411 872.363 457.364
1603 0 74.2904 13.2588 985 137.324 871.692 455.593
1604 0 77.2113 13.1457 1015 139.503 872.849 455.686
1605 0 80.1165 13.3805 1072 134.837 871.814 457.392
1606 0 81.1187 13.0426 1058 146.146 872.161 456.279
1607 0 83.2007 13.6658 1137 146.142 872.928 454.931
1608 0 87.2478 13.5132 1179 144.721 872.511 453.364
1609 0 89.184 13.545 1208 144.651 873.032 453.105
1610 0 91.3071 13.3177 1216 148.7 873.27 448.993
1611 0 94.3638 13.5751 1281 146.586 872.708 450.048
1612 0 98.3763 13.5195 1330 152 872.877 447.651
1613 0 100.14 13.5511 1357 143.284 872.083 446.913
1614 1 57.0865 11.4563 654 146.011 871.485 468.635
1615 0 57.0636 12.0392 687 147.08 873.106 469.295
1616 0 58.1446 12.6237 734 146.12 873.733 467.706
1617 0 61.0316 12.2887 750 149.109 872.141 467.527
1618 0 63.1376 12.1322 766 143.264 871.655 466.634
1619 0 66.1119 12.1763 805 147.817 872.076 465.451
1620 0 67.0864 12.5212 840 141.937 871.54 464.887
1621 0 69.092 12.5919 870 143.107 871.408 463.79
1622 0 73.13 12.6761 927 145.645 870.665 463.579
1623 0 75.0825 12.8259 963 144.345 870.973 461.563
1624 0 77.2023 12.6032 973 141.309 870.953 460.479
1625 0 79.1865 12.8431 1017 147.891 871.254 458.852
1626 0 82.3766 12.6614 1043 142.358 871.304 457.598
1627 0 85.4951 12.8779 1101 144.92 870.655 456.012
1628 0 88.5976 13.1832 1168 140.816 870.287 453.711
1629 0 92.376 12.8821 1190 144.312 869.673 452.58
1630 1 49.1991 11.0978 546 144.63 870.097 475.026
1631 0 54.0854 11.3894 616 146.682 870.157 477.248
1632 0 54.2482 12.4613 676 139.234 870.355 476.432
1633 0 55.2144 12.1707 672 137.699 870.265 476.345
1634 0 56.3371 12.4962 704 137.374 870.116 474.7
1635 0 59.2355 12.273 727 140.535 870.373 473.759
1636 0 60.2476 12.4486 750 145.289 871.017 473.561
1637 0 63.1885 12.5972 796 136.291 869.876 473.972
1638 0 65.2082 12.8972 841 138.876 869.627 472.484
1639 0 66.2194 13.0173 862 139.754 870.951 471.021
1640 0 68.1707 12.7181 867 127.653 871.082 470.922
1641 0 69.2072 13.3368 923 141.82 871.528 467.889
1642 0 72.2261 13.2362 956 138.794 871.502 467.499
1643 0 75.2417 12.8785 969 142.453 871.454 466.771
1644 0 77.195 12.9024 996 142.861 871.429 465.2
1645 0 79.2505 13.1608 1043 147.39 871.5 464.213
1646 0 81.2404 13.5647 1102 139.453 871.464 463.238
1647 0 86.2517 13.4954 1164 142.99 871.259 462.617
1648 0 88.3019 13.3746 1181 146.897 870.402 460.83
1649 0 91.1798 13.3911 1221 149.116 870.654 457.902
1650 0 93.1762 13.3189 1241 146.153 870.454 456.792
1651 0 94.164 13.0517 1229 151.778 871.312 455.139
1652 0 98.2535 13.4448 1321 150.287 870.721 453.661
1653 1 54.0394 11.5286 623 152.419 870.795 476.793
1654 0 56.0219 11.8525 664 149.64 870.239 475.402
1655 0 58.0899 11.8781 690 149.655 869.838 475.487
1656 0 57.1197 12.325 704 150.936 870.692 473.744
1657 0 61.1312 12.2033 746 145.139 871.365 473.342
1658 0 62.1254 12.5714 781 149.68 870.996 472.077
1659 0 66.0728 12.0473 796 150 871.038 470.81
1660 0 67.151 12.4942 839 140.597 871.008 468.94
1661 0 68.0824 12.7346 867 154.276 871.251 468.409
1662 0 72.0468 12.5196 902 150.784 871.54 466.545
1663 0 74.0955 12.6323 936 150.583 872.03 465.735
1664 0 76.1029 13.127 999 147.933 872.034 464.171
1665 0 79.1381 12.8383 1016 152.483 872.021 463.281
1666 0 80.0865 12.961 1038 146.748 872.263 462.16
1667 0 84.0792 12.5596 1056 152.067 872.188 461.454
1668 0 86.0367 13.0061 1119 153.9 871.738 458.323
1669 0 90.1142 12.8948 1162 154.694 871.87 456.508
1670 0 92.1082 13.1042 1207 155.658 872.836 454.87
1671 0 96.1743 12.5709 1209 158.043 873.232 454.283
1672 1 54.0482 11.3602 614 158.682 874.272 475.14
1673 0 54.0452 11.7679 636 158.682 874.825 473.761
1674 0 56.1535 11.7179 658 155.509 873.926 473.033
1675 0 58.2365 12.0028 699 150.153 875.755 472.821
1676 0 59.1015 12.1993 721 149.626 874.939 471.738
1677 0 61.143 11.9556 731 149.744 875.423 471.269
1678 0 63.1685 12.1105 765 151.708 875.009 468.942
1679 0 64.0625 12.8624 824 146.544 874.555 467.345
1680 0 65.1681 12.6596 825 147.118 874.587 467.55
1681 0 68.3018 12.4594 851 144.504 874.347 467.115
1682 0 70.0878 12.3845 868 154.868 874.735 464.968
1683 0 73.2075 12.567 920 152.52 874.625 464.384
1684 0 75.4471 12.7109 959 142.285 874.885 463.658
1685 0 77.2842 12.3829 957 153.069 874.882 463.098
1686 0 79.0944 12.8075 1013 154.36 874.886 461.968
1687 0 81.0779 13.1849 1069 154.938 874.633 460.845
1688 0 84.2335 13.332 1123 158.881 874.046 458.695
1689 0 85.2405 13.503 1151 161.175 873.827 458.136
1690 0 88.4379 13.4332 1188 160.848 873.674 457.339
1691 0 89.2171 13.5624 1210 149.196 874.016 455.451
1692 0 93.1207 13.2731 1236 157.43 873.354 453.413
1693 0 96.4253 13.6686 1318 165.174 872.914 451.256
1694 0 98.4107 13.5758 1336 160.76 873.233 449.561
1695 0 102.331 13.6811 1400 165.38 873.284 448.599
1696 0 103.388 14.0538 1453 163.998 872.936 446.519
1697 0 107.433 13.9808 1502 162.191 872.871 445.141
1698 0 112.414 13.8506 1557 161.599 872.855 443.495
1699 0 114.358 13.5714 1552 165.442 872.785 442.039
1700 0 118.44 14.2266 1685 163.807 872.395 439.734
1701 1 66.1389 11.2793 746 157.713 871.952 468.044
1702 0 67.106 11.6681 783 160.535 871.553 466.6
1703 0 70.0543 12.1192 849 151.399 872.206 465.775
1704 0 70.0999 12.3966 869 151.255 873.281 465.211
1705 0 73.0608 11.6615 852 151.917 872.874 463.903
1706 0 75.1253 12.3926 931 147.598 872.971 462.611
1707 0 78.065 12.1437 948 144.002 872.719 461.127
1708 0 82.1027 11.9606 982 144.076 872.534 460.169
1709 0 84.1742 12.2959 1035 147.293 872.719 459.037
1710 0 85.5511 12.2266 1046 142.638 872.511 456.529
1711 0 90.1653 12.3218 1111 142.889 872.248 455.3
1712 0 92.2157 12.0262 1109 144.638 871.948 454.873
1713 1 52.0991 9.92339 517 147.663 872.95 475.986
1714 0 53.0294 9.4853 503 144.738 872.793 475.918
1715 0 55.0748 10.5674 582 137.672 872.534 473.419
1716 0 55.0654 10.6782 588 147.56 873.068 473.48
1717 0 59.1376 10.5517 624 147.054 873.47 471.925
1718 0 60.1296 11.8078 710 146.875 873.655 470.18
1719 0 61.034 11.6984 714 133.824 873.422 472.43
1720 0 63.025 12.027 758 139.665 873.02 471.104
1721 0 63.1079 12.1696 768 138.486 872.681 471.086
1722 0 67.212 12.0365 809 138.922 872.894 468.475
1723 0 70.0763 12.201 855 131.349 873.198 468.415
1724 0 71.0733 12.255 871 134.513 872.99 467.063
1725 0 74.205 12.142 901 137.426 872.878 466.511
1726 0 75.084 12.4794 937 135.798 872.571 465.379
1727 0 78.1537 12.3347 964 136.129 872.755 464.301
1728 0 82.2051 12.335 1014 137.05 872.467 462.96
1729 0 81.2497 12.9108 1049 130.145 872.69 461.889
1730 0 84.0921 12.6766 1066 133.547 871.946 462.107
1731 0 87.155 12.6097 1099 136.305 870.803 460.591
1732 0 90.1332 12.77 1151 137.866 871.272 458.329
1733 0 93.3879 12.5284 1170 134.975 870.65 457.844
1734 0 95.4158 12.325 1176 129.638 870.645 457.134
1735 0 99.2828 11.8752 1179 135.064 870.057 455.337
1736 1 57.1716 9.77758 559 137.215 869.061 477.104
1737 0 58.3337 10.6456 621 140.164 869.398 475.773
1738 0 61.2697 10.9842 673 135.336 869.93 475.272
1739 0 61.1624 11.1016 679 130.498 869.299 474.243
1740 0 63.0389 11.7071 738 132.48 868.963 472.848
1741 0 64.1146 11.9006 763 138.95 870.531 472.453
1742 0 66.1102 12.0405 796 133.048 868.971 471.315
1743 0 68.2726 12.0253 821 140.722 868.727 471.229
1744 0 70.2543 12.5829 884 134.376 868.828 470.121
1745 0 72.3159 12.8326 928 134.724 869.202 469.138
1746 0 73.2418 13.08 958 133.76 868.78 468.03
1747 0 77.307 12.7543 986 134.331 868.546 466.709
1748 0 77.2956 13.0797 1011 137.879 868.93 464.385
1749 0 81.2252 13.0378 1059 126.62 869.058 462.53
1750 0 82.363 13.1248 1081 133.552 868.966 461.195
1751 0 84.2332 13.1183 1105 135.672 868.995 459.834
1752 0 86.3057 13.0467 1126 137.336 868.909 459.327
1753 0 89.524 13.2255 1184 131.638 869.719 458.009
1754 0 92.2719 13.0376 1203 128.155 870.485 455.672
1755 0 94.5708 12.9956 1229 134.875 871.105 454.709
1756 0 98.569 12.8134 1263 133.655 871.508 453.782
1757 0 102.662 12.9454 1329 132.624 871.503 451.501
1758 0 105.552 13.1878 1392 130.752 870.262 449.553
1759 0 107.672 13.3275 1435 132.524 870.822 447.661
1760 1 60.2682 10.4201 628 132.659 870.79 471.661
1761 0 62.1265 11.3156 703 132.814 871.589 471.135
1762 0 65.1059 11.6272 757 134.612 871.972 472.375
1763 0 67.1928 12.3823 832 128.034 872.112 469.716
1764 0 68.084 12.4993 851 133.895 871.932 468.586
1765 0 71.2245 12.3413 879 126.893 871.733 467.829
1766 0 72.2331 12.4735 901 130.145 872.314 464.372
1767 0 76.2607 12.8507 980 132.921 871.82 464.027
1768 0 77.1918 12.7216 982 132.658 872.487 464.314
1769 0 80.1286 12.4425 997 130.471 872.374 463.468
1770 0 82.1249 12.8828 1058 136.081 872.371 461.525
1771 0 86.1091 12.6351 1088 134.932 872.173 460.605
1772 0 89.2299 12.4174 1108 134.829 872.755 457.856
1773 0 92.2719 12.6366 1166 133.275 873.14 456.489
1774 0 95.1382 12.897 1227 129.36 872.65 454.427
1775 1 53.2781 10.0417 535 130.748 873.129 476.86
1776 0 55.2385 10.6991 591 135.286 872.509 477.103
1777 0 57.2212 11.2196 642 128.645 871.955 474.17
1778 0 58.3586 12.2861 717 126.506 872.148 474.473
1779 0 60.0588 11.9716 719 138.484 872.104 473.64
1780 0 61.1426 11.5631 707 137.87 871.569 472.198
1781 0 62.1194 12.5082 777 139.47 871.658 471.223
1782 0 63.2371 12.4136 785 138.51 872.143 469.893
1783 0 65.1582 12.4159 809 141.85 872.735 469.109
1784 0 68.2074 12.4473 849 136.622 872.531 467.706
1785 0 69.1396 12.3229 852 141.442 873.359 467.709
1786 0 72.2652 12.4956 903 139.61 873.383 466.89
1787 0 73.2031 12.6907 929 135.206 873.722 465.449
1788 0 75.175 12.3046 925 140.145 873.416 464.41
1789 0 78.2731 12.6097 987 137.989 874.182 462.652
1790 0 80.1527 13.075 1048 139.961 874.038 461.625
1791 0 84.2589 13.0075 1096 143.124 874.337 460.301
1792 0 85.4106 13.1365 1122 134.346 874.112 457.624
1793 0 90.4865 13.1953 1194 139.407 873.492 456.085
1794 0 91.393 13.3708 1222 135.36 873.655 455.817
1795 0 93.3623 13.2602 1238 140.918 872.755 454.613
1796 0 95.3238 13.386 1276 137.886 872.933 452.621
1797 0 99.4942 13.4882 1342 137.566 872.162 450.684
1798 0 102.446 13.3437 1367 139.147 872.799 448.773
1799 0 106.43 13.5112 1438 134.298 873.028 447.638
1800 0 110.525 13.4539 1487 140.771 873.305 445.948
1801 0 112.322 13.5058 1517 138.078 873.233 445.577
1802 0 117.49 13.0649 1535 136.762 874.106 444.936
1803 0 120.356 13.2939 1600 138.548 873.481 442.324
1804 1 67.2127 11.6942 786 130.501 873.796 470.358
1805 0 68.1844 12.1875 831 126.58 873.626 469.897
1806 0 70.1514 12.4873 876 126.51 871.848 467.924
1807 0 73.0873 12.3961 906 126.448 872.623 467.453
1808 0 74.1416 12.4357 922 129.773 872.418 465.991
1809 0 75.1357 12.4841 938 127.813 872.152 464.969
1810 0 78.2016 12.1609 951 123.768 872.559 463.294
1811 0 80.1565 13.0495 1046 127.909 872.22 462.261
1812 0 84.2193 12.1706 1025 127.041 872.29 463.06
1813 0 85.1905 13.1 1116 124.879 873.379 461.83
1814 0 87.2237 12.7374 1111 125.455 873.679 459.314
1815 0 90.2086 13.0697 1179 124.298 873.02 457.747
1816 0 92.2758 12.8744 1188 118.429 872.745 457.306
1817 0 94.3103 13.0209 1228 119.72 871.965 455.823
1818 0 96.3254 13.309 1282 122.606 872.047 455.619
1819 0 99.3572 13.5974 1351 115.01 871.908 453.874
1820 0 103.192 13.1599 1358 116.249 871.555 452.215
1821 0 106.282 13.0032 1382 123.271 871.377 451.991
1822 0 107.263 12.9867 1393 126.95 871.347 449.673
1823 0 112.46 12.9646 1458 124.802 872.003 447.339
1824 0 115.279 13.1333 1514 119.64 871.599 445.465
1825 0 120.483 12.7072 1531 125.088 870.375 443.741
1826 0 122.241 13.0807 1599 121.628 870.728 443.109
1827 1 71.114 11.1089 790 120.844 871.384 469.339
1828 0 73.1606 12.1924 892 119.593 871.405 467.464
1829 0 75.1202 12.3668 929 121.807 872.082 465.116
1830 0 77.1892 12.7608 985 123.768 871.629 463.361
1831 0 80.2009 12.5435 1006 124.663 871.635 462.643
1832 0 83.1038 12.9356 1075 119.269 871.255 461.016
1833 0 84.1657 13.319 1121 111.403 871.041 460.115
1834 0 88.0942 12.9861 1144 115.924 871 458.955
1835 0 91.1575 13.537 1234 112.293 870.465 457.613
1836 0 93.1186 13.3915 1247 114.929 870.158 456.561
1837 0 98.125 13.065 1282 119.906 869.784 454.906
1838 0 99.3034 13.4034 1331 120.235 869.64 454.084
1839 0 101.154 13.6128 1377 113.993 869.614 452.277
1840 0 106.138 13.5296 1436 120.414 870.429 450.546
1841 0 109.284 13.625 1489 121.119 870.987 449.694
1842 1 63.1658 11.8577 749 121.937 870.411 472.937
1843 0 65.0734 11.8174 769 123.059 869.827 472.717
1844 0 68.0859 12.5136 852 121.04 869.731 470.619
1845 0 71.0251 12.2914 873 122.189 870.721 468.672
1846 0 71.0911 12.7442 906 133.796 870.422 468.277
1847 0 75.1038 13.0752 982 143.375 869.951 467.275
1848 0 78.201 12.7748 999 138.47 869.992 465.988
1849 0 81.1183 12.8824 1045 137.811 870.145 462.94
1850 0 83.1037 12.9597 1077 136.28 870.712 462.978
1851 0 84.2057 12.8495 1082 131.839 870.177 462.08
1852 0 86.1623 13.0684 1126 130.59 870.773 460.923
1853 0 91.1174 12.8954 1175 134.271 870.648 458.254
1854 0 93.2354 12.9886 1211 135.38 870.193 456.418
1855 0 97.1846 13.0062 1264 133.812 869.817 455.172
1856 0 99.2243 13.283 1318 129.756 869.605 453.505
1857 0 101.274 12.8266 1299 134.139 869.744 453.426
1858 0 103.242 13.018 1344 134.425 870.363 451.516
1859 0 107.163 12.8683 1379 134.352 869.737 447.937
1860 0 111.2 13.2195 1470 130.473 870.852 447.388
1861 0 114.151 13.2368 1511 134.901 871.128 445.57
1862 0 117.223 13.3762 1568 136.649 869.872 441.839
1863 0 121.162 13.3787 1621 131.521 870.38 440.53
1864 1 69.1696 10.9007 754 134.491 869.46 469.553
1865 0 69.2334 11.0929 768 134.116 869.266 468.25
1866 0 71.2014 11.8678 845 126.922 869.445 466.553
1867 0 74.1404 11.9773 888 123.157 868.515 466.52
1868 0 77.187 12.23 944 129.168 869.207 465.022
1869 0 79.233 12.1667 964 126.339 868.676 462.759
1870 0 80.2253 12.3278 989 135.016 868.557 462.461
1871 0 83.1721 12.8889 1072 125.188 868.809 459.607
1872 0 87.2887 12.4415 1086 121.61 869.42 458.087
1873 0 90.225 12.8678 1161 126.406 869.303 457.966
1874 0 92.3005 12.8602 1187 133.149 869.941 455.74
1875 0 95.3161 13.0408 1243 128.905 870.243 453.377
1876 0 98.2757 12.9839 1276 128.056 870.484 451.743
1877 0 101.199 12.7866 1294 132.016 870.645 449.485
1878 0 105.352 12.539 1321 127.69 871.192 448.453
1879 1 58.1335 10.6307 618 131.906 872.152 473.401
1880 0 59.1711 10.7992 639 131.955 871.956 472.296
1881 0 62.3019 11.1072 692 126.97 872.117 471.855
1882 0 64.1654 11.5015 738 128.818 871.053 471.159
1883 0 65.1021 11.7661 766 131.671 870.961 470.307
1884 0 66.1495 11.7764 779 135.354 870.946 468.91
1885 0 67.1448 12.3167 827 132.38 870.765 468.154
1886 0 70.162 12.2003 856 127.683 871.331 467.485
1887 0 74.1029 11.9563 886 132.999 872.507 465.345
1888 0 75.1505 11.7764 885 135.568 872.61 464.966
1889 0 76.124 11.9542 910 136.197 873.016 463.96
1890 0 79.2649 12.1491 963 130.969 872.907 463.266
1891 0 82.157 12.0623 991 135.945 873.265 461.872
1892 0 84.1793 12.2477 1031 139.409 873.206 460.631
1893 0 85.1247 12.3818 1054 136.092 873.107 459.3
1894 0 89.2895 12.5547 1121 137.843 873.768 456.71
1895 0 89.1633 12.5388 1118 140.686 873.834 456.713
1896 0 94.1114 12.3683 1164 135.811 874.149 454.979
1897 0 96.1946 12.2876 1182 136.551 874.21 454.154
1898 0 99.2447 12.4138 1232 133.363 874.933 451.066
1899 0 102.201 12.5342 1281 141.491 873.743 449.263
1900 1 58.0283 10.6155 616 127.891 874.341 473.333
1901 0 60.1459 11.2892 679 132.622 873.415 471.012
1902 0 62.0279 11.5593 717 133.003 874.029 470.968
1903 0 63.1094 11.488 725 130.269 872.51 471.37
1904 0 63.2215 11.5783 732 129.63 873.134 469.721
1905 0 65.1673 11.4781 748 127.58 872.307 469.242
1906 0 68.1904 12.4651 850 128.341 872.649 466.486
1907 0 70.339 11.9279 839 125.899 872.836 465.87
1908 0 70.3338 12.1848 857 128.527 872.286 464.091
1909 0 73.2981 12.1695 892 128.561 872.752 463.628
1910 0 75.5409 12.0729 912 136.497 872.401 462.493
1911 0 77.4876 12.3891 960 132.627 872.697 460.394
1912 0 79.6331 12.0427 959 139.742 872.519 459.667
1913 0 83.8969 12.1339 1018 137.434 872.176 457.653
1914 0 83.8952 12.9328 1085 130.374 872.248 457.507
1915 0 87.6411 12.6995 1113 129.137 872.067 455.658
1916 0 91.7131 12.7681 1171 133.701 871.879 454.856
1917 0 94.6948 12.8729 1219 139.389 871.899 454.663
1918 0 97.7866 13.2533 1296 135.787 872.41 450.262
1919 1 53.48 11.4996 615 130.647 871.702 474.4
1920 0 54.2445 12.1671 660 136.92 871.032 475.868
1921 0 55.108 12.1035 667 141.42 870.666 475.067
1922 0 59.2547 11.9653 709 142.698 870.841 474.86
1923 0 58.1231 12.4563 724 143.682 870.05 474.01
1924 0 61.219 12.8228 785 141.673 869.758 473.392
1925 0 63.3775 12.5754 797 136.345 870.171 471.718
1926 0 65.4083 12.399 811 137.132 869.921 469.689
1927 0 65.4625 12.7859 837 137.309 869.903 469.357
1928 0 67.5318 12.7644 862 137.502 870.166 468.492
1929 0 69.5019 12.9205 898 137.664 870.638 468.115
1930 0 70.2988 13.087 920 138.397 870.25 467.573
1931 0 74.2427 13.1461 976 140.385 869.57 466.821
1932 0 75.3187 13.184 993 143.134 870.08 466.077
1933 0 76.2683 13.5312 1032 145.401 870.7 464.149
1934 0 79.6593 13.5828 1082 140.189 871.245 462.936
1935 0 81.4921 13.5473 1104 144.14 871.049 460.236
1936 0 81.5074 13.2258 1078 143.844 870.952 457.8
1937 0 83.4609 13.7909 1151 137.786 870.653 457.907
1938 0 84.3877 13.3195 1124 143.762 869.789 457.952
1939 0 87.339 13.8884 1213 146.069 869.627 457.977
1940 0 88.432 13.8411 1224 144.382 869.588 455.276
1941 0 92.2443 13.5727 1252 146.196 869.966 453.732
1942 0 95.346 13.9177 1327 96.9894 870.172 451.919
1943 0 97.3205 13.5737 1321 151.08 869.98 451.615
1944 0 100.413 14.0421 1410 144.057 870.099 449.558
1945 0 103.623 13.8676 1437 144.142 870.676 448.358
1946 0 107.657 13.608 1465 145.829 870.301 446.448
1947 0 110.501 13.8551 1531 144.673 870.191 444.856
1948 0 116.527 13.8766 1617 145.725 869.315 442.519
1949 0 119.393 14.0628 1679 141.137 868.68 440.271
1950 1 65.0598 12.3271 802 129.035 870.097 462.065
1951 0 68.0551 12.5633 855 137.377 870.078 457.271
1952 0 71.1229 13.3853 952 136.372 870.645 453.003
1953 0 74.1519 13.0543 968 136.425 870.191 455.554
1954 0 74.1127 13.4525 997 140.546 870.075 449.533
1955 0 77.119 13.2133 1019 138.029 870.026 448.478
1956 0 80.082 13.174 1055 133.466 870.771 448.75
1957 0 82.1438 13.4155 1102 134.017 870.603 452.396
1958 0 86.1174 13.9229 1199 131.917 870.63 454.286
1959 0 88.1542 13.8167 1218 134.633 870.232 456.814
1960 0 90.3027 13.6098 1229 130.755 870.172 459.513
1961 0 92.336 13.505 1247 136.468 869.727 459.73
1962 0 95.2674 13.5723 1293 132.564 869.585 457.185
1963 0 98.3543 13.6446 1342 129.512 870.705 455.196
1964 0 101.328 13.3526 1353 130.449 871.067 453.569
1965 0 105.425 14.4464 1523 125.167 870.856 450.215
1966 0 107.223 13.5326 1451 130.945 870.424 451.629
1967 0 109.342 13.4257 1468 128.211 870.127 449.547
1968 1 62.0381 11.767 730 125.805 868.879 472.964
1969 0 64.2182 12.1149 778 122.892 869.688 470.226
1970 0 65.3734 12.4821 816 122.636 870.083 468.21
1971 0 68.1123 12.127 826 120.396 868.976 468.318
1972 0 71.0707 12.7619 907 115.464 869.166 467.218
1973 0 72.1 12.8988 930 134.882 868.94 464.96
1974 0 75.1572 12.8398 965 126.605 868.845 464.316
1975 0 77.1946 12.6045 973 141.337 868.814 462.596
1976 0 79.2501 12.7192 1008 126.055 869.462 462.488
1977 0 83.3162 12.8186 1068 133.697 869.69 460.037
1978 0 85.2916 12.7445 1087 132.831 870.312 458.86
1979 0 86.1725 13.3221 1148 128.599 870.113 457.442
1980 0 91.2277 12.9347 1180 130.958 870.389 455.723
1981 0 93.232 13.3216 1242 136.447 870.548 452.829
1982 0 95.163 13.1459 1251 134.473 869.953 451.064
1983 0 100.233 13.4187 1345 139.996 870.526 448.148
1984 0 102.261 13.1526 1345 132.57 870.196 447.789
1985 0 105.318 13.1696 1387 135.758 871.324 445.911
1986 0 106.233 13.4703 1431 138.001 871.499 444.705
1987 0 111.4 13.5727 1512 141.919 871.172 442.163
1988 0 112.441 13.4381 1511 141.266 871.637 439.836
1989 0 118.28 13.4681 1593 139.169 872.973 439.026
1990 0 123.531 13.4784 1665 140.455 872.847 438.907
1991 1 70.1906 11.7537 825 133.436 871.824 464.547
1992 0 72.2041 12.063 871 133.294 872.535 463.993
1993 0 73.063 11.9349 872 135.116 872.08 464.122
1994 0 76.134 12.7276 969 136.162 872.506 460.829
1995 0 79.1945 12.4377 985 131.873 873.02 459.496
1996 0 82.1664 12.3043 1011 135.017 873.401 459.169
1997 0 83.3223 12.8057 1067 123.445 872.864 457.163
1998 0 87.4182 12.4802 1091 131.22 873.519 456.776
1999 0 88.3817 12.6497 1118 135.34 874.095 453.45
2000 0 93.441 12.6818 1185 132.284 874.001 451.76
2001 0 92.5894 12.7768 1183 132.954 873.669 448.9
2002 0 93.6647 13.0679 1224 134.385 873.645 445.669
2003 0 96.3835 13.5189 1303 133.559 873.312 443.463
2004 0 100.384 12.761 1281 132.831 873.297 442.607
2005 0 104.447 13.4709 1407 135.721 872.828 440.239
2006 0 107.397 13.073 1404 131.884 873.095 438.731
2007 0 111.538 13.2332 1476 134.271 873.005 436.932
2008 0 114.535 12.8083 1467 136.624 872.943 436.055
2009 0 119.449 12.5995 1505 132.104 872.93 433.995
2010 0 122.537 12.8777 1578 132.048 872.894 431.508
2011 0 128.454 12.4402 1598 131.716 872.597 429.411
2012 1 68.1528 10.2564 699 129.95 872.514 459.731
2013 0 74.2594 11.4598 851 132.951 873.261 462.797
2014 0 77.1582 11.8328 913 127.079 873.161 462.137
2015 0 80.1509 11.678 936 125.332 872.494 460.147
2016 0 81.4077 11.9153 970 125.504 872.604 458.129
2017 0 83.2023 12.0069 999 127.926 872.916 456.802
2018 0 87.2401 12.3109 1074 127.941 872.974 455.742
2019 0 91.1924 12.3146 1123 128.141 872.253 454.751
2020 0 91.3317 12.1754 1112 134.236 871.775 453.221
2021 0 94.3237 11.927 1125 129.148 871.969 453.415
2022 0 95.2613 11.7991 1124 136.159 872.011 453.019
2023 0 98.4113 12.6307 1243 126.553 872.04 448.966
2024 0 101.563 12.4455 1264 136.327 871.687 449.076
2025 0 104.507 11.8844 1242 134.891 870.919 447.162
2026 0 107.415 12.1678 1307 127.816 870.785 444.913
2027 0 110.42 12.2261 1350 124.241 870.753 442.819
2028 0 112.476 12.0293 1353 134.24 871.588 440.041
2029 0 117.622 12.4636 1466 133.061 871.263 438.731
2030 1 64.2459 10.7089 688 125.241 869.581 466.249
2031 0 67.2438 10.7073 720 126.439 870.992 465.483
2032 0 70.2611 11.6708 820 133.652 871.037 464.867
2033 0 73.2139 11.6098 850 130.274 870.52 466.245
2034 0 74.2649 11.9303 886 129.041 870.772 464.642
2035 0 77.4788 12.2227 947 130.42 871.224 463.265
2036 0 79.3029 12.8242 1017 125.065 870.688 461.95
2037 0 83.3055 12.9763 1081 125.853 870.144 459.558
2038 0 84.4385 12.9799 1096 129.791 870.22 460.129
2039 0 87.5138 12.5123 1095 128.776 870.91 459.086
2040 0 87.4431 13.1057 1146 134.016 870.573 457.695
2041 0 92.4587 12.968 1199 134.066 871.074 455.525
2042 0 93.4411 12.7888 1195 136.347 870.17 454.294
2043 0 98.6349 12.6629 1249 138.719 870.154 453.735
2044 0 101.52 13.1009 1330 138.168 870.447 451.402
2045 0 103.47 13.2503 1371 133.294 871.066 449.613
2046 0 106.587 13.0503 1391 138.584 871.321 449.97
2047 0 108.374 13.0105 1410 142.138 871.055 447.96
2048 0 113.588 12.6686 1439 141.117 871.015 447.867
2049 1 62.3463 11.1474 695 145.601 870.555 471.695
2050 0 65.2416 11.6183 758 139.574 870.201 470.86
2051 0 69.2228 12.1781 843 137.326 871.552 468.843
2052 0 70.1887 12.3097 864 135.769 871.981 468.983
2053 0 72.098 12.0669 870 142.252 871.292 467.882
2054 0 74.0453 12.3843 917 139.737 870.844 466.963
2055 0 76.0904 12.5903 958 139.694 871.392 466.063
2056 0 77.0638 12.7038 979 135.652 870.944 464.848
2057 0 81.0355 12.7845 1036 138.208 871.031 462.807
2058 0 81.1675 13.0348 1058 138.302 871.424 461.575
2059 0 85.1102 12.8069 1090 134.764 870.855 460.167
2060 0 86.1395 13.2808 1144 138.539 869.932 458.517
2061 0 90.2101 12.9365 1167 135.869 869.622 458.973
2062 0 90.1854 12.94 1167 139.198 869.395 457.236
2063 0 94.297 13.203 1245 144.567 869.958 455.635
2064 0 97.3906 12.7528 1242 139.081 869.7 453.365
2065 0 100.402 12.7388 1279 147.124 870.351 453.059
2066 0 102.23 13.0197 1331 145.245 870.062 452.669
2067 0 105.279 13.222 1392 141.786 869.904 449.868
2068 1 61.287 11.6012 711 144.015 869.623 472.141
2069 0 60.2751 11.3646 685 139.105 869.526 466.149
2070 0 63.2971 11.8173 748 136.394 869.152 465.968
2071 0 64.3928 11.8647 764 132.31 868.576 466.351
2072 0 65.2729 12.2103 797 135.76 869.629 465.61
2073 0 67.2698 11.9221 802 136.408 870.158 463.753
2074 0 69.3217 12.103 839 136.777 869.139 462.541
2075 0 70.2584 12.0413 846 139.254 869.861 461.641
2076 0 72.2928 12.145 878 134.392 870.026 460.181
2077 0 74.3306 12.0946 899 139.648 870.455 460.92
2078 0 76.1549 12.6059 960 142.652 871.477 461.91
2079 0 78.2505 12.9201 1011 144.28 870.597 461.13
2080 0 81.1242 12.9554 1051 141.684 871.896 460.68
2081 0 85.229 12.9768 1106 146.853 871.598 458.532
2082 0 86.1728 12.9159 1113 146.382 871.944 458.28
2083 0 90.3155 13.1096 1184 147.992 871.994 455.389
2084 0 93.1629 13.2671 1236 151.053 871.886 454.847
2085 0 95.3166 12.9778 1237 150.784 871.655 452.27
2086 0 98.247 12.9571 1273 148.343 872.13 450.459
2087 0 100.288 13.1622 1320 157.055 871.708 450.365
2088 0 102.545 13.2039 1354 153.186 871.103 446.799
2089 0 107.612 13.2049 1421 147.039 871.409 445.957
2090 0 108.482 13.228 1435 152.527 871.236 443.908
2091 0 112.332 13.5669 1524 151.523 871.868 442.68
2092 0 115.309 13.4595 1552 150.635 871.731 441.953
2093 0 119.201 13.8757 1654 154.744 872.05 438.165
2094 0 122.266 13.5198 1653 154.799 871.824 435.72
2095 0 126.3 13.5392 1710 153.812 871.681 433.217
2096 0 132.147 13.3564 1765 159.898 872.168 432.904
2097 0 137.24 13.4363 1844 154.246 872.187 428.894
2098 1 76.1262 11.6517 887 156.759 872.451 460.292
2099 0 78.0856 12.0765 943 150.081 873.28 458.932
2100 0 82.0947 11.9374 980 149.2 873.611 457.109
2101 0 85.1292 12.6749 1079 155.305 873.77 456.879
2102 0 87.1674 12.8488 1120 157.19 873.818 454.997
2103 0 91.0837 12.6806 1155 153.929 873.795 453.448
2104 0 92.1821 12.8007 1180 155.487 873.972 451.404
2105 0 95.1384 12.8024 1218 151.704 874.695 449.937
2106 0 99.1907 13.0254 1292 148.508 874.755 448.574
2107 0 100.185 13.1057 1313 149.547 874.155 448.175
2108 0 103.069 13.3793 1379 145.387 874.135 446.038
2109 0 108.139 13.2607 1434 152.934 873.928 445.409
2110 0 110.231 13.2722 1463 155.092 874.038 443.386
2111 0 112.153 13.2675 1488 151.776 874.303 441.641
2112 0 115.343 13.2214 1525 145.158 874.607 440.332
2113 0 118.367 13.6186 1612 150.582 874.334 440.04
2114 0 120.366 13.2429 1594 152.432 874.449 437.445
2115 0 125.317 12.7996 1604 147.297 874.848 435.049
2116 0 129.217 13.071 1689 146.541 874.052 433.941
2117 0 132.42 13.1173 1737 144.436 874.271 431.263
2118 0 138.285 13.5156 1869 149.305 873.858 429.564
2119 0 141.452 13.2412 1873 144.743 874.458 427.668
2120 0 148.423 13.347 1981 139.186 874.192 424.184
2121 0 154.498 13.45 2078 143.183 874.196 421.809
2122 1 89.3176 11.9797 1070 138.415 873.162 454.111
2123 0 92.3296 12.7045 1173 141.841 873.1 451.525
2124 0 93.3127 12.0348 1123 139.176 873.053 451.849
2125 0 95.2505 12.3779 1179 140.146 872.88 450.668
2126 0 98.3509 12.3741 1217 136.809 873.327 450.168
2127 0 101.161 12.4356 1258 134.38 873.783 448.528
2128 0 104.267 12.7366 1328 129.247 873.337 446.972
2129 0 109.272 12.5466 1371 136.194 874.938 444.292
2130 0 111.188 12.6183 1403 138.18 874.86 442.555
2131 0 115.217 12.3853 1427 138.752 874.511 442.092
2132 0 118.195 12.7501 1507 137.903 874.649 439.756
2133 0 122.25 12.7771 1562 140.246 874.206 437.923
2134 0 125.622 12.9436 1626 138.982 874.069 435.609
2135 1 72.3876 10.1122 732 130.602 873.809 463.111
2136 0 73.3013 10.5455 773 136.899 872.953 463.569
2137 0 76.1861 10.96 835 140.272 872.798 461.677
2138 0 78.246 11.7961 923 139.655 872.608 458.971
2139 0 80.3572 12.1831 979 142.517 872.942 458.501
2140 0 81.4233 12.4412 1013 135.092 872.907 457.054
2141 0 86.3568 12.5526 1084 132.928 872.024 455.229
2142 0 88.4395 12.0874 1069 141.141 872.441 452.872
2143 0 88.387 13.158 1163 143.465 872.218 452.143
2144 0 93.7929 12.4849 1171 146.333 872.281 449.152
2145 0 94.476 12.871 1216 142.902 872.731 448.609
2146 0 98.6982 12.7864 1262 146.746 872.124 447.225
2147 0 101.832 12.7857 1302 143.571 872.611 444.283
2148 0 103.678 13.0018 1348 141.384 872.201 444.378
2149 0 107.573 12.9958 1398 143.45 872.024 442.837
2150 0 108.618 13.1563 1429 150.332 871.778 442.747
2151 0 111.776 12.9635 1449 145.168 871.41 440.217
2152 0 116.624 13.2563 1546 145.263 870.499 439.81
2153 0 118.719 13.1908 1566 145.741 871.037 439.24
2154 0 121.595 13.0844 1591 139.636 871.489 436.571
2155 0 125.728 13.2827 1670 143.429 871.444 435.672
2156 1 69.4012 11.556 802 147.198 870.658 464.656
2157 0 70.3732 12.1069 852 142.723 871.349 463.379
2158 0 73.3517 12.3515 906 141.153 871.624 464.38
2159 0 76.5469 12.5544 961 137.023 871.214 464.292
2160 0 77.3224 12.6742 980 144.477 872.109 462.002
2161 0 78.3375 12.6632 992 146.661 871.918 461.328
2162 0 82.4797 12.5728 1037 145.838 871.743 458.341
2163 0 85.7824 12.7415 1093 147.267 871.042 458.432
2164 0 86.7314 12.6021 1093 148.656 871.016 455.296
2165 0 89.6577 13.0719 1172 141.563 870.925 454.98
2166 0 92.7558 12.6353 1172 147.317 871.073 453.452
2167 0 93.6774 13.2903 1245 148.773 870.378 452.512
2168 0 97.6512 13.4765 1316 142.06 870.717 447.976
2169 0 99.7527 13.5034 1347 146.245 870.964 446.727
2170 0 101.824 13.2189 1346 151.442 870.695 446.552
2171 0 106.674 13.4428 1434 147.246 870.649 446.068
2172 0 110.704 13.3599 1479 145.17 871.197 443.822
2173 0 112.845 13.7712 1554 138.583 870.698 441.673
2174 0 115.509 13.9123 1607 140.343 870.445 440.026
2175 0 119.419 13.6746 1633 140.392 870.34 437.843
2176 0 123.551 14.0347 1734 142.162 870.916 436.839
2177 1 72.4113 11.3518 822 148.178 869.584 463.633
2178 0 76.4132 12.0005 917 138.462 869.616 461.918
2179 0 75.2402 12.7458 959 143.283 870.835 463.404
2180 0 79.4228 12.0872 960 142.286 871.268 463.406
2181 0 80.2807 12.0826 970 145.899 870.259 462.21
2182 0 84.5659 12.1562 1028 141.393 870.364 460.522
2183 0 86.6424 12.3727 1072 141.517 868.925 456.158
2184 0 88.5558 12.5232 1109 138.472 869.575 454.987
2185 0 90.6183 12.503 1133 142.918 870.077 454.532
2186 0 93.4719 12.8809 1204 141.093 870.227 452.953
2187 0 95.5418 13.0833 1250 142.07 870.359 451.017
2188 0 99.4455 12.7105 1264 139.729 870.049 448.722
2189 0 103.391 13.0669 1351 139.739 869.737 447.736
2190 0 105.337 13.1103 1381 139.126 869.235 445.902
2191 0 107.452 13.4572 1446 134.726 868.75 444.141
2192 0 111.424 13.3633 1489 140.434 868.927 443.165
2193 0 115.41 12.9018 1489 134.594 869.112 441.441
2194 0 118.324 13.725 1624 133.531 869.538 439.241
2195 0 121.325 13.1877 1600 139.561 869.863 438.81
2196 0 124.235 13.4745 1674 137.164 869.41 436.191
2197 0 129.332 13.245 1713 138.961 868.684 433.496
2198 1 73.0585 11.2649 823 135.814 870.207 464.264
2199 0 76.1038 12.1676 926 132.76 870.171 462.742
2200 0 78.2681 12.6233 988 141.061 870.521 463.166
2201 0 79.2275 12.584 997 140.672 870.122 462.728
2202 0 82.1832 12.3261 1013 144.267 870.194 459.327
2203 0 83.1356 13.0028 1081 134.066 870.49 458.134
2204 0 86.2083 12.7946 1103 144.703 870.685 457.891
2205 0 89.3887 13.1672 1177 146.735 870.063 456.77
2206 0 91.2447 13.3378 1217 148.06 870.84 455.214
2207 0 93.1829 13.3179 1241 150.429 870.772 453.711
2208 0 95.4252 13.3927 1278 153.615 871.3 452.851
2209 0 98.3255 13.2926 1307 155.604 871.557 452.002
2210 0 102.293 13.2071 1351 154.096 871.563 450.217
2211 0 102.217 13.5398 1384 149.475 872.264 447.252
2212 0 106.211 13.2943 1412 151.385 872.433 446.275
2213 0 109.414 13.3987 1466 148.087 872.236 444.716
2214 0 114.276 13.2136 1510 147.391 872.368 443.483
2215 0 117.3 13.4953 1583 151.27 871.798 440.633
2216 1 65.1386 10.4086 678 149.459 871.817 468.82
2217 0 66.2472 10.974 727 153.901 872.62 467.997
2218 0 69.2123 11.313 783 151.395 872.926 466.008
2219 0 71.3283 11.8747 847 146.321 872.796 464.705
2220 0 74.2397 12.298 913 147.647 872.05 461.716
2221 0 73.2807 12.4317 911 148.662 872.659 461.838
2222 0 76.382 12.516 956 145.171 872.462 461.432
2223 0 79.1045 12.5277 991 150.579 872.024 460.328
2224 0 81.2283 12.9635 1053 154.038 872.662 458.028
2225 0 85.0983 12.7265 1083 150.777 872.404 456.741
2226 0 86.1651 12.8242 1105 153.192 872.583 456.128
2227 0 87.1799 13.0649 1139 152.185 872.445 454.238
2228 0 90.1754 13.3518 1204 150.941 872.875 452.85
2229 0 92.1955 13.2978 1226 152.312 873.23 451.174
2230 0 96.2101 13.2938 1279 148.327 873.039 449.597
2231 0 98.3106 13.1013 1288 154.597 873.441 449.383
2232 0 99.2752 13.4777 1338 152.608 873.679 447.232
2233 0 104.226 13.3843 1395 151.901 873.423 446.723
2234 0 108.204 13.6409 1476 157.502 873.661 444.35
2235 0 109.229 13.5403 1479 156.878 873.409 442.805
2236 0 112.19 13.4059 1504 156.787 872.889 442.532
2237 0 115.15 13.5128 1556 161.294 873.589 441.575
2238 0 119.227 13.7134 1635 161.34 873.149 438.599
2239 0 124.447 13.8131 1719 156.68 873.869 436.768
2240 1 70.1028 11.3405 795 156.958 872.088 460.732
2241 0 71.1014 11.9548 850 155.889 873.335 459.911
2242 0 73.2362 12.7669 935 154.273 872.971 461.204
2243 0 77.207 12.5507 969 149.076 872.437 459.372
2244 0 77.1483 13.1694 1016 145.249 872.637 457.986
2245 0 83.3026 12.6167 1051 158.374 873 458.445
2246 0 85.1991 12.8405 1094 155.897 873.604 456.048
2247 0 87.3352 12.9959 1135 155.985 873.511 455.626
2248 0 90.4851 12.9193 1169 149.323 873.536 453.326
2249 0 92.3212 13.1497 1214 154.654 873.287 451.78
2250 0 94.3099 13.339 1258 151.444 872.544 451.305
2251 0 98.3525 12.9432 1273 147.819 872.346 448.694
2252 0 100.362 13.0827 1313 150.864 872.617 448.148
2253 0 102.26 13.1821 1348 145.04 872.984 446.375
2254 0 107.508 13.3851 1439 150.845 873.503 445.815
2255 0 110.284 13.2566 1462 152.815 873.038 443.386
2256 0 113.335 13.3498 1513 147.498 872.87 441.869
2257 0 115.304 13.6768 1577 143.822 872.79 440.691
2258 0 119.317 13.3258 1590 147.117 873.125 438.516
2259 0 124.221 13.1701 1636 145.801 872.686 437.904
2260 0 126.229 13.6973 1729 147.582 873.059 435.243
2261 1 71.134 10.9793 781 146.316 873.38 463.958
2262 0 72.064 11.3649 819 139.919 872.668 461.079
2263 0 74.1924 11.4432 849 140.385 871.329 459.469
2264 0 77.2561 12.1026 935 145.504 871.506 461.872
2265 0 80.1156 11.8079 946 145.42 871.332 461.537
2266 0 83.1898 12.0207 1000 144.897 871.814 459.518
2267 0 85.2444 12.0243 1025 150.898 871.407 457.755
2268 0 88.3274 11.9782 1058 146.078 871.435 455.266
2269 0 91.1966 12.336 1125 144.957 872.46 454.864
2270 0 92.1008 12.7143 1171 150.809 870.123 454.565
2271 0 96.1092 12.3713 1189 145.265 868.725 452.913
2272 0 96.0902 12.7484 1225 150.044 869.789 450.708
2273 0 100.132 12.5933 1261 151.003 869.739 450.04
2274 0 105.24 12.8659 1354 142.942 870.433 448.465
2275 0 108.222 12.5668 1360 145.708 870.031 447.285
2276 0 112.225 12.6799 1423 153.006 870.316 444.58
2277 0 116.235 12.4145 1443 150.332 869.941 443.643
2278 1 66.1361 11.4612 758 149.309 868.516 467.216
2279 0 68.2068 11.4211 779 144.7 868.761 467.751
2280 0 69.2069 12.0364 833 140.886 867.567 468.026
2281 0 71.0776 12.0291 855 144.563 866.799 467.009
2282 0 74.0802 12.203 904 144.561 867.666 465.729
2283 0 76.0728 12.2383 931 137.561 867.411 464.378
2284 0 79.082 12.3922 980 143.66 868.01 462.347
2285 0 81.079 12.5433 1017 145.354 868.289 461.215
2286 0 85.0877 12.728 1083 143.919 868.989 460.112
2287 0 86.1051 12.6938 1093 144.374 869.347 457.905
2288 0 88.0709 12.4672 1098 142.232 869.156 457.48
2289 0 89.1922 12.5459 1119 141.935 868.881 455.997
2290 0 93.169 12.6866 1182 145.835 867.889 454.821
2291 0 97.1586 12.6803 1232 144.649 867.913 454.321
2292 0 97.2385 12.8961 1254 139.908 868.239 452.531
2293 0 99.1835 12.9558 1285 147.375 868.697 450.732
2294 0 103.241 12.7275 1314 142.368 868.927 448.674
2295 0 107.226 12.814 1374 148.73 868.777 447.503
2296 0 109.241 14.0606 1536 142.339 868.096 441.997
2297 0 110.147 13.0825 1441 146.353 868.636 444.124
2298 0 115.284 12.8899 1486 147.227 868.449 441.744
2299 0 119.255 12.62 1505 145.835 869.131 440.066
2300 1 71.0446 10.8664 772 140.219 868.118 465.627
2301 0 71.0674 10.9333 777 140.389 868.169 462.808
2302 0 73.3754 11.1618 819 131.276 870.579 460.921
2303 0 76.2543 11.6715 890 131.466 869.839 459.548
2304 0 78.3289 11.7453 920 128.362 870.221 460.354
2305 0 79.4614 12.0058 954 134.408 870.057 457.85
2306 0 83.321 11.5217 960 135.765 870.701 455.924
2307 0 85.2254 11.5224 982 136.21 871.382 456.296
2308 0 87.2581 12.2052 1065 129.072 871.387 453.694
2309 0 91.2444 12.0227 1097 133.067 871.048 451.82
2310 0 93.4916 12.4182 1161 136.301 870.846 450.981
2311 0 94.3933 12.395 1170 126.795 871.053 448.385
2312 0 99.5914 11.999 1195 135.008 870.967 446.502
2313 0 101.653 12.71 1292 130.088 871.305 443.995
2314 0 106.709 12.2108 1303 127.958 870.486 441.616
2315 0 107.566 12.5876 1354 136.099 871.322 441.326
2316 0 111.668 12.2864 1372 130.915 871.816 440.1
2317 0 114.485 12.3597 1415 130.554 872.422 438.264
2318 0 119.369 12.231 1460 129.365 872.718 438.106
2319 1 66.3491 10.7311 712 130.375 872.733 462.687
2320 0 69.2741 10.7977 748 130.171 872.239 460.079
2321 0 71.1729 11.2121 798 127.627 873.075 461.497
2322 0 73.2123 11.5554 846 127.311 872.493 460.242
2323 0 77.2163 11.9016 919 122.563 873.442 457.526
2324 0 80.1206 11.7074 938 128.799 873.289 457.514
2325 0 80.2058 12.231 981 128.316 874.07 456.716
2326 0 84.1447 11.9081 1002 124.394 875.013 455.546
2327 0 85.1873 12.0558 1027 127.003 874.935 453.569
2328 0 90.2267 11.6041 1047 125.767 874.571 452.077
2329 0 92.1469 11.9917 1105 129.441 874.642 450.323
2330 0 94.1195 12.1973 1148 124.671 874.78 449.236
2331 0 98.1784 11.8967 1168 133.207 874.129 448.415
2332 0 100.189 11.8576 1188 127.75 873.887 448.125
2333 0 103.283 12.0833 1248 132.461 874.054 446.443
2334 0 106.279 12.0532 1281 138.086 874.255 444.351
2335 0 108.329 12.2035 1322 138.247 873.738 442.659
2336 0 112.35 12.7904 1437 133.66 872.773 439.747
2337 0 115.246 12.5037 1441 141.398 873.343 440.096
2338 0 118.299 12.722 1505 137.203 873.201 437.972
2339 0 121.472 12.7601 1550 141.574 873.339 434.443
2340 0 124.576 12.7874 1593 142.463 873.765 433.567
2341 0 126.566 13.005 1646 141.674 873.892 431.718
2342 0 131.627 12.8925 1697 146.408 873.852 429.955
2343 0 135.596 13.2748 1800 141.309 873.407 429.347
2344 0 139.561 13.8219 1929 145.253 873.746 424.157
2345 0 143.466 13.132 1884 144.076 873.468 425.071
2346 1 81.3085 11.155 907 140.233 873.104 458.383
2347 0 82.2757 11.4372 941 145.075 872.809 457.66
2348 0 84.1451 12.6448 1064 138.82 872.246 456.216
2349 0 85.4038 12.7044 1085 140.235 873.488 455.618
2350 0 89.3952 12.3385 1103 142.607 872.744 453.738
2351 0 88.4773 12.5682 1112 143.685 872.713 452.986
2352 0 92.1553 12.5766 1159 147.588 873.105 451.682
2353 0 96.296 12.607 1214 143.976 873.21 451.043
2354 0 100.288 12.6734 1271 143.989 872.206 449.632
2355 0 102.278 13.0135 1331 137.434 871.44 448.183
2356 0 104.265 13.1204 1368 151.14 872.482 447.801
2357 0 108.22 13.0382 1411 151.315 871.681 447.037
2358 0 111.263 13.0501 1452 149.266 872.253 445.052
2359 0 112.291 13.0732 1468 149.837 871.609 443.822
2360 0 115.199 12.9862 1496 144.602 872.865 442.463
2361 0 119.237 13.2174 1576 147.365 872.975 440.365
2362 0 121.34 13.318 1616 152.137 872.304 439.346
2363 0 125.422 13.5782 1703 146.073 871.977 437.356
2364 0 128.584 13.1743 1694 150.946 871.659 434.72
2365 0 134.305 13.2758 1783 143.62 871.546 432.463
2366 1 79.1388 10.9428 866 144.11 870.729 462.253
2367 0 82.1336 11.2987 928 146.039 870.456 460.181
2368 0 84.1017 12.1638 1023 146.823 871.633 459.958
2369 0 86.1226 12.1571 1047 137.446 872.033 457.778
2370 0 88.1778 12.248 1080 140.475 873.031 455.984
2371 0 92.1013 12.432 1145 142.643 872.522 455.756
2372 0 94.1639 12.4782 1175 142.827 872.62 454.701
2373 0 97.1948 12.7579 1240 142.605 872.164 451.56
2374 0 100.155 12.6304 1265 133.729 871.976 450.524
2375 0 102.2 12.7495 1303 142.404 871.849 449.688
2376 0 107.144 12.4878 1338 139.04 872.188 448.481
2377 0 110.144 12.9557 1427 137.605 872.345 446.998
2378 0 113.168 12.5919 1425 138.49 871.824 444.946
2379 0 115.218 13.1577 1516 140.084 871.554 443.292
2380 0 121.263 13.5656 1645 139.746 871.438 440.278
2381 0 123.35 13.328 1644 137.603 871.818 439.995
2382 0 126.262 13.6541 1724 140.736 871.639 438.615
2383 0 129.204 13.2968 1718 133.829 871.141 433.777
2384 0 132.455 13.1819 1746 137.03 871.436 432.489
2385 0 137.312 13.1743 1809 141.995 871.242 429.4
2386 0 142.487 13.3205 1898 143.816 870.138 428.452
2387 0 147.502 13.6879 2019 135.013 870.247 425.277
2388 1 84.1017 11.9736 1007 135.505 869.989 458.498
2389 0 87.285 12.9461 1130 129.856 871.289 458.934
2390 0 89.1644 12.505 1115 128.285 871.621 458.743
2391 0 92.2469 12.4991 1153 134.299 871.617 457.669
2392 0 94.2381 12.5745 1185 134.947 871.516 456.736
2393 0 97.126 13.0243 1265 129.794 871.342 454.784
2394 0 98.3123 13.1621 1294 138.189 871.86 453.753
2395 0 100.253 13.2764 1331 140.585 871.512 451.744
2396 0 104.351 13.1479 1372 128.192 871.311 451.063
2397 0 107.316 13.4183 1440 137.4 871.456 448.386
2398 0 108.282 13.1601 1425 142.789 871.333 446.628
2399 0 112.45 13.4816 1516 142.35 871.224 444.947
2400 0 115.497 13.4636 1555 145.913 871.388 443.336
2401 0 118.572 13.5024 1601 141.968 871.489 440.786
2402 0 121.388 13.1644 1598 142.342 872.491 438.679
2403 0 122.386 13.5555 1659 142.837 871.989 435.376
2404 0 126.286 13.5724 1714 144.63 871.492 434.034
2405 0 129.449 13.4957 1747 146.066 871.803 432.47
2406 0 136.563 13.4589 1838 142.883 871.798 430.96
2407 0 140.391 13.4411 1887 138.736 871.588 427.756
2408 0 144.356 13.4944 1948 141.459 871.914 426.085
2409 0 149.29 13.39 1999 142.713 871.639 421.443
2410 0 154.398 13.7372 2121 144.108 871.567 421.199
2411 1 86.1855 11.6145 1001 141.007 870.923 454.548
2412 0 91.3005 11.7962 1077 136.661 870.826 453.98
2413 0 94.2562 12.3705 1166 134.47 870.688 454.852
2414 0 97.2662 12.4709 1213 136.341 871.47 453.142
2415 0 100.245 12.2201 1225 136.58 870.963 451.207
2416 0 104.236 12.5868 1312 137.405 871.143 449.142
2417 0 106.324 12.6783 1348 136.049 870.947 448.158
2418 0 111.41 12.6919 1414 137.73 871.142 446.968
2419 0 113.304 12.7356 1443 142.34 871.6 444.782
2420 0 117.455 12.4302 1460 143.261 871.884 442.71
2421 0 120.318 12.575 1513 133.655 871.743 440.428
2422 0 123.297 12.8146 1580 135.62 872.053 438.63
2423 0 126.433 12.7577 1613 138.86 872.609 436.272
2424 1 68.2264 10.3332 705 133.705 872.535 465.349
2425 0 71.3103 10.9521 781 130.17 872.745 464.67
2426 0 73.2706 11.4644 840 135.519 872.35 463.432
2427 0 74.3243 12.0284 894 132.636 872.537 461.898
2428 0 78.3404 11.7564 921 133.795 872.596 462.02
2429 0 80.3223 11.9643 961 139.693 872.738 458.961
2430 0 82.1649 12.341 1014 130.949 872.418 458.767
2431 0 85.4224 12.3855 1058 138.211 872.301 456.363
2432 0 87.3484 12.536 1095 132.447 872.616 455.742
2433 0 88.4981 12.4861 1105 143.156 872.426 454.912
2434 0 90.2039 12.7378 1149 129.666 874.3 453.698
2435 0 92.3027 12.6649 1169 130.297 874.128 452.339
2436 0 96.2595 12.7468 1227 131.926 873.654 451.714
2437 0 97.5586 12.5463 1224 125.792 873.976 450.618
2438 0 100.264 12.5569 1259 136.584 873.724 449.458
2439 0 102.29 12.8068 1310 135.605 873.847 447.881
2440 0 105.516 12.8227 1353 135.149 873.472 447.202
2441 0 108.474 13.0262 1413 135.976 873.335 445.201
2442 0 110.489 13.3497 1475 136.369 873.603 442.991
2443 0 114.634 13.4079 1537 137.681 873.627 442.444
2444 0 117.437 13.5902 1596 136.534 873.892 439.615
2445 0 122.472 13.5296 1657 133.882 873.521 438.597
2446 0 127.528 13.7852 1758 135.935 873.089 436.316
2447 1 72.4433 11.6919 847 133.772 873.235 464.473
2448 0 74.259 11.7158 870 132.403 873.539 462.222
2449 0 74.3051 11.6143 863 128.767 873.254 462.491
2450 0 78.3831 11.9796 939 125.857 872.933 461.778
2451 0 81.4254 11.4829 935 128.888 872.55 459.846
2452 0 83.5165 12.1533 1015 126.276 872.666 459.093
2453 0 85.3216 12.0954 1032 127.138 873.26 457.315
2454 0 87.5041 12.3537 1081 129.362 872.999 456.453
2455 0 89.3116 12.35 1103 133.193 872.951 455.818
2456 0 93.5653 12.3443 1155 128.17 872.713 454.881
2457 0 96.7833 12.7605 1235 129.393 872.823 453.017
2458 0 98.3475 12.1508 1195 130.988 872.65 452.5
2459 0 98.3724 12.8695 1266 129.735 872.618 451.037
2460 0 102.462 12.6486 1296 129.636 872.757 449.512
2461 0 105.579 12.8908 1361 126.496 872.439 447.652
2462 0 108.394 12.9435 1403 132.087 872.223 447.167
2463 0 111.394 12.8732 1434 130.845 872.265 445.52
2464 0 116.545 12.5188 1459 134.454 872.005 444.437
2465 1 65.3701 10.9683 717 127.65 872.77 470.091
2466 0 67.1497 11.2435 755 130.558 872.213 469.275
2467 0 69.505 11.8265 822 122.102 871.916 467.096
2468 0 70.3437 12.1262 853 126.277 872.014 467.485
2469 0 74.3613 12.0224 894 123.745 871.772 464.945
2470 0 75.3869 12.0445 908 124.13 871.639 464.26
2471 0 76.441 12.5195 957 129.329 871.456 462.952
2472 0 78.4057 12.142 952 126.42 871.584 462.763
2473 0 80.3038 12.3282 990 124.041 871.53 462.134
2474 0 83.5404 12.2336 1022 130.681 871.661 461.08
2475 0 85.2856 12.6633 1080 131.231 870.991 459.669
2476 0 88.3431 12.542 1108 130.469 871.216 457.991
2477 0 90.3417 12.6188 1140 130.136 871.947 456.047
2478 0 92.2923 12.5363 1157 135.088 871.816 456.407
2479 0 94.3809 12.7038 1199 126.793 872.266 454.967
2480 0 99.39 12.627 1255 132.903 871.879 453.49
2481 0 102.438 12.7491 1306 128.553 871.489 451.676
2482 0 103.497 12.6574 1310 131.11 871.694 451.118
2483 0 108.454 12.9824 1408 125.572 871.854 448.501
2484 0 110.486 12.8432 1419 132.763 871.124 446.912
2485 0 114.519 12.8101 1467 132.398 870.974 444.544
2486 0 119.561 12.9139 1544 133.728 870.833 443.435
2487 1 64.2494 11.0351 709 132.403 871.542 472.097
2488 0 67.3321 11.4359 770 133.306 871.757 470.94
2489 0 68.3247 11.7966 806 129.377 871.644 467.207
2490 0 74.224 13.594 1009 116.574 872.101 466.234
2491 0 76.2347 14.3898 1097 117.222 872.197 464.811
2492 0 76.427 12.103 925 130.55 872.25 466.183
2493 0 77.33 12.1945 943 127.392 872.367 465.163
2494 0 80.4731 12.3768 996 130.864 872.044 463.204
2495 0 83.5665 12.8281 1072 123.185 871.979 460.002
2496 0 84.4597 12.6569 1069 125.981 871.472 458.541
2497 0 87.539 12.3031 1077 130.511 871.733 458.112
2498 0 89.4291 12.6245 1129 130.563 871.833 455.559
2499 0 91.4893 12.7993 1171 133.157 872.108 455.209
2500 0 96.4081 12.5612 1211 129.386 871.978 454.29
2501 0 101.556 14.9081 1514 121.535 872.187 447.625
2502 0 105.373 14.7951 1559 124.89 872.239 446.828
2503 0 104.324 12.557 1310 139.592 871.657 449.352
2504 0 106.281 13.2385 1407 138.234 872.549 448.471
2505 0 110.609 13.0188 1440 139.54 872.206 446.299
2506 1 58.5281 11.3279 663 132.345 871.217 471.036
2507 0 62.4913 11.4896 718 131.306 871.486 470.079
2508 0 64.3048 12.0675 776 135.919 871.535 469.946
2509 0 66.5722 12.2423 815 136.676 871.971 467.18
2510 0 68.4851 12.6743 868 139.968 872.356 466.677
2511 0 69.432 12.6167 876 139.506 872.733 465.903
2512 0 71.3294 12.7297 908 136.306 872.581 464.671
2513 0 74.659 12.7781 954 137.364 872.504 463.338
2514 0 76.6211 12.5031 958 138.071 871.729 462.164
2515 0 78.4111 13.0084 1020 140.869 872.108 459.805
2516 0 81.466 12.9625 1056 136.518 871.746 458.952
2517 0 81.4316 13.4837 1098 133.985 871.683 457.489
2518 0 86.5992 12.7946 1108 140.969 872.134 456.501
2519 0 87.5971 13.1397 1151 133.938 872.022 454.877
2520 0 89.5413 13.0554 1169 136.739 872.97 453.126
2521 0 93.604 13.0123 1218 141.797 872.94 452.323
2522 0 95.6483 13.0269 1246 139.596 872.949 451.016
2523 0 98.7215 13.0164 1285 142.548 872.992 449.572
2524 0 101.619 14.151 1438 138.613 873.442 446.458
2525 0 103.651 13.1789 1366 141.531 872.564 446.447
2526 0 109.654 14.0442 1540 141.132 872.872 443.169
2527 0 110.407 13.0879 1445 145.398 873.097 444.155
2528 1 59.3858 10.9959 653 145.865 872.62 468.302
2529 0 58.3669 11.8218 690 141.022 873.293 464.848
2530 0 60.2636 11.8645 715 138.038 872.547 464.069
2531 0 63.2034 11.7399 742 129.284 872.461 463.88
2532 0 64.2648 11.9194 766 134.403 872.708 463.704
2533 0 67.3033 11.7676 792 134.614 872.617 460.736
2534 0 66.1259 12.6274 835 133.619 872.868 459.702
2535 0 68.1925 12.538 855 131.836 873.628 458.164
2536 0 71.1925 12.1502 865 132.927 873.682 457.762
2537 0 73.1694 12.8196 938 134.356 874.086 456.14
2538 0 75.1985 12.4737 938 138.542 873.771 455.425
2539 0 79.227 12.4705 988 133.621 874.361 453.807
2540 0 82.3018 12.7944 1053 141.159 874.746 454.265
2541 0 84.3105 12.9521 1092 138.071 874.729 453.746
2542 0 84.3346 13.1144 1106 144.108 874.625 453.424
2543 0 88.4268 13.4688 1191 141.987 874.586 452.234
2544 0 90.19 13.5381 1221 140.832 874.627 451.04
2545 0 93.4272 13.5293 1264 139.991 873.84 449.669
2546 0 96.2329 13.7063 1319 140.315 874.456 448.638
2547 0 99.374 13.4744 1339 142.105 874.5 447.576
2548 0 102.33 13.3 1361 144.242 874.253 446.159
2549 0 104.246 13.2667 1383 146.767 874.099 444.681
2550 0 108.291 13.5007 1462 141.182 874.9 443.326
2551 0 112.273 13.5384 1520 140.796 874.62 441.645
2552 0 116.269 13.5634 1577 139.584 875.034 440.729
2553 0 119.325 13.6602 1630 140.387 874.891 437.596
2554 0 123.259 14.0842 1736 135.157 874.498 435.397
2555 0 127.3 14.0691 1791 141.995 874.698 432.201
2556 1 68.198 11.7012 798 129.702 874.739 462.862
2557 0 71.09 11.8441 842 143.772 874.36 462.268
2558 0 73.0827 12.0275 879 148.891 873.441 461.556
2559 0 76.1651 12.3679 942 142.011 873.484 459.825
2560 0 75.07 12.3485 927 147.635 874.06 459.134
2561 0 78.1075 12.662 989 145.536 873.879 458.644
2562 0 82.1251 12.761 1048 145.568 873.725 457.475
2563 0 84.2239 12.6924 1069 145.716 873.419 457.262
2564 0 87.2855 12.5336 1094 146.355 873.835 457.258
2565 0 89.13 12.5771 1121 145.554 873.759 455.08
2566 0 91.1136 12.435 1133 146.934 874.46 453.818
2567 0 93.2191 12.6047 1175 142.566 874.273 451.931
2568 0 96.1361 12.7424 1225 141.476 874.583 451.014
2569 0 99.2404 12.8778 1278 140.552 874.611 449.135
2570 0 101.175 12.928 1308 143.913 874.566 448.051
2571 0 105.22 12.9918 1367 144.149 873.157 445.737
2572 0 107.222 12.9638 1390 144.729 873.534 445.417
2573 0 110.265 13.2317 1459 141.551 873.772 442.156
2574 0 113.161 13.3616 1512 143.022 873.847 441.439
2575 0 116.418 13.2025 1537 145.904 874.088 439.494
2576 0 118.184 13.4367 1588 152.108 874.14 439.262
2577 0 124.219 13.2829 1650 148.431 874.842 435.496
2578 0 126.287 13.4376 1697 146.792 875.37 433.495
2579 0 130.243 13.2214 1722 153.494 875.249 431.879
2580 0 137.259 13.3398 1831 149.783 875.346 428.804
2581 0 140.289 13.2512 1859 146.871 874.802 426.069
2582 0 144.383 13.0556 1885 141.395 874.844 422.354
2583 1 82.1607 10.7837 886 130.635 875.222 455.735
2584 0 84.0993 11.0703 931 137.084 873.86 453.707
2585 0 85.2018 11.1265 948 127.473 874.404 454.255
2586 0 87.2385 11.5201 1005 135.363 874.004 453.867
2587 0 89.1567 11.3957 1016 129.678 874.11 450.74
2588 0 92.1585 11.3609 1047 132.207 873.44 448.904
2589 0 94.2016 11.5285 1086 127.525 873.905 448.154
2590 0 98.2598 12.1209 1191 133.531 873.358 446.233
2591 0 100.146 11.7629 1178 131.725 873.31 445.394
2592 0 103.109 11.7546 1212 136.129 873.353 444.486
2593 0 105.223 12.0411 1267 137.468 872.992 443.084
2594 0 109.088 11.7061 1277 138.349 873.124 442.503
2595 0 113.081 11.8411 1339 139.748 873.673 440.621
2596 0 118.365 12.1235 1435 138.531 873.565 438.377
2597 0 121.101 12.1304 1469 135.984 873.807 436.498
2598 1 70.1028 9.74283 683 136.994 874.294 462.706
2599 0 71.1065 11.2367 799 132.574 874.517 460.034
2600 0 73.1744 10.7688 788 127.279 873.783 460.734
2601 0 74.0851 10.9874 814 125.14 873.366 459.875
2602 0 76.0986 10.7229 816 131.02 873.278 459.414
2603 0 78.1088 11.1127 868 126.174 873.346 457.846
2604 0 80.0747 11.3144 906 126.955 873.06 457.326
2605 0 83.2011 11.4181 950 124.677 872.897 456.417
2606 0 84.1843 11.3442 955 131.644 872.289 455.38
2607 0 85.2539 11.6006 989 131.247 871.948 453.381
2608 0 87.2461 12.1152 1057 128.634 872.26 453.187
2609 0 91.1497 11.7938 1075 125.922 871.806 451.152
2610 0 94.2331 12.0977 1140 124.203 871.773 449.321
2611 0 97.3759 11.5737 1127 128.728 872.168 449.177
2612 0 98.3481 11.866 1167 129.669 872.53 447.749
2613 0 102.151 12.1389 1240 126.994 871.764 446.054
2614 0 105.223 12.2786 1292 129.194 872.177 444.821
2615 0 108.264 11.9892 1298 132.232 871.901 442.834
2616 0 109.16 12.1839 1330 138.795 872.165 442.596
2617 0 114.278 12.0933 1382 129.973 872.009 440.816
2618 0 119.289 12.1637 1451 133.055 872.151 440.493
2619 1 70.1811 10.6296 746 137.503 872.263 463.948
2620 0 73.1441 10.9373 800 138.259 872.588 462.8
2621 0 76.3547 11.5383 881 137.096 872.892 461.76
2622 0 79.1665 12.1769 964 133.696 872.963 460.989
2623 0 81.2369 12.6297 1026 135.411 873.272 461.067
2624 0 83.2595 12.8154 1067 132.202 872.773 460.929
2625 0 86.3812 12.4796 1078 130.037 872.612 458.735
2626 0 87.2107 12.8769 1123 140.24 872.154 457.903
2627 0 90.2347 13.3652 1206 132.189 872.649 456.885
2628 0 95.5001 12.7749 1220 134.999 873.108 455.702
2629 0 97.4113 13.0272 1269 137.175 873.228 455.209
2630 0 100.342 12.5969 1264 136.375 873.311 453.866
2631 0 102.379 13.0203 1333 133.869 872.833 453.112
2632 0 105.291 12.7741 1345 138.72 872.84 450.716
2633 0 108.492 13.365 1450 137.078 872.236 449.55
2634 0 110.503 13.2667 1466 139.338 872.161 448.68
2635 0 113.647 13.4891 1533 135.489 871.681 446.81
2636 0 117.353 13.3274 1564 142.622 872.146 445.217
2637 0 120.523 13.5078 1628 144.222 872.142 443.733
2638 0 123.406 13.5893 1677 146.094 872.678 441.596
2639 0 127.645 13.3025 1698 142.905 872.228 440.369
2640 0 132.595 13.4319 1781 144.484 872.316 438.118
2641 0 135.322 13.3903 1812 143.541 871.821 436.544
2642 1 75.0807 11.8273 888 139.435 872.251 466.169
2643 0 77.2556 12.5816 972 134.802 871.93 465.314
2644 0 78.1635 12.3075 962 136.149 871.427 465.503
2645 0 81.1668 12.4189 1008 129.129 872.196 463.611
2646 0 82.1996 12.3358 1014 135.253 871.51 462.347
2647 0 85.2814 12.5467 1070 136.689 871.657 462.21
2648 0 86.1606 12.5928 1085 131.415 871.553 460.952
2649 0 89.2107 12.79 1141 130.89 871.606 460.188
2650 0 93.2932 12.4339 1160 128.634 871.507 458.45
2651 0 95.2949 12.2882 1171 133.793 871.536 457.352
2652 0 97.241 12.5153 1217 135.08 871.688 456.266
2653 0 101.226 12.724 1288 130.966 871.915 454.269
2654 0 101.203 13.2605 1342 119.025 871.942 453.016
2655 0 105.189 12.6534 1331 118.381 872.004 452.292
2656 0 108.184 12.8022 1385 120.039 872.713 450.968
2657 0 111.224 12.9378 1439 117.274 873.004 450.268
2658 0 114.156 13.1136 1497 120.583 873.04 448.883
2659 0 118.296 12.9929 1537 123.459 873.121 446.875
2660 0 120.535 13.1829 1589 137.965 872.67 444.532
2661 0 126.217 13.1837 1664 125.861 872.262 442.329
2662 0 128.315 13.1552 1688 121.329 872.412 440.521
2663 1 74.3145 11.8819 883 108.168 871.761 468.593
2664 0 76.1536 12.3697 942 112.551 871.672 467.511
2665 0 78.2152 12.5295 980 112.593 871.367 465.192
2666 0 81.2374 12.3219 1001 112.226 871.119 464.175
2667 0 83.2663 12.2138 1017 113.819 871.667 464.125
2668 0 85.2888 12.5456 1070 110.265 871.841 462.137
2669 0 88.1593 12.7723 1126 107.087 872.132 460.991
2670 0 90.1606 12.6552 1141 108.816 871.788 460.163
2671 0 95.164 12.1685 1158 110.118 871.914 459.142
2672 0 97.4225 12.4407 1212 107.505 871.699 457.081
2673 0 99.2167 12.6289 1253 108.181 871.888 455.162
2674 0 104.305 12.4635 1300 107.725 871.588 454.266
2675 0 105.256 12.6453 1331 110.657 871.026 453.043
2676 0 110.353 12.3785 1366 113.406 870.787 451.701
2677 0 112.196 12.7367 1429 106.109 870.737 449.84
2678 0 115.208 12.4124 1430 107.806 870.515 449.449
2679 0 117.317 12.3937 1454 114.999 870.726 446.753
2680 0 121.41 12.7502 1548 115.838 870.78 444.947
2681 0 123.161 13.1292 1617 114.254 870.902 442.25
2682 0 129.172 12.7194 1643 110.128 870.339 442.344
2683 0 132.321 12.8098 1695 112.002 870.273 439.209
2684 0 135.266 13.004 1759 111.495 870.437 438.143
2685 1 78.0795 11.1809 873 110.664 870.873 466.59
2686 0 81.1355 11.6718 947 110.871 872.232 465.542
2687 0 83.218 12.1729 1013 108.287 872.462 464.075
2688 0 86.1505 12.5942 1085 119.006 872.076 462.916
2689 0 87.1825 12.491 1089 117.108 872.242 462.693
2690 0 90.0979 12.331 1111 113.554 872.395 461.033
2691 0 93.1387 11.703 1090 114.878 872.15 457.425
2692 0 94.1917 11.9119 1122 126.103 872.698 457.586
2693 0 98.2006 11.7515 1154 124.961 872.268 455.082
2694 0 100.143 12.7118 1273 126.358 872.293 456.276
2695 0 103.227 12.4773 1288 126.454 872.157 453.957
2696 0 107.158 12.1036 1297 129.129 872.476 452.813
2697 0 107.163 12.9429 1387 128.151 872.136 450.714
2698 0 110.168 12.3176 1357 126.076 872.029 448.142
2699 1 93.046 9.10303 847 130.229 871.689 459.627
2700 0 92.1368 8.97579 827 133.052 871.301 460.132
2701 1 67.168 9.76656 656 125.809 871.474 471.694
2702 0 68.1854 10.1341 691 120.928 871.501 469.689
2703 0 69.0901 10.9422 756 115.238 871.208 468.865
2704 0 73.047 11.8964 869 119.738 871.572 466.771
2705 0 76.0903 12.1697 926 123.734 871.789 465.676
2706 0 77.1168 12.3838 955 121.889 872.242 464.528
2707 0 78.123 12.0835 944 130.149 871.724 463.326
2708 0 80.1405 11.8043 946 120.519 872.126 462.395
2709 0 83.0913 12.2516 1018 124.986 872.176 460.584
2710 0 86.0517 12.0044 1033 117.998 871.786 458.537
2711 0 89.1989 12.7244 1135 132.103 872.172 459.501
2712 0 91.0848 12.5817 1146 128.629 872.168 457.036
2713 0 92.1069 12.2358 1127 115.888 872.691 456.176
2714 0 94.1761 12.5616 1183 118.513 872.089 453.685
2715 0 100.194 12.8451 1287 115.281 872.544 454.564
2716 0 104.115 12.6782 1320 112.82 872.245 451.194
2717 0 106.096 12.7243 1350 112.911 872.281 450.862
2718 0 110.14 12.6839 1397 110.923 871.22 450.105
2719 0 111.271 12.7347 1417 106.373 871.858 447.183
2720 0 115.234 13.1212 1512 108.151 871.542 445.689
2721 0 118.294 12.9677 1534 102.221 871.741 443.049
2722 0 122.539 12.8939 1580 104.015 871.439 443.158
2723 1 66.0783 10.3665 685 111.638 871.653 470.333
2724 0 68.0688 10.2837 700 99.8314 872.204 470.671
2725 0 71.0556 11.2447 799 106.541 871.887 469.884
2726 0 73.0257 11.9273 871 105.576 871.938 469.428
2727 0 75.1384 11.4589 861 103.726 872.274 466.876
2728 0 77.1408 11.0447 852 106.751 871.144 465.507
2729 0 77.2985 11.7467 908 106.794 871.112 464.562
2730 0 82.1883 11.352 933 111.65 871.277 463.626
2731 0 83.1818 11.1322 926 110.558 871.156 461.919
2732 0 86.1304 11.9006 1025 119.792 870.693 460.7
2733 0 88.116 11.7572 1036 117.047 870.678 460.339
2734 0 92.2164 11.7441 1083 113.666 871.198 458.468
2735 0 94.1893 12.4006 1168 118.664 870.912 457.314
2736 0 96.2494 12.2494 1179 117.707 870.79 456.042
2737 0 99.229 12.5467 1245 117.864 870.954 454.467
2738 0 101.416 12.286 1246 110.478 870.649 451.714
2739 0 105.3 12.2223 1287 107.737 870.394 452.315
2740 0 107.176 12.4748 1337 118.578 870.438 450.895
2741 0 109.326 12.4673 1363 115.18 870.625 449.479
2742 0 112.23 12.2961 1380 107.64 869.991 446.475
2743 0 116.342 11.6811 1359 116.85 871.155 444.881
2744 0 120.316 12.143 1461 113.088 870.46 442.335
2745 0 123.29 11.769 1451 115.442 870.445 440.578
2746 1 70.1351 11.4208 801 111.567 870.924 470.092
2747 0 73.0638 11.6063 848 108.617 871.499 469.873
2748 0 75.1687 11.8267 889 112.838 871.755 467.872
2749 0 76.3038 11.9784 914 106.255 871.152 468.216
2750 0 80.2461 12.038 966 101.284 870.678 466.274
2751 0 82.1908 12.2155 1004 99.2141 870.892 464.983
2752 0 85.2233 11.9568 1019 105.716 870.76 462.713
2753 0 88.3562 11.8498 1047 113.313 870.67 461.655
2754 0 87.1545 12.1394 1058 107.212 870.351 459.322
2755 0 92.2456 12.2716 1132 111.662 871.375 458.306
2756 0 94.2757 12.2937 1159 113.619 870.984 456.963
2757 0 97.3686 11.7389 1143 111.646 870.467 455.228
2758 0 101.264 12.0379 1219 112.208 870.547 454.539
2759 0 101.244 12.6032 1276 107.084 870.765 452.125
2760 0 107.258 12.1017 1298 113.851 871.036 449.186
2761 0 109.303 12.1772 1331 109.457 871.043 448.013
2762 1 161.509 10.2285 1652 118.722 871.545 425.709
2763 0 166.73 10.436 1740 118.082 872.532 420.095
2764 0 170.913 11.0348 1886 118.92 872.12 414.406
2765 0 176.726 11.1642 1973 118.09 871.678 412.236
2766 0 180.719 10.8511 1961 118.321 871.928 407.963
2767 1 64.3389 3.73025 240 108.675 872.196 475.004
2768 0 75.2473 9.54187 718 99.1462 871.89 467.35
2769 0 76.4532 9.52217 728 103.107 872.158 465.181
2770 0 79.322 9.9468 789 102.184 871.707 462.882
2771 0 81.4481 10.9027 888 102.596 871.753 461.801
2772 0 81.2291 11.2891 917 100.571 872.494 461.335
2773 0 85.3672 11.1635 953 104.537 872.348 460.407
2774 0 88.3493 11.5451 1020 105.749 871.535 458.252
2775 0 91.4864 10.9852 1005 104.348 871.756 456.059
2776 0 94.5335 10.7581 1017 103.289 872.011 455.618
2777 0 97.3588 11.1957 1090 110.954 871.835 452.837
2778 0 100.357 11.4193 1146 104.235 872.711 453.059
2779 0 104.442 11.7194 1224 107.508 873.131 451.475
2780 0 105.229 11.5938 1220 106.907 873.308 448.408
2781 0 106.28 12.1847 1295 109.35 873.331 448.731
2782 0 109.286 11.5476 1262 115.384 872.822 445.266
2783 0 112.292 11.2475 1263 108.666 873 443.48
2784 0 116.328 11.2269 1306 113.094 873.203 441.469
2785 0 118.211 10.2698 1214 111.909 873.489 441.956
2786 0 126.303 11.4011 1440 103.688 873.617 438.691
2787 0 129.222 11.074 1431 102.576 873.639 436.716
2788 0 133.447 11.1055 1482 101.366 873.956 433.813
2789 0 136.555 10.7575 1469 111.304 873.779 431.991
2790 0 139.616 11.3383 1583 112.919 874.478 429.78
2791 0 144.646 10.9993 1591 116.441 874.51 427.368
2792 1 85.0973 10.7289 913 108.39 874.815 454.35
2793 1 218.99 10.7128 2346 116.176 875.045 386.604
2794 1 32.091 3.77053 121 104.463 875.099 482.884
2795 0 34.1348 3.72054 127 108.929 874.646 484.134
2796 0 33.0646 4.11316 136 105.463 875.125 483.809
2797 0 41.0664 7.914 325 100.717 875.043 480.105
2798 0 35.2016 8.011 282 95.8617 874.943 481.773
2799 0 38.179 8.14583 311 92.8135 875.293 479.466
2800 0 41.2331 8.29431 342 108.871 874.942 480.161
2801 0 39.0969 8.10806 317 110.71 874.861 479.073
2802 0 41.0651 8.27954 340 114.962 874.903 478.5
2803 0 44.0407 8.12884 358 118.274 875.126 478.115
2804 0 45.0738 8.20876 370 118.346 876.192 477.197
2805 0 44.1153 8.09243 357 113.515 875.944 478.627
2806 1 122.396 12.9416 1584 125.631 875.525 437.86
2807 0 127.468 13.7132 1748 111.998 875.426 436.434
2808 0 130.465 13.8045 1801 115.663 876.26 434.724
2809 0 133.395 14.1085 1882 114.889 874.897 432.514
2810 0 138.459 13.708 1898 113.736 874.98 430.986
2811 0 140.493 13.7587 1933 128.402 874.512 429.062
2812 0 145.528 13.3858 1948 120.06 874.777 427.407
2813 0 150.627 13.1849 1986 118.74 875.64 424.194
2814 0 155.591 13.3427 2076 112.54 875.031 422.097
2815 0 158.543 13.7691 2183 113.262 875.194 420.828
2816 0 164.543 13.5102 2223 135.107 874.61 418.462
2817 0 172.545 13.7993 2381 132.04 874.789 416.06
2818 1 100.238 12.8893 1292 121.541 874.896 451.18
2819 0 103.213 13.0797 1350 125.29 874.711 449.583
2820 0 105.189 12.7484 1341 125.834 874.993 447.781
2821 0 109.289 13.4963 1475 139.593 874.704 446.887
2822 0 113.242 13.3431 1511 134.529 874.433 445.175
2823 0 117.219 13.1122 1537 134.528 874.625 442.592
2824 0 120.251 13.1807 1585 129.363 874.3 441.406
2825 0 123.252 13.371 1648 96.2779 874.23 440.3
2826 0 124.159 13.5874 1687 138.427 874.456 438.29
2827 0 129.371 13.4033 1734 139.375 873.988 436.934
2828 0 133.277 13.0706 1742 137.363 874.361 432.324
2829 0 136.132 13.3106 1812 136.812 874.978 430.274
2830 0 140.258 13.3611 1874 135.457 874.592 428.875
2831 0 145.31 13.2888 1931 132.371 874.076 427.872
2832 0 150.286 13.5475 2036 138.091 873.59 424.713
2833 0 155.197 13.7503 2134 132.531 873.851 423.039
2834 0 161.667 13.2309 2139 133.266 873.717 419.583
2835 0 166.25 13.2631 2205 134.435 873.669 416.943
2836 0 171.145 13.3103 2278 129.519 873.863 415.039
2837 0 176.438 13.1888 2327 122.645 872.893 412.221
2838 1 103.325 12.4753 1289 110.215 873.827 448.997
2839 0 106.365 12.5888 1339 110.158 873.534 447.895
2840 0 109.175 12.0907 1320 109.769 873.008 446.936
2841 0 111.331 12.5212 1394 119.139 873.585 445.633
2842 0 115.257 12.5198 1443 125.96 872.979 443.996
2843 0 119.187 12.7614 1521 113.189 872.911 441.963
2844 0 121.26 12.7907 1551 123.648 873.385 441.055
2845 0 127.301 12.6236 1607 125.75 872.948 438.252
2846 0 131.448 13.2599 1743 119.906 872.77 436.777
2847 0 134.426 11.5156 1548 135.16 872.32 434.709
2848 0 139.434 13.146 1833 129.355 872.23 433.14
2849 0 145.297 12.7394 1851 125.764 872.796 429.456
2850 1 84.2599 10.9898 926 117.76 874.465 460.868
2851 0 87.3429 11.5407 1008 103.054 874.677 458.755
2852 0 90.3147 11.7257 1059 103.676 874.073 455.34
2853 0 91.2727 11.6574 1064 116.057 875.045 453.176
2854 0 92.2784 11.2486 1038 117.749 874.233 453.367
2855 0 96.305 12.2631 1181 112.576 873.98 452.471
2856 0 98.2213 12.7365 1251 106.357 874.576 452.722
2857 0 103.382 12.4393 1286 107.701 874.752 449.145
2858 0 106.232 12.0868 1284 113.949 874.118 447.273
2859 0 108.293 12.0414 1304 115.085 874.692 446.152
2860 0 113.443 12.5084 1419 111.911 874.067 445.265
2861 0 116.218 12.2873 1428 104.721 874.19 441.455
2862 0 114.305 11.3118 1293 112.759 874.027 442.394
2863 0 115.247 10.9243 1259 113.477 874.011 443.497
2864 1 71.0596 9.48499 674 105.022 875.132 465.909
2865 0 71.2101 10.0969 719 107.106 874.972 465.159
2866 0 73.2162 10.2709 752 109.005 874.899 464.406
2867 0 75.1076 10.7712 809 108.445 874.823 462.941
2868 0 82.184 9.84377 809 109.792 874.91 461.129
2869 0 82.097 10.3292 848 120.752 874.656 461.749
2870 0 82.2109 12.0908 994 114.526 874.629 456.612
2871 0 80.2714 12.0965 971 109.621 874.808 455.513
2872 1 145.136 8.28875 1203 115.795 875.475 434.062
2873 0 151.16 8.61336 1302 111.321 875.267 429.95
2874 0 150.478 7.60909 1145 117.148 873.587 436.563
2875 0 152.345 7.99499 1218 116.693 873.882 433.122
2876 0 152.341 9.55752 1456 112.587 873.358 428.328
2877 0 151.331 11.379 1722 110.783 873.967 421.247
2878 1 112.182 11.829 1327 108.206 874.038 443.75
2879 0 118.212 12.3507 1460 100.428 874.068 441.655
2880 0 121.323 12.3554 1499 94.2262 874.193 439.875
2881 0 126.298 12.2726 1550 95.6426 874.423 438.521
2882 0 133.26 12.0291 1603 97.9588 874.526 435.995
2883 0 132.388 12.3954 1641 97.326 874.476 434.804
2884 0 138.205 12.2137 1688 96.3347 874.568 431.716
2885 0 142.492 11.8884 1694 93.5608 874.633 427.816
2886 0 147.203 11.7796 1734 98.8749 874.516 422.246
2887 0 151.174 11.9862 1812 95.2964 874.607 422.522
2888 0 157.193 12.1698 1913 99.1615 874.588 418.284
2889 0 163.182 11.6251 1897 99.2931 874.333 414.834
2890 0 154.214 7.48957 1155 103.908 874.984 429.922
2891 1 77.1063 6.718 518 98.1486 874.998 464.502
2892 0 79.0644 7.91759 626 111.153 875.069 462.091
2893 0 81.1129 7.08889 575 113.101 874.863 463.24
2894 0 81.1267 8.48056 688 111.874 874.776 460.173
2895 0 78.0659 7.71143 602 110.169 874.869 462.706
2896 0 84.0623 8.4818 713 114.868 874.454 459.282
2897 0 84.086 6.86202 577 114.385 874.827 462.529
2898 0 91.1973 7.53311 687 115.279 874.052 458.828
2899 1 38.0293 6.20574 236 103.496 874.945 482.225
2900 0 37.0566 7.12424 264 109.053 875.129 480.761
2901 0 44.0769 9.21117 406 106.094 874.505 478.695
2902 0 43.0576 8.66281 373 109.206 874.534 478.332
2903 0 43.0268 8.34364 359 107.295 875.039 478.176
2904 0 41.0785 8.32552 342 108.018 875.436 478.781
2905 0 44.14 7.95196 351 103.188 875.607 479.251
2906 0 45.0245 7.77354 350 111.151 875.589 479.669
2907 0 43.044 7.7595 334 108.88 875.527 479.407
2908 1 86.0886 9.42052 811 116.256 874.963 459.152
2909 0 91.1614 9.81775 895 113.703 874.647 457.452
2910 0 91.1614 9.81775 895 138.936 873.647 457.452
2911 0 95.1534 10.8667 1034 107.085 874.028 453.783
2912 0 97.2647 11.0215 1072 98.8955 874.057 451.102
2913 0 101.182 11.9093 1205 95.6208 874.55 450.082
2914 0 103.204 12.2863 1268 94.8683 874.871 448.037
2915 0 105.302 12.222 1287 103.328 874.574 447.378
2916 0 108.288 12.3651 1339 102.636 874.395 444.877
2917 1 42.1745 9.22359 389 101.35 875.393 479.735
2918 0 40.0781 9.05732 363 103.488 875.38 480.08
2919 0 44.0651 8.69168 383 102.932 875.342 478.653
2920 0 44.0828 8.64283 381 98.2835 875.454 479.063
2921 0 43.11 8.90744 384 101.068 875.607 479.258
2922 0 42.0235 9.49469 399 98.2581 875.524 478.772
2923 0 43.0957 9.62974 415 100.441 875.446 478.602
2924 0 44.2175 9.31757 412 98.7282 875.573 478.269
2925 1 77.1092 10.4397 805 105.075 874.343 462.353
2926 0 79.4182 10.9673 871 105.541 874.958 462.078
2927 0 82.3427 10.9542 902 101.338 874.844 460.074
2928 0 82.3191 11.7348 966 91.7878 875.116 459.467
2929 0 86.5377 12.1681 1053 91.2574 875.618 459.299
2930 0 87.3065 12.3129 1075 94.014 874.479 457.16
2931 0 90.5216 12.6489 1145 97.4402 875.115 455.219
2932 0 92.3404 12.0966 1117 94.5067 875.352 453.622
2933 0 94.5213 13.0235 1231 93.4752 874.76 452.346
2934 0 98.2437 12.9372 1271 100.613 874.436 450.067
2935 0 100.588 12.5662 1264 100.986 875.357 449.687
2936 0 102.571 12.5182 1284 98.3598 875.05 449.414
2937 0 104.475 12.5867 1315 90.0867 875.099 447.529
2938 0 108.461 13.1568 1427 94.192 875.069 445.741
2939 0 110.411 12.8157 1415 96.2735 875.133 444.298
2940 0 113.693 13.8443 1574 91.69 875.151 443.976
2941 0 117.565 13.6776 1608 95.4733 875.228 442.749
2942 0 121.515 13.4304 1632 97.0852 875.043 441.089
2943 0 123.665 13.8762 1716 100.517 874.902 438.403
2944 0 129.827 13.5642 1761 96.954 874.496 437.688
2945 0 132.447 13.681 1812 91.4073 874.942 435.891
2946 0 137.468 13.6977 1883 98.7446 874.262 433.084
2947 1 75.173 12.305 925 98.7449 873.983 463.92
2948 0 77.3406 13.2401 1024 96.2373 873.783 462.286
2949 0 80.3577 13.2159 1062 98.4171 873.772 460.972
2950 0 82.4378 13.1978 1088 104.092 873.369 459.893
2951 0 83.4145 13.6068 1135 103.323 873.762 458.708
2952 0 87.3634 13.3809 1169 103.218 873.517 457.712
2953 0 88.3042 13.5441 1196 103.323 873.885 455.683
2954 0 92.4322 13.61 1258 99.0334 873.84 453.909
2955 0 96.7236 13.4817 1304 103.393 873.633 454.044
2956 0 100.482 13.5546 1362 108.536 873.744 451.938
2957 0 101.39 13.5319 1372 103.896 872.937 449.576
2958 0 105.468 13.4827 1422 105.94 872.927 447.81
2959 0 108.504 13.9442 1513 102.855 872.954 446.177
2960 0 112.662 13.6071 1533 99.7671 873.188 445.384
2961 0 114.701 13.7313 1575 106.469 872.816 442.977
2962 0 118.436 14.2693 1690 101.075 873.87 440.286
2963 0 121.574 13.4157 1631 101.527 873.683 439.282
2964 0 123.44 13.4478 1660 103.769 873.2 437.126
2965 0 126.819 13.7676 1746 99.3797 872.693 435.906
2966 0 130.705 14.1769 1853 96.0016 873.068 434.693
2967 0 134.964 14.552 1964 96.8707 872.732 434.198
2968 0 136.841 13.9359 1907 99.5632 872.787 432.006
2969 0 142.005 13.9995 1988 101.474 872.984 430.083
2970 0 146.929 14.4559 2124 108.808 872.646 428.473
2971 0 150.044 14.2625 2140 101.913 872.573 426.088
2972 0 152.684 14.6577 2238 108.332 872.653 424.704
2973 0 159.15 14.2318 2265 106.819 872.521 422.762
2974 0 162.949 14.3112 2332 112.165 871.443 421.45
2975 0 170.035 14.3618 2442 108.368 871.556 418.042
2976 1 85.7691 13.6529 1171 109.333 871.503 459.588
2977 0 86.749 14.1443 1227 109.743 871.764 458.411
2978 0 89.4971 14.1792 1269 108.003 871.796 457.386
2979 0 92.8229 14.0052 1300 110.512 871.319 456.013
2980 0 97.75 13.7187 1341 108.079 870.997 454.221
2981 0 99.6127 13.8235 1377 110.269 870.959 452.82
2982 0 102.154 14.0572 1436 107.645 871.133 450.925
2983 0 104.635 14.2208 1488 112.715 871.694 449.939
2984 0 108.733 14.1448 1538 114.82 872.189 447.793
2985 0 112.84 13.7274 1549 120.254 871.464 445.356
2986 0 115.55 13.9767 1615 120.625 871.675 443.69
2987 0 120.831 13.6306 1647 113.991 871.138 442.504
2988 0 122.59 13.7043 1680 113.262 871.579 441.074
2989 1 69.8055 12.4346 868 114.732 870.986 467.093
2990 0 71.6036 13.0161 932 113.659 872.114 465.783
2991 0 72.5864 13.4598 977 114.269 872.077 465.061
2992 0 75.9701 13.2157 1004 119.655 871.895 463.56
2993 0 79.7866 13.7617 1098 112.716 872.036 463.287
2994 0 81.7732 13.6108 1113 112.721 871.951 461.801
2995 0 84.7852 13.776 1168 109.805 872.396 460.39
2996 0 88.6135 13.6774 1212 108.329 872.37 458.316
2997 0 91.5808 13.5946 1245 106.741 872.335 456.645
2998 0 93.5506 13.7038 1282 107.565 872.356 454.65
2999 0 97.3452 14.0531 1368 102.312 872.302 453.837
3000 0 100.683 13.8851 1398 110.411 871.948 452.202
3001 0 103.581 13.9794 1448 113.903 872.089 450.483
3002 0 105.556 13.642 1440 113.66 872.544 448.874
3003 0 108.551 13.4868 1464 116.598 871.831 447.328
3004 0 112.534 13.1871 1484 113.905 872.112 444.956
3005 0 114.363 13.4397 1537 115.68 872.522 442.443
3006 1 51.4076 10.1736 523 104.147 873.17 475.046
3007 0 53.3453 10.4602 558 100.563 872.905 473.941
3008 0 54.3872 12.2455 666 95.8078 872.574 474.195
3009 0 56.3303 11.9651 674 93.4748 872.292 473.349
3010 0 57.2621 12.1197 694 99.6124 872.785 471.599
3011 0 59.5976 11.1246 663 99.816 872.867 471.617
3012 0 60.5335 11.5473 699 93.7954 873.276 469.78
3013 0 61.5806 11.5946 714 93.9328 873.287 468.63
3014 0 64.5061 12.2934 793 91.7188 872.918 468.204
3015 0 65.5433 12.3735 811 102.904 873.486 466.776
3016 0 67.443 11.9212 804 98.6318 872.636 466.274
3017 0 68.9001 12.119 835 100.705 872.988 464.507
3018 0 70.6644 12.1136 856 99.9241 872.74 461.173
3019 0 73.6774 11.6182 856 100.535 872.714 460.811
3020 0 72.5088 12.1227 879 99.6098 873.112 460.177
3021 0 76.4508 11.8638 907 101.738 872.893 459.39
3022 0 79.5078 12.4139 987 100.139 872.387 459.078
3023 0 82.6474 12.3416 1020 97.6373 872.858 457.914
3024 0 81.5947 12.2557 1000 98.536 872.974 455.761
3025 0 84.4882 12.6763 1071 99.1167 872.782 455.538
3026 0 88.7049 12.8516 1140 100.792 873.343 454.502
3027 1 52.3502 9.03531 473 102.973 874.127 470.07
3028 0 53.2675 9.21762 491 108.016 874.01 469.464
3029 0 53.3031 9.36156 499 105.94 875 469.391
3030 0 56.2625 9.75783 549 103.009 874.65 467.517
3031 0 57.2789 10.7893 618 106.269 874.489 467.702
3032 0 59.365 11.2693 669 107.686 875.126 466.758
3033 0 60.3716 11.7439 709 102.197 874.932 465.368
3034 0 61.5144 10.8267 666 107.482 874.781 464.251
3035 0 63.4121 11.7328 744 99.9382 874.852 463.372
3036 0 66.475 11.3125 752 105.4 875.297 461.48
3037 0 66.4126 11.2328 746 103.756 875.19 460.524
3038 0 69.5165 11.3067 786 105.607 875.042 459.127
3039 0 69.4488 11.9944 833 101.199 874.969 457.882
3040 0 74.5273 12.1029 902 101.626 875.328 457.152
3041 0 75.4508 11.9415 901 101.366 876.203 454.691
3042 0 78.4449 11.9192 935 106.666 875.942 454.703
3043 0 81.4649 12.2384 997 101.785 875.974 453.231
3044 0 81.437 11.8988 969 106.93 876.454 451.227
3045 0 85.4197 12.0932 1033 105.216 875.738 450.302
3046 0 88.3482 12.1451 1073 101.628 875.865 449.211
3047 0 90.2806 12.2507 1106 103.153 875.737 447.42
3048 0 93.2507 12.1393 1132 104.559 875.558 445.619
3049 0 98.2377 12.7344 1251 110.329 874.929 445.549
3050 0 99.5512 13.36 1330 110.423 875.003 444.924
3051 0 104.354 13.4542 1404 111.223 874.53 443.011
3052 0 108.385 13.2491 1436 100.263 875.18 440.9
3053 0 110.362 13.2383 1461 93.5702 875.356 439.303
3054 0 112.271 12.4521 1398 89.2861 875.109 435.954
3055 0 115.333 12.5636 1449 85.7364 875.879 433.024
3056 0 119.249 12.7129 1516 93.6266 875.541 431.321
3057 1 65.2626 8.61136 562 81.0979 875.742 456.507
3058 0 73.2835 11.6807 856 63.1414 875.325 456.888
3059 0 76.2808 12.0214 917 63.5725 875.466 455.806
3060 0 78.3377 12.127 950 62.1484 875.33 455.418
3061 0 79.3489 12.3253 978 62.5378 875.424 452.125
3062 0 79.2863 11.5405 915 66.624 875.009 449.749
3063 0 149.68 12.5801 1883 70.2528 874.724 414.717
3064 0 147.326 10.7109 1578 71.3276 874.505 416.101
3065 0 142.456 9.65208 1375 69.024 874.409 413.601
3066 0 140.357 9.6967 1361 71.3872 874.803 413
3067 1 82.3362 9.01183 742 72.1968 874.371 441.721
3068 0 96.2773 12.7341 1226 64.5424 873.785 443.325
3069 0 103.248 11.0704 1143 62.0892 874.068 442.339
3070 0 104.278 14.2887 1490 59.4027 874.868 440.909
3071 0 104.218 14.5081 1512 55.9372 874.48 440.241
3072 0 105.187 13.7565 1447 57.1216 874.24 440.099
3073 0 111.341 15.3761 1712 52.6519 874.589 435.097
3074 0 111.264 13.5713 1510 55.8768 874.373 433.309
3075 0 116.196 13.5461 1574 59.3456 874.159 431.612
3076 0 122.284 12.9861 1588 61.9011 873.883 429.971
3077 0 130.293 14.1451 1843 129.642 874.142 429.856
3078 0 133.216 14.0824 1876 138.343 873.786 428.696
3079 0 139.195 14.0666 1958 128.625 873.39 426.195
3080 1 79.1873 11.9211 944 126.82 873.348 456.76
3081 0 82.1696 12.462 1024 126.426 874.787 457.158
3082 0 85.0997 12.4442 1059 130.04 874.043 454.189
3083 0 88.1465 12.2296 1078 128.942 874.308 453.804
3084 0 91.1216 12.5217 1141 131.755 874.961 452.423
3085 0 93.1608 12.5697 1171 130.172 874.496 449.688
3086 0 95.0611 12.7813 1215 126.821 873.644 448.657
3087 0 99.132 12.5086 1240 129.91 873.448 446.127
3088 0 103.111 12.5399 1293 131.582 873.529 445.148
3089 0 104.109 12.5349 1305 125.809 873.244 444.234
3090 0 106.255 13.1005 1392 129.815 872.672 442.648
3091 0 111.277 12.4105 1381 134.817 872.308 441.568
3092 0 114.196 12.7149 1452 133.289 872.336 441.728
3093 0 118.212 12.6467 1495 126.202 871.648 439.672
3094 1 69.1548 11.3224 783 114.462 871.925 468.28
3095 0 71.1693 11.9293 849 120.282 871.993 467.404
3096 0 70.1167 12.4792 875 120.711 872.68 465.889
3097 0 73.0522 12.3063 899 122.78 872.772 465.853
3098 0 76.2067 12.4661 950 120.652 872.687 464.102
3099 0 79.2124 12.1067 959 121.676 872.858 464.502
3100 0 81.1304 12.2272 992 126.229 873.279 463.21
3101 0 81.1372 12.485 1013 123.719 872.719 462.527
3102 0 84.1938 12.6138 1062 127.687 872.473 461.635
3103 0 86.1863 12.8675 1109 131.681 872.977 459.445
3104 0 88.2625 13.1426 1160 126.761 872.139 458.488
3105 0 89.3377 12.8725 1150 126.33 872.462 457.817
3106 0 92.579 13.286 1230 120.661 872.995 456.238
3107 0 96.4483 13.0018 1254 127.553 872.443 455.496
3108 0 99.6187 12.8691 1282 135.151 872.731 453.823
3109 0 99.4844 13.0674 1300 138.53 873.562 452.493
3110 0 102.631 13.0272 1337 138.224 873.154 450.512
3111 0 105.498 13.4031 1414 138.687 872.995 449.909
3112 0 108.472 13.3214 1445 144.387 872.7 447.944
3113 0 112.436 13.1541 1479 139.231 872.668 446.336
3114 0 114.374 13.3248 1524 142.282 872.379 444.621
3115 0 118.316 13.6499 1615 142.398 872.414 442.158
3116 0 122.399 13.1456 1609 133.713 873.208 439.668
3117 0 125.384 13.367 1676 133.313 872.764 437.819
3118 0 132.355 13.5922 1799 133.508 873.974 434.251
3119 0 135.258 13.404 1813 129.754 874.432 432.964
3120 1 79.2536 11.5074 912 128.493 872.832 463.566
3121 0 80.033 12.2324 979 123.33 872.536 461.473
3122 0 84.0602 12.384 1041 121.345 872.684 459.397
3123 0 85.131 12.6276 1075 121.187 874.257 458.744
3124 0 90.27 12.5734 1135 123.426 874.356 456.892
3125 0 93.1829 13.0067 1212 122.453 874.196 454.639
3126 0 96.129 13.0138 1251 118.82 874.161 453.582
3127 0 97.3113 12.9173 1257 122.259 873.877 452.193
3128 0 102.164 13.2238 1351 123.624 873.759 450.511
3129 0 105.181 13.2628 1395 121.574 873.715 449.607
3130 0 106.353 13.3423 1419 133.19 873.971 447.214
3131 0 109.383 13.7864 1508 116.464 874.576 445.091
3132 0 115.516 13.5653 1567 111.63 875.099 444.14
3133 0 118.501 13.5948 1611 118.019 874.494 441.95
3134 0 122.31 13.7029 1676 113.856 874.747 441.017
3135 0 125.373 14.1418 1773 118.173 875.291 438.976
3136 0 127.39 14.02 1786 118.896 875.369 436.707
3137 0 131.337 14.162 1860 109.886 875.788 435.108
3138 0 134.335 13.9651 1876 115.783 876.141 432.872
3139 0 139.239 13.7749 1918 113.424 876.478 431.861
3140 0 144.324 13.6014 1963 110.727 876.473 428.573
3141 0 148.531 13.4585 1999 117.655 876.563 426.652
3142 1 82.4372 13.7195 1131 111.02 876.021 457.654
3143 0 85.2552 13.8291 1179 113.506 876.561 456.462
3144 0 87.296 14.3306 1251 113.062 876.685 454.44
3145 0 90.4044 14.1254 1277 108.601 876.204 452.076
3146 0 95.4149 14.1487 1350 108.092 876.35 450.625
3147 0 96.2949 14.2791 1375 107.257 875.86 448.75
3148 0 101.374 14.1753 1437 108.868 875.612 447.267
3149 0 104.309 14.1311 1474 111.724 875.208 445.712
3150 0 108.257 13.9852 1514 111.968 875.554 444.511
3151 0 110.178 14.3405 1580 109.058 875.119 442.252
3152 0 113.333 14.1707 1606 100.276 875.174 441.742
3153 0 118.412 14.1709 1678 118.775 875.34 438.657
3154 0 120.283 14.3745 1729 120.573 874.822 436.425
3155 0 123.338 14.8211 1828 111.126 875.029 434.552
3156 0 127.37 14.6816 1870 111.054 875.195 432.747
3157 0 134.262 14.4419 1939 118.142 874.955 430.29
3158 0 139.397 14.6129 2037 115.083 874.835 427.682
3159 0 145.401 14.5529 2116 116.893 875.114 424.943
3160 0 151.374 14.0645 2129 112.037 874.441 422.058
3161 0 155.381 14.5513 2261 115.508 875.1 420.839
3162 1 87.2305 13.1147 1144 111.897 874.174 455.568
3163 0 89.1785 13.8711 1237 105.586 873.539 454.262
3164 0 93.2381 13.2242 1233 103.454 874.094 453.148
3165 0 94.1659 13.816 1301 101.772 874.165 451.779
3166 0 98.2725 13.544 1331 104.044 874.366 450.073
3167 0 102.331 13.7006 1402 105.397 874.073 447.912
3168 0 104.107 13.7839 1435 112.084 873.937 446.913
3169 0 109.348 13.6627 1494 109.059 874.584 446.046
3170 0 112.428 13.3685 1503 109.265 874.747 444.782
3171 0 115.451 14.0146 1618 107.423 874.815 442.218
3172 0 120.323 14.0456 1690 108.467 874.204 441.276
3173 0 120.323 13.7962 1660 111.838 874.201 438.311
3174 0 124.483 13.9537 1737 105.963 874.508 436.841
3175 0 130.305 13.7754 1795 106.446 874.905 434.241
3176 1 72.3296 13.0375 943 116.199 873.753 462.013
3177 0 77.1651 13.6202 1051 112.034 873.869 459.426
3178 0 80.2063 13.777 1105 110.227 874.004 458.59
3179 0 81.1457 14.0611 1141 105.753 874.535 459.043
3180 0 84.2938 14.1173 1190 102.176 873.86 458.018
3181 0 87.303 13.9629 1219 109.259 874.313 457.126
3182 0 89.3133 14.1524 1264 120.185 874.316 455.329
3183 0 92.3588 14.0755 1300 116.513 874.09 453.852
3184 0 96.2735 14.2095 1368 116.8 874.133 452.603
3185 0 98.246 14.5858 1433 115.164 873.597 450.699
3186 0 101.312 14.4207 1461 118.55 873.725 450.783
3187 0 105.436 14.8241 1563 110.608 873.613 447.406
3188 0 108.395 14.8532 1610 113.85 873.446 446.198
3189 0 111.355 14.566 1622 114.73 873.601 445.468
3190 0 111.355 14.566 1622 175.109 874.601 445.468
3191 0 118.441 14.674 1738 113.67 873.638 442.792
3192 0 121.475 14.7273 1789 108.661 873.596 440.586
3193 0 124.3 14.8672 1848 112.427 873.524 439.356
3194 0 127.379 14.8612 1893 114.231 873.689 437.384
3195 0 132.343 15.2256 2015 112.92 873.902 434.545
3196 0 137.348 14.8746 2043 114.13 874.043 431.663
3197 0 142.499 15.4176 2197 108.51 873.952 428.275
3198 0 145.423 14.8532 2160 106.599 873.102 427.689
3199 0 151.551 15.0048 2274 103.71 872.91 425.986
3200 1 82.3662 14.1563 1166 106.165 872.582 457.571
3201 0 84.2121 14.8197 1248 108.675 872.603 457.288
3202 0 88.4415 14.6198 1293 115.3 872.913 455.724
3203 0 93.3634 14.9095 1392 109.471 872.491 453.93
3204 0 95.3168 14.5095 1383 120.318 872.798 453.26
3205 0 97.3627 14.903 1451 124.819 872.838 452.005
3206 0 101.281 14.9584 1515 123.497 872.815 449.657
3207 0 104.458 14.7619 1542 119.372 872.988 449.464
3208 0 108.393 14.7888 1603 121.114 873.616 447.671
3209 0 110.523 14.7933 1635 119.617 873.719 446.303
3210 0 112.5 15.1734 1707 122.026 873.825 444.149
3211 0 117.385 14.7294 1729 118.123 873.668 442.236
3212 0 121.387 15.5288 1885 115.281 873.416 438.683
3213 0 125.429 15.1879 1905 115.906 873.523 437.152
3214 0 131.556 14.7541 1941 116.34 873.667 435.324
3215 0 135.437 14.863 2013 114.285 873.808 432.093
3216 0 141.504 14.8052 2095 110.514 872.78 429.62
3217 1 76.2684 13.4394 1025 111.919 872.163 458.921
3218 0 81.3978 13.4402 1094 112.203 872.05 457.96
3219 0 84.4429 14.1397 1194 109.708 873.043 455.76
3220 0 86.3142 14.3777 1241 105.849 872.796 455.701
3221 0 89.4246 14.1907 1269 112.91 872.76 454.608
3222 0 91.4239 14.6898 1343 114.755 872.748 454.156
3223 0 97.5095 14.5627 1420 108.24 872.698 452.689
3224 0 99.5041 14.5924 1452 112.795 872.645 452.068
3225 0 101.466 14.6551 1487 109.933 872.801 449.864
3226 0 104.304 14.7741 1541 114.419 873.168 447.825
3227 0 110.343 14.1196 1558 109.945 872.983 445.088
3228 0 113.719 14.5447 1654 107.62 873.573 444.554
3229 0 115.447 14.5262 1677 106.64 873.842 442.979
3230 0 118.277 14.7028 1739 107.535 873.775 440.788
3231 0 123.619 14.8197 1832 112.803 873.945 438.551
3232 0 127.641 14.9012 1902 110.027 873.713 436.605
3233 0 130.391 15.0931 1968 107.239 873.948 434.35
3234 0 136.562 14.7259 2011 110.58 873.879 432.275
3235 0 142.368 14.7575 2101 112.232 874.04 429.449
3236 0 147.366 14.6371 2157 109.543 874.246 427.084
3237 0 153.384 14.669 2250 110.895 874.33 423.379
3238 0 157.451 14.7093 2316 100.496 874.729 422.229
3239 0 162.376 14.7743 2399 113.485 874.552 419.362
3240 0 168.656 14.7757 2492 112.36 875.295 416.822
3241 0 174.44 14.5724 2542 115.756 875.134 413.024
3242 0 179.459 15.1121 2712 123.462 875.575 409.86
3243 1 100.468 13.5467 1361 118.06 875.53 448.99
3244 0 105.44 13.714 1446 115.973 876.216 446.79
3245 0 106.408 13.6643 1454 109.719 876.382 446.236
3246 0 110.437 14.0443 1551 107.943 876.155 443.887
3247 0 115.483 14.0194 1619 110.061 876.468 440.624
3248 0 118.279 14.1614 1675 113.324 876.124 439.681
3249 0 122.425 14.0576 1721 111.239 875.866 436.416
3250 0 126.287 14.1107 1782 111.334 876.281 434.247
3251 0 131.456 13.883 1825 116.061 876.102 431.65
3252 0 134.457 14.1384 1901 113.602 876.828 430.199
3253 0 140.52 14.1546 1989 109.73 876.646 428.381
3254 0 145.863 14.2942 2085 110.946 876.901 425.155
3255 0 150.48 14.1547 2130 112.868 876.768 422.443
3256 0 155.526 14.3127 2226 119.051 876.61 420.093
3257 0 161.469 14.2628 2303 116.567 876.447 417.168
3258 1 89.3151 12.5623 1122 111.735 875.565 450.734
3259 0 93.5258 13.3439 1248 115.653 875.659 450.794
3260 0 96.6641 13.8728 1341 113.087 875.681 448.33
3261 0 100.489 13.8622 1393 118.833 875.894 446.307
3262 0 102.439 13.8034 1414 120.023 875.257 445.367
3263 0 105.431 13.6771 1442 114.917 875.497 444.681
3264 0 107.353 14.0844 1512 120.095 875.126 442.989
3265 0 110.52 13.907 1537 129.691 875.33 441.757
3266 0 115.392 13.8831 1602 130.579 875.655 439.509
3267 0 117.392 13.9788 1641 129.498 875.852 437.815
3268 0 122.809 14.0706 1728 129.611 875.477 435.318
3269 0 125.591 13.95 1752 135.317 875.732 433.897
3270 0 129.452 14.1751 1835 136.998 875.658 433.188
3271 0 134.463 14.2716 1919 134.487 875.68 430.482
3272 0 138.584 14.244 1974 130.642 875.183 427.297
3273 0 144.691 14.258 2063 128.847 874.851 425.108
3274 0 149.527 14.178 2120 135.114 875.3 423.432
3275 0 154.567 14.0651 2174 133.255 874.832 420.331
3276 1 87.5021 13.154 1151 127.813 875.173 452.428
3277 0 90.5644 13.8796 1257 129.73 874.979 452.036
3278 0 91.5419 14.1684 1297 120.024 874.874 450.302
3279 0 94.4978 13.8416 1308 121.102 874.597 448.081
3280 0 99.7076 13.5897 1355 121.142 874.64 446.587
3281 0 102.532 13.9079 1426 119.821 875.243 445.568
3282 0 106.618 14.1158 1505 131.597 875.214 442.965
3283 0 109.567 14.4386 1582 119.36 875.134 442.002
3284 0 110.518 13.9886 1546 123.763 874.877 440.231
3285 0 113.691 14.0205 1594 128.705 874.804 439.434
3286 0 118.614 14.0034 1661 131.983 874.669 438.19
3287 0 120.721 14.2892 1725 131.606 874.281 437.388
3288 0 124.648 14.2482 1776 129.014 874.126 435.443
3289 0 129.498 14.2087 1840 131.718 874.368 433.478
3290 0 133.63 14.0238 1874 138.986 873.682 430.906
3291 0 139.851 14.3582 2008 133.577 873.763 428.167
3292 0 144.506 14.0479 2030 122.405 873.862 426.521
3293 1 84.5868 12.7679 1080 123.109 873.571 456.843
3294 0 85.7232 13.7536 1179 124.807 873.758 455.341
3295 0 89.8098 13.5509 1217 122.06 873.429 452.706
3296 0 93.6398 13.4238 1257 118.949 873.256 451.879
3297 0 97.677 13.647 1333 120.125 873.563 449.561
3298 0 99.5786 13.7881 1373 117.169 873.42 448.006
3299 0 103.495 13.6045 1408 114.17 873.376 447.625
3300 0 106.479 14.2752 1520 110.264 873.29 445.524
3301 0 109.561 13.8918 1522 115.808 873.013 443.596
3302 0 112.676 14.1201 1591 117.236 873.529 442.27
3303 0 115.486 14.3567 1658 120.297 873.53 440.368
3304 0 119.459 14.1053 1685 122.227 873.57 440.511
3305 0 122.852 14.1797 1742 116.975 873.551 437.974
3306 0 126.482 14.2471 1802 119.664 873.718 435.723
3307 0 130.559 14.2464 1860 117.299 872.882 433.217
3308 0 136.67 14.4874 1980 114.046 872.959 429.873
3309 0 141.851 14.198 2014 107.613 872.745 428.033
3310 0 146.73 14.0599 2063 112.484 872.865 425.496
3311 0 151.613 14.2073 2154 109.708 873.403 423.623
3312 1 86.556 12.1078 1048 107.464 872.929 456.719
3313 0 88.7787 12.0975 1074 110.757 872.531 456.223
3314 0 91.5476 12.671 1160 108.872 873.002 455.674
3315 0 94.4971 13.4607 1272 106.11 872.961 453.852
3316 0 98.634 12.6427 1247 107.824 872.958 452.246
3317 0 101.702 13.3724 1360 108.772 872.938 450.509
3318 0 104.614 12.9142 1351 106.903 872.927 449.432
3319 0 107.569 13.2101 1421 106.873 873.126 447.034
3320 0 111.47 13.2682 1479 107.26 872.912 444.991
3321 0 112.497 13.1471 1479 102.551 872.857 444.092
3322 0 117.407 12.9464 1520 103.745 872.644 441.39
3323 0 120.362 13.3846 1611 102.647 873.106 440.784
3324 0 124.451 12.9368 1610 105.576 873.303 438.209
3325 0 128.449 13.375 1718 104.306 873.353 437.31
3326 0 133.525 13.0538 1743 104.364 873.096 435.349
3327 0 135.74 13.3638 1814 103.46 873.015 432.496
3328 0 140.559 13.489 1896 102.518 873.331 429.652
3329 0 145.393 13.3638 1943 101.949 873.497 427.215
3330 0 150.383 13.0001 1955 107.076 873.848 426.088
3331 0 155.477 13.5261 2103 107.969 873.755 422.992
3332 0 161.408 13.4318 2168 108.03 873.456 419.492
3333 0 165.493 13.6864 2265 102.889 873.705 415.944
3334 0 170.473 13.2983 2267 101.999 873.412 413.998
3335 0 174.314 13.6764 2384 113.284 873.674 412.654
3336 0 179.5 13.8552 2487 104.968 873.472 409.486
3337 0 185.338 13.9799 2591 112.15 873.852 407.741
3338 0 191.516 13.9518 2672 111.643 873.804 404.598
3339 0 198.519 14.0641 2792 107.028 873.976 401.084
3340 0 203.492 14.2217 2894 102.093 874.348 399.361
3341 0 209.805 14.1084 2960 111.497 874.34 395.9
3342 0 214.761 14.2763 3066 110.872 873.792 392.472
3343 0 223.713 13.9643 3124 111.593 874.061 388.708
3344 1 53.2152 10.4106 554 92.9278 874.966 472.731
3345 0 53.2437 11.7385 625 93.6464 874.192 472.512
3346 0 56.0923 11.3384 636 97.9827 875.138 473.91
3347 0 59.1734 11.3565 672 93.183 875.287 472.64
3348 0 59.0833 11.4415 676 88.5725 875.303 470.817
3349 0 60.1176 11.1947 673 88.4666 874.684 471.101
3350 0 61.1748 11.1647 683 90.981 874.905 469.356
3351 0 63.1648 11.3196 715 90.9818 875.071 468.666
3352 0 65.07 11.6336 757 89.2959 874.436 467.102
3353 0 67.1349 11.4843 771 87.7536 874.363 466.785
3354 0 69.1272 11.8767 821 87.659 874.445 466.055
3355 0 71.15 12.1574 865 88.1827 874.646 464.71
3356 0 72.2489 11.5434 834 85.2974 875.457 462.987
3357 0 73.2597 12.5854 922 92.4707 875.6 462.712
3358 0 78.342 12.1774 954 89.0294 875.493 460.732
3359 0 79.4908 12.1649 967 95.8656 874.717 458.198
3360 0 80.4592 12.7145 1023 99.1926 875.262 456.324
3361 0 82.4892 12.3774 1021 97.8981 874.686 455.268
3362 0 84.3738 12.5868 1062 101.883 875.424 454.299
3363 0 84.4267 12.9817 1096 100.075 875.981 452.504
3364 0 91.504 14.6988 1345 89.5584 875.317 446.848
3365 0 99.4914 16.4135 1633 86.5297 875.465 443.019
3366 0 101.444 16.413 1665 81.4739 875.832 441.635
3367 0 105.33 16.9942 1790 78.862 875.87 440.38
3368 0 106.356 16.661 1772 78.93 875.875 437.77
3369 0 105.486 16.8364 1776 82.6329 875.293 438.846
3370 0 108.449 16.2565 1763 85.1532 874.875 437.986
3371 0 109.353 15.1801 1660 87.1578 875.015 438.084
3372 0 110.416 13.3586 1475 93.198 874.915 440.99
3373 0 113.556 13.7641 1563 88.7594 875.396 439.001
3374 0 117.448 13.6656 1605 90.372 874.444 436.132
3375 0 119.447 13.7467 1642 90.3313 874.894 435.758
3376 0 123.324 13.4037 1653 87.3745 874.976 435.256
3377 0 127.512 13.8967 1772 84.522 874.754 432.756
3378 1 72.1482 11.6981 844 82.1019 875.414 460.754
3379 0 73.1941 12.1868 892 84.5998 875.342 459.759
3380 0 76.251 12.0785 921 85.4311 875.901 458.239
3381 0 79.1566 12.3047 974 83.1386 875.179 456.147
3382 0 82.2274 12.3073 1012 91.8192 875.259 455.783
3383 0 84.2014 12.5057 1053 92.2232 875.629 455.395
3384 0 86.1507 12.8264 1105 92.4462 876.327 454.054
3385 0 88.0762 13.0342 1148 95.6969 876.289 451.921
3386 0 91.1925 13.2028 1204 87.0839 876.498 452.006
3387 0 94.2502 13.3262 1256 88.3742 875.955 451.276
3388 0 96.2465 13.3823 1288 91.271 875.67 449.573
3389 0 99.2424 13.5325 1343 88.9553 876.155 447.727
3390 0 102.195 13.4743 1377 90.9441 875.575 446.788
3391 0 105.237 13.2082 1390 91.4489 875.716 446.214
3392 0 108.116 13.5225 1462 88.4713 876.012 443.782
3393 0 111.202 13.7227 1526 87.3906 876.106 443.248
3394 0 115.252 13.4835 1554 86.6776 876.133 441.795
3395 0 116.236 13.7565 1599 86 875.457 440.502
3396 0 119.161 14.8455 1769 81.225 875.286 439.319
3397 0 123.292 14.1291 1742 95.194 875.638 437.631
3398 0 127.378 14.0448 1789 93.9536 876.044 436.334
3399 0 132.379 13.7408 1819 96.956 875.117 434.049
3400 0 134.279 14.7007 1974 100.583 874.734 431.526
3401 0 141.432 14.1552 2002 100.326 874.244 430.213
3402 0 144.454 14.1568 2045 103.615 874.491 427.687
3403 0 150.288 13.9332 2094 97.1366 874.86 425.988
3404 0 155.543 13.9125 2164 103.228 874.317 421.843
3405 0 159.372 13.9547 2224 106.25 874.348 419.108
3406 0 167.564 14.4422 2420 102.973 874.162 416.181
3407 1 99.228 12.3554 1226 105.03 873.781 452.7
3408 0 103.227 12.1867 1258 103.029 873.706 451.435
3409 0 106.384 12.4643 1326 106.775 873.496 450.208
3410 0 109.211 12.5079 1366 100.984 873.09 449.299
3411 0 112.239 12.8297 1440 96.0799 873.354 447.594
3412 0 115.277 12.9254 1490 99.2812 872.931 445.623
3413 0 117.513 12.7816 1502 98.9281 872.595 444.646
3414 0 123.501 12.842 1586 102.062 872.614 442.529
3415 0 127.389 12.6227 1608 102.195 872.368 440.968
3416 0 129.245 13.2152 1708 102.074 872.675 439.01
3417 0 135.456 13.3401 1807 98.301 872.299 435.415
3418 0 138.294 13.2616 1834 97.0305 872.403 433.593
3419 0 144.369 13.0083 1878 93.2625 872.566 431.415
3420 1 79.2216 12.1053 959 94.1105 871.168 463.883
3421 0 81.1173 12.2785 996 93.8022 871.775 463.607
3422 0 82.4325 13.3079 1097 93.7548 872.381 461.613
3423 0 85.4199 13.1 1119 96.3753 873.167 460.129
3424 0 86.401 13.2174 1142 97.8354 872.785 458.853
3425 0 88.4245 13.356 1181 99.8865 872.691 457.777
3426 0 93.6681 13.2276 1239 93.2316 872.852 455.17
3427 0 96.7207 13.5338 1309 96.7639 872.816 453.384
3428 0 97.8205 13.259 1297 99.0154 872.546 451.641
3429 0 101.814 13.5345 1378 104.081 872.04 450.063
3430 0 105.711 13.8869 1468 100.825 872.057 448.053
3431 0 106.603 13.9771 1490 98.2651 872.154 447.248
3432 0 110.83 13.9944 1551 95.8839 872.181 445.219
3433 0 113.689 13.8359 1573 100.812 872.034 444.395
3434 0 115.564 14.3384 1657 101.342 872.234 443.452
3435 0 118.799 14.4614 1718 99.3108 872.386 441.038
3436 0 123.848 14.211 1760 95.846 872.605 438.865
3437 0 127.803 14.3893 1839 98.2762 872.565 436.939
3438 0 130.704 14.7279 1925 99.4686 872.343 436.261
3439 0 133.624 14.6156 1953 101.905 872.444 435.6
3440 0 137.775 14.9011 2053 100.097 872.169 432.249
3441 0 140.952 14.7426 2078 99.41 871.609 432.775
3442 0 146.416 14.691 2151 101.873 871.738 430.493
3443 0 152.011 14.8871 2263 95.8895 871.824 429.818
3444 0 154.782 14.711 2277 99.3338 872.207 427.498
3445 0 160.832 14.8913 2395 102.04 872.17 425.186
3446 1 94.7599 13.3706 1267 108.119 871.234 457.94
3447 0 96.6843 13.8492 1339 103.735 871.902 457.648
3448 0 100.567 14.1597 1424 111.074 872.601 456.462
3449 0 104.623 14.5665 1524 107.804 872.51 454.138
3450 0 107.726 14.1006 1519 106.722 872.334 453.146
3451 0 108.608 14.7871 1606 108.9 872.42 451.24
3452 0 112.892 14.784 1669 102.679 872.212 448.63
3453 0 115.501 14.7878 1708 100.583 872.259 447.331
3454 0 119.533 14.5232 1736 105.544 872.448 446.505
3455 0 122.823 14.6227 1796 103.404 872.408 445.384
3456 0 125.992 14.747 1858 105.008 872.919 443.99
3457 0 128.792 14.5583 1875 104.122 872.901 442.425
3458 0 134.689 14.3887 1938 98.1816 872.692 440.592
3459 0 137.783 14.922 2056 106.711 872.62 438.651
3460 0 143.957 14.7406 2122 109.733 872.498 434.567
3461 0 150.039 14.7228 2209 107.017 872.381 433.338
3462 1 81.7436 14.1296 1155 110.636 872.689 465.609
3463 0 83.4399 14.7771 1233 108.663 872.817 463.403
3464 0 88.9119 14.2726 1269 111.065 873.183 462.182
3465 0 91.565 14.1211 1293 118.736 872.89 460.435
3466 0 91.4976 14.4703 1324 116.314 872.807 458.838
3467 0 96.5612 14.7678 1426 114.662 872.896 456.184
3468 0 98.6504 14.9923 1479 118.705 872.254 454.909
3469 0 101.515 14.5594 1478 117.7 872.834 452.951
3470 0 105.46 14.7354 1554 116.936 872.925 451.665
3471 0 108.873 14.2001 1546 117.301 872.372 450.84
3472 0 113.789 14.8169 1686 115.46 871.877 448.365
3473 0 116.6 14.8199 1728 115.389 871.971 447.252
3474 0 121.622 14.3312 1743 114.675 872.259 445.17
3475 0 123.485 14.5443 1796 108.281 872.247 443.662
3476 0 128.791 14.6439 1886 113.3 871.765 440.652
3477 0 130.674 14.6165 1910 108.048 872.104 440.061
3478 0 137.562 14.6189 2011 130.837 872.515 436.317
3479 0 141.584 14.6062 2068 131.044 872.516 433.291
3480 0 147.605 14.4778 2137 137.759 873.008 430.474
3481 0 151.575 15.0552 2282 133.039 872.448 428.131
3482 1 81.4256 13.7058 1116 132.966 872.573 461.559
3483 0 85.4063 14.2612 1218 132.456 872.845 459.92
3484 0 87.3636 14.4568 1263 136.477 873.281 459.272
3485 0 92.4213 14.3149 1323 140.848 873.299 457.673
3486 0 95.3597 14.2723 1361 143.306 873.469 455.718
3487 0 97.3162 14.53 1414 139.621 873.813 455.132
3488 0 100.354 14.3891 1444 142.925 873.555 451.913
3489 0 103.237 14.52 1499 144.779 873.94 450.524
3490 0 108.217 14.2307 1540 140.849 872.914 448.224
3491 0 110.269 14.0475 1549 143.593 873.455 446.691
3492 0 114.349 14.2196 1626 148.83 873.464 445.28
3493 0 120.228 14.6721 1764 137.133 874.255 443.892
3494 1 67.1572 13.1185 881 147.522 874.636 467.271
3495 0 71.3404 12.8258 915 142.756 874.307 464.613
3496 0 72.1301 13.9054 1003 117.316 874.754 464.283
3497 0 75.1539 13.5455 1018 136.013 874.826 463.648
3498 0 78.1594 13.6132 1064 148.998 874.974 461.916
3499 0 80.1214 13.9538 1118 145.771 875.017 460.146
3500 0 82.107 13.8478 1137 134.87 875.443 458.494
3501 0 84.1155 13.6598 1149 151.026 875.182 456.832
3502 0 85.1901 14.0392 1196 151.768 875.067 456.556
3503 0 90.1767 13.9393 1257 149.071 875.436 455.807
3504 0 91.1875 14.5634 1328 139.794 875.719 453.668
3505 0 94.1528 14.0516 1323 143.647 876.039 451.794
3506 0 97.1941 14.1161 1372 141.738 874.856 449.2
3507 0 101.231 13.978 1415 142.815 874.934 449.627
3508 0 103.253 14.3725 1484 139.911 874.674 448.541
3509 0 105.271 14.363 1512 142.26 874.905 446.142
3510 0 110.346 14.3277 1581 137.09 875.147 444.808
3511 0 112.361 14.7738 1660 125.354 875.132 443.023
3512 0 118.399 14.5778 1726 121.232 874.627 440.346
3513 0 122.319 14.5276 1777 122.177 875.058 439.046
3514 0 125.25 14.7625 1849 115.019 875.158 436.866
3515 0 129.476 14.6746 1900 115.668 875.776 434.752
3516 0 132.32 14.9184 1974 113.169 874.658 431.944
3517 0 138.408 14.9269 2066 133.943 875.129 430.647
3518 0 142.579 14.7427 2102 130.013 874.695 426.86
3519 0 146.271 14.9585 2188 129.761 874.977 425.221
3520 0 151.253 14.8228 2242 124.874 874.914 422.745
3521 0 157.411 14.9227 2349 123.11 874.577 420.98
3522 0 161.372 15.2071 2454 120.521 875.198 418.611
3523 0 166.387 15.0312 2501 131.056 875.31 417.244
3524 0 171.184 14.8495 2542 129.131 875.254 413.42
3525 0 176.438 14.9968 2646 127.687 874.992 412.139
3526 0 181.281 15.2029 2756 129.479 875.236 408.355
3527 0 188.329 14.7932 2786 128.273 875.179 404.274
3528 0 195.294 15.1669 2962 136.546 875.349 401.49
3529 0 199.495 15.2335 3039 148.813 875.178 399.018
3530 0 205.261 15.3366 3148 143.004 875.617 396.618
3531 1 118.135 13.9586 1649 148.077 874.854 437.828
3532 0 121.335 13.6976 1662 150.602 875.59 435.503
3533 0 126.126 14.0256 1769 152.025 875.33 434.015
3534 0 129.169 13.9043 1796 148.295 874.592 430.976
3535 0 135.255 13.7296 1857 148.48 874.239 429.041
3536 0 140.212 13.8433 1941 146.122 874.183 426.219
3537 1 83.1212 11.6697 970 148.699 873.978 456.702
3538 0 87.1193 11.9147 1038 144.294 873.729 455.755
3539 0 91.3727 12.2137 1116 134.634 873.178 453.884
3540 0 94.3021 12.7993 1207 143.998 873.639 453.279
3541 0 97.1799 12.3997 1205 139.676 873.672 450.96
3542 0 99.2781 12.6413 1255 122.07 873.696 449.687
3543 0 102.223 12.9032 1319 123.219 873.405 448.163
3544 0 105.267 12.9671 1365 132.574 873.47 446.799
3545 0 109.266 13.1057 1432 128.316 873.492 444.432
3546 0 111.249 12.9799 1444 127.098 872.694 441.81
3547 0 115.338 12.7452 1470 128.062 873.202 441.503
3548 0 117.154 13.0171 1525 131.197 872.923 439.071
3549 0 121.386 12.9586 1573 121.364 873.478 438.825
3550 0 125.48 12.9503 1625 123.922 873.266 437.042
3551 0 128.192 13.2068 1693 133.729 873.416 434.763
3552 0 133.236 12.8719 1715 137.525 873.398 432.969
3553 0 136.363 12.9947 1772 139.553 872.446 430.606
3554 0 139.512 13.4397 1875 135.613 872.618 428.14
3555 0 143.361 13.03 1868 129.437 872.559 425.784
3556 0 147.356 13.3825 1972 133.416 872.696 424.209
3557 0 154.537 13.136 2030 129.742 872.89 420.941
3558 0 158.426 13.2176 2094 133.596 872.888 418.564
3559 1 91.1796 10.1229 923 123.85 872.303 454.1
3560 0 93.3585 10.2615 958 123 872.397 453.276
3561 0 94.3211 10.8777 1026 125.596 872.2 450.758
3562 0 98.2114 11.0985 1090 121.224 872.472 450.555
3563 0 102.167 11.1484 1139 122.503 872.45 448.29
3564 0 103.354 10.9139 1128 116.62 872.436 448.393
3565 0 108.242 11.1786 1210 124.506 872.588 445.88
3566 0 111.223 11.6074 1291 119.295 872.302 443.362
3567 0 114.351 11.4735 1312 120.499 872.399 441.902
3568 0 118.198 11.4215 1350 125.056 871.927 439.448
3569 0 121.287 11.2872 1369 127.396 872.543 438.63
3570 0 123.22 11.305 1393 130.712 872.317 436.885
3571 0 126.21 11.5363 1456 130.065 872.198 436.703
3572 0 130.395 11.6952 1525 122.701 872.612 432.898
3573 0 136.242 11.6998 1594 115.279 873.065 430.055
3574 0 137.414 12.124 1666 126.267 872.011 429.561
3575 0 137.414 12.124 1666 157.746 871.011 429.561
3576 1 85.072 9.05116 770 115.361 870.917 456.979
3577 0 87.2252 10.5818 923 113.827 872.231 456.024
3578 0 91.1911 10.8783 992 109.092 871.926 454.383
3579 0 92.2914 10.7269 990 113.11 872.337 452.318
3580 0 95.2482 11.2548 1072 107.242 872.488 451.311
3581 0 96.3201 11.3268 1091 111.077 872.739 449.476
3582 0 99.5482 11.5723 1152 108.17 872.67 447.154
3583 0 103.458 11.8309 1224 118.546 872.773 446.546
3584 0 106.592 11.4267 1218 126.335 872.603 443.594
3585 0 109.569 11.6457 1276 121.736 872.88 441.608
3586 0 110.622 11.4805 1270 126.997 873.046 439.661
3587 0 113.603 11.505 1307 110.922 873.115 437.995
3588 0 116.675 11.742 1370 108.391 873.407 435.81
3589 0 118.571 11.9844 1421 114.023 873.338 435.403
3590 0 122.522 12.0142 1472 112.088 873.309 432.461
3591 0 126.509 11.8964 1505 108.183 873.242 431.356
3592 0 128.544 11.8636 1525 112.503 873.317 429.831
3593 0 133.589 12.1792 1627 110.486 874.237 426.661
3594 0 134.518 12.2586 1649 107.501 874.179 426.496
3595 0 140.41 12.4137 1743 104.133 874.508 424.806
3596 0 143.506 12.0274 1726 107.4 874.695 421.116
3597 0 146.448 12.2705 1797 105.456 874.998 420.423
3598 0 151.543 12.7621 1934 117.655 875.28 418.035
3599 0 156.575 12.5116 1959 114.3 874.964 416.005
3600 1 94.4539 9.31672 880 111.961 873.656 448.28
3601 0 97.2423 10.551 1026 103.414 873.872 445.9
3602 0 99.5347 10.6295 1058 105.578 874.027 445.403
3603 0 103.533 11.0979 1149 100.427 874.719 444.627
3604 0 104.314 10.9765 1145 100.44 874.872 443.906
3605 0 108.552 10.9165 1185 101.592 875.23 441.965
3606 0 111.568 11.2577 1256 96.535 876.361 440.02
3607 0 114.526 12.0497 1380 93.9768 876.756 437.586
3608 0 116.514 11.6124 1353 89.1249 876.537 436.983
3609 0 118.644 11.7241 1391 87.8282 876.018 435.792
3610 0 122.378 11.9465 1462 84.9042 876.438 433.596
3611 0 125.407 11.9291 1496 90.7146 876.427 433.743
3612 0 128.401 12.3208 1582 98.8654 876.279 430.664
3613 0 131.463 12.5663 1652 97.0502 875.982 429.23
3614 0 134.528 12.6591 1703 99.6201 876.39 428.157
3615 0 138.317 13.2088 1827 92.0044 876.141 426.599
3616 0 143.361 12.7162 1823 87.8629 876.049 423.323
3617 0 148.377 12.7176 1887 85.9481 876.229 421.324
3618 0 153.328 12.7243 1951 92.0743 875.822 418.802
3619 0 156.324 13.0242 2036 89.6552 876.457 417.475
3620 0 162.426 12.7997 2079 86.429 875.202 413.158
3621 1 98.4396 10.7883 1062 84.5377 874.914 448.011
3622 0 101.392 10.6517 1080 86.9852 875.795 448.256
3623 0 104.398 11.3987 1190 86.8689 875.726 445.432
3624 0 106.343 11.51 1224 86.9085 876.082 444.051
3625 0 109.41 11.8636 1298 93.4114 875.557 443.768
3626 0 115.493 12.1306 1401 91.3012 875.969 440.248
3627 0 116.529 11.9884 1397 94.0644 875.49 437.772
3628 0 121.325 12.5778 1526 89.2982 875.506 436.456
3629 0 124.43 12.063 1501 93.5483 875.489 436.954
3630 0 127.518 12.2414 1561 93.1659 875.296 431.757
3631 0 131.549 12.254 1612 89.562 875.084 431.228
3632 0 133.606 12.5443 1676 95.7238 875.046 429.128
3633 0 137.471 12.4754 1715 90.2134 875.346 427.582
3634 0 140.504 12.4124 1744 86.9799 875.262 424.934
3635 0 146.571 12.8948 1890 87.5677 875.035 421.898
3636 0 151.575 12.9705 1966 91.5931 875.482 420.195
3637 0 153.374 12.8183 1966 92.9196 875.358 418.824
3638 0 159.451 12.5054 1994 92.5045 875.494 418.035
3639 0 163.364 12.4752 2038 93.657 875.316 415.18
3640 0 166.499 12.8469 2139 105.341 874.785 413.234
3641 0 172.439 13.3264 2298 101.969 874.751 409.258
3642 0 172.439 13.3264 2298 154.831 875.751 409.258
3643 0 181.358 12.8034 2322 101.59 875.237 406.537
3644 0 188.344 13.5284 2548 98.2304 875.016 403.193
3645 0 192.457 13.2497 2550 102.016 875.311 400.402
3646 0 198.365 12.9105 2561 101.634 874.585 400.528
3647 0 205.357 13.2452 2720 99.6044 874.563 395.697
3648 0 209.395 13.5533 2838 97.9404 873.943 394.088
3649 0 216.271 13.4461 2908 99.914 874.54 390.159
3650 0 222.355 13.2311 2942 112.284 874.951 388.144
3651 0 228.358 13.6102 3108 115.093 874.965 383.945
3652 0 235.362 13.3752 3148 123.32 875.761 379.705
3653 0 241.67 13.4398 3248 116.331 875.74 376.76
3654 1 59.1555 7.55636 447 101.347 874.045 473.642
3655 0 62.0601 8.2823 514 98.7529 874.078 472.356
3656 0 62.2026 9.11538 567 98.0688 873.487 470.877
3657 0 65.0708 10.1889 663 103.546 872.309 470.679
3658 0 66.0316 10.5253 695 101.688 872.683 469.754
3659 0 66.0952 10.9842 726 100.529 872.643 468.163
3660 0 69.0936 11.593 801 99.8302 871.762 466.091
3661 0 70.1564 10.9897 771 110.14 872.363 466.332
3662 0 73.1027 10.752 786 110.062 872.459 465.786
3663 0 74.0447 11.223 831 109.486 872.392 463.735
3664 0 75.0828 10.8414 814 111.184 872.006 463.452
3665 0 79.1232 11.9308 944 101.716 872.33 460.572
3666 0 79.0778 11.7606 930 98.5366 872.197 460.39
3667 0 81.1491 10.7949 876 98.6244 871.854 461.602
3668 0 85.1143 13.1705 1121 86.4924 871.465 458.054
3669 0 86.0227 11.2412 967 98.7053 871.672 459.055
3670 0 88.0731 11.3883 1003 120.561 872.429 458.599
3671 0 90.0632 12.8243 1155 117.468 871.75 456.055
3672 0 88.1512 11.8546 1045 120.488 873.644 456.839
3673 0 92.0802 11.4683 1056 115.475 872.474 456.513
3674 0 94.0681 11.4598 1078 123.023 871.454 453.455
3675 0 96.1716 11.9474 1149 124.133 871.183 452.538
3676 0 97.2328 12.7426 1239 118.638 873.635 451.743
3677 0 105.101 14.3006 1503 109.66 872.87 447.894
3678 0 105.169 12.7129 1337 116.298 871.909 446.999
3679 0 105.168 11.6099 1221 117.872 871.98 447.12
3680 0 108.233 11.965 1295 121.181 871.93 446.058
3681 1 120.162 15.1213 1817 97.9252 872.239 438.321
3682 0 127.245 15.702 1998 105.321 872.304 436.171
3683 0 126.206 17.3684 2192 95.125 872.633 433.082
3684 0 129.194 16.6493 2151 102.454 872.554 433.468
3685 0 129.213 16.6857 2156 99.199 872.399 431.638
3686 0 126.198 13.5184 1706 117.563 873.295 437.212
3687 0 128.178 13.3486 1711 121.528 873.334 434.925
3688 0 133.445 12.7993 1708 119.004 873.382 431.696
3689 0 135.416 12.8789 1744 124.987 874.075 429.147
3690 0 139.368 13.1164 1828 127.954 873.85 429.411
3691 0 141.469 13.0135 1841 128.192 873.885 428.097
3692 0 145.235 13.3232 1935 130.607 874.067 425.986
3693 0 149.248 13.3402 1991 128.426 873.537 422.203
3694 0 154.375 13.37 2064 129.417 874.135 420.313
3695 1 97.1423 10.6339 1033 127.762 873.927 450.924
3696 0 98.1229 11.7811 1156 130.371 874.973 450.33
3697 0 101.175 11.9002 1204 121.523 875.031 447.556
3698 0 104.162 11.799 1229 125.025 875.142 448.644
3699 0 107.205 11.7345 1258 127.312 875.11 446.163
3700 0 108.216 12.244 1325 122.439 875.266 443.561
3701 0 113.159 12.4781 1412 121.628 875.042 442.854
3702 0 117.164 11.7186 1373 122.945 875.338 441.374
3703 0 119.313 12.463 1487 126.713 875.607 439.079
3704 0 123.422 12.3317 1522 128.076 875.825 436.399
3705 0 125.232 12.3132 1542 127.628 875.934 434.573
3706 0 129.416 12.4482 1611 127.556 876.038 433.354
3707 1 77.2011 9.85738 761 121.026 876.543 458.321
3708 0 79.1273 11.1213 880 119.817 876.605 457.465
3709 0 82.258 11.549 950 115.547 876.939 458.158
3710 0 83.2412 11.3165 942 115.642 876.444 455.605
3711 0 87.3052 11.2823 985 122.097 877.022 455.278
3712 0 88.2442 12.1368 1071 116.619 876.858 455.335
3713 0 89.3635 11.7274 1048 117.804 876.88 452.841
3714 0 92.3082 12.1766 1124 115.75 876.798 451.727
3715 0 95.3467 12.1976 1163 114.499 876.562 451.466
3716 0 97.3127 12.4239 1209 118.151 876.765 449.208
3717 0 101.435 12.3133 1249 116.428 876.745 448.888
3718 0 104.393 12.453 1300 120.755 876.884 447.246
3719 0 106.336 12.4887 1328 123.218 876.589 446.026
3720 0 109.431 12.6381 1383 119.68 876.49 444.732
3721 0 110.397 12.4731 1377 120.813 876.3 443.41
3722 0 115.557 12.8854 1489 119.141 876.347 442.41
3723 0 117.5 13.2936 1562 116.834 876.867 441.864
3724 0 118.538 13.211 1566 117.957 876.633 439.514
3725 0 121.713 12.9485 1576 122.666 876.544 438.645
3726 0 126.529 13.2222 1673 123.89 876.188 435.823
3727 0 128.572 12.7633 1641 126.08 876.272 434.552
3728 0 131.461 13.2054 1736 128.271 876.39 432.594
3729 1 78.4258 10.8638 852 123.98 876.148 459.103
3730 0 80.5087 11.8124 951 123.717 876.33 456.369
3731 0 82.5698 12.874 1063 123.435 875.735 456.071
3732 0 83.3879 12.9155 1077 123.487 875.679 454.657
3733 0 86.3553 12.5412 1083 125.888 875.482 453.342
3734 0 87.4712 12.8842 1127 122.368 875.596 452.957
3735 0 90.475 12.5118 1132 123.315 875.42 451.102
3736 0 94.58 13.5335 1280 125.217 874.96 451.288
3737 0 94.5826 13.4697 1274 119.816 875.089 448.718
3738 0 98.5072 13.8569 1365 124.379 875.503 447.011
3739 0 100.368 13.7993 1385 130.126 875.506 447.238
3740 0 103.728 13.3812 1388 131.834 874.675 446.837
3741 0 106.465 13.488 1436 117.056 874.455 445.843
3742 0 110.506 13.411 1482 122.424 874.933 445.642
3743 0 111.625 13.7782 1538 129.217 874.389 443.756
3744 0 116.59 13.1058 1528 125.098 874.308 442.505
3745 0 118.523 13.2801 1574 126.4 874.071 439.904
3746 0 122.456 13.3517 1635 129.13 873.744 439.81
3747 0 124.427 13.8394 1722 126.653 873.47 438.852
3748 0 126.56 13.6852 1732 127.715 873.613 438.531
3749 0 130.444 13.9906 1825 125.781 873.296 437.237
3750 0 134.502 14.037 1888 124.13 873.597 434.649
3751 0 139.382 13.9904 1950 125.501 873.823 432.522
3752 0 143.588 14.2143 2041 118.71 873.67 430.678
3753 1 84.1296 12.3619 1040 121.973 875.248 462.364
3754 0 84.1627 12.2976 1035 123.346 874.147 461.214
3755 0 88.1017 13.2574 1168 119.952 874.338 460.738
3756 0 90.1456 13.1121 1182 118.895 873.718 459.774
3757 0 93.131 13.2502 1234 117.808 873.681 458.599
3758 0 93.1622 13.396 1248 120.636 873.812 456.891
3759 0 98.103 13.1291 1288 124.015 873.966 455.574
3760 0 98.1919 13.4736 1323 123.169 873.838 454.07
3761 0 103.115 13.5091 1393 122.282 873.644 453.234
3762 0 107.176 13.5011 1447 122.446 874.301 451.596
3763 0 111.193 13.4361 1494 127.262 874.195 450.002
3764 0 115.116 13.4473 1548 128.353 874.65 448.662
3765 0 117.173 13.8428 1622 120.477 874.486 446.439
3766 0 120.614 13.3898 1615 131.649 874.884 445.777
3767 0 124.443 14.2796 1777 128.799 874.89 442.984
3768 0 127.231 14.289 1818 128.462 874.581 441.446
3769 0 131.425 14.046 1846 126.491 874.372 440.302
3770 0 134.402 14.1367 1900 128.755 874.522 438.334
3771 0 139.409 14.3965 2007 127.55 874.212 436.07
3772 0 144.423 14.3883 2078 125.939 874.038 433.829
3773 0 148.292 14.2894 2119 126.376 873.448 432.524
3774 0 154.291 14.4208 2225 131.608 873.175 430.836
3775 0 157.34 14.5354 2287 126.955 873.689 429.005
3776 0 160.411 14.7122 2360 135.332 873.617 426.661
3777 0 164.33 14.7813 2429 135.853 873.515 424.407
3778 0 171.385 14.7388 2526 130.998 873.485 421.45
3779 0 178.489 14.7908 2640 129.807 874.028 418.198
3780 0 184.529 14.7565 2723 130.011 873.256 415.928
3781 0 189.489 14.7396 2793 133.154 872.722 413.477
3782 0 196.535 14.6844 2886 132.827 872.54 409.56
3783 0 202.465 15.1088 3059 126.361 872.011 406.662
3784 0 206.646 15.0789 3116 127.291 872.386 404.591
3785 0 211.531 14.9718 3167 137.93 873.014 400.687
3786 0 219.479 15.0265 3298 130.786 872.945 398.285
3787 0 226.572 15.4917 3510 129.761 873.152 394.638
3788 1 56.1258 11.7058 657 126.714 873.067 478.781
3789 0 59.0764 12.7123 751 126.121 872.874 477.971
3790 0 60.0634 13.0029 781 125.211 872.522 476.018
3791 0 62.0919 13.174 818 127.881 872.74 476.555
3792 0 63.0443 13.086 825 129.11 872.366 475.825
3793 0 65.073 13.4464 875 129.626 871.928 475.049
3794 0 68.1154 13.389 912 123.871 871.238 473.886
3795 0 71.1118 13.9217 990 128.744 872.477 471.71
3796 0 69.1542 14.1857 981 130.623 871.601 471.562
3797 0 73.0946 13.8314 1011 129.612 871.774 470.346
3798 0 76.3088 13.8254 1055 129.518 871.993 468.582
3799 0 79.081 13.7201 1085 134.45 873.333 466.388
3800 0 81.0935 14.0455 1139 128.198 873.622 466.105
3801 0 82.1388 13.9277 1144 129.869 873.562 464.277
3802 0 85.1092 14.1465 1204 132.076 873.471 464.026
3803 0 89.1188 14.8454 1323 127.392 873.723 461.194
3804 0 89.1364 14.4273 1286 131.632 873.691 461.628
3805 0 93.2383 14.3718 1340 133.12 873.491 460.569
3806 0 95.1431 14.7252 1401 126.555 872.989 458.767
3807 0 95.1165 14.8344 1411 126.097 872.771 457.979
3808 0 100.152 14.7875 1481 137.86 872.678 456.135
3809 0 103.234 14.4235 1489 131.604 872.408 454.598
3810 0 107.12 14.6191 1566 134.218 873.238 452.825
3811 0 109.243 14.985 1637 137.55 873.349 449.974
3812 0 111.24 14.9857 1667 131.425 872.939 448.935
3813 0 115.181 14.8027 1705 134.552 873.269 447.528
3814 0 118.285 14.7778 1748 132.908 873.223 445.969
3815 0 123.424 15.1834 1874 131.47 874.139 443.525
3816 0 128.422 14.5848 1873 130.441 873.724 441.99
3817 0 131.749 14.5731 1920 127.667 873.536 439.67
3818 0 136.307 15.0763 2055 128.553 873.573 436.803
3819 1 79.3062 13.8451 1098 138.921 873.053 466.633
3820 0 82.2574 14.0048 1152 142.264 873.402 464.699
3821 0 83.2951 14.6107 1217 137.606 874.09 463.881
3822 0 83.2922 14.7793 1231 133.285 873.878 461.91
3823 0 86.3454 14.8358 1281 140.515 873.6 461.411
3824 0 89.2206 14.9965 1338 139.907 873.736 459.838
3825 0 93.2571 15.0337 1402 137.388 873.971 458.504
3826 0 95.3416 15.4812 1476 140.168 873.811 456.98
3827 0 97.3154 15.1774 1477 137.814 874.042 456.081
3828 0 101.317 15.032 1523 141.858 874.078 454.721
3829 0 103.369 14.9658 1547 133.68 874.256 453.583
3830 0 105.153 15.3586 1615 132.45 874.419 454.26
3831 0 110.393 15.2818 1687 139.978 874.518 452.259
3832 0 111.202 15.3415 1706 144.602 874.601 450.36
3833 0 115.199 15.4082 1775 142.513 874.893 447.865
3834 0 119.229 15.2647 1820 145.127 874.829 447.892
3835 0 122.183 15.6732 1915 142.302 875.407 445.963
3836 0 126.363 15.1943 1920 150.914 874.876 444.355
3837 0 130.489 15.4113 2011 149.069 874.906 441.76
3838 0 135.376 15.2981 2071 156.083 875.336 439.753
3839 0 141.38 17.796 2516 141.674 875.892 433.299
3840 0 143.742 15.9034 2286 152.106 875.812 434.783
3841 0 147.457 16.2352 2394 153.591 876.234 433.084
3842 0 152.478 15.294 2332 154.798 876.177 432.315
3843 0 158.233 15.1486 2397 152.239 876.194 429.863
3844 0 162.374 15.5813 2530 157.749 876.104 427.115
3845 0 168.426 15.6745 2640 158.061 876.46 424.726
3846 0 175.35 15.7057 2754 157.146 876.038 421.328
3847 0 180.622 15.2916 2762 158.501 876.669 418.306
3848 0 185.83 15.6918 2916 153.039 876.109 414.715
3849 0 193.671 16.8378 3261 147.635 876.117 408.881
3850 0 201.333 16.5695 3336 147.905 876.452 408.108
3851 0 207.837 16.4744 3424 146.414 876.245 405.007
3852 0 213.354 15.3688 3279 151.237 875.73 405.031
3853 0 182.733 20.8719 3814 132.538 875.784 405.872
3854 0 181.496 20.9646 3805 134.709 875.609 406.299
3855 0 184.386 19.5947 3613 139.898 876.012 408.03
3856 0 184.403 16.7839 3095 149.745 876.66 416.24
3857 0 190.629 16.4298 3132 149.95 876.321 413.72
3858 0 197.47 16.1088 3181 153.67 876.238 410.757
3859 0 203.488 16.3351 3324 156.481 875.944 407.313
3860 0 210.464 16.3211 3435 150.522 875.428 404.38
3861 0 218.42 16.0928 3515 149.923 875.739 401.852
3862 0 226.408 16.0684 3638 148.865 875.485 397.211
3863 0 232.66 16.2125 3772 145.559 875.676 394.269
3864 0 240.594 15.948 3837 147.168 875.753 391.124
3865 0 248.763 16.0755 3999 146.511 875.379 386.333
3866 0 257.763 15.7005 4047 145.44 875.308 382.717
3867 1 57.2939 17.5586 1006 150.522 874.584 473.71
3868 0 58.1309 17.4434 1014 160.492 874.032 473.117
3869 0 59.2706 17.6985 1049 156.651 874.333 472.153
3870 0 62.3638 17.4781 1090 168.463 874.58 471.649
3871 0 62.1707 17.452 1085 164.338 873.699 471.909
3872 0 66.4956 17.4899 1163 160.896 873.685 469.892
3873 0 69.3176 17.4847 1212 160.78 874.023 469.659
3874 0 71.2666 17.6941 1261 159.51 873.951 468.961
3875 0 73.3556 17.3538 1273 164.921 874.335 467.501
3876 0 75.3386 17.9191 1350 168.04 873.835 467.079
3877 0 76.4267 17.7948 1360 161.446 873.971 466.515
3878 0 80.2734 17.6148 1414 152.062 874.294 465.521
3879 0 83.4291 17.5598 1465 160.556 873.739 463.958
3880 0 84.3132 17.5299 1478 163.172 873.698 463.311
3881 0 87.3281 17.7263 1548 158.231 873.898 461.621
3882 0 88.2748 18.2951 1615 153.958 874.642 460.742
3883 0 93.4083 18.1675 1697 154.25 874.341 458.529
