index division length width area intensity CMx CMy
0 0 67.1007 14.1727 951 168.414 693.807 484.242
1 0 67.1808 14.8257 996 168.507 694.109 481.96
2 0 71.3375 14.1861 1012 171.599 693.927 480.116
3 0 72.2567 14.3655 1038 166.534 693.645 479.968
4 0 75.1162 14.4044 1082 165.649 693.092 478.28
5 0 77.08 14.4395 1113 166.311 691.743 476.548
6 1 39.0999 13.0435 510 170.924 691.88 493.831
7 0 42.0394 12.7975 538 181.628 691.459 492.032
8 0 42.1202 13.5564 571 169.627 691.422 491.671
9 0 45.1071 13.5012 609 169.519 691.44 490.918
10 0 46.1181 13.5522 625 171.971 691.469 490.104
11 0 48.1969 13.4863 650 168.428 691.58 489.349
12 0 48.0932 13.9313 670 168.916 691.722 488.121
13 0 50.1161 14.207 712 169.24 691.979 486.612
14 0 52.2309 13.6701 714 172.482 693.261 485.59
15 0 55.1634 13.6141 751 172.81 693.798 483.698
16 0 57.2115 13.8084 790 168.728 694.848 482.467
17 0 58.1313 13.8136 803 159.696 696.385 481.463
18 0 60.0632 14.0019 841 171.243 696.945 480.212
19 0 62.1617 14.2692 887 164.853 697.592 478.448
20 0 62.1617 14.2692 887 170.459 698.592 478.448
21 0 66.2233 13.7565 911 167.079 699.068 475.538
22 0 69.2353 13.808 956 157.909 698.934 474.137
23 0 71.2159 13.9576 994 163.476 699.121 471.675
24 0 74.2723 14.1237 1049 166.716 699.683 470.696
25 0 76.1387 13.8826 1057 161.978 700.548 469.671
26 1 39.0154 12.4566 486 163.286 700.928 486.71
27 0 41.0379 12.8174 526 154.213 701.53 485.462
28 0 44.2248 12.4817 552 158.783 701.605 487.723
29 0 43.2708 13.843 599 14.8347 701.673 486.818
30 0 46.1608 12.9547 598 162.834 701.552 486.535
31 0 48.1699 12.9126 622 161.648 701.15 485.101
32 0 48.1667 12.6436 609 151.89 700.654 483.683
33 0 49.208 13.2296 651 162.444 700.476 483.862
34 0 51.0899 13.2316 676 154.643 699.45 482.362
35 0 53.1549 12.9809 690 163.187 698.925 482.096
36 0 53.1264 13.6279 724 161.804 698.464 481.017
37 0 57.1053 13.5014 771 162.533 698.174 481.252
38 0 58.0742 13.4139 779 157.671 698.316 480.752
39 0 60.1334 13.9523 839 158.76 697.176 479.46
40 0 61.1138 14.0885 861 163.569 696.839 478.965
41 0 64.11 14.0072 898 164.391 695.761 477.683
42 0 66.0605 13.6996 905 160.775 695.947 476.231
43 0 68.1031 13.6117 927 166.599 696.191 475.111
44 0 71.0746 13.9009 988 166.31 695.977 473.001
45 0 72.1075 14.0069 1010 161.467 696.011 473.089
46 0 76.0691 14.0793 1071 162.789 695.758 470.739
47 0 79.1394 14.0133 1109 166.232 695.365 469.245
48 0 82.1787 13.787 1133 164.73 695.508 469.049
49 0 83.1471 14.1677 1178 163.766 695.351 467.686
50 0 87.1545 14.044 1224 165.791 694.986 465.881
51 0 91.2756 14.144 1291 156.549 695.71 462.679
52 0 93.1867 13.811 1287 159.247 695.304 461.967
53 1 51.1945 11.9739 613 164.305 696.016 483.553
54 0 52.191 13.0482 681 159.564 694.993 482.214
55 0 53.0809 13.0555 693 156.188 696.139 481.254
56 0 54.1567 13.0916 709 158.749 696.044 480.071
57 0 57.2043 13.1808 754 157.857 696.715 478.58
58 0 58.1901 13.6106 792 152.96 696.586 478.979
59 0 60.2768 13.2057 796 145.073 697.249 477.926
60 0 62.1213 13.3449 829 150.315 697.37 477.606
61 0 65.1842 13.1013 854 144.714 696.891 474.925
62 0 67.1192 13.558 910 151.864 697.377 474.293
63 0 70.1761 13.5801 953 158.771 697.078 472.036
64 0 73.1697 13.7215 1004 155.239 697.025 471.043
65 0 75.1499 13.5995 1022 156.358 697.717 469.294
66 0 76.2577 14.0576 1072 156.229 697.405 468.371
67 0 81.2083 13.8163 1122 157.205 697.365 466.685
68 0 83.2106 13.7362 1143 156.989 697.584 465.57
69 0 86.169 13.4387 1158 148.656 698.117 463.707
70 0 87.1566 14.0207 1222 155.09 698.556 462.626
71 1 48.0988 11.9546 575 162.402 698.167 483.36
72 0 51.0275 11.9543 610 158.167 697.5 482.974
73 0 51.0337 13.0502 666 160.779 697.065 481.925
74 0 54.0759 12.7968 692 160.055 697.451 480.88
75 0 55.0761 13.0547 719 167.413 697.401 480.026
76 0 56.1415 13.1988 741 159.536 696.981 479.069
77 0 60.0996 13.0783 786 167.653 696.267 477.295
78 0 59.1361 13.6127 805 165.191 696.084 478.122
79 0 64.0844 13.3106 853 162.914 696.34 477.048
80 0 65.0848 13.275 864 160.881 696.069 475.162
81 0 67.1344 14.1209 948 164.665 695.794 474.889
82 0 69.1136 13.6587 944 94.215 696.372 474.21
83 0 72.1401 14.1946 1024 167.486 696.404 472.605
84 0 75.1573 13.9973 1052 162.12 696.445 472.184
85 0 77.1114 14.3429 1106 165.943 696.279 469.888
86 0 81.2396 13.9341 1132 163.454 695.954 467.428
87 0 83.1416 13.6755 1137 164.541 695.458 466.153
88 0 88.1774 13.8924 1225 168.865 695.222 464.7
89 0 91.1245 13.7943 1257 164.204 694.999 461.243
90 1 47.0546 11.8373 557 166.424 695.339 483.837
91 0 49.0075 12.5083 613 157.431 694.945 483.715
92 0 50.1011 13.333 668 156.251 694.988 481.999
93 0 52.0365 12.4336 647 163.093 696.25 482.238
94 0 53.2472 13.165 701 163.83 695.916 481.307
95 0 55.1558 13.1446 725 164.754 695.603 481.32
96 0 57.2015 13.2339 757 164.003 695.756 480.41
97 0 59.1859 13.1281 777 161.723 695.705 478.893
98 0 60.1411 13.4184 807 164.771 696.436 478.765
99 0 63.1253 12.9742 819 162.261 696.167 478.411
100 0 64.1202 13.4435 862 161.968 696.933 477.01
101 0 66.1619 13.3914 886 160.308 696.514 477.071
102 0 68.209 13.5613 925 161.365 695.975 475.889
103 0 71.1534 13.8855 988 162.114 695.713 474.721
104 0 72.0941 13.6349 983 160.604 696.124 472.793
105 0 77.1728 13.8002 1065 160.281 695.88 470.942
106 0 79.1427 13.2545 1049 157.334 696.036 470.889
107 0 80.202 13.9647 1120 163.746 696.426 469.383
108 0 83.1325 13.689 1138 160.972 696.026 468.616
109 0 86.0856 13.6376 1174 157.412 695.979 467.258
110 1 45.1663 11.1366 503 156.797 696.513 486.704
111 0 48.1638 11.5024 554 161.374 696.726 485.727
112 0 47.2789 12.2676 580 163.319 696.286 482.869
113 0 50.1612 12.6991 637 159.203 696.385 482.523
114 0 52.0775 13.0767 681 150.971 696.866 482.429
115 0 54.0714 12.4095 671 153.841 696.644 481.671
116 0 55.0502 12.8973 710 153.027 696.527 480.686
117 0 55.042 13.3171 733 151.482 696.149 479.341
118 0 59.049 12.9045 762 153.828 696.319 478.667
119 0 59.091 13.3861 791 158.972 696.14 478.491
120 0 62.0978 13.5915 844 151.308 695.508 477.819
121 0 63.1246 13.1803 832 146.261 696.381 476.442
122 0 65.2536 13.4552 878 153.179 696.066 475.298
123 0 66.2371 13.8744 919 156.419 695.756 472.899
124 0 69.2171 13.4793 933 148.675 696.08 472.297
125 0 71.3552 13.0334 930 154.074 696.253 472.01
126 0 73.4438 13.1938 969 147.39 696.108 469.237
127 0 75.2562 12.9823 977 146.281 696.653 469.835
128 0 77.204 13.2895 1026 148.316 696.819 467.414
129 0 79.4842 13.4744 1071 146.339 696.887 466.643
130 0 83.161 13.047 1085 147.435 697.023 465.87
131 1 41.1833 10.4168 429 143.758 697.182 485.876
132 0 43.0666 10.6347 458 141.332 697.376 485.083
133 0 45.1659 10.5832 478 136.082 697.278 484.471
134 0 46.2349 11.1604 516 138.126 697.359 483.256
135 0 49.1848 11.6499 573 139.016 697.698 481.269
136 0 50.168 12.5578 630 143.829 697.213 481.463
137 0 51.1813 12.7781 654 138.382 697.526 479.966
138 0 53.2084 12.9303 688 139.218 697.786 479.811
139 0 55.1798 12.7945 706 147.493 697.831 479.228
140 0 57.321 13.2063 757 143.593 697.697 477.696
141 0 57.1274 13.1636 752 145.702 698.106 477.112
142 0 60.2459 13.5777 818 144.743 698.474 476.174
143 0 62.2 12.8457 799 151.243 698.797 475.088
144 0 64.2546 13.4621 865 149.797 698.913 474.244
145 0 66.1315 13.7151 907 145.042 698.826 471.562
146 0 68.1205 14.0927 960 150.169 699.736 470.298
147 0 73.2171 13.8902 1017 150.992 699.911 469.139
148 0 74.2077 13.9608 1036 153.253 700.191 467.913
149 0 76.2752 13.7528 1049 155.805 700.356 466.97
150 0 79.2855 14.1009 1118 151.525 700.081 465.451
151 0 82.3814 14.2872 1177 156.11 700.336 462.596
152 0 85.2413 14.5 1236 158.509 700.624 460.767
153 0 89.3139 14.1635 1265 150.797 700.849 459.419
154 0 90.3026 14.4514 1305 159.792 701.618 459.13
155 0 95.2909 14.9332 1423 156.319 701.223 456.718
156 0 95.4393 14.8262 1415 151.47 700.939 456.277
157 0 100.351 14.8479 1490 164.776 701.394 453.934
158 0 102.319 15.0411 1539 164.446 701.674 451.747
159 0 106.506 14.9944 1597 165.47 702.003 450.481
160 0 110.254 14.9927 1653 161.025 702.055 447.832
161 1 57.1747 12.7329 728 164.497 701.593 473.195
162 0 60.1408 13.3188 801 158.895 701.695 471.685
163 0 63.1291 13.7813 870 162.09 701.854 470.27
164 0 65.1819 13.5774 885 164.068 702.141 470.755
165 0 65.1248 13.7736 897 165.097 701.727 469.475
166 0 67.1274 14.1373 949 162.984 702.079 467.633
167 0 70.2026 14.4154 1012 170.064 701.839 466.32
168 0 72.2416 14.1747 1024 164.713 702.082 464.464
169 0 74.173 13.8595 1028 168.956 701.776 463.943
170 0 76.108 14.3349 1091 166.958 702.368 461.97
171 0 80.1411 13.8381 1109 167.993 702.663 459.951
172 0 83.1511 14.0587 1169 164.907 702.16 458.606
173 0 85.2008 14.0726 1199 163.204 702.241 456.907
174 0 89.2025 14.2485 1271 165.87 702.315 456.699
175 0 92.4223 13.8819 1283 169.978 702.5 454.814
176 0 96.5873 14.1012 1362 164.662 702.322 453.04
177 0 98.4815 14.2768 1406 163.198 702.235 451.038
178 0 101.592 13.9283 1415 168.839 702.314 450.596
179 1 50.3484 12.7114 640 169.928 702.07 473.859
180 0 53.3777 12.8893 688 167.834 702.529 473.376
181 0 53.3046 13.451 717 166 702.314 472.547
182 0 56.0174 13.353 748 168.164 702.937 472.148
183 0 58.0646 13.5883 789 162.53 702.994 470.9
184 0 59.045 13.6337 805 160.393 703.011 469.986
185 0 62.1035 13.5741 843 161.703 703.866 469.867
186 0 64.2715 13.5986 874 165.477 702.814 467.807
187 0 67.1295 13.6602 917 156.851 702.754 466.438
188 0 68.1499 13.9105 948 167.566 702.27 466.229
189 0 68.164 14.069 959 168.675 702.839 464.606
190 0 72.2186 13.7361 992 169.021 702.999 463.728
191 0 75.3411 13.9632 1052 164.664 703.018 462.33
192 0 76.1847 14.5699 1110 167.072 702.998 460.592
193 0 79.2944 14.4273 1144 164.116 702.745 459.943
194 0 82.3317 14.393 1185 165.76 702.289 458.66
195 0 84.3968 14.2778 1205 165.552 702.463 458.296
196 0 88.2198 14.5319 1282 164.491 702.517 456.383
197 0 92.2839 14.4012 1329 169.791 702.428 454.153
198 0 94.3162 14.1969 1339 165.224 702.092 452.381
199 0 97.1878 14.4668 1406 34.2055 701.959 451.691
200 1 52.0524 12.7564 664 165.863 701.729 473.902
201 0 54.1295 13.5231 732 160.813 701.239 472.566
202 0 54.0604 13.4109 725 161.223 701.497 472.423
203 0 58.0695 13.811 802 166.89 701.277 471.483
204 0 58.0677 14.1042 819 161.967 701.687 471.707
205 0 62.0277 13.8809 861 166.538 702.269 469.647
206 0 64.161 14.0895 904 156.105 701.543 468.772
207 0 66.1485 13.8174 914 153.467 701.306 467.37
208 0 68.1121 13.8595 944 151.495 701.207 465.946
209 0 71.1058 14.2042 1010 161.924 701.667 465.291
210 0 73.1185 13.5807 993 158.731 701.139 464.073
211 0 74.2771 14.1363 1050 164.809 701.805 462.522
212 0 78.27 14.1561 1108 160.083 701.359 461.371
213 0 80.1884 14.1666 1136 163.246 700.583 460.868
214 0 82.1337 14.2572 1171 159.695 700.538 459.314
215 0 85.1795 14.3344 1221 159.818 700.55 459.03
216 0 87.2425 13.8923 1212 149.579 700.682 457.845
217 0 90.2437 13.9289 1257 160.968 700.733 456.687
218 0 94.2038 14.1183 1330 157.971 700.231 454.773
219 0 96.1856 14.4304 1388 158.474 700.362 453.836
220 0 98.281 14.2856 1404 159.057 700.053 452.677
221 0 103.288 13.2832 1372 158.629 700.08 450.905
222 0 105.248 13.9195 1465 154.593 700.218 448.91
223 0 108.337 14.5011 1571 159.836 700.208 448.43
224 0 112.227 14.239 1598 153.377 700.23 445.668
225 0 118.201 14.5599 1721 156.958 700.022 443.52
226 1 59.0962 11.8789 702 150.144 700.742 473.765
227 0 63.2768 11.7579 744 152.634 700.806 471.254
228 0 65.1746 12.152 792 155.082 700.766 471.487
229 0 67.2303 12.4944 840 158.627 700.818 469.21
230 0 70.2133 12.3766 869 153.543 700.348 468.865
231 0 71.1738 12.5748 895 155.385 699.962 466.936
232 0 74.1318 12.4373 922 148.857 700.838 465.504
233 0 75.1449 12.7753 960 155.871 700.744 464.02
234 0 79.086 12.8847 1019 156.752 700.714 462.486
235 0 81.2184 13.1251 1066 156.877 700.371 462.317
236 0 83.2305 13 1082 157.03 700.028 460.918
237 0 87.2425 12.5971 1099 159.836 699.854 460.247
238 0 89.1541 12.8541 1146 157.465 700.297 459.065
239 0 92.1937 12.4954 1152 156.711 699.649 456.978
240 1 47.1385 11.1374 525 156.396 699.467 478.764
241 0 49.1114 11.0769 544 151.46 699.309 479.636
242 0 52.0736 11.2533 586 149.836 699.42 478.171
243 0 53.0797 11.6994 621 154.535 699.945 476.359
244 0 53.0103 10.9224 579 143.933 700.651 477.138
245 0 55.0312 11.121 612 142.296 701.302 476.062
246 0 56.0378 11.2603 631 141.111 700.984 475.517
247 0 57.0355 12.0101 685 138.515 701.291 473.991
248 0 58.0658 12.1242 704 144.526 701.366 473.949
249 0 59.0535 11.9214 704 139.428 701.281 473.084
250 0 61.0621 11.7913 720 137.531 701.304 472.124
251 0 64.0606 12.1448 778 141.569 700.78 470.581
252 0 65.2311 12.0035 783 142.019 701.226 470.642
253 0 68.2107 11.9776 817 138.764 701.031 468.715
254 0 71.1046 11.8136 840 145.185 701.056 467.493
255 0 72.0589 12.1984 879 136.989 701.204 466.329
256 0 72.1141 12.6327 911 136.773 701.048 466.097
257 0 75.2002 12.1276 912 140.3 700.872 463.583
258 0 78.1862 12.1888 953 139.46 701.122 461.44
259 0 80.2158 12.3916 994 136.397 700.696 461.107
260 0 83.2379 12.4943 1040 136.988 701.834 459.518
261 0 86.365 13.0724 1129 138.74 701.457 458.582
262 0 88.1394 12.5143 1103 141.85 701.328 457.962
263 0 91.1919 12.841 1171 142.634 702.054 456.872
264 0 93.2398 12.6877 1183 141.099 701.568 455.139
265 1 50.1243 10.1149 507 136.953 701.521 477.98
266 0 53.0793 10.2488 544 140.432 702.472 476.882
267 0 55.06 11.1515 614 140.788 703.909 475.099
268 0 59.0648 11.4958 679 140.449 703.894 472.669
269 0 58.3278 11.5382 673 146.579 703.851 472.364
270 0 60.2134 11.6751 703 137.903 703.424 470.96
271 0 62.3809 12.071 753 145.526 704.11 469.616
272 0 64.2314 11.6765 750 144.381 704.229 467.46
273 0 67.4273 12.0723 814 135.77 703.966 467.733
274 0 67.3224 12.2545 825 143.381 703.507 466.976
275 0 70.2174 12.2762 862 144.064 703.358 464.209
276 0 73.2711 12.2831 900 145.948 703.49 464.81
277 0 73.3828 12.4007 910 142.089 702.856 463.259
278 0 76.5436 12.1369 929 146.23 702.9 462.343
279 0 78.4676 12.6422 992 149.488 703.221 461.592
280 0 82.4946 12.6311 1042 138.953 703.318 458.553
281 0 85.4284 12.5485 1072 141.431 702.964 456.393
282 0 88.7093 12.7721 1133 148.432 702.773 453.38
283 0 92.7596 13.0121 1207 144.21 702.732 452.611
284 0 94.6468 12.9112 1222 148.774 702.191 449.82
285 1 46.4476 10.7433 499 148.802 702.711 475.836
286 0 47.3968 11.6885 554 146.132 702.455 473.762
287 0 51.3798 11.7556 604 145.594 703.536 474.076
288 0 53.0803 11.85 629 149.579 703.312 474.188
289 0 54.1449 12.485 676 147.364 703.346 473.482
290 0 55.1057 12.7029 700 153.941 702.733 473.613
291 0 58.2647 12.2029 711 155.376 702.924 471.927
292 0 58.1193 12.612 733 155.288 703.202 471.344
293 0 61.1753 12.832 785 147.409 703.283 469.195
294 0 61.1096 13.124 802 162.742 703.53 469.908
295 0 64.1013 12.8078 821 156.911 703.943 468.521
296 0 65.1192 13.2526 863 159.823 703.954 467.565
297 0 68.0525 13.6365 928 158.798 703.32 466.328
298 0 71.0843 13.2237 940 162.185 704.05 464.944
299 0 74.3029 13.3104 989 161.078 703.642 463.457
300 0 75.262 13.1009 986 164.932 702.157 463.025
301 0 77.2691 13.2265 1022 158.533 702.185 462.419
302 0 80.4179 13.3304 1072 165.15 702.576 460.989
303 0 84.3364 13.375 1128 161.435 702.366 458.621
304 0 86.2922 13.6049 1174 165.007 702.519 456.968
305 1 47.0813 11.4271 538 159.859 702.656 476.831
306 0 48.0433 11.9476 574 158.249 702.202 477.091
307 0 49.1072 12.5033 614 165.819 701.914 474.466
308 0 49.3164 12.7949 631 162.735 702.585 474.418
309 0 51.1321 12.8686 658 157.023 702.008 473.011
310 0 53.2097 12.4225 661 155.304 702.041 473.687
311 0 53.1885 12.5591 668 158.546 701.994 472.542
312 0 55.1937 12.7913 706 160.656 701.953 472.45
313 0 57.1406 12.898 737 165.455 701.52 472.412
314 0 59.2478 12.5912 746 155.747 702.009 471.532
315 0 61.1791 13.2889 813 163.108 702.487 471.927
316 0 61.1331 13.4297 821 168.017 701.955 470.382
317 0 65.2064 13.2349 863 166.21 701.607 468.678
318 0 67.1999 13.3482 897 162.261 701.21 467.589
319 0 69.1776 13.4003 927 162.7 700.816 465.924
320 0 72.1813 13.1752 951 164.795 700.673 464.932
321 0 74.1582 13.4173 995 165.392 700.551 464.158
322 0 76.1351 13.568 1033 159.46 701.541 463.218
323 0 79.2942 13.431 1065 161.806 702.03 462.104
324 0 82.1984 13.5039 1110 158.657 702.038 460.564
325 0 85.3702 13.3888 1143 162.592 700.657 459.494
326 0 87.2357 13.4119 1170 160.797 700.595 458.016
327 0 90.2857 13.6677 1234 162.686 700.592 455.755
328 1 50.0541 11.8871 595 161.892 701.655 475.921
329 0 52.143 11.8904 620 152.574 700.032 476.1
330 0 53.1258 12.3669 657 146.464 700.272 475.244
331 0 53.2267 12.5877 670 145.869 700.042 474.582
332 0 55.1989 12.3372 681 145.802 699.744 473.78
333 0 57.2368 12.195 698 147.049 700.693 471.861
334 0 59.1877 12.114 717 141.304 700.848 471.707
335 0 59.2348 12.7965 758 144.322 701 471.773
336 0 61.1679 12.4575 762 151.543 701.101 470.576
337 0 64.3103 13.0617 840 146.806 701.05 469.086
338 0 65.2487 12.7206 830 146.136 701.212 468.206
339 0 68.1709 12.9821 885 141.705 700.875 467.385
340 0 70.2283 12.0749 848 140.127 701.037 466.776
341 0 71.1849 13.1208 934 137.152 701.065 465.084
342 0 74.18 12.6719 940 139.707 700.755 463.753
343 0 75.1785 12.9425 973 148.81 700.576 464.168
344 0 76.1468 13.2113 1006 144.756 700.426 462.567
345 0 82.1375 13.173 1082 143.967 699.486 461.529
346 0 83.1675 13.2023 1098 142.204 700.061 460.041
347 0 85.3387 13.3117 1136 139.894 700.344 458.029
348 0 88.3999 13.2014 1167 139.298 699.946 457.507
349 0 92.4188 13.2008 1220 136.492 700.446 454.949
350 1 50.2289 10.2929 517 145.373 700.211 478.236
351 0 51.2387 10.3633 531 135.789 700.269 476.738
352 0 54.0873 10.8713 588 144.793 699.939 475.349
353 0 54.1472 11.875 643 142.569 699.827 474.376
354 0 57.2651 12.0667 691 144.405 699.269 472.805
355 0 57.3405 12.4694 715 146.712 699.283 472.207
356 0 58.3223 12.2766 716 143.87 699.479 471.718
357 0 62.2739 12.5414 781 145.227 699.603 470.215
358 0 63.3463 12.3764 784 145.279 699.57 469.351
359 0 65.2842 12.7749 834 141.246 699.665 468.258
360 0 68.5019 12.5982 863 149.089 699.244 467.249
361 0 69.4018 13.0832 908 154.291 699.545 465.339
362 0 71.3004 12.8891 919 147.381 699.657 463.998
363 0 75.5834 12.7012 960 153.608 699.412 464.056
364 0 77.4703 13.2696 1028 156.205 699.339 459.457
365 0 78.3964 13.1128 1028 157.093 699.585 459.783
366 0 80.6089 13.3856 1079 153.66 699.533 457.305
367 0 84.479 13.0802 1105 156.759 699.903 458.459
368 0 84.5068 13.7385 1161 91.6942 700.081 456.591
369 0 86.3741 13.9046 1201 155.739 700.07 455.085
370 0 90.3777 13.6427 1233 164.724 700.498 453.319
371 0 92.2413 14.0067 1292 154.18 701.029 452.357
372 0 95.489 13.5304 1292 156.902 700.527 450.735
373 0 99.2973 13.7567 1366 150.657 701.091 448.354
374 0 102.274 13.718 1403 156.212 701.205 447.013
375 0 104.261 13.8594 1445 156.152 701.069 444.567
376 0 107.233 13.6805 1467 154.394 701.374 443.663
377 0 108.219 13.7222 1485 152.832 701.547 442.244
378 0 114.189 14.3008 1633 156.556 701.645 441.016
379 0 118.293 13.9738 1653 163.44 701.782 438.984
380 0 121.501 13.6871 1663 155.225 701.684 436.735
381 0 128.276 14.3441 1840 163.879 702.33 435.167
382 0 134.255 13.8766 1863 156.056 702.358 431.135
383 1 73.0883 12.7243 930 161.748 702.501 460.08
384 0 76.123 12.8082 975 161.062 702.729 460.695
385 0 78.2275 13.1284 1027 158.269 702.187 457.99
386 0 79.1543 13.0126 1030 160.17 702.12 456.292
387 0 83.1182 12.8492 1068 160.827 702.19 455.975
388 0 87.1798 13.0076 1134 160.212 701.887 452.023
389 0 89.3272 13.2323 1182 150.4 701.405 451.01
390 0 95.2556 12.9231 1231 165.257 701.918 449.515
391 0 98.2097 13.1657 1293 161.38 701.808 448.498
392 0 102.22 12.6492 1293 160.999 701.62 446.482
393 1 56.1559 10.6667 599 152.947 701.254 467.838
394 0 61.0867 11.0008 672 154.56 701.521 466.638
395 0 61.0225 11.9628 730 146.604 703.463 467.438
396 0 65.0809 12.3385 803 152.047 702.924 469.474
397 0 68.118 12.2581 835 151.514 702.854 468.028
398 0 68.1456 12.8989 879 154.739 703.241 465.954
399 0 72.1938 12.9512 935 153.573 702.871 464.466
400 0 73.1399 13.2349 968 148.633 702.921 463.458
401 0 78.1601 13.1909 1031 149.9 702.715 461.305
402 0 81.1359 12.7687 1036 151.646 702.051 459.808
403 0 83.1348 13.003 1081 155.087 701.9 458.985
404 0 86.1278 12.9459 1115 154.701 701.995 457.563
405 0 88.2031 13.1628 1161 157.113 702.001 456.133
406 0 91.3675 13.1994 1206 158.71 701.488 454.769
407 0 95.3749 12.9699 1237 152.663 701.259 452.069
408 1 49.1554 9.98874 491 151.699 701.621 474.821
409 0 51.1403 11.0676 566 155.078 701.648 474.171
410 0 52.1045 11.5345 601 149.27 701.899 472.988
411 0 55.0479 12.0077 661 154.466 701.543 473.598
412 0 55.1157 12.1744 671 151.912 700.891 473.934
413 0 55.1961 12.1385 670 153.112 701.052 474.024
414 0 57.1518 12.9305 739 158.664 700.995 473.068
415 0 59.1162 12.873 761 154.576 701.072 471.2
416 0 62.1341 12.8915 801 154.326 700.516 470.719
417 0 62.1175 12.8788 800 155.781 700.549 470.1
418 0 64.027 12.8852 825 147.756 699.394 468.789
419 0 66.0498 13.4293 887 155.517 699.039 467.49
420 0 69.0556 13.4095 926 162.532 699.017 466.063
421 0 71.0526 13.1171 932 156.024 699.52 465.026
422 0 73.0225 13.5575 990 159.532 699.159 464.498
423 0 75.1099 13.3404 1002 167.232 700.415 464.708
424 0 78.084 13.7288 1072 162.721 699.938 462.368
425 0 79.0657 14.001 1107 166.032 700.33 461.055
426 0 83.1265 14.0388 1167 162.6 699.464 458.698
427 0 84.1352 14.0607 1183 159.992 699.343 457.801
428 0 88.0769 13.8402 1219 162.458 699.336 456.066
429 0 90.0509 13.7367 1237 152.766 699.32 455.062
430 0 95.2616 14.1715 1350 156.13 699.672 453.893
431 0 97.1604 13.946 1355 164.893 699.624 453.897
432 0 99.1452 13.8484 1373 156.95 699.043 449.875
433 0 103.156 14.1727 1462 158.891 699.741 448.661
434 1 54.0578 11.5802 626 162.788 698.016 472.179
435 0 54.1226 12.4532 674 152.027 699.843 471.166
436 0 54.0388 12.6391 683 149.233 701.394 470.204
437 0 57.1229 12.7269 727 155.176 699.271 469.396
438 0 61.2383 12.8351 786 163.464 699.309 471.645
439 0 63.2288 13.1586 832 159.891 699.532 470.785
440 0 64.1659 13.2781 852 159.161 699.558 470.488
441 0 68.3138 12.6768 866 159.988 699.416 468.794
442 0 67.1233 13.3337 895 155.792 700.378 468.053
443 0 67.1233 13.3337 895 156.866 701.378 468.053
444 0 74.1841 13.116 973 158.696 701.058 465.903
445 0 75.1736 13.3424 1003 154.691 700.79 464.649
446 0 77.2011 12.9791 1002 162.559 701.118 464.163
447 0 82.2145 13.1364 1080 156.031 700.717 461.971
448 0 85.1678 12.9509 1103 154.347 701.424 460.797
449 0 85.1747 13.6895 1166 160.182 700.544 460.146
450 1 48.1271 11.2203 540 158.833 700.183 478.467
451 0 51.1771 11.7435 601 155.97 699.509 477.972
452 0 53.1204 11.9163 633 148.55 700.032 478.063
453 0 54.1206 12.3058 666 153.416 699.368 476.583
454 0 56.179 12.3 691 154.951 699.438 475.881
455 0 58.1077 12.3736 719 147.695 699.05 473.726
456 0 59.1823 12.1489 719 145.757 699.118 472.263
457 0 63.14 12.6544 799 150.623 699.314 472.148
458 0 64.1787 12.1536 780 147.308 699.119 470.641
459 0 65.3437 12.9316 845 152.058 699.709 470.589
460 0 67.1021 12.7567 856 150.819 699.282 470.289
461 0 70.3226 12.6844 892 147.802 699.896 468.497
462 0 72.3993 12.6935 919 147.143 699.749 465.868
463 0 74.4679 12.878 959 154.173 700.172 464.897
464 0 75.4687 12.6013 951 157.822 699.759 464.438
465 0 77.5912 12.7978 993 156.575 699.52 463.13
466 0 81.4554 13.0133 1060 156.022 699.676 462.585
467 0 84.472 13.2943 1123 160.616 700.173 460.025
468 1 44.4538 11.3376 504 159.389 699.409 478.089
469 0 46.3222 11.2041 519 162.098 699.42 479.021
470 0 45.1635 12.7094 574 158.814 699.279 478.089
471 0 46.2501 12.1513 562 161.491 700.422 479.158
472 0 49.1097 12.6044 619 156.042 700.435 478.788
473 0 49.1257 12.4986 614 162.217 700.546 477.894
474 0 51.1404 12.7883 654 160.639 700.739 476.982
475 0 53.1956 12.2754 653 152.412 700.925 475.665
476 0 55.1961 12.519 691 157.744 702.414 474.287
477 0 55.1066 13.247 730 154.907 702.401 474.827
478 0 58.1868 12.7864 744 162.04 702.776 473.112
479 0 61.2219 13.0019 796 141.451 702.593 472.129
480 0 61.2078 13.1519 805 161.903 702.59 471.08
481 0 63.1248 12.8951 814 161.969 702.342 470.604
482 0 62.2684 13.233 824 159.551 702.365 470.051
483 0 66.1622 12.6658 838 167.376 703.335 468.356
484 0 67.1083 13.0982 879 158.048 702.627 466.71
485 0 70.1316 13.3036 933 166.791 702.944 466.27
486 0 71.2449 13.2922 947 164.473 702.906 464.177
487 0 74.2436 13.6577 1014 161.284 703.036 462.584
488 0 77.2735 13.5622 1048 157.618 702.83 460.866
489 0 77.3029 13.169 1018 166.669 703.243 461.05
490 0 81.1823 13.6483 1108 163.366 702.764 458.8
491 0 83.1866 13.7522 1144 164.426 703.155 458.191
492 0 87.1334 13.6457 1189 162.784 702.966 457.892
493 0 90.156 12.8999 1163 156.469 702.699 454.829
494 0 94.332 13.8553 1307 163.222 703.679 451.976
495 0 95.2819 13.2134 1259 159.483 704.111 450.905
496 0 98.1622 13.7324 1348 157.317 703.757 447.089
497 0 100.34 14.0323 1408 155.006 703.782 444.751
498 1 53.109 12.2578 651 156.845 702.662 471.263
499 0 55.0864 12.4168 684 153.827 702.632 470.719
500 0 57.0234 12.6965 724 153.575 702.008 471.58
501 0 58.0963 12.9268 751 155.694 702.292 471.632
502 0 59.0151 12.9797 766 159.051 702.179 471.148
503 0 62.0218 12.9954 806 162.619 702.486 469.541
504 0 65.0966 12.6735 825 165.788 701.985 468.018
505 0 65.0431 13.591 884 158.861 704.442 467.85
506 0 67.0713 13.8211 927 161.647 703.985 467.023
507 0 70.0295 13.7656 964 165.361 704.581 465.675
508 0 70.085 13.5264 948 162.431 704.278 464.535
509 0 73.0528 13.3465 975 162.205 703.964 463.85
510 0 75.1339 14.2412 1070 164.209 703.883 461.921
511 0 79.054 13.6109 1076 164.349 703.497 460.961
512 0 81.0269 14.1064 1143 165.126 703.158 459.588
513 0 82.0939 13.9109 1142 162.768 703.289 458.004
514 0 86.2432 14.0649 1213 160.837 702.408 456.973
515 0 88.1965 14.0142 1236 162.904 702.23 453.926
516 0 92.1017 13.8108 1272 164.14 702.14 452.293
517 0 93.1002 14.0386 1307 164.995 702.712 452.182
518 0 98.2561 13.4038 1317 160.186 702.427 451.054
519 0 100.098 14.0262 1404 161.209 702.492 449.652
520 1 52.0623 11.371 592 156.365 702.201 472.451
521 0 55.0096 11.9797 659 154.061 702.331 471.687
522 0 58.1206 12.302 715 148.306 701.723 470.993
523 0 58.1787 12.41 722 155.85 701.428 469.909
524 0 60.1497 12.0533 725 157.062 701.603 470.372
525 0 60.1655 12.6152 759 163.03 701.899 469.64
526 0 63.1629 12.3649 781 149.379 701.291 467.581
527 0 68.1989 12.7421 869 155.321 701.552 466.968
528 0 70.1227 12.2642 860 157.138 701.286 466.372
529 0 70.1684 12.8405 901 155.021 701.562 464.725
530 0 73.1763 12.4357 910 147.397 700.935 463.004
531 0 77.0829 12.6747 977 142.29 701.179 461.911
532 1 41.0278 10.2126 419 153.394 702.525 480.232
533 0 42.0598 10.8893 458 156.928 702.631 479.9
534 0 44.1773 11.1369 492 157.126 702.547 479.209
535 0 48.0849 11.0222 530 152.774 702.46 477.875
536 0 47.1295 11.3729 536 155.55 701.685 477.903
537 0 46.1403 11.8335 546 151.443 702.084 478.399
538 0 47.0804 11.5972 546 152.853 701.912 477.927
539 0 48.0464 12.4879 600 151.732 702.66 477.803
540 0 50.0503 12.0079 601 150.802 702.948 476.752
541 0 51.037 12.3048 628 151.842 703.1 475.873
542 0 53.0173 12.0338 638 152.138 703.031 474.89
543 0 55.022 12.7585 702 150.117 702.489 473.548
544 0 56.038 12.67 710 144.949 702.263 473.282
545 0 58.0439 12.2666 712 149.933 702.816 474.621
546 0 60.0516 12.406 745 155.871 702.18 472.362
547 0 61.0503 12.072 737 152 702.476 471.826
548 0 61.068 12.9528 791 150.483 702.628 469.412
549 0 63.0851 12.8239 809 153.701 702.224 469.769
550 0 66.0533 13.1106 866 153.393 701.614 467.529
551 0 67.0975 13.1003 879 154.174 701.671 468.055
552 0 69.0801 13.3903 925 158.364 701.627 466.182
553 0 73.1135 12.9798 949 156.994 701.202 465.309
554 0 74.2198 13.3118 988 156.321 701.269 464.009
555 0 78.2391 12.6663 991 150.837 701.133 463.058
556 0 82.0945 13.4114 1101 156.415 701.14 460.144
557 0 83.2244 13.3134 1108 157.932 701.449 459.69
558 0 87.0919 13.6752 1191 157.688 701.154 457.376
559 0 89.1632 13.3687 1192 154.732 700.503 456.828
560 1 50.0737 12.7612 639 152.332 699.153 476.983
561 0 49.1629 12.5705 618 151.387 699.88 477.984
562 0 51.169 12.6053 645 158.904 700.045 477.884
563 0 51.274 12.794 656 148.498 700.494 477.875
564 0 54.1679 12.8674 697 160.96 700.234 476.435
565 0 54.1339 13.6883 741 154.381 699.92 475.88
566 0 59.2238 12.6132 747 161.122 699.999 475.897
567 0 60.2338 12.9662 781 161.177 700.051 474.684
568 0 62.2257 13.1939 821 156.102 699.106 472.564
569 0 63.1367 13.5737 857 159.259 699.103 471.015
570 0 68.2831 12.99 887 163.371 699.433 470.29
571 0 68.1643 13.7755 939 160.234 699.438 468.28
572 0 73.2956 13.7389 1007 163.55 699.878 467.943
573 0 75.2036 13.7094 1031 164.863 699.669 466.962
574 0 77.1776 13.7216 1059 165.344 699.893 466.237
575 0 79.2329 14.287 1132 158.996 699.322 464.09
576 0 82.4134 13.8934 1145 163.452 699.913 462.722
577 0 83.2652 14.0515 1170 163.947 699.778 461.793
578 0 89.2457 13.5469 1209 165.262 699.32 460.682
579 0 92.31 13.8663 1280 162.621 700.236 457.93
580 0 95.4272 13.4658 1285 161.595 700.925 457.193
581 1 50.2149 12.4465 625 167.078 700.058 478.138
582 0 51.3736 13.1974 678 164.988 700.665 475.133
583 0 53.3349 13.3496 712 158.486 700.751 474.456
584 0 54.5702 13.194 720 162.151 700.425 473.872
585 0 55.3432 13.1001 725 161.243 700.263 473.097
586 0 58.4211 13.4027 783 159.54 700.535 472.252
587 0 58.3364 13.7993 805 154.934 700.129 471.957
588 0 60.3712 13.7814 832 158.481 700.492 470.99
589 0 62.368 14.0617 877 153.836 700.873 470.255
590 0 64.4348 13.7969 889 156.514 701.375 467.643
591 0 65.4989 13.3743 876 155.362 701.073 468.444
592 0 67.3853 14.098 950 157.932 701.712 466.305
593 0 70.3671 13.6001 957 153.645 701.347 466.005
594 0 70.3457 14.116 993 156.081 702.011 464.739
595 0 74.3263 13.9251 1035 156.932 701.969 463.968
596 0 77.3211 13.7608 1064 161.252 702.142 463.59
597 0 81.266 14.1265 1148 152.661 702.099 461.677
598 0 85.2271 14.2795 1217 155.01 702.453 460.483
599 0 86.4367 14.473 1251 155.321 702.467 458.632
600 0 89.391 14.2296 1272 154.101 702.552 457.511
601 0 91.3437 14.1006 1288 158.65 703.109 456.456
602 0 97.3203 14.8273 1443 87.1365 702.516 453.185
603 0 100.544 14.521 1460 158.571 702.926 450.037
604 0 102.499 14.5855 1495 156.431 702.666 449.155
605 0 106.543 14.2571 1519 163.559 702.771 446.552
606 1 57.116 12.4484 711 156.603 702.278 473.533
607 0 58.0531 13.6599 793 163.517 703.421 471.208
608 0 59.0603 13.9349 823 163.535 703.52 469.995
609 0 63.2254 13.7603 870 162.632 702.977 469.582
610 0 66.101 13.1466 869 169.264 702.641 468.895
611 0 67.1683 13.8309 929 168.027 703.277 468.122
612 0 70.1623 13.2265 928 161.322 703.631 466.627
613 0 72.0673 13.4458 969 161.604 703.303 465.271
614 0 75.1056 13.3812 1005 167.54 703.953 464.638
615 0 76.146 13.8944 1058 166.105 703.922 462.487
616 0 78.1685 13.9314 1089 164.916 704.558 459.794
617 0 83.174 13.8264 1150 160.575 704.297 459.423
618 0 84.1244 13.7653 1158 157.914 704.44 457.757
619 0 86.1273 13.9445 1201 163.242 703.938 456.4
620 0 90.1163 14.1373 1274 166.913 703.711 454.64
621 0 92.291 14.1292 1304 162.638 703.048 453.877
622 0 97.2215 13.8652 1348 165.234 704 451.628
623 0 99.2151 14.4232 1431 168.5 704.112 449.853
624 0 104.175 14.2068 1480 167.603 704.087 448.757
625 0 106.184 13.9005 1476 166.827 704.191 447.442
626 0 109.215 14.2288 1554 160.588 703.927 445.685
627 0 112.311 14.3619 1613 164.895 703.025 443.719
628 0 118.464 14.2153 1684 163.45 703.195 442.13
629 1 63.1829 12.4401 786 164.34 703.28 468.911
630 0 66.1779 12.8744 852 157.089 703.235 467.295
631 0 68.0656 13.678 931 161.919 703.422 464.499
632 0 70.0444 13.2773 930 158.291 703.594 464.365
633 0 72.0425 13.2144 952 150.346 703.451 462.129
634 0 76.0603 13.0554 993 154.43 703.753 462.193
635 0 79.0935 13.4777 1066 157.325 703.364 460.701
636 0 81.0372 13.4876 1093 155.316 702.995 460.198
637 0 84.0876 13.5811 1142 158.088 702.965 458.377
638 0 87.0634 13.6223 1186 155.038 702.709 457.006
639 0 90.0898 13.32 1200 155.59 702.691 455.38
640 0 95.1471 13.4949 1284 152.726 702.315 453.937
641 0 97.1011 13.8 1340 155.865 702.272 452.875
642 1 53.0555 11.4031 605 155.646 701.187 475.331
643 0 55.1045 11.8865 655 154.881 700.794 474.345
644 0 57.3128 12.3009 705 153.799 702.431 471.584
645 0 59.1229 12.1273 717 150.056 702.389 472.674
646 0 60.0647 12.9194 776 156.482 702.445 472.021
647 0 62.0947 12.5937 782 149.422 702.912 471.219
648 0 65.0319 12.6553 823 140.915 702.368 469.883
649 0 67.0465 12.9313 867 152.67 702.659 468.848
650 0 69.1101 13.1385 908 151.997 701.654 468.284
651 0 70.0974 13.3386 935 151.093 701.737 467.51
652 0 73.0709 13.2063 965 156.028 701.709 465.956
653 0 75.0793 13.519 1015 160.243 701.551 465.037
654 0 77.0943 13.7494 1060 163.019 701.548 464.186
655 0 80.0672 14.0757 1127 160.87 701.937 462.635
656 0 82.0679 13.7325 1127 164.179 702.177 461.386
657 0 86.1114 14.1096 1215 158.374 701.387 460.017
658 0 89.0688 13.6299 1214 160.222 701.279 458.399
659 0 92.176 13.6153 1255 165.153 701.321 457.086
660 0 95.1518 13.7149 1305 166.85 701.456 455.854
661 0 98.2064 13.7669 1352 167.851 701.49 453.438
662 0 101.137 13.9514 1411 165.007 701.378 451.292
663 0 103.232 14.1429 1460 157.916 700.904 450.645
664 0 107.237 13.8945 1490 151.088 701.977 448.715
665 0 112.403 13.7986 1551 164.518 700.951 445.794
666 1 61.3282 12.588 772 165.477 699.464 469.32
667 0 61.1635 12.7854 782 160.547 699.628 468.027
668 0 63.2156 13.4619 851 151.196 701.137 468.953
669 0 67.1296 12.9451 869 161.171 701.22 467.976
670 0 68.2199 13.134 896 158.828 701.277 466.754
671 0 72.0993 13.1208 946 156.04 701.526 465.756
672 0 73.1919 13.4714 986 159.703 701.16 464.428
673 0 77.2164 13.4816 1041 157.285 700.846 462.783
674 0 79.2113 13.2052 1046 156.049 700.826 461.065
675 0 81.182 13.1556 1068 153.154 701.27 459.774
676 0 85.1181 13.7809 1173 155.932 701.201 457.991
677 0 88.1723 13.6211 1201 149.767 700.898 457.689
678 0 91.2066 13.3653 1219 156.174 701.208 457.193
679 0 94.1615 13.9123 1310 152.292 700.744 455.767
680 0 97.1649 13.4617 1308 151.824 700.299 455.184
681 0 101.266 13.8546 1403 152.757 701.026 453.009
682 0 104.239 13.7184 1430 148.686 700.332 450.777
683 0 108.142 13.8059 1493 155.681 700.57 449.577
684 0 111.069 14.1084 1567 145.337 700.828 447.815
685 0 114.137 14.176 1618 157.883 701.037 445.478
686 1 59.037 11.4843 678 157.373 701.752 474.038
687 0 62.0863 11.9511 742 154.961 701.309 471.865
688 0 62.0733 12.6141 783 143.645 701.566 471.29
689 0 66.0447 12.7792 844 11.7145 701.001 471.16
690 0 68.0993 13.0545 889 153.511 700.994 469.962
691 0 69.1058 12.9512 895 151.127 700.553 468.393
692 0 71.1611 13.2376 942 150.794 701.025 467.633
693 0 73.1779 12.7908 936 149.725 700.955 466.248
694 0 77.1549 13.5312 1044 150.852 701.075 465.214
695 0 79.1161 13.2969 1052 157.808 700.587 463.221
696 0 83.2654 12.7664 1063 150.984 700.273 461.134
697 0 86.2437 12.9517 1117 157.599 700.237 461.056
698 0 87.2392 12.9414 1129 156.095 700.79 460.077
699 0 89.1832 12.9845 1158 159.025 700.507 460.579
700 0 92.1681 12.6834 1169 151.742 700.331 458.098
701 0 96.2848 12.65 1218 159.786 700.444 456.612
702 0 99.3105 12.9896 1290 164.337 699.951 455.257
703 1 55.2988 11.682 646 161.813 700.327 477.678
704 0 56.2549 11.9634 673 156.34 700.04 476.434
705 0 54.1388 12.5049 677 149.722 700.323 476.997
706 0 58.0561 11.9884 696 149.22 700.575 476.072
707 0 57.0749 12.65 722 151.019 700.391 476.658
708 0 60.0868 12.3987 745 146.51 701.579 474.917
709 0 61.1214 12.5324 766 148.769 701.463 473.423
710 0 64.2696 14.6259 940 142.491 701.136 470.99
711 0 66.0751 13.4847 891 148.168 700.984 471.043
712 0 66.1916 13.4458 890 144.676 701.182 470.985
713 0 69.1977 13.223 915 151.056 700.877 469.986
714 0 71.1621 13.5044 961 152.642 700.691 468.558
715 0 74.145 13.541 1004 155.048 700.304 469.305
716 0 74.2252 14.456 1073 111.156 700.395 466.937
717 0 78.3034 14.0479 1100 158.861 699.965 465.655
718 0 80.2608 13.942 1119 159.848 700.238 464.365
719 0 82.3982 13.6653 1126 156.958 699.357 462.3
720 0 84.2605 13.755 1159 154.788 699.53 460.151
721 0 87.2734 13.9676 1219 155.895 699.153 459.413
722 0 91.4516 13.4279 1228 156.917 699.364 458.992
723 0 92.3851 13.671 1263 156.053 699.244 458.627
724 0 95.2495 14.1733 1350 153.079 699.261 457.353
725 0 98.3993 13.9127 1369 157.521 700.137 455.453
726 0 100.313 13.9863 1403 160.475 699.491 454.11
727 0 102.254 13.9457 1426 160.398 699.796 453.37
728 0 106.2 14.0396 1491 158.753 700.333 450.117
729 0 108.432 14.1747 1537 165.014 700.124 448.137
730 0 112.423 13.9473 1568 159.857 700.335 446.606
731 0 117.279 14.1458 1659 160.229 700.394 443.837
732 0 122.36 14.1141 1727 158.038 700.614 442.479
733 0 126.293 14.1733 1790 156.586 700.381 439.417
734 0 130.383 14.0432 1831 161.427 701.191 438.245
735 1 72.4365 12.894 934 161.818 700.45 466.254
736 0 74.2383 13.0256 967 160.675 701.382 465.584
737 0 78.1859 12.611 986 153.042 702.447 464.105
738 0 80.1398 13.3267 1068 153.892 702.34 463.736
739 0 83.2271 13.1087 1091 160.564 702.099 461.765
740 0 85.1286 12.8042 1090 155.152 702.448 459.994
741 0 88.3253 13.0314 1151 161.371 702.037 457.602
742 0 90.2447 12.9869 1172 150.004 701.876 456.956
743 0 93.5122 12.8219 1199 155.952 701.647 455.033
744 0 94.3802 13.5834 1282 151.614 701.41 451.906
745 0 98.7276 13.1574 1299 156.6 701.721 448.396
746 0 100.353 13.3827 1343 154.598 701.531 447.209
747 0 103.563 13.0742 1354 160.812 702.032 445.925
748 0 108.494 13.4846 1463 148.328 702.135 443.431
749 0 111.544 12.8559 1434 154.241 702.165 441.781
750 1 61.3303 11.0549 678 48.7021 702.339 466.54
751 0 61.3025 10.9294 670 150.79 702.84 466.991
752 0 64.2553 11.4699 737 146.516 703.716 467.28
753 0 67.1565 11.3764 764 152.969 704.22 466.715
754 0 70.3385 11.5157 810 146.868 704.804 465.726
755 0 71.2484 11.7757 839 146.442 704.836 464.782
756 0 72.1797 11.9286 861 150.58 704.175 464.463
757 0 75.1547 12.3079 925 149.458 704.124 463.301
758 0 76.2258 12.3974 945 146.192 704.221 460.911
759 0 81.3315 12.3445 1004 152.247 704.51 459.773
760 0 83.1832 12.5506 1044 146.926 704.675 457.804
761 0 86.1848 12.8909 1111 149.419 704.767 456.876
762 0 89.227 12.6419 1128 153.754 704.949 454.592
763 0 91.2073 12.6964 1158 142.131 705.195 452.183
764 0 94.2679 12.8676 1213 148.19 704.786 451.655
765 0 97.3526 13.4768 1312 149.588 704.999 451.252
766 0 101.128 13.3988 1355 150.32 705.094 449.428
767 0 104.302 13.3171 1389 152.824 705.33 447.846
768 0 108.178 13.4871 1459 148.571 705.179 444.373
769 0 110.169 13.2886 1464 152.152 705.083 443.732
770 0 114.277 13.2747 1517 158.082 704.663 441.27
771 0 117.359 13.3692 1569 150.716 704.37 438.843
772 0 121.415 13.112 1592 159.178 703.92 437.912
773 1 66.288 11.2539 746 145.264 703.131 464.598
774 0 69.2711 11.6066 804 147.09 703.335 462.706
775 0 72.2066 12.6304 912 147.038 703.865 461.782
776 0 74.1419 12.004 890 150.973 705.011 462.86
777 0 75.2171 12.2313 920 154.368 704.068 460.121
778 0 79.1321 11.98 948 148.311 704.966 459.25
779 0 80.097 12.5723 1007 149.713 704.58 458.744
780 0 83.2133 12.5821 1047 154.29 704.255 456.779
781 0 85.1497 12.6718 1079 153.63 704.435 455.319
782 0 89.1738 12.627 1126 161.882 703.337 454.456
783 0 90.1775 12.8192 1156 156.234 703.633 453.938
784 0 93.117 13.2844 1237 158.2 702.37 451.891
785 0 93.2499 13.5871 1267 161.001 702.779 450.82
786 0 99.1577 13.0297 1292 161.314 702.358 449.518
787 0 102.252 13.4863 1379 163.072 702.4 448.65
788 0 104.185 13.3705 1393 162.543 703.039 447.571
789 0 107.265 13.0611 1401 158.65 702.244 447.2
790 0 111.118 13.1752 1464 157.513 702.01 443.784
791 1 59.0722 11.0204 651 152.341 702.421 470.53
792 0 60.1113 11.4787 690 159.306 701.732 469.47
793 0 63.0643 12.3525 779 159.445 701.619 468.818
794 0 64.0886 11.7182 751 157.21 702.31 470.119
795 0 66.3194 12.3041 816 163.778 701.475 468.396
796 0 68.1601 12.0745 823 154.702 701.32 466.774
797 0 68.0956 12.2328 833 155.263 701.498 465.637
798 0 72.1189 12.8538 927 159.094 702.718 465.493
799 0 73.0983 12.5311 916 161.362 702.562 464.619
800 0 76.1626 12.8147 976 164.331 702.085 462.952
801 0 77.1628 12.9337 998 163.492 701.741 461.054
802 0 80.1441 12.7396 1021 157.684 702.141 459.405
803 0 82.1005 13.5566 1113 163.798 703.683 458.566
804 0 84.2011 12.7671 1075 158.579 703.439 458.158
805 0 85.1793 12.8905 1098 153.019 703.103 456.071
806 0 90.2363 13.4203 1211 155.088 703.217 453.917
807 0 92.3093 13.1839 1217 151.136 702.882 451.975
808 0 95.2315 13.0524 1243 156.15 703.121 450.234
809 0 98.2868 13.1859 1296 153.309 703.613 449.693
810 1 54.3722 10.4281 567 157.683 704.007 471.691
811 0 56.3378 10.8276 610 152.141 704.252 470.148
812 0 57.3715 11.4168 655 161.701 703.553 471.302
813 0 59.2626 11.4406 678 155.913 703.636 470.134
814 0 60.2979 11.9573 721 153.089 703.512 468.935
815 0 61.1413 11.9232 729 146.645 703.894 467.461
816 0 64.1836 12.3084 790 139.241 703.909 467.208
817 0 66.241 12.5602 832 153.529 703.978 466.239
818 0 66.1654 12.7559 844 144.883 704.197 464.575
819 0 69.2048 12.7014 879 152.629 704.254 464.918
820 0 70.1423 12.9166 906 153.266 703.942 463.986
821 0 74.1546 13.0808 970 156.945 703.79 463.078
822 0 75.1548 13.5587 1019 156.321 704.134 460.883
823 0 78.1113 13.4168 1048 155.347 703.885 459.935
824 0 80.324 13.458 1081 147.277 704.125 459.302
825 0 81.1186 13.3262 1081 157.286 704.514 458.358
826 0 83.1278 13.6537 1135 149.798 704.574 455.843
827 0 86.2018 13.0972 1129 153.787 704.688 456.843
828 0 89.1161 13.2636 1182 151.849 704.86 453.958
829 0 92.1511 14.1073 1300 155.127 704.918 451.564
830 0 96.118 13.8164 1328 155.788 704.785 449.538
831 0 97.1697 13.6668 1328 156.305 704.237 449.008
832 0 100.201 13.7723 1380 156.262 704.93 448.712
833 0 103.315 14.0735 1454 149.546 704.583 446.455
834 0 106.163 13.8184 1467 157.247 704.628 445.89
835 0 110.493 13.4579 1487 148.872 705.222 444.282
836 0 113.414 13.4199 1522 152.897 704.765 442.873
837 0 116.396 13.9437 1623 153.149 704.526 439.331
838 1 65.3947 12.264 802 152.599 704.803 465.681
839 0 68.3506 13.2259 904 155.82 704.434 463.527
840 0 70.342 13.3206 937 155.914 704.331 461.189
841 0 73.3653 12.9489 950 157.348 705.061 460.756
842 0 74.2975 13.6075 1011 156.59 704.553 458.227
843 0 78.2593 13.5575 1061 154.74 705.051 457.359
844 0 82.3568 13.2715 1093 155.612 705.316 456.913
845 0 84.2432 13.4966 1137 155.77 705.821 456.654
846 0 87.1908 13.4418 1172 150.611 705.637 455.805
847 0 89.1421 13.7085 1222 156.426 705.282 454.521
848 0 92.1415 13.5552 1249 154.127 704.819 454.02
849 0 96.2442 13.0813 1259 158.705 704.538 451.847
850 0 99.3356 13.8319 1374 154.887 704.322 448.909
851 0 102.347 13.3468 1366 152.488 704.551 447.867
852 1 55.3277 11.4048 631 151.377 703.862 471.106
853 0 57.2178 12.199 698 156.946 703.777 469.638
854 0 59.0376 12.5005 738 158.343 706.271 468.165
855 0 60.0326 12.0268 722 153.938 705.867 469.086
856 0 63.1073 12.4867 788 154.744 706.485 467.547
857 0 65.0758 12.9388 842 157.647 706.051 466.128
858 0 67.0835 13.0434 875 149.535 705.345 464.831
859 0 69.123 13.2662 917 149.99 705.126 463.819
860 0 73.0618 13.1122 958 161.767 705.153 463.758
861 0 75.0842 13.1985 991 157.839 704.35 463.001
862 0 76.0824 13.538 1030 164.874 703.966 461.1
863 0 77.1547 13.6868 1056 158.166 703.634 459.036
864 0 82.1922 12.9939 1068 155.244 703.054 457.585
865 0 84.1973 13.4327 1131 157.105 704.882 456.195
866 0 86.2271 13.6732 1179 155.052 703.688 455.896
867 0 90.1998 13.6475 1231 154.808 704.071 453.885
868 1 50.0811 11.0421 553 150.989 703.389 473.615
869 0 51.0713 10.9651 560 154.446 703.507 473.504
870 0 54.1866 11.811 640 143.136 702.709 471.13
871 0 56.1973 11.8867 668 145.641 702.783 470.799
872 0 57.2064 11.8343 677 145.981 702.328 470.972
873 0 60.0937 12.6802 762 138.163 702.486 468.323
874 0 60.1351 12.4719 750 143.584 702.46 468.443
875 0 62.2505 12.3694 770 144.608 702.697 467.569
876 0 65.1476 12.6636 825 141.388 702.881 466.36
877 0 67.1331 12.8402 862 16.0545 703.502 464.972
878 0 68.2438 12.7631 871 138.289 703.394 464.119
879 0 70.1581 12.6714 889 141.852 704.013 463.134
880 0 73.1438 12.9608 948 134.694 703.462 460.776
881 0 75.1912 12.5414 943 133.659 702.859 460.791
882 0 78.2238 13.2441 1036 132.653 703.356 458.47
883 0 82.2738 13.054 1074 140.879 703.02 458.457
884 0 86.1682 12.6381 1089 134.329 703.514 458.052
885 0 86.1807 13.1468 1133 136.89 703.267 457.544
886 0 91.2892 12.6302 1153 133.964 704.219 456.092
887 1 49.0638 10.8226 531 143.399 705.032 476.482
888 0 51.1036 11.193 572 140.121 705.53 475.227
889 0 54.2946 11.4744 623 143.576 705.334 474.604
890 0 56.0771 11.9657 671 145.683 705.265 472.349
891 0 58.0596 12.7972 743 139.585 704.758 471.133
892 0 59.0864 12.4902 738 146.202 705.316 471.054
893 0 61.0402 13.0406 796 140.18 705.352 469.71
894 0 61.0348 13.3203 813 142.276 705.531 469.491
895 0 64.0397 13.3979 858 145.887 705.698 469.009
896 0 65.0311 12.9477 842 137.015 705.678 467.665
897 0 68.0319 13.1997 898 145.067 705.55 466.206
898 0 69.1388 13.1185 907 146.646 705.783 465.408
899 0 72.081 13.249 955 147.124 705.535 465.037
900 0 75.1357 13.5488 1018 141.061 705.508 463.277
901 0 75.0614 13.8287 1038 140.36 706.066 461.775
902 0 79.0488 13.3968 1059 152.098 706.213 462.382
903 0 80.0889 13.485 1080 148.211 705.716 459.186
904 0 84.0646 13.5372 1138 150.426 706.356 454.207
905 0 87.1806 13.8792 1210 155.15 705.488 450.641
906 0 89.2351 13.8286 1234 147.931 705.276 455.968
907 0 90.2315 13.9308 1257 152.571 705.033 455.726
908 0 93.3108 13.8248 1290 150.515 704.698 453.595
909 0 96.2481 13.9016 1338 146.85 704.39 451.521
910 0 99.38 13.9968 1391 125.961 704.576 450.109
911 1 53.2896 11.5595 616 158.102 704.649 473.175
912 0 55.1612 11.8924 656 158.428 703.819 472.085
913 0 57.1975 12.4831 714 162.112 702.985 471.073
914 0 59.2064 12.7351 754 153.897 702.826 469.87
915 0 60.4934 13.1915 798 152.018 703.791 469.701
916 0 62.2879 13.9192 867 148.232 704.329 469.23
917 0 64.2854 13.5178 869 152.301 704.177 468.598
918 0 64.5577 13.8016 891 152.127 704.314 466.437
919 0 67.2457 13.4284 903 162.578 704.338 465.463
920 0 67.4747 14.0201 946 142.539 704.558 462.993
921 0 71.1281 13.3843 952 156.033 703.263 464.647
922 0 72.1473 13.8883 1002 156.462 704.801 463.763
923 0 74.0788 14.0121 1038 160.321 704.641 464.309
924 0 76.1989 13.8191 1053 156.968 705.186 461.861
925 0 78.4777 14.348 1126 161.193 704.674 460.727
926 0 82.2309 14.1674 1165 163.645 704.207 459.272
927 0 82.1502 13.7675 1131 160.185 704.78 458.503
928 0 84.2443 14.3867 1212 163.385 704.342 456.792
929 0 87.1592 13.7105 1195 167.473 704.306 455.036
930 0 89.2863 14.7839 1320 168.731 703.973 454.828
931 0 93.1806 14.5524 1356 158.209 704.481 451.629
932 0 95.2376 14.8681 1416 162.377 704.615 452.095
933 0 97.2447 14.5509 1415 163.902 705.213 450.42
934 0 101.514 14.6777 1490 162.597 705.005 448.333
935 0 104.295 14.2959 1491 163.686 705.521 446.71
936 0 107.254 14.4331 1548 164.343 704.915 443.579
937 0 111.156 14.736 1638 163.335 705.09 442.69
938 0 116.2 14.63 1700 59.6982 704.858 441.434
939 0 119.338 14.991 1789 166.675 704.763 437.753
940 0 123.366 14.5259 1792 167.406 705.42 436.593
941 1 56.1073 12.7256 714 163.367 705.172 468.836
942 0 57.0368 13.3247 760 160.871 704.908 468.304
943 0 60.129 13.7704 828 158.516 705.161 469.17
944 0 62.1183 14.086 875 160.829 705.234 469.679
945 0 64.1998 13.8941 892 163.848 705.081 469.589
946 0 66.1285 13.9577 923 164.141 705.879 468.452
947 0 68.0812 14.4386 983 167.483 704.804 466.008
948 0 70.1621 14.3525 1007 161.9 704.735 464.943
949 0 74.1414 14.3105 1061 162.247 704.594 463.589
950 0 77.1667 14.3067 1104 162.993 704.087 461.505
951 0 79.1059 14.5375 1150 170.446 704.547 459.77
952 0 82.0613 14.6476 1202 162.346 705.204 458.673
953 0 83.1203 15.0866 1254 169.246 704.967 457.64
954 0 88.0718 14.6358 1289 166.573 704.348 455.841
955 0 92.107 14.6677 1351 170.48 704.26 454.94
956 0 95.2174 14.4091 1372 151.15 703.78 452.847
957 0 98.2356 14.6485 1439 166.33 703.903 450.926
958 1 53.1981 14.0231 746 168.294 703.586 473.141
959 0 55.0691 13.4377 740 156.911 703.954 471.719
960 0 58.0554 13.8833 806 166.927 704.04 470.28
961 0 59.1933 13.7854 816 166.157 704.592 469.799
962 0 61.427 13.7399 844 165.857 704.579 468.502
963 0 63.1429 14.2059 897 167.817 703.887 467.719
964 0 66.2589 14.3377 950 170.676 704.202 466.626
965 0 67.2197 14.103 948 165.32 704.795 465.523
966 0 70.2306 14.2103 998 167.521 704.586 464.347
967 0 73.2763 13.8926 1018 170.777 704.835 463.391
968 0 74.4149 14.231 1059 168.314 705.655 462.351
969 0 77.4123 14.0934 1091 168.984 705.443 460.627
970 0 79.2203 14.2135 1126 163.614 705.474 459.036
971 0 81.5147 14.1938 1157 164.857 705.175 457.13
972 0 85.3534 14.1529 1208 165.403 705.636 454.631
973 1 48.2647 12.8044 618 170.948 705.6 472.934
974 0 52.2928 12.9081 675 161.324 705.193 471.676
975 0 55.1077 13.1016 722 158.747 705.152 470.924
976 0 56.2253 13.3392 750 156.637 705.6 469.704
977 0 57.1909 13.691 783 160.321 705.309 469.691
978 0 58.1625 13.3247 775 159.994 705.56 469.263
979 0 61.2304 13.3104 815 158.253 705.694 467.469
980 0 62.1104 13.8463 860 158.684 705.47 466.203
981 0 63.4016 14.0691 892 149.284 704.983 465.42
982 0 65.3257 13.67 893 151.103 705.271 464.048
983 0 68.2789 13.606 929 150.229 705.408 463.079
984 0 70.2418 13.8379 972 150.956 705.191 462.241
985 0 72.3302 14.2817 1033 153.59 705.733 460.176
986 0 74.3734 13.9969 1041 159.711 705.735 460.455
987 0 75.2884 14.3316 1079 161.509 705.735 459.589
988 0 77.1995 14.5726 1125 159.802 706.445 457.692
989 0 79.3036 14.4004 1142 157.757 707.349 456.698
990 0 83.2769 14.5899 1215 164.29 706.407 456.541
991 0 86.4071 14.5011 1253 152.678 705.876 454.654
992 0 90.3729 14.2853 1291 155.66 705.555 453.549
993 0 93.4021 14.2502 1331 149.805 705.406 452.418
994 0 96.1677 14.142 1360 157.474 705.238 450.535
995 0 98.2317 14.3029 1405 151.812 705.61 449.597
996 1 55.1098 12.956 714 156.479 706.139 470.422
997 0 58.2363 12.9472 754 163.379 705.797 470.11
998 0 59.2157 13.5606 803 153.712 706.798 468.999
999 0 62.1371 14.0979 876 66.2352 706.815 467.653
1000 0 63.2001 14.1614 895 155.124 706.739 466.927
1001 0 66.3368 14.0797 934 160.862 705.893 464.857
1002 0 67.2179 14.2224 956 157.872 706.118 464.341
1003 0 70.1219 14.1183 990 153.511 706.19 462.37
1004 0 71.1286 14.5792 1037 154.882 706.332 461.164
1005 0 76.3626 14.274 1090 155.184 706.279 461.159
1006 0 79.1097 14.4862 1146 158.012 706.221 458.308
1007 0 80.1607 14.9325 1197 152.395 706.491 457.432
1008 0 84.1944 14.2527 1200 160.564 706.827 455.958
1009 0 85.3654 14.5961 1246 159.837 706.453 454.537
1010 0 89.3634 14.3123 1279 163.01 706.016 452.491
1011 0 92.1322 14.8699 1370 160.896 706.659 450.904
1012 0 94.1955 14.7035 1385 158.331 705.936 448.532
1013 0 98.2074 14.3879 1413 166.032 705.936 447.619
1014 0 101.471 14.4868 1470 155.952 706.109 446.201
1015 0 104.447 14.5145 1516 164.698 705.732 444.865
1016 0 105.397 14.8676 1567 163.675 706.525 442.812
1017 0 107.303 15.0322 1613 162.353 706.218 439.995
1018 0 113.402 14.6558 1662 161.619 705.867 438.013
1019 0 116.556 14.6711 1710 157.275 705.504 436.614
1020 1 63.396 12.9504 821 164.923 706.229 462.172
1021 0 65.3175 13.5186 883 164.429 705.488 461.371
1022 0 71.1744 13.3897 953 157.015 705.946 463.463
1023 0 73.1617 13.2583 970 156.695 706.819 463.086
1024 0 75.1524 13.4527 1011 163.382 705.81 462.414
1025 0 76.1484 13.3424 1016 157.235 705.652 461.196
1026 0 81.6149 13.2084 1078 155.475 705.607 458.911
1027 0 82.3095 13.7773 1134 152.425 705.852 457.653
1028 0 87.3774 13.4932 1179 157.746 705.47 456.103
1029 0 87.4184 14.0016 1224 156.309 705.326 453.326
1030 0 93.4967 13.562 1268 153.823 705.934 451.072
1031 0 95.4343 13.9782 1334 160.003 706.102 449.574
1032 0 98.2161 14.2136 1396 159.314 706.017 448.82
1033 0 101.255 14.1227 1430 160.358 705.167 448.138
1034 0 105.565 14.1809 1497 162.617 705.54 446.733
1035 0 109.329 13.9853 1529 149.824 705.325 444.317
1036 0 113.466 13.8014 1566 156.482 704.668 442.683
1037 0 116.262 14.0287 1631 147.18 704.972 440.445
1038 0 119.385 13.9297 1663 161.141 704.972 438.229
1039 0 125.628 14.1369 1776 156.216 705.229 435.478
1040 0 126.547 13.9316 1763 155.468 705.243 434.003
1041 0 133.323 14.0186 1869 163.021 705.063 430.305
1042 1 77.2881 12.3693 956 155.838 705.001 459.438
1043 0 80.3463 12.8942 1036 156.35 704.842 459.048
1044 0 82.3513 12.7988 1054 160.89 705.914 457.511
1045 0 87.2917 12.8305 1120 157.277 705.698 456.663
1046 0 88.3242 12.5334 1107 155.048 705.611 454.226
1047 0 91.3722 12.9033 1179 162.242 705.455 452.439
1048 0 94.3213 12.9663 1223 161.684 705.124 450.993
1049 0 98.5608 12.7231 1254 159.615 705.092 450.03
1050 0 99.472 13.0489 1298 164.317 705.314 449.161
1051 0 102.396 13.0669 1338 158.996 704.989 447.259
1052 0 106.018 13.0921 1388 163.206 704.617 446.076
1053 0 109.821 13.176 1447 163.76 706.15 442.558
1054 0 113.706 13.3766 1521 166.712 706.278 439.24
1055 0 115.923 13.1122 1520 163.309 705.418 438.482
1056 0 120.859 13.4289 1623 150.651 704.99 436.931
1057 0 123.944 13.0866 1622 158.03 705.238 435.593
1058 0 129.997 13.3387 1734 160.127 704.861 431.797
1059 1 74.6995 11.5931 866 155.129 705.054 459.486
1060 0 76.6007 12.7022 973 151.247 705.446 457.999
1061 0 80.7415 13.3017 1074 154.352 705.755 456.218
1062 0 81.719 12.8734 1052 153.221 706.641 453.155
1063 0 82.6415 13.492 1115 150.001 705.822 451.234
1064 0 87.8121 13.0392 1145 158.493 705.752 449.837
1065 0 90.967 13.3125 1211 160.574 706.282 448.991
1066 0 93.8659 12.944 1215 159.444 706.406 448.271
1067 0 96.1575 13.2595 1275 149.45 706.159 446.482
1068 0 97.8596 13.7237 1343 150.904 705.971 443.078
1069 0 102.949 14.2595 1468 150.668 706.163 441.322
1070 0 106.868 13.4933 1442 159.732 705.925 439.705
1071 0 110.849 13.2613 1470 157.724 706.029 439.197
1072 0 112.814 12.9062 1456 163.107 706.078 437.007
1073 0 116.845 13.5136 1579 160.835 706.431 435.882
1074 0 120.91 13.7375 1661 156.915 705.744 434.119
1075 0 124.766 13.5374 1689 156.566 706.565 431.864
1076 0 127.816 13.5586 1733 155.684 706.48 431.499
1077 0 134.84 14.5951 1968 153.387 706.036 427.138
1078 0 138.915 13.735 1908 161.538 705.94 428.325
1079 0 142.845 13.6792 1954 151.518 705.668 425.875
1080 1 82.4261 11.4163 941 162.081 706.094 457.469
1081 0 83.408 12.3849 1033 155.008 706.298 456.263
1082 0 85.4081 13.4413 1148 156.067 705.899 455.571
1083 0 90.2428 13.4415 1213 153.544 706.458 452.577
1084 0 93.2796 13.9044 1297 152.625 706.433 451.678
1085 0 96.5676 13.6692 1320 152.689 706.69 449.555
1086 0 99.5987 13.2231 1317 159.787 706.762 448.817
1087 0 101.428 13.6648 1386 154.774 706.497 444.267
1088 0 105.759 13.5402 1432 162.524 706.295 444.765
1089 0 108.511 13.3074 1444 161.242 706.717 442.711
1090 0 111.699 13.7602 1537 159.621 706.753 441.569
1091 0 114.647 13.5285 1551 158.566 706.397 439.907
1092 1 63.3969 11.3097 717 155.749 707.13 465.914
1093 0 64.6998 11.3911 737 154.423 706.558 461.514
1094 0 65.859 12.1168 798 148.956 706.482 460.617
1095 0 69.3872 12.1204 841 146.806 706.719 462.13
1096 0 72.3599 11.8021 854 153.041 706.043 462.705
1097 0 74.4393 11.8083 879 152.35 705.435 462.215
1098 0 75.3677 11.7159 883 141.016 705.746 460.771
1099 0 75.6829 12.6977 961 151.563 706.805 457.838
1100 0 79.4322 12.048 957 152.18 705.809 458.836
1101 0 81.3681 11.7859 959 152.321 706.053 458.283
1102 0 84.5998 12.2695 1038 153.355 705.417 455.75
1103 0 87.8288 12.2625 1077 143.972 706.093 454.334
1104 0 91.6974 12.1923 1118 147.077 705.87 453.592
1105 0 93.7867 12.6777 1189 147.607 706.014 451.246
1106 0 97.6242 12.2203 1193 151.637 705.893 448.453
1107 0 99.6528 12.0318 1199 150.988 705.796 448.204
1108 0 100.367 12.4343 1248 145.161 705.352 446.327
1109 0 105.808 12.3053 1302 148.538 705.615 442.287
1110 0 107.902 12.1407 1310 149.025 706.558 440.7
1111 1 58.4585 9.87024 577 140.693 706.348 467
1112 0 61.6775 10.0036 617 144.496 706.676 466.771
1113 0 63.4961 10.3314 656 136.471 705.759 465.909
1114 1 36.3114 8.09662 294 127.803 705.98 479.854
1115 0 39.5077 8.68185 343 134.376 705.673 475.79
1116 0 37.2367 7.84173 292 132.096 706.247 479.373
1117 0 39.4245 7.27974 287 125.735 706.373 478.958
1118 0 37.3743 6.90314 258 130.116 706.461 479.031
1119 0 47.6066 8.25516 393 130.588 706.102 473.611
1120 0 47.8278 8.99059 430 135.995 705.949 472.967
1121 0 45.5691 8.16343 372 128.403 704.497 473.148
1122 0 44.4783 8.20624 365 127.353 704.189 471.762
1123 0 50.7999 8.36615 425 132.346 704.576 470.045
1124 0 50.5216 8.11534 410 135.878 704.505 469.563
1125 0 54.7498 9.69866 531 128.235 704.104 467.706
1126 0 54.4713 8.9772 489 134.027 704.783 467.708
1127 0 55.6649 9.5033 529 124.403 704.907 468.357
1128 0 56.8138 9.48714 539 132.05 704.278 465.224
1129 0 55.5583 10.3135 573 132.764 704.632 464.154
1130 0 57.5771 10.3687 597 137.035 704.186 464.538
1131 0 59.6 10.151 605 135.926 704.435 463.828
1132 0 61.8362 10.8998 674 133.062 704.617 462.545
1133 0 63.8076 11.566 738 136.088 704.794 460.481
1134 0 66.1531 12.1083 801 129.544 705.175 460.417
1135 0 68.8901 11.6708 804 132.347 705.23 460.28
1136 0 68.8755 12.5008 861 137.582 704.591 457.491
1137 0 71.7542 11.7624 844 140.083 704.506 457.255
1138 0 73.769 12.5256 924 140.642 704.615 457.314
1139 0 75.9297 12.0638 916 139.455 704.441 456.832
1140 0 77.8957 12.4782 972 135.667 704.912 455.486
1141 0 79.0456 12.5371 991 134.312 704.807 452.707
1142 0 80.7461 12.3226 995 133.989 705.002 452.273
1143 0 84.7371 12.0844 1024 134.655 704.541 451.474
1144 0 85.5577 12.6698 1084 140.19 705.021 449.069
1145 0 87.7485 12.513 1098 138.668 704.884 448.928
1146 0 90.7763 12.2389 1111 140.771 705.077 448.537
1147 0 92.8704 12.6305 1173 140.454 704.887 446.673
1148 0 96.6997 12.544 1213 141.759 704.52 444.482
1149 0 98.7812 12.7757 1262 143.006 704.788 443.219
1150 0 101.738 12.5911 1281 48.1983 704.664 442.059
1151 1 55.4747 9.7522 541 140.486 704.778 464.059
1152 0 59.4805 9.51573 566 140.742 704.731 463.357
1153 0 58.2872 9.76201 569 136.638 705.371 462.666
1154 0 62.3988 10.3688 647 138.742 705.606 461.185
1155 0 62.1659 10.8902 677 137.025 706.555 459.768
1156 0 66.0901 11.0758 732 139.001 703.892 460.612
1157 0 67.2229 11.9007 800 134.54 703.931 459.166
1158 0 70.291 12.121 852 137.813 703.526 458.765
1159 0 71.1779 12.1667 866 136.107 703.276 457.072
1160 0 74.1353 12.2074 905 144.949 702.975 456.785
1161 0 79.2261 12.8998 1022 145.84 704.179 455.845
1162 0 78.184 12.6113 986 144.499 705.332 453.913
1163 0 83.1898 12.3332 1026 146.036 704.896 453.031
1164 0 84.4125 12.4982 1055 141.415 704.692 450.74
1165 0 86.3702 12.8053 1106 140.51 705.323 445.796
1166 0 90.5933 12.7272 1153 140.583 705.136 443.41
1167 0 92.7505 13.2937 1233 143.83 705.084 441.775
1168 0 96.7134 12.6249 1221 145.322 705.172 441.672
1169 0 100.604 13.0313 1311 140.458 705.402 439.738
1170 1 52.2078 10.8413 566 146.996 704.592 464.717
1171 0 56.1212 11.9919 673 149.012 703.718 465.672
1172 0 56.0444 11.705 656 154.764 705.172 464.904
1173 0 57.085 12.0697 689 151.676 704.726 463.282
1174 0 60.2149 11.9904 722 142.094 704.463 463.055
1175 0 62.2188 12.1828 758 144.073 705.933 459.639
1176 0 64.1336 11.8658 761 159.648 705.331 461.698
1177 0 66.0463 12.037 795 151.026 705.242 460.302
1178 0 68.5223 12.3026 843 147.346 704.911 458.951
1179 0 74.3768 12.9207 961 146.066 705.42 461.375
1180 0 75.386 12.7875 964 143.368 705.171 460.51
1181 0 79.417 12.768 1014 148.173 705.295 459.891
1182 0 81.7272 12.9822 1061 151.167 705.585 457.894
1183 0 82.7084 13.0458 1079 143.888 705.673 455.23
1184 0 88.0446 12.9821 1143 147.89 706.079 452.341
1185 0 87.6424 13.5094 1184 152.699 706.271 451.143
1186 0 89.7133 13.5209 1213 153.421 706.248 448.894
1187 0 92.944 13.5673 1261 149.387 706.807 447.18
1188 0 96.9247 13.072 1267 147.705 706.493 447.71
1189 0 100.965 13.6284 1376 147.043 706.515 445.017
1190 1 58.7441 10.8096 635 154.62 707.076 466.77
1191 0 55.4006 11.1371 617 148.099 707.002 467.496
1192 0 59.4015 11.5317 685 149.797 705.927 469.013
1193 0 60.2023 12.4082 747 146.858 705.08 468.59
1194 0 62.2158 12.3763 770 151.973 704.943 466.792
1195 0 65.309 12.7088 830 148.341 705.576 464.61
1196 0 67.2965 12.2592 825 148.434 705.846 463.948
1197 0 69.2271 12.8418 889 144.443 705.702 461.894
1198 0 72.3501 12.4395 900 142.991 705.268 460.261
1199 0 73.3378 13.3219 977 135.092 705.214 458.436
1200 0 76.3222 12.9844 991 149.56 705.626 457.596
1201 0 77.2471 12.7254 983 146.18 705.555 457.699
1202 0 82.2857 12.7726 1051 146.708 706.546 455.562
1203 0 83.2285 12.724 1059 146.818 706.033 454.234
1204 0 83.164 12.9864 1080 147.142 705.368 453.869
1205 0 85.3186 12.9632 1106 140.616 705.656 451.7
1206 0 89.2437 12.4939 1115 149.397 705.97 451.982
1207 0 91.1366 13.4743 1228 145.878 705.856 450.906
1208 0 93.6956 13.181 1235 148.14 705.767 448.804
1209 0 96.359 12.744 1228 147.01 705.244 445.572
1210 0 99.4428 12.9723 1290 142.784 705.282 443.603
1211 0 101.334 12.9275 1310 143.825 705.075 442.373
1212 1 58.2198 10.5978 617 142.854 704.624 466.196
1213 0 61.0857 11.2629 688 146.158 704.706 464.475
1214 0 64.13 11.9133 764 153.339 704.513 462.454
1215 0 65.1742 12.4743 813 138.689 704.514 460.772
1216 0 65.0407 12.2539 797 143.799 704.892 458.336
1217 0 67.2204 12.3177 828 144.391 704.789 456.955
1218 0 67.034 12.7696 856 131.082 705.037 455.877
1219 0 71.0983 12.5179 890 146.34 704.906 454.207
1220 0 73.2491 12.5735 921 148.225 704.992 453.935
1221 0 75.1728 13.1564 989 144.869 705.542 453.169
1222 0 77.0529 13.1728 1015 147.866 705.119 452.29
1223 0 79.1844 13.8032 1093 150.624 705.488 451.31
1224 0 83.1088 13.2958 1105 145.286 705.596 450.783
1225 0 84.0926 14.044 1181 157.801 706.086 449.795
1226 0 89.09 13.7277 1223 162.426 705.702 449.353
1227 0 93.2183 13.9136 1297 158.655 705.004 448.343
1228 0 95.1713 14.0063 1333 156.233 705.464 447.196
1229 0 98.3167 14.2702 1403 164.816 705.983 445.125
1230 0 102.318 14.3865 1472 157.433 706.287 443.48
1231 0 103.292 14.4832 1496 161.766 705.817 441.778
1232 0 107.118 13.8539 1484 163.517 705.833 438.874
1233 0 110.396 13.7143 1514 163.098 706.179 438.047
1234 1 59.1387 12.3608 731 164.031 705.856 461.692
1235 0 61.1154 12.5828 769 160.401 705.835 461.241
1236 0 62.1202 12.9265 803 162.75 706.625 460.054
1237 0 64.149 12.6736 813 158.529 706.828 459.653
1238 0 67.1689 13.2651 891 168.651 706.952 458.375
1239 0 68.3365 13.3311 911 155.557 706.416 457.136
1240 0 71.2445 13.2782 946 160.962 707.561 454.942
1241 0 72.1456 13.6945 988 165.481 707.503 454.217
1242 0 74.1717 14.426 1070 155.151 706.767 453.496
1243 0 76.1985 14.016 1068 165.732 707.222 452.349
1244 0 82.4529 14.1414 1166 160.498 707.292 450.271
1245 0 81.289 13.9748 1136 163.384 706.113 450.619
1246 0 85.2794 13.8252 1179 160.067 705.705 449.794
1247 0 86.3085 14.1585 1222 161.583 705.944 447.547
1248 0 90.5903 14.0523 1273 159.98 706.184 447.218
1249 0 93.3296 14.122 1318 160.158 706.539 446.388
1250 0 94.7706 14.3926 1364 156.328 705.625 444.438
1251 0 100.757 14.9866 1510 151.268 706.131 440.842
1252 0 100.534 14.1047 1418 161.035 706.121 441.358
1253 0 103.774 13.8377 1436 156.373 705.994 437.75
1254 0 106.303 14.7221 1565 153.203 706.72 436.768
1255 1 63.2406 12.2232 773 149.849 705.692 459.688
1256 0 64.2334 12.5169 804 154.372 707.274 457.993
1257 0 68.2537 12.7173 868 158.764 706.935 457.507
1258 0 71.5684 13.1203 939 156.14 705.876 457.475
1259 0 72.4406 13.2522 960 159.227 706.302 457.392
1260 0 75.4766 13.3684 1009 156.176 706.08 455.916
1261 0 78.6496 13.1851 1037 162.707 706.598 455.023
1262 0 79.4916 13.2718 1055 158.052 705.68 454.026
1263 0 82.4374 13.671 1127 161.002 706.208 454.26
1264 0 84.3298 13.886 1171 164.26 706.213 452.057
1265 0 86.3795 13.9153 1202 163.439 706.315 450.314
1266 0 91.6137 13.2622 1215 155.929 705.877 449.62
1267 0 92.6561 13.6958 1269 156.429 706.69 447.232
1268 0 98.5447 13.8313 1363 164.99 706.073 446.168
1269 0 102.418 13.689 1402 163.763 706.211 444.835
1270 1 59.1462 11.4462 677 153.445 705.99 465.746
1271 0 59.1908 12.0627 714 151.543 706.043 465.378
1272 0 62.2196 11.7969 734 140.787 705.798 464.095
1273 0 64.2733 12.1512 781 149.749 706.507 463.968
1274 0 65.3586 12.3167 805 151.21 707.047 462.749
1275 0 66.2491 11.9549 792 150.064 706.557 462.726
1276 0 70.2504 12.128 852 151.732 706.506 460.881
1277 0 70.3051 12.5453 882 157.277 706.57 459.772
1278 0 75.221 12.5098 941 153.165 706.463 457.984
1279 0 77.2317 12.6503 977 159.448 706.778 457.52
1280 0 80.3937 12.4139 998 153.238 706.275 456.514
1281 0 82.352 12.5437 1033 156.608 706.305 454.041
1282 0 83.2366 12.4465 1036 156.883 706.458 452.807
1283 0 88.4886 12.3858 1096 158.591 706.505 451.932
1284 0 89.5903 13.0818 1172 151.152 707.181 449.36
1285 0 93.4003 12.4732 1165 148.315 706.599 448.408
1286 1 53.3886 9.94594 531 139.91 706.791 469.318
1287 0 55.1901 10.799 596 144.393 707.448 467.733
1288 0 56.03 11.3511 636 147.53 708.113 467.371
1289 0 56.0665 11.5934 650 152.36 707.972 466.843
1290 0 59.0801 11.5098 680 148.656 707.768 465.557
1291 0 60.0551 11.6227 698 145.905 708.132 465.009
1292 0 62.1443 11.8756 738 144.15 708.172 463.062
1293 0 64.1813 11.7947 757 136.937 708.157 462.987
1294 0 65.104 12.0423 784 141.832 708.621 460.698
1295 0 68.1805 11.6309 793 140.059 708.623 460.874
1296 0 68.1223 12.1399 827 131.82 707.946 459.838
1297 0 71.271 12.249 873 136.346 708.132 459.601
1298 0 72.1214 11.9105 859 137.661 708.106 458.689
1299 0 74.2002 12.1293 900 128.372 708.266 457.597
1300 0 79.2027 12.3481 978 136.887 708.222 455.929
1301 0 80.2368 12.0518 967 134.741 708.654 455.174
1302 0 83.0989 12.0579 1002 131.837 709.979 452.821
1303 0 84.2066 12.3031 1036 137.06 710.613 451.182
1304 0 86.1755 12.0452 1038 131.547 709.975 450.73
1305 0 88.1283 12.1527 1071 141.814 709.165 450.455
1306 0 91.178 11.8998 1085 136.941 708.571 449.081
1307 0 93.2652 12.0409 1123 137.865 708.969 447.24
1308 0 97.284 11.8827 1156 135.689 708.292 446.413
1309 0 98.3815 11.9738 1178 134.51 708.237 444.61
1310 0 102.438 12.5637 1287 128.834 708.439 441.431
1311 0 106.425 12.4689 1327 133.69 708.162 440.822
1312 1 64.409 9.22232 594 143.335 707.65 464.052
1313 0 67.2937 10.209 687 135.47 707.645 461.652
1314 0 67.2653 10.1538 683 138.681 707.492 461.426
1315 0 70.4333 11.0885 781 139.711 707.365 460.353
1316 0 71.4898 11.7779 842 131.639 706.696 457.039
1317 0 74.5068 12.0794 900 144.813 707.993 454.778
1318 0 74.3838 11.9381 888 132.855 708.001 455.071
1319 0 78.4235 12.356 969 137.294 708.708 453.8
1320 0 82.3211 12.3784 1019 141.054 707.971 452.359
1321 0 83.4088 12.3129 1027 139.373 708.314 451.071
1322 0 84.563 12.8661 1088 136.614 708.892 448.964
1323 0 87.4872 12.6761 1109 142.766 708.519 448.073
1324 0 89.3007 12.8442 1147 135.654 707.86 447.801
1325 0 93.4684 12.9883 1214 143.227 708.801 445.879
1326 0 96.5789 12.8289 1239 140.056 707.949 445.194
1327 1 54.2993 9.8528 535 139.561 708.804 466.338
1328 0 55.2318 10.1934 563 146.32 708.966 464.183
1329 0 56.2947 11.0668 623 145.201 709.22 464.873
1330 0 59.2422 11.0394 654 142.865 709.196 464.306
1331 0 61.2749 11.5055 705 142.616 708.864 461.226
1332 0 61.1576 12.0672 738 137.102 709.645 461.94
1333 0 63.115 11.7563 742 136.226 709.655 461.447
1334 0 66.2105 11.8863 787 140.535 709.319 460.315
1335 0 67.1275 12.4539 836 140.897 709.31 459.169
1336 0 68.1403 12.533 854 140.42 709.683 457.493
1337 0 69.0978 12.4751 862 141.644 709.561 456.933
1338 0 72.031 12.5501 904 135.421 709.544 456.338
1339 0 75.0622 12.856 965 153.896 709.496 454.839
1340 0 77.0971 13.282 1024 147.596 709.601 454.889
1341 0 80.0432 12.9555 1037 150.536 709.44 453.179
1342 0 83.1175 13.3907 1113 152.35 709.661 451.583
1343 0 82.1055 13.5557 1113 151.658 709.284 450.638
1344 0 87.0974 13.4677 1173 150.936 709.119 448.584
1345 0 90.0771 14.5653 1312 154.456 708.961 446.534
1346 0 92.0816 13.488 1242 148.094 709.353 447.256
1347 0 93.2846 13.3998 1250 159.8 709.976 446.703
1348 0 97.226 13.1755 1281 165.744 708.567 446.541
1349 0 99.2022 12.6711 1257 163.473 708.708 444.979
1350 0 102.302 12.5902 1288 157.383 708.477 442.262
1351 0 106.158 13.2255 1404 157.108 708.196 441.353
1352 0 107.307 13.0747 1403 163.238 708.235 440.115
1353 1 59.1169 11.6718 690 156.98 709.884 464.526
1354 0 60.1122 11.5451 694 158.295 708.219 463.682
1355 0 63.0821 12.5234 790 153.343 708.803 462.505
1356 0 64.0952 12.6999 814 150.343 709.377 461.756
1357 1 66.212 12.4751 826 157.464 708.781 451.965
1358 0 68.5271 12.6519 867 152.031 708.931 457.337
1359 0 69.4546 13.2317 919 150.651 708.802 455.423
1360 0 73.3323 13.0093 954 149.931 708.438 454.818
1361 0 74.4185 12.8328 955 149.428 708.4 454.363
1362 0 76.2829 13.3713 1020 154.726 708.849 453.692
1363 0 79.2555 13.3366 1057 155.619 710.074 451.417
1364 0 83.3763 13.2772 1107 158.41 710.045 449.904
1365 0 84.3427 13.2673 1119 156.337 709.363 450.512
1366 0 88.2228 13.2505 1169 154.76 709.052 450.014
1367 0 88.2089 13.5814 1198 153.29 708.824 448.102
1368 0 92.2434 13.1934 1217 161.332 709.065 449.376
1369 0 95.1967 13.3828 1274 154.039 708.995 446.58
1370 0 96.3279 13.7447 1324 155.317 709.076 443.905
1371 0 99.4547 13.6243 1355 155.326 707.267 444.014
1372 0 101.409 13.835 1403 164.408 708.053 442.51
1373 0 105.403 13.6903 1443 153.432 708.297 441.182
1374 0 108.58 13.5476 1471 158.651 708.747 436.792
1375 1 58.4504 12.0444 704 162.004 709.232 461.162
1376 0 61.1822 12.7978 783 160.498 708.571 461.814
1377 0 64.3104 12.9684 834 160.188 707.837 462.568
1378 0 63.245 13.2659 839 159.052 707.794 462.269
1379 0 67.3524 13.1547 886 161.427 707.869 460.286
1380 0 69.3239 13.4153 930 158.495 707.99 459.066
1381 0 70.2787 13.2473 931 149.638 708.453 458.655
1382 0 72.2519 13.19 953 156.063 708.541 457.419
1383 0 74.1623 13.7267 1018 157.894 708.527 456.972
1384 0 77.3079 13.5821 1050 151.985 708.222 456.504
1385 0 79.3814 14.1091 1120 161.128 707.881 455.657
1386 0 79.3698 13.96 1108 153.315 707.986 454.94
1387 0 84.4261 13.5266 1142 148.258 708.943 452.861
1388 0 84.3658 14.046 1185 154.374 708.648 451.721
1389 0 89.3506 13.3071 1189 155.957 708.691 451.861
1390 0 91.6318 14.0453 1287 156.453 708.521 450.035
1391 0 95.3278 13.5742 1294 156.668 708.556 448.596
1392 0 96.369 14.1332 1362 157.741 708.683 445.985
1393 0 101.357 14.079 1427 156.113 708.257 444.542
1394 0 103.502 14.135 1463 155.366 708.506 443.754
1395 0 107.376 14.1279 1517 158.125 708.229 442.055
1396 0 110.395 13.7416 1517 156.084 709.073 440.869
1397 0 113.345 14.2309 1613 154.443 708.225 438.906
1398 1 63.1615 12.1593 768 151.323 708.6 464.329
1399 0 66.2177 12.5646 832 155.962 707.552 463.816
1400 0 69.1689 12.7659 883 154.32 708.795 462.359
1401 0 70.3349 12.995 914 150.049 708.562 461.942
1402 0 72.2469 12.8033 925 153.649 708.13 460.866
1403 0 74.2183 12.7597 947 164.795 708.073 460.262
1404 0 76.2397 12.8017 976 157.192 707.635 458.386
1405 0 78.5008 13.312 1045 160.732 706.567 458.903
1406 0 81.3408 12.798 1041 156.91 707.085 457.494
1407 0 83.3771 13.4449 1121 157.79 707.782 456.279
1408 0 86.4777 13.5295 1170 158.079 707.923 454.791
1409 0 87.5242 13.402 1173 154.743 708.19 453.639
1410 0 91.3596 13.8464 1265 158.251 707.443 452.203
1411 0 92.5213 13.6833 1266 156.239 708.423 451.155
1412 0 96.364 13.5631 1307 164.914 708.009 449.779
1413 0 99.4882 13.9112 1384 166.095 708.072 448.53
1414 0 103.803 13.4775 1399 164.462 708.445 446.647
1415 0 105.609 14.0612 1485 162.613 707.545 444.923
1416 0 109.551 14.0757 1542 166.613 707.128 444.389
1417 0 112.444 13.5978 1529 167.293 706.411 442.455
1418 0 113.357 13.8854 1574 170.405 707.312 441.585
1419 1 63.2457 12.5858 796 163.931 707.175 467.981
1420 0 65.2521 13.0264 850 166.626 706.02 467.587
1421 0 67.1905 13.112 881 158.487 705.287 466.809
1422 0 69.169 12.9827 898 163.712 705.53 464.769
1423 0 70.1707 13.4672 945 165.253 705.314 463.834
1424 0 74.1019 13.5894 1007 162.505 705.841 463.485
1425 0 77.2102 13.5215 1044 168.827 706.223 462.151
1426 0 78.2182 13.8331 1082 160.589 705.338 461.694
1427 0 80.2183 13.5879 1090 162.845 705.539 459.855
1428 0 82.2504 13.9574 1148 160.886 706.4 457.059
1429 0 85.3176 13.9127 1187 160.133 705.155 457.069
1430 0 89.246 14.0959 1258 169.487 705.977 456.963
1431 0 89.4936 14.2356 1274 164.648 706.005 454.531
1432 0 93.368 14.2233 1328 160.918 706.111 452.685
1433 0 97.3853 13.6468 1329 165.531 705.633 452.831
1434 0 100.374 13.7586 1381 147.687 704.881 449.666
1435 0 102.419 14.2064 1455 164.935 704.688 450.686
1436 0 107.411 13.8999 1493 159.601 705.024 447.567
1437 0 110.285 14.1089 1556 160.103 704.82 446.238
1438 1 63.2608 12.1402 768 159.818 704.382 470.602
1439 0 65.1503 12.4481 811 152.855 703.999 469.261
1440 0 68.0739 13.2356 901 157.282 703.402 465.845
1441 0 69.1942 12.819 887 159.023 704.14 466.214
1442 0 72.1068 13.1056 945 157.195 703.392 464.405
1443 0 72.0669 13.2793 957 160.944 703.461 464.146
1444 0 75.2752 13.351 1005 153.313 703.065 461.333
1445 0 77.1977 13.3942 1034 158.017 702.829 461.054
1446 0 80.2433 13.5837 1090 157.6 704.546 460.618
1447 0 83.2543 13.7891 1148 157.798 704.215 459.128
1448 0 85.2058 13.3794 1140 154.577 704.798 457.299
1449 0 87.166 13.5259 1179 152.184 703.664 456.553
1450 0 89.3975 13.8371 1237 149.578 704.648 454.867
1451 0 92.381 13.4551 1243 156.999 704.426 452.735
1452 0 94.2611 13.4414 1267 152.275 704.694 451.684
1453 0 97.3153 13.893 1352 150.953 704.143 449.99
1454 0 100.283 13.4319 1347 151.395 705.126 448.336
1455 0 104.283 13.4922 1407 147.981 705.522 446.2
1456 0 106.528 13.1609 1402 149.231 705.601 445.693
1457 0 110.453 13.4808 1489 150.954 705.36 444.647
1458 0 113.307 13.6002 1541 145.444 705.597 441.9
1459 0 116.345 13.6834 1592 151.935 706.187 439.281
1460 1 64.2342 11.5359 741 153.188 706.494 464.143
1461 0 69.2692 11.8523 821 147.027 705.481 465.22
1462 0 72.2065 12.2981 888 149.537 705.043 463.22
1463 0 73.2126 12.5798 921 143.999 705.059 461.041
1464 0 75.4264 12.9398 976 146.745 704.988 459.314
1465 0 77.28 13.6646 1056 149.967 706.009 456.859
1466 0 79.5294 13.429 1068 146.067 706.555 455.508
1467 0 82.5156 13.3551 1102 148.242 706.313 453.393
1468 0 84.4015 13.3291 1125 151.262 706.153 452.257
1469 0 87.4925 13.3954 1172 144.071 706.536 451.463
1470 0 89.3896 13.6929 1224 149.603 706.455 450.036
1471 0 92.3374 14.1438 1306 150.59 706.595 448.331
1472 0 96.683 14.1287 1366 148.152 707.157 447.3
1473 0 96.5139 13.5732 1310 157.088 705.986 446.639
1474 0 101.335 13.6675 1385 154.771 706.511 444.456
1475 0 105.465 13.5874 1433 153.409 707.66 442.956
1476 0 108.535 14.189 1540 153.292 708.158 441.193
1477 0 111.372 13.9442 1553 156.287 708.319 439.713
1478 0 117.347 13.9501 1637 156.841 708.902 437.425
1479 0 121.482 13.6975 1664 147.64 709.117 436.747
1480 1 65.117 11.8095 769 147.199 708.524 464.204
1481 0 67.063 12.287 824 149.743 708.262 463.433
1482 0 69.1038 12.3437 853 145.972 708.708 461.837
1483 0 72.1767 12.0399 869 152.044 708.9 461.895
1484 0 73.3223 12.3564 906 150.269 708.881 460.795
1485 0 77.2133 12.4979 965 153.339 708.328 459.284
1486 0 78.1466 12.5277 979 159.252 708.313 457.568
1487 0 81.2455 12.7638 1037 160.959 708.084 457.039
1488 0 83.224 13.0251 1084 162.011 707.903 456.504
1489 0 86.1981 12.9701 1118 154.507 708.373 455.244
1490 0 87.2797 13.0729 1141 157.189 707.5 452.524
1491 0 91.2651 12.765 1165 157.736 707.11 450.824
1492 0 93.2805 13.1432 1226 162.254 707.212 449.855
1493 0 97.3453 13.0463 1270 154.628 707.3 448.456
1494 0 99.3458 13.1863 1310 157.035 707.144 447.151
1495 0 102.511 12.8669 1319 156.747 706.66 445.139
1496 0 105.273 13.4032 1411 164.563 707.374 443.759
1497 0 108.325 13.1641 1426 161.182 707.17 442.515
1498 0 111.321 13.259 1476 153.636 706.558 438.85
1499 0 115.317 13.077 1508 154.827 706.386 437.775
1500 0 119.307 14.4082 1719 151.859 706.104 433.419
1501 0 121.385 12.9093 1567 166.542 705.769 433.548
1502 1 65.0562 11.8052 768 155.665 705.587 463.322
1503 0 69.2212 12.3228 853 158.416 706.768 462.124
1504 0 71.2346 12.4939 890 154.479 706.636 462.734
1505 0 72.237 13.165 951 150.472 706.814 460.155
1506 0 75.2743 12.9526 975 160.343 706.363 459.12
1507 0 78.0848 12.5376 979 154.255 706.225 459.316
1508 0 78.1668 13.1002 1024 151.442 706.371 458.597
1509 0 83.2781 12.5363 1044 150.551 706.472 457.165
1510 0 84.383 13.3558 1127 152.311 706.186 455.882
1511 0 88.205 13.2305 1167 156.697 706.159 454.439
1512 0 88.3048 13.544 1196 153.559 706.27 452.229
1513 0 94.2356 13.0948 1234 155.216 705.915 451.835
1514 0 98.3729 13.0524 1284 154.394 705.814 450.212
1515 0 99.2709 13.1962 1310 148.556 706.544 449.033
1516 0 103.297 13.4757 1392 152.664 705.935 446.093
1517 0 105.288 13.0973 1379 151.767 705.718 446.63
1518 0 109.34 13.1151 1434 148.04 705.956 444.465
1519 0 111.403 13.1235 1462 150.832 704.955 442.7
1520 0 113.357 13.5325 1534 154.495 704.42 442.162
1521 0 117.382 13.4688 1581 153.569 705.269 439.799
1522 0 121.519 13.2079 1605 151.301 705.318 437.912
1523 0 125.493 13.196 1656 151.594 704.991 435.872
1524 0 129.514 13.5275 1752 155.797 705.005 435.242
1525 0 132.442 13.304 1762 152.603 704.913 434.325
1526 1 72.3215 11.2553 814 159.189 704.248 463.905
1527 0 73.2657 12.1066 887 156.684 703.113 461.08
1528 0 78.2233 12.5027 978 151.64 703.409 457.826
1529 0 81.1469 12.8656 1044 149.151 704.098 458.226
1530 0 82.096 13.3015 1092 146.918 704.288 457.201
1531 0 85.4182 13.5334 1156 153.054 705.004 456.587
1532 0 88.3074 13.1699 1163 152.58 704.054 456.497
1533 0 90.1615 13.3871 1207 153.494 704.606 453.896
1534 0 92.3883 13.2809 1227 148.17 705.275 452.452
1535 0 96.4867 13.4112 1294 147.453 704.423 450.925
1536 0 100.31 13.4483 1349 150.795 704.712 449.096
1537 0 102.507 13.8527 1420 153.425 704.386 446.548
1538 0 106.386 13.8835 1477 147.399 705.567 443.883
1539 0 110.248 13.6148 1501 150.088 705.863 444.699
1540 0 113.236 13.4763 1526 151.159 705.501 442.164
1541 0 117.244 13.6127 1596 154.799 704.914 441.753
1542 0 119.384 13.8628 1655 154.821 705.789 439.689
1543 0 123.35 13.5225 1668 154.885 705.218 437.212
1544 0 129.395 13.4781 1744 152.109 704.578 434.693
1545 0 131.49 13.8794 1825 153.79 705.287 433.335
1546 0 136.351 13.612 1856 150.158 704.84 432.078
1547 1 77.091 13.3479 1029 153.517 705.85 460.416
1548 0 81.1647 13.5404 1099 140.051 706.294 461.258
1549 0 82.1566 13.8516 1138 134.878 706.041 459.465
1550 0 85.1222 13.7097 1167 129.462 705.584 457.494
1551 0 88.2395 14.064 1241 129.42 705.412 455.865
1552 0 91.2679 13.8822 1267 135.271 705.988 455.112
1553 0 94.2617 13.7702 1298 141.049 705.861 454.016
1554 0 98.2533 13.9741 1373 158.178 705.371 451.798
1555 0 99.1986 14.224 1411 169.344 705.709 449.663
1556 0 104.216 13.8271 1441 165.019 705.582 447.831
1557 0 106.297 14.2808 1518 161.745 705.389 447.464
1558 0 107.283 14.336 1538 165.234 705.535 445.705
1559 0 110.485 14.5903 1612 161.859 705.047 441.424
1560 0 113.449 13.874 1574 171.524 705.166 439.496
1561 0 116.438 14.1707 1650 168.451 705.251 435.039
1562 0 119.72 13.9325 1668 165.187 705.482 434.448
1563 0 124.755 14.4843 1807 165.727 705.689 433.179
1564 0 127.45 14.1232 1800 165.996 705.953 431.739
1565 0 131.412 14.1691 1862 163.231 705.89 431.286
1566 0 137.461 13.8003 1897 166.309 706.185 428.317
1567 1 74.1648 13.052 968 169.959 705.892 459.939
1568 0 78.1959 13.0953 1024 163.828 706.572 459.191
1569 0 77.2577 13.2673 1025 170.082 707.502 457.304
1570 0 80.2457 13.5584 1088 164.456 706.91 455.453
1571 0 83.2369 13.6959 1140 162.427 706.715 453.363
1572 0 86.4616 13.613 1177 161.76 706.091 450.321
1573 0 90.5727 13.4257 1216 168.296 706.361 451.444
1574 0 92.5466 13.9822 1294 167.993 706.484 449.005
1575 0 97.646 13.9279 1360 166.545 706.819 447.336
1576 0 98.7236 13.9075 1373 162.897 706.668 445.779
1577 0 100.571 13.7913 1387 159.787 706.545 444.198
1578 0 102.47 14.1309 1448 161.291 706.118 442.235
1579 0 106.639 14.0099 1494 164.044 706.297 440.443
1580 0 109.774 13.7828 1513 160.436 706.421 439.404
1581 0 112.704 14.0634 1585 165.462 706.045 436.809
1582 0 115.776 13.9666 1617 161.121 706.252 435.726
1583 0 120.488 14.1176 1701 164.472 706.564 433.472
1584 0 123.675 13.8508 1713 160.635 707.008 432.44
1585 1 68.4579 11.7883 807 165.812 707.193 459.765
1586 0 69.5906 13.0621 909 156.331 707.363 458.569
1587 0 71.6041 12.9043 924 156.055 707.129 457.196
1588 0 74.373 13.1903 981 155.98 706.905 455.988
1589 0 77.575 13.0841 1015 157.445 707.674 454.953
1590 0 77.6276 12.9722 1007 154.723 707.826 455.033
1591 0 82.6312 13.0459 1078 163.112 707.289 453.203
1592 0 83.453 13.4687 1124 155.867 707.651 451.646
1593 0 87.4637 13.2169 1156 157.897 707.349 449.915
1594 0 90.4698 13.3636 1209 159.233 707.069 447.209
1595 0 94.5671 13.1124 1240 147.119 707.266 446.245
1596 0 94.3741 13.5736 1281 160.432 707.004 444.4
1597 0 98.3748 13.1131 1290 159.203 706.736 443.21
1598 0 102.376 13.3333 1365 155.337 707.051 441.463
1599 0 106.462 13.1785 1403 160.793 706.825 440.892
1600 0 108.48 13.3665 1450 160.266 706.507 440.075
1601 0 111.445 13.8364 1542 151.016 706.941 437.953
1602 0 114.387 13.9439 1595 154.297 706.548 438.244
1603 0 118.258 13.4368 1589 158.4 706.342 436.49
1604 0 122.369 13.7208 1679 154.995 706.924 434.22
1605 0 125.329 13.8675 1738 152.397 706.639 432.917
1606 0 130.421 13.5331 1765 153.484 706.71 431.058
1607 0 135.412 13.5438 1834 157.464 707.003 428.772
1608 0 140.504 13.8999 1953 161.183 706.735 426.757
1609 0 145.37 13.7236 1995 153.961 706.8 424.943
1610 0 149.331 13.6877 2044 159.551 706.907 422.395
1611 0 156.363 14.025 2193 161.339 706.175 421.419
1612 0 162.364 13.7038 2225 158.889 706.294 420.109
1613 1 92.3152 12.6523 1168 156.415 706.034 453.096
1614 0 95.4432 13.1492 1255 156.365 705.794 452.029
1615 0 97.3983 13.5218 1317 50.2794 706.195 451.917
1616 0 103.575 12.9374 1340 158.969 706.175 449.128
1617 0 105.611 13.313 1406 155.756 706.098 447.244
1618 0 108.655 13.2713 1442 156.746 706.138 445.243
1619 0 112.932 13.238 1495 163.476 706.313 444.133
1620 0 115.673 13.2874 1537 163.543 706.112 441.727
1621 0 118.837 13.7078 1629 153.951 705.037 438.976
1622 0 121.812 13.5127 1646 159.872 705.478 437.953
1623 0 124.956 13.8769 1734 161.638 705.608 435.85
1624 0 126.832 13.5613 1720 153.238 705.591 434.398
1625 0 132.964 13.9436 1854 155.139 705.275 432.245
1626 0 138.02 13.6212 1880 157.12 705.178 430.348
1627 0 142.062 13.6208 1935 158.721 704.467 428.281
1628 0 145.082 13.9921 2030 153.425 704.103 426.195
1629 0 148.988 13.8132 2058 158.549 703.83 424.021
1630 0 155.809 13.9658 2176 153.337 704.557 422.704
1631 0 161.899 13.8049 2235 154.326 704.039 418.932
1632 0 169.044 13.5468 2290 157.409 704.543 418.212
1633 0 172.988 14.0472 2430 158.224 704.895 413.806
1634 0 177.218 13.8812 2460 162.368 704.71 409.387
1635 0 186.965 13.8529 2590 155.616 704.951 405.452
1636 1 107.883 13.0882 1412 164.242 705.241 446.004
1637 0 112.859 13.4504 1518 160.391 705.021 444.44
1638 0 115.145 13.4526 1549 155.904 704.613 442.278
1639 0 119.145 13.236 1577 161.795 704.734 441.769
1640 0 120.82 13.6484 1649 162.354 704.787 439.078
1641 0 125.963 13.9089 1752 152.371 705.616 436.628
1642 0 131.161 13.777 1807 161.922 705.629 434.76
1643 0 137.155 13.5686 1861 163.421 706.434 433.21
1644 0 139.178 13.4001 1865 158.994 705.841 430.098
1645 0 145.012 13.7368 1992 157.219 705.904 428.216
1646 0 150.963 13.3476 2015 163.102 705.994 426.226
1647 1 82.6855 12.5778 1040 158.044 705.02 460.559
1648 0 85.6119 12.7435 1091 158.555 704.533 458.971
1649 0 87.7816 12.9184 1134 159.148 705.201 456.067
1650 0 90.7919 13.173 1196 167.289 705.028 455.36
1651 0 92.5816 13.5772 1257 158.412 705.821 453.433
1652 0 95.8785 13.3294 1278 150.41 705.301 452.452
1653 0 95.8005 13.549 1298 161.267 705.747 450.935
1654 0 100.805 13.6898 1380 162.405 705.478 449.274
1655 0 103.768 13.8868 1441 165.797 705.763 448.759
1656 0 107.752 13.6239 1468 168.758 706.672 447.052
1657 0 111.729 13.8729 1550 166.745 706.582 445.392
1658 0 112.839 14.2149 1604 162.025 706.464 443.3
1659 0 114.726 14.0422 1611 165.245 706.435 441.601
1660 0 120.621 13.8036 1665 163.312 706.496 440.046
1661 0 122.845 13.8304 1699 166.118 706.471 438.208
1662 0 124.642 13.952 1739 165.95 706.601 437.31
1663 0 129.779 13.7465 1784 170.647 706.975 433.659
1664 0 133.663 14.0128 1873 166.916 706.701 432.842
1665 0 137.56 14.3282 1971 165.391 707.5 430.621
1666 0 143.754 14.2187 2044 170.725 706.571 427.944
1667 1 80.4254 12.4836 1004 160.721 706.132 462.344
1668 0 81.3752 13.0138 1059 163.161 705.437 459.291
1669 0 82.4259 13.2119 1089 124.89 705.948 458.199
1670 0 85.3818 13.0239 1112 154.134 706.669 457.094
1671 0 86.3933 13.508 1167 157.754 707.319 455.755
1672 0 91.4937 13.3561 1222 162.336 707.91 456.502
1673 0 93.3295 13.5434 1264 159.477 707.577 453.762
1674 0 94.5822 13.861 1311 155.693 708.028 451.869
1675 0 97.647 13.7229 1340 151.5 708.348 449.73
1676 0 100.477 13.7544 1382 161.006 708.564 448.563
1677 0 105.507 13.8474 1461 157.25 708.734 445.73
1678 0 107.353 13.926 1495 151.268 708.43 444.539
1679 0 111.495 13.893 1549 154.655 707.989 442.626
1680 0 113.485 13.9842 1587 154.394 708.981 440.769
1681 0 117.877 14.0231 1653 154.281 708.99 439.708
1682 0 122.555 13.8958 1703 156.46 709.272 436.935
1683 0 124.653 14.047 1751 154.094 708.609 436.942
1684 0 127.48 13.963 1780 144.825 708.942 434.594
1685 0 135.54 13.686 1855 157.959 708.521 431.656
1686 1 78.3553 11.9073 933 152.814 707.796 458.826
1687 0 82.4123 12.2919 1013 156.205 707.971 457.662
1688 0 83.3188 13.1303 1094 156.252 708.186 456.335
1689 0 87.228 12.8628 1122 149.766 707.818 455.858
1690 0 92.4884 12.7367 1178 151.633 707.677 454.778
1691 0 92.2157 13.6094 1255 150.64 707.843 453.465
1692 0 96.3219 13.3095 1282 145.683 707.902 451.973
1693 0 100.444 13.3607 1342 153.377 707.643 449.21
1694 0 102.593 13.5779 1393 147.966 707.936 447.865
1695 0 105.711 13.6693 1445 157.304 707.956 445.754
1696 0 109.463 13.6668 1496 152.247 707.867 444.164
1697 0 113.405 13.5885 1541 153.33 707.078 442.536
1698 0 116.445 13.5601 1579 149.875 706.86 440.593
1699 0 119.493 13.7331 1641 152.952 707.285 438.988
1700 0 122.44 13.6148 1667 150.418 706.959 437.672
1701 0 125.62 13.931 1750 154.718 706.773 435.161
1702 0 131.42 13.9933 1839 155.215 706.222 433.462
1703 1 77.2653 11.1952 865 146.728 706.474 461.339
1704 0 80.2854 12.0694 969 148.278 706.874 459.703
1705 0 81.2961 12.6943 1032 157.249 706.153 457.649
1706 0 85.2565 12.7615 1088 158.731 706.537 457.692
1707 0 86.5374 13.2544 1147 146.34 705.983 456.108
1708 0 88.3758 13.1937 1166 154.208 705.584 453.537
1709 0 91.5087 13.3321 1220 159.822 705.073 449.395
1710 0 93.7956 13.764 1291 162.465 705.524 447.842
1711 0 97.0586 13.5279 1313 163.161 705.272 445.372
1712 0 97.6403 13.816 1349 155.377 705.642 447.79
1713 0 100.685 13.9941 1409 163.615 706.184 445.546
1714 0 105 14.0285 1473 148.458 705.697 443.248
1715 0 108.016 13.3592 1443 161.554 705.13 441.046
1716 0 111.805 13.6399 1525 148.725 704.715 439.367
1717 0 114.676 13.6995 1571 158.457 705.158 438.417
1718 0 116.926 13.7609 1609 157.626 704.666 436.693
1719 0 120.69 14.1106 1703 158.319 704.856 434.976
1720 0 123.701 13.8722 1716 161.104 705.348 434.892
1721 0 126.647 14.0074 1774 156.48 705.214 433.172
1722 0 130.685 13.8654 1812 159.843 704.753 431.598
1723 0 133.615 14.0029 1871 156.253 704.89 429.398
1724 0 138.642 14.0145 1943 157.703 704.711 425.859
1725 0 141.478 14.5676 2061 160.548 704.304 425.079
1726 0 146.519 14.2985 2095 166.396 703.844 422.522
1727 0 151.497 14.5019 2197 164.218 703.907 419.371
1728 0 155.438 14.4302 2243 166.329 704.363 417.399
1729 0 160.402 14.0023 2246 113.788 704.722 415.954
1730 0 165.475 14.4372 2389 165.149 704.921 412.333
1731 1 95.3187 11.75 1120 154.559 703.662 450.97
1732 0 98.2572 12.7014 1248 157.859 703.808 449.395
1733 0 99.1855 12.7942 1269 157.284 703.27 446.379
1734 0 103.314 12.7959 1322 163.176 702.311 448.879
1735 0 109.194 13.0227 1422 157.297 702.262 446.494
1736 0 110.204 13.4297 1480 161.193 702.014 445.481
1737 0 113.317 13.096 1484 162.892 702.336 444.747
1738 0 118.296 12.9421 1531 154.818 702.747 442.39
1739 0 121.295 13.2899 1612 156.427 701.769 438.677
1740 0 125.301 13.3598 1674 157.632 702.709 440.265
1741 0 129.376 13.0859 1693 164.631 703.022 438.271
1742 0 132.269 13.2759 1756 160.677 702.46 436.584
1743 0 136.237 13.4031 1826 157.286 702.805 433.847
1744 0 141.392 13.3388 1886 149.986 702.544 431.528
1745 0 146.257 13.3942 1959 152.504 703.137 429.015
1746 0 153.35 13.4529 2063 154.731 702.801 425.703
1747 1 88.1001 11.5664 1019 150.729 702.412 458.71
1748 0 91.2327 12.1776 1111 153.003 702.783 455.463
1749 0 94.1648 12.1808 1147 141.864 702.669 452.21
1750 0 99.2386 12.1928 1210 150.704 703.992 451.532
1751 0 101.175 12.1177 1226 154.239 703.859 451.118
1752 0 104.197 12.2365 1275 145.925 703.518 448.725
1753 0 108.241 12.4629 1349 150.816 704.272 446.999
1754 0 110.253 12.435 1371 156.498 704.93 445.19
1755 0 114.217 12.6951 1450 155.828 704.303 445.433
1756 0 117.339 12.6556 1485 152.195 704.908 443.251
1757 0 119.148 13.0594 1556 155.128 705.237 441.447
1758 0 123.344 12.5746 1551 159.597 703.857 440.581
1759 0 125.241 12.8872 1614 159.398 704.19 438.032
1760 0 130.216 12.8479 1673 155.988 704.337 436.372
1761 0 134.394 13.0958 1760 159.77 704.008 434.591
1762 0 140.302 12.7653 1791 154.795 703.859 431.525
1763 0 144.315 13.027 1880 162.584 704.246 428.366
1764 0 149.377 13.2082 1973 160.617 704.039 424.802
1765 1 86.2036 11.8093 1018 157.366 703.949 457.697
1766 0 89.4059 12.0462 1077 158.131 704.083 453.604
1767 0 90.2671 12.2304 1104 149.504 703.97 453.106
1768 0 95.2888 12.4254 1184 152.904 704.997 452.198
1769 0 97.2638 12.7283 1238 150.494 704.931 450.879
1770 0 100.393 13.1384 1319 146.923 705.092 450.773
1771 0 103.286 12.7026 1312 159.05 704.726 449.358
1772 0 105.444 12.784 1348 155.736 705.071 447.099
1773 0 108.266 13.042 1412 152.933 705.509 444.87
1774 0 112.315 13.1416 1476 161.642 705.562 443.364
1775 0 115.498 13.0305 1505 148.774 705.841 441.325
1776 0 118.468 12.9403 1533 160.521 705.697 440.228
1777 0 121.368 13.4385 1631 159.934 705.668 435.103
1778 0 125.585 13.4012 1683 156.974 706.019 436.376
1779 0 128.62 13.3494 1717 160.472 705.667 434.732
1780 0 132.298 13.4243 1776 161.909 705.4 433.215
1781 0 135.49 12.9603 1756 157.215 705.851 431.112
1782 0 140.564 13.4032 1884 154.102 705.947 428.359
1783 0 146.322 13.402 1961 160.748 706.162 422.699
1784 0 149.467 13.4679 2013 158.743 706.286 424.029
1785 0 153.477 13.6894 2101 162.451 706.959 420.711
1786 1 88.0795 11.8983 1048 154.149 707.059 453.932
1787 0 91.162 12.571 1146 156.519 708.055 454.383
1788 0 94.2306 12.9576 1221 149.226 707.488 452.45
1789 0 98.2721 12.6689 1245 156.697 707.484 450.291
1790 0 100.161 13.2188 1324 155.367 706.934 447.71
1791 0 102.355 12.8767 1318 162.189 707.703 446.328
1792 0 106.343 13.306 1415 154.775 707.798 444.235
1793 0 109.249 12.8056 1399 157.497 707.093 442.888
1794 0 113.222 13.0452 1477 149.531 707.118 442.564
1795 0 115.285 13.3582 1540 158.516 706.736 441.123
1796 0 119.256 13.7351 1638 156.648 706.871 437.935
1797 0 121.562 14.1821 1724 149.741 706.724 433.156
1798 0 124.49 13.72 1708 158.033 707.04 432.581
1799 0 129.455 13.1474 1702 159.367 706.794 430.979
1800 0 133.472 13.7032 1829 153.765 706.823 428.922
1801 0 138.492 13.6615 1892 149.992 707.216 427.655
1802 0 143.357 13.5676 1945 157.057 707.409 426.289
1803 0 147.602 13.8277 2041 161.539 706.633 423.129
1804 0 152.631 13.6538 2084 151.671 707.075 421.05
1805 0 158.582 13.8603 2198 157.868 706.244 418.985
1806 0 164.509 14.1633 2330 155.373 705.245 415.877
1807 1 96.202 12.1099 1165 144.161 706.327 450.514
1808 0 98.3036 12.6648 1245 156.781 704.835 448.481
1809 0 102.38 13.4792 1380 155.578 705.276 449.126
1810 0 105.509 13.5344 1428 157.972 705.715 445.276
1811 0 108.386 12.9814 1407 155.092 705.261 444.5
1812 0 111.546 13.0888 1460 153.046 705.147 443.166
1813 0 114.519 13.0895 1499 156.718 705.656 442.338
1814 0 119.488 13.4407 1606 158.324 705.912 439.79
1815 0 121.714 13.3838 1629 159.383 705.405 438.071
1816 0 122.789 13.739 1687 162.75 705.515 435.349
1817 0 126.883 13.7292 1742 163.541 705.125 432.406
1818 0 131.682 13.3883 1763 158.089 705.189 431.017
1819 0 137.164 14.3624 1970 156.552 705.431 426.035
1820 0 138.813 13.5002 1874 155.098 704.942 426.477
1821 0 146.951 14.6375 2151 155.084 704.314 422.76
1822 1 84.7359 11.1759 947 149.529 704.15 455.499
1823 0 85.5948 12.0802 1034 162.662 705.029 453.99
1824 0 88.6429 12.8493 1139 158.236 704.748 451.255
1825 0 93.5844 12.3739 1158 157.515 703.516 450.548
1826 0 95.5066 12.6902 1212 156.459 703.682 451.744
1827 0 99.4395 12.6308 1256 149.872 704.236 450.084
1828 0 101.543 12.6941 1289 156.078 704.357 449.629
1829 0 102.757 13.0892 1345 160.917 704.568 446.26
1830 0 107.831 12.9369 1395 157.184 704.142 442.627
1831 0 110.95 13.1231 1456 159.738 704.458 440.642
1832 0 114.766 13.3837 1536 161.075 703.876 437.181
1833 0 116.654 13.21 1541 162.332 703.637 438.093
1834 0 119.672 13.6206 1630 150.948 703.846 435.46
1835 0 123.784 13.4428 1664 163.112 703.386 435.847
1836 0 126.98 13.1674 1672 166.106 704.108 434.439
1837 0 127.929 13.531 1731 162.359 703.126 432.534
1838 0 132.727 13.4336 1783 164.124 702.606 431.891
1839 0 136.641 13.3782 1828 164.996 702.923 429.345
1840 0 138.694 13.6055 1887 158.553 703.791 427.111
1841 0 144.009 13.7422 1979 162.964 703.707 425.703
1842 0 147.839 13.7311 2030 161.623 703.462 424.716
1843 0 150.863 13.6813 2064 159.594 703.888 423.201
1844 0 156.836 14.0019 2196 165.377 703.144 420.5
1845 0 161.683 13.7862 2229 157.306 704.05 417.657
1846 0 166.027 13.8532 2300 158.323 703.894 414.403
1847 0 171.529 13.9393 2391 160.223 703.907 410.829
1848 0 177.552 13.7143 2435 163.685 703.993 405.643
1849 0 184.46 14.0193 2586 157.539 704.328 404.466
1850 1 109.255 11.7615 1285 157.11 703.843 444.156
1851 0 112.209 12.3342 1384 156.379 704.34 441.117
1852 0 116.295 13.1217 1526 151.448 703.891 442.671
1853 0 119.354 12.7436 1521 153.937 703.13 441.047
1854 0 122.293 13.0588 1597 153.37 703.466 439.332
1855 0 126.206 12.9392 1633 157.145 705.197 438.593
1856 0 129.242 12.5811 1626 149.758 703.627 437.276
1857 0 132.247 13.2858 1757 155.583 704.633 435.328
1858 0 136.161 13.0287 1774 146.763 705.435 432.432
1859 0 142.297 12.8604 1830 155.608 703.498 429.677
1860 0 144.247 13.3313 1923 154.041 704.11 427.16
1861 0 149.448 13.4361 2008 147.788 704.338 422.085
1862 0 155.217 13.0527 2026 142.427 703.779 421.047
1863 1 36.0538 7.82164 282 132.195 704.706 484.787
1864 0 32.0319 8.46031 271 142.125 704.616 486.373
1865 0 34.0086 8.7625 298 135.523 704.43 485.654
1866 0 40.0366 7.86781 315 138.543 705.314 483.006
1867 0 32.0293 7.77414 249 138.916 705.787 484.823
1868 1 185.443 13.8155 2562 162.165 704.521 407.415
1869 0 185.443 13.8155 2562 173.964 705.521 407.415
1870 1 31.038 6.95921 216 129.606 703.824 486.648
1871 0 30.0377 7.75693 233 128.09 703.82 485.996
1872 0 31.0891 7.1086 221 134.751 703.005 485.873
1873 0 31.1062 7.84408 244 136.66 701.848 485.709
1874 0 36.1874 8.48361 307 130.56 702.052 482.28
1875 0 37.1532 8.20925 305 134.046 701.587 480.948
1876 0 36.0797 7.26169 262 129.851 701.775 481.931
1877 0 32.1136 7.90943 254 129.488 701.531 482.071
1878 0 38.2093 7.72064 295 128.007 702.18 480.614
1879 0 35.1399 8.25273 290 135.566 701.972 480.445
1880 0 36.192 8.23386 298 133.611 702.319 481.07
1881 0 33.2798 7.7825 259 133.224 702.459 481.336
1882 0 33.271 8.38569 279 131.061 702.52 480.971
1883 0 32.3569 7.47908 242 133.157 702.996 481.57
1884 0 291.85 15.5662 4543 157.32 705.322 341.573
1885 0 300.875 15.8438 4767 152.298 705.408 336.223
1886 0 310.952 15.9799 4969 158.077 706.432 331.57
1887 1 253.777 13.5355 3435 164.739 706.648 364.803
1888 0 259.598 13.6673 3548 160.452 706.727 356.656
1889 0 269.643 14.0964 3801 164.218 707.249 355.315
1890 0 278.709 14.1546 3945 167.569 707.358 349.196
1891 0 285.696 15.7335 4495 153.487 707.439 339.956
1892 0 296.637 15.878 4710 161.078 707.213 336.09
1893 0 305.643 16.1398 4933 159.888 707.432 330.811
1894 0 313.604 16.084 5044 143.884 707.213 325.651
1895 0 324.767 15.9222 5171 157.342 707.703 320.938
1896 0 335.61 16.0037 5371 159.55 708.119 315.626
1897 0 344.778 15.9958 5515 154.758 707.984 312.102
1898 1 285.677 13.7428 3926 163.99 708.032 342.421
1899 0 296.777 15.665 4649 139.096 707.274 333.483
1900 0 306.832 15.81 4851 151.181 706.836 329.153
1901 0 315.668 16.1531 5099 155.819 707.088 327.053
1902 0 327.883 15.8227 5188 159.158 706.816 320.737
1903 0 338.961 15.9134 5394 152.659 707.32 315.349
1904 0 349.912 15.9269 5573 159.137 707.789 312.766
1905 0 360.129 16.0276 5772 154.961 707.508 306.725
1906 0 372.848 16.1513 6022 157.591 707.493 300.584
1907 0 385.882 16.0179 6181 146.753 707.218 293.655
1908 0 397.87 16.053 6387 153.752 707.265 286.97
1909 0 412.979 16.4294 6785 147.575 706.523 278.77
1910 0 426.102 16.1112 6865 150.566 706.431 271.208
1911 0 229.34 12.4924 2865 161.247 706.194 378.741
1912 1 43.1265 7.72146 333 130.48 707.015 479.402
1913 0 47.0478 6.95038 327 125.761 706.706 480.615
1914 0 35.0611 8.47093 297 129.3 707.63 481.562
1915 0 37.0504 7.69223 285 132.74 705.579 481.337
1916 0 39.1584 7.27814 285 129.179 706.179 480.895
1917 0 42.2573 7.33602 310 130.068 705.797 479.355
1918 0 40.0232 8.29519 332 127.786 705.708 479.789
1919 0 38.1836 8.01391 306 126.092 705.288 480.814
1920 0 43.2831 7.55491 327 126.725 705.486 478.725
1921 0 39.1796 8.65246 339 127.599 705.431 479.844
1922 0 46.1745 7.27675 336 130.199 705.289 478.557
1923 0 41.2343 7.85754 324 128.556 705.046 480.694
1924 1 248.875 12.1788 3031 157.844 704.95 367.327
1925 0 254.855 12.5326 3194 155.799 705.63 362.778
1926 0 262.682 12.5665 3301 154.469 705.463 356.666
1927 0 266.86 12.6283 3370 155.042 705.238 351.981
1928 0 276.493 13.8557 3831 151.774 705.217 344.893
1929 0 283.753 14.7206 4177 151.69 705.873 339.007
1930 0 289.581 14.666 4247 148.725 704.982 335.087
1931 0 298.663 14.7625 4409 153.386 704.344 331.801
1932 0 306.733 14.9152 4575 152.527 704.86 329.007
1933 0 315.581 15.0167 4739 153.809 704.924 325.301
1934 0 324.794 15.0003 4872 148.94 705.546 323.861
1935 0 332.754 14.9149 4963 146.459 705.372 318.856
1936 0 342.74 15.1077 5178 150.001 705.596 313.892
1937 0 352.758 14.7892 5217 144.612 704.958 306.872
1938 0 363.837 15.1964 5529 149.88 705.095 301.573
1939 1 49.159 7.68934 378 132.349 704.825 479.91
1940 0 46.0754 8.35586 385 134.023 704.751 480.125
1941 0 315.673 13.3207 4205 155.878 704.905 276.039
1942 0 326.858 14.4619 4727 146.755 705.028 273.678
1943 0 321.894 13.6473 4393 156.169 704.323 273.076
1944 0 321.753 13.7621 4428 153.716 704.371 273.537
1945 1 38.3819 21.2079 814 6.79607 717.391 559.59
1946 0 34.6594 28.8233 999 106.01 692.954 541.975
1947 0 30.7404 19.9086 612 120.804 699.742 486.322
1948 1 16.7194 32.2379 539 132.289 701.911 490.178
1949 0 26.069 14.9603 390 124.167 690 504.608
1950 0 27.147 21.3652 580 124.824 689.94 504.895
1951 0 38.947 26.2408 1022 114.217 695.735 524.22
1952 0 32.9971 18.0925 597 125.218 689.121 521.779
1953 0 50.4742 9.86642 498 137.008 691.815 489.056
1954 0 42.5512 21.7855 927 107.447 689.882 489.974
1955 1 49.9736 22.772 1138 116.675 695.952 482.448
1956 0 26.0675 28.0809 732 116.051 701.383 482.101
1957 0 26.3326 31.5199 830 124.205 702.189 482.235
1958 0 46.1702 32.7484 1512 105.145 695.374 516.121
1959 0 68.3592 23.6837 1619 120.216 690.327 513.994
1960 1 46.8193 11.1065 520 116.008 689.875 515.904
1961 0 66.0021 33.6353 2220 117.995 693.115 528.431
1962 0 78.7927 22.3371 1760 117.027 690.105 530.956
