index division length width area intensity CMx CMy
0 0 66.1274 14.2604 943 161.248 403.747 321.583
1 0 68.0703 14.0884 959 162.034 403.651 323.006
2 0 71.1218 14.1448 1006 164.886 403.474 324.513
3 0 72.0921 14.537 1048 162.059 402.53 325.776
4 0 76.084 14.2474 1084 159.181 402.087 326.499
5 0 80.1141 13.7554 1102 161.624 401.666 328.856
6 1 41.0536 11.8625 487 155.068 401.386 352.047
7 0 42.0946 12.8282 540 155.476 401.041 354.104
8 0 45.0575 12.7393 574 157.498 401.106 357.76
9 0 45.0538 13.384 603 154.549 400.551 360.232
10 0 49.1336 12.8629 632 155.399 400.415 362.864
11 0 48.0845 13.6011 654 146.902 401.029 365.335
12 0 51.0283 13.3651 682 151.843 401.056 369.392
13 0 51.0744 13.7447 702 151.306 401.913 370.135
14 0 53.0437 13.6868 726 150.244 402.231 372.715
15 0 53.0499 13.9114 738 149.617 403.379 373.209
16 0 54.0334 14.1024 762 144.247 404.371 375.735
17 0 58.0561 13.952 810 148.216 405.3 378.2
18 0 60.069 14.0838 846 151.548 405.933 379.755
19 0 62.0718 14.016 870 141.84 406.557 381.259
20 0 65.1025 13.64 888 138.206 407.322 383.955
21 0 68.1421 13.8387 943 145.347 407.708 385.783
22 0 70.0909 13.6537 957 142.605 408.127 388.09
23 0 72.1442 13.7502 992 141.752 408.652 390.511
24 1 34.0161 11.377 387 150.579 408.674 413.194
25 0 36.0345 11.5723 417 145.942 409.233 415.065
26 0 38.0548 11.6411 443 144.986 409.316 417.391
27 0 40.0323 12.5149 501 142.77 409.772 419.058
28 0 42.0286 12.777 537 139.151 410.464 422.803
29 0 43.0979 13.1097 565 142.108 409.828 424.488
30 0 44.0518 13.5068 595 143.012 409.889 426.565
31 0 45.0205 13.6826 616 147.606 409.666 428.076
32 0 48.0873 13.2675 638 148.132 409.298 431.923
33 0 49.0435 14.0691 690 148.732 408.865 433.707
34 0 51.1189 13.674 699 149.086 409.062 436.484
35 0 51.0389 14.1265 721 145.999 409 440.326
36 0 55.0756 13.7811 759 152.424 407.991 443.511
37 0 56.1381 13.6805 768 155.289 406.962 446.288
38 0 57.1052 14.2019 811 147 406.699 448.962
39 0 59.0853 14.0813 832 140.135 405.987 450.712
40 0 61.0324 14.1236 862 148.561 405.705 453.997
41 0 64.0342 14.055 900 152.724 405.887 457.163
42 0 66.0492 14.3832 950 157.489 405.795 461.459
43 0 68.0568 14.2087 967 147.09 405.52 466.101
44 0 69.0413 14.542 1004 155.999 405.206 471.044
45 0 72.0981 14.5219 1047 155.215 404.841 475.909
46 0 73.1653 14.1734 1037 151.075 405.783 479.08
47 0 77.1409 13.9485 1076 150.645 404.667 478.676
48 0 80.2696 13.8907 1115 149.314 404.435 477.266
49 0 83.1388 13.6759 1137 155.084 403.765 475.455
50 1 43.1488 12.1672 525 155.623 403.92 495.246
51 0 44.0514 12.8259 565 156.904 403.917 494.336
52 0 46.1591 12.7386 588 157.459 404.116 493.088
53 0 47.0754 13.1703 620 160.713 404.197 492.826
54 0 50.0517 13.3662 669 150.613 404.154 491.419
55 0 51.1842 13.4807 690 155.278 403.984 489.796
56 0 54.1699 13.0884 709 152.928 404.109 489.307
57 0 55.044 12.8624 708 155.345 404.308 488.126
58 0 57.104 12.6086 720 150.801 404.593 488.126
59 0 58.0552 13.4872 783 155.52 404.662 486.847
60 0 61.0954 13.307 813 156.183 405.449 486.21
61 0 64.0934 13.4803 864 157.62 405.544 485.582
62 0 66.049 13.4143 886 153.398 406.362 483.823
63 0 68.0772 13.4406 915 164.259 406.646 482.29
64 0 71.1141 13.3729 951 158.465 406.281 481.485
65 0 75.0685 13.521 1015 155.828 406.646 479.996
66 0 76.0692 13.7638 1047 158.414 407.022 478.736
67 0 79.233 13.4919 1069 160.07 406.915 478.049
68 1 40.0297 12.8405 514 159.829 407.294 496.047
69 0 42.0771 13.2138 556 158.335 407.626 495.475
70 0 44.086 13.0654 576 154.394 406.719 494.759
71 0 46.0292 13.2525 610 160.013 406.993 493.064
72 0 48.1267 13.132 632 156.502 406.81 492.066
73 0 51.0615 12.5535 641 159.329 406.649 491.29
74 0 50.0506 13.2466 663 163.116 406.554 490.824
75 0 53.154 13.3762 711 165.221 406.65 489.473
76 0 56.0891 13.3537 749 158.355 406.223 488.315
77 0 58.0682 13.1914 766 158.23 405.828 488.01
78 0 61.077 13.1965 806 153.563 405.264 486.547
79 0 62.0183 13.2219 820 160.744 405.544 485.182
80 0 65.0924 13.2427 862 155.276 405.305 483.269
81 0 66.0585 13.5637 896 152.516 405.372 482.394
82 0 69.1059 13.2406 915 152.451 405.572 480.851
83 0 71.0962 13.7419 977 156.528 405.687 479.423
84 0 74.1072 12.9407 959 155.291 405.676 479.113
85 0 76.101 12.9827 988 162.369 405.665 477.08
86 0 79.0844 13.1505 1040 155.787 405.595 476.5
87 1 40.0192 11.3446 454 155.372 406.236 496.72
88 0 43.0404 11.6867 503 147.799 405.672 495.684
89 0 45.0249 11.5492 520 144.662 405.942 494.244
90 0 46.0312 12.1439 559 153.283 406.279 492.81
91 0 47.0332 12.1191 570 148.595 405.967 492.246
92 0 49.0125 11.8745 582 150.558 406.053 490.694
93 0 50.0514 12.2874 615 144.615 406.008 489.954
94 0 52.0686 12.6564 659 143.938 405.32 488.226
95 0 53.0512 13.044 692 140.166 405.332 487.941
96 0 54.0583 12.357 668 148.581 405.121 487.498
97 0 56.0328 12.7247 713 150.334 404.87 487.08
98 0 56.042 12.9903 728 147.464 404.92 486.482
99 0 59.0416 12.5674 742 146.846 405.163 485.918
100 0 61.0477 12.8588 785 142.377 404.582 484.98
101 0 64.0957 12.6998 814 146.125 404.898 484.052
102 0 66.1362 12.7011 840 143.446 405.26 483.011
103 0 68.1085 12.6416 861 144.002 405.389 482.01
104 0 70.072 12.8867 903 144.552 405.257 481.512
105 0 73.2153 12.7023 930 146.817 404.765 479.344
106 0 73.3824 12.905 947 146.946 405.215 478.845
107 0 78.1559 13.102 1024 146.048 405.2 477.288
108 1 40.0559 12.0082 481 148.331 404.258 496.166
109 0 42.104 11.3291 477 150.646 404.556 495.614
110 0 43.1009 11.6935 504 151.262 404.611 495.044
111 0 45.0692 12.4032 559 154.979 404.909 493.109
112 0 47.0798 12.9992 612 142.332 404.724 492.266
113 0 47.1279 13.1981 622 151.727 404.486 491.78
114 0 48.0627 12.9622 623 153.626 404.872 490.766
115 0 49.0405 13.3767 656 151.681 404.526 490.471
116 0 51.0413 13.4205 685 150.65 404.647 489.622
117 0 55.1508 13.037 719 152.203 404.683 488.637
118 0 56.2119 12.8798 724 153.78 404.376 488.47
119 0 56.0982 13.3159 747 150.384 404.477 487.889
120 0 59.0921 13.0305 770 154.335 404.582 486.584
121 0 60.079 13.5988 817 152.246 405.103 486.218
122 0 62.1036 13.3809 831 152.976 404.817 484.818
123 0 64.1346 13.5184 867 146.243 405.489 483.239
124 0 66.2237 13.3789 886 147.441 404.97 481.887
125 0 70.0998 13.0956 918 146.892 405.479 480.952
126 0 72.1623 13.0816 944 148.27 405.204 478.994
127 0 74.1529 13.135 974 148.303 405.725 477.81
128 0 77.1949 12.9283 998 149.043 405.833 475.049
129 0 80.1206 13.2925 1065 144.798 405.233 474.476
130 1 43.0926 11.0228 475 155.032 405.739 493.168
131 0 44.1577 11.6174 513 150.62 405.657 491.883
132 0 46.0873 11.5867 534 148.987 406.011 491.449
133 0 47.0666 12.0043 565 152.294 406.092 490.297
134 0 47.1819 12.9711 612 144.309 405.899 489.172
135 0 49.1533 12.5526 617 150.344 406.037 487.99
136 0 50.1886 13.1504 660 150.033 405.917 486.57
137 0 52.2424 12.8248 670 152.169 405.787 486.227
138 0 53.121 13.0457 693 149.358 406.12 485.75
139 0 56.1523 12.6086 708 148.333 406.141 484.04
140 0 57.1844 12.8881 737 143.028 406.551 482.856
141 0 59.0973 13.1309 776 151.045 406.566 482.265
142 0 61.1835 13.4023 820 152.155 407.368 481.96
143 0 64.1457 13.2667 851 148.019 408.062 481.351
144 0 65.1985 13.3745 872 150.353 407.666 479.03
145 0 68.1252 13.1376 895 153.649 407.924 478.452
146 0 71.2272 13.3516 951 151.933 408.085 476.096
147 0 74.1632 13.3085 987 156.56 408.733 474.493
148 0 76.1112 13.2306 1007 156.427 409.137 474.497
149 0 80.0833 13.0864 1048 151.406 409.874 471.421
150 0 81.1344 13.5578 1100 149.139 409.791 470.5
151 1 41.0419 11.5979 476 150.998 410.181 489.855
152 0 43.0553 11.4969 495 150.309 410.467 490.04
153 0 45.0134 12.0631 543 150.552 410.42 487.532
154 0 45.0214 12.5718 566 152.654 410.401 487.007
155 0 48.0886 12.4146 597 154.223 409.836 486.151
156 0 49.1014 12.2603 602 138.196 410.02 485.972
157 0 49.1191 12.7038 624 148.173 410.186 485.199
158 0 52.12 13.0852 682 146.652 410.739 483.057
159 0 52.1937 13.2583 692 148.045 411.298 482.851
160 0 55.1215 12.6266 696 154.76 411.099 481.642
161 0 56.1099 13.0102 730 149.686 411.026 480.449
162 0 57.1296 13.1281 750 150.465 411.188 479.909
163 0 60.1214 12.8074 770 152.052 411.305 479.358
164 0 61.0638 13.5923 830 147.775 411.354 477.706
165 0 65.2353 13.0298 850 143.576 410.806 476.882
166 0 67.1344 13.4506 903 146.281 411.101 474.475
167 0 69.1716 13.705 948 147.223 411.332 473.359
168 0 72.0606 13.1972 951 151.898 411.603 473.318
169 0 72.1257 13.7122 989 153.196 411.743 471.209
170 0 77.1469 13.3771 1032 146.443 411.508 469.558
171 0 80.1102 13.3316 1068 144.137 411.553 467.773
172 0 82.1094 13.0923 1075 146.901 411.762 466.24
173 0 85.1087 12.9951 1106 146.199 411.528 463.775
174 1 45.0359 11.5019 518 150.635 411.888 483.112
175 0 48.11 11.3074 544 150.697 411.789 483.509
176 0 50.0137 12.3566 618 150.168 411.95 481.241
177 0 52.0642 12.1389 632 151.079 411.799 480.033
178 0 51.0501 12.713 649 153.051 412.018 479.946
179 0 54.1216 12.5458 679 153.069 412.567 479.115
180 0 56.07 12.3596 693 152.743 412.118 477.332
181 0 59.1068 12.5874 744 151.56 412.059 476.567
182 0 59.0968 12.708 751 153.543 412.671 475.466
183 0 62.2077 12.4261 773 153.671 412.736 474.437
184 0 64.1189 12.5548 805 154.923 413.024 472.908
185 0 67.2624 12.7857 860 152.377 413.205 470.716
186 0 69.1764 12.4031 858 152.001 412.908 470.342
187 0 71.227 12.3689 881 156.25 413.519 469.151
188 0 74.1389 12.5036 927 152.674 413.346 468.581
189 0 75.0971 12.6503 950 147.668 413.324 466.893
190 0 78.1222 12.6213 986 155.89 413.428 466.119
191 0 81.269 12.9816 1055 154.359 413.432 464.849
192 0 83.2129 12.9547 1078 150.765 413.173 463.041
193 0 86.225 12.7689 1101 153.936 413.261 461.72
194 0 88.3003 12.6727 1119 149.361 413.061 460.176
195 0 91.0935 12.9647 1181 146.011 412.957 459.573
196 0 95.1902 12.8269 1221 157.01 412.83 457.536
197 0 99.155 12.9998 1289 155.065 413.083 455.258
198 1 53.1187 10.9566 582 157.189 412.447 478.77
199 0 53.1028 11.6755 620 145.681 412.81 477.55
200 0 57.1089 11.9246 681 155.837 412.742 478.085
201 0 58.0665 12.0035 697 154.392 412.812 477.092
202 0 59.0575 12.7842 755 148.799 412.868 475.907
203 0 62.1148 12.654 786 148.968 412.19 474.555
204 0 64.1251 12.5224 803 161.305 412.021 473.872
205 0 65.093 12.9046 840 157.664 412.035 473.074
206 0 66.1015 13.328 881 157.316 411.562 471.384
207 0 68.1625 13.0864 892 159.192 411.192 470.297
208 0 72.0839 13.1375 947 155.955 411.489 469.721
209 0 74.1123 13.2367 981 160.051 411.626 467.835
210 0 77.1847 12.9818 1002 162.324 411.134 466.884
211 0 80.1981 13.4043 1075 160.322 411.577 465.577
212 0 83.0868 13.2873 1104 162.817 411.284 463.487
213 0 85.114 13.1236 1117 162.797 411.272 462.839
214 0 88.3764 13.4086 1185 162.73 410.776 462.034
215 1 45.1009 10.6871 482 158.168 410.591 484.527
216 0 46.2663 11.7364 543 152.95 410.67 483.088
217 0 48.1492 12.1705 586 159.237 410.217 482.534
218 0 49.0672 12.595 618 162.948 410.409 482.17
219 0 50.0586 12.6851 635 160.239 410.657 481.609
220 0 53.0386 12.5946 668 165.425 410.549 480.258
221 0 54.042 12.2682 663 161.391 410.223 479.778
222 0 55.1532 12.8914 711 159.558 410.751 478.522
223 0 58.1265 12.7309 740 158.219 410.307 477.526
224 0 57.1711 13.206 755 156.739 410.111 477.457
225 0 59.0423 13.2109 780 147.983 409.847 477.208
226 0 62.1674 12.6755 788 151.075 409.599 475.244
227 0 64.2238 12.8146 823 155.261 410.141 475.132
228 0 65.4614 13.2444 867 154.385 410.243 474.321
229 0 67.2904 13.0331 877 148.673 410.286 472.767
230 0 69.1761 13.0681 904 150.382 410.512 472.206
231 0 73.3107 13.2586 972 148.976 410.629 470.005
232 0 75.3125 13.4241 1011 157.436 410.176 469.812
233 0 79.389 13.1756 1046 156.137 410.426 468.466
234 0 80.3853 13.398 1077 155.875 410.619 467.549
235 0 85.4504 13.1187 1121 160.45 410.125 465.008
236 0 87.2099 13.2439 1155 159.367 410.453 463.535
237 1 49.093 11.6514 572 160.523 409.682 483.399
238 0 50.1046 12.4939 626 161.973 409.843 482.045
239 0 53.1383 11.8747 631 163.157 409.591 482.206
240 0 52.1638 12.269 640 166.859 410.177 481.856
241 0 55.0829 12.2906 677 160.075 410.229 481.29
242 0 56.1176 12.7055 713 156.728 410.084 479.906
243 0 59.0787 12.1194 716 172.346 410.196 479.179
244 0 61.2338 12.4604 763 163.938 410.284 478.387
245 0 61.2815 12.4344 762 167.545 410.358 476.769
246 0 63.1096 12.5338 791 166.057 410.2 477.329
247 0 66.2034 12.6428 837 172.752 410.183 475.938
248 0 68.1217 12.8153 873 170.62 410.125 474.827
249 0 71.1228 12.8088 911 165.651 410.101 473.214
250 0 73.2103 12.8124 938 168.625 410.273 471.659
251 0 75.1435 12.9086 970 168.546 410.299 469.95
252 0 79.2051 12.3351 977 174.265 410.364 468.82
253 0 82.2801 12.5668 1034 166.886 410.62 466.838
254 0 85.4874 12.5516 1073 168.938 410.5 466.94
255 0 86.3317 12.7763 1103 169.667 410.976 465.326
256 0 90.342 12.663 1144 169.708 410.723 462.788
257 0 93.269 12.5229 1168 168.944 411.046 460.242
258 1 51.2055 11.3855 583 156.746 410.789 480.952
259 0 53.214 11.8766 632 163.277 411.195 480.834
260 0 56.1135 11.352 637 165.739 411.118 480.05
261 0 59.2166 11.5001 681 156.702 411.192 478.65
262 0 61.1555 11.3645 695 159.473 411.117 477.774
263 0 61.1504 11.9705 732 157.033 411.072 477.384
264 0 64.1853 11.8251 759 153.993 411.372 475.329
265 0 65.1387 12.1126 789 158.298 411.382 474.338
266 0 69.204 11.6034 803 155.466 411.95 472.722
267 0 71.1694 11.9293 849 150.816 412.365 470.988
268 0 73.0638 11.8116 863 147.382 412.272 470.912
269 0 75.1852 11.864 892 158.666 412.105 469.812
270 0 78.2064 12.2624 959 151.047 412.34 467.357
271 0 81.1509 12.2488 994 147.916 412.755 465.45
272 0 83.1819 12.1421 1010 157.048 412.463 463.394
273 0 86.2238 12.2472 1056 155.29 412.843 461.889
274 0 89.3936 12.3387 1103 150.755 412.828 461.034
275 0 92.2406 11.9579 1103 158.587 412.869 460.311
276 1 52.3576 10.3137 540 154.217 413.607 480.113
277 0 51.233 11.3599 582 157.808 413.785 480.538
278 0 54.0436 11.4537 619 149.307 413.672 478.714
279 0 53.2774 11.7498 626 144.286 413.113 478.061
280 0 57.2656 11.5427 661 142.764 413.342 476.51
281 0 59.3054 11.5673 686 140.144 413.096 475.719
282 0 62.2613 12.1103 754 147.127 413.282 473.329
283 0 62.1755 12.3682 769 154.601 413.506 473.19
284 0 67.3447 12.0277 810 154.48 413.183 470.941
285 0 67.2472 11.9559 804 156.611 413.404 471.515
286 0 70.185 12.0539 846 151.422 413.226 469.8
287 0 74.1722 12.08 896 153.992 413.264 468.859
288 0 75.1752 12.6105 948 154.848 412.776 465.8
289 0 78.1559 12.4751 975 158.845 413.161 465.58
290 0 82.2648 12.4598 1025 151.755 412.832 464.668
291 0 84.1907 12.4479 1048 153.784 413.144 462.49
292 0 86.1663 12.3482 1064 159.503 412.95 461.476
293 1 44.0856 10.7064 472 158.985 413.375 482.644
294 0 47.0986 11.3804 536 156.194 413.384 481.377
295 0 47.1076 11.3145 533 150.946 413.674 480.501
296 0 50.0991 11.4174 572 155.315 413.212 479.407
297 0 51.1703 11.491 588 149.969 411.971 479.517
298 0 52.161 11.6946 610 155.741 411.53 479.049
299 0 54.2078 11.9355 647 156.45 411.918 477.722
300 0 55.108 12.158 670 153.222 411.673 475.957
301 0 57.1398 11.9881 685 156.35 411.514 476.6
302 0 57.1571 11.8445 677 157.239 411.668 475.874
303 0 60.1187 12.2258 735 155.99 411.639 474.984
304 0 62.0994 12.3834 769 152.583 411.624 473.982
305 0 63.049 12.3713 780 149.991 411.62 472.381
306 0 64.1607 12.4219 797 157.005 411.187 472.563
307 0 66.1649 12.3631 818 158.973 411.086 471.023
308 0 69.1552 12.6382 874 157.009 411.383 471.275
309 0 71.0655 12.6785 901 148.503 411.028 470.129
310 0 72.1785 12.8293 926 157.148 410.762 469.244
311 0 74.1153 12.4536 923 156.238 411.302 467.712
312 0 77.2073 12.7708 986 159.345 411.062 465.455
313 0 78.184 12.7648 998 156.12 411.426 466.207
314 0 81.3584 12.9919 1057 161.369 411.081 465.106
315 0 84.3406 12.7815 1078 155.299 410.861 464.393
316 0 87.18 12.7323 1110 156.846 410.89 462.155
317 1 45.1152 10.7946 487 158.302 411.117 483.671
318 0 47.1212 10.7807 508 147.886 411.218 481.937
319 0 49.054 11.5995 569 154.455 411.59 480.362
320 0 49.1583 11.6562 573 153.222 411.058 480.791
321 0 50.1365 12.1867 611 147.445 411.208 480.846
322 0 51.2129 12.3406 632 147.147 411.497 479.554
323 0 54.1313 11.8046 639 147.57 411.208 479.396
324 0 53.0795 12.5095 664 151.136 411.16 478.348
325 0 56.1876 11.9777 673 142.817 410.921 478.431
326 0 57.1705 12.2965 703 143.946 410.879 476.795
327 0 58.0842 12.172 707 142.491 410.859 477.962
328 0 61.3288 12.0009 736 147.473 410.999 476.073
329 0 61.0754 12.2963 751 142.068 410.808 476.144
330 0 63.2073 12.1663 769 145.347 410.9 474.365
331 0 64.1043 12.3393 791 147.738 411.051 473.168
332 0 67.239 12.701 854 150.262 411.035 472.393
333 0 71.0681 12.4669 886 146.731 410.377 470.792
334 0 72.0729 12.5845 907 151.558 410.341 469.81
335 0 74.0914 12.9975 963 143.758 410.752 468.315
336 0 75.1133 13.3532 1003 150.366 410.237 467.405
337 0 79.2053 12.9789 1028 146.231 410.144 466.133
338 0 80.1796 13.2078 1059 151.387 410.129 465.221
339 0 84.2171 12.7646 1075 148.271 410.262 464.259
340 0 88.1873 12.6322 1114 153.623 410.071 461.681
341 1 48.0627 11.0065 529 143.911 411.161 482.643
342 0 47.0206 11.6545 548 137.064 410.703 482.533
343 0 51.051 11.5767 591 142.941 410.249 481.425
344 0 52.0267 11.9746 623 144.281 410.291 481.843
345 0 53.0402 11.8589 629 143.45 410.556 480.37
346 0 55.037 12.2281 673 137.189 410.887 479.376
347 0 57.1057 12.0478 688 148.452 410.523 479.276
348 0 59.1101 12.1976 721 150.261 409.95 478.444
349 0 59.119 12.8723 761 152.8 409.547 477.548
350 0 62.0368 11.9768 743 149.07 409.651 477.397
351 0 63.0533 12.4815 787 152.09 409.748 475.71
352 0 66.1501 12.8949 853 151.74 409.217 474.237
353 0 69.0798 12.4783 862 152.858 409.109 473.374
354 0 72.0999 12.7601 920 150.45 409.392 472.557
355 0 74.124 12.6949 941 156.735 409.102 472.092
356 0 77.1115 13.1498 1014 148.001 409.468 468.758
357 0 79.2464 12.9722 1028 151.355 409.556 469.278
358 0 83.1938 12.8495 1069 151.74 409.596 467.187
359 0 85.2787 12.6995 1083 158.272 409.919 466.621
360 1 45.0818 10.3811 468 155.111 410.35 486.021
361 0 46.0508 11.0313 508 144.35 410.461 484.337
362 0 46.0878 11.5866 534 150.382 410.676 485.202
363 0 48.079 11.7307 564 151.434 409.665 484.456
364 0 50.0735 11.523 577 148.416 410.738 482.069
365 0 51.0245 11.4847 586 148.392 410.77 482.137
366 0 52.1424 11.5453 602 150.083 410.884 481.86
367 0 53.0881 11.8859 631 151.851 411.002 481.856
368 0 55.0681 11.8762 654 151.258 411.015 481.326
369 0 58.0693 11.934 693 148.046 411.18 479.551
370 0 59.0192 12.3858 731 147.937 411.159 477.141
371 0 61.079 11.7553 718 147.447 411.018 477.256
372 0 64.0258 11.9952 768 139.366 411.04 475.65
373 0 66.1232 11.9171 788 142.805 411.317 474.566
374 0 66.075 12.5009 826 149.77 410.794 473.142
375 0 70.0784 11.8724 832 146.547 410.841 472.125
376 0 72.206 12.2289 883 149.298 411.273 470.299
377 0 74.1883 12.6435 938 148.624 411.326 470.729
378 0 77.1026 12.5288 966 149.143 411.508 468.56
379 0 79.1436 12.6732 1003 146.073 412.101 467.532
380 0 80.1252 12.9547 1038 148.631 412.046 465.436
381 0 85.1514 12.6128 1074 152.214 411.386 464.951
382 0 86.2069 13.05 1125 154.833 411.836 464.123
383 0 91.2808 13.0696 1193 155.552 411.684 461.572
384 0 94.2024 12.8659 1212 152.708 411.832 460.386
385 0 97.1595 13.0507 1268 160.047 411.913 458.841
386 0 100.208 13.1526 1318 155.487 411.914 456.841
387 1 53.0563 11.3276 601 156.161 411.877 480.351
388 0 56.0763 11.734 658 158.985 411.88 480.655
389 0 55.0693 11.6762 643 156.098 411.914 479.617
390 0 55.242 12.0741 667 161.816 412.187 479.529
391 0 58.1847 11.9791 697 159.544 411.996 478.11
392 0 59.2559 11.8132 700 149.587 412.501 477.444
393 0 61.2266 12.3312 755 153.317 412.676 476.621
394 0 64.2978 12.4577 801 167.021 412.487 475.547
395 0 66.3969 12.0186 798 165.693 412.627 473.877
396 0 68.1985 12.5369 855 161.096 412.985 473.487
397 0 69.2386 12.5941 872 153.336 412.581 472.614
398 0 70.2871 12.7193 894 169.069 412.248 471.462
399 0 73.2604 12.5989 923 166.714 412.1 471.208
400 0 75.3892 12.84 968 166.78 412.386 469.973
401 0 77.328 12.5828 973 162.65 412.065 468.32
402 0 80.25 13.2461 1063 157.134 412.135 466.846
403 0 84.2318 12.9523 1091 169.588 412.741 464.69
404 0 85.2753 13.3216 1136 161.932 412.501 464.065
405 0 88.3129 13.1351 1160 167.147 412.151 462.688
406 0 92.4505 12.8501 1188 165.337 412.099 460.527
407 0 93.501 13.0694 1222 169.166 412.44 459.746
408 0 98.3589 13.0746 1286 159.138 412.054 457.511
409 0 102.418 13.1422 1346 161.408 411.882 455.143
410 1 55.362 11.0184 610 156.926 412.139 478.664
411 0 57.1856 11.384 651 156.51 411.694 477.945
412 0 58.1881 11.9784 697 155.291 411.298 477.072
413 0 59.0367 11.9925 708 151.929 411.072 475.881
414 0 61.2783 12.3045 754 141.609 411.032 474.775
415 0 64.083 12.1405 778 148.952 410.721 474.765
416 0 65.063 12.388 806 138.971 411.123 473.788
417 0 67.1104 12.3379 828 147.417 411.291 472.885
418 0 69.2418 12.478 864 145.649 411.356 472.35
419 0 73.2055 12.3761 906 151.479 411.104 470.56
420 0 73.2093 12.553 919 145.06 411.131 468.403
421 0 76.1977 12.5988 960 147.204 411.389 467.958
422 0 78.5323 12.7081 998 150.307 410.87 466.922
423 0 78.4553 12.7971 1004 147.904 410.981 464.925
424 0 83.4479 13.1819 1100 146.106 411.062 464.397
425 0 87.2846 13.393 1169 136.808 410.76 461.806
426 0 91.4868 12.9308 1183 154.855 410.976 460.721
427 0 93.314 12.9884 1212 148.693 410.632 458.853
428 0 96.1889 13.2136 1271 147.208 410.522 457.814
429 0 98.2465 13.456 1322 156.056 410.228 456.075
430 0 103.169 13.2791 1370 151.029 410.444 454.197
431 0 56.0489 11.5435 647 148.594 410.873 479.505
432 0 59.1484 12.2066 722 153.18 410.181 477.066
433 0 58.2196 12.4357 724 150.222 409.992 477.366
434 0 62.2635 11.9492 744 156.148 410.035 477.203
435 0 63.1977 12.7062 803 156.63 410.435 476.885
436 0 65.1974 12.3164 803 159.773 410.062 475.752
437 0 67.2317 12.4346 836 160.524 410.068 475.421
438 0 68.1885 12.9641 884 155.189 409.706 474.107
439 0 71.1832 12.4608 887 157.687 409.766 472.992
440 0 72.0859 12.7348 918 159.84 410.023 471.244
441 0 72.1441 12.7938 923 162.307 410.575 470.688
442 0 74.1105 12.9536 960 151.129 410.792 468.419
443 0 77.0588 12.9641 999 152.162 410.568 466.91
444 0 81.1259 12.9305 1049 158.177 410.216 465.336
445 0 82.1091 13.1411 1079 147.054 410.693 464.878
446 0 86.1362 12.7821 1101 162.74 410.391 465.089
447 0 88.1494 13.1481 1159 163.208 410.298 462.858
448 0 90.2597 13.0291 1176 163.411 410.186 461.69
449 0 95.172 13.3758 1273 87.5114 409.429 459.769
450 0 99.2259 13.2727 1317 162.341 409.376 458.693
451 0 101.13 13.6063 1376 166.316 409.021 456.721
452 1 52.0941 11.0185 574 158.599 408.481 482.99
453 0 53.095 11.47 609 154.545 408.371 481.755
454 0 56.1287 11.5449 648 154.548 409.045 480.466
455 0 57.136 11.9539 683 153.073 408.934 479.52
456 0 56.1471 12.3604 694 148.78 409.158 479.222
457 0 58.0956 12.118 704 158.156 409.013 480.709
458 0 60.0722 12.4184 746 157.437 409.173 479.484
459 0 61.1264 12.7441 779 166.535 408.751 478.334
460 0 63.0642 12.3525 779 165.407 408.54 478.263
461 0 65.0539 12.8816 838 159.778 409.177 476.42
462 0 68.07 12.8985 878 161.315 409.026 475
463 0 69.0657 12.8428 887 154.006 409.64 473.629
464 0 71.0839 12.4782 887 157.826 410.036 472.557
465 0 74.1102 12.9132 957 165.844 410.518 471.595
466 0 77.0974 12.6853 978 162.568 409.932 469.903
467 0 79.0969 12.9335 1023 164.797 409.959 468.55
468 0 81.1074 13.0691 1060 161.183 410.745 467.716
469 0 83.223 12.8931 1073 153.826 410.986 465.89
470 0 85.1668 12.8923 1098 162.494 411.542 464.335
471 0 89.2042 12.7797 1140 160.949 411.641 462.937
472 0 93.122 12.6286 1176 155.174 411.785 460.85
473 0 95.1145 12.711 1209 158.907 411.64 459.826
474 1 50.1161 10.9146 547 153.804 411.693 481.826
475 0 52.0674 10.9089 568 151.317 411.646 481.812
476 0 53.045 11.2357 596 154.928 411.787 479.401
477 0 53.1533 10.9871 584 147.301 411.156 480.267
478 0 55.0909 11.4175 629 154.064 411.94 480.358
479 0 57.1638 11.2834 645 146.771 412.251 478.884
480 0 58.1186 11.8895 691 144.972 412.025 477.098
481 0 61.1764 11.8346 724 147.787 411.773 475.316
482 0 63.1324 11.4521 723 148.624 412.065 474.828
483 0 65.1726 11.5232 751 147.517 412.037 473.462
484 0 68.144 11.5051 784 144.222 411.79 471.469
485 0 69.1397 11.7443 812 147.759 412.276 470.865
486 0 71.1453 11.8771 845 146.696 411.875 470.52
487 0 75.1763 11.4132 858 143.646 412.373 468.523
488 0 77.1296 11.8372 913 143.502 412.794 466.647
489 0 80.2059 11.7323 941 144.215 412.577 466.103
490 0 81.114 11.9955 973 146.508 412.808 464.065
491 0 83.2028 11.8506 986 145.389 412.616 464.456
492 0 86.149 11.9328 1028 151.831 413.124 462.946
493 1 46.0067 9.71599 447 151.743 414.076 482.136
494 0 48.0602 10.3828 499 149.18 414.269 480.669
495 0 48.0194 10.8081 519 152.43 414.247 480.091
496 0 50.1407 11.1885 561 149.308 414.449 479.884
497 0 51.0266 11.2882 576 151.108 414.455 478.559
498 0 54.0829 11.6858 632 148.516 414.851 477.046
499 0 54.2438 11.7986 640 144.567 414.148 477.484
500 0 56.0827 11.3939 639 152.939 414.158 478.16
501 0 57.1801 11.9097 681 146.744 414.656 476.27
502 0 60.2003 11.495 692 142.756 414.182 474.918
503 0 63.335 11.5418 731 145.832 414.469 473.782
504 0 64.294 11.8674 763 139.482 414.193 473.115
505 0 66.2827 11.8281 784 147.087 414.948 471.707
506 0 69.2421 11.7847 816 141.376 414.425 470.505
507 0 70.1169 12.4364 872 151.789 414.55 469.928
508 0 74.244 12.0818 897 149.797 414.394 468.156
509 0 74.3005 12.261 911 148.041 413.981 466.543
510 0 76.2844 12.7025 969 143.966 414.035 466.47
511 0 79.1038 12.5911 996 154.699 414.196 464.95
512 0 82.2553 12.7043 1045 147.346 414.279 463.358
513 0 83.201 13.0888 1089 149.468 413.97 461.08
514 0 89.2554 13.0076 1161 144.804 413.173 459.861
515 0 90.252 13.141 1186 150.32 412.794 458.46
516 0 95.27 12.7952 1219 145.654 412.808 457.212
517 0 97.3757 13.0731 1273 142.94 412.41 455.551
518 0 100.492 12.7473 1281 144.46 412.106 452.616
519 0 104.36 13.0414 1361 146.642 412.018 449.741
520 0 107.474 13.4079 1441 147.602 411.527 449.305
521 0 111.44 13.0384 1453 151.778 411.204 447.401
522 0 114.437 13.6145 1558 149.205 411.577 444.723
523 0 118.565 13.0645 1549 153.576 411.183 443.637
524 0 121.448 13.2897 1614 154.177 411.183 441.256
525 0 124.416 12.836 1597 157.77 411.862 439.735
526 0 127.553 13.4375 1714 155.411 411.674 437.639
527 0 132.492 12.8687 1705 159.559 411.895 436.683
528 0 137.407 13.4418 1847 154.66 411.553 433.92
529 0 142.31 13.2317 1883 164.742 412.046 432.869
530 0 147.332 13.6155 2006 153.838 411.365 429.183
531 0 152.378 13.309 2028 159.585 411.569 428.269
532 0 154.4 13.4456 2076 161.552 411.623 425.868
533 0 163.271 13.6644 2231 157.82 411.167 420.997
534 0 169.326 13.5419 2293 154.055 411.156 419.333
535 0 173.497 13.6314 2365 162.751 410.926 415.342
536 0 179.334 13.6672 2451 159.799 411.206 412.343
537 0 184.429 13.5337 2496 160.084 411.046 410.265
538 0 189.511 13.5507 2568 164.888 411.363 408.461
539 0 196.494 13.9445 2740 156.845 411.619 405.14
540 0 201.629 14.0357 2830 154.413 411.351 402.954
541 0 209.602 13.7594 2884 155.553 411.785 397.175
542 0 217.514 13.5762 2953 158.152 411.851 392.993
543 1 43.1452 10.4067 449 149.842 410.595 482.557
544 0 45.1373 10.6564 481 147.701 410.62 482.58
545 0 47.163 10.9196 515 141.586 411.542 481.157
546 0 46.4475 11.8413 550 145.855 412.684 480.547
547 0 51.2476 11.1029 569 146.74 412.478 479.46
548 0 51.2637 11.236 576 144.358 412.404 479.911
549 0 53.3514 11.3024 603 141.832 412.202 477.909
550 0 53.3016 11.782 628 138.734 411.992 477.1
551 0 55.3264 11.0435 611 143.399 412.507 476.867
552 0 58.226 11.2836 657 142.884 412.373 475.307
553 0 61.2678 11.5395 707 142.563 411.997 474.987
554 0 61.3113 11.4661 703 138.266 411.218 474.458
555 0 64.3317 11.4096 734 144.465 411.057 472.852
556 0 65.3317 11.6329 760 140.467 410.846 472.409
557 0 68.3333 11.4439 782 143.734 410.463 471.104
558 0 70.2627 11.5139 809 139.119 410.481 470.135
559 0 71.2325 12.031 857 143.095 410.152 470.102
560 0 75.2422 12.998 978 130.257 410.415 467.206
561 0 76.2399 12.0278 917 144.377 410.387 466.867
562 0 78.1888 11.7152 916 142.195 410.248 467.784
563 0 81.2311 11.9043 967 140.546 410.087 465.022
564 0 82.2652 11.9856 986 140.887 410.447 463.148
565 1 46.0829 9.2876 428 135.208 410.708 482.068
566 0 49.1254 10.2188 502 141.524 410.046 480.831
567 0 50.185 11.079 556 145.89 408.946 481.329
568 0 51.2598 11.7441 602 143.003 409.169 480.434
569 0 52.2701 11.4215 597 141.766 409.044 479.889
570 0 55.1398 11.7338 647 133.584 409.522 478.372
571 0 57.0499 11.8317 675 138.184 410.972 477.163
572 0 60.0414 12.2416 735 138.887 410.976 476.521
573 0 62.1198 12.0735 750 137.725 410.561 476.004
574 0 61.1595 11.7071 716 138.929 410.189 476.816
575 0 63.2383 11.8599 750 130.689 410.4 475.489
576 0 66.1698 11.1833 740 142.554 410.47 474.292
577 0 66.1758 11.9681 792 140.682 410.226 472.79
578 0 69.1684 11.5949 802 138.691 410.315 472.324
579 0 69.1704 12.0138 831 144.173 410.318 470.732
580 0 69.2543 12.3602 856 142.444 410.634 470.827
581 0 74.2224 12.0853 897 146.804 410.819 469.427
582 0 77.237 11.9373 922 140.001 411.039 468.56
583 0 78.1433 12.4003 969 131.495 411.337 467.68
584 0 79.219 12.8631 1019 142.849 411.638 466.293
585 0 81.181 12.5892 1022 141.684 411.609 464.154
586 0 85.1717 12.4807 1063 137.259 411.755 462.786
587 0 85.1854 12.9482 1103 146.51 411.277 461.845
588 0 88.1609 12.704 1120 149.061 411.412 460.573
589 0 93.0881 12.848 1196 149.885 410.115 459.668
590 0 93.0714 12.8181 1193 156.06 410.22 458.044
591 0 98.1277 12.7895 1255 153.363 409.411 455.107
592 0 101.106 13.3721 1352 155.291 409.743 452.714
593 0 104.111 13.1398 1368 150.532 411.616 451.939
594 0 108.121 12.7912 1383 158.561 411.787 450.301
595 0 111.145 12.8931 1433 157.72 412.248 448.713
596 0 114.298 13.0799 1495 159.058 411.742 446.457
597 0 117.259 12.7666 1497 154.424 411.819 446.154
598 0 120.164 12.7325 1530 164.42 411.417 443.911
599 0 124.264 13.6322 1694 162.915 411.128 440.858
600 0 128.401 13.3332 1712 157.235 411.565 438.245
601 0 134.46 13.0076 1749 153.431 411.516 434.758
602 0 140.466 12.7789 1795 157.753 411.6 432.978
603 1 76.04 9.96844 758 152.359 410.883 466.181
604 0 78.2117 10.7273 839 147.75 413.434 465.664
605 0 82.1842 11.7176 963 141.263 410.765 462.979
606 0 82.1486 11.7348 964 143.782 411.491 463.284
607 0 86.2226 11.4007 983 148.577 411.34 460.885
608 0 91.1335 12.0812 1101 147.148 411.004 458.797
609 0 93.3031 11.6609 1088 148.522 410.959 458.538
610 0 97.2729 11.8841 1156 148.417 411.457 455.85
611 0 99.2977 11.5511 1147 141.177 412.249 455.514
612 0 102.3 11.8475 1212 145.8 412.686 453.682
613 0 105.175 11.9706 1259 147.635 413.001 451.49
614 0 107.187 12.1657 1304 149.952 413.751 451.267
615 0 111.193 12.2041 1357 147.133 414.526 448.735
616 0 112.328 12.7128 1428 148.944 413.84 447.721
617 0 117.375 12.4473 1461 145.229 413.756 446.405
618 0 119.406 12.6543 1511 149.222 413.7 445.536
619 0 124.363 12.6324 1571 149.446 413.61 441.962
620 0 125.345 12.8605 1612 147.089 413.855 440.48
621 0 130.315 12.5235 1632 146.1 413.451 438.729
622 0 130.315 12.5235 1632 154.954 412.451 438.729
623 1 74.2048 10.8618 806 150.249 414.417 465.855
624 0 74.1907 11.093 823 150.847 414.357 464.113
625 0 77.2398 11.665 901 148.406 413.762 465.505
626 0 81.2198 11.7459 954 141.027 413.684 464.208
627 0 84.3083 11.4342 964 148.212 413.947 462.932
628 0 85.2258 11.4754 978 150.765 412.984 461.819
629 0 87.2122 11.9364 1041 142.361 413.302 460.663
630 0 89.3362 11.7422 1049 140.666 413.103 459.267
631 0 92.2972 11.8638 1095 137.108 412.416 457.468
632 0 94.2926 11.9522 1127 147.953 412.728 456.543
633 0 98.3931 11.9216 1173 143.99 412.5 454.717
634 0 101.333 12.148 1231 145.424 412.893 453.134
635 0 104.251 11.597 1209 144.984 412.395 451.962
636 0 109.336 11.7893 1289 145.605 412.222 450.915
637 0 112.304 11.8429 1330 147.009 412.083 448.101
638 1 64.1983 9.89122 635 136.838 412.096 475.06
639 0 65.1873 10.4161 679 141.7 412.003 473.99
640 0 68.2575 10.8559 741 132.436 411.43 471.826
641 0 69.1463 11.1069 768 131.283 411.893 470.148
642 0 71.2465 11.2988 805 138.811 410.758 468.819
643 0 73.2044 11.1879 819 136.138 411.114 467.841
644 0 76.1898 11.3795 867 132.512 411.054 466.655
645 0 78.1906 11.7533 919 133.169 410.793 465.711
646 0 79.1395 11.7261 928 136.65 410.585 465.748
647 0 81.2674 12.1082 984 140.529 410.383 464.047
648 0 84.4466 11.9365 1008 136.389 410.394 463.901
649 0 86.3927 12.0033 1037 142.637 410.431 461.571
650 0 87.3994 12.3685 1081 141.972 410.325 461.104
651 0 90.3919 12.3684 1118 149.386 410.552 458.884
652 0 94.4128 12.2441 1156 140.612 410.742 457.916
653 0 96.3205 12.3442 1189 142.761 410.759 457.485
654 0 98.334 12.6914 1248 146.244 410.824 456.503
655 0 102.452 12.5425 1285 151.904 411.012 453.983
656 0 105.431 12.4536 1313 151.826 410.847 452.78
657 0 109.242 12.5959 1376 147.392 410.689 452.333
658 0 112.412 12.4809 1403 152.924 410.89 449.602
659 0 115.434 12.8818 1487 154.196 410.6 448.482
660 1 64.3013 10.8085 695 144.423 410.783 475.599
661 0 65.2387 11.6802 762 149.879 410.146 476.157
662 0 69.4158 11.4095 792 146.054 410.744 474.082
663 0 70.2911 11.3528 798 149.323 411.764 472.439
664 0 70.1645 12.1001 849 151.107 411.731 471.632
665 0 73.4209 12.1628 893 147.433 410.181 468.887
666 0 75.2416 12.0146 904 145.665 410.77 468.24
667 0 78.2205 11.9023 931 140.715 410.663 466.773
668 0 81.1996 12.1306 985 142.555 410.72 465.659
669 0 81.3344 12.4302 1011 144.391 410.822 464.844
670 0 86.2157 12.4919 1077 145.239 410.51 463.34
671 0 89.205 12.5553 1120 134.263 410.432 462.08
672 0 90.2761 12.5282 1131 144.328 410.349 461.525
673 0 94.3481 12.3373 1164 143.368 410.795 459.608
674 0 99.2629 12.1798 1209 135.371 410.61 458.342
675 0 102.512 12.2035 1251 143.271 410.767 457.517
676 1 52.2852 10.3853 543 139.556 411.532 480.875
677 0 55.1613 11.4573 632 145.43 410.888 479.742
678 0 56.2199 11.8997 669 141.487 411.39 479.9
679 0 58.2395 11.9163 694 132.183 410.723 478.605
680 0 58.2196 11.6456 678 132.069 410.412 478.643
681 0 61.1713 11.8847 727 140.538 410.642 478.032
682 0 64.36 12.1038 779 141.673 410.629 476.484
683 0 65.2049 11.9623 780 145.964 410.601 475.504
684 0 66.2152 12.5198 829 144.131 410.296 474.689
685 0 66.227 12.9554 858 148.155 410.101 474.174
686 0 68.1888 12.6414 862 135.597 410.287 472.23
687 0 72.2143 12.0752 872 141.102 409.326 471.913
688 0 75.1812 12.3036 925 141.234 409.459 469.942
689 0 77.107 12.2687 946 138.003 409.391 468.586
690 0 78.1859 12.8923 1008 140.293 409.759 468.979
691 0 81.2552 12.7992 1040 137.77 409.214 467.861
692 0 84.1122 12.2455 1030 141.974 409.843 466.668
693 0 85.1828 12.8899 1098 143.742 409.712 465.48
694 0 87.189 12.8686 1122 143.059 409.876 465.514
695 0 89.2863 12.6783 1132 141.58 409.731 462.354
696 0 92.1944 12.593 1161 142.363 409.634 461.554
697 0 94.3711 12.7264 1201 150.46 409.525 458.701
698 0 96.2442 12.9359 1245 144.759 409.948 456.731
699 0 100.299 12.9213 1296 140.751 409.6 456.801
700 0 104.309 13.1436 1371 143.765 409.376 453.745
701 1 54.0371 10.4373 564 148.748 409.41 481.028
702 0 54.0676 11.2822 610 147.197 408.662 480.1
703 0 54.0518 11.7665 636 142.286 407.945 479.675
704 0 55.0762 11.5476 636 137.698 408.113 477.112
705 0 58.0518 11.6276 675 135.673 407.893 477.431
706 0 60.0542 11.7061 703 136.839 408.104 476.185
707 0 60.0316 12.1103 727 139.495 408.446 476.265
708 0 61.0291 11.9779 731 132.624 408.135 474.844
709 0 64.0494 11.8346 758 141.069 408.194 474.879
710 0 67.1347 12.2738 824 136.994 408.119 473.274
711 0 70.1819 12.2254 858 132.828 408.367 471.801
712 0 71.2196 11.8366 843 137.688 408.637 470.847
713 0 76.1169 12.4414 947 136.8 408.415 471.108
714 0 77.1935 12.0347 929 139.813 408.227 469.55
715 0 79.1333 12.4094 982 144.158 408.064 468.739
716 0 82.1407 12.1742 1000 145.594 409.437 466.799
717 1 42.0184 10.186 428 138.093 408.544 486.986
718 0 44.046 10.9658 483 143.547 408.031 485.7
719 0 43.0533 11.3116 487 140.517 407.914 484.875
720 0 46.1941 11.5166 532 138.226 407.442 484.983
721 0 45.2413 11.9802 542 138.945 408.756 484.941
722 0 48.1607 11.4616 552 141.808 408.996 484.018
723 0 47.247 11.7044 553 152.778 408.944 484.181
724 0 49.1791 11.5903 570 148.149 409.47 482.854
725 0 51.1663 11.3356 580 146.926 409.386 483.174
726 0 53.1967 11.6925 622 142.775 409.831 483.223
727 0 53.1752 12.2802 653 147.946 410.083 481.686
728 0 55.1495 12.2395 675 151.73 410.009 481.262
729 0 59.1545 11.8841 703 154.191 410.368 479.762
730 0 58.1889 11.8751 691 141.498 410.706 477.766
731 0 61.1986 12.2388 749 155.8 411.083 477.45
732 0 63.1962 12.0419 761 153.922 411.146 476.189
733 0 65.1409 12.2964 801 155.241 410.302 474.891
734 0 67.2369 12.4336 836 152.492 410.756 473.334
735 0 69.1156 12.1246 838 157.274 410.461 472.885
736 0 73.1459 12.2495 896 156.795 411.326 473.169
737 0 74.1351 12.5177 928 160.055 411.055 471.728
738 0 78.205 12.3138 963 150.374 411.1 469.832
739 1 43.0334 10.6429 458 160.48 412.083 488.358
740 0 43.0912 11.3016 487 165.918 411.998 487.444
741 0 44.2312 11.9599 529 157.11 412.049 486.951
742 0 45.2494 12.3538 559 160.785 412.098 485.707
743 0 47.2516 12.4863 590 158.627 412.2 484.324
744 0 48.246 12.2497 591 168.936 412.345 485.037
745 0 48.2161 12.8795 621 162.225 412.805 483.332
746 0 49.1584 12.775 628 158.986 412.492 483.596
747 0 52.1251 12.5084 652 166.716 412.883 481.413
748 0 53.1732 12.5063 665 167.86 412.967 481.621
749 0 55.1568 12.7455 703 161.202 413.255 479.996
750 0 56.188 12.9387 727 158.939 413.01 478.143
751 0 57.2279 13.0181 745 166.872 413.183 478.75
752 0 59.1133 12.9243 764 164.424 413.092 478.668
753 0 60.2688 12.7927 771 157.847 413.498 476.804
754 0 62.1292 12.9086 802 167.718 413.653 476.655
755 0 64.2125 13.4086 861 160.882 413.76 475.194
756 0 66.119 13.1732 871 157.788 413.501 474.383
757 0 68.1027 12.7748 870 164.418 413.63 473.543
758 0 71.1238 12.9493 921 159.422 413.693 472.186
759 0 73.1094 12.9805 949 168.185 414.063 471.59
760 0 74.2582 13.2376 983 156.542 414.55 469.632
761 0 78.3649 12.9395 1014 160.596 414.904 468.303
762 0 80.1523 13.5118 1083 162.302 414.707 467.25
763 0 83.1599 13.0953 1089 155.521 414.48 465.12
764 1 45.1317 11.3667 513 162.105 414.819 484.774
765 0 47.0586 11.5176 542 164.882 413.415 483.755
766 0 48.0367 12.3031 591 151.849 414.193 482.213
767 0 49.2574 11.9982 591 157.866 414.22 482.557
768 0 52.2241 11.9868 626 153.284 414.072 480.741
769 0 54.2206 11.9327 647 154.575 414.026 479.717
770 0 54.2996 12.2469 665 158.483 414.58 478.699
771 0 56.2132 12.5238 704 157.376 414.831 477.81
772 0 57.2016 12.8143 733 153.883 414.42 476.233
773 0 59.2744 12.7374 755 158.154 414.481 476.416
774 0 61.2803 12.761 782 151.518 414.56 474.724
775 0 63.1871 12.3285 779 157.06 414.676 473.664
776 0 65.1611 12.4154 809 158.439 414.643 473.46
777 0 68.0864 12.8073 872 149.267 413.836 472.439
778 0 68.1238 12.7415 868 154.343 413.791 471.687
779 0 70.2002 13.0484 916 149.099 413.143 469.74
780 0 73.5172 12.7181 935 158.032 412.673 467.966
781 0 75.1675 13.1307 987 154.211 412.389 466.651
782 0 78.3604 12.6084 988 149.035 412.05 464.585
783 0 81.236 12.3714 1005 156.198 411.996 464.414
784 0 85.3678 12.616 1077 154.144 411.642 461.51
785 1 46.2918 10.8659 503 154.231 411.095 481.195
786 0 48.1297 10.8457 522 156.397 411.77 481.069
787 0 49.0134 11.7519 576 155.443 412.321 481.738
788 0 50.0422 11.9499 598 154.804 413.192 481.385
789 0 51.089 11.8225 604 148.949 412.351 480.286
790 0 52.0316 12.1272 631 153.848 412.192 479.72
791 0 53.0338 12.3506 655 143.751 412.174 478.024
792 0 57.0317 12.5895 718 146.398 412.772 477.579
793 0 59.0349 12.3486 729 143.757 412.554 476.881
794 0 61.0386 11.8941 726 147.455 412.259 475.568
795 0 62.0355 12.251 760 133.676 412.293 474.454
796 0 65.1369 12.0823 787 141.168 412.41 473.252
797 0 67.0584 12.3325 827 141.982 412.485 472.452
798 0 70.0283 12.0094 841 142.942 412.93 471.43
799 0 71.0397 12.1904 866 138.327 412.969 469.448
800 0 73.0657 12.1261 886 137.673 413.009 468.041
801 0 77.0721 12.1445 936 142.683 413.505 465.953
802 0 79.1169 12.1213 959 140.411 413.238 466.43
803 0 82.1678 12.3163 1012 147.571 412.587 465.21
804 1 44.1923 10.1375 448 144.723 412.02 484.944
805 0 46.2311 10.2961 476 142.803 412.166 484.324
806 0 46.1389 11.1403 514 139.877 412.488 482.619
807 0 50.129 11.3906 571 146.832 412.921 481.51
808 0 49.1526 11.8814 584 145.757 413.134 481.056
809 0 52.2545 11.4631 599 143.673 412.795 479.297
810 0 54.1416 11.71 634 144.235 413.071 477.94
811 0 55.1682 11.8003 651 144.917 413.203 477.048
812 0 57.1731 12.0336 688 143.219 413.632 476.781
813 0 59.2669 11.4229 677 143.108 414.084 475.936
814 0 60.2586 12.0647 727 144.29 413.831 475.245
815 0 62.1984 11.5276 717 146.107 413.912 474.802
816 0 63.1757 12.0933 764 146.294 413.609 473.19
817 0 66.173 11.8628 785 145.778 413.935 473.857
818 0 69.2126 12.1799 843 146.294 413.977 472.552
819 0 70.2255 12.3032 864 146.932 413.633 471.005
820 0 72.3599 12.9215 935 138.793 414.067 469.142
821 0 74.2686 12.3336 916 141.013 413.956 468.973
822 0 74.4498 12.7871 952 149.909 414.251 468.222
823 0 76.1656 12.7879 974 142.263 414.284 465.241
824 0 81.2293 12.6801 1030 149.326 414.639 464.635
825 0 83.175 12.7322 1059 141.061 414.63 463.065
826 0 85.2721 12.7943 1091 148.717 414.373 461.877
827 0 89.2818 12.5894 1124 149.425 414.135 460.886
828 0 90.3395 13.2389 1196 145.495 413.841 458.721
829 0 94.2914 12.7477 1202 144.532 414.568 458.038
830 1 45.071 10.4946 473 148.994 413.958 482.391
831 0 46.0986 10.586 488 149.711 414.195 481.131
832 0 46.1585 11.2005 517 145.398 413.681 481.518
833 0 48.0429 11.5314 554 136.845 413.415 480.968
834 0 50.0802 11.0223 552 147.654 414.332 479.536
835 0 51.1866 11.8586 607 143.848 414.549 478.992
836 0 51.2935 11.9508 613 146.551 414.591 478.571
837 0 53.3225 12.2462 653 145.459 415.13 478.158
838 0 54.2916 11.8987 646 144.107 414.865 477.262
839 0 55.125 12.0816 666 140.614 415.389 477.676
840 0 57.1441 12.4772 713 139.898 415.443 476.468
841 0 58.215 12.66 737 141.429 415.152 475.569
842 0 61.1053 12.5685 768 130.768 415.059 475.249
843 0 60.2082 12.8554 774 133.894 415.603 474.04
844 0 61.1463 12.8871 788 135.506 415.473 473.604
845 0 64.1859 13.2895 853 135.073 415.381 471.064
846 0 66.1532 12.7734 845 127.472 415.306 471.421
847 0 68.1484 12.2967 838 135.734 415.375 470.9
848 0 68.1718 12.6152 860 136.642 415.062 470.424
849 0 71.1332 12.6242 898 134.8 414.646 468.451
850 0 71.1607 13.1533 936 130.224 414.812 466.881
851 0 74.1418 13.0291 966 131.315 414.884 466.009
852 0 73.206 13.4279 983 128.951 415.154 464.297
853 0 76.3627 12.9906 992 124.476 415.542 462.969
854 0 80.1944 12.9435 1038 125.577 415.691 460.49
855 0 84.275 12.5779 1060 124.308 414.38 458.974
856 0 85.2285 12.5427 1069 127.648 414.601 459.778
857 0 88.2281 12.5357 1106 132.888 414.519 458.118
858 0 89.2145 13.0696 1166 130.006 414.57 456.852
859 0 94.1919 12.8355 1209 129.172 414.318 454.875
860 0 95.1489 13.1793 1254 133.313 414.384 454.472
861 0 97.2426 12.9984 1264 134.653 415.203 454.444
862 0 102.224 12.6389 1292 134.993 414.832 452.659
863 0 105.258 12.4076 1306 136.178 414.743 450.492
864 0 107.366 13.1141 1408 132.909 415.199 448.248
865 0 110.235 13.0721 1441 131.214 416.357 445.672
866 0 113.336 13.5438 1535 134.181 415.157 445.433
867 1 63.0288 10.2652 647 136.508 414.926 471.49
868 0 64.0492 10.5232 674 131.666 414.674 470.18
869 0 68.0679 10.8715 740 141.012 414.118 469.374
870 0 70.2059 11.9933 842 139.66 412.736 467.909
871 0 72.1688 12.5539 906 135.375 412.914 466.322
872 0 73.0903 12.8061 936 130.184 412.7 466.398
873 0 77.1692 12.2977 949 138.902 412.624 463.659
874 0 79.1796 12.4527 986 132.85 412.599 462.773
875 0 82.222 12.4541 1024 136.642 412.883 461.401
876 0 85.1195 12.3356 1050 133.446 412.829 459.779
877 0 89.0778 12.6855 1130 136.702 413.213 457.781
878 0 91.1806 12.382 1129 137.409 413.706 457.132
879 0 94.2031 12.7809 1204 134.133 413.761 455.875
880 1 50.1644 9.42899 473 135.15 414.431 479.372
881 0 52.1919 9.61836 502 144.586 414.191 480.006
882 0 53.0969 10.5844 562 138.23 414.089 477.827
883 0 56.0569 11.0959 622 142.958 414.116 477.285
884 0 57.1364 12.1114 692 145.491 413.954 476.689
885 0 60.0804 11.7176 704 140.52 414.003 475.129
886 0 62.1837 11.6912 727 139.597 413.948 474.231
887 0 63.23 11.9722 757 149.662 414.256 474.379
888 0 67.1665 12.0745 811 151.593 414.413 472.621
889 0 68.1793 12.1738 830 144.804 414.134 471.388
890 0 70.2048 12.5063 878 149.817 414.24 469.863
891 0 73.2049 12.2123 894 149.839 414.179 468.702
892 0 76.2845 12.2567 935 144.634 414.213 469.017
893 0 78.3214 12.5508 983 134.658 414.855 467.459
894 0 80.3547 12.059 969 147.802 415.229 466.94
895 0 81.2382 12.014 976 149.004 415.073 466.277
896 0 83.2439 12.5294 1043 143.265 415.253 464.949
897 0 87.2824 12.3507 1078 144.575 415.396 463.836
898 0 90.262 12.076 1090 137.783 415.095 462.27
899 0 92.1427 12.1768 1122 146.888 414.752 460.949
900 0 96.247 12.1978 1174 138.179 414.654 457.975
901 0 99.2856 12.1266 1204 146.256 414.907 456.873
902 0 100.23 12.7008 1273 143.58 414.939 454.802
903 0 103.243 12.3883 1279 147.817 414.817 454.92
904 1 57.1114 10.3657 592 144.595 415.101 477.936
905 0 57.2017 11.3808 651 144.733 414.766 476.097
906 0 61.3908 11.9562 734 141.131 414.559 473.087
907 0 61.3908 11.9562 734 155.657 413.559 473.087
908 0 66.0386 12.417 820 140.277 415.476 472.793
909 0 67.0628 12.6598 849 139.644 415.455 471.016
910 0 70.1657 11.9859 841 142.87 415.235 469.918
911 0 73.1866 12.434 910 140.922 414.208 468.263
912 0 74.176 12.7939 949 133.753 414.423 467.378
913 0 78.2639 12.3173 964 138.491 414.464 466.629
914 0 80.1648 12.7986 1026 131.936 414.491 466.816
915 0 83.2177 12.4733 1038 131.516 414.6 463.869
916 0 84.3514 12.6258 1065 139.038 414.939 463.096
917 0 88.2534 12.4188 1096 140.711 415.011 462.711
918 0 90.4421 13.036 1179 137.317 415.013 460.767
919 0 92.5717 13.0061 1204 136.108 414.787 460.008
920 0 95.4275 12.8055 1222 138.754 414.861 458.825
921 0 101.497 13.5176 1372 132.659 414.772 456.122
922 0 103.497 13.1598 1362 135.119 415.307 454.087
923 0 105.412 13.3097 1403 136.403 414.865 453.699
924 1 54.2887 11.1625 606 144.203 415.216 477.381
925 0 55.2025 11.6843 645 137.913 415.453 478.163
926 0 57.158 11.8444 677 141.722 414.926 476.394
927 0 59.098 12.2678 725 141.353 415.273 474.228
928 0 59.0552 12.175 719 135.136 415.72 474.538
929 0 62.0902 12.6107 783 145.704 416.107 475.126
930 0 63.105 13.0418 823 142.471 416.322 473.908
931 0 65.1975 12.6232 823 142.07 415.473 473.129
932 0 66.3132 13.1497 872 134.405 415.123 472.428
933 0 68.206 13.0194 888 142.92 414.773 470.135
934 0 70.2681 12.6089 886 148.029 415.144 470.549
935 0 72.3853 13.0966 948 141.354 415.086 468.523
936 0 75.2663 13.3393 1004 140.733 415.072 466.806
937 0 76.3626 13.1871 1007 146.225 414.711 466.135
938 0 80.4126 13.4929 1085 144.857 414.994 464.369
939 0 83.3672 13.5545 1130 143.827 415.392 462.407
940 0 84.3324 13.3756 1128 150.138 415.307 460.546
941 0 89.4826 13.3657 1196 145.106 415.237 458.559
942 0 94.7235 13.1224 1243 148.407 414.694 456.802
943 0 97.6329 13.2537 1294 152.449 415.028 456.311
944 1 49.5853 11.3743 564 149.317 414.665 478.206
945 0 53.3645 11.3184 604 149.657 414.897 477.515
946 0 54.2257 11.9869 650 148.828 416.202 477.637
947 0 56.1566 11.8241 664 145.861 415.762 477.029
948 0 58.3292 12.0351 702 139.772 415.439 475.49
949 0 59.1935 11.8425 701 148.565 415.24 475.013
950 0 60.2249 12.0548 726 146.156 414.858 474.766
951 0 63.1612 11.8744 750 146.997 415.076 474.005
952 0 65.2048 12.2077 796 144.746 414.874 471.438
953 0 66.2836 12.6276 837 152.023 414.992 469.943
954 0 70.1495 12.174 854 152.803 414.694 469.471
955 0 72.1761 12.4002 895 148.865 414.992 467.272
956 0 74.1932 12.0766 896 144.521 414.788 466.599
957 0 78.1785 12.2284 956 149.958 415.042 465.017
958 0 80.209 12.2804 985 145.848 414.949 462.589
959 0 81.2942 12.1165 985 154.303 415.844 463.383
960 0 84.2352 12.2158 1029 152.072 415.562 460.956
961 0 87.3545 12.0772 1055 145.569 415.362 459.783
962 1 46.2412 9.47207 438 149.872 414.808 481.119
963 0 48.1418 9.61743 463 148.717 414.605 479.79
964 0 48.1284 10.0564 484 144.541 414.401 479.388
965 0 51.2071 10.4868 537 140.588 414.104 477.112
966 0 52.1157 11.2826 588 139.733 414.616 477.153
967 0 54.1399 11.1563 604 138.311 414.712 476.556
968 0 58.0197 11.3927 661 136.369 415.781 474.941
969 0 56.0362 11.5104 645 133.155 415.836 474.082
970 0 59.0251 11.6899 690 135.942 415.9 473.341
971 0 61.097 11.7518 718 137.646 415.9 472.701
972 0 63.0492 12.0382 759 135.769 415.804 472.681
973 0 65.165 11.8008 769 135.281 416.272 471.813
974 0 66.1361 11.4763 759 141.116 416.357 470.602
975 0 67.0472 11.6933 784 131.695 416.056 469.312
976 0 69.1409 12.1925 843 139.969 415.594 467.839
977 0 71.2722 12.0945 862 140.514 415.534 467.978
978 0 73.4898 12.5051 919 136.226 415.257 466.331
979 0 76.1067 12.2328 931 140.24 415.289 465.277
980 0 77.2796 12.5259 968 135.893 415.099 463.756
981 0 81.1453 12.4222 1008 140.136 414.77 462.229
982 1 43.0775 9.26238 399 144.446 414.9 482.674
983 0 44.1317 9.22239 407 130.735 414.629 482.624
984 0 47.2218 8.8942 420 139.071 414.588 481.145
985 0 47.0413 9.52355 448 124.833 414.612 480.871
986 0 46.0998 10.1302 467 136.034 414.792 480.413
987 0 49.0763 10.0863 495 142.428 414.638 479.537
988 0 51.1044 10.1361 518 136.469 415.971 479.189
989 0 52.208 11.0328 576 130.241 415.97 476.849
990 0 54.186 11.5343 625 133.595 415.189 476.891
991 0 55.0474 11.6627 642 135.815 416.578 476.316
992 0 57.0959 11.3668 649 134.267 416.528 475.148
993 0 58.0292 11.7699 683 138.909 416.082 473.54
994 0 59.0598 11.8863 702 137.271 416.422 473.358
995 0 60.0883 12.0489 724 141.22 416.276 472.548
996 0 63.0622 12.1309 765 141.773 416.401 470.775
997 0 66.0722 11.5782 765 138.86 416.299 468.988
998 0 67.1097 12.4423 835 135.766 416.071 467.847
999 0 67.0624 12.4213 833 138.582 416.636 467.281
1000 0 70.1587 12.4575 874 141.183 416.616 466.892
1001 0 72.1383 12.6285 911 143.809 416.122 466.138
1002 0 74.16 12.5135 928 149.691 416.172 465.453
1003 0 75.0972 13.0364 979 150.471 416.026 464.896
1004 0 78.1667 12.7164 994 145.215 416.624 463.859
1005 0 82.1655 12.4018 1019 145.875 416.189 462.694
1006 1 41.1548 9.59792 395 145.337 416.129 482.063
1007 0 45.1476 10.366 468 150.25 417.154 482.233
1008 0 46.0796 10.8725 501 144.279 416.804 480.774
1009 0 46.0518 11.3133 521 148.084 416.668 480.434
1010 0 48.0442 11.2397 540 139.528 416.73 480.619
1011 0 48.042 11.9479 574 142.866 416.991 479.211
1012 0 49.0427 12.5401 615 143.813 416.784 478.668
1013 0 52.0988 11.4398 596 142.149 417.024 477.329
1014 0 54.0681 12.4103 671 145.004 417.086 476.459
1015 0 55.0287 12.2663 675 145.81 416.981 476.726
1016 0 56.0495 12.6139 707 145.603 417.16 475.736
1017 0 57.1242 12.4291 710 145.938 417.424 475.91
1018 0 58.0937 12.738 740 144.569 416.277 475.311
1019 0 59.1448 12.9682 767 150.017 416.673 474.033
1020 0 60.0894 13.3468 802 149.36 416.842 473.842
1021 0 64.1048 12.4952 801 151.971 416.97 474.353
1022 0 66.1266 13.0054 860 166.093 416.373 472.249
1023 0 65.1056 13.3936 872 171.29 416.101 472.278
1024 0 69.1898 13.4557 931 166.81 415.582 471.059
1025 0 70.1409 13.4016 940 171.247 415.767 471.051
1026 0 71.1727 13.5726 966 173.806 416.226 469.159
1027 0 72.2479 13.7997 997 165.452 415.915 468.388
1028 0 74.3178 13.7921 1025 169.578 415.923 467.887
1029 0 79.1828 13.8161 1094 165.541 416.45 465.371
1030 0 81.3081 13.5903 1105 167.196 416.394 464.966
1031 0 82.4284 13.7938 1137 164.526 416.419 463.443
1032 0 84.4279 14.083 1189 166.269 416.723 461.939
1033 0 88.3897 13.4857 1192 162.169 416.567 459.962
1034 0 89.26 14.1609 1264 170.701 416.656 459.714
1035 0 94.4252 13.4816 1273 170.658 416.457 459.063
1036 1 49.154 12.1455 597 166.147 416.658 479.724
1037 0 52.0685 11.9842 624 156.258 416.936 480.005
1038 0 53.1615 12.4902 664 154.89 416.711 478.619
1039 0 55.0643 12.2402 674 161.252 416.69 477.383
1040 0 56.1908 12.5465 705 162.685 416.718 476.257
1041 0 57.1284 12.4807 713 161.404 416.686 477.47
1042 0 60.1471 12.5692 756 164.307 416.399 475.635
1043 0 61.1456 12.5765 769 160.901 416.527 475.191
1044 0 64.1322 12.4274 797 158.778 416.812 474.159
1045 0 65.0873 12.875 838 162.477 416.609 473.209
1046 0 67.0867 12.536 841 162.571 416.395 472.848
1047 0 69.1417 12.7275 880 155.57 416.54 470.984
1048 0 70.1043 13.1518 922 164.254 416.081 470.795
1049 0 73.1177 13.0201 952 162.508 416.316 469.49
1050 0 77.1873 13.1887 1018 161.063 416.3 467.814
1051 0 78.133 13.2978 1039 162.223 416.415 466.903
1052 0 82.0762 12.8174 1052 164.893 416.519 466.092
1053 0 84.1294 13.0394 1097 159.022 417.784 463.365
1054 0 88.1421 12.9223 1139 162.143 416.838 462.09
1055 1 46.0118 11.5405 531 163.65 417.004 481.719
1056 0 49.0593 11.5167 565 158.715 416.731 481.699
1057 0 50.0577 11.9862 600 154.227 416.657 480.855
1058 0 51.0437 12.2052 623 160.579 416.379 479.859
1059 0 51.0616 12.8276 655 155.65 416.724 479.017
1060 0 54.0851 12.5728 680 154.831 416.838 479.066
1061 0 55.1789 12.5954 695 156.692 416.235 478.118
1062 0 57.1535 12.7726 730 155.562 416.23 477.421
1063 0 59.1821 12.8248 759 157.851 416.433 476.173
1064 0 62.203 12.7968 796 153.754 416.221 475.075
1065 0 64.1652 12.4678 800 155.99 416.226 473.932
1066 0 65.1723 12.9043 841 155.238 416.112 472.205
1067 0 66.1359 13.0035 860 157.284 416.256 471.259
1068 0 68.1153 13.3156 907 161.642 416.993 469.998
1069 0 73.1694 12.8332 939 162.437 417.122 468.192
1070 0 76.2016 12.8081 976 160.75 417.032 467.086
1071 0 79.1683 13.0355 1032 157.302 417.328 465.411
1072 0 80.2345 12.9869 1042 156.882 417.644 463.842
1073 0 85.173 12.4335 1059 155.854 417.103 462.707
1074 0 87.1903 12.3638 1078 159.353 417.268 461.406
1075 0 91.0571 12.4318 1132 156.884 417.618 460.507
1076 1 47.0545 11.4548 539 161.417 418.113 481.724
1077 0 49.0141 11.3437 556 155.757 417.935 480.466
1078 0 50.191 11.5957 582 154.299 417.574 480.809
1079 0 51.1743 11.7637 602 146.482 416.847 479.664
1080 0 54.2481 11.7239 636 154.168 416.421 477.97
1081 0 55.2954 11.8274 654 152.693 417.05 477.739
1082 0 57.197 11.8188 676 149.006 416.534 477.235
1083 0 58.2462 12.3957 722 151.521 416.756 476.916
1084 0 60.198 12.3924 746 143.201 416.846 474.429
1085 0 62.1288 12.2487 761 145.007 417.627 474.59
1086 0 63.2471 12.2535 775 148.347 417.04 473.591
1087 0 67.221 11.9011 800 150.242 416.938 470.99
1088 0 69.087 12.3178 851 154.069 417.499 470.164
1089 0 71.1371 12.4408 885 152.538 416.965 468.609
1090 0 73.0639 11.9485 873 149.966 417.362 467.695
1091 0 75.0992 12.1839 915 156.661 417.001 467.341
1092 0 75.17 12.6646 952 148.875 416.899 464.715
1093 0 78.1246 12.3649 966 150.854 417.207 464.082
1094 0 82.1301 12.6507 1039 150.013 417.709 463.728
1095 0 84.1946 12.2929 1035 151.04 417.268 462.033
1096 1 44.0289 10.4704 461 149.764 418.024 482.722
1097 0 45.0745 11.2259 506 150.551 416.972 481.923
1098 0 48.0748 11.2325 540 152.437 417.157 481.526
1099 0 50.0448 10.7504 538 147.959 415.976 480.506
1100 0 50.1299 11.6697 585 147.508 415.708 479.222
1101 0 51.139 11.6545 596 146.01 416.238 478.866
1102 0 53.1551 11.4006 606 150.926 416.391 477.865
1103 0 54.1836 11.7932 639 148.255 416.527 477.895
1104 0 57.2805 11.6095 665 141.588 416.371 476.633
1105 0 57.2805 11.6095 665 150.397 415.371 476.633
1106 0 58.1766 11.8776 691 147.569 416.462 474.541
1107 0 59.147 12.6634 749 146.794 416.202 474.013
1108 0 62.1645 12.3221 766 151.298 415.967 473.43
1109 0 64.094 12.0292 771 152.34 416.484 472.13
1110 0 66.1113 12.1311 802 147.999 416.575 471.323
1111 0 67.1578 12.1951 819 149.413 416.342 470.67
1112 0 70.094 12.2692 860 150.163 415.976 469.19
1113 0 72.1252 12.2426 883 152.166 415.416 467.576
1114 0 74.1254 12.5598 931 147.636 415.473 466.86
1115 1 38.0357 10.4376 397 147.773 416.179 484.438
1116 0 39.0551 10.4468 408 148.015 416.426 484.983
1117 0 41.0253 10.3107 423 151.142 416.709 485.362
1118 0 40.159 10.7074 430 144.472 416.167 484.735
1119 0 43.0806 10.9794 473 141.197 416.313 483.594
1120 0 43.015 11.8098 508 149.892 416.892 483.691
1121 0 43.0752 12.5826 542 143.611 416.153 482.559
1122 0 47.0595 12.0698 568 142.761 416.004 481.102
1123 0 49.1348 11.8653 583 149.081 416.124 480.818
1124 0 49.0538 12.313 604 145.255 416.313 479.455
1125 0 49.0385 12.3372 605 139.585 416.327 480.046
1126 0 53.032 11.7853 625 148.083 417.021 479.786
1127 0 53.0418 12.5561 666 141.722 416.947 477.392
1128 0 53.1366 12.816 681 151.388 416.398 478.191
1129 0 57.0318 12.9752 740 145.845 416.146 476.464
1130 0 59.0238 12.6898 749 154.983 415.758 475.633
1131 0 60.0611 13.0867 786 142.569 415.991 475.084
1132 0 62.0223 12.7696 792 154.403 415.559 474.792
1133 0 64.0346 12.868 824 154.245 415.708 472.989
1134 0 66.0586 13.0187 860 157.01 416.14 472.049
1135 0 68.2145 12.9884 886 153.455 415.797 471.198
1136 0 70.0883 12.7553 894 153.103 415.695 470.593
1137 0 73.1164 12.6921 928 152.513 415.688 470.111
1138 0 76.059 12.7401 969 149.632 416.149 468.112
1139 0 77.2144 12.8733 994 156.37 415.178 468.057
1140 1 38.1045 11.416 435 158.503 414.871 485.464
1141 0 42.0666 11.149 469 151.107 415.576 484.516
1142 0 44.2343 11.8686 525 152.295 415.829 483.055
1143 0 45.1201 12.0124 542 152.83 415.71 482.594
1144 0 45.0655 12.6705 571 153.548 415.096 481.732
1145 0 47.1091 12.2269 576 155.443 415.102 481.535
1146 0 47.2131 12.3271 582 152.077 415.04 481.273
1147 0 49.1191 12.5206 615 147.452 415.161 479.912
1148 0 52.1159 12.0309 627 149.77 415.81 480.059
1149 0 50.1452 13.1418 659 138.191 415.461 478.897
1150 0 56.1331 12.4169 697 18.1263 415.166 478.329
1151 0 55.1645 12.4718 688 152.023 415.14 476.757
1152 0 57.1085 13.0979 748 147.504 415.159 475.556
1153 0 59.1258 12.9047 763 140.367 414.621 474.799
1154 0 61.1492 12.7557 780 151.077 414.71 473.569
1155 0 64.0947 12.5283 803 148.202 414.874 472.386
1156 0 65.1366 12.6196 822 144.518 414.007 471.549
1157 0 67.0943 12.6091 846 146.22 414.177 471.522
1158 0 70.1056 12.3671 867 148.055 414.083 469.68
1159 0 73.1008 12.4896 913 148.039 415.522 468.775
1160 1 38.0212 10.1785 387 148.977 415.997 486.354
1161 0 39.0351 10.6571 416 145.276 416.894 484.505
1162 0 39.0058 11.4598 447 137.919 416.779 484.072
1163 0 40.1246 11.6387 467 144.829 414.597 475.685
1164 0 41.1059 11.7015 481 137.786 415.046 483.162
1165 0 42.1731 11.9033 502 140.351 416.434 483.241
1166 0 45.1391 11.5864 523 138.744 415.316 481.348
1167 0 47.1428 11.7727 555 138.768 414.903 481.341
1168 0 48.0165 12.1625 584 133.118 414.392 480.31
1169 0 49.1094 12.0547 592 139.206 414.802 479.562
1170 0 51.0974 12.2902 628 142.567 414.908 478.755
1171 0 52.0519 12.0841 629 142.119 413.866 477.634
1172 0 52.0746 12.6741 660 141.641 415.17 477.632
1173 0 56.132 12.2568 688 140.715 414.76 476.339
1174 0 57.1142 12.3262 704 137.962 415.003 475.695
1175 0 58.0743 12.6562 735 138.005 415.03 475.08
1176 0 59.0652 12.3762 731 141.178 415.161 474.761
1177 0 62.0746 12.5655 780 147.919 415.363 473.632
1178 0 64.131 12.2718 787 145.945 415.897 473.104
1179 0 65.1904 13.0387 850 139.669 415.84 471.211
1180 0 68.1036 12.6131 859 141.24 415.679 470.718
1181 0 70.132 12.4765 875 141.696 415.95 470.336
1182 0 71.0485 12.8504 913 148.479 415.886 468.256
1183 0 76.0986 12.878 980 146.554 415.558 466.752
1184 0 78.0647 12.4128 969 142.12 415.515 465.414
1185 1 41.0326 10.4551 429 146.1 416.177 485.869
1186 0 42.0153 10.5914 445 154.247 416.76 483.043
1187 0 43.0266 11.8066 508 152.02 416.035 482.305
1188 0 47.0526 11.5615 544 149.511 414.094 481.704
1189 0 49.2016 11.7882 580 152.266 415.243 481.41
1190 0 48.1264 12.3633 595 148.956 415.318 480.101
1191 0 51.0955 12.0754 617 150.992 415.154 479.77
1192 0 51.0656 12.0042 613 148.157 415.635 479.76
1193 0 54.283 12.0848 656 141.328 415.25 479.125
1194 0 56.0655 12.0217 674 144.12 415.596 477.953
1195 0 57.2743 11.8203 677 143.244 415.818 477.744
1196 0 59.2325 11.9191 706 144.986 415.829 475.336
1197 0 60.0883 12.0989 727 149.762 415.938 475.536
1198 0 63.1554 12.4297 785 150.55 416.461 473.261
1199 0 65.041 12.0847 786 145.361 415.85 472.606
1200 0 67.1619 12.4773 838 144.71 416.298 470.704
1201 0 69.0815 12.5214 865 145.083 415.704 470.958
1202 0 71.2349 12.2131 870 145.684 415.798 469.914
1203 0 74.132 12.8689 954 146.611 415.589 468.594
1204 0 74.1268 12.5596 931 150.12 415.581 467.526
1205 0 78.3114 12.5652 984 149.22 416.606 466.353
1206 1 41.0446 11.1586 458 149.548 417.304 483.638
1207 0 44.0263 11.2206 494 149.18 416.897 483.441
1208 0 46.0416 11.5113 530 143.387 417.008 482.513
1209 0 47.0924 11.8278 557 153.235 416.905 481.259
1210 0 48.0722 12.398 596 148.451 416.463 480.297
1211 0 50.0176 12.9354 647 145.424 417.272 479.892
1212 0 51.083 12.4699 637 151.454 417.305 480.03
1213 0 53.1134 12.9911 690 152.32 415.935 478.449
1214 0 53.1826 12.9742 690 155.065 415.833 477.842
1215 0 55.0985 12.8134 706 148.105 415.619 477.663
1216 0 57.1624 13.243 757 148.709 415.789 476.963
1217 0 58.2645 13.3186 776 145.376 416.411 475.053
1218 0 60.1308 12.8719 774 151.093 415.899 475.974
1219 0 61.232 13.1141 803 149.413 416.592 473.332
1220 0 62.2598 13.4918 840 153.894 416.571 472.482
1221 0 65.1347 13.5258 881 150.14 416.723 473.2
1222 0 67.1985 13.3485 897 152.76 416.498 471.819
1223 0 70.1458 13.2866 932 153.18 416.485 470.734
1224 0 71.1116 13.8233 983 148.476 416.093 469.481
1225 0 74.1696 14.1298 1048 153.436 416.24 467.919
1226 0 77.1489 13.9341 1075 148.005 416.488 466.181
1227 0 80.1217 13.8539 1110 149.879 416.586 465.252
1228 0 82.0681 13.8909 1140 152.198 416.448 464.357
1229 0 84.1259 13.5868 1143 156.538 416.701 462.329
1230 0 88.0887 13.3729 1178 156.684 416.902 460.899
1231 0 89.079 14.1672 1262 158.72 416.571 459.757
1232 1 50.1005 12.4749 625 153.006 417.349 478.867
1233 0 50.0954 12.4962 626 155.674 416.762 477.871
1234 0 52.1052 12.7243 663 157.388 416.54 478.103
1235 0 54.1231 12.7487 690 158.958 416.594 478.323
1236 0 56.0432 12.7937 717 160.303 416.791 477.262
1237 0 56.0616 13.1106 735 157.374 417.171 476.118
1238 0 59.1218 12.9901 768 161.4 416.982 474.788
1239 0 58.1013 13.4937 784 160.688 416.384 474.1
1240 0 63.1407 13.2878 839 163.998 416.664 472.871
1241 0 63.1338 13.5743 857 161.012 416.901 471.309
1242 0 65.1078 13.4853 878 163.128 416.473 470.363
1243 0 68.1085 13.5225 921 156.659 417.26 468.796
1244 0 70.0685 13.4868 945 160.636 416.91 467.656
1245 0 74.1782 13.2384 982 156.213 416.31 466.786
1246 0 74.162 13.5649 1006 162.339 415.781 465.199
1247 0 78.1433 13.3985 1047 158.476 416 464.549
1248 0 80.1118 13.6809 1096 164.998 416.463 462.652
1249 0 84.0842 13.6292 1146 158.017 416.633 461.318
1250 0 88.149 13.4885 1189 157.436 416.638 460.147
1251 0 91.0843 13.2295 1205 157.897 416.154 459.195
1252 1 44.0686 11.5275 508 159.392 416.724 480.671
1253 0 46.0696 11.7648 542 155.162 416.299 479.972
1254 0 48.1885 12.2851 592 151.486 416.12 478.456
1255 0 48.1122 12.7826 615 152.624 416.585 478.093
1256 0 50.1648 12.3194 618 147.523 417.71 476.256
1257 0 52.0829 12.6337 658 149.939 417.278 475.541
1258 0 52.0551 12.4483 648 148.452 416.08 475.978
1259 0 54.1 12.6617 685 143.663 416.717 474.061
1260 0 56.0655 12.6994 712 145.034 416.288 472.421
1261 0 57.0864 12.63 721 140.003 416.323 472.287
1262 0 59.1503 12.4091 734 143.722 416.426 471.377
1263 0 60.0579 12.5712 755 144.139 416.742 470.812
1264 0 64.1263 12.1011 776 147.465 416.822 469.568
1265 0 65.1573 13.0761 852 144.224 417.39 467.958
1266 0 67.1862 12.577 845 138.56 417.075 466.979
1267 0 70.0486 12.2629 859 142.135 417.375 466.434
1268 1 37.0216 9.48095 351 142.544 417.858 482.345
1269 0 40.0277 10.4178 417 141.06 417.739 481.794
1270 0 40.1233 10.2933 413 142.281 418.157 481.4
1271 0 43.0682 10.7736 464 142.422 417.782 479.582
1272 0 44.0219 11.1535 491 136.124 417.707 479.185
1273 0 46.1225 11.7079 540 136.717 417.931 478.476
1274 0 47.1239 11.3318 534 140.045 416.745 478.749
1275 0 48.2558 12.1643 587 139 416.896 478.521
1276 0 51.141 11.654 596 139.698 416.641 476.416
1277 0 52.1162 11.6087 605 141.757 416.922 474.868
1278 0 53.1533 11.8713 631 139.656 416.826 475.241
1279 0 53.1651 12.038 640 140.58 416.848 473.983
1280 0 56.13 12.2394 687 143.464 417.16 473.613
1281 0 58.1377 12.092 703 138.293 417.158 472.41
1282 0 59.1686 11.7799 697 136.584 417.737 471.446
1283 0 61.1472 12.3636 756 144.028 417.619 470.487
1284 0 63.206 12.483 789 146.582 417.161 469.82
1285 0 65.1556 12.3397 804 144.949 416.935 468.629
1286 0 68.1078 12.4215 846 145.797 417.426 467.965
1287 0 70.1355 12.4473 873 142.373 417.712 467.077
1288 0 72.1321 12.9069 931 152.81 417.456 466.547
1289 0 73.128 13.0456 954 145.403 417.453 464.714
1290 0 76.1572 12.7237 969 150.54 417.233 463.913
1291 0 78.094 12.8819 1006 152.343 417.649 462.637
1292 0 82.097 12.5705 1032 149.173 417.83 460.635
1293 1 42.0993 11.2116 472 150.023 418.602 480.61
1294 0 43.2184 11.4072 493 147.012 416.546 479.458
1295 0 45.1027 11.9505 539 143.495 418.109 478.98
1296 0 47.1927 11.9934 566 151.783 418.011 479.175
1297 0 49.1308 11.4592 563 136.034 418.083 478.353
1298 0 48.1279 12.1551 585 153.834 417.757 477.578
1299 0 51.2737 11.9165 611 152.362 418.468 477.419
1300 0 51.1793 12.3097 630 151.446 418.1 476.708
1301 0 51.133 12.4968 639 156.222 418.067 476.551
1302 0 55.2772 12.2474 677 156.524 418.926 475.394
1303 0 56.1662 12.285 690 155.332 419.287 473.809
1304 0 58.1348 12.2646 713 149.864 418.352 473.676
1305 0 58.1598 12.9643 754 145.936 417.686 471.69
1306 0 60.222 12.7196 766 148.671 417.726 470.902
1307 0 62.2656 12.6715 789 151.327 417.951 470.679
1308 0 66.0822 12.4391 822 151.741 417.63 469.219
1309 0 67.0968 12.4298 834 149.403 418.096 468.019
1310 0 69.0991 12.5906 870 146.985 417.861 466.485
1311 0 71.1394 12.5106 890 145.009 417.624 466.48
1312 0 73.3668 12.5943 924 134.004 417.464 465.643
1313 0 75.3098 12.588 948 148.921 417.675 464.115
1314 0 76.3037 13.2759 1013 142.18 418.035 462.451
1315 0 81.3858 12.6926 1033 141.104 417.789 460.548
1316 0 83.2916 12.8945 1074 143.273 417.927 459.625
1317 0 86.4865 12.6725 1096 142.906 417.485 457.496
1318 1 44.2348 9.76607 432 141.586 417.836 479.565
1319 0 45.0847 10.5801 477 144.813 418.157 476.767
1320 0 48.066 10.5064 505 144.131 418.301 476.111
1321 0 49.2093 11.2987 556 141.011 418.347 476.126
1322 0 49.1472 11.6995 575 136.97 417.903 474.414
1323 0 51.059 12.3387 630 141.071 418.34 473.76
1324 0 52.0576 11.7178 610 138.111 416.993 474.118
1325 0 56.0998 12.0856 678 138.245 417.022 472.032
1326 0 56.0795 12.0365 675 136.139 416.985 471.643
1327 0 60.1957 12.0108 723 139.278 417.351 471.351
1328 0 59.1579 12.3399 730 135.938 417.416 469.851
1329 0 62.1732 11.8379 736 137.784 417.674 469.677
1330 0 63.0829 11.8891 750 136.336 417.327 468.036
1331 0 66.0908 12.3618 817 140.072 417.556 466.742
1332 0 67.1569 12.4634 837 138.131 417.939 465.573
1333 0 70.1712 12.1845 855 142.16 417.528 463.849
1334 0 74.1422 12.4086 920 142.81 418.043 462.654
1335 0 76.1496 12.0421 917 127.484 417.935 462.445
1336 0 79.1257 12.1958 965 147.702 418.039 461.698
1337 0 81.169 12.4678 1012 143.66 418.037 459.197
1338 1 44.0517 10.5331 464 151.873 418.291 478.237
1339 0 45.0793 10.781 486 147.187 417.73 477.498
1340 0 47.0839 10.7892 508 142.468 417.677 476.313
1341 0 48.0934 11.6856 562 138.19 418.427 475.76
1342 0 48.0646 11.8174 568 136.012 418.342 475.623
1343 0 50.214 11.6302 584 137.902 418.074 474.598
1344 0 51.0941 12.154 621 129.738 418.585 472.989
1345 0 53.1842 12.2405 651 137.338 418.459 473.169
1346 0 53.0941 12.0164 638 139.215 418.944 473.32
1347 0 55.0587 12.4231 684 139.307 418.582 472.563
1348 0 58.1407 12.4009 721 132.555 418.757 471.184
1349 0 60.0791 12.134 729 137.658 418.236 469.798
1350 0 62.1887 12.4299 773 137.877 418.257 468.96
1351 0 62.1847 12.3503 768 139.893 418.216 468.159
1352 0 65.0827 12.4303 809 136.074 418.213 467.732
1353 0 68.1295 12.3295 840 142.162 418.111 465.773
1354 0 70.1102 12.1808 854 131.074 417.973 465.056
1355 0 73.266 12.3932 908 143.697 417.866 463.852
1356 0 75.122 12.2201 918 143.621 418.029 462.813
1357 0 77.1232 12.4347 959 137.41 418.051 461.313
1358 1 41.0191 9.70281 398 141.744 418.9 478.731
1359 0 42.0465 10.203 429 151.904 418.816 479.326
1360 0 43.0905 10.9073 470 151.098 419.072 479.174
1361 0 46.1529 11.2236 518 144.394 418.946 476.822
1362 0 47.1081 11.8239 557 140.384 419.637 476.23
1363 0 47.1001 11.9957 565 138.158 420.209 475.016
1364 0 50.0587 12.0259 602 139.669 419.41 474.756
1365 0 50.0922 12.477 625 138.733 419.475 472.922
1366 0 53.0723 12.3793 657 140.148 419.143 473.795
1367 0 52.0426 12.778 665 141.907 419.004 472.492
1368 0 55.0392 12.7 699 141.313 418.791 471.967
1369 0 58.0769 12.5351 728 136.391 418.706 470.841
1370 0 58.0719 12.7945 743 136.381 418.402 470.311
1371 0 61.1614 12.4752 763 135.872 419.144 468.469
1372 0 61.0696 13.1162 801 136.948 419.266 467.966
1373 0 63.0927 12.8699 812 128.732 419.201 467.803
1374 0 66.0993 12.6023 833 133.968 419.149 466.982
1375 0 68.1244 13.0643 890 137.31 419.409 465.065
1376 0 69.0799 13.1008 905 138.099 418.899 464.545
1377 0 74.1445 14.5796 1081 130.209 418.836 461.502
1378 0 74.1566 13.0804 970 136.915 419.161 462.35
1379 0 75.1121 13.4599 1011 135.283 418.728 461.617
1380 0 77.2528 13.2552 1024 138.312 418.115 460.018
1381 0 79.1793 13.1853 1044 140.707 417.762 459.228
1382 0 82.0849 12.8404 1054 136.526 419.252 457.85
1383 0 85.0991 13.0906 1114 139.939 418.742 456.54
1384 1 44.1287 10.9226 482 137.593 418.266 477.137
1385 0 47.1597 10.6023 500 144.134 418.784 476.294
1386 0 48.4617 10.8539 526 141.899 418.772 474.38
1387 0 50.2514 11.5022 578 129.341 418.848 474.761
1388 0 50.2227 12.126 609 141.34 418.995 474.108
1389 0 52.0763 12.0784 629 143.121 419.043 474.957
1390 0 56.0331 12.0643 676 142.346 419.404 473.584
1391 0 57.0896 12.8745 735 144.463 420.044 471.79
1392 0 58.0706 12.657 735 141.776 419.656 471.263
1393 0 59.116 12.8053 757 144.975 419.143 471.337
1394 0 62.0846 12.6602 786 141.654 419.379 470.223
1395 0 63.2034 12.6417 799 144.001 419.23 470.154
1396 0 65.0783 13.3685 870 138.495 419.638 468.271
1397 0 66.2131 13.1847 873 147.529 419.368 467.835
1398 0 70.088 13.1834 924 146.082 419.726 465.761
1399 0 71.116 12.9085 918 150.268 419.389 465.94
1400 0 74.2599 13.3046 988 149.264 419.194 464.917
1401 0 75.2954 13.3076 1002 150.261 419.176 463.026
1402 0 77.2694 13.1488 1016 142.758 418.38 463.106
1403 0 80.1263 13.4787 1080 161.052 418.223 462.181
1404 0 82.2392 13.2297 1088 156.688 418.022 460.833
1405 0 85.202 12.8401 1094 153.347 417.083 459.579
1406 0 88.0762 13.3748 1178 151.074 417.753 456.999
1407 0 91.114 13.4337 1224 155.312 417.429 456.477
1408 0 96.2784 13.0767 1259 155.736 417.91 456.116
1409 0 97.0998 12.9557 1258 156.312 417.982 453.893
1410 0 100.167 13.8968 1392 148.947 417.619 451.042
1411 1 53.1223 11.37 604 157.488 418.089 476.523
1412 0 56.2778 12.1895 686 150.481 417.853 473.768
1413 0 57.126 12.4987 714 150.763 416.268 474.359
1414 0 59.1263 12.3803 732 151.71 416.098 470.799
1415 0 60.2154 12.7376 767 143.265 414.962 470.162
1416 0 63.2012 13.1168 829 138.565 414.526 468.668
1417 0 66.0786 12.7273 841 142.193 414.131 467.847
1418 0 67.1067 12.6813 851 140.264 414.545 467.726
1419 0 71.167 12.1545 865 141.054 414.451 467.469
1420 0 71.258 12.8126 913 144.412 414.041 464.57
1421 0 73.1238 13.1694 963 143.636 414.288 466.288
1422 0 76.1431 12.9887 989 139.497 414.165 463.943
1423 0 77.0898 13.2184 1019 137.581 414.84 463.412
1424 0 81.2136 12.9412 1051 150.33 416.441 465.533
1425 0 82.2432 12.7305 1047 145.798 415.933 463.595
1426 0 85.3097 13.199 1126 150.162 415.835 461.423
1427 0 89.2202 12.8222 1144 143.761 415.072 456.944
1428 0 91.2147 13.079 1193 151.167 415.428 458.233
1429 1 48.0808 10.6487 512 143.465 414.869 480.09
1430 0 51.1686 11.1787 572 160.956 415.449 479.063
1431 0 53.2833 12.4429 663 155.508 415.139 476.911
1432 0 53.2833 12.4429 663 161.744 414.139 476.911
1433 0 54.0351 12.2328 661 147.519 414.778 478.387
1434 0 56.2763 12.6874 714 153.161 413.531 475.717
1435 0 56.3668 12.8977 727 152.986 413.802 471.916
1436 0 59.2552 13.1803 781 149.122 414.091 470.342
1437 0 62.347 12.9276 806 160.376 414.217 471.04
1438 0 65.3403 12.8711 841 159.931 413.718 471.552
1439 0 68.3248 12.9968 888 156.329 413.887 470.926
1440 0 69.2267 12.9141 894 154.727 413.843 467.841
1441 0 72.1148 12.9516 934 154.552 413.899 464.115
1442 0 74.3598 13.0043 967 150.338 414.745 467.292
1443 0 76.3422 13.4788 1029 158.987 414.066 469.697
1444 0 80.1266 13.0668 1047 153.119 414.003 467.901
1445 0 81.2336 13.4673 1094 157.099 413.73 468.615
1446 0 85.3223 13.0329 1112 155.602 414.255 465.493
1447 0 87.2442 12.998 1134 160.04 414.656 462.483
1448 1 47.1168 11.1637 526 162.068 414.3 482.93
1449 0 48.1974 11.4944 554 163.987 413.883 483.209
1450 0 50.2241 11.6876 587 161.019 413.961 482.371
1451 0 50.2112 12.7462 640 156.227 413.873 477.894
1452 0 53.0847 12.3576 656 150.982 415.105 480.898
1453 0 55.1749 12.2882 678 150.732 414.982 478.833
1454 0 57.1261 12.5337 716 158.261 414.771 478.102
1455 0 58.2188 12.8996 751 158.119 414.98 476.141
1456 0 60.1028 14.1424 850 145.855 414.719 475.413
1457 0 61.1479 12.8541 786 153.725 414.602 474.509
1458 0 62.1896 12.9604 806 155.988 414.978 473.962
1459 0 66.2155 12.263 812 153.033 415.31 473.039
1460 0 68.3077 12.7804 873 150.222 415.321 469.699
1461 0 68.3412 13.3155 910 151.149 415.06 468.879
1462 0 73.1675 12.6696 927 152.56 416.116 469.792
1463 0 74.099 12.9961 963 156.949 414.855 468.739
1464 0 76.3904 12.7503 974 138.929 415.109 468.239
1465 0 76.2772 13.1756 1005 152.876 415.08 466.75
1466 0 80.312 13.2732 1066 161.827 415 465.248
1467 0 83.4968 12.8508 1073 160.365 416.012 463.722
1468 0 85.3169 12.9517 1105 162.111 416.557 461.888
1469 0 88.4568 13.2833 1175 159.366 416.376 459.837
1470 0 89.3262 13.6578 1220 151.502 416.34 457.224
1471 0 95.4169 13.4777 1286 158.858 416.413 456.334
1472 0 96.3664 13.6458 1315 160.31 416.945 453.764
1473 0 101.514 13.1509 1335 162.277 416.53 453.14
1474 0 103.332 13.3454 1379 158.252 417.058 450.525
1475 0 107.402 13.3237 1431 163.182 416.809 448.528
1476 0 111.528 13.306 1484 159.596 417.323 446.918
1477 0 114.305 13.7264 1569 156.342 416.839 442.751
1478 1 59.2223 12.4109 735 162.411 417.256 471.211
1479 0 61.2343 11.8234 724 161.43 417.595 471.564
1480 0 64.1559 12.2046 783 150.318 417.669 470.134
1481 0 66.2885 12.3852 821 162.353 418.038 469.534
1482 0 68.3141 12.1058 827 164.635 418.222 467.947
1483 0 70.2882 12.3634 869 157.665 418.044 466.659
1484 0 73.2859 12.7855 937 157.594 418.223 465.715
1485 0 74.1882 12.8053 950 160.951 418.236 464.618
1486 0 77.255 12.5817 972 158.884 417.751 463.666
1487 0 78.1836 12.9567 1013 162.819 417.572 464.19
1488 0 83.2644 12.5144 1042 161.96 417.873 462.254
1489 0 84.2446 13.0453 1099 162.115 417.513 461.037
1490 0 86.4422 12.8872 1114 162.809 416.501 459.813
1491 0 89.3305 13.2765 1186 165.781 416.75 458.145
1492 0 91.1894 13.3349 1216 163.514 416.776 458.384
1493 0 93.1962 13.316 1241 164.29 416.576 456.84
1494 0 96.3298 13.4953 1300 161.455 416.585 454.522
1495 0 99.2477 13.1187 1302 163.095 416.099 455.156
1496 0 103.26 13.4999 1394 164.964 416.55 452.392
1497 0 107.31 13.1488 1411 159.787 416.53 450.439
1498 0 109.416 13.5447 1482 162.884 416.559 449.425
1499 1 51.0713 12.0812 617 148.958 415.783 478.081
1500 0 53.0351 12.5389 665 151.738 415.716 477.295
1501 0 54.0933 12.6448 684 145.317 415.564 474.484
1502 0 57.1103 13.0449 745 149.823 416.156 466.965
1503 0 58.1194 13.2658 771 154.97 416.453 469.996
1504 0 61.1355 12.9876 794 151.496 416.071 472.821
1505 0 62.101 13.462 836 151.029 415.28 472.63
1506 0 64.2661 13.3041 855 151.601 415.392 469.854
1507 0 65.1458 13.6156 887 151.263 415.852 469.976
1508 0 69.0917 13.967 965 146.725 416.116 463.214
1509 0 68.2953 14.0566 960 143.947 415.884 468.635
1510 0 71.2507 13.4595 959 152.516 416.069 468.996
1511 0 72.3096 13.6773 989 147.812 415.913 467.783
1512 0 75.2092 13.509 1016 154.353 415.802 465.704
1513 0 79.431 13.4204 1066 148.169 415.35 463.657
1514 0 81.3328 13.4755 1096 145.83 415.281 463.085
1515 1 42.039 11.5369 485 154.28 415.014 482.239
1516 0 44.0838 11.9091 525 150.396 414.863 481.379
1517 0 46.0277 12.7097 585 155.814 414.81 482.315
1518 0 45.1551 12.8225 579 159.82 414.701 481.465
1519 0 48.1312 12.7568 614 153.832 414.461 481.365
1520 0 48.1133 13.198 635 153.479 414.701 481.655
1521 0 51.0725 12.8249 655 156.261 414.908 480.221
1522 0 51.1346 13.2591 678 149.631 414.612 478.706
1523 0 55.2138 12.8772 711 152.225 414.236 478.983
1524 0 56.0633 13.0745 733 150.035 414.401 477.731
1525 0 57.2137 13.1262 751 151.799 414.636 476.664
1526 0 58.2579 13.3201 776 149.956 414.439 475.116
1527 0 62.4255 12.9114 806 159.203 414 474.273
1528 0 64.2453 13.1683 846 154.722 414.593 473.005
1529 0 66.2079 13.0498 864 155.661 414.182 471.765
1530 0 69.3911 13.4743 935 158.43 414.891 470.938
1531 0 70.1517 13.3995 940 159.423 415.071 468.795
1532 0 74.2538 13.4134 996 157.631 414.405 467.519
1533 0 77.3285 13.3715 1034 154.638 414.847 467.194
1534 0 79.3942 13.6534 1084 156.035 414.466 465.41
1535 0 83.3507 13.3052 1109 154.743 414.272 463.908
1536 1 44.1233 12.0571 532 164.991 414.124 481.69
1537 0 47.1901 11.9093 562 160.105 414.383 480.205
1538 0 47.3275 12.7199 602 165.171 415.352 479.473
1539 0 48.2425 13.059 630 157.475 415.314 477.289
1540 0 51.31 12.7071 652 150.879 415.466 479.026
1541 0 52.2701 12.8563 672 153.335 415.217 477.388
1542 0 54.2958 12.5424 681 150.257 415.573 476.449
1543 0 55.3253 12.9959 719 161.499 415.716 475.773
1544 0 57.3043 13.28 761 156.738 415.608 473.97
1545 0 59.3861 13.3533 793 156.029 415.844 473.75
1546 0 62.3389 12.9614 808 155.875 415.495 473.744
1547 0 67.5594 15.8231 1069 138.893 415.673 469.112
1548 0 71.7217 15.7135 1127 139.702 415.739 467.727
1549 0 70.4254 15.662 1103 139.997 415.658 465.991
1550 0 72.3369 14.709 1064 150.725 415.377 466.476
1551 0 74.4145 14.1236 1051 151.69 415.457 466.132
1552 0 74.3079 13.7536 1022 161.755 415.645 466.45
1553 0 77.3266 13.4236 1038 164.575 415.672 464.408
1554 0 78.4983 13.4143 1053 160.642 415.724 463.643
1555 0 82.3262 13.3129 1096 84.8047 415.488 462.001
1556 0 84.4431 13.82 1167 169.262 415.656 460.449
1557 0 88.2071 13.3549 1178 165.58 416.291 459.311
1558 0 92.2081 13.4804 1243 165.941 416.274 457.023
1559 1 48.2443 12.7269 614 164.547 416.792 478.366
1560 0 50.2294 12.9804 652 167.799 415.853 481.71
1561 0 52.1967 12.9893 678 171.863 416.462 480.54
1562 0 52.1744 13.2057 689 171.418 416.727 479.393
1563 0 52.2244 13.7101 716 168.218 416.804 478.774
1564 0 55.1918 13.281 733 175.334 416.686 477.378
1565 0 57.2468 13.4331 769 167.59 416.653 475.72
1566 0 58.4616 13.5645 793 172.23 417.339 475.899
1567 0 61.4842 13.3368 820 166.957 417.211 473.009
1568 0 64.3014 13.5767 873 168.838 417.096 472.302
1569 0 65.6747 13.3994 880 170.472 417.293 469.536
1570 0 67.6194 13.6204 921 163.623 417.352 466.899
1571 0 70.3792 13.4841 949 166.522 417.104 466.87
1572 0 72.5765 13.5581 984 164.474 417.102 465.325
1573 0 73.7577 13.7748 1016 168.874 417.101 463.716
1574 0 76.5864 13.6708 1047 170.382 417.119 462.376
1575 0 79.9762 13.6666 1093 166.265 417.452 460.948
1576 0 83.6373 13.5825 1136 167.174 417.409 460.268
1577 0 85.5694 13.6848 1171 168.688 417.512 458.574
1578 0 87.6222 13.6267 1194 162.796 417.338 456.229
1579 0 91.6514 13.6714 1253 162.783 417.716 454.173
1580 0 94.6256 13.6327 1290 158.678 417.837 452.51
1581 0 98.6031 13.7115 1352 166.524 417.623 452.007
1582 0 101.476 13.5796 1378 163.816 417.507 451.504
1583 0 103.376 13.6395 1410 165.73 417.621 450.935
1584 1 57.3484 12.4502 714 157.254 417.472 474.097
1585 0 58.3672 12.8497 750 160.489 417.776 472.651
1586 0 59.345 12.9413 768 162.449 417.642 468.284
1587 0 60.3288 13.327 804 157.035 417.133 468.012
1588 0 62.3206 13.0615 814 162.269 417.444 468.144
1589 0 65.1883 13.3613 871 161.789 417.643 466.944
1590 0 67.3512 13.2737 894 162.798 417.53 466.973
1591 0 69.2011 13.2512 917 161.952 417.545 464.656
1592 0 71.1768 13.4735 959 165.489 417.802 464.839
1593 0 73.3321 13.3775 981 164.174 417.737 464.753
1594 0 75.467 13.5953 1026 168.327 417.846 462.276
1595 0 76.2798 13.8438 1056 168.038 417.55 461.322
1596 0 80.3438 13.5791 1091 164.151 417.493 459.941
1597 0 82.3122 13.6553 1124 167.229 417.318 457.868
1598 0 83.311 13.8877 1157 164.006 417.269 456.305
1599 0 87.3037 13.8253 1207 158.766 417.112 455.118
1600 0 90.319 13.8398 1250 166.246 417.284 453.394
1601 0 93.2345 13.8468 1291 164.078 417.379 452.284
1602 0 98.2543 13.7399 1350 157.507 417.279 450.428
1603 1 51.0169 12.4861 637 155.52 417.369 473.532
1604 0 53.099 12.3919 658 158.011 417.363 472.281
1605 0 54.1245 13.2472 717 156.254 417.622 471.508
1606 0 57.2744 12.6584 725 159.001 417.593 471.457
1607 0 59.12 13.295 786 153.257 417.873 469.996
1608 0 63.1203 13.2446 836 156.079 417.522 471.53
1609 0 65.1295 13.3887 872 154.392 417.218 469.893
1610 0 67.2172 13.5233 909 149.935 417.232 468.848
1611 0 70.1354 13.4597 944 151.114 417.225 467.721
1612 0 73.2477 13.311 975 150.07 416.485 466.94
1613 0 74.283 13.5293 1005 149.777 416.36 466.297
1614 0 77.1815 13.5136 1043 147.961 416.58 464.249
1615 0 80.2065 13.3032 1067 154.514 416.724 462.6
1616 0 82.0865 13.632 1119 149.552 416.272 461.536
1617 0 84.2456 13.4963 1137 151.493 415.812 460.567
1618 0 88.2339 13.7702 1215 154.192 416.108 458.8
1619 0 91.303 13.3292 1217 151.53 416.288 457.431
1620 1 46.2374 11.2679 521 152.534 416.459 479.699
1621 0 48.1134 11.6184 559 155.671 416.555 478.665
1622 0 49.0608 12.1482 596 153.232 416.849 478.537
1623 0 50.0324 13.3114 666 146.851 416.793 478.194
1624 0 53.0303 12.672 672 152.095 415.924 477.868
1625 0 54.184 12.4391 674 145.516 416 478.521
1626 0 56.1022 12.7446 715 148.203 415.422 478.552
1627 0 57.061 12.4603 711 157.436 414.893 476.636
1628 0 59.1459 13.1708 779 151.789 414.316 476.077
1629 0 60.1177 13.2074 794 153.897 414.306 474.791
1630 0 61.0735 13.3282 814 151.482 414.618 474.275
1631 0 64.0727 13.3598 856 157.714 414.202 473.622
1632 0 65.0958 13.3035 866 149.402 414.253 472.188
1633 0 68.1418 13.105 893 160.773 414.766 471.512
1634 0 70.0726 13.2862 931 154.655 414.822 471.521
1635 0 72.0894 13.2336 954 155.389 415.089 469.044
1636 0 76.0859 13.0248 991 161.242 414.213 469.51
1637 0 77.0666 13.1574 1014 158.812 414.207 468.54
1638 0 80.2053 13.2909 1066 149.971 414.436 465.781
1639 0 84.1326 13.2291 1113 156.062 414.329 464.586
1640 0 87.1579 12.965 1130 153.831 414.227 463.016
1641 1 47.0419 10.6288 500 148.638 414.676 482.306
1642 0 47.0419 11.2878 531 151.379 414.879 482.09
1643 0 49.035 12.1138 594 144.291 415.566 480.303
1644 0 48.2148 12.3406 595 150.138 415.834 480.089
1645 0 52.12 11.7421 612 143.611 415.953 480.539
1646 0 52.1597 12.1166 632 146.248 415.935 478.737
1647 0 54.1755 12.2011 661 152.952 414.749 478.239
1648 0 53.2257 12.5128 666 145.372 414.785 478.284
1649 0 58.1257 12.0257 699 148.562 415.252 477.252
1650 0 59.1101 12.7051 751 152.59 414.886 476.067
1651 0 60.0911 12.7473 766 150.256 415.443 475.338
1652 0 63.1693 12.6644 800 150.254 414.945 472.752
1653 0 64.1412 12.4881 801 146.67 415.619 472.754
1654 0 65.047 12.6831 825 148.765 415.373 471.23
1655 0 69.168 12.5058 865 151.659 415.553 469.699
1656 0 71.1858 12.9239 920 146.436 415.955 468.883
1657 0 73.144 12.4275 909 152.635 416.242 468.432
1658 0 76.2743 12.3895 945 146.024 416.33 467.506
1659 0 79.2038 12.6888 1005 153.278 416.486 464.969
1660 0 81.155 12.9136 1048 152.026 416.448 463.241
1661 0 84.226 12.7751 1076 147.242 416.433 461.83
1662 0 85.2076 13.1678 1122 152.45 416.541 460.632
1663 0 89.2152 12.6996 1133 145.623 417.146 459.858
1664 1 48.3159 10.8246 523 141.208 417.26 480.489
1665 0 50.2263 11.5477 580 149.619 417.217 479.328
1666 0 52.2446 11.8481 619 149.32 416.874 477.645
1667 0 53.3252 11.9081 635 148.274 415.665 478.83
1668 0 54.2396 12.0576 654 149.018 415.703 477.324
1669 0 54.1406 12.3013 666 156.296 415.604 477.617
1670 0 58.1446 11.5574 672 149.399 416.037 476.013
1671 0 59.2748 12.1131 718 152.926 416.511 475.419
1672 0 61.2224 12.3157 754 147.499 416.649 473
1673 0 62.161 12.355 768 151.788 416.583 472.428
1674 0 63.1948 12.4694 788 146.071 416.718 471.67
1675 0 66.1316 12.7171 841 146.247 417.19 470.024
1676 0 68.1634 12.4994 852 150.434 417.556 471.114
1677 0 71.1746 12.1532 865 152.968 417.743 471.03
1678 0 72.3159 12.3348 892 148.028 417.885 469.018
1679 0 75.1818 12.37 930 146.732 417.618 467.447
1680 0 77.3924 12.4431 963 147.304 417.887 465.682
1681 0 78.3394 12.9309 1013 152.767 417.477 465.482
1682 0 81.2026 12.7336 1034 152.082 417.623 463.392
1683 0 85.296 12.8728 1098 146.981 417.444 461.569
1684 0 86.1927 12.8317 1106 142.493 417.704 460.43
1685 0 92.2943 12.7744 1179 144.949 417.571 458.317
1686 1 51.3168 10.6983 549 149.437 417.563 478.526
1687 0 52.3388 11.0052 576 148.396 417.12 477.559
1688 0 56.2579 11.0029 619 147.039 417.368 475.838
1689 0 57.1662 12.21 698 145.145 417.385 475.265
1690 0 58.134 11.8175 687 126.923 417.917 474.275
1691 0 59.1413 12.039 712 142.663 417.371 473.16
1692 0 62.219 12.1185 754 145.088 417.256 472.249
1693 0 64.163 12.063 774 150.54 417.442 471.761
1694 0 65.2067 12.1613 793 138.927 417.208 470.204
1695 0 66.2817 12.13 804 139.131 417.083 469.655
1696 0 70.411 11.8305 833 147.761 416.906 468.622
1697 0 72.366 12.0913 875 143.961 416.315 467.842
1698 0 74.3944 12.6891 944 140.546 416.161 466.888
1699 0 77.507 12.2311 948 145.8 416.469 465.081
1700 0 78.3929 12.0164 942 138.449 416.15 463.501
1701 0 82.4641 11.9688 987 143.873 416.307 461.676
1702 0 86.4778 12.0493 1042 140.952 415.798 461.557
1703 1 42.1188 10.2567 432 149.708 415.34 482.604
1704 0 46.2917 10.5418 488 143.439 414.988 481.445
1705 0 47.1272 11.2037 528 143.902 415.017 480.455
1706 0 47.3167 11.6872 553 145.611 415.235 480.307
1707 0 50.2391 11.1865 562 147.747 415.292 479.795
1708 0 51.1879 11.409 584 143.17 415.36 478.945
1709 0 54.1617 11.1149 602 148.545 415.887 478.696
1710 0 54.0983 11.6455 630 146.871 415.26 477.556
1711 0 55.1068 11.8134 651 146.266 415.068 477.468
1712 0 56.074 11.8237 663 148.569 415.066 476.505
1713 0 59.1293 11.5002 680 152.854 415.707 476.513
1714 0 60.1332 11.6242 699 142.901 415.775 475.811
1715 0 63.2259 12.1627 769 150.572 415.788 474.211
1716 0 63.2281 11.9251 754 143.468 415.722 472.688
1717 0 66.2031 11.9783 793 150.318 415.834 472.623
1718 0 69.2604 11.4495 793 149.625 415.854 471.834
1719 0 71.2778 11.6867 833 147.283 415.607 470.388
1720 0 74.3178 11.9083 885 152.527 415.04 469.308
1721 0 74.2448 12.0817 897 146.026 415.71 468.394
1722 0 79.3364 11.4197 906 146.874 415.015 467.565
1723 0 83.1824 11.6611 970 148.542 414.547 465.258
1724 1 45.1554 9.85485 445 146.303 414.739 484.58
1725 0 48.241 9.9915 482 146.855 414.645 483.902
1726 0 49.2232 10.5438 519 144.599 414.9 483.48
1727 0 49.2089 10.4249 513 149.497 414.616 483.674
1728 0 52.3431 11.0998 581 141.604 415.083 480.759
1729 0 53.4736 11.4075 610 139.589 415.515 480.625
1730 0 53.3402 11.586 618 141.468 414.958 481.254
1731 0 56.3289 11.2731 635 136.137 413.805 480.006
1732 0 58.2899 11.7001 682 135.482 414.849 477.77
1733 0 58.2706 11.4466 667 139.949 413.919 479.102
1734 0 60.1479 11.4717 690 141.143 413.281 478.145
1735 0 62.3271 12.2258 762 133.732 413.672 476.501
1736 0 63.1558 11.7171 740 132.12 414.131 476.077
1737 0 66.3543 12.0565 800 135.235 414.19 474.442
1738 0 68.3293 11.9714 818 135.38 414.465 472.494
1739 0 69.4571 11.6331 808 130.202 414.808 472.043
1740 0 71.2202 11.7663 838 138.668 414.674 471.767
1741 0 72.2176 11.7561 849 133.177 414.21 471.307
1742 0 75.227 12.2164 919 136.261 413.64 468.986
1743 0 77.2554 12.4651 963 141.172 413.9 468.505
1744 0 78.236 12.4751 976 134.09 413.881 466.716
1745 0 81.56 12.8985 1052 138.142 413.962 465.475
1746 1 43.2023 9.35135 404 140.265 414.252 485.946
1747 0 42.3176 9.64138 408 143.069 414.993 485.404
1748 0 45.1488 9.78986 442 143.005 414.74 484.916
1749 0 46.1755 10.2868 475 141.716 415.187 483.813
1750 0 47.1599 10.4114 491 139.491 415.809 483.181
1751 0 48.1854 10.8124 521 136.284 415.545 483.021
1752 0 50.1045 11.0369 553 135.718 415.501 482.644
1753 0 52.2445 11.9821 626 130.605 414.893 476.212
1754 0 52.2197 11.6623 609 138.415 415.455 478.801
1755 0 54.3453 11.5189 626 131.866 415.316 477.923
1756 0 55.2093 11.9183 658 132.837 415.646 476.568
1757 0 55.3577 12.3921 686 135.878 415.598 476.676
1758 0 58.3314 11.7604 686 134.612 415.585 476.862
1759 0 60.2561 12.0818 728 135.93 416.073 475.302
1760 0 62.265 11.8365 737 139.619 416.115 474.97
1761 0 63.4095 11.9856 760 148.371 415.451 473.312
1762 0 67.2423 11.8229 795 142.955 415.859 474.211
1763 0 67.2106 12.1707 818 147.716 415.803 474.006
1764 0 69.1207 12.4565 861 148.801 415.902 472.209
1765 0 74.1649 13.497 1001 155.557 415.802 469.981
1766 0 74.2146 12.895 957 163.827 416.351 470.192
1767 0 77.1045 12.6711 977 158.344 416.563 468.81
1768 0 79.376 12.5983 1000 164.879 416.314 468.307
1769 0 82.2004 12.5304 1030 163.784 416.192 468.647
1770 0 83.1974 12.9812 1080 167.346 416.057 466.479
1771 0 86.3591 12.8765 1112 168.414 416.055 465.198
1772 0 89.1592 12.8422 1145 164.976 415.601 463.534
1773 0 93.3893 13.0101 1215 166.534 415.587 461.544
1774 0 96.3408 12.57 1211 160.577 415.522 460.189
1775 0 99.4333 12.7623 1269 167.26 415.937 458.991
1776 0 100.611 12.9906 1307 169.418 416.618 457.516
1777 0 105.441 12.7275 1342 166.905 416.017 453.788
1778 0 110.483 12.8165 1416 159.718 416.338 451.635
1779 1 58.4492 11.788 689 161.025 415.464 476.189
1780 0 60.4314 12.5101 756 156.165 415.93 471.567
1781 0 61.111 12.1582 743 159.943 414.923 472.232
1782 0 62.2554 11.999 747 156.167 415.503 471.478
1783 0 63.2463 11.7635 744 156.618 415.68 470.45
1784 0 65.1998 12.1319 791 156.264 415.249 469.559
1785 0 66.0688 12.7443 842 157.784 416.622 469.906
1786 0 68.078 12.5004 851 158.752 416.732 469.053
1787 0 70.1638 12.5421 880 162.986 416.975 468.256
1788 0 73.1182 12.596 921 160.047 416.71 467.427
1789 0 76.2282 12.4757 951 160.361 416.816 466.306
1790 0 78.175 12.5104 978 154.379 417.219 464.116
1791 0 80.3658 12.5427 1008 155.941 417.275 463.331
1792 0 83.3271 12.3729 1031 156.226 417.34 461.374
1793 0 85.3336 12.8789 1099 160.301 417.142 458.744
1794 0 88.4927 12.5434 1110 153.856 417.199 458.919
1795 0 91.6072 12.4335 1139 153.224 417.363 456.222
1796 1 47.6655 11.0562 527 161.75 417.488 480.247
1797 0 49.3111 11.7418 579 157.539 416.575 478.656
1798 0 52.1038 11.8801 619 148.289 415.751 479.716
1799 0 53.1826 12.1656 647 149.49 416.199 479.419
1800 0 55.0971 12.1059 667 149.091 415.717 478.87
1801 0 55.1649 12.653 698 151.573 415.915 478.852
1802 0 56.0554 12.666 710 152.842 415.916 478.093
1803 0 59.1437 12.7317 753 145.444 416.157 475.886
1804 0 60.155 13.0496 785 146.619 416.074 476.651
1805 0 63.1101 12.803 808 147.184 415.762 474.752
1806 0 63.1647 13.8685 876 142.273 415.37 473.579
1807 0 66.2557 13.0102 862 144.416 416.084 472.766
1808 0 68.2114 12.8424 876 152.378 415.656 472.474
1809 0 69.2753 13.2515 918 147.378 416.23 470.373
1810 0 71.3147 13.2932 948 153.072 415.957 469.95
1811 0 72.3016 13.665 988 149.082 415.558 469.374
1812 0 76.4743 13.6386 1043 142.104 415.622 467.087
1813 0 79.4344 13.1052 1041 150.057 416.033 466.256
1814 0 80.5832 13.303 1072 151.543 415.76 464.618
1815 0 84.4023 13.7674 1162 151.413 415.897 461.287
1816 0 85.4979 12.7488 1090 141.608 415.609 461.194
1817 0 87.4296 13.3364 1166 153.268 415.167 459.323
1818 0 91.4627 13.0436 1193 148.35 414.985 458.512
1819 1 51.1976 11.0747 567 151.363 414.605 480.081
1820 0 51.2127 11.5987 594 151.212 413.966 478.907
1821 0 53.1229 11.9346 634 149.055 413.856 478.765
1822 0 56.0844 12.8378 720 149.685 414.707 478.983
1823 0 58.2012 12.663 737 151.818 415.138 478.488
1824 0 59.1502 12.4091 734 152.429 414.387 478.407
1825 0 61.1469 12.5599 768 151.975 414.085 477.146
1826 0 62.1128 12.429 772 150.667 414.275 476.747
1827 0 63.2171 12.9237 817 158.446 415.042 476.021
1828 0 66.1116 13.1444 869 159.03 414.842 474.589
1829 0 67.1811 12.8608 864 160.009 414.851 473.355
1830 0 69.2679 13.354 925 158.105 414.589 471.846
1831 0 73.2455 13.0247 954 153.807 414.462 471.557
1832 0 73.0854 13.0532 954 155.483 414.779 471.075
1833 0 75.145 13.3209 1001 157.258 414.714 469.519
1834 0 79.1236 13.1819 1043 153.718 415.126 468.77
1835 0 81.2847 13.016 1058 158.272 414.312 467.626
1836 0 82.1263 13.3453 1096 159.078 414.493 466.66
1837 0 86.206 13.1777 1136 160.498 413.741 467.227
1838 0 88.1936 13.3343 1176 165.158 413.588 465.733
1839 0 89.1236 13.7001 1221 162.196 413.151 463.451
1840 0 92.1825 13.4407 1239 164.371 413.973 462.986
1841 0 96.1591 13.4881 1297 161.394 413.773 462.031
1842 1 52.023 11.9178 620 161.871 413.548 483.942
1843 0 54.0662 12.5772 680 156.493 413.803 482.55
1844 0 55.114 13.1546 725 164.517 413.168 481.834
1845 0 58.0626 13.2099 767 157.302 414.074 480.004
1846 0 59.0582 13.3258 787 158.288 413.482 479.821
1847 0 62.1716 12.7872 795 159.482 412.907 479.377
1848 0 63.1352 13.3365 842 153.628 413.201 478.691
1849 0 66.2538 13.2672 879 150.547 413.469 476.669
1850 0 68.1192 13.4323 915 154.367 413.308 476.304
1851 0 71.1287 13.2436 942 151.256 413.358 474.514
1852 0 74.0698 13.0688 968 156.572 414.103 472.13
1853 0 76.0419 13.3479 1015 157.877 414.351 472.314
1854 0 79.1163 13.4865 1067 155.268 413.408 469.962
1855 0 80.1936 13.8041 1107 157.833 413.514 469.271
1856 0 82.1055 13.4096 1101 158.831 414.055 469.515
1857 0 83.1592 13.6966 1139 156.826 413.322 467.394
1858 0 86.1002 13.9953 1205 156.909 413.298 467.012
1859 0 91.208 13.8036 1259 160.434 413.643 465.716
1860 0 92.1529 13.8466 1276 155.622 413.887 462.949
1861 0 96.255 13.7967 1328 160.77 413.691 462.483
1862 0 99.2743 13.921 1382 160.007 413.465 460.581
1863 0 101.401 13.6882 1388 162.223 414.2 458.897
1864 1 54.0591 11.8019 638 164.467 414.271 483.198
1865 0 56.0824 12.6243 708 160.581 414.164 481.223
1866 0 58.0823 12.9127 750 159.191 414.173 479.725
1867 0 60.1305 12.8554 773 160.476 413.837 479.498
1868 0 62.1003 12.8985 801 164.129 414.117 477.644
1869 0 64.0978 12.9022 827 156.815 413.878 477.102
1870 0 66.1167 12.7351 842 158.54 413.911 475.215
1871 0 69.1257 12.8896 891 159.1 414.517 474.57
1872 0 69.1234 13.1793 911 152.378 415.465 472.442
1873 0 73.1652 12.9706 949 160.981 414.663 471.072
1874 0 77.0935 13.101 1010 157.351 414.868 470.195
1875 0 79.1168 12.9808 1027 160.89 414.801 469.46
1876 0 80.1267 13.3538 1070 154.79 414.983 468.161
1877 0 83.1485 13.3496 1110 43.9775 415.014 467.717
1878 0 86.2428 13.2301 1141 153.102 414.747 465.122
1879 0 89.1932 13.3194 1188 163.539 415.574 464.636
1880 0 92.199 13.1672 1214 158.241 415.675 463.414
1881 0 95.2253 13.2213 1259 165.373 415.91 461.116
1882 0 97.4184 13.519 1317 162.817 416.326 458.78
1883 0 101.303 13.2375 1341 164.392 415.829 457.802
1884 0 104.437 13.1371 1372 157.673 415.458 454.356
1885 0 108.462 13.4794 1462 158.633 415.369 451.831
1886 0 111.353 13.1474 1464 162.325 416.227 451.751
1887 1 63.1384 11.7678 743 163.677 417.178 476.23
1888 0 64.1054 12.5731 806 161.342 417.356 474.603
1889 0 67.098 12.5041 839 159.315 416.626 474.653
1890 0 69.1381 12.2219 845 156.199 416.673 473.131
1891 0 71.0914 12.4066 882 152.959 417.143 471.384
1892 0 75.19 12.2357 920 152.508 417.435 470.486
1893 0 75.0955 12.5973 946 153.486 417.215 468.524
1894 0 76.0758 12.5533 955 149.253 417.645 467.533
1895 0 80.0855 13.0111 1042 153.908 417.239 466.354
1896 0 83.0642 12.3037 1022 146.115 417.142 465.592
1897 0 85.1187 12.7352 1084 153.831 417.323 464.912
1898 0 89.1406 12.2615 1093 149.554 417.276 464.092
1899 0 93.1863 12.6735 1181 152.856 417.704 461.804
1900 0 94.2068 12.4407 1172 148.811 417.195 460.205
1901 0 95.2198 13.0855 1246 155.933 416.917 459.289
1902 1 54.0446 11.1019 600 156.043 417.378 481.673
1903 0 56.169 12.1241 681 154.282 417.418 480.335
1904 0 59.1061 12.0123 710 160.373 417.242 478.701
1905 0 59.0591 12.3097 727 149.098 417.092 477.704
1906 0 62.138 12.2308 760 155.351 416.768 476.874
1907 0 63.098 12.3459 779 159.778 416.408 475.471
1908 0 65.0788 12.6923 826 158.479 416.897 475.568
1909 0 67.1962 12.9472 870 156.154 416.675 474.692
1910 0 70.1349 12.8609 902 150.594 416.891 472.731
1911 0 72.155 13.1107 946 159.013 417.02 472.364
1912 0 73.1317 13.4415 983 156.556 417.296 471.066
1913 0 79.2693 13.3217 1056 156.055 416.588 468.144
1914 0 80.0986 13.2587 1062 147.731 416.157 467.558
1915 0 80.1368 13.4146 1075 157.689 415.827 465.821
1916 0 83.0971 13.5143 1123 144.72 416.508 465.329
1917 0 88.1714 12.884 1136 152.07 415.745 464.971
1918 0 89.1404 13.26 1182 157.08 415.696 462.927
1919 1 47.0704 11.5784 545 158.004 416.178 484.782
1920 0 48.0606 12.1513 584 160.904 416.183 483.896
1921 0 50.031 12.2724 614 150.039 415.963 482.145
1922 0 52.1457 12.7719 666 154.548 415.949 481.848
1923 0 53.3018 13.4142 715 155.396 415.871 480.554
1924 0 55.2672 14.7103 813 144.387 415.657 479.515
1925 0 55.1423 13.039 719 152.542 415.306 480.371
1926 0 56.1788 13.5994 764 152.398 415.262 480.387
1927 0 59.297 13.0192 772 154.075 414.751 478.525
1928 0 60.2884 13.1535 793 150.227 414.619 474.84
1929 0 63.1533 13.0001 821 158.387 414.715 473.734
1930 0 64.1567 13.3267 855 154.156 414.337 473.622
1931 0 66.1438 13.4707 891 153.575 414.675 473.002
1932 0 69.1196 12.9196 893 160.418 414.798 473.37
1933 0 71.1838 13.4581 958 160.015 415.215 471.864
1934 0 71.1027 13.7407 977 159.622 415.187 470.709
1935 0 75.1402 13.548 1018 162.231 414.52 469.62
1936 0 76.1536 13.9192 1060 160.163 414.591 469.312
1937 0 80.1008 13.8575 1110 148.431 414.573 467.733
1938 0 82.121 13.7967 1133 162.224 413.264 467.514
1939 0 86.1494 13.4534 1159 164.884 413.186 465.895
1940 0 89.334 13.8693 1239 156.667 413.661 463.946
1941 0 92.3093 14.0831 1300 162.209 414.435 463.254
1942 1 49.1685 12.9961 639 170.884 414.235 484.679
1943 0 51.1979 13.5162 692 175.065 414.184 483.756
1944 0 54.1535 13.4987 731 166.844 414.105 482.208
1945 0 55.2482 14.0638 777 170.579 414.139 482.233
1946 0 57.2193 14.3133 819 165.554 413.891 480.419
1947 0 58.4353 14.2893 835 167.695 413.711 480.029
1948 0 60.4503 14.4085 871 163.015 413.634 479.067
1949 0 61.2718 14.5581 892 162.63 413.979 478.885
1950 0 64.2421 14.601 938 162.254 414.378 477.45
1951 0 66.3578 14.7383 978 166.404 413.592 474.968
1952 0 68.3756 14.5666 996 169.856 414.142 475.299
1953 0 71.2809 14.534 1036 166.655 414.078 474.589
1954 0 73.2308 14.3246 1049 163.186 413.649 473.19
1955 0 76.2329 14.4426 1101 167.7 413.629 472.97
1956 0 78.3522 14.4603 1133 166.776 414.338 470.703
1957 0 81.3812 14.7086 1197 163.529 413.777 470.314
1958 0 83.328 14.725 1227 167.644 413.86 468.59
1959 0 87.2906 14.5262 1268 169.644 413.464 467.379
1960 0 88.2909 14.6108 1290 160.984 413.519 465.584
1961 0 91.3428 14.681 1341 163.356 413.766 464.932
1962 0 95.1412 14.7255 1401 162.865 414.026 463.788
1963 0 100.251 14.5435 1458 162.04 414.962 461.154
1964 0 104.287 15.0547 1570 158.038 414.951 458.732
1965 1 55.0649 13.929 767 172.314 413.755 480.407
1966 0 59.1387 13.9333 824 163.393 413.822 479.017
1967 0 58.2861 14.1029 822 167.455 414.742 477.533
1968 0 62.488 14.4188 901 160.149 414.061 476.266
1969 0 64.1167 14.9415 958 163.186 414.493 474.781
1970 0 67.4157 14.7443 994 170.729 414.284 473.927
1971 0 69.3082 14.3562 995 173.729 414.253 473.905
1972 0 72.4864 14.8855 1079 166.302 414.992 472.725
1973 0 74.2105 14.5936 1083 170.018 414.647 471.481
1974 0 76.2412 14.5984 1113 172.652 415.247 470.016
1975 0 79.2124 14.5811 1155 171.074 415.097 468.202
1976 0 81.2918 14.6017 1187 168.09 414.992 467.554
1977 0 83.1836 14.6062 1215 168.333 415.168 466.318
1978 0 87.1968 14.6106 1274 173.544 414.791 464.164
1979 0 90.3147 14.5381 1313 171.322 415.068 462.816
1980 0 91.1996 14.8027 1350 167.744 416 461.324
1981 0 94.1383 14.7868 1392 169.624 415.836 460.749
1982 0 98.2314 14.8425 1458 167.318 415.413 457.951
1983 0 100.221 14.7275 1476 170.6 415.276 456.337
1984 0 105.29 14.8352 1562 168.617 416.16 455.736
1985 0 106.199 14.8683 1579 170.944 416.764 454.947
1986 0 109.272 14.8895 1627 167.843 416.661 452.645
1987 0 114.221 14.8659 1698 161.941 415.766 449.088
1988 0 119.259 14.8416 1770 71.0576 416.505 446.937
1989 0 123.327 15.1143 1864 161.127 416.033 445.098
1990 0 127.411 14.8732 1895 165.544 416.088 443.402
1991 0 130.599 14.6708 1916 156.577 416.331 441.107
1992 1 74.1143 13.6546 1012 172.065 416.582 467.234
1993 0 77.1318 14.3132 1104 173.127 416.928 466.048
1994 0 80.0611 14.439 1156 170.538 417.149 464.195
1995 0 83.0522 14.3524 1192 171.612 417.443 463.32
1996 0 85.0864 14.5734 1240 163.898 417.591 461.173
1997 0 88.1218 14.4459 1273 162.152 417.049 459.804
1998 0 91.2452 14.6419 1336 165.821 416.922 458.135
1999 0 96.2844 14.4156 1388 161.589 416.914 456.328
2000 0 96.2338 14.9324 1437 164.203 417.205 454.28
2001 0 101.221 14.5227 1470 167.159 417.046 452.761
2002 0 103.417 14.6881 1519 164.958 417.064 451.851
2003 0 107.503 14.7809 1589 164.712 417.024 449.563
2004 0 111.37 15.0849 1680 165.461 416.895 448.537
2005 0 114.402 14.6501 1676 167.195 416.731 445.926
2006 0 116.367 14.841 1727 163.928 417.186 444.38
2007 0 120.383 14.8526 1788 159.276 416.97 442.688
2008 0 123.491 15.4101 1903 165.201 416.861 440.671
2009 0 127.168 15.3104 1947 165.553 416.861 438.896
2010 0 132.325 15.2881 2023 163.305 417 436.304
2011 0 137.415 15.1439 2081 171.255 416.971 434.727
2012 0 143.298 15.0526 2157 167.765 417.143 431.607
2013 0 147.27 15.1218 2227 165.451 417.093 429.472
2014 0 152.463 15.0594 2296 168.857 416.186 427.491
2015 0 157.506 15.409 2427 162.33 416.467 424.101
2016 0 160.282 15.6849 2514 168.508 416.33 421.875
2017 0 168.362 15.4489 2601 165.469 416.596 418.802
2018 0 174.391 15.4939 2702 164.746 416.25 415.923
2019 0 179.266 15.357 2753 170.06 416.428 413.511
2020 0 185.525 15.1408 2809 166.729 416.177 411.281
2021 0 192.296 15.0809 2900 172.724 416.531 408.003
2022 1 113.19 13.8704 1570 168.411 416.528 445.91
2023 0 116.302 13.9464 1622 171.511 416.467 444.35
2024 0 119.502 14.3261 1712 165.562 415.996 441.154
2025 0 124.367 14.5295 1807 165.771 415.36 438.893
2026 0 130.389 14.3417 1870 166.648 414.846 437.817
2027 0 133.273 14.5416 1938 165.995 415.459 434.197
2028 0 139.225 14.1066 1964 164.579 415.929 431.863
2029 0 145.44 14.157 2059 161.785 416.146 429.235
2030 0 150.208 14.1005 2118 165.487 415.299 427.496
2031 0 154.477 14.4164 2227 163.017 415.471 423.731
2032 0 160.324 14.3085 2294 166.123 415.384 420.658
2033 0 166.444 14.3532 2389 160.771 415.616 418.914
2034 0 173.469 14.3023 2481 155.942 415.986 415.149
2035 0 177.467 14.3688 2550 163.053 416.308 411.42
2036 0 184.447 14.4431 2664 161.991 416.123 406.764
2037 0 192.483 14.2142 2736 164.722 415.325 404.353
2038 0 197.532 14.3976 2844 163.093 414.79 401.537
2039 0 203.53 14.5679 2965 163.424 415.351 398.171
2040 0 211.481 14.4836 3063 164.093 414.897 395.56
2041 0 215.481 14.4885 3122 163.852 415.102 393.001
2042 0 220.816 14.7725 3262 160.534 414.463 390.996
2043 1 43.2706 9.49837 411 131.455 414.426 485.234
2044 0 41.1812 10.1988 420 130.202 415.486 484.793
2045 0 42.1917 10.8078 456 126.311 415.706 485.075
2046 0 45.2819 10.2028 462 130.587 415.671 484.695
2047 0 44.253 10.1688 450 128.771 415.036 484.884
2048 0 45.21 10.1747 460 134.257 415.05 485.137
2049 0 45.2694 10.6253 481 133.397 414.798 484.249
2050 0 44.1942 11.3363 501 132.12 414.433 484.86
2051 0 45.2418 10.6981 484 134.754 414.967 485.043
2052 0 46.2482 10.4869 485 132.672 414.691 484.961
2053 0 46.2005 10.6059 490 132.71 414.416 486.335
2054 0 47.1748 10.5565 498 133.727 413.819 484.61
2055 0 45.1883 11.3968 515 130.534 414.206 484.445
2056 0 47.1591 10.8357 511 124.542 413.325 485.182
2057 0 46.1469 11.095 512 132.811 413.461 484.564
2058 0 47.3055 11.0347 522 133.918 414.881 484.898
2059 0 44.2728 11.271 499 131.88 414.772 486.118
2060 0 47.1498 10.5621 498 134.928 414.633 486.165
2061 0 47.2667 10.811 511 131.967 413.92 485.585
2062 0 47.1617 10.7714 508 129.409 414.602 485.37
2063 0 46.1834 10.5449 487 132.918 414.581 486.037
2064 0 46.2528 10.5075 486 134.259 414.525 486.292
2065 0 45.2578 10.4071 471 129.643 413.69 484.58
2066 0 47.1718 10.4936 495 130 414.065 486.216
2067 0 46.2627 10.6349 492 134.703 414.228 484.929
2068 0 47.1856 10.6176 501 135.393 414.932 484.138
2069 0 47.1514 10.3072 486 139.138 415.58 484.319
2070 0 48.2352 10.2415 494 140.802 414.838 484.441
2071 0 47.1554 10.7941 509 140.236 414.76 483.472
2072 0 45.2399 10.9638 496 135.786 415.363 483.236
2073 0 46.221 10.4714 484 137.529 415.328 484.202
2074 0 48.1466 10.4888 505 130.426 414.863 482.947
2075 0 47.089 10.3421 487 126.012 414.951 481.645
2076 0 46.2541 10.1613 470 131.338 415.426 482.434
2077 0 48.2418 10.4266 503 126.732 415.107 483.507
2078 0 48.1446 10.7177 516 133.86 414.921 482.704
2079 0 47.1653 10.6646 503 125.201 415.75 483.215
2080 0 47.2044 10.7405 507 127.424 415.499 481.675
2081 0 48.2476 10.4461 504 130.294 415.879 482.567
2082 0 48.1441 11.0294 531 130.959 415.896 481.382
2083 0 48.1135 10.7662 518 129.602 415.967 481.456
2084 0 50.1167 10.5953 531 125.829 415.783 481.556
2085 0 49.2267 10.3602 510 130.602 415.941 481.437
2086 0 48.1007 10.7483 517 121.671 416.791 480.658
2087 0 47.0862 10.8312 510 130.059 416.137 480.42
2088 0 49.1098 10.7718 529 123.172 415.979 480.153
2089 0 51.2082 11.3654 582 133.225 416.155 481.003
2090 0 51.098 11.1355 569 134.986 416.557 481.07
2091 0 48.0427 11.3441 545 133.908 416.747 481.354
2092 0 50.158 11.1049 557 135.743 416.804 480.016
2093 0 50.0646 11.3054 566 136.173 417.018 479.795
2094 0 51.1312 11.402 583 133.791 417.124 478.979
2095 0 51.0854 11.6472 595 131.015 417.385 478.985
2096 0 51.1311 10.9327 559 134.021 416.902 478.336
2097 0 51.1055 11.2512 575 130.718 417.099 479.097
2098 0 51.0994 10.9199 558 132.921 417.694 477.932
2099 0 51.1204 11.2088 573 128.387 417.644 478.222
2100 0 51.1252 10.9731 561 132.31 417.695 477.87
2101 0 52.1425 10.1069 527 130.374 418.046 476.996
2102 0 49.1549 11.0671 544 129.447 417.851 476.71
2103 0 50.0901 10.9403 548 127.865 418.263 476.54
2104 0 50.0928 11.1194 557 128.293 417.946 476.321
2105 0 50.1481 11.0473 554 132.081 418.3 476.579
2106 0 51.2149 11.442 586 124.015 418.058 476.292
2107 0 53.1114 10.8075 574 129.336 418.139 476.096
2108 0 52.1621 11.2534 587 128.872 418.344 476.179
2109 0 52.1806 11.3261 591 126.648 418.151 475.074
2110 0 52.1443 11.1422 581 129.305 418.108 474.683
2111 0 52.1154 11.2635 587 128.738 418.422 474.794
2112 0 53.2658 11.452 610 129.043 418.595 476.602
2113 0 53.2806 11.5802 617 127.034 418.4 476.404
2114 0 53.2374 11.646 620 127.565 417.731 476.481
2115 0 53.174 11.547 614 125.182 418.029 477.065
2116 0 54.2314 11.7091 635 125.672 417.847 476.162
2117 0 54.3169 11.93 648 131.637 417.373 474.696
2118 0 54.0941 11.443 619 131.439 416.237 475.339
2119 0 55.1523 11.6768 644 132.519 417.068 475.578
2120 0 55.0845 11.8908 655 130.139 416.699 475.15
2121 0 56.216 11.9183 670 125.978 417.884 474.633
2122 0 55.1249 12.1724 671 134.122 417.647 474.334
2123 0 54.1089 11.9943 649 129.424 418.043 475.481
2124 0 55.1996 12.2827 678 131.786 417.726 473.976
2125 0 55.1916 11.7772 650 131.557 417.669 474.331
2126 0 55.1201 12.0464 664 130.898 417.727 474.035
2127 0 56.1922 11.8166 664 132.438 417.828 474.515
2128 0 56.292 12.1332 683 131.49 417.324 474.081
2129 0 56.2622 12.3351 694 127.85 417.571 474.264
2130 0 56.1496 12.2708 689 127.864 417.38 474.386
2131 0 56.2218 11.8104 664 127.764 417.742 474.262
2132 0 56.2104 12.0262 676 130.675 417.99 474.321
2133 0 56.2363 11.7184 659 131.02 417.498 475.129
2134 0 56.1904 11.9771 673 128.15 417.774 474.296
2135 0 56.224 11.8988 669 125.3 417.021 475.302
2136 0 55.2133 12.2978 679 123.788 417.081 474.14
2137 0 56.2464 11.7519 661 120.788 416.826 474.537
2138 0 56.0982 11.7294 658 120.755 416.801 474.21
2139 0 55.0493 11.8439 652 113.268 417.124 473.411
2140 0 48.1609 8.82458 425 131.852 416.779 479.605
2141 0 56.1568 11.7706 661 123.053 416.309 474.298
2142 1 43.5771 12.3459 538 98.2639 414.584 479.955
2143 0 0 0 0 -nan -nan -nan
2144 1 112.244 12.5976 1414 143.484 415.973 393.774
2145 0 115.42 12.9527 1495 137.804 416.243 391.835
2146 0 120.377 14.0226 1688 131.842 416.508 388.159
2147 0 123.223 12.6599 1560 142.287 416.606 388.832
2148 0 125.361 12.8988 1617 146.781 415.709 388.458
2149 0 130.19 13.0732 1702 143.187 415.505 385.955
2150 0 134.264 12.9075 1733 135.456 415.384 384.193
2151 0 138.392 12.8475 1778 142.115 415.408 384.58
2152 0 144.431 13.1205 1895 142.698 414.936 380.51
2153 0 150.529 14.3228 2156 137.124 414.833 375.08
2154 0 153.298 13.2096 2025 143.925 415.408 375.048
2155 0 157.367 13.5543 2133 145.387 415.239 373.599
2156 0 162.741 13.1436 2139 148.032 414.817 372.007
2157 0 168.498 13.4245 2262 147.798 414.411 370.135
2158 0 171.566 13.371 2294 151.652 414.524 369.027
2159 0 178.581 13.5457 2419 147.425 415.198 366.503
2160 0 184.663 13.8306 2554 143.511 415.635 364.255
2161 0 193.729 14.0557 2723 145.926 415.663 358.933
2162 0 196.537 13.9261 2737 149.986 415.485 360.661
2163 0 203.563 13.8925 2828 144.875 414.666 356.816
2164 0 209.804 15.0521 3158 144.752 414.919 351.002
2165 0 216.501 15.3117 3315 140.272 414.786 347.319
2166 0 223.769 15.2523 3413 144.421 414.854 344.79
2167 0 230.544 15.2986 3527 133.714 414.787 341.969
2168 1 170.296 12.3139 2097 152.063 414.949 379.637
2169 0 175.297 13.1035 2297 152.456 414.698 373.7
2170 0 181.56 12.8828 2339 150.271 414.845 373.379
2171 0 187.422 13.3976 2511 146.065 414.562 369.368
2172 0 193.55 13.4952 2612 153.198 415.035 366.758
2173 0 201.477 13.3415 2688 144.86 414.51 363.365
2174 0 208.327 13.4884 2810 147.722 413.816 358.835
2175 0 214.545 13.4843 2893 145.878 413.607 356.034
2176 0 220.426 13.6644 3012 151.374 414.068 350.41
2177 0 230.315 13.5163 3113 155.289 414.499 346.65
2178 0 238.317 13.3436 3180 155.997 414.179 342.508
2179 0 247.399 15.4002 3810 147.848 414.971 335.174
2180 0 254.433 15.3164 3897 145.164 414.943 329.478
2181 0 262.598 15.1258 3972 148.765 414.199 324.88
2182 0 271.725 15.3096 4160 149.175 413.918 320.47
2183 0 281.51 15.321 4313 147.491 413.77 316.46
2184 0 290.639 15.2973 4446 147.359 414.271 311.631
2185 0 297.871 15.265 4547 150.601 415.408 307.406
2186 0 306.003 15.3332 4692 146.748 415.28 304.384
2187 0 315.866 15.5889 4924 145.269 415.879 297.929
2188 0 326.142 15.4411 5036 149.283 415.74 292.619
2189 0 336.857 15.8584 5342 142.957 414.661 287.419
2190 0 347.158 15.5175 5387 150.511 413.303 282.748
2191 0 356.901 15.7074 5606 150.977 413.848 275.155
2192 0 0 0 3 87.3333 410 456
2193 0 0 0 2 82 410.5 456
2194 0 0 0 2 86.5 415 456
2195 0 0 0 2 75.5 413.5 456
2196 0 0 0 0 -nan -nan -nan
2197 0 363.975 15.6824 5708 149.921 412.279 273.655
2198 0 365.861 15.8038 5782 145.637 412.737 270.266
2199 0 353.622 15.7371 5565 139.858 412.698 261.603
2200 0 339.769 14.2038 4826 139.923 412.782 255.247
2201 0 340.135 14.1679 4819 144.828 412.397 255.42
2202 0 340.306 13.7788 4689 142.943 412.613 246.023
2203 0 84.178 14.5168 1222 123.87 415.049 389.33
2204 0 88.1412 14.3293 1263 123.356 415.142 390.704
2205 0 90.2514 14.2269 1284 122.013 415.369 391.576
2206 0 92.2331 14.0622 1297 127.872 415.709 392.598
2207 0 94.1367 14.054 1323 128.667 415.47 392.878
2208 0 97.3436 13.9095 1354 127.714 415.388 393.565
2209 0 98.2206 13.938 1369 125.36 415.517 393.262
2210 0 100.147 14.3289 1435 126.975 414.911 393.467
2211 0 103.11 14.3633 1481 121.878 415.051 394.045
2212 0 104.189 14.205 1480 124.249 414.608 398.201
2213 0 106.175 13.9769 1484 127.01 414.945 397.193
2214 0 109.332 14.0946 1541 124.291 415.398 395.335
2215 0 110.228 13.962 1539 128.938 415.612 394.908
2216 0 113.217 14.4855 1640 129.496 415.11 394.174
2217 0 115.181 14.6292 1685 126.656 415.723 392.859
2218 0 117.423 14.0432 1649 125.011 415.138 391.698
2219 0 120.275 14.3089 1721 127.912 415.769 391.297
2220 0 122.204 14.5904 1783 122.958 415.611 390.379
2221 0 126.392 14.6132 1847 119.936 416.303 389.566
2222 0 127.35 14.252 1815 130.089 416.465 388.534
2223 0 130.189 14.6172 1903 125.288 416.276 386.043
2224 0 130.333 14.3862 1875 132.591 416.837 383.533
2225 0 133.429 14.547 1941 130.982 417.275 382.157
2226 0 136.458 14.5612 1987 129.297 417.455 380.941
2227 0 137.409 14.5914 2005 128.041 417.349 380.24
2228 0 141.415 14.3407 2028 127.172 417.352 379.663
2229 0 142.334 14.4309 2054 130.952 417.119 375.432
2230 0 144.341 14.4103 2080 131.167 417.414 373.899
2231 0 146.391 14.1061 2065 128.503 416.807 374.864
2232 0 149.459 14.2514 2130 124.331 416.774 375.391
2233 0 149.435 14.18 2119 130.3 417.37 373.179
2234 0 152.425 14.453 2203 132.819 416.3 371.015
2235 0 152.517 14.4836 2209 130.397 415.914 371.574
2236 0 154.361 14.3171 2210 132.115 415.995 368.51
2237 0 154.358 14.3627 2217 135.385 415.66 368.477
2238 0 156.567 14.2558 2232 130.324 415.73 368.517
2239 0 156.445 14.1967 2221 134.567 416.257 369.555
2240 0 157.261 14.46 2274 131.593 416.248 369.226
2241 0 159.327 14.2412 2269 133.272 416.414 368.944
2242 0 159.423 14.5713 2323 130.661 416.244 368.116
2243 0 160.441 14.3479 2302 132.748 415.804 367.442
2244 0 161.336 14.6031 2356 124.731 416.209 366.709
2245 0 161.386 14.5304 2345 135.859 416.106 366.31
2246 0 165.308 14.5607 2407 131.803 416.367 367.254
2247 0 164.429 14.2554 2344 125.73 416.39 366.332
2248 0 165.429 14.4957 2398 128.602 416.126 366.445
2249 0 165.502 14.5799 2413 135.661 415.834 365.743
2250 0 165.474 14.3587 2376 130.922 414.824 365.714
2251 0 165.582 14.4943 2400 131.871 414.898 365.011
2252 0 166.312 14.569 2423 132.895 415.419 364.801
2253 0 167.415 14.7418 2468 135.55 416.171 363.901
2254 0 168.363 14.7182 2478 124.337 415.47 364.419
2255 0 169.646 14.8545 2520 133.382 414.999 364.183
2256 0 169.463 14.6522 2483 133.523 415.557 364.68
2257 0 172.437 14.3937 2482 130.532 415.302 363.665
2258 0 170.524 14.7311 2512 134.998 415.602 362.058
2259 0 172.43 14.8176 2555 130.725 415.399 362.935
2260 0 174.488 14.8033 2583 131.594 415.682 362.498
2261 0 173.658 14.6322 2541 134.847 415.403 362.135
2262 0 174.572 14.7504 2575 136.456 414.768 363.155
2263 0 174.543 14.4835 2528 132.645 415.008 362.867
2264 0 176.481 14.7155 2597 132.485 414.456 363.612
2265 0 176.546 14.778 2609 125.696 414.68 363.119
2266 0 176.368 14.6626 2586 127.518 414.204 362.276
2267 0 177.437 14.6644 2602 131.322 413.961 362.364
2268 0 176.444 14.7582 2604 128.936 414.725 362.341
2269 0 178.478 15.0663 2689 124.917 415.033 361.643
2270 0 178.593 14.8942 2660 127.937 414.297 362.197
2271 0 178.524 14.6647 2618 128.788 413.807 361.74
2272 0 179.466 14.7827 2653 126.912 414.69 360.942
2273 0 178.456 14.6703 2618 122.59 414.346 361.403
2274 0 179.311 14.8011 2654 122.881 414.408 361.281
2275 0 181.416 15.2688 2770 121.004 413.989 361.771
2276 0 181.469 14.7132 2670 124.208 413.872 360.67
2277 0 179.571 14.8075 2659 122.677 413.789 360.003
2278 0 181.609 15.0102 2726 120.528 414.318 361.065
2279 0 182.497 14.8057 2702 121.271 414.69 362.114
2280 0 182.359 14.7621 2692 118.171 414.103 361.688
2281 0 182.847 14.7719 2701 118.334 414.516 359.626
2282 0 183.563 14.5945 2679 126.866 414.918 359.56
2283 0 183.51 14.9965 2752 121.534 414.454 359.507
2284 0 183.418 14.8022 2715 118.215 414.456 359.642
2285 0 183.773 15.0076 2758 120.694 414.204 358.43
2286 0 184.365 15.03 2771 122.224 414.955 359.534
2287 0 184.763 15.3169 2830 116.035 415.355 360.378
2288 0 186.473 14.9245 2783 121.987 415.018 360.205
2289 0 185.504 15.0347 2789 115.475 413.867 359.731
2290 0 186.473 14.8333 2766 119.417 414.186 360.415
2291 0 187.508 15.418 2891 114.244 414.245 359.502
2292 0 187.506 15.0662 2825 115.441 414.205 358.718
2293 0 187.434 15.3761 2882 116.614 413.944 357.307
2294 0 186.388 14.6576 2732 118.576 415.045 357.565
2295 0 186.495 14.4454 2694 116.373 414.667 356.35
2296 0 188.727 14.9051 2813 116.71 414.857 356.066
2297 0 187.268 14.877 2786 116.718 415.19 355.534
2298 0 190.485 14.9146 2841 111.369 415.302 355.342
2299 0 189.309 14.9755 2835 115.509 415.514 355.23
2300 0 189.635 15.0342 2851 115.239 415.341 355.847
2301 0 186.525 15.0221 2802 116.676 415.743 355.521
2302 0 188.516 15.256 2876 114.082 415.65 356.129
2303 0 191.603 15.3338 2938 109.339 415.713 355.891
2304 0 191.405 15.3079 2930 113.278 416.025 354.702
2305 0 189.402 14.7781 2799 108.258 416.026 355.421
2306 0 191.746 15.2337 2921 110.546 416.14 354.719
2307 0 192.399 15.0416 2894 108.159 415.581 354.045
2308 0 191.365 15.0916 2888 112.528 415.96 354.526
2309 0 193.53 15.0984 2922 109.412 416.582 354.688
2310 0 192.471 15.3737 2959 108.66 416.454 352.951
2311 0 192.381 14.8299 2853 105.628 416.335 353.343
2312 0 193.388 14.8303 2868 107.356 416.463 352.472
2313 0 194.436 14.8995 2897 107.809 416.379 351.99
2314 0 194.58 14.8782 2895 114.648 416.741 353.506
2315 0 194.548 15.1376 2945 107.896 416.994 353.676
2316 0 195.534 14.8414 2902 109.554 417.551 352.351
2317 0 195.715 15.0985 2955 110.392 417.289 353.728
2318 0 195.57 15.35 3002 109.647 417.721 353.465
2319 0 195.726 15.1181 2959 111.289 418.19 352.959
2320 0 196.364 15.4458 3033 108.26 418.09 354.107
2321 0 197.542 15.0905 2981 104.738 418.007 354.215
2322 0 196.64 15.1698 2983 111.421 418.098 352.578
2323 0 197.378 15.2499 3010 107.516 418.194 349.857
2324 0 197.378 15.2499 3010 164.077 418.194 349.857
2325 0 200.661 15.5536 3121 105.202 418.98 348.407
2326 0 199.654 15.1261 3020 109.304 418.906 347.513
2327 0 199.562 15.3035 3054 108.428 418.976 346.087
2328 0 198.49 15.2904 3035 105.917 418.442 346.955
2329 0 199.591 14.9405 2982 111.781 418.669 346.033
2330 0 201.337 15.3474 3090 105.737 418.8 345.862
2331 0 201.817 15.3605 3100 104.693 418.952 347.083
2332 0 201.463 15.3626 3095 103.545 418.646 347.033
2333 0 202.518 15.2727 3093 106.288 418.605 347.963
2334 0 201.664 15.1688 3059 105.238 418.71 346.673
2335 0 202.538 15.5033 3140 103.095 418.634 348.076
