index division length width area intensity CMx CMy
2263 0 76.1444 14.0391 1069 104.928 546.99 254.204
2264 0 78.0857 14.292 1116 102.117 546.939 255.433
2265 0 81.1278 14.3354 1163 107.566 547.518 256.623
2266 0 84.1142 13.9453 1173 109.751 546.995 258.785
2267 0 85.2103 14.1297 1204 106.326 546.821 259.542
2268 0 88.1549 14.1229 1245 114.689 547.528 261.169
2269 0 89.0917 14.4907 1291 116.621 547.201 262.366
2270 0 95.1958 13.8346 1317 114.304 546.497 264.588
2271 0 95.2473 14.5621 1387 116.588 546.103 265.72
2272 1 51.0611 11.7898 602 107.266 546.319 293.098
2273 0 54.0731 11.7618 636 107.805 546.077 295.67
2274 0 54.1015 12.1254 656 106.149 546.049 298.444
2275 0 57.2105 12.0957 692 105.292 545.377 300.919
2276 0 59.1863 11.7764 697 102.902 544.717 302.65
2277 0 59.111 11.9775 708 106.626 544.921 305.261
2278 0 65.1317 12.16 792 104.558 544.946 307.852
2279 0 71.138 11.8221 841 101.106 545.216 310.994
2280 0 67.0889 11.9692 803 103.472 544.395 316.694
2281 0 68.1169 12.229 833 108.006 545.419 321.513
2282 0 70.2841 12.7056 893 103.641 545.549 324.701
2283 0 74.1626 12.3378 915 102.98 544.907 328.021
2284 0 74.1626 12.3378 915 125.07 544.907 328.021
2285 0 49.0711 7.62159 374 109.537 545.088 355.695
2286 0 53.0275 7.1661 380 108.347 545.582 358.958
2287 0 57.0745 6.43019 367 112.635 545.828 361.504
2288 0 64.1352 6.12768 393 109.814 546.26 366.466
2289 0 70.1969 6.93762 487 112.185 545.437 367.505
2290 0 134.32 8.27127 1111 118.759 545.915 296.545
2291 1 46.0393 12.4893 575 107.802 545.824 333.765
2292 0 39.0969 7.34074 287 107.108 545.645 391.582
2293 0 42.1266 7.69111 324 113.833 544.654 395.247
2294 0 68.2571 7.6622 523 109.566 545.664 397.134
2295 0 74.2893 7.52464 559 113.315 545.379 399.453
2296 0 81.3334 8.12704 661 111.596 545.396 402.224
2297 0 86.2035 7.6795 662 107.36 545.077 406.923
2298 0 91.2435 7.81425 713 114.55 545.948 411.244
2299 0 92.3364 7.57014 699 113.258 545.781 418.489
2300 1 68.1992 11.3344 773 97.8189 545.713 431.814
2301 0 70.095 11.1563 782 100.478 545.701 437.701
2302 0 73.3522 11.3289 831 97.3574 545.348 441.901
2303 0 76.3103 11.8464 904 96.9823 545.486 440.949
2304 0 78.2113 11.6479 911 101.171 546.023 441.778
2305 0 86.2214 9.99752 862 105.865 546.085 438.472
2306 0 87.179 9.65829 842 102.631 546.056 438.236
2307 0 87.1611 10.842 945 102.335 545.677 436.443
2308 0 89.2159 11.0406 985 99.4355 545.704 434.972
2309 0 84.3374 8.76242 739 103.306 545.621 441.043
2310 1 47.4108 10.6938 507 99.5227 546.554 457.01
2311 0 48.2026 11.3064 545 99.6954 546.585 455.138
2312 0 48.348 10.7967 522 99.6207 546.669 454.061
2313 0 50.2628 11.0022 553 101.439 546.691 453.855
2314 0 51.1648 10.9646 561 104.734 547.18 453.205
2315 0 52.2265 11.0672 578 108.962 547.308 451.329
2316 0 55.1944 11.4142 630 106.154 547.73 452.487
2317 0 56.0863 11.0722 621 106.327 547.378 451.631
2318 0 58.0535 11.3344 658 107.315 547.602 449.891
2319 0 60.1266 11.2097 674 110.335 547.831 449.22
2320 0 63.1069 11.425 721 104.208 547.577 448.526
2321 0 65.0946 11.7368 764 107.616 548.296 447.856
2322 0 68.1037 11.7174 798 100.264 548.273 446.303
2323 0 69.1706 11.927 825 111.412 548.259 444.435
2324 0 69.1706 11.927 825 149.947 548.259 444.435
2325 1 38.0291 9.49274 361 113.645 548.377 460.402
2326 0 40.0261 10.3183 413 106.37 547.673 458.973
2327 0 39.1122 10.2525 401 116.464 548.412 458.688
2328 0 42.2808 10.5485 446 110.296 548.065 457.675
2329 0 44.1981 10.3398 457 108.171 547.958 457.079
2330 0 45.2853 10.5553 478 108.416 548.669 456.738
2331 0 44.2941 10.1594 450 115.28 548.962 456.249
2332 0 44.1443 10.3524 457 113.269 549.6 455.84
2333 0 48.2262 10.7825 520 105.592 549.363 454.45
2334 0 49.2635 10.3931 512 100.883 550.061 453.666
2335 0 51.1839 10.5502 540 102.994 549.87 453.583
2336 0 54.1702 10.5778 573 105.347 549.37 452.002
2337 0 55.1783 10.3845 573 106.934 550.211 451.511
2338 0 57.1973 10.6474 609 107.2 549.972 450.261
2339 0 58.1265 10.9072 634 108.823 549.552 448.656
2340 0 61.2165 10.5037 643 108.022 549.585 448.059
2341 0 62.3707 10.8545 677 105.347 549.375 446.858
2342 0 64.3012 11.1662 718 106.141 549.198 445.979
2343 0 68.2549 10.6512 727 103.707 549.725 445.336
2344 0 71.4231 10.8508 775 106.093 550.195 444.333
2345 0 72.3474 11.3204 819 103.205 549.885 443.851
2346 1 40.0115 9.54725 382 108.257 550.628 459.558
2347 0 39.0364 9.93945 388 106.175 551.152 460.126
2348 0 42.0096 10.1405 426 109.3 550.758 459.547
2349 0 44.0487 10.1479 447 108.935 550.763 458.931
2350 0 43.1864 11.0914 479 104.898 548.726 459.217
2351 0 45.3512 11.2235 509 104.033 548.737 459.173
2352 0 45.2415 11.4055 516 105.686 548.938 458.605
2353 0 46.3446 11.2635 522 106.241 548.962 457.709
2354 0 47.3125 11.2444 532 107.947 548.831 456.739
2355 0 47.3766 11.1659 529 107.715 548.282 454.968
2356 0 48.322 11.4441 553 102.835 548.517 454.166
2357 0 52.3207 11.2384 588 102.806 548.665 453.704
2358 0 53.3096 11.0299 588 98.6429 548.694 452.682
2359 0 52.3944 11.6615 611 108.506 548.8 452.507
2360 0 56.252 11.9462 672 106.113 548.731 453.448
2361 0 56.3326 12.1777 686 107.618 548.343 453.363
2362 0 59.2462 12.2877 728 99.5481 548.006 451.246
2363 0 60.2804 12.1764 734 101.217 547.446 450.586
2364 0 50.3535 8.83752 445 116.052 548.701 455.252
2365 0 50.3535 8.83752 445 130.083 549.701 455.252
2366 0 66.1979 11.7224 776 99.1044 547.414 446.826
2367 0 70.1968 12.3367 866 103.905 547.354 448.542
2368 0 72.285 12.3815 895 104.272 547.229 446.785
2369 0 72.2167 12.1163 875 106.682 547.384 445.352
2370 0 71.1783 12.2931 875 106.749 547.329 442.583
2371 1 144.393 6.01137 868 109.578 547.354 432.67
2372 1 77.1555 11.7296 905 96.4807 547.271 440.84
2373 1 252.863 11.0613 2797 108.999 547.39 350.551
2374 0 253.701 7.89906 2004 111.037 547.206 362.992
2375 1 87.1239 12.3961 1080 96.4556 546.476 439.182
2376 0 90.1519 11.9687 1079 93.7729 546.397 437.972
2377 1 72.0876 6.54759 472 106.877 546.689 452.636
2378 0 74.0577 8.26382 612 109.103 546.296 448.214
2379 0 77.0622 7.73401 596 106.077 546.76 448.2
2380 0 80.3402 10.2564 824 100.379 546.186 442.664
2381 1 56.1132 10.158 570 99.6474 546.907 457.772
2382 0 49.159 10.3542 509 97.4656 546.69 458.016
2383 0 46.2585 10.2035 472 101.583 546.591 456.979
2384 0 57.1111 11.8541 677 95.0354 546.578 455.442
2385 0 58.1682 11.9997 698 99.8123 546.434 454.364
2386 0 59.1368 11.8877 703 102.038 546.596 454.861
2387 0 60.1979 12.1765 733 102.772 546.419 453.038
2388 0 54.1347 9.40247 509 105.175 546.491 455.884
2389 0 56.1122 8.94636 502 105.112 546.263 454.809
2390 0 60.2172 10.1798 613 103.173 545.945 451.334
2391 0 70.2348 12.1165 851 93.5053 546.27 449.174
2392 0 71.3586 12.29 877 99.8039 546.245 448.026
2393 0 72.3731 11.9934 868 99.0012 546.439 444.683
2394 1 106.857 11.6043 1240 103.064 546.873 426.653
2395 0 106.812 11.6747 1247 101.781 546.261 427.439
2396 1 138.679 8.92707 1238 111.857 546.375 417.856
2397 1 85.3596 12.9335 1104 97.567 545.829 439.502
2398 0 86.5195 12.9335 1119 102.313 545.598 437.745
2399 0 89.7021 12.4858 1120 113.855 545.575 437.29
2400 0 93.5446 12.347 1155 111.146 545.921 435.997
2401 0 95.6656 12.136 1161 108.87 545.732 431.664
2402 1 50.5334 10.0528 508 120.264 545.549 454.524
2403 0 54.3588 11.6081 631 110.471 546.105 453.819
2404 0 55.2819 11.5951 641 104.838 546.314 453.507
2405 0 53.1531 11.5327 613 109.282 547.219 453.121
2406 0 54.3073 12.061 655 111.363 546.791 452.134
2407 0 60.409 11.3394 685 113.14 546.603 450.431
2408 0 64.1648 12.2029 783 106.174 546.656 450.713
2409 0 66.2026 11.9935 794 96.4496 546.806 450.567
2410 0 67.1582 11.7782 791 103.249 546.896 449.023
2411 0 68.1781 11.4259 779 103.983 546.902 446.75
2412 0 72.2169 11.784 851 101.371 546.776 444.622
2413 0 72.1973 11.5794 836 90.3816 547.385 444.606
2414 0 78.2657 11.3715 890 92.4843 547.418 443.63
2415 0 80.3399 12.0986 972 89.82 547.715 441.822
2416 0 84.2216 11.3629 957 93.3103 547.629 439.162
2417 0 86.508 11.444 990 85.3202 547.713 437.202
2418 0 88.5563 11.5181 1020 91.9931 547.816 434.494
2419 0 93.62 11.7069 1096 89.8212 548.087 434.495
2420 0 96.6873 12.0802 1168 82.3176 548.42 432.764
2421 0 100.471 11.7646 1182 86.5787 548.92 431.611
2422 0 101.401 11.282 1144 87.5341 547.787 429.184
2423 0 105.308 11.1008 1169 87.71 548.595 426.586
2424 1 53.0756 10.7206 569 89.3972 549.83 452.822
2425 0 54.1892 11.3307 614 87.4902 549.274 452.682
2426 0 54.1677 10.4675 567 86.7443 549.979 451.079
2427 0 51.1942 9.8644 505 88.5446 549.903 452.453
2428 0 59.2267 11.7514 696 83.1135 550.264 450.307
2429 0 61.299 11.6804 716 88.2696 550.066 449.545
2430 0 62.1375 11.9574 743 90.9098 550.253 447.536
2431 0 65.1487 11.7117 763 89.9318 549.896 445.834
2432 0 66.3274 11.5488 766 87.7337 550.163 444.807
2433 0 69.15 12.1475 840 86.656 550.695 444.298
2434 0 70.2048 11.7513 825 86.1297 550.359 442.051
2435 0 74.1662 12.472 925 87.72 549.412 441.306
2436 0 76.1203 12.4277 946 88.9535 549.727 441.779
2437 0 78.0752 11.8347 924 95.6623 549.582 441.171
2438 0 81.1701 11.9995 974 94.3542 549.658 438.228
2439 0 82.2442 12.2927 1011 102.223 549.362 436.198
2440 0 87.1428 12.3016 1072 100.965 549.53 436.347
2441 0 90.1841 12.5188 1129 98.3968 549.653 436.974
2442 0 92.4676 12.8369 1187 104.092 549.871 435.57
2443 0 94.3672 12.8328 1211 102.158 549.659 433.933
2444 1 49.0446 9.8278 482 95.5477 550.417 457.234
2445 0 50.1383 10.5907 531 100.746 550.746 455.363
2446 0 55.0638 11.2778 621 98.4477 548.556 454.101
2447 0 56.1151 11.6012 651 104.892 549.429 452.359
2448 0 56.1459 12.2894 690 97.4725 549.914 451.483
2449 0 58.2902 12.0603 703 103.677 549.731 451.521
2450 0 60.2081 12.3738 745 106.77 549.302 450.839
2451 0 63.2196 12.2905 777 106.178 549.478 450.525
2452 0 64.2689 12.1987 784 106.351 548.907 449.056
2453 0 66.2041 11.9026 788 110.659 548.636 447.052
2454 0 66.2107 12.5508 831 113.155 548.817 445.996
2455 0 71.2569 12.476 889 107.376 548.432 446.198
2456 0 72.1029 12.496 901 107.396 548.85 444.719
2457 0 74.1394 12.5035 927 110.711 549.611 445.466
2458 0 75.1941 12.4611 937 107.86 549.127 443.267
2459 0 78.1872 12.355 966 106.777 548.935 440.554
2460 0 81.271 12.4768 1014 102.135 548.924 440.032
2461 0 84.2694 12.8754 1085 113.57 548.569 440.596
2462 0 87.1889 12.7883 1115 107.77 548.927 439.652
2463 0 89.1714 12.8741 1148 108.4 548.615 436.593
2464 0 90.298 12.4255 1122 107.557 548.152 436.02
2465 0 95.204 12.9616 1234 103.062 548.235 434.099
2466 0 97.3516 12.9017 1256 100.405 547.706 433.232
2467 0 101.351 12.6688 1284 102.504 547.583 430.319
2468 1 53.3189 10.1652 542 97.5517 546.889 455.78
2469 0 52.0851 10.598 552 97.3986 548.274 456.12
2470 0 55.1176 11.6478 642 96.771 548.26 455.198
2471 0 56.1091 12.2262 686 95.0991 548.185 454.669
2472 0 57.1126 12.4491 711 92.474 548.345 454.153
2473 0 59.1702 12.1852 721 95.6782 547.853 453.56
2474 0 62.0495 12.0227 746 95.2668 547.519 452.291
2475 0 62.0975 11.9489 742 96.2992 547.916 450.869
2476 0 66.1016 11.6185 768 96.8464 547.008 450.074
2477 0 67.1279 11.6792 784 96.7819 546.495 448.895
2478 0 70.1391 12.3612 867 88.0415 546.633 449.735
2479 0 72.1831 12.5237 904 94.0398 546.278 447.654
2480 0 75.2024 11.9677 900 96.5222 545.844 445.413
2481 0 77.3165 11.7439 908 17.7599 546.521 443.456
2482 0 81.373 12.326 1003 95.8784 546.352 444.261
2483 0 82.3825 12.8304 1057 94.4125 545.777 442.823
2484 0 85.3554 12.6296 1078 94.7727 546.109 441.575
2485 0 88.392 12.8971 1140 93.2184 546.339 439.781
2486 0 90.4843 12.422 1124 94.4929 546.108 438.545
2487 0 93.2687 12.523 1168 96.7979 546.624 437.109
2488 1 49.1434 10.1336 498 95.6124 547.361 459.04
2489 0 51.1576 10.0278 513 97.3801 547.581 456.838
2490 0 49.2022 10.9954 541 95.4695 547.826 455.945
2491 0 53.1385 10.8772 578 97.0415 548.292 453.533
2492 0 57.0616 11.5665 660 90.997 548.777 455.3
2493 0 57.0796 11.7906 673 90.2571 548.058 454.572
2494 0 60.0423 11.7917 708 88.1384 548.256 453.242
2495 0 61.1063 11.9955 733 97.7585 547.864 452.198
2496 0 61.108 12.5352 766 93.9674 547.256 451.645
2497 0 63.1321 12.2917 776 99.1276 547.508 450.598
2498 0 63.1967 11.8835 751 94.3608 546.623 448.539
2499 0 69.1501 12.0318 832 95.6587 546.506 448.163
2500 0 69.157 12.3632 855 95.5696 546.396 446.903
2501 0 72.2216 12.3786 894 93.3188 546.304 445.574
2502 0 73.2658 12.83 940 93.2574 546.637 444.252
2503 0 77.0886 12.2716 946 93.5814 547.148 441.223
2504 0 80.1499 12.6139 1011 85.5272 546.963 440.883
2505 0 85.21 12.4633 1062 88.5556 547.565 439.014
2506 0 86.224 12.5139 1079 91.6525 547.523 438.589
2507 0 91.2857 12.4335 1135 93.1418 546.463 436.848
2508 1 47.0458 10.4792 493 91.7586 545.838 458.426
2509 0 48.1841 10.9165 526 88.9087 546.574 458.061
2510 0 50.445 11.3787 574 92.8084 547.796 455.932
2511 0 52.3659 11.3623 595 92.1546 547.479 456.64
2512 0 51.0688 12.1209 619 95.7496 545.559 455.254
2513 0 53.0614 12.0615 640 93.8906 546.245 454.967
2514 0 56.0225 11.9773 671 89.5156 546.308 454.656
2515 0 57.0512 12.4274 709 90.0183 545.977 453.073
2516 0 57.031 12.274 700 89.8457 546.951 452.853
2517 0 61.0768 11.7884 720 97.8 546.772 452.206
2518 0 60.0459 12.2739 737 94.8562 548.148 451.281
2519 0 62.0989 12.7377 791 98.5714 548.14 449.91
2520 0 63.0933 12.9332 816 95.9179 548.324 448.645
2521 0 66.0541 12.52 827 99.7775 548.408 448.117
2522 0 69.0709 12.7984 884 96.2251 548.335 446.238
2523 0 69.0695 12.7842 883 96.1676 548.328 446.494
2524 0 71.1184 12.9362 920 97.725 548.467 445.215
2525 0 72.0696 13.0985 944 92.8612 548.958 444.16
2526 0 75.0651 13.4017 1006 99.9254 549.365 443.634
2527 0 79.0922 13.1113 1037 104.115 549.869 442.226
2528 0 79.0336 13.45 1063 99.1176 549.336 440.401
2529 0 81.0359 13.2781 1076 101.415 550.195 440.273
2530 0 84.1017 13.448 1131 101.683 550.067 439.044
2531 0 87.1236 13.4751 1174 112.334 548.572 437.831
2532 0 90.1547 13.6543 1231 107.18 547.792 434.412
2533 0 91.0875 13.4486 1225 106.978 547.359 433.496
2534 0 93.0815 13.8266 1287 107.267 547.601 432.062
2535 0 97.1031 13.8821 1348 107.072 547.855 431.248
2536 0 100.113 13.8743 1389 104.14 548.294 429.311
2537 0 103.107 13.8303 1426 107.367 548.161 428.304
2538 0 106.178 13.5904 1443 107.002 548.312 426.801
2539 0 109.103 14.0326 1531 104.771 547.956 424.496
2540 1 56.1052 11.425 641 106.733 550.204 447.807
2541 0 59.1166 11.6042 686 110.557 549.829 447.194
2542 0 60.0902 12.215 734 105.244 549.737 445.189
2543 0 63.1071 11.9162 752 111.122 549.888 444.536
2544 0 64.0938 12.5285 803 110.436 549.781 443.208
2545 0 66.0463 12.6578 836 107.298 549.48 442.64
2546 0 67.0567 12.81 859 112.815 549.804 442.108
2547 0 70.0611 12.9173 905 106.063 549.85 441.319
2548 0 73.1001 12.9138 944 97.3909 550.465 440.299
2549 0 75.1559 12.9597 974 107.041 550.878 439.529
2550 0 78.1702 13.1764 1030 107.393 549.018 440.738
2551 0 80.1395 13.4391 1077 110.216 549.085 438.591
2552 0 83.124 13.0768 1087 106.015 549.104 438.361
2553 0 84.1548 13.5702 1142 106.89 548.921 437.449
2554 0 87.2599 13.626 1189 108.381 548.863 435.027
2555 0 90.2009 13.4921 1217 103.804 549.033 434.532
2556 0 91.1042 13.5449 1234 110.13 548.805 433.545
2557 0 95.2134 13.4435 1280 108.036 549.148 431.588
2558 0 99.2861 13.4057 1331 114.27 549.334 429.584
2559 0 101.434 13.3289 1352 113.831 550.21 427.349
2560 0 105.255 13.5481 1426 112.363 550.078 425.05
2561 1 54.216 11.4911 623 107.994 549.982 450.16
2562 0 58.0367 11.1998 650 118.178 549.015 449.271
2563 0 59.1265 12.1773 720 114.132 549.235 450.753
2564 0 60.0831 12.6658 761 111.355 549.311 450.562
2565 0 63.107 12.5343 791 109.727 549.226 448.771
2566 0 64.1404 12.7377 817 111.394 549.239 447.295
2567 0 66.311 12.924 857 108.814 549.205 446.448
2568 0 68.2487 12.8061 874 107.546 549.237 445.605
2569 0 70.2371 12.7141 893 104.942 549.16 444.872
2570 0 73.2435 12.438 911 99.4907 548.229 443.965
2571 0 76.2761 12.5727 959 98.1992 548.259 441.746
2572 0 79.2268 12.3948 982 101.649 548.42 440.853
2573 0 80.1924 12.47 1000 99.681 548.473 440.165
2574 0 83.2714 12.2371 1019 105.233 548.608 439.381
2575 0 86.3815 12.5027 1080 98.988 548.734 437.931
2576 0 89.3374 12.2345 1093 97.2745 549.188 437.517
2577 0 88.1912 12.6203 1113 93.7287 549.249 431.854
2578 1 46.1094 10.3666 478 99.7636 549.418 453.615
2579 0 48.2054 10.476 505 98.2653 550.018 452.638
2580 0 50.2196 11.2705 566 94.1608 549.726 452.152
2581 0 52.0304 11.6855 608 27.5049 550.844 450.753
2582 0 54.0652 11.7081 633 89.7567 550.635 450.45
2583 0 54.0224 11.6433 629 88.3561 550.995 450.59
2584 0 56.098 11.676 655 94.2168 550.589 449.04
2585 0 58.1973 11.9078 693 87.8701 549.475 447.896
2586 0 59.1848 11.6753 691 85.5022 549.747 448.03
2587 0 62.137 12.6173 784 87.8367 549.996 450.251
2588 0 63.1788 13.0423 824 89.0109 549.674 449.001
2589 0 65.2301 12.7855 834 83.8082 549.411 447.586
2590 0 68.228 12.5022 853 101.161 549.313 446.959
2591 0 70.2358 12.8709 904 89.3916 548.984 446.392
2592 0 73.1263 12.8271 938 91.8507 549.702 445.548
2593 0 74.1829 13.0084 965 91.1295 549.544 444.638
2594 0 77.1794 12.6718 978 93.3016 549.134 442.713
2595 0 78.1762 12.8812 1007 92.565 548.91 441.661
2596 0 83.3184 12.5183 1043 91.4708 548.792 441.182
2597 0 85.2214 13.0836 1115 103.86 548.892 440.223
2598 0 87.2419 13.0786 1141 106.948 548.726 437.906
2599 0 89.3247 13.0311 1164 90.4923 548.206 437.594
2600 0 92.3701 13.3052 1229 90.2596 548.592 435.207
2601 1 51.2045 11.5615 592 90.8801 547.652 456.034
2602 0 52.0182 12.3034 640 93.7156 548.778 456.136
2603 0 54.0585 12.431 672 94.3557 548.374 455.119
2604 0 55.3752 13.0744 724 88.1533 547.242 447.728
2605 0 56.3849 12.7162 717 87.8731 547.406 450.809
2606 0 60.3942 12.6833 766 90.7637 547.244 450.317
2607 0 61.2105 12.1384 743 93.7725 547.401 449.608
2608 0 62.3291 12.9314 806 92.3462 547.639 448.383
2609 0 65.2651 12.7174 830 94.3024 547.859 447.02
2610 0 66.1648 12.9223 855 97.9088 547.128 446.923
2611 0 68.2666 13.0811 893 89.7133 547.106 446.974
2612 0 71.1928 13.2036 940 89.3202 547.599 445.089
2613 0 72.1339 13.1284 947 90.8184 547.364 444.813
2614 0 74.1129 13.2905 985 88.4964 547.161 444.208
2615 0 77.0563 12.9645 999 94.4064 548.272 444.296
2616 0 78.1543 13.0127 1017 95.0079 547.998 443.349
2617 0 81.1963 13.0425 1059 93.1143 547.879 440.952
2618 0 84.1002 12.9726 1091 97.5994 547.667 440.202
2619 0 87.1579 12.9535 1129 99.8937 547.912 438.506
2620 0 89.2328 13.1678 1175 100.934 548.032 437.786
2621 0 94.2261 12.8096 1207 99.9462 547.871 435.356
2622 0 96.1257 13.3263 1281 91.9875 548.038 433.638
2623 0 100.164 13.378 1340 89.5231 547.425 431.122
2624 1 55.1548 11.5856 639 97.2254 547.141 453.668
2625 0 54.1797 12.3478 669 99.728 548.96 453.694
2626 0 57.147 12.1266 693 96.5094 547.886 451.859
2627 0 58.2635 12.4435 725 96.1324 548.226 452.603
2628 0 61.0752 12.8039 782 95.2072 548.244 450.655
2629 0 60.1014 12.8949 775 98.8929 547.934 450.512
2630 0 64.0654 12.9399 829 100.736 548.191 449.358
2631 0 66.0897 12.6646 837 102.648 548.11 448.712
2632 0 68.1579 12.7205 867 102.223 548.103 446.898
2633 0 71.0874 13.2091 939 106.748 547.674 447.283
2634 0 73.1031 12.968 948 103.233 547.762 446.027
2635 0 76.0978 13.0227 991 103.473 547.782 444.002
2636 0 78.0351 13.0454 1018 106.719 547.895 442.258
2637 0 81.1041 12.823 1040 102.153 547.736 441.779
2638 0 82.07 13.1717 1081 107.809 547.814 440.882
2639 0 86.0698 13.2915 1144 104.174 547.927 439.087
2640 0 88.0392 13.4372 1183 111.6 547.779 437.454
2641 0 93.1181 13.2198 1231 111.625 547.919 435.75
2642 0 94.1828 13.2933 1252 119.624 548.078 435.335
2643 0 98.082 13.2746 1302 114.528 547.57 432.583
2644 0 103.124 13.1008 1351 115.038 547.673 431.111
2645 1 56.144 11.2033 629 115.572 547.938 454.638
2646 0 56.2461 11.3074 636 107.983 546.099 452.67
2647 0 58.0862 11.965 695 104.024 547.633 453.275
2648 0 59.1131 11.8586 701 103.909 547.027 454.429
2649 0 60.1835 11.9966 722 108.115 547.273 454.342
2650 0 62.1366 12.1506 755 116.775 547.069 453.47
2651 0 64.1077 12.1514 779 115.789 549.271 451.723
2652 0 66.0759 12.41 820 115.833 549.248 450.845
2653 0 70.0884 12.7696 895 112.501 548.323 449.603
2654 0 70.1501 12.7298 893 108.792 549.1 449.139
2655 0 71.0582 13.1582 935 105.441 549.001 447.84
2656 0 73.1603 13.2039 966 111.505 547.932 447.207
2657 0 77.0984 12.8667 992 107.421 547.753 446.034
2658 0 79.1394 13.2298 1047 112.931 547.968 444.185
2659 0 81.0937 13.1206 1064 114.573 547.663 443.754
2660 0 84.1133 12.7923 1076 115.236 546.811 442.028
2661 0 87.1004 13.1113 1142 111.655 546.828 440.969
2662 0 90.0764 13.0001 1171 113.843 546.766 439.098
2663 0 93.1873 12.7163 1185 117.441 546.724 437.468
2664 0 97.3487 12.6453 1231 113.841 546.813 435.557
2665 0 100.273 12.7652 1280 115.07 546.279 434.709
2666 1 53.1798 11.8654 631 113.932 545.87 457.247
2667 0 53.0231 12.2965 652 115.506 545.833 457.155
2668 0 55.2118 11.954 660 105.864 545.923 454.132
2669 0 55.106 12.104 667 106.006 545.627 453.211
2670 0 59.0828 11.7462 694 106.274 544.879 451.288
2671 0 62.0826 12.6444 785 104.273 545.98 454.316
2672 0 64.1252 12.6939 814 102.708 545.183 452.475
2673 0 66.172 12.8906 853 99.7222 545.347 451.416
2674 0 68.2158 12.739 869 98.0092 545.264 450.121
2675 0 69.1385 12.8149 886 100.099 545.502 449.637
2676 0 72.1534 12.8892 930 96.5161 545.623 448.712
2677 0 74.2028 12.8028 950 100.186 545.741 448.082
2678 0 77.334 13.1378 1016 101.445 545.659 446.535
2679 0 77.2985 13.4285 1038 99.3391 545.811 446.114
2680 0 80.2486 13.022 1045 98.7273 546.151 444.36
2681 0 83.3901 13.0591 1089 97.7842 546.551 442.302
2682 0 87.3618 13.1408 1148 100.826 546.227 441.137
2683 0 89.3366 13.3316 1191 108.517 546.318 439.348
2684 1 46.1843 10.7179 495 98.2808 548.299 461.893
2685 0 48.1921 11.0806 534 91.5449 547.712 461.236
2686 0 49.2599 11.551 569 95.3796 547.39 459.425
2687 0 51.0346 11.5608 590 91.2712 547.242 456.61
2688 0 51.0346 11.5608 590 155.549 546.242 456.61
2689 0 53.0836 12.113 643 87.2115 546.949 457.334
2690 0 55.0464 11.7537 647 91.4637 546.864 455.671
2691 0 57.0681 12.0733 689 101.727 546.776 454.647
2692 0 58.0307 12.1487 705 95.2014 546.763 454.736
2693 0 59.0432 12.4485 735 91.0952 546.936 453.62
2694 0 62.0351 12.2995 763 86.3028 546.923 455.052
2695 0 62.0691 12.5183 777 91.9884 546.669 454.47
2696 0 64.0406 12.2266 783 90.5581 546.623 454.324
2697 0 66.0447 12.0676 797 90.8319 546.675 454.488
2698 0 68.0353 12.4347 846 88.3972 546.761 452.982
2699 0 70.1151 12.6078 884 91.9989 546.517 450.889
2700 0 73.0867 12.2868 898 91.8463 546.84 450.028
2701 0 74.0522 12.7208 942 87.586 546.793 447.985
2702 0 78.1124 12.2644 958 89.3194 547.114 447.52
2703 0 80.0412 12.581 1007 89.3803 547.175 445.385
2704 0 81.0608 12.6695 1027 85.6641 547.266 445.255
2705 0 85.0777 12.5885 1071 92.7386 547.051 443.459
2706 1 42.0305 10.421 438 90.2717 547.247 464.265
2707 0 46.0469 10.6196 489 92.2025 547.536 462.824
2708 0 46.0467 10.7717 496 87.6714 546.966 462.744
2709 0 48.0274 10.8063 519 94.9364 547.333 460.902
2710 0 49.015 11.1395 546 87.6447 547.207 460.872
2711 0 51.0619 11.868 606 83.665 547.452 460.068
2712 0 52.0794 12.0585 628 87.7373 547.182 459.011
2713 0 55.0117 11.9066 655 90.8305 547.398 458.276
2714 0 55.0626 12.2406 674 87.2522 547.266 457.181
2715 0 57.0318 12.0284 686 84.7464 547.079 457.318
2716 0 59.1344 12.2602 725 81.0897 546.612 455.775
2717 0 62.0317 12.7032 788 81.4251 546.661 448.827
2718 0 64.1994 12.8039 822 86.9647 546.362 446.543
2719 0 67.124 12.5886 845 82.3976 546.547 445.004
2720 0 67.1366 13.1672 884 79.1448 546.154 445.226
2721 0 70.2254 12.9013 906 85.6457 546.68 444.001
2722 0 71.264 13.036 929 86.7567 546.887 443.298
2723 0 72.2726 13.1862 953 91.7838 546.333 447.803
2724 0 75.3589 13.1902 994 90.3541 546.623 448.067
2725 0 78.2078 12.7864 1000 97.932 546.35 446.969
2726 0 81.2662 12.8221 1042 94.6632 546.661 445.297
2727 0 84.48 13.3996 1132 94.8578 546.63 442.47
2728 0 86.3042 12.8847 1112 94.1862 546.041 441.488
2729 1 44.1848 11.4293 505 93.8218 546.99 463.465
2730 0 47.2853 11.5892 548 83.688 545.982 461.942
2731 0 48.0898 11.9776 576 88.8889 546.898 461.264
2732 0 50.1549 12.0427 604 97.8129 546.904 460.765
2733 0 51.0498 12.0471 615 98.7594 547.597 460.405
2734 0 52.0344 12.338 642 96.7928 547.179 458.72
2735 0 54.0569 12.1169 655 99.8137 547.452 457.798
2736 0 54.0597 12.5972 681 100.714 547.501 457.069
2737 0 57.1758 12.0331 688 95.3954 547.536 456.391
2738 0 58.1431 12.2285 711 98.0169 547.495 455.466
2739 0 60.0887 12.4483 748 94.2794 547.758 454.715
2740 0 59.1663 12.9635 767 102.196 546.232 453.89
2741 0 61.1686 12.8497 786 104.277 546.281 453.025
2742 0 65.2404 12.5382 818 104.658 545.775 452.9
2743 0 66.1968 12.6743 839 103.106 545.819 450.535
2744 0 68.2156 12.7537 870 103.783 545.395 449.571
2745 0 70.181 12.8382 901 99.1343 545.922 448.971
2746 0 73.315 12.835 941 106.723 546.413 448.119
2747 0 73.2899 13.0304 955 107.09 545.738 446.759
2748 0 75.3207 12.9978 979 106.004 546.009 445.75
2749 0 77.5026 13.4189 1040 104.028 545.855 443.692
2750 0 81.6297 13.206 1078 104.631 546.269 441.548
2751 0 83.7707 12.9162 1082 102.636 546.832 440.364
2752 1 44.5529 10.6839 476 98.6029 546.922 460.473
2753 0 47.5037 10.4413 496 103.851 547.317 460.51
2754 0 48.4037 10.9083 528 100.523 546.341 460.833
2755 0 50.2988 11.4913 578 96.3962 546.367 459.976
2756 0 50.376 12.1883 614 92.1026 546.959 458.259
2757 0 53.2159 12.0453 641 91.0437 546.114 458.208
2758 0 53.6026 12.4621 668 90.8982 547.118 456.195
2759 0 56.3857 12.379 698 92.7937 547.332 455.421
2760 0 56.3711 12.6838 715 103.881 547.239 454.101
2761 0 59.3537 12.5182 743 102.993 547.086 453.571
2762 0 61.5452 12.6899 781 107.038 546.983 452.6
2763 0 64.2529 12.8088 823 103.416 547.023 451.052
2764 0 64.4921 12.8543 829 100.97 546.261 451.253
2765 0 68.3534 12.6256 863 100.939 546.693 449.774
2766 0 69.2347 12.8837 892 102.127 546.956 448.91
2767 0 72.1707 12.7476 920 98.5598 546.855 447.363
2768 0 74.2402 12.6212 937 96.6478 547.492 445.937
2769 0 77.2181 12.8856 995 97.4462 548.087 444.625
2770 0 79.1268 12.5116 990 100.499 548.037 443.057
2771 0 81.3279 12.8369 1044 103.266 548.266 442.297
2772 0 83.1766 13.0926 1089 104.488 548.364 440.294
2773 0 87.1785 12.8816 1123 101.827 548.98 438.581
2774 0 87.1785 12.8816 1123 157.976 549.98 438.581
2775 0 92.1805 12.9094 1190 105.146 548.71 436.098
2776 0 96.23 12.9066 1242 103.39 548.452 434.864
2777 0 98.3225 12.9879 1277 100.883 548.168 433.94
2778 1 51.1725 11.7641 602 95.0249 548.988 456.336
2779 0 54.0966 11.7937 638 99.2931 549.326 455.183
2780 0 56.0189 12.4065 695 100.256 549.165 454.353
2781 0 57.0321 12.5894 718 102.514 549.259 453.784
2782 0 58.0442 12.5766 730 102.5 549.444 452.856
2783 0 60.0276 12.4943 750 103.837 549.304 451.789
2784 0 62.0473 13.1351 815 100.384 549.298 450.204
2785 0 66.2203 12.1262 803 102.74 549.47 449.341
2786 0 67.148 12.3161 827 105.993 549.727 448.897
2787 0 67.2182 12.5561 844 104.902 549.652 448.294
2788 0 69.1796 12.8073 886 108.964 550.162 447.09
2789 0 72.2233 12.6552 914 107.726 549.887 445.673
2790 0 73.2053 12.8816 943 102.796 549.509 444.912
2791 0 76.2165 13.1861 1005 104.978 549.515 443.242
2792 0 81.1869 12.7607 1036 105.785 549.64 440.437
2793 0 81.1931 12.9814 1054 104.749 549.358 439.548
2794 0 85.1651 13.0922 1115 101.809 549.028 437.996
2795 0 88.2178 12.6958 1120 103.578 549.156 435.288
2796 0 90.1644 12.5327 1130 102.663 549.552 434.199
2797 1 49.1156 11.7682 578 100.026 547.401 454.227
2798 0 48.0246 11.7648 565 93.6354 547.264 452.446
2799 0 48.1995 11.6599 562 101.794 548.557 451.479
2800 0 51.253 11.7261 601 107.549 548.864 449.995
2801 0 52.1933 11.5915 605 104.017 548.906 450.223
2802 0 53.3205 11.7403 626 107.909 549.885 448.685
2803 0 54.283 11.7532 638 101.268 549.839 448.328
2804 0 56.2534 11.5548 650 102.157 549.678 448.102
2805 0 56.3103 11.8273 666 102.554 548.955 447.122
2806 0 58.3243 11.6761 681 101.634 549.294 447.582
2807 0 59.1593 12.1029 716 108.207 549.454 446.073
2808 0 62.1814 12.2866 764 109.139 549.391 445.452
2809 0 63.2103 12.9567 819 108.971 549.105 443.885
2810 0 65.2277 12.6173 823 108.35 549.194 443.905
2811 0 67.1732 12.5794 845 106.983 549.604 442.931
2812 0 68.1836 13.0823 892 105.899 549.965 441.086
2813 0 72.1134 13.3678 964 118.908 550.124 442.854
2814 0 77.3504 13.1868 1020 109.44 550.239 442.322
2815 0 79.2402 13.2256 1048 104.272 550.447 441.206
2816 0 79.1729 13.2495 1049 106.275 550.739 440.422
2817 0 84.264 13.339 1124 99.8488 550.617 438.604
2818 0 86.3196 13.5195 1167 101.454 550.624 435.627
2819 0 89.1377 13.3501 1190 106.199 549.957 434.591
2820 0 92.1129 12.7018 1170 109.867 550.392 434.734
2821 0 95.2629 12.7857 1218 108.253 550.406 433.045
2822 0 98.4304 12.74 1254 114.409 550.537 430.859
2823 1 54.3612 11.7547 639 101.692 549.372 450.451
2824 0 55.1691 12.5614 693 111.462 550.358 452.974
2825 0 55.1082 12.2486 675 109.387 549.842 453.178
2826 0 57.1455 12.2844 702 108.499 550.295 452.131
2827 0 59.1266 12.042 712 126.198 550.577 452.132
2828 0 60.2114 12.589 758 114.371 550.132 449.755
2829 0 63.082 12.888 813 115.825 549.138 449.661
2830 0 65.1392 12.7573 831 103.951 548.135 448.006
2831 0 66.2308 13.1057 868 99.932 548.306 447.179
2832 0 68.1543 12.9852 885 97.4622 548.002 446.508
2833 0 70.2201 12.7314 894 105.803 548.255 445.918
2834 0 73.1036 12.5575 918 98.036 547.854 443.623
2835 0 75.2574 12.6366 951 97.6309 547.622 441.996
2836 0 77.1588 12.6233 974 92.3717 547.24 441.136
2837 0 80.1616 12.7118 1019 91.6232 547.283 439.92
2838 0 83.2164 12.5456 1044 94.3487 546.99 437.878
2839 1 39.2583 11.4626 450 94.9889 546.402 459.651
2840 0 43.094 11.3009 487 95.9158 547.468 458.088
2841 0 46.2844 12.6176 584 94.7226 546.62 458.289
2842 0 46.3038 12.2884 569 87.29 546.267 456.125
2843 0 48.3449 12.3901 599 90.5108 546.571 456.746
2844 0 47.3286 13.0365 617 89.7909 547.126 456.408
2845 0 50.2563 12.4561 626 90.3434 546.695 455.428
2846 0 53.2672 12.8034 682 79.7625 546.589 453.704
2847 0 53.1694 13.0714 695 85.2475 547.098 453.764
2848 0 56.2506 12.7465 717 89.1255 546.729 451.794
2849 0 57.2554 13.2215 757 88.4927 546.053 451.996
2850 0 57.2016 13.1465 752 89.1356 547.324 451.722
2851 0 61.2343 13.0972 802 87.3928 547.79 450.001
2852 0 61.2275 13.2947 814 90.5098 548.194 449.049
2853 0 63.3425 13.2297 838 91.0107 547.687 448.092
2854 0 66.2098 12.9437 857 95.5076 548.646 447.756
2855 0 67.2373 13.3705 899 90.168 549.42 447.851
2856 0 68.2758 13.7237 937 92.5272 548.768 447.081
2857 0 71.2317 13.435 957 88.2497 548.552 445.881
2858 0 74.168 13.375 992 89.8236 548.774 444.943
2859 0 76.2286 13.4858 1028 93.1761 548.091 442.883
2860 0 78.1708 13.5345 1058 91.7457 548.307 441.439
2861 0 81.3449 13.3997 1090 89.0578 548.554 439.308
2862 0 82.2337 13.8386 1138 86.4692 548.914 438.188
2863 0 86.2932 13.7902 1190 85.795 549.273 437.831
2864 0 90.4111 13.5713 1227 77.3121 549.075 432.483
2865 0 94.5119 13.6491 1290 83.2364 549.375 431.513
2866 0 96.4859 14.1264 1363 82.7498 549.456 434.021
2867 1 51.2043 12.8895 660 84.1394 548.674 457.624
2868 0 53.1518 13.151 699 82.7968 548.29 456.27
2869 0 52.0287 13.2619 690 94.3783 547.606 455.71
2870 0 55.0659 13.3658 736 91.4538 547.05 454.562
2871 0 58.0268 12.6493 734 98.5954 547.478 452.707
2872 0 57.2835 14.0878 807 94.0384 547.166 451.26
2873 0 61.1974 13.8568 848 98.8019 547.076 449.748
2874 0 64.1617 13.5595 870 94.7058 547.397 449.385
2875 0 66.1704 13.6617 904 99.7157 546.984 448.231
2876 0 68.2241 13.8074 942 104.826 547.495 447.8
2877 0 72.2978 13.3614 966 109.042 548.156 446.196
2878 0 73.1558 13.8335 1012 104.698 548.081 444.393
2879 0 74.1978 14.1379 1049 103.657 548.609 443.713
2880 0 79.2874 13.697 1086 101.852 548.559 441.752
2881 0 81.3234 13.723 1116 105.028 548.679 440.698
2882 0 84.4795 13.8732 1172 101.045 548.438 438.8
2883 0 88.5932 13.6805 1212 98.6848 549.201 433.634
2884 0 90.5434 13.8939 1258 99.217 548.509 432.413
2885 1 47.2142 12.6445 597 103.506 548.147 456.372
2886 0 49.1388 13.1057 644 92.9115 548.152 456.064
2887 0 51.4049 13.3256 685 95.7474 548.429 454.898
2888 0 51.2467 13.7375 704 94.4446 548.48 454.06
2889 0 54.236 13.4597 730 95.3384 548.586 453.441
2890 0 56.4188 13.3821 755 99.392 548.517 451.465
2891 0 56.3892 13.5842 766 101.384 548.27 451.373
2892 0 58.4739 13.9378 815 99.9755 548.469 450.638
2893 0 61.521 13.7676 847 96.9303 548.13 447.673
2894 0 64.5401 13.7744 889 104.495 548.603 444.207
2895 0 64.6074 14.0077 905 104.45 548.568 442.747
2896 0 68.5008 13.6203 933 101.316 548.527 442.998
2897 0 71.7937 13.7617 988 101.302 548.714 440.323
2898 0 73.4111 13.9897 1027 95.9445 548.64 439.541
2899 0 74.4528 14.0895 1049 107.164 548.466 438.796
2900 0 77.6746 14.0072 1088 101.834 548.598 438.901
2901 0 82.5975 13.8261 1142 112.447 548.576 436.457
2902 0 84.562 13.7532 1163 110.679 548.724 436.746
2903 0 85.9048 13.934 1197 107.798 548.85 434.39
2904 0 90.6114 13.8835 1258 104.912 548.668 433.184
2905 0 93.2522 13.9514 1301 104.093 548.375 432.503
2906 0 98.6794 13.6199 1344 98.939 548.374 432.312
2907 1 50.3866 13.317 671 104.763 548.057 454.599
2908 0 50.1962 13.8855 697 102.089 548.567 455.978
2909 0 52.2507 13.6458 713 110.283 548.68 454.481
2910 0 54.3735 13.7015 745 101.979 549.085 453.291
2911 0 55.3045 13.8506 766 119.706 548.933 451.53
2912 0 57.6982 13.7439 793 117.719 549.301 449.957
2913 0 58.5623 13.7631 806 117.468 549.614 449.065
2914 0 60.447 13.8468 837 114.632 549.603 447.836
2915 0 61.8915 14.1538 876 107.313 549.942 445.631
2916 0 64.6531 14.4773 936 108.846 549.447 444.7
2917 0 67.6076 13.9777 945 105.873 549.754 444.906
2918 0 70.7671 13.8341 979 102.853 549.12 443.639
2919 0 70.8271 13.9495 988 93.9302 549.053 443.553
2920 0 74.7967 13.9177 1041 91.4467 549.132 441.471
2921 0 77.9141 13.7202 1069 95.2535 548.978 440.042
2922 0 79.6346 14.2526 1135 95.3736 548.991 439.08
2923 0 81.4391 14.1333 1151 101.802 548.981 437.977
2924 0 83.6416 14.0719 1177 98.5217 548.877 437.024
2925 0 87.6542 13.5418 1187 99.1542 548.905 436.608
2926 0 90.7173 13.9554 1266 97.2314 548.678 435.021
2927 0 92.4171 14.0342 1297 97.4649 548.825 433.739
2928 0 95.5984 13.9751 1336 97.729 548.53 433.238
2929 1 50.1701 12.9758 651 100.031 548.793 455.923
2930 0 50.0849 13.5969 681 99.7636 548.631 454.93
2931 0 52.1755 13.4354 701 111.588 548.869 454.551
2932 0 53.2256 13.7904 734 116.067 548.524 453.253
2933 0 55.261 13.3186 736 103.98 548.886 453.102
2934 0 55.2805 13.929 770 101.647 548.768 451.877
2935 0 59.2852 13.7302 814 104.464 548.328 450.697
2936 0 59.2984 14.368 852 100.46 548.742 449.81
2937 0 62.3583 14.2082 886 100.301 548.602 448.26
2938 0 65.4016 13.7917 902 99.9723 549.101 446.739
2939 0 66.3366 14.2455 945 103.109 548.704 446.401
2940 0 70.2664 13.705 963 105.653 548.903 445.591
2941 0 70.4626 13.9648 984 99.0417 548.832 443.591
2942 0 74.4629 13.9801 1041 101.454 548.793 442.762
2943 0 77.5115 13.8818 1076 99.382 548.744 440.969
2944 0 79.6433 13.8492 1103 99.1605 548.494 439.918
2945 0 82.4529 13.9474 1150 103.153 548.525 438.494
2946 0 84.4887 13.7296 1160 105.572 549.531 438.706
2947 1 44.2635 11.8382 524 101.433 549.763 459.206
2948 0 45.2876 12.4758 565 101.025 549.752 458.066
2949 0 47.1998 12.6272 596 100.255 549.743 457.569
2950 0 49.278 12.8049 631 95.2441 549.808 456.458
2951 0 51.1948 13.0482 668 102.665 549.069 455.519
2952 0 53.4396 12.7434 681 103.333 548.759 455.772
2953 0 53.2651 13.3483 711 101.068 548.744 454.703
2954 0 56.1705 13.1208 737 104.651 548.62 452.503
2955 0 58.1146 13.1809 766 107.919 548.379 452.089
2956 0 60.1058 13.0936 787 105.61 548.527 450.869
2957 0 60.102 13.6767 822 107.752 548.83 450.672
2958 0 63.1355 13.3997 846 108.317 548.924 449.462
2959 0 64.1034 13.7902 884 110.452 549.5 448.41
2960 0 68.1341 13.4881 919 104.088 548.958 447.357
2961 0 71.3062 13.6594 974 106.475 549.398 444.664
2962 0 73.4169 13.2258 971 106.094 548.306 445.139
2963 0 75.3139 13.3973 1009 104.39 547.427 443.463
2964 0 78.3562 13.5535 1062 103.92 548.272 443.087
2965 0 81.2635 13.5239 1099 104.047 547.188 441.323
2966 0 82.4127 13.6387 1124 99.4306 546.957 439.851
2967 0 84.2796 14.1197 1190 101.987 547.262 439.305
2968 0 87.3485 13.9785 1221 98.7265 547.256 437.772
2969 0 91.3531 13.8912 1269 105.154 547.279 435.783
2970 0 95.3276 13.826 1318 100.373 547.146 434.271
2971 0 96.4181 13.68 1319 103.269 547.302 434.591
2972 0 99.3658 13.5962 1351 114.081 547.095 431.386
2973 0 103.284 14.068 1453 111.105 546.972 431.079
2974 0 106.254 13.9759 1485 114.653 547.131 430.242
2975 0 108.346 14.4352 1564 113.311 546.886 428.753
2976 0 111.263 14.0657 1565 103.95 547.199 426.434
2977 0 117.477 14.0453 1650 103.156 546.866 424.693
2978 0 118.267 14.6618 1734 103.758 546.957 420.806
2979 0 122.322 14.47 1770 108.448 546.931 420.738
2980 0 126.235 14.5126 1832 104.624 546.882 418.187
2981 0 133.362 14.2769 1904 109.517 546.616 416.011
2982 1 72.2255 12.5994 910 112.665 546.433 446.58
2983 0 74.1021 13.6298 1010 102.807 545.729 444.195
2984 0 76.1553 12.9998 990 110.718 546.237 443.729
2985 0 78.1014 13.5081 1055 107.672 546.105 442.507
2986 0 82.1655 13.5093 1110 106.109 546.132 441.9
2987 0 84.1539 13.9269 1172 105.936 546.169 439.997
2988 0 86.0579 13.7814 1186 98.3592 546.426 438.906
2989 0 91.1782 13.9617 1273 99.183 546.776 437.174
2990 0 93.1332 13.9692 1301 101.19 547.255 435.086
2991 0 96.1597 13.6856 1316 99.8625 547.816 434.564
2992 0 100.089 13.8476 1386 100.934 547.837 432.618
2993 0 103.118 14.1198 1456 104.16 548.055 431.37
2994 0 105.155 13.8557 1457 105.504 547.648 430.39
2995 0 110.302 13.8619 1529 102.078 547.139 426.12
2996 0 114.384 13.8218 1581 103.546 547.626 426.011
2997 0 116.247 13.8584 1611 98.702 547.695 424.535
2998 0 122.425 13.7717 1686 101.113 548.034 421.885
2999 0 127.287 13.9056 1770 97.9136 546.995 419.567
3000 0 132.258 13.7081 1813 96.3569 546.676 415.844
3001 1 74.0845 11.9863 888 98.3626 546.321 443.55
3002 0 75.1554 12.8134 963 94.5805 546.509 441.875
3003 0 80.2331 13.1367 1054 90.9099 546.463 442.433
3004 0 82.1617 13.0839 1075 92.2046 546.571 442.111
3005 0 86.1877 12.7744 1101 106.288 546.495 439.562
3006 0 88.1842 13.0522 1151 106.911 546.481 438.599
3007 0 91.133 12.6738 1155 106.65 546.545 435.165
3008 0 95.3016 13.3996 1277 98.7612 547.266 433.754
3009 0 96.3118 12.9787 1250 108.307 548.362 434.142
3010 0 99.3361 12.9258 1284 103.642 548.639 433.164
3011 0 102.432 13.5895 1392 104.621 548.129 431.799
3012 0 105.212 13.1449 1383 99.7093 547.718 429.396
3013 0 108.171 13.0904 1416 100.157 547.941 428.364
3014 0 110.25 13.4966 1488 110.61 547.79 426.648
3015 0 113.217 13.3284 1509 95.8516 547.592 424.305
3016 0 117.231 13.3411 1564 103.499 547.742 423.151
3017 0 123.331 13.3219 1643 103.496 547.782 421.59
3018 0 127.225 13.26 1687 109.518 548.105 417.887
3019 0 132.415 12.914 1710 112.506 548.542 414.505
3020 1 71.2275 11.8213 842 105.115 546.925 442.804
3021 0 72.2341 12.1411 877 101.365 547.136 439.795
3022 0 76.1459 12.2659 934 100.838 546.855 439.028
3023 0 79.1455 12.6855 1004 104.331 549.593 442.537
3024 0 81.2101 12.3507 1003 113.806 549.256 441.798
3025 0 83.1495 12.7842 1063 110.853 549.364 439.154
3026 0 86.1513 12.5709 1083 110.656 549.403 437.852
3027 0 88.1078 12.7458 1123 101.402 549.572 436.199
3028 0 93.04 12.715 1183 103.212 549.069 434.354
3029 0 96.2424 12.853 1237 102.42 548.867 433.532
3030 0 99.1297 12.9325 1282 101.69 548.991 431.657
3031 0 102.128 12.9054 1318 97.1593 549.092 429.744
3032 0 106.248 12.7532 1355 99.9801 550.123 428.645
3033 0 109.238 13.2097 1443 106.044 549.441 426.109
3034 0 112.262 12.8004 1437 102.189 549.141 423.253
3035 0 116.185 13.2548 1540 98.1903 549.237 421.066
3036 0 119.359 12.7515 1522 95.3574 548.782 414.128
3037 0 122.249 13.0553 1596 89.0363 548.942 411.261
3038 0 126.3 12.6841 1602 95.7397 548.641 409.501
3039 0 132.282 12.8211 1696 92.9281 548.807 407.217
3040 0 134.401 13.1993 1774 100.773 548.484 405.176
3041 0 140.269 12.5759 1764 98.5527 549.033 402.399
3042 0 145.279 13.2228 1921 104.217 549.06 401.348
3043 1 78.1802 11.2816 882 103.711 548.554 435.271
3044 0 82.2906 12.0548 992 102.475 548.816 437.2
3045 0 85.123 12.2646 1044 93.4042 548.409 435.646
3046 0 86.2122 12.9216 1114 96.5162 549.391 433.939
3047 0 90.1976 12.4504 1123 98.6046 549.389 432.668
3048 0 92.121 12.8852 1187 90.7911 549.63 431.652
3049 0 96.1423 12.2319 1176 89.3742 550.183 429.564
3050 0 98.1944 12.9539 1272 91.8098 550.127 428.565
3051 0 103.423 12.9081 1335 94.5453 549.924 425.737
3052 0 104.233 13.1148 1367 92.1178 549.76 425.642
3053 0 108.3 13.2686 1437 90.5038 549.827 423.838
3054 0 111.29 13.1368 1462 92.5274 549.839 421.746
3055 0 113.37 12.9047 1463 97.5263 549.563 418.984
3056 0 118.448 12.9424 1533 93.4194 549.567 417.164
3057 0 120.355 12.8619 1548 92.6983 549.624 416.456
3058 0 123.412 13.0458 1610 95.8118 550.425 410.975
3059 0 128.385 13 1669 97.5932 550.533 411.381
3060 0 133.535 13.0827 1747 99.3698 550.531 408.219
3061 0 138.391 12.8837 1783 96.8946 550.2 407.096
3062 0 143.349 13.1009 1878 94.0836 550.266 403.755
3063 1 79.1651 10.8381 858 92.0583 549.858 433.714
3064 0 81.306 11.4629 932 93.0397 550.174 433.732
3065 0 83.1531 11.581 963 87.2336 551.206 436.772
3066 0 87.1523 11.1988 976 98.1014 551.057 436.433
3067 0 88.1929 11.9964 1058 93.2231 550.918 435.491
3068 0 91.238 11.7933 1076 88.8271 550.695 433.875
3069 0 96.1867 11.748 1130 22.8345 550.257 432.027
3070 0 98.2265 11.9316 1172 76.715 549.687 430.837
3071 0 100.211 12.3639 1239 92.9734 549.287 428.902
3072 0 105.206 11.9955 1262 96.4461 548.769 426.122
3073 0 104.175 12.3446 1286 95.8445 548.792 425.672
3074 0 110.21 12.4852 1376 94.0647 548.708 423.557
3075 0 112.364 12.2548 1377 93.5229 548.802 422.335
3076 0 116.341 12.3 1431 95.4179 549.194 420.553
3077 0 121.31 12.4474 1510 92.702 548.346 419.885
3078 0 122.416 12.9313 1583 91.5401 547.991 415.949
3079 0 126.368 12.7168 1607 81.3721 548.173 413.803
3080 0 132.401 12.6132 1670 92.5108 547.598 411.892
3081 0 135.358 12.5223 1695 95.6667 547.465 412.412
3082 0 140.406 12.9838 1823 91.3187 547.617 409.99
3083 0 146.465 12.8563 1883 95.0016 547.69 406.778
3084 1 81.244 11.2131 911 86.4501 546.692 438.793
3085 0 84.0906 11.4757 965 89.8 547.068 438.837
3086 0 85.1977 11.4792 978 92.499 546.08 435.47
3087 0 88.1534 12.3535 1089 87.7484 546.084 433.844
3088 0 92.1289 12.2111 1125 89.3911 545.869 434.144
3089 0 94.2278 12.3849 1167 87.2562 546.129 432.272
3090 0 96.309 12.3145 1186 85.4899 547.684 433.673
3091 0 99.4232 12.6027 1253 81.751 547.933 433.054
3092 0 103.42 12.5411 1297 85.1126 547.315 431.242
3093 0 106.507 12.6377 1346 93.1954 546.784 429.956
3094 0 108.421 12.2394 1327 107.573 546.951 428.671
3095 0 111.262 12.6998 1413 106.785 546.784 426.694
3096 0 113.208 12.6228 1429 104.108 546.915 426.867
3097 0 116.334 12.679 1475 96.9573 546.755 424.523
3098 0 120.308 12.9002 1552 86.3621 546.809 422.785
3099 0 123.254 13.0057 1603 86.8459 547.434 421.396
3100 0 128.319 12.8664 1651 97.8316 547.987 419.237
3101 0 132.596 13.8013 1830 92.6454 547.751 414.488
3102 0 136.355 13.2449 1806 91.1135 547.888 414.609
3103 0 140.57 13.4382 1889 92.9619 547.522 412.812
3104 0 142.466 13.1329 1871 93.6088 547.036 408.187
3105 0 148.249 12.8567 1906 88.7959 547.225 405.911
3106 0 153.183 12.991 1990 88.4422 546.638 402.387
3107 0 153.183 12.991 1990 159.296 546.638 402.387
3108 1 89.6712 12.3563 1108 91.6742 546.941 434.639
3109 0 94.2546 12.3283 1162 90.1093 546.388 432.437
3110 0 97.3889 12.2704 1195 87.4251 546.895 431.049
3111 0 101.422 12.3741 1255 88.2263 546.528 429.513
3112 0 103.367 12.4121 1283 84.8426 546.662 429.232
3113 0 106.299 12.7095 1351 85.7639 546.606 429.573
3114 0 111.223 12.884 1433 91.3266 546.983 426.945
3115 0 113.287 12.6051 1428 90.1863 547.534 426.419
3116 0 117.355 12.9522 1520 124.761 547.275 423.981
3117 0 120.359 13.0775 1574 118.35 546.877 420.107
3118 0 122.497 13.4697 1650 127.227 546.186 420.336
3119 0 125.479 13.2134 1658 120.884 547.578 416.537
3120 0 129.723 13.3746 1735 121.757 546.936 414.606
3121 0 132.582 13.2296 1754 126.952 547.258 413.581
3122 0 139.433 13.5047 1883 120.665 546.719 410.767
3123 0 143.711 13.6732 1965 120.659 547.245 409.069
3124 0 149.6 13.6497 2042 121.777 546.864 406.596
3125 0 154.4 13.7695 2126 118.81 547.218 402.828
3126 0 160.613 13.5294 2173 107.586 546.706 400.815
3127 0 164.462 13.7296 2258 109.923 547.136 398.099
3128 1 89.1755 12.4362 1109 104.743 547.171 436.133
3129 0 90.1185 13.0384 1175 100.616 548.82 434.712
3130 0 94.0728 12.5116 1177 105.518 548.585 433.714
3131 0 97.1383 13.0433 1267 101.163 548.588 432.038
3132 0 99.1888 12.824 1272 102.275 549.187 430.366
3133 0 102.096 12.7331 1300 101.698 549.318 428.493
3134 0 107.104 12.6233 1352 108.69 549.683 427.759
3135 0 109.39 12.9171 1413 110.08 549.166 424.159
3136 0 113.162 12.9903 1470 108.394 549.369 423.263
3137 0 116.078 13.2928 1543 111.469 550.11 421.756
3138 0 117.341 13.661 1603 97.7636 549.941 419.493
3139 0 125.327 15.5354 1947 91.1695 548.795 414.383
3140 0 126.259 13.7733 1739 102.705 550.032 415.143
3141 0 131.371 13.8539 1820 106.495 549.968 413.01
3142 0 137.448 14.842 2040 101.872 549.925 408.67
3143 0 141.38 13.92 1968 110.496 549.358 408.224
3144 0 145.356 13.9657 2030 115.182 549.02 406.756
3145 0 150.379 13.9048 2091 111.819 549.539 403.374
3146 0 155.303 14.1981 2205 109.86 549.61 400.371
3147 0 161.406 14.1506 2284 108.924 549.563 398.565
3148 0 164.483 14.275 2348 99.4962 549.17 394.893
3149 0 171.632 14.5078 2490 102.487 549.744 393.037
3150 1 89.1238 13.2288 1179 98.8804 549.682 434.232
3151 0 93.2752 13.1225 1224 92.5498 549.475 431.251
3152 0 95.1494 13.1372 1250 95.5376 549.226 433.142
3153 0 98.2244 12.9499 1272 94.4104 549.627 431.711
3154 0 100.2 13.0539 1308 88.0887 549.991 429.274
3155 0 104.284 13.0509 1361 92.5959 550.057 429.267
3156 0 107.355 13.2364 1421 92.202 549.184 428.524
3157 0 110.519 13.1199 1450 96.4014 548.944 425.752
3158 0 112.397 13.479 1515 94.3663 549.181 423.514
3159 0 115.612 13.6231 1575 94.8984 549.22 422.884
3160 0 120.308 13.4738 1621 95.9254 548.928 420.254
3161 0 124.287 13.5251 1681 89.793 549.219 418.37
3162 0 127.491 13.8441 1765 90.6714 549.488 412.643
3163 0 133.239 13.412 1787 95.9071 549.215 413.279
3164 1 70.3562 12.5646 884 95.9378 549.621 445.313
3165 0 73.3557 12.8143 940 96.2043 549.248 444.433
3166 0 74.0959 12.9427 959 95.61 549.524 443.582
3167 0 77.2473 12.5441 969 94.5697 548.893 442.08
3168 0 78.4231 13.4527 1055 85.9725 549.101 438.474
3169 0 80.5338 13.7334 1106 97.1492 549.028 436.207
3170 0 83.4158 13.4027 1118 91.4758 548.902 436.202
3171 0 86.6865 13.6584 1184 92.484 548.492 433.948
3172 0 87.6229 13.638 1195 96.0787 548.868 435.389
3173 0 90.4245 13.5251 1223 95.48 548.357 432.418
3174 0 94.3394 13.515 1275 91.7341 548.484 433.254
3175 0 96.5132 13.9256 1344 93.5164 548.738 430.656
3176 0 99.5103 13.476 1341 92.346 548.478 428.311
3177 0 101.441 13.6729 1387 89.858 548.466 425.903
3178 0 105.479 13.7089 1446 87.9585 548.261 426.896
3179 0 108.446 13.509 1465 87.5809 548.098 422.585
3180 1 57.2668 12.9918 744 93.9005 548.198 451.11
3181 0 59.3344 12.7076 754 92.8316 548.2 452.744
3182 0 61.5099 13.38 823 87.9283 547.824 447.185
3183 0 64.2813 13.3943 861 90.1429 547.659 442.958
3184 0 66.282 13.6538 905 98.295 547.438 440.082
3185 0 67.4304 13.6734 922 97.4696 547.355 440.666
3186 0 70.1582 13.6549 958 97.4405 547.329 440.379
3187 0 70.4086 14.3448 1010 95.305 546.983 441.544
3188 0 72.3928 14.2832 1034 95.8259 546.667 442.374
3189 0 75.4909 14.1077 1065 95.6084 546.593 440.878
3190 0 78.2431 14.1738 1109 90.9441 546.286 439.623
3191 0 82.5183 14.1666 1169 94.0496 546.308 435.327
3192 0 84.7231 14.27 1209 94.2076 546.471 435.703
3193 0 87.7397 14.3151 1256 91.5279 545.776 435.6
3194 0 89.7792 14.3797 1291 96.9458 546.049 434.046
3195 0 92.5124 14.1711 1311 98.2029 546.412 432.723
3196 0 95.3332 14.035 1338 107.823 545.966 432.003
3197 0 97.5115 14.1932 1384 110.433 545.995 430.871
3198 0 102.394 14.2 1454 113.889 545.567 429.78
3199 1 55.4875 13.7689 764 111.654 545.271 452.364
3200 0 58.2503 13.648 795 113.472 545.326 450.425
3201 0 59.5494 13.6693 814 105.428 545.505 449.474
3202 0 62.5849 13.7254 859 106.82 545.222 446.622
3203 0 63.4172 13.8764 880 110.092 545.059 445.69
3204 0 66.5791 14.449 962 115.38 545.343 443.473
3205 0 69.55 14.0187 975 119.372 545.479 442.937
3206 0 71.4064 13.9763 998 118.633 545.461 442.512
3207 0 74.5942 14.7062 1097 112.598 545.722 440.418
3208 0 77.766 14.055 1093 115.265 546.009 439.387
3209 0 79.7418 13.9826 1115 116.616 545.952 436.815
3210 0 81.7776 13.8669 1134 113.283 546.029 437.064
3211 0 84.5048 13.9874 1182 118.514 545.985 435.812
3212 0 84.8867 14.4192 1224 113.298 546.054 434.565
3213 0 89.5879 14.2765 1279 114.514 546.147 433.144
3214 0 92.811 14.0285 1302 113.408 545.977 431.348
3215 0 95.5665 14.2728 1364 119.298 546.409 429.279
3216 0 98.659 14.0788 1389 108.135 545.934 428.117
3217 0 102.486 14.0019 1435 103.695 546.123 426.592
3218 1 52.5036 12.5325 658 103.286 546.789 452.805
3219 0 55.5999 13.0576 726 106.912 546.642 451.69
3220 0 58.434 12.8521 751 106.381 546.19 449.907
3221 0 56.5289 13.7275 776 131.896 545.804 448.232
3222 0 59.3148 13.6054 807 126.121 546.019 447.159
3223 0 62.5582 13.6513 854 123.389 546.66 445.598
3224 0 66.3928 13.2695 881 106.337 546.096 444.193
3225 0 69.4396 13.6233 946 103.225 546.398 442.932
3226 0 70.4674 13.5382 954 99.9602 546.596 440.892
3227 0 73.4712 13.2433 973 104.904 546.786 440.738
3228 0 74.3553 13.8524 1030 103.39 546.63 438.048
3229 0 77.4591 13.8137 1070 103.25 546.764 437.633
3230 0 80.6069 13.6092 1097 104.97 546.806 436.092
3231 0 84.7609 13.3198 1129 103.858 546.987 434.114
3232 0 85.5749 13.5671 1161 103.734 546.901 432.285
3233 0 88.6797 13.7799 1222 101.187 547.395 431.263
3234 1 46.5574 11.6201 541 104.734 547.183 452.684
3235 0 48.7638 11.8325 577 109.116 547.471 451.582
3236 0 51.5654 11.9072 614 108.508 548.02 450.55
3237 0 51.3682 12.7511 655 117.608 547.876 448.217
3238 0 53.2988 12.5706 670 111.039 547.43 449.5
3239 0 57.3856 12.3027 706 111.52 547.768 449.34
3240 0 58.3231 13.0823 763 111.942 547.941 448.545
3241 0 60.3355 12.994 784 107.482 548.284 446.783
3242 0 61.3613 12.7931 785 110.115 548.592 445.456
3243 0 64.4093 12.9484 834 107.191 548.858 443.51
3244 0 65.5923 13.4315 881 106.663 548.924 441.89
3245 0 69.6983 13.0563 910 109.886 548.868 440.832
3246 0 69.7356 13.5369 944 108.602 548.754 439.707
3247 0 71.6444 13.6926 981 104.492 548.733 437.907
3248 0 76.8112 13.3965 1029 104.81 549.91 436.769
3249 0 78.4457 13.5508 1063 105.455 549.628 435.933
3250 0 78.4457 13.5508 1063 171.456 549.628 435.933
3251 0 83.516 13.7339 1147 104.135 549.915 433.132
3252 0 84.5874 13.9855 1183 101.559 550.161 431.294
3253 0 87.691 13.73 1204 100.593 550.186 431.175
3254 0 90.4804 13.9036 1258 101.046 549.976 429.649
3255 0 93.4644 13.8448 1294 104.229 549.753 427.523
3256 0 94.5738 13.9468 1319 103.192 549.766 426.202
3257 0 98.6816 13.4676 1329 100.397 549.5 425.506
3258 0 101.644 13.7736 1400 107.289 549.344 423.798
3259 0 105.463 13.4359 1417 104.031 549.566 421.552
3260 0 108.444 13.5922 1474 116.905 549.676 420.253
3261 0 113.424 13.692 1553 122.721 550.273 417.721
3262 0 117.496 13.8643 1629 120.252 549.779 415.261
3263 1 67.2136 11.4858 772 110.773 549.38 441.119
3264 0 68.1171 12.7428 868 106.084 550.391 440.853
3265 0 71.2875 12.9335 922 106.033 550.697 439.198
3266 0 74.1276 13.0181 965 110.551 549.277 438.284
3267 0 75.2149 13.2022 993 108.935 549.165 437.091
3268 0 78.2193 13.0786 1023 115.938 549.094 435.661
3269 0 81.2304 13.2832 1079 107.441 549.351 434.158
3270 0 84.1392 13.2043 1111 108.305 549.568 432.782
3271 0 86.2052 13.3751 1153 108.477 549.606 431.116
3272 0 90.2048 13.4804 1216 105.64 548.96 429.718
3273 0 93.1479 13.3014 1239 105.918 549.081 428.441
3274 0 94.1595 13.7108 1291 104.167 549.177 427.075
3275 0 97.1694 13.6257 1324 103.908 548.778 425.86
3276 0 99.189 13.4995 1339 107.422 548.994 424.671
3277 0 103.27 13.576 1402 100.121 548.981 424.15
3278 0 107.222 13.5979 1458 102.46 548.635 423.774
3279 0 111.184 13.4912 1500 99.3947 548.411 421.735
3280 0 114.261 13.6792 1563 97.977 548.472 419.124
3281 0 115.175 13.8659 1597 111.672 548.286 417.522
3282 0 122.225 13.9006 1699 104.584 548.245 415.483
3283 1 67.0933 11.6703 783 111.955 549.029 443.747
3284 0 67.0697 12.733 854 104.574 549.381 442.316
3285 0 72.1349 12.6984 916 101.464 548.718 442.223
3286 0 74.1914 12.7373 945 113.449 548.152 440.252
3287 0 76.2161 13.278 1012 109.422 548.361 439.241
3288 0 77.0734 13.299 1025 117.277 548.15 438.173
3289 0 81.1064 12.8473 1042 115.628 548.54 436.542
3290 0 84.0639 13.0615 1098 120.211 548.444 436.576
3291 0 86.1069 13.3439 1149 117.372 548.441 435.268
3292 0 89.2476 13.3001 1187 123.281 548.088 433.334
3293 0 91.0739 13.3738 1218 128.613 548.291 433.226
3294 0 95.0649 13.5697 1290 122.216 548.182 431.192
3295 0 98.1661 13.742 1349 128.17 547.795 430.388
3296 0 100.217 13.7202 1375 120.407 547.913 429.148
3297 0 102.154 13.3132 1360 122.985 547.323 427.932
3298 0 104.127 13.6948 1426 114.093 547.135 426.422
3299 0 109.138 13.46 1469 110.81 547.078 425.101
3300 0 112.257 13.3979 1504 109.749 546.89 422.522
3301 1 62.0502 10.6366 660 104.647 547.594 448.603
3302 0 64.0645 11.0514 708 110.148 547.551 447.205
3303 0 65.0639 12.48 812 122.881 547.851 445.043
3304 0 68.0491 12.1677 828 123.38 547.417 444.791
3305 0 70.1356 12.3047 863 124.221 547.473 444.615
3306 0 71.1965 12.7675 909 121.705 547.482 444.148
3307 0 74.2028 12.5737 933 126.2 547.708 443.323
3308 0 75.1619 12.6793 953 123.057 547.503 442.993
3309 0 77.1164 12.9155 996 117.238 547.634 440.424
3310 0 81.131 12.942 1050 112.419 547.738 439.872
3311 0 83.1608 13.059 1086 107.8 547.755 438.254
3312 0 85.2232 13.1185 1118 105.248 547.586 436.538
3313 0 89.1181 13.1399 1171 105.512 547.486 436.019
3314 0 92.2038 13.0363 1202 102.951 547.06 434.715
3315 0 94.0732 12.8623 1210 102.288 547.598 432.867
3316 0 96.0892 12.8839 1238 99.1034 547.167 431.815
3317 0 99.3115 12.8787 1279 92.5504 547.928 430.144
3318 0 102.226 13.0397 1333 103.134 547.284 426.773
3319 0 108.204 12.9847 1405 97.5395 547.209 425.495
3320 1 62.03 10.1725 631 100.702 547.06 449.81
3321 0 65.0996 10.7835 702 96.3291 546.903 449.232
3322 0 65.0709 10.7882 702 101.309 546.65 448.786
3323 0 68.0902 11.8226 805 99.9453 546.378 446.199
3324 0 71.1264 11.585 824 100.275 547.093 445.468
3325 0 73.127 11.6236 850 94.5953 547.296 443.925
3326 0 76.1704 11.9994 914 106.495 547.223 442.667
3327 0 75.1206 11.9541 898 103.077 547.162 442.412
3328 0 80.155 11.9768 960 96.2427 547.173 440.134
3329 0 81.0723 12.347 1001 101.013 547.657 439.842
3330 0 86.1222 11.983 1032 99.4486 547.732 438.804
3331 0 88.1337 12.481 1100 99.7182 547.655 437.985
3332 0 91.1428 12.9248 1178 96.1172 547.651 436.44
3333 0 91.1197 12.7086 1158 94.247 547.651 434.624
3334 0 96.124 12.8792 1238 95.6753 547.434 433.649
3335 0 98.0843 12.8155 1257 94.6237 547.629 432.313
3336 0 100.188 13.0755 1310 99.6763 548.011 430.859
3337 0 103.096 13.7154 1414 98.3593 547.898 427.6
3338 0 108.17 12.9981 1406 97.404 548.32 427.996
3339 0 112.268 13.0045 1460 96.7116 548.621 426.441
3340 0 114.296 13.2376 1513 101.318 548.583 423.551
3341 1 62.1867 11.7549 731 115.436 548.535 449.116
3342 0 64.2251 12.0514 774 112.638 547.363 446.826
3343 0 68.2956 12.4459 850 114.178 546.952 443.828
3344 0 69.1607 12.9264 894 117.305 548.594 444.394
3345 0 73.2333 12.3578 905 119.516 548.365 443.874
3346 0 73.2606 12.6535 927 118.502 548.313 442.35
3347 0 76.2585 12.0773 921 125.911 548.006 441.861
3348 0 77.1216 13.161 1015 115.689 548.102 440.378
3349 0 79.1711 12.7067 1006 113.578 548.059 439.433
3350 0 81.1366 13.2 1071 110.874 547.949 437.444
3351 0 84.1119 12.8638 1082 108.019 548.37 436.371
3352 0 87.0996 13.1574 1146 105.786 548.451 435.469
3353 0 90.2259 13.0783 1180 106.343 548.616 433.763
3354 0 90.2905 13.2794 1199 108.862 548.918 431.974
3355 0 94.1998 13.0149 1226 105.061 548.828 431.077
3356 0 97.2615 13.366 1300 105.385 548.733 429.468
3357 0 99.1461 13.4952 1338 105.53 549.371 428.197
3358 0 104.184 13.3801 1394 102.915 549.003 426.89
3359 0 107.211 13.646 1463 99.3137 548.943 425.104
3360 0 109.221 13.578 1483 116.719 548.896 422.081
3361 0 112.263 13.2012 1482 127.884 548.687 418.109
3362 1 63.3203 11.6076 735 126.325 547.965 442.507
3363 0 65.1757 12.2285 797 121.449 548.136 440.563
3364 0 67.1715 12.3267 828 121.64 548.115 438.911
3365 0 69.1344 12.4685 862 122.592 547.231 438.811
3366 0 72.1687 12.4569 899 123.17 547.489 437.403
3367 0 74.1169 12.6152 935 130.289 547.764 435.754
3368 0 78.2074 12.9783 1015 133.376 547.816 437.831
3369 0 78.3168 13.4199 1051 128.653 547.984 438.515
3370 0 81.246 12.8745 1046 138.947 548.714 437.138
3371 0 81.2243 13.1242 1066 131.094 549.312 435.507
3372 0 85.2791 12.8285 1094 133.534 549.701 434.443
3373 0 88.1241 12.8228 1130 135.857 549.779 431.877
3374 0 91.387 12.8465 1174 132.896 549.477 431.286
3375 0 92.1717 12.9107 1190 138.349 549.188 430.131
3376 0 95.3189 13.565 1293 136.063 548.803 427.496
3377 0 99.29 13.1836 1309 134.177 548.658 426.619
3378 0 101.441 13.042 1323 137.412 548.354 425.629
3379 0 103.366 13.2636 1371 143.579 548.748 423.775
3380 0 108.2 13.1331 1421 133.125 548.779 421.385
3381 0 109.24 13.1362 1435 125.764 548.669 421.53
3382 0 112.267 13.1205 1473 122.825 548.243 419.492
3383 0 113.352 13.4095 1520 128.803 549.081 416.7
3384 0 120.318 13.1652 1584 123.37 549.28 414.033
3385 1 66.1515 10.9446 724 120.186 548.137 442.997
3386 0 68.091 12.0133 818 123.389 548.851 442.592
3387 0 69.2908 12.6712 878 110.138 548.509 441.669
3388 0 71.2276 12.5794 896 116.653 548.276 440.987
3389 0 74.2094 13.0846 971 110.553 548.526 440.11
3390 0 75.3051 12.7747 962 118.693 548.479 439.936
3391 0 75.3786 13.5052 1018 117.84 549.044 439.195
3392 0 80.2947 13.1889 1059 114.217 548.852 437.269
3393 0 81.4743 13.0593 1064 115.639 549.325 436.934
3394 0 84.3215 12.8081 1080 107.73 549.409 433.509
3395 0 86.369 13.0718 1129 119.686 549.126 432.99
3396 0 86.5672 14.07 1218 116.494 549.117 431.505
3397 0 89.5785 13.4184 1202 125.301 548.969 430.811
3398 0 94.5098 13.3849 1265 120.6 549.127 429.451
3399 0 96.5042 13.4087 1294 103.1 548.565 428.1
3400 0 99.3927 13.5422 1346 109.548 548.489 427.858
3401 0 102.458 13.4006 1373 105.472 548.802 425.91
3402 0 104.239 13.7376 1432 110.086 548.68 425.259
3403 0 109.448 13.5864 1487 104.334 548.504 422.147
3404 0 112.534 14.6001 1643 96.3427 548.69 418.676
3405 0 118.429 14.1857 1680 96.6875 548.638 417.643
3406 1 65.3726 11.9163 779 96.3402 548.114 444.877
3407 0 65.2303 12.5862 821 97.6054 547.915 444.452
3408 0 70.1338 12.576 882 93.7528 547.133 444.375
3409 0 72.2738 12.508 904 99.188 547.395 443.362
3410 0 75.3172 13.2108 995 100.014 547.166 442.048
3411 0 75.2574 13.2612 998 95.4118 547.428 442.607
3412 0 79.2478 13.2748 1052 95.4506 547.24 440.143
3413 0 82.3972 12.9495 1067 100.896 547.687 439.361
3414 0 85.4537 13.165 1125 100.002 547.86 437.496
3415 0 87.4088 13.3511 1167 96.7601 547.663 436.039
3416 0 90.4345 13.3909 1211 99.3633 547.352 434.774
3417 0 94.5552 13.3361 1261 99.0087 547.382 433.083
3418 0 96.6209 13.2476 1280 95.7539 547.733 431.598
3419 0 99.4712 13.23 1316 96.8427 547.344 429.859
3420 0 103.364 13.2251 1367 93.2655 547.14 429.017
3421 1 58.2235 11.8337 689 101.424 547.395 453.033
3422 0 57.331 12.7156 729 93.6228 547.55 453.272
3423 0 59.1484 12.5109 740 94.2622 547.246 452.65
3424 0 61.1235 12.4993 764 97.5916 547.271 451.825
3425 0 64.2077 12.335 792 92.5265 547.092 450.933
3426 0 65.1841 12.994 847 92.9197 547.112 449.728
3427 0 67.1389 12.7497 856 89.3481 547.509 449.356
3428 0 69.1332 12.8882 891 90.1728 547.718 448.609
3429 0 70.1308 13.1183 920 92.0587 547.84 447.584
3430 0 72.083 13.2486 955 102.132 547.837 446.301
3431 0 75.0405 13.0463 979 104.399 547.778 444.918
3432 0 78.0582 13.0544 1019 102.084 547.805 443.851
3433 0 80.1095 12.9697 1039 114.969 546.429 442.724
3434 0 84.0713 13.2625 1115 109.644 546.313 440.934
3435 0 86.052 13.1432 1131 105.291 546.259 439.508
3436 0 88.1892 13.1989 1164 107.1 546.261 437.349
3437 0 92.1321 13.3938 1234 106.287 545.768 436.989
3438 1 52.0265 11.1674 581 103.678 544.632 456.496
3439 0 52.075 12.5972 656 96.4497 546.553 456.338
3440 0 56.1009 12.3706 694 99.4107 547.226 455.715
3441 0 56.1195 12.5803 706 116.436 546.724 455.079
3442 0 60.0998 12.2962 739 106.708 546.664 453.604
3443 0 61.1187 12.5657 768 101.749 546.161 452.103
3444 0 63.1052 12.5029 789 98.2991 546.025 451.92
3445 0 65.1173 13.0534 850 92.4035 545.774 450.889
3446 0 66.2035 12.9298 856 116.062 546.194 450.24
3447 0 67.2504 12.7137 855 112.933 546.015 449.536
3448 0 69.1802 13.5588 938 102.068 546.003 448.231
3449 0 73.1502 12.987 950 102.155 545.756 446.721
3450 0 74.2043 13.1933 979 97.2104 545.556 445.732
3451 0 78.071 12.9498 1011 95.0554 545.496 444.389
3452 0 79.2376 13.1756 1044 97.0776 545.45 442.718
3453 0 82.2295 13.061 1074 103.762 545.602 442.546
3454 0 84.2989 13.3454 1125 105.458 545.886 440.381
3455 0 88.1897 12.9947 1146 95.5698 545.688 438.657
3456 0 91.1618 13.1524 1199 86.0525 545.562 437.569
3457 0 92.1569 12.8585 1185 88.5106 545.82 435.932
3458 0 96.2089 12.8263 1234 105.586 546.015 435.076
3459 0 98.2212 12.8893 1266 101.856 545.71 433.579
3460 0 102.145 12.8738 1315 103.635 545.872 432.364
3461 0 105.228 13.1049 1379 103.408 545.811 432.343
3462 0 107.235 13.4285 1440 97.8444 545.617 429.96
3463 1 60.3187 10.975 662 90.9079 544.412 452.323
3464 0 62.226 10.8315 674 90.684 544.464 450.07
3465 0 64.4297 11.8113 761 83.9382 544.791 448.69
3466 0 64.4297 11.8113 761 153.531 544.791 448.69
3467 0 68.3154 12.5155 855 85.7251 545.35 445.732
3468 0 71.2379 12.1564 866 86.2252 545.657 444.259
3469 0 73.3114 12.6447 927 87.6332 545.44 443.246
3470 0 76.2846 12.6369 964 87.3392 544.929 443.921
3471 0 79.1658 12.5686 995 88.999 545.221 441.803
3472 0 80.2038 13.0543 1047 86.9074 544.427 433.976
3473 0 83.2296 12.9762 1080 93.3907 544.57 433.612
3474 0 88.1666 12.3856 1092 87.9606 544.63 431.099
3475 0 90.1231 13.2042 1190 85.4151 544.844 430.003
3476 0 92.1242 13.2973 1225 87.0612 544.977 432.86
3477 0 95.1427 13.2538 1261 91.1824 545.355 431.58
3478 0 98.2693 13.3714 1314 94.296 545.462 429.117
3479 0 100.351 13.1937 1324 89.2009 546.619 428.803
3480 0 105.318 13.1506 1385 89.6852 546.565 427.147
3481 0 106.203 13.3518 1418 91.3138 546.674 425.215
3482 0 109.271 13.4895 1474 93.3894 546.828 423.794
3483 1 61.0871 11.3281 692 87.2789 547.486 448.074
3484 0 63.1307 11.8326 747 93.0669 547.523 448.548
3485 0 65.0363 12.8544 836 85.6208 547.987 442.712
3486 0 67.0753 12.553 842 84.7898 548.315 443.65
3487 0 71.0929 12.5892 895 83.8425 548.373 442.307
3488 0 72.0878 12.8593 927 90.8155 548.426 441.257
3489 0 75.1033 13.1286 986 85.7069 548.084 439.476
3490 0 77.1402 13.0282 1005 87.7702 548.225 438.818
3491 0 80.1335 12.5166 1003 90.2333 548.382 437.494
3492 0 83.0875 13.0946 1088 86.3272 548.191 435.154
3493 0 86.0956 12.9856 1118 89.6029 548.648 433.075
3494 0 88.0861 12.9532 1141 84.1569 548.527 431.748
3495 0 91.1051 13.2923 1211 84.8431 548.804 430.558
3496 0 95.1032 13.0595 1242 83.8631 548.603 428.392
3497 0 97.1417 12.9502 1258 84.3164 548.563 427.114
3498 0 99.1771 12.9768 1287 82.3341 548.516 424.947
3499 0 102.289 13.1294 1343 83.4207 549.123 424.738
3500 0 106.268 12.9108 1372 84.4417 548.786 420.981
3501 0 108.204 13.4468 1455 83.3725 548.99 420.177
3502 0 111.201 13.2103 1469 81.2784 549.299 419.232
3503 0 113.176 13.2626 1501 82.8941 549.375 416.915
3504 0 118.25 13.5476 1602 81.3914 549.119 414.277
3505 0 120.342 13.5613 1632 90.1826 549.244 413.246
3506 0 125.534 13.1837 1655 91.2296 548.407 411.487
3507 0 130.414 13.5185 1763 93.4192 548.593 407.982
3508 0 135.511 13.5414 1835 91.4093 548.492 405.58
3509 0 139.492 13.5205 1886 89.8383 548.556 403.703
3510 1 73.1716 11.8352 866 90.9688 548.41 436.423
3511 0 75.2661 12.2897 925 85.0378 547.987 434.591
3512 0 79.2557 11.9739 949 84.6754 548.725 435.695
3513 0 80.1617 12.4249 996 85.1185 548.832 434.535
3514 0 83.1944 12.2725 1021 83.4055 548.671 433.761
3515 0 86.1799 12.4159 1070 87.1636 548.96 431.742
3516 0 87.1896 12.5932 1098 89.01 548.726 430.699
3517 0 91.2476 12.4825 1139 87.9491 548.871 429.676
3518 0 94.2486 12.3609 1165 85.7305 549.072 427.294
3519 0 96.2008 12.9001 1241 87.9259 548.83 426.189
3520 0 99.1979 12.8632 1276 86.7649 548.812 424.306
3521 0 102.256 12.586 1287 88.5928 548.174 422.688
3522 0 106.259 12.6295 1342 85.4396 547.353 420.924
3523 0 108.218 12.6226 1366 81.582 547.179 419.627
3524 0 112.293 12.4585 1399 77.7012 547.102 418.162
3525 0 115.208 12.395 1428 87.521 547.263 416.179
3526 0 120.243 12.4914 1502 85.3822 546.776 413.507
3527 0 124.11 12.4164 1541 88.0065 546.927 411.372
3528 0 129.24 12.9062 1668 83.4053 547.411 406.673
3529 1 72.2107 11.3972 823 93.8007 548.104 440.216
3530 0 74.4106 12.2563 912 106.037 547.823 438.728
3531 0 77.0849 12.4538 960 97.1167 546.11 439.683
3532 0 79.0842 12.3539 977 108.162 546.546 438.968
3533 0 82.1203 11.885 976 103.037 546.574 437.658
3534 0 84.228 12.2881 1035 104.599 546.684 436.669
3535 0 87.1849 12.5595 1095 105.831 546.814 435.539
3536 0 88.2513 12.8157 1131 106.414 546.883 434.182
3537 0 91.2238 12.8475 1172 87.9352 546.808 432.905
3538 0 94.1656 12.6479 1191 89.6692 546.495 431.238
3539 0 96.2222 13.1051 1261 91.9508 546.604 430.799
3540 0 100.198 12.9144 1294 88.4281 546.567 428.876
3541 0 104.276 13.8382 1443 88.7443 546.335 426.418
3542 0 104.304 13.2689 1384 102.954 546.56 427.009
3543 0 109.233 13.8328 1511 91.0278 547.02 424.674
3544 0 110.431 13.058 1442 103.66 546.843 424.981
3545 0 114.458 13.0877 1498 98.02 546.44 420.065
3546 1 65.1724 10.3571 675 91.5037 544.924 443.379
3547 0 66.1182 11.1164 735 89.981 545.335 443.25
3548 0 67.2158 11.7978 793 82.9571 547.462 441.015
3549 0 70.0918 12.1412 851 85.718 548.163 440.988
3550 0 72.0871 12.0271 867 82.0392 547.86 440.01
3551 0 74.1252 12.1956 904 85.6825 547.431 438.935
3552 0 75.1691 12.3987 932 86.7135 547.14 438.032
3553 0 79.2701 12.0979 959 84.4098 547.389 437.485
3554 0 80.1754 12.2856 985 84.6518 547.544 436.667
3555 0 81.188 12.5881 1022 85.0832 547.727 435.264
3556 0 85.2018 12.9927 1107 82.8735 547.301 434.48
3557 0 86.1405 12.4216 1070 85.8 547.177 434.005
3558 0 89.2246 12.9561 1156 84.3927 547.098 432.995
3559 0 91.422 12.6994 1161 90.4307 546.982 431.83
3560 0 93.5934 13.1099 1227 83.7221 546.293 429.419
3561 0 95.493 12.8282 1225 88.8008 546.66 428.777
3562 0 98.3955 13.0697 1286 79.4969 546.556 427.194
3563 0 102.398 13.3987 1372 81.5816 546.621 425.641
3564 0 103.318 13.4827 1393 81.9045 546.811 425.046
3565 0 105.284 13.3258 1403 80.1276 546.556 423.912
3566 0 111.416 13.0951 1459 77.8848 546.866 421.562
3567 0 112.373 13.5798 1526 78.5544 546.776 419.223
3568 0 117.414 13.0904 1537 77.7515 546.861 417.113
3569 1 63.3238 10.7069 678 79.7847 546.65 446.469
3570 0 67.2073 10.9214 734 81.6785 546.579 445.298
3571 0 69.3918 11.4135 792 80.9811 546.936 443.8
3572 0 71.4448 12.1352 867 83.2941 547.315 441.932
3573 0 74.3613 12.5065 930 81.9613 546.815 440.257
3574 0 76.158 12.2377 932 80.6953 546.267 439.293
3575 0 77.3326 12.1294 938 86.9734 546.323 437.848
3576 0 80.2738 11.9217 957 86.1285 546.174 437.415
3577 0 84.1594 12.4882 1051 89.4234 546.958 439.132
3578 0 86.3639 12.5284 1082 88.6941 546.709 436.883
3579 0 88.2639 12.5873 1111 85.0261 546.914 435.516
3580 0 91.4501 12.4549 1139 90.0448 546.657 433.849
3581 0 93.4786 12.8479 1201 88.6386 546.528 431.514
3582 0 93.4786 12.8479 1201 160.741 547.528 431.514
3583 0 99.4359 12.5609 1249 92.2074 546.309 428.804
3584 0 102.567 13.4059 1375 87.2422 546.266 426.129
3585 0 104.445 12.6957 1326 85.5588 546.456 425.246
3586 0 105.165 13.4646 1416 94.4746 546.278 423.888
3587 0 109.127 12.9849 1417 94.6006 547.085 423.025
3588 0 112.177 12.8547 1442 90.1033 547.424 420.933
3589 0 115.12 12.8475 1479 95.1663 546.048 419.536
3590 0 119.152 13.4702 1605 85.9358 546.633 417.436
3591 0 123.319 12.8447 1584 88.017 546.705 417.589
3592 1 66.1562 11.0647 732 96.4344 546.284 445.504
3593 0 68.0994 12.702 865 99.7676 546.777 445.028
3594 0 70.267 12.6091 886 107.826 547.104 444.392
3595 0 73.1485 12.6455 925 109.001 546.856 443.013
3596 0 76.1183 12.3098 937 105.511 547.126 441.763
3597 0 78.1197 12.5321 979 106.536 547 441.544
3598 0 78.0928 12.7284 994 108.081 547.211 441.174
3599 0 81.0895 12.7513 1034 110.286 547.456 439.4
3600 0 84.232 12.5131 1054 107.639 548.177 436.808
3601 0 87.1584 12.6781 1105 106.728 547.619 434.649
3602 0 87.2409 13.2163 1153 105.066 548.232 433.851
3603 0 92.1994 12.6465 1166 102.295 548.381 433.413
3604 0 96.3122 12.8125 1234 96.812 548.532 431.286
3605 0 97.2498 12.9666 1261 99.6249 548.667 429.494
3606 0 99.4419 13.3948 1332 93.3881 548.916 427.454
3607 0 103.284 13.0223 1345 91.8245 548.993 426.836
3608 0 107.305 13.3358 1431 101.34 549.552 424.824
3609 0 110.521 13.3821 1479 100.526 549.85 423.103
3610 0 112.436 13.3853 1505 100.186 550.65 421.413
3611 0 116.438 13.432 1564 98.0831 550.226 420.502
3612 0 119.457 13.4943 1612 100.463 550.618 418.406
3613 1 67.2874 11.28 759 92.1357 550.543 445.895
3614 0 67.2056 12.4097 834 98.47 549.584 444.893
3615 0 71.2732 12.2206 871 96.961 549.863 442.947
3616 0 72.1017 12.4962 901 97.909 550.406 443.063
3617 0 75.2819 12.327 928 96.4235 550.101 440.598
3618 0 77.2027 13.0824 1010 103.805 549.995 439.085
3619 0 81.2531 12.6272 1026 102.127 549.636 438.598
3620 0 82.2303 12.5015 1028 102.386 549.681 437.106
3621 0 85.3844 12.4144 1060 100.79 549.624 436.352
3622 0 86.3424 12.9832 1121 90.0348 549.507 434.784
3623 0 89.4963 13.0955 1172 90.215 549.193 432.551
3624 0 92.3607 13.0792 1208 93.452 549.131 430.979
3625 0 94.4889 12.8269 1212 97.9084 549.304 428.664
3626 0 97.4021 12.9155 1258 91.6463 549.488 428.745
3627 0 100.244 13.0781 1311 84.7269 549.786 427.194
3628 0 103.325 12.9785 1341 91.7323 549.366 426.464
3629 0 105.341 13.2143 1392 94.4978 549.318 427.091
3630 0 108.452 13.1948 1431 92.7708 548.549 424.368
3631 0 111.468 13.1697 1468 100.233 548.683 422.001
3632 0 118.437 13.0955 1551 84.6518 548.19 419.85
3633 0 121.453 13.1902 1602 80.1192 548.26 417.611
3634 1 69.3144 11.1232 771 88.2192 548.143 445.209
3635 0 72.1741 11.5 830 87.7241 548.072 443.476
3636 0 74.2017 11.6844 867 86.5317 548.077 443.271
3637 0 76.2554 12.1827 929 83.5684 548.161 441.149
3638 0 78.2422 11.7456 919 88.3656 547.634 441.299
3639 0 79.2449 11.7736 933 86.3741 547.272 439.484
3640 0 85.2917 12.0645 1029 87.9699 547.487 437.915
3641 0 86.2329 11.7009 1009 95.9128 547.136 437.808
3642 0 87.3081 11.8889 1038 97.4875 547.291 436.398
3643 0 90.449 12.0289 1088 90.909 547.518 436.378
3644 0 91.354 12.5993 1151 90.748 547.377 434.926
3645 0 94.4081 12.2129 1153 84.1422 547.485 434.014
3646 0 96.3411 12.0821 1164 100.997 547.557 433.336
3647 0 99.4424 12.0773 1201 94.2648 547.884 432.037
3648 0 101.356 12.1946 1236 88.8099 547.877 430.823
3649 0 103.401 12.0211 1243 96.7651 547.814 429.236
3650 0 107.317 12.2161 1311 104.111 547.881 427.795
3651 0 109.33 12.101 1323 99.1413 548.152 427.103
3652 0 114.34 12.3229 1409 93.8119 548.012 424.228
3653 0 116.291 12.2537 1425 102.925 547.864 423.874
3654 0 120.324 12.4082 1493 93.2606 547.638 421.846
3655 0 123.387 12.3838 1528 91.1106 547.696 419.586
3656 0 128.367 12.3396 1584 96.9981 547.104 417.535
3657 0 130.376 12.2185 1593 96.5581 547.432 416.747
3658 1 74.1377 9.94096 737 97.365 548.422 444.573
3659 0 76.2418 10.5323 803 97.472 548.514 443.978
3660 0 79.2394 11.1939 887 94.5648 548.334 442.957
3661 0 80.2695 11.7978 947 90.906 548.299 441.84
3662 0 83.4248 11.0039 918 85.2963 547.961 440.589
3663 0 86.2665 11.5108 993 84.4199 547.788 438.847
3664 0 86.335 11.6523 1006 80.3767 547.582 436.873
3665 0 90.3521 11.7208 1059 79.3428 547.632 436.097
3666 0 93.2561 11.3666 1060 83.7 547.321 433.892
3667 0 97.3133 11.3962 1109 88.7448 547.167 433.561
3668 0 99.3479 11.4849 1141 95.1762 546.954 430.238
3669 0 103.272 12.0458 1244 88.6809 547.164 428.757
3670 0 104.334 12.2108 1274 84.3469 546.981 427.326
3671 0 109.402 11.828 1294 91.4459 546.503 425.765
3672 0 111.378 11.9862 1335 98.1408 546.397 424.954
3673 0 121.452 11.0496 1342 96.2101 546.227 423.933
3674 0 119.314 12.5886 1502 85.8209 545.624 421.433
3675 0 121.583 12.51 1521 87.9934 545.548 415.732
3676 0 125.63 12.6085 1584 86.3087 545.536 416.207
3677 0 128.611 12.5417 1613 85.6665 545.974 415.666
3678 0 134.513 12.9281 1739 85.368 545.811 413.224
3679 0 137.673 12.9583 1784 83.6256 545.463 410.197
3680 0 142.825 12.7989 1828 87.4902 545.47 406.095
3681 0 146.688 13.1776 1933 90.9488 545.277 403.224
3682 0 150.713 12.8058 1930 98.1881 545.176 402.883
3683 0 153.477 13.2072 2027 95.3606 545.251 400.643
3684 0 158.955 13.0225 2070 88.6449 545.631 397.112
3685 0 163.825 13.0383 2136 87.1779 545.857 394.3
3686 0 168.633 13.4256 2264 81.7191 545.791 393.025
3687 0 174.625 13.612 2377 87.9222 546.09 391.271
3688 0 180.979 13.4711 2438 89.1194 546.169 389.004
3689 0 187.793 13.9089 2612 87.6229 546.414 385.664
3690 0 191.633 13.8859 2661 92.0812 546.561 381.331
3691 0 197.716 13.7166 2712 90.8949 546.755 377.632
3692 0 202.903 13.499 2739 84.8204 547.003 375.009
3693 0 209.735 13.3835 2807 81.0559 546.909 371.763
3694 0 215.84 13.9733 3016 82.0962 547.088 369.141
3695 0 222.772 14.0951 3140 83.5404 547.165 365.059
3696 0 229.102 13.7974 3161 89.2316 547.44 364.187
3697 1 177.851 12.9715 2307 94.1799 547.056 387.582
3698 0 184.753 12.9362 2390 81.9364 547.227 385.256
3699 0 190.581 13.1388 2504 82.9908 547.615 380.194
3700 0 196.7 13.3655 2629 84.9342 547.823 375.635
3701 0 201.744 13.2891 2681 86.8448 547.364 373.828
3702 0 208.574 12.7149 2652 102.742 547.451 371.871
3703 0 215.667 13.1174 2829 104.694 547.825 366.75
3704 0 222.58 13.1458 2926 101.821 548.023 364.016
3705 0 227.649 13.1474 2993 99.4754 547.688 359.722
3706 0 237.781 13.0541 3104 97.3518 548.115 356.889
3707 0 244.661 13.0997 3205 104.842 548.163 350.633
3708 0 252.76 13.4594 3402 109.966 548.052 347.526
3709 0 260.669 13.2505 3454 103.508 548.462 343.037
3710 0 269.63 13.615 3671 110.506 548.704 337.73
3711 1 74.2181 9.47208 703 89.8165 547.391 441.617
3712 0 73.2045 10.0267 734 98.5382 547.67 441.951
3713 0 77.2604 10.5487 815 94.919 547.122 438.807
3714 0 77.0875 11.2988 871 93.0459 549.642 438.812
3715 0 82.0948 11.0848 910 94.8462 550.687 438.447
3716 0 83.1508 11.3288 942 93.2293 551.017 437.994
3717 0 84.1207 11.222 944 92.5699 550.507 437.113
3718 0 89.2245 12.1715 1086 88.5838 550.272 432.621
3719 0 90.1467 11.5035 1037 89.9884 550.654 434.116
3720 0 90.1972 11.5303 1040 91.8298 550.324 432.462
3721 0 94.1015 12.0083 1130 94.1389 549.877 431.667
3722 0 96.25 12.3117 1185 115.325 550.677 430.24
3723 0 99.3596 12.1176 1204 93.191 550.4 429.906
3724 0 102.104 12.1641 1242 97.8358 550.657 428.327
3725 0 103.12 12.597 1299 97.7975 550.546 426.767
3726 0 108.173 11.9531 1293 96.9613 550.503 426.53
3727 0 110.188 12.152 1339 101.662 551.487 418.872
3728 0 113.254 12.2733 1390 122.63 551.076 423.539
3729 1 128.17 15.0737 1932 111.932 551.383 414.705
3730 0 129.221 15.8101 2043 114.512 551.102 413.488
3731 0 129.234 16.1258 2084 116.245 550.547 413.166
3732 0 131.098 15.4541 2026 116.442 550.728 412.177
3733 0 132.168 16.0704 2124 115.959 550.895 410.569
3734 0 135.205 15.3397 2074 112.841 550.782 409.034
3735 0 137.253 14.9942 2058 116.28 550.395 407.899
3736 0 138.189 14.2269 1966 130.085 550.057 409.004
3737 0 142.245 13.4416 1912 116.831 550.594 408.269
3738 0 145.527 13.5989 1979 122.118 549.994 407.886
3739 0 147.299 13.7611 2027 124.881 549.873 406.586
3740 0 150.358 13.8536 2083 116.451 549.392 403.249
3741 0 155.311 14.1136 2192 107.209 549.39 401.488
3742 0 158.405 14.1852 2247 110.162 548.983 399.227
3743 0 165.433 14.0903 2331 111.145 548.937 396.043
3744 0 167.449 14.279 2391 104.381 548.89 394.451
3745 0 171.454 14.4121 2471 104.929 548.616 390.862
3746 0 176.425 14.1136 2490 101.537 548.331 389.029
3747 0 180.455 14.3914 2597 103.934 548.132 385.882
3748 0 186.518 14.2345 2655 103.069 548.286 382.404
3749 0 192.434 14.3062 2753 100.296 547.897 379.579
3750 0 195.372 14.521 2837 101.874 547.795 377.346
3751 0 202.386 14.4971 2934 116.553 547.768 375.809
3752 0 206.573 14.1548 2924 134.116 547.934 374.204
3753 0 212.422 14.4853 3077 123.394 547.604 370.075
3754 0 218.438 14.7959 3232 129.397 547.756 365.95
3755 0 222.395 14.4697 3218 128.097 547.414 364.587
3756 0 227.489 14.5765 3316 135.595 547.343 361.826
3757 0 233.446 15.117 3529 139.635 547.291 357.647
3758 0 239.468 15.0959 3615 122.116 546.833 354.957
3759 0 244.396 15.037 3675 127.434 546.803 351.937
3760 0 252.64 14.9778 3784 123.562 546.389 346.824
3761 0 263.54 14.901 3927 115.557 546.831 342.553
3762 0 270.764 15.2236 4122 118.171 546.921 340.178
3763 0 280.755 14.867 4174 119.012 547.109 334.593
3764 0 289.579 14.97 4335 129.113 546.682 330.036
3765 1 71.3122 9.67577 690 111.114 545.936 443.574
3766 0 72.3194 10.9514 792 113.891 546.158 441.177
3767 0 75.2005 11.0106 828 111.626 545.906 440.806
3768 0 76.2643 11.2372 857 117.688 545.897 439.767
3769 0 79.1634 11.5078 911 117.96 547.18 438.661
3770 0 81.1432 11.5352 936 108.595 547.34 437.769
3771 0 84.1533 11.5028 968 113.763 547.37 436.554
3772 0 87.1554 11.5082 1003 127.452 547.069 434.7
3773 0 89.1825 11.8969 1061 124.352 546.906 433.952
3774 0 91.137 11.9161 1086 123.336 546.926 432.47
3775 0 94.235 12.0868 1139 117.611 546.828 431.13
3776 0 97.2275 13.4324 1306 115.731 546.844 428.975
3777 0 100.114 12.0962 1211 122.211 546.341 428.429
3778 0 102.244 11.7073 1197 105.942 545.035 426.877
3779 0 104.285 12.5714 1311 110.857 545.619 429.577
3780 0 107.381 12.3951 1331 116.38 545.315 430.428
3781 0 111.193 14.4703 1609 119.002 544.492 425.055
3782 0 107.289 13.3378 1431 123.549 544.993 427.951
3783 0 108.35 14.7854 1602 115.66 545.015 397.003
3784 0 110.213 14.354 1582 108.104 544.9 397.802
3785 0 111.401 14.5242 1618 97.644 545.138 396.923
3786 0 111.328 15.0726 1678 114.576 544.764 396.604
3787 0 111.248 15.1104 1681 120.601 544.777 395.307
3788 0 113.388 14.8958 1689 132.255 544.731 397.78
3789 0 113.288 15.156 1717 128.782 545.051 396.75
3790 0 113.202 15.1587 1716 115.733 544.847 397.166
3791 0 114.334 15.2885 1748 116.977 544.985 397.901
3792 0 114.206 15.402 1759 119.14 545.011 397.984
3793 0 115.322 15.6432 1804 106.815 544.705 398.093
3794 0 115.32 15.3573 1771 101.92 544.66 398.568
3795 0 116.605 15.2824 1782 111.241 544.676 397.845
3796 0 116.376 15.4242 1795 117.065 544.557 397.22
3797 0 116.2 15.3184 1780 116.925 544.298 397.645
3798 0 117.298 15.4819 1816 118.027 544.554 397.954
3799 0 117.275 15.4338 1810 121.618 544.688 398.068
3800 0 117.351 15.5004 1819 130.599 544.587 397.546
3801 0 117.322 15.7175 1844 120.99 544.719 398.527
3802 0 119.477 15.6683 1872 112.558 544.793 398.811
3803 0 119.412 15.5177 1853 119.323 544.719 398.391
