index division length width area intensity CMx CMy
0 0 97.1958 14.2496 1385 177.965 118.557 417.142
1 0 100.148 14.1791 1420 83.3563 119.917 419.535
2 1 51.0517 12.3013 628 155.334 120.016 446.882
3 0 53.0667 12.6256 670 155.439 118.793 450.215
4 0 52.1325 13.7151 715 156.448 118.716 453.923
5 0 56.1831 13.6162 765 156.975 118.259 457.966
6 0 58.0951 13.5295 786 153.398 117.275 462.142
7 0 61.1072 13.5827 830 155.292 117.725 466.577
8 0 63.0306 13.2158 833 150.922 117.193 471.75
9 0 63.2151 13.6044 860 158.536 117.59 474.666
10 0 66.0451 13.5362 894 156.518 117.913 474.88
11 0 69.0553 13.7716 951 154.46 118.125 473.756
12 0 70.0382 13.5355 948 150.267 119.011 472.453
13 0 74.11 13.6284 1010 161.196 119.888 470.027
14 0 75.0734 13.973 1049 153.959 120.122 468.457
15 0 77.0765 13.7266 1058 156.04 121.349 467.052
16 0 80.1268 13.9529 1118 153.654 122.695 465.272
17 0 86.1578 13.3128 1147 144.979 122.723 463.352
18 0 87.0871 13.676 1191 156.649 123.395 461.955
19 0 90.2165 13.8223 1247 152.083 124.129 459.11
20 0 94.11 13.2929 1251 153.816 124.69 458.121
21 1 48.0904 12.1022 582 151.701 125.089 480.536
22 0 50.0945 11.6779 585 154.622 125.92 480.326
23 0 51.0689 12.5321 640 150.109 126.531 478.797
24 0 54.1398 12.6524 685 149.343 126.904 477.507
25 0 54.049 12.8587 695 149.201 127.643 476.472
26 0 56.1819 13.0825 735 137.958 126.88 476.287
27 0 60.0916 12.2646 737 147.465 127.277 473.855
28 0 61.2023 12.8917 789 147.39 127.588 472.475
29 0 64.1655 12.5613 806 149.213 127.494 472.654
30 0 66.1817 13.0852 866 144.449 127.144 470.528
31 0 67.148 12.9714 871 146.429 126.444 470.459
32 0 72.0831 12.5827 907 146.075 126.529 468.345
33 0 74.1242 12.8838 955 154.73 125.563 468.052
34 0 75.1735 13.0631 982 154.825 125.554 466.84
35 0 80.1195 12.8308 1028 148.842 124.687 464.53
36 1 40.069 11.1807 448 159.033 125.317 482.096
37 0 42.0643 11.2447 473 150.524 124.998 482.089
38 0 45.0778 11.8906 536 148.174 124.892 480.922
39 0 46.0314 12.3394 568 155.246 124.843 480.408
40 0 47.2067 12.6889 599 149.339 122.957 478.706
41 0 49.2135 12.5372 617 152.339 122.305 477.682
42 0 50.2071 12.6476 635 154.984 121.706 476.606
43 0 52.2024 12.4132 648 148.02 121.694 475.704
44 0 55.1184 12.8269 707 154.124 121.793 474.212
45 0 56.2686 12.6358 711 154.084 121.215 474.374
46 0 57.1184 12.868 735 150.891 122.127 473.463
47 0 58.1025 13.1664 765 152.319 121.697 472.718
48 0 60.1246 12.84 772 155.653 121.356 471.313
49 0 62.2258 12.9368 805 152.448 121.452 471.612
50 0 64.2089 12.6462 812 148.872 122.033 470.409
51 0 67.1304 13.3174 894 151.39 121.881 468.983
52 0 70.2134 13.2453 930 151.723 121.691 468.5
53 0 72.1393 13.1828 951 157.892 121.641 467.067
54 0 73.1534 13.916 1018 155.333 121.916 466.11
55 0 77.2024 13.0695 1009 156.92 122.151 464.761
56 0 79.2008 13.5478 1073 158.143 122.116 463.445
57 0 82.1195 13.3951 1100 157.656 122.757 462.51
58 0 83.2028 13.3529 1111 154.413 122.904 461.069
59 0 87.1575 13.0912 1141 159.452 122.876 459.605
60 1 46.1216 11.925 550 161.431 122.804 479.798
61 0 47.1854 12.7582 602 152.176 123.696 477.935
62 0 50.2173 12.4857 627 156.632 123.887 477.089
63 0 51.156 12.6085 645 161.657 123.746 475.654
64 0 53.2448 12.621 672 155.183 123.67 476.299
65 0 53.2047 13.1003 697 146.511 123.915 474.951
66 0 54.249 12.8297 696 155.532 124.154 474.458
67 0 56.2315 13.1777 741 153.128 124.498 473.65
68 0 59.1965 12.9568 767 149.602 125.595 473.136
69 0 62.1269 12.732 791 152.755 124.617 470.975
70 0 63.1595 12.8088 809 153.719 123.66 470.687
71 0 65.2149 12.6812 827 148.746 123.406 470.339
72 0 67.1699 12.4312 835 150.902 123.259 469.228
73 0 68.3272 13.0987 895 151.341 122.982 467.555
74 0 72.1588 13.207 953 144.611 122.836 465.483
75 0 73.2018 13.1418 962 141.337 123.139 465.299
76 0 73.2018 13.1418 962 168.248 123.139 465.299
77 0 78.2261 13.1414 1028 142.758 123.699 462.187
78 0 80.2713 13.417 1077 143.549 123.796 461.177
79 1 43.2786 11.2989 489 92.9693 123.857 480.272
80 0 45.2264 12.0726 546 148.293 123.306 479.623
81 0 47.1989 12.2249 577 145.329 123.092 478.314
82 0 49.1463 12.127 596 147.399 122.965 477.57
83 0 48.1085 13.2617 638 146.582 123.782 475.422
84 0 52.1241 12.4702 650 153.108 122.725 475.854
85 0 53.2001 13.0075 692 149.04 122.578 474.435
86 0 54.1086 13.1033 709 143.434 122.264 473.482
87 0 57.1602 12.6312 722 151.021 122.888 473.778
88 0 56.0862 13.711 769 142.22 122.609 472.749
89 0 59.1226 13.2437 783 143.321 121.925 472.22
90 0 60.081 13.2155 794 143.742 121.827 470.616
91 0 63.075 13.3492 842 138.932 121.833 469.346
92 0 65.0909 13.4581 876 139.12 121.886 468.624
93 0 66.1334 13.3367 882 144.884 122.096 468.185
94 0 68.1316 13.9876 953 139.875 122.169 466.621
95 0 71.1005 13.4317 955 145.354 122.971 466.514
96 0 72.1522 13.7071 989 134.659 122.195 464.555
97 0 74.1416 14.0002 1038 138.869 122.478 464.142
98 0 78.1686 14.0082 1095 136.718 122.067 462.823
99 0 80.1026 14.0195 1123 139.76 122.053 461.594
100 0 81.2244 13.9121 1130 135.241 122.341 460.555
101 0 85.1317 13.6729 1164 135.476 122.122 459.309
102 0 89.3228 13.5576 1211 136.391 122.549 458.407
103 0 90.1369 13.7458 1239 137.836 122.366 456.797
104 1 45.0354 11.3022 509 132.187 123.065 478.91
105 0 46.0584 11.7894 543 141.494 123.873 478.4
106 0 51.02 12.0345 614 137.137 124.026 477.529
107 0 51.0147 12.9766 662 132.332 124.251 477.136
108 0 51.1103 12.6198 645 129.564 123.378 477.172
109 0 54.136 12.3393 668 134.129 122.437 476.355
110 0 56.2232 12.8239 721 131.318 122.304 475.024
111 0 57.1149 12.4836 713 132.102 121.892 473.569
112 0 58.1196 13.0765 760 129.841 121.699 473.329
113 0 59.2392 12.8631 762 133.978 121.984 472.508
114 0 61.0478 13.1536 803 128.443 120.73 470.483
115 0 63.1792 13.0264 823 125.981 121.196 469.491
116 0 66.0203 13.0112 859 130.198 121.46 469.837
117 0 68.1313 12.7988 872 124.865 121.42 468.459
118 0 70.0982 12.7107 891 131.091 121.618 466.926
119 0 72.2766 12.9779 938 125.401 121.405 466.004
120 0 75.2762 13.311 1002 127.908 121.736 465.147
121 0 77.1743 13.2687 1024 130.393 121.806 463.926
122 0 80.2713 13.6662 1097 128.965 122.031 461.974
123 0 82.2366 13.6314 1121 127.037 121.833 460.754
124 0 83.118 13.4869 1121 127.923 122.016 458.722
125 0 87.2396 13.6864 1194 132.639 122.268 457.088
126 0 91.2571 13.5003 1232 133.752 122.249 455.748
127 1 47.2451 11.6414 550 142.331 122.653 475.553
128 0 49.0799 12.0008 589 134.319 122.774 475.239
129 0 49.1495 12.9401 636 134.94 122.384 473.745
130 0 52.0827 12.6145 657 143.763 122.671 473.205
131 0 53.1161 12.8021 680 146.021 122.262 472.759
132 0 54.153 12.834 695 144.075 122.745 472.296
133 0 56.1283 13.0059 730 135.916 122.653 471.405
134 0 58.2152 13.3814 779 137.703 122.677 470.022
135 0 59.0909 12.9969 768 140 122.993 469.371
136 0 61.0878 13.4724 823 132.396 123.52 468.813
137 0 63.1209 13.5613 856 142.143 123.467 466.683
138 0 65.1086 13.5773 884 140.244 123.352 466.32
139 0 65.0778 13.7067 892 145.559 124.024 465.364
140 0 68.1753 13.2599 904 145.993 124.815 464.796
141 0 70.1311 13.6316 956 143.229 123.918 463.51
142 0 72.0708 13.8752 1000 145.492 124.086 463.315
143 0 74.1481 13.6079 1009 146.173 124.918 461.936
144 0 76.206 13.9622 1064 146.249 124.726 460.588
145 0 78.1168 13.8254 1080 156.706 124.478 458.94
146 0 81.1297 13.7434 1115 150.339 124.468 457.977
147 0 84.1146 13.7313 1155 153.816 125.175 455.5
148 0 86.1629 13.637 1175 158.542 125.234 454.724
149 0 90.2083 13.8457 1249 150.429 125.358 452.448
150 0 91.1443 13.9998 1276 155.444 125.548 450.927
151 0 94.0639 13.7247 1291 153.632 125.782 449.079
152 1 51.0927 12.5263 640 163.645 125.647 470.55
153 0 52.1242 12.7388 664 157.568 126.071 469.471
154 0 52.1256 12.8536 670 160.702 126.722 468.71
155 0 55.116 12.8819 710 157.318 127.056 468.604
156 0 58.1695 12.6011 733 156.64 127.31 466.686
157 0 58.1656 13.2209 769 152.824 127.492 465.564
158 0 60.242 13.2134 796 149.793 127.974 464.175
159 0 62.2109 13.2774 826 152.655 127.5 462.466
160 0 65.2018 13.1898 860 153.378 127.385 461.164
161 0 67.1988 13.1699 885 152.055 127.277 460.643
162 0 68.2016 13.5187 922 153.451 126.884 459.287
163 0 72.1518 13.2637 957 141.281 127.569 458.27
164 0 74.1192 13.7616 1020 151.799 127.11 457.659
165 0 75.2057 13.483 1014 147.396 127.006 455.917
166 0 78.1491 13.7174 1072 133.647 127.321 455.385
167 0 81.1366 13.3602 1084 152.074 127.731 453.353
168 0 85.2322 12.9176 1101 156.95 128.14 451.392
169 0 87.1474 13.7239 1196 154.974 128.43 449.509
170 0 92.1376 13.5124 1245 152.568 128.939 447.778
171 0 95.2379 13.2615 1263 159.247 128.791 446.495
172 0 97.2571 13.5106 1314 154.675 128.928 444.619
173 0 100.278 13.5922 1363 158.583 128.803 442.644
174 1 51.2409 11.9631 613 155.514 128.667 467.768
175 0 53.0477 12.7055 674 151.39 129.441 466.562
176 0 55.1378 12.6773 699 149.707 128.662 465.81
177 0 57.1153 12.9387 739 153.299 129.767 465.591
178 0 59.1369 12.6993 751 150.216 130.14 463.518
179 0 61.119 12.7784 781 147.794 129.927 462.994
180 0 63.1734 12.7744 807 152.02 129.539 461.372
181 0 65.2022 12.699 828 149.186 129.192 460.373
182 0 65.1773 12.9493 844 151.736 129.447 459.946
183 0 68.0941 12.8646 876 154.138 128.64 458.178
184 0 68.0764 13.382 911 155.722 128.149 456.237
185 0 73.0483 12.964 947 156.244 127.772 455.039
186 0 75.1266 13.1378 987 157.463 128.278 455.088
187 0 77.0779 13.1944 1017 160.744 127.693 453.103
188 0 78.1917 13.1344 1027 155.246 127.722 453.074
189 0 82.1224 13.0171 1069 157.303 127.95 451.593
190 0 84.0707 13.1913 1109 159.28 127.331 450.585
191 0 88.0425 12.8688 1133 160.763 127.688 449.267
192 0 90.1184 13.0717 1178 160.587 128.585 446.734
193 0 95.1719 13.2812 1264 163.933 128.273 444.75
194 0 97.3074 13.2056 1285 161.023 128.43 443.726
195 1 51.0753 12.3935 633 156.207 127.455 465.856
196 0 52.0402 12.2405 637 162.154 127.413 465.491
197 0 53.0855 12.1125 643 160.932 127.053 465.835
198 0 54.1036 12.4576 674 157.682 126.593 464.757
199 0 58.0315 12.5104 726 160.382 127.299 463.883
200 0 59.1171 12.6021 745 161.366 126.616 463.733
201 0 60.0767 12.8169 770 161.287 126.879 462.395
202 0 63.0767 12.9525 817 155.656 126.994 460.483
203 0 65.0537 13.0661 850 152.293 127.187 459.345
204 0 66.089 12.9371 855 159.168 127.002 459.096
205 0 69.1886 12.8345 888 162.029 127.461 458.677
206 0 69.0676 13.3927 925 160.124 126.832 457.274
207 0 73.0862 13.0941 957 167.398 127.139 455.463
208 0 74.116 13.0741 969 168.057 127.245 455.625
209 0 76.0935 13.4571 1024 165.862 127.151 452.59
210 0 82.2079 12.5414 1031 164.325 127.011 451.767
211 1 43.3331 11.3078 490 167.678 127.855 471.322
212 0 44.3063 11.2851 500 148.974 127.426 471.416
213 0 45.4348 11.7311 533 162.285 127.54 470.325
214 0 46.1946 11.9495 552 159.837 126.986 469.986
215 0 48.2228 11.9031 574 161.585 127.125 469.002
216 0 50.2234 12.1059 608 160.439 127.1 468.238
217 0 51.2489 12.1173 621 159.527 126.865 468.353
218 0 53.1598 12.1708 647 150.476 126.861 467.196
219 0 53.3135 12.5672 670 152.987 126.867 467.734
220 0 54.3509 12.7505 693 156.257 126.968 465.926
221 0 57.2326 12.6501 724 159.597 126.345 465.778
222 0 59.1681 12.2532 725 162.164 126.775 465.237
223 0 60.2556 12.9283 779 159.529 127.142 464.476
224 0 62.2281 12.8399 799 163.831 127.075 464.305
225 0 63.2164 12.9555 819 163.28 126.475 463.261
226 0 65.1636 13.2129 861 162.168 126.549 462.034
227 0 66.1124 13.3107 880 163.861 126.167 461.318
228 0 69.1444 13.0162 900 161.636 126.381 460.156
229 0 72.1413 12.8914 930 163.062 125.78 459.962
230 0 75.1535 13.173 990 161.139 125.96 457.934
231 0 77.1403 13.1967 1018 164.574 125.585 456.72
232 0 79.1631 13.428 1063 163.541 125.929 455.225
233 0 83.1247 13.0767 1087 167.289 126.521 453.878
234 1 44.1252 11.2181 495 164.687 125.089 473.648
235 0 46.219 11.7701 544 163.662 126.272 472.704
236 0 46.2034 11.9472 552 162.438 126.096 472.27
237 0 48.2168 11.5727 558 156.172 125.935 471.513
238 0 50.2555 11.7201 589 152.935 126.114 470.455
239 0 51.2542 11.9405 612 160.075 126.49 470.118
240 0 53.2698 12.0706 643 159.779 126.179 469.03
241 0 54.2746 12.4368 675 160.905 125.889 467.36
242 0 55.1091 12.0851 666 155.887 124.635 466.899
243 0 57.1543 11.7227 670 156.358 124.819 465.385
244 0 59.0729 12.0868 714 162.133 125.119 465.774
245 0 60.0714 12.2188 734 157.914 125.315 463.767
246 0 62.1114 12.1717 756 160.327 125.225 463.307
247 0 64.1695 12.4202 797 149.649 125.586 461.084
248 0 64.0695 12.6425 810 150.032 125.944 462.519
249 0 66.1418 12.7302 842 155.576 125.494 461
250 0 70.2097 12.3772 869 156.272 125.983 459.417
251 0 70.1864 12.937 908 151.751 126.117 458.389
252 0 74.2327 12.7572 947 152.738 126.607 457.026
253 0 75.1764 12.3975 932 155.783 126.6 456.293
254 0 79.307 12.584 998 156.053 127.078 454.192
255 0 80.31 12.7381 1023 150.737 126.767 453.303
256 0 85.2041 12.5698 1071 148.399 126.814 451.339
257 1 48.1787 10.3158 497 152.579 126.724 469.813
258 0 47.1993 10.7205 506 145.401 126.146 469.478
259 0 51.1099 11.6416 595 153.43 126.323 469.259
260 0 52.0196 11.9955 624 149.671 126.758 467.71
261 0 53.034 11.8792 630 151.99 126.589 467.66
262 0 55.088 12.1987 672 152.802 127.104 465.894
263 0 56.0396 12.2235 685 145.809 126.923 465.133
264 0 58.109 12.2528 712 150.935 127.354 464.424
265 0 61.1422 12.2665 750 147.329 127.477 463.176
266 0 62.0971 12.5127 777 152.965 128.044 461.671
267 0 63.158 12.5241 791 159.638 128.03 461.461
268 0 66.1463 12.4119 821 150.753 128.509 460.78
269 0 66.1961 12.614 835 156.333 128.981 460.018
270 0 68.1093 12.9057 879 157.491 129.659 459.3
271 0 72.2556 12.5803 909 150.182 129.537 457.493
272 0 73.2478 12.7649 935 154.049 130.162 456.226
273 0 75.2419 12.9449 974 153.676 130.106 455.207
274 0 77.1811 13.2675 1024 151.968 130.742 452.718
275 0 80.2989 13.2879 1067 154.966 130.586 452.732
276 0 82.2863 13.0398 1073 150.541 130.327 450.247
277 0 86.2772 13.0278 1124 150.428 130.235 448.559
278 0 87.2613 13.2819 1159 154.884 130.023 447.548
279 0 91.4405 13.2545 1212 48.7384 130.106 445.828
280 1 51.1381 11.8111 604 156.709 129.975 465.937
281 0 53.1608 11.9637 636 149.546 130.189 465.211
282 0 54.2141 12.1186 657 154.51 129.3 465.027
283 0 54.118 12.5097 677 147.73 129.873 465.035
284 0 56.0922 12.5151 702 146.558 129.97 464.369
285 0 57.1767 12.6975 726 146.795 130.449 463.932
286 0 60.2412 12.6658 763 140.692 130.675 462.615
287 0 61.2399 12.8838 789 142.004 130.224 461.759
288 0 63.1878 12.8031 809 140.721 130.135 459.688
289 0 65.1815 12.9638 845 135.879 129.862 459.329
290 0 67.152 12.8366 862 140.586 129.762 458.682
291 0 67.1828 13.2623 891 139.73 130.186 457.178
292 0 72.0949 13.3713 964 135.648 129.767 455.76
293 0 74.0476 13.4103 993 133.525 129.848 454.055
294 0 73.1029 13.5562 991 142.129 129.665 453.781
295 0 78.1424 12.9251 1010 139.546 129.198 452.883
296 0 80.0918 12.9601 1038 138.494 128.819 450.709
297 0 83.0401 13.2948 1104 134.612 129.497 449.306
298 0 87.0484 13.0157 1133 129.162 129.073 447.547
299 0 89.1269 13.06 1164 140.541 129.522 446.248
300 1 46.0574 11.3554 523 135.564 129.34 467.652
301 0 48.0805 11.5015 553 137.112 129.915 467.295
302 0 50.1039 12.0549 604 139.603 129.144 466.373
303 0 50.1457 12.0449 604 132.705 129.179 465.515
304 0 51.106 12.6795 648 138.37 128.858 464.796
305 0 54.1045 12.5498 679 137.839 128.878 464.677
306 0 56.1456 12.4676 700 142.289 128.833 463.671
307 0 56.2733 12.7769 719 137.912 128.31 463.458
308 0 59.2124 12.6156 747 142 128.699 462.383
309 0 60.066 13.1189 788 144.467 128.671 460.893
310 0 63.1525 12.7628 806 143.617 128.926 459.438
311 0 63.2506 13.7548 870 137.888 129.409 460.284
312 0 67.1241 13.3931 899 130.374 128.716 458.585
313 0 68.151 13.4261 915 142.393 127.963 457.286
314 0 69.2148 13.6532 945 137.251 128.46 457.054
315 0 73.2234 13.7797 1009 142.08 128.525 455.196
316 0 76.3004 13.3027 1015 141.485 128.417 454.816
317 0 78.3337 13.5063 1058 146.312 128.611 452.908
318 0 82.3343 13.2387 1090 145.042 128.406 451.063
319 0 84.4551 13.3088 1124 149.226 128.796 450.04
320 0 87.4972 13.1547 1151 147.467 128.733 448.572
321 1 46.357 11.7566 545 145.655 129.483 470.222
322 0 49.3691 11.9913 592 144.485 129.85 469.483
323 0 49.3615 11.9932 592 144.056 129.152 469.794
324 0 51.2904 12.478 640 151.806 128.673 467.35
325 0 51.2998 12.9045 662 151.841 129.314 466.326
326 0 55.1994 12.3914 684 150.246 129.234 466.215
327 0 56.2336 12.6081 709 151.124 128.653 465.849
328 0 56.2321 12.9641 729 147.838 128.642 464.278
329 0 58.3358 12.7023 741 143.644 127.896 464.061
330 0 58.2187 13.1573 766 146.666 128.077 463.257
331 0 61.1887 13.1233 803 144.671 128.508 462.108
332 0 62.1967 13.1679 819 145.255 128.41 461.569
333 0 64.1358 13.0037 834 133.752 128.153 461.291
334 0 67.1847 13.2322 889 143.415 128.125 460.136
335 0 69.2353 13.0425 903 144.166 128.446 458.47
336 0 71.1707 13.5308 963 141.221 128.478 457.189
337 0 73.1655 13.531 990 137.402 128.404 457.428
338 0 75.2116 13.5351 1018 147.024 128.462 456.502
339 0 79.1331 13.2688 1050 135.33 129.307 455.818
340 0 80.1254 13.3915 1073 144.122 128.71 454.37
341 0 83.2424 13.2985 1107 143.414 128.613 453.504
342 0 87.197 13.3605 1165 139.14 128.464 451.047
343 0 88.1754 13.6546 1204 143.456 127.523 450.632
344 1 47.0513 11.7956 555 141.413 128.238 471.564
345 0 50.069 11.9635 599 140.347 127.598 470.404
346 0 53.1394 12.1944 648 143.444 127.008 470.076
347 0 53.1944 12.9525 689 144.968 125.993 468.279
348 0 54.205 12.6188 684 136.558 126.557 467.877
349 0 56.2014 13.0246 732 142.896 126.464 467.372
350 0 57.0877 13.2428 756 145.738 126.692 466.602
351 0 60.1191 12.9743 780 144.405 126.776 465.887
352 0 61.0997 12.9788 793 139.431 126.837 464.736
353 0 64.2556 12.7148 817 148.31 126.689 463.831
354 0 65.2264 12.6789 827 143.458 127.059 463.121
355 0 68.2096 12.9014 880 134.462 127.572 461.383
356 0 70.3357 13.0659 919 141.348 127.326 460.164
357 0 72.2616 13.3404 964 141.307 127.313 459.253
358 0 75.2527 13.0494 982 149.753 127.237 457.34
359 0 77.2326 12.9997 1004 142.412 126.993 456.209
360 0 81.2009 12.6969 1031 143.607 127.058 455.534
361 1 43.1205 10.7837 465 142.665 126.901 472.97
362 0 45.0764 12.024 542 144.684 127.122 472.52
363 0 45.0811 11.9562 539 144.633 126.911 471.701
364 0 47.1908 12.3753 584 129.793 128.42 470.803
365 0 48.1912 11.9939 578 141.064 128.306 470.299
366 0 50.1754 12.0378 604 138.015 128.164 469.267
367 0 49.1576 12.5108 615 131.091 127.551 468.507
368 0 52.2141 12.5636 656 136.927 128.07 468.052
369 0 53.2035 12.236 651 134.621 128.089 467.997
370 0 55.1919 12.52 691 127.9 128.211 466.925
371 0 57.165 12.7351 728 132.908 127.791 466.716
372 0 58.1206 12.2676 713 135.003 128.208 466.16
373 0 60.1746 12.6632 762 131.346 128.923 465.438
374 0 62.1718 12.6746 788 130.221 128.447 464.084
375 0 63.1629 12.6023 796 136.871 128.256 462.599
376 0 66.153 12.8943 853 135.597 128.624 460.909
377 0 67.1648 12.6703 851 138.421 128.521 460.409
378 0 71.1193 12.5985 896 141.138 128.941 458.968
379 0 74.0328 12.1973 903 138.385 129.607 457.544
380 0 75.1274 12.5786 945 135.62 130.015 457.359
381 1 40.05 10.3371 414 140.486 129.435 474.408
382 0 41.0973 11.5093 473 144.321 129.765 473.061
383 0 44.2049 11.3788 503 144.06 129.467 472.306
384 0 45.2028 11.371 514 140.471 130.045 471.023
385 0 47.1586 11.7052 552 139.9 130.4 470.303
386 0 48.2969 11.802 570 137.402 129.932 469.393
387 0 50.2252 11.8267 594 138.187 129.747 467.993
388 0 51.2381 11.5734 593 137.396 129.476 468.007
389 0 51.2512 11.9217 611 133.912 129.791 466.62
390 0 54.1777 12.4959 677 133.322 129.956 465.365
391 0 56.1704 11.928 670 137.688 129.769 464.588
392 0 57.1506 12.3183 704 139.827 130.115 464.912
393 0 60.2154 12.4387 749 139.716 129.104 463.011
394 0 60.2161 12.505 753 136.178 129.421 462.461
395 0 62.172 12.6584 787 127.869 129.243 461.911
396 0 67.1854 12.4283 835 144.582 130.044 461.026
397 0 67.2287 12.7921 860 140.924 130.28 459.27
398 0 69.2198 12.872 891 140.006 130.662 458.34
399 0 73.1879 12.625 924 83.9362 130.413 457.604
400 0 76.2127 12.6882 967 138.381 129.489 455.929
401 1 38.1035 11.3375 432 139.817 131.616 473.722
402 0 42.1227 11.1104 468 145.154 130.957 473.299
403 0 41.1227 11.3806 468 145.536 131.293 472.748
404 0 44.2615 11.6806 517 149.215 130.839 471.077
405 0 46.1793 12.3649 571 143.841 130.319 470.567
406 0 48.3344 12.4135 600 145.033 129.677 469.908
407 0 47.3179 12.342 584 145.216 129.44 469.553
408 0 49.278 12.5614 619 140.207 128.916 468.622
409 0 51.3267 12.6445 649 143.505 129.337 468.447
410 0 53.3581 12.6691 676 147.547 129.078 468.322
411 0 53.1405 12.9468 688 149.308 129.215 467.41
412 0 53.1972 13.4594 716 146.92 128.739 466.798
413 0 57.2688 13.0438 747 137.099 128.997 465.115
414 0 57.2394 13.3125 762 149.399 128.465 465.861
415 0 58.2278 13.7907 803 148.204 128.569 464.638
416 0 60.1311 13.9861 841 152.986 128.127 463.916
417 0 64.2001 13.5825 872 154.616 128.743 463.111
418 0 64.1679 13.5582 870 154.372 128.761 461.906
419 0 67.1252 13.8249 928 152.811 128.375 461.452
420 0 67.1432 14.0148 941 156.062 128.26 460.956
421 0 71.0823 13.9838 994 149.794 128.334 459.763
422 0 74.1157 13.9646 1035 152.595 128.305 458.737
423 0 78.1224 13.5684 1060 145.613 128.236 457.308
424 0 79.2677 14.0284 1112 157.085 127.905 456.348
425 0 82.2077 13.7335 1129 157.608 127.261 453.944
426 0 85.3911 14.1233 1206 155.106 128.159 452.25
427 0 87.3847 13.7209 1199 160.485 128.301 451.023
428 0 91.2589 13.9164 1270 150.887 127.801 450.029
429 1 46.1213 12.337 569 160.257 128.344 471.576
430 0 50.2649 12.6928 638 158.556 127.591 470.071
431 0 49.1084 13.6433 670 148.376 127.763 469.693
432 0 52.1046 13.3961 698 157.778 128.619 469.297
433 0 54.1286 13.043 706 156.962 127.887 468.902
434 0 56.0531 13.3802 750 149.849 127.776 467.181
435 0 58.0903 13.1519 764 151.199 127.884 466.923
436 0 59.0728 13.3903 791 151.516 127.836 466.063
437 0 60.1235 13.4889 811 149.515 127.937 465.26
438 0 61.1756 13.9598 854 143.279 127.301 464.09
439 0 65.2126 13.4483 877 144.073 127.361 462.635
440 0 68.3431 13.6078 930 145.546 127.202 461.644
441 0 67.1359 13.5844 912 147.94 127.514 459.965
442 0 71.1186 13.4142 954 149.595 127.412 458.5
443 0 74.0962 13.6984 1015 144.871 126.602 456.874
444 0 74.0698 13.9868 1036 150.616 126.745 455.652
445 0 77.1473 13.6233 1051 153.587 126.46 454.907
446 0 80.1348 13.5022 1082 146.899 126.274 453.76
447 1 42.0221 12.0651 507 146.919 125.862 474.172
448 0 45.1975 12.1024 547 153.746 127.388 473.832
449 0 45.1273 13.0298 588 149.219 125.748 472.364
450 0 48.1771 12.454 600 154.187 126.37 472.403
451 0 49.1332 12.6798 623 147.188 126.366 471.87
452 0 52.1836 12.4177 648 151.122 126.247 471.221
453 0 52.1561 12.9803 677 145.081 125.843 470.256
454 0 54.2454 12.849 697 153.143 125.753 470.238
455 0 54.1097 12.9921 703 152.654 126.26 470.184
456 0 56.181 12.9759 729 152.032 126.043 469.34
457 0 58.193 13.0944 762 148.968 126.298 467.387
458 0 60.1652 13.2967 800 146.685 126.548 467.048
459 0 62.163 13.4163 834 145.989 126.549 465.494
460 0 65.1234 13.1443 856 144.118 126.718 464.187
461 0 67.1665 13.1613 884 143.678 126.234 462.95
462 0 69.2078 13.3222 922 138.213 126.765 462.832
463 0 70.0865 13.2265 927 144.515 126.759 461.304
464 0 73.1147 13.3626 977 139.691 126.905 460.878
465 0 75.1712 13.436 1010 135.775 127.063 459.509
466 0 78.0368 13.7627 1074 137.392 126.959 457.098
467 0 81.2278 13.5052 1097 143.84 126.479 456.374
468 0 84.1186 13.16 1107 141.574 126.432 454.286
469 0 86.2133 13.0838 1128 144.348 126.637 453.051
470 1 47.0522 10.839 510 142.733 126.841 473.435
471 0 48.0714 11.9822 576 141.128 127.365 471.406
472 0 48.0995 12.4741 600 140.355 128.703 469.737
473 0 52.0532 13.0636 680 144.625 128.866 468.707
474 0 53.2316 12.3799 659 143.384 128.238 467.648
475 0 55.3804 12.5676 696 146.198 128.142 466.737
476 0 57.2741 12.9203 740 145.347 127.901 465.543
477 0 59.2338 12.4929 740 143.654 128.286 464.264
478 0 60.2562 12.8783 776 143.697 128.216 463.765
479 0 62.4032 13.0762 816 144.088 128.026 462.38
480 0 66.284 13.1706 873 141.415 128.08 459.982
481 0 68.4795 12.982 889 141.269 128.421 459.508
482 0 70.4132 13.4918 950 141.041 128.468 458.845
483 0 71.2343 13.5047 962 144.037 128.388 456.47
484 0 75.2747 13.0057 979 146.568 128.208 455.886
485 0 78.2171 13.3986 1048 145.619 128.263 454.245
486 0 81.2822 13.0656 1062 151.891 128.032 452.844
487 0 83.3722 13.4817 1124 149.441 128.132 452.563
488 0 86.2986 13.0709 1128 145.62 128.454 451.465
489 1 43.2499 11.5838 501 150.505 127.96 471.998
490 0 46.1343 12.1818 562 147.283 128.062 470.829
491 0 47.1336 12.6449 596 144.879 128.223 469.982
492 0 49.153 13.0613 642 146.344 128.679 469.447
493 0 50.5651 12.8943 652 147.554 129.166 467.543
494 0 53.1689 12.6766 674 141.826 130.478 467.174
495 0 53.1799 12.8432 683 143.372 130.556 466.55
496 0 55.2824 12.6803 701 144.452 129.967 465.147
497 0 57.2239 12.5297 717 138.612 130.621 464.495
498 0 58.3869 13.4619 786 141.81 130.407 463.598
499 0 60.3689 13.4175 810 141.101 130.531 462.433
500 0 62.3947 12.9498 808 140.983 130.776 462.84
501 0 65.4931 13.2991 871 141.297 131.226 460.509
502 0 67.3489 12.8287 864 145.351 130.816 460.402
503 0 66.3598 13.3967 889 142.803 130.652 459.351
504 0 69.4625 13.6045 945 143.382 130.249 457.516
505 0 71.4218 13.1332 938 142.898 130.708 456.464
506 0 73.6185 13.4205 988 147.969 130.256 455.963
507 0 75.4342 13.8399 1044 144.874 130.457 454.247
508 0 79.3655 13.5827 1078 150.779 130.082 452.332
509 0 80.7018 13.7791 1112 144.076 130.484 449.84
510 0 83.6102 13.6108 1138 149.319 130.451 447.637
511 0 88.5935 13.4886 1195 146.867 130.258 447.443
512 1 45.3775 11.4153 518 145.93 130.239 469.253
513 0 47.3473 11.9753 567 144.372 130.354 468.307
514 0 48.1752 12.6206 608 143.199 129.957 468.201
515 0 50.199 12.57 631 143.296 130.338 467.38
516 0 52.1227 12.6816 661 146.837 130.088 465.399
517 0 53.1625 13.2424 704 145.386 129.673 465.636
518 0 53.2201 12.7396 678 145.385 129.861 466.078
519 0 53.2201 13.773 733 140.588 129.506 464.27
520 0 57.4397 12.8831 740 142.024 128.95 462.736
521 0 59.5511 13.1484 783 144.294 128.814 462.369
522 0 61.2322 13.408 821 146.73 128.488 461.385
523 0 62.4386 13.4052 837 147.766 128.934 460.57
524 0 64.496 13.0551 842 147.271 127.949 459.135
525 0 67.5541 13.2338 894 143.15 128.178 457.427
526 0 69.6734 13.0753 911 142.092 127.6 455.912
527 0 71.3642 13.326 951 139.93 127.666 455.695
528 0 73.3169 13.3939 982 144.047 128.206 454.981
529 0 77.4153 13.279 1028 145.098 128.316 452.493
530 0 77.4662 13.7479 1065 148.117 128.239 452.571
531 0 82.6377 13.3474 1103 144.778 128.267 449.811
532 1 40.4349 10.5849 428 152.32 128.32 471.881
533 0 41.423 11.3222 469 143.757 128.964 469.134
534 0 44.2624 11.5448 511 146.031 128.438 469.485
535 0 46.1989 11.5371 533 148.362 128.732 469.062
536 0 48.4035 12.685 614 145.005 129.409 468.647
537 0 49.4826 12.2871 608 141.811 128.372 467.094
538 0 51.2719 12.1314 622 146.016 128.18 466.248
539 0 52.2411 12.5955 658 145.562 127.91 465.722
540 0 54.3391 12.6244 686 145.724 128.211 464.235
541 0 57.6144 12.6704 730 139.925 128.063 464.049
542 0 57.51 12.8152 737 144.833 128.142 462.174
543 0 60.293 13.0695 788 145.909 127.897 461.303
544 0 63.5908 12.9421 823 143.727 128.627 460.141
545 0 67.9215 12.7942 869 144.94 128.979 458.693
546 0 69.9426 13.1679 921 165.552 128.897 457.688
547 0 71.884 12.9932 934 165.312 127.969 457.059
548 0 72.7566 13.4283 977 158.616 128.408 455.14
549 0 77.8216 13.0427 1015 159.185 128.397 453.985
550 0 79.6854 12.9509 1032 159.876 127.797 452.408
551 0 81.9032 13.2718 1087 157.843 128.091 451.911
552 1 41.3638 11.145 461 162.341 127.39 472.323
553 0 42.2953 11.8453 501 160.78 127.192 471.782
554 0 42.2417 12.1207 512 155.992 127.621 471.146
555 0 44.3136 11.8925 527 153.529 127.349 470.245
556 0 46.3149 11.8104 547 149.291 127.527 468.678
557 0 47.2362 12.0035 567 150.776 127.335 468.113
558 0 48.2296 12.2746 592 143.122 127.473 467.394
559 0 48.3553 12.3047 595 155.553 127.679 467.378
560 0 52.256 12.477 652 143.046 127.655 467.032
561 0 52.209 12.948 676 146.476 127.723 466.222
562 0 54.1928 12.474 676 150.251 126.697 465.281
563 0 55.4042 12.5442 695 149.807 126.399 465.554
564 0 57.3955 12.7885 734 145.172 126.933 464.556
565 0 59.3063 12.5956 747 146.908 126.897 463.277
566 0 60.2346 13.0656 787 148.432 127.182 463.163
567 0 63.462 12.606 800 146.641 126.66 461.522
568 0 64.3761 12.66 815 138.479 126.205 460.607
569 0 68.4504 12.3593 846 142.762 126.436 458.823
570 0 70.3728 12.5475 883 140.938 126.578 457.467
571 0 72.2166 12.504 903 137.056 126.988 457.65
572 0 72.4583 12.7246 922 143.345 127.077 455.903
573 0 77.3189 12.5454 970 140.698 127.518 455.189
574 0 78.2869 12.7608 999 136.118 128.282 453.674
575 0 80.3253 12.9224 1038 138.931 128.085 452.956
576 1 47.1156 9.97547 470 136.326 128.606 470.208
577 0 48.1997 10.0831 486 142.757 128.862 468.794
578 0 50.2883 10.9568 551 142.441 128.33 467.642
579 0 53.291 11.0338 588 138.364 128.27 467.071
580 0 54.2348 11.4686 622 142.772 128.304 466.915
581 0 55.2798 11.7403 649 138.663 128.142 465.365
582 0 56.1389 11.6853 656 138.825 127.872 464.419
583 0 59.227 11.7514 696 142.634 128.03 464.174
584 0 60.2 12.0764 727 142.102 128.018 463.074
585 0 62.1926 12.4613 775 144.271 128.212 462.037
586 0 64.3426 11.8895 765 144.969 128.297 460.644
587 0 65.2934 12.3443 806 143.414 128.783 461.432
588 0 66.2238 12.2161 809 146.787 128.193 459.166
589 0 70.3824 12.6026 887 143.273 128.6 457.454
590 0 73.2491 12.4916 915 142.437 128.977 456.064
591 0 73.3621 12.7995 939 142.571 129.265 454.869
592 0 76.1867 13.0994 998 138.69 129.038 453.834
593 0 77.4005 13.0878 1013 139.499 129.268 453.851
594 0 79.3073 13.164 1044 143.83 128.966 452.437
595 0 82.2366 13.2666 1091 145.226 128.958 451.474
596 0 84.318 13.1051 1105 142.51 128.662 450.542
597 0 87.2038 13.176 1149 152.536 128.854 449.475
598 0 90.3082 13.1882 1191 148.6 128.685 447.96
599 0 92.2303 13.6723 1261 153.678 128.933 446.481
600 0 98.4306 14.9953 1476 146.411 128.637 441.957
601 0 98.2627 13.759 1352 156.343 128.975 442.67
602 0 103.297 13.5048 1395 159.267 129.289 441.841
603 0 105.541 13.3786 1412 161.519 129.015 440.312
604 0 108.481 13.772 1494 162.059 128.97 437.772
605 1 60.1758 11.616 699 159.086 130.063 461.28
606 0 63.1559 12.2712 775 159.439 130.44 461.145
607 0 64.303 12.0679 776 158.719 130.108 460.457
608 0 66.279 12.2362 811 156.092 130.095 458.107
609 0 67.2623 12.652 851 152.719 130.119 457.204
610 0 69.3743 12.7281 883 153.706 129.6 457.012
611 0 70.142 12.9167 906 153.737 130.157 455.019
612 0 74.2226 12.705 943 152.866 130.468 453.901
613 0 76.1896 13.1383 1001 158.252 130.081 453.661
614 0 79.2482 13.035 1033 161.632 130.425 450.752
615 0 80.1767 12.8716 1032 164.719 130.737 450.11
616 0 83.3454 12.9581 1080 157.345 130.548 448.943
617 0 84.3268 13.3054 1122 161.221 130.746 447.829
618 0 88.4159 13.0633 1155 161.138 131.417 446.369
619 0 91.4585 12.9786 1187 161.578 131.503 444.832
620 0 93.5206 13.1736 1232 163.046 131.222 444.023
621 0 98.3935 12.9887 1278 154.194 130.62 442.409
622 0 99.4408 13.6463 1357 162.41 130.156 440.092
623 1 56.0634 11.0767 621 156.519 131.441 464.085
624 0 58.2041 11.683 680 142.884 129.656 462.856
625 0 59.2093 11.9238 706 153.965 129.381 462.381
626 0 61.2383 11.7574 720 152.969 128.668 460.36
627 0 63.164 11.8738 750 150.523 129.271 459.68
628 0 65.2232 11.7903 769 150.09 129.309 458.391
629 0 70.1827 11.4416 803 151.489 129.567 456.45
630 0 70.1389 11.9477 838 147.541 129.27 455.395
631 0 72.2628 11.901 860 151.222 129.466 454.16
632 0 75.1843 12.3031 925 152.134 129.402 452.923
633 0 78.2439 12.1287 949 148.066 128.88 451.607
634 0 78.2821 12.225 957 147.368 129.217 450.994
635 0 83.1776 12.0104 999 151.14 129.164 449.523
636 0 85.2028 12.4409 1060 152.26 128.974 448.009
637 0 88.2302 12.3427 1089 145.691 128.662 446.305
638 0 90.2099 12.6039 1137 145.952 127.732 444.655
639 0 90.2321 12.623 1139 141.001 128.513 444.659
640 0 95.2563 12.7866 1218 151.162 127.625 442.221
641 0 97.1979 12.5517 1220 151.317 128.103 441.2
642 0 102.251 12.6063 1289 148.367 127.811 439.704
643 0 104.271 12.0456 1256 148.932 128.1 439.059
644 0 107.2 12.1922 1307 144.777 127.551 437.669
645 0 109.163 12.2295 1335 149.867 127.945 436.231
646 0 114.217 12.0997 1382 148.084 127.972 433.708
647 1 60.0859 9.63621 579 137.694 126.592 460.974
648 0 62.0564 10.3777 644 137.002 126.661 460.477
649 0 64.0562 11.2557 721 138.908 126.713 459.373
650 0 66.2744 11.045 732 133.56 127.384 458.868
651 0 68.253 11.4867 784 131.423 127.3 457.108
652 0 69.3134 11.3831 789 134.944 127.395 455.716
653 0 72.3934 11.3546 822 136.701 126.843 455.713
654 0 73.3676 11.4901 843 131.531 127.098 455.327
655 0 76.3503 11.9056 909 138.579 127.132 453.092
656 0 77.2549 12.2452 946 137.274 126.716 452.101
657 0 82.3483 12.1557 1001 138.366 126.968 450.252
658 0 85.192 12.0316 1025 145.018 126.762 449.674
659 0 87.225 12.3359 1076 146.587 126.688 447.814
660 1 47.0668 9.09347 428 142.72 125.871 470.051
661 0 49.0218 9.52636 467 142.557 125.328 469.193
662 0 50.0253 9.45522 473 146.507 125.159 468.268
663 0 49.0799 10.106 496 145.23 125.49 468.347
664 0 52.1081 10.5358 549 144.399 126.016 466.683
665 0 53.1816 10.8308 576 145.003 126.632 466.37
666 0 54.1545 11.7811 638 142.049 126.254 465.517
667 0 54.2316 11.414 619 133.847 126.367 465.669
668 0 55.2045 11.9374 659 140.66 125.525 464.558
669 0 57.3255 12.2284 701 139.492 126.016 463.954
670 0 59.2565 11.8637 703 147.927 126.293 463.129
671 0 60.2402 12.5498 756 143.18 126.376 462.044
672 0 61.3043 12.3809 759 154.486 126.441 461.65
673 0 63.2909 12.64 800 147.838 126.409 461.16
674 0 64.2202 12.4104 797 145.634 125.967 460.338
675 0 65.3105 12.6014 823 149.593 125.704 459.989
676 0 69.118 12.3846 856 148.758 125.839 458.898
677 0 69.1699 12.4765 863 149.812 125.395 457.927
678 0 69.1888 12.7477 882 148.732 125.331 457.337
679 0 73.1537 12.3165 901 147.698 125.061 456.199
680 0 73.189 12.5019 915 142.99 125.383 456.063
681 0 76.242 12.9456 987 146.637 125.428 454.451
682 0 80.1899 12.8445 1030 150.843 125.808 452.815
683 0 80.2711 12.6696 1017 144.501 126.14 451.445
684 0 82.1088 12.0572 990 143.521 125.858 450.691
685 0 86.2784 12.0424 1039 138.336 126.438 449.928
686 0 87.2142 12.3489 1077 144.235 126.631 448.172
687 0 91.3317 12.4163 1134 141.683 125.935 447.006
688 0 93.4252 12.2879 1148 143.103 125.967 445.869
689 0 96.3158 12.4279 1197 142.942 125.949 444.993
690 0 99.33 12.2722 1219 142.048 125.887 443.593
691 0 101.237 12.6238 1278 143.39 126.214 441.483
692 0 104.236 12.6924 1323 143.533 125.957 440.185
693 0 108.378 12.6317 1369 138.633 126.839 438.836
694 0 110.264 12.9598 1429 141.483 126.821 437.139
695 0 114.252 12.9801 1483 143.189 126.062 434.951
696 1 58.2561 9.38957 547 142.556 126.448 467.386
697 0 59.1857 9.59691 568 134.093 126.141 466.125
698 0 62.4184 10.5097 656 141.634 125.095 461.799
699 0 65.4015 11.3912 745 139.128 125.42 461.361
700 0 66.1778 11.3633 752 136.007 125.876 461.493
701 0 69.2284 10.9059 755 131.832 125.77 460.689
702 0 72.277 11.0824 801 133.105 124.452 459.644
703 0 73.215 11.1316 815 136.335 124.459 458.606
704 1 38.031 9.20302 350 134.183 123.82 476.717
705 0 44.0351 8.62949 380 139.513 124.232 474.876
706 0 45.0143 8.28626 373 141.206 124.391 474.574
707 0 41.0593 8.7191 358 141.235 124.905 475.061
708 0 44.0529 9.05728 399 141.491 124.667 473.9
709 0 46.0238 9.56028 440 143.15 124.43 473.35
710 0 48.0201 9.93335 477 138.581 124.784 473.025
711 0 49.0368 10.9713 538 137.654 124.84 471.275
712 0 52.0473 10.8747 566 144.774 125.512 470.002
713 0 53.0817 11.2657 598 149.995 124.435 469.388
714 0 54.1042 10.9603 593 135.521 124.548 469.376
715 0 54.016 11.2929 610 135.456 123.885 469.01
716 0 56.0632 11.0589 620 133.731 125.765 469.135
717 0 57.0202 11.3819 649 137.319 124.632 467.448
718 0 60.1052 10.9475 658 137.698 124.608 466.687
719 0 60.0544 11.0899 666 136.051 124.149 467.707
720 0 63.0845 11.1755 705 131.763 123.833 465.312
721 0 64.1157 10.8866 698 136.828 124.11 465.069
722 0 64.0659 11.2697 722 133.181 124.395 464.133
723 0 66.0544 11.2634 744 132.813 124.167 463.958
724 1 36.063 8.67925 313 134.188 124.422 479.131
725 0 35.0624 8.67025 304 134.507 123.711 479.391
726 0 37.1104 9.10796 338 132.864 124.263 478.361
727 0 38.0578 8.85496 337 139.635 124.409 477.59
728 0 39.1451 8.94109 350 140.657 124.491 477.849
729 0 40.064 9.23523 370 137.814 125.116 477.227
730 0 41.0275 9.38394 385 141.418 125.413 475.408
731 0 42.0537 9.84457 414 134.553 125.094 474.787
732 0 44.1998 10.0453 444 134.493 126.225 474.16
733 0 46.3682 10.8048 501 132.838 125.96 469.834
734 0 48.5115 11.0489 536 132.472 126.246 468.368
735 0 50.2148 11.4508 575 134.751 127.162 469.859
736 0 52.1422 11.5837 604 134.879 125.942 468.833
737 0 54.0932 11.4617 620 129.653 125.2 467.687
738 0 55.0548 11.4431 630 134.881 125.773 467.397
739 0 56.0582 11.5951 650 136.848 126.103 466.851
740 0 56.1592 11.9304 670 135.557 125.746 465.188
741 0 58.0195 11.7719 683 135.943 126.193 463.398
742 0 62.0462 11.975 743 141.288 126.563 462.639
743 0 62.086 12.4988 776 141.517 127.022 460.968
744 0 63.0625 12.2894 775 137.16 127.05 460.693
745 0 67.0461 12.305 825 132.742 127.128 459.464
746 0 70.0659 12.9878 910 130.748 127.541 456.465
747 0 72.1629 12.1253 875 144.078 127.12 456.289
748 0 73.1002 12.9411 946 143.033 127.306 456.123
749 0 77.1067 12.8394 990 148.402 127.026 454.293
750 0 80.1658 12.6363 1013 150.612 126.92 451.377
751 0 82.1614 12.3172 1012 151.173 127.626 450.802
752 0 84.056 12.682 1066 153.231 127.63 449.727
753 1 45.0161 11.2404 506 148.996 127.545 469.864
754 0 47.0391 11.1397 524 151.447 127.393 469.731
755 0 47.3005 11.7969 558 154.668 129.928 468.529
756 0 50.2045 12.2499 615 149.242 129.262 467.241
757 0 51.2605 12.3097 631 153.962 129.873 466.65
758 0 51.1953 12.3644 633 153.796 130.085 466.262
759 0 53.2356 12.3038 655 149.119 129.889 463.773
760 0 55.108 12.4301 685 145.261 129.638 464.364
761 0 56.2121 12.6129 709 145.128 130.134 464.42
762 0 56.3403 12.6552 713 145.794 130.247 462.617
763 0 58.2165 13.0204 758 151.889 130.174 461.79
764 0 60.2742 12.9409 780 142.812 130.588 460.995
765 0 62.2052 13.0375 811 144.695 131.618 459.758
766 0 64.2497 12.6693 814 139.01 131.502 457.758
767 0 65.2323 12.5858 821 143.733 131.557 456.699
768 0 68.12 12.9624 883 142.503 131.282 455.789
769 0 70.1605 12.3859 869 138.269 131.316 455.337
770 0 73.0826 12.8622 940 138.871 131.218 453.588
771 0 75.0803 12.9062 969 140.277 131.079 453.289
772 0 78.1025 12.5348 979 139.641 130.783 451.099
773 1 41.0972 10.098 415 147.995 131.318 469.282
774 0 42.0507 10.2733 432 142.884 131.463 469.266
775 0 45.0232 10.8611 489 146.192 131.638 468.526
776 0 46.0926 10.9779 506 144.121 130.864 467.624
777 0 47.1612 11.5349 544 136.772 128.982 466.811
778 0 47.1748 12.1039 571 139.473 128.445 464.385
779 0 51.0394 11.9516 610 137 127.726 465.295
780 0 51.0412 12.0099 613 134.227 127.026 464.458
781 0 53.053 11.988 636 135.687 126.997 463.354
782 0 55.1046 12.0861 666 136.261 127.619 462.565
783 0 56.088 12.3021 690 137.561 127.664 463.071
784 0 56.0366 12.8844 722 140.321 127.652 461.783
785 0 59.0768 12.6107 745 137.436 127.434 461.56
786 0 61.1476 12.8541 786 142.098 127.312 460.991
787 0 63.1874 12.9614 819 141.122 127.457 459.529
788 0 65.1293 13.0663 851 142.851 127.469 457.551
789 0 67.0926 12.9075 866 141.266 126.844 457.89
790 0 69.1211 13.0785 904 146.514 127.124 457.252
791 0 71.3115 13.1536 938 144.873 128.246 455.309
792 0 74.26 13.0891 972 145.523 128.289 454.532
793 0 75.3 13.3333 1004 145.082 127.988 453.92
794 0 78.2425 13.4837 1055 146.462 127.942 452.669
795 0 81.2971 13.3584 1086 145.992 127.854 451.123
796 0 84.3847 13.7229 1158 144.521 128.142 449.855
797 0 87.3964 13.5017 1180 139.505 128.115 448.505
798 1 46.3754 11.1697 518 142.888 128.264 467.998
799 0 48.2762 11.8485 572 141.671 128.496 464.708
800 0 48.338 12.9298 625 137.654 128.635 463.608
801 0 51.3471 12.4837 641 148.888 128.421 464.583
802 0 52.2428 12.8821 673 138.337 128.796 465.273
803 0 54.3441 13.0465 709 145.915 128.928 463.714
804 0 54.2975 13.2603 720 149.969 128.969 462.483
805 0 58.2101 13.3826 779 150.062 129.451 461.635
806 0 60.2693 13.1576 793 147.207 129.081 459.826
807 0 60.1145 13.624 819 151.485 129.31 459.459
808 0 63.1871 13.642 862 150.31 129.119 457.766
809 0 65.1247 13.8657 903 147.2 129.238 456.885
810 0 70.2081 13.6594 959 142.336 129.38 454.972
811 0 71.1069 13.5289 962 151.481 128.984 454.061
812 0 74.2585 14.0859 1046 146.226 129.383 453.061
813 0 76.1604 13.8917 1058 150.683 129.364 451.783
814 0 78.098 14.0464 1097 146.674 129.696 450.897
815 0 83.1775 13.7898 1147 150.259 129.867 450.155
816 0 84.2035 14.0374 1182 149.802 129.94 448.784
817 0 88.1442 13.7729 1214 155.109 130.456 447.32
818 0 90.2412 13.9626 1260 149.44 130.536 445.893
819 0 94.1989 14.0341 1322 143.042 131.225 444.336
820 0 97.2999 13.9671 1359 149.815 131.335 442.366
821 1 53.3019 12.5887 671 153.247 130.812 464.107
822 0 55.2294 13.0909 723 148.716 130.389 463.225
823 0 56.076 13.4282 753 145.227 130.595 462.406
824 0 58.2248 13.3277 776 144.818 130.639 460.844
825 0 59.2015 13.547 802 138.329 130.885 460.234
826 0 62.1064 13.6379 847 142.324 130.725 459.588
827 0 63.1674 13.488 852 150.765 130.531 457.487
828 0 65.1541 13.9208 907 148.251 130.46 457.151
829 0 69.2784 13.6262 944 142.565 130.604 455.709
830 0 70.1321 13.9023 975 148.347 131.242 454.696
831 0 73.2128 13.9456 1021 140.188 131.501 452.546
832 0 73.2943 14.2849 1047 146.825 131.7 452.478
833 0 77.1411 13.9614 1077 143.527 132.022 451.079
834 0 78.3145 13.8544 1085 151.539 132.397 450.48
835 0 80.3156 14.3932 1156 151.509 132.072 449.068
836 0 84.2262 13.8555 1167 153.714 132.734 447.408
837 0 86.1255 14.1073 1215 153.618 132.914 447.871
838 0 86.2969 14.4269 1245 153.386 132.546 446.831
839 0 91.3075 13.92 1271 157.96 132.811 445.155
840 0 92.2977 14.4316 1332 161.418 133.423 443.322
841 0 97.5059 14.1735 1382 160.931 133.121 439.702
842 0 99.419 14.1723 1409 162.163 133.204 438.982
843 0 102.51 14.2133 1457 157.068 133.306 437.443
844 0 104.656 14.304 1497 169.673 133.116 436.65
845 0 107.578 14.4547 1555 168.221 133.018 435.095
846 0 113.584 14.1746 1610 164.456 132.602 433.381
847 0 115.533 14.4201 1666 167.526 132.417 431.438
848 0 120.357 14.1994 1709 166.59 132.798 429.058
849 0 125.56 14.0092 1759 172.322 132.589 427.113
850 1 66.1896 13.1894 873 170.884 132.452 455.59
851 0 70.2218 12.9447 909 160.671 132.386 455.49
852 0 70.1438 13.344 936 165.87 132.89 454.526
853 0 74.2844 13.0445 969 167.31 133.35 453.095
854 0 75.1364 13.7483 1033 166.095 133.06 451.822
855 0 79.189 13.2847 1052 162.938 133.126 450.375
856 0 83.2463 13.2979 1107 162.776 133.113 449.601
857 0 84.1706 13.639 1148 164.443 133.083 449.335
858 0 87.3109 13.6638 1193 167.355 133.158 446.664
859 0 91.2971 13.4287 1226 169.557 132.37 444.693
860 0 93.5584 13.3927 1253 161.887 132.085 443.618
861 0 97.4537 13.2986 1296 166.093 131.9 442.168
862 0 99.5355 13.2817 1322 166.442 131.689 441.141
863 0 104.707 13.3228 1395 168.067 130.957 438.441
864 0 105.926 13.6982 1451 165.118 131.427 434.597
865 0 109.862 13.6079 1495 165.635 132.369 433.713
866 0 114.733 13.5881 1559 164.775 130.627 432.529
867 1 58.3778 12.8645 751 164.499 129.802 459.35
868 0 61.4993 12.8782 792 162.457 129.364 457.819
869 0 63.2617 12.8198 811 156.115 129.756 457.953
870 0 67.2172 12.5712 845 156.734 130.013 456.694
871 0 69.3199 12.8102 888 153.823 129.102 453.172
872 0 71.518 13.0596 934 159.602 129.91 453.212
873 0 74.4183 12.8194 954 161.928 130.613 452.117
874 0 75.591 13.3482 1009 161.904 130.249 451.278
875 0 77.5466 13.0115 1009 162.562 130.097 449.887
876 0 80.4951 13.9139 1120 160.312 130.26 447.928
877 0 83.483 13.0805 1092 162.41 130.402 447.832
878 0 84.4829 13.3518 1128 157.197 130.367 447.533
879 0 88.4481 13.149 1163 161.26 129.926 445.763
880 0 91.3124 13.2293 1208 156.709 130.011 443.472
881 0 94.5202 14.6424 1384 152.701 130.29 441.598
882 0 97.4177 13.3959 1305 155.582 130.481 442.383
883 0 99.4588 13.0909 1302 163.772 130.532 441.99
884 0 102.276 13.2778 1358 163.289 130.534 439.823
885 0 104.391 13.5069 1410 157.391 130.896 439.613
886 0 107.575 12.9677 1395 163.631 130.276 437.91
887 0 113.328 13.7918 1563 155.019 130.98 434.512
888 0 116.462 13.0686 1522 166.575 130.857 434.57
889 1 65.1135 12.2402 797 146.286 131.432 460.349
890 0 67.1985 12.1729 818 151.867 132.918 459.634
891 0 68.4091 12.6007 862 145.92 132.812 459.06
892 0 70.2849 12.0936 850 151.881 132.579 458.564
893 0 72.2387 12.5141 904 153.981 132.175 456.374
894 0 76.1882 12.351 941 147.637 133.032 454.86
895 0 78.3252 12.4864 978 154.788 133.188 454.045
896 0 81.3162 12.7281 1035 150.144 132.968 452.081
897 0 82.1835 12.971 1066 148.699 133.132 451.287
898 0 86.2308 12.6405 1090 144.593 132.377 449.658
899 0 88.238 12.8969 1138 148.994 131.557 448.053
900 0 91.1646 12.812 1168 142.824 132.225 445.454
901 0 95.4003 12.7777 1219 145.605 131.943 445.121
902 1 54.1616 10.1179 548 142.854 131.084 466.714
903 0 55.2143 10.9573 605 149.271 131.041 464.205
904 0 56.0973 11.284 633 147.104 131.188 464.507
905 0 59.194 11.6228 688 148.02 131.206 462.597
906 0 62.0931 12.0303 747 138.268 131.28 461.238
907 0 63.1211 12.3255 778 140.911 131.36 459.968
908 0 63.1396 12.8762 813 131.444 131.695 458.49
909 0 67.146 11.8101 793 131.937 131.514 457.953
910 0 68.181 12.0855 824 135.13 131.536 457.403
911 0 72.1429 12.2257 882 136.744 131.694 455.645
912 0 73.2464 12.3556 905 137.096 132.211 454.45
913 0 77.2196 12.1213 936 144.017 132.272 453.391
914 0 79.2476 12.4042 983 146.086 131.83 452.367
915 0 80.2359 12.5505 1007 143.953 132.772 450.291
916 0 84.2153 11.8624 999 138.829 132.738 449.622
917 0 88.3179 12.3418 1090 141.027 132.449 448.944
918 1 48.1201 10.4115 501 143.473 131.639 468.028
919 0 49.1521 10.2132 502 146.94 131.496 468.398
920 0 52.1348 10.2427 534 143.41 131.519 467.618
921 0 53.1501 10.8184 575 143.922 131.91 467.045
922 0 54.2261 11.5627 627 143.123 132.442 465.161
923 0 57.268 11.9613 685 144.879 132.619 464.239
924 0 56.3608 12.3313 695 141.289 132.649 464.01
925 0 60.3172 12.0032 724 151.934 132.823 463.523
926 0 59.2654 12.6212 748 144.44 132.826 461.524
927 0 62.2476 12.5949 784 145.838 132.065 459.981
928 0 65.4916 12.5818 824 145.657 132.911 459.022
929 0 68.411 12.1764 833 144.951 132.983 457.962
930 0 70.2567 12.5255 880 140.741 133.422 456.29
931 0 69.3164 12.6665 878 127.523 133.023 456.29
932 0 74.2307 12.3399 916 141.253 132.895 454.718
933 0 75.2408 13.0249 980 137.171 133.219 453.751
934 0 78.3498 12.7122 996 139.109 132.645 451.883
935 0 80.3201 12.5871 1011 128.388 132.885 449.333
936 0 85.493 12.773 1092 136.892 132.749 447.86
937 0 86.4003 12.8588 1111 134.128 132.894 446.626
938 0 88.2594 12.7465 1125 134.931 132.646 446.378
939 0 93.3775 13.6328 1273 120.569 132.859 443.793
940 1 50.1674 11.2623 565 139.473 131.565 466.076
941 0 51.1553 10.8884 557 146.242 131.135 464.092
942 0 53.2057 11.3522 604 144.699 131.074 464.411
943 0 55.2109 12.1353 670 143.178 131.755 463.107
944 0 56.11 12.4577 699 140.047 132.268 462.524
945 0 58.3209 12.3969 723 138.112 132.645 462.549
946 0 61.254 12.2931 753 145.29 132.12 462.511
947 0 62.0712 12.8884 800 146.475 130.785 460.224
948 0 62.0511 12.9732 805 146.591 130.27 459.112
949 0 64.0966 13.0584 837 149.191 130.744 458.811
950 0 68.0906 13.0855 891 152.135 131.276 458.118
951 0 70.0407 12.7212 891 150.923 131.101 457.168
952 0 72.0932 12.9555 934 150.464 130.814 455.23
953 0 74.0631 13.4615 997 140.923 131.523 455.418
954 0 77.0687 13.4036 1033 146.482 131.555 453.354
955 0 82.0524 14.3932 1181 144.743 131.704 450.892
956 0 82.1868 13.5667 1115 153.874 131.824 451.52
957 0 84.1537 13.2733 1117 149.635 131.799 448.129
958 0 86.0661 13.6174 1172 151.67 131.84 450.189
959 0 90.1171 13.2827 1197 148.14 132.492 448.649
960 0 91.0881 13.3717 1218 157.695 132.594 447.527
961 0 94.3309 13.3996 1264 151.368 133.718 445.844
962 0 98.2044 13.4312 1319 153.263 133.338 443.681
963 1 52.0514 11.7768 613 159.153 132.263 466.806
964 0 52.1236 13.1994 688 154.868 134.689 465.898
965 0 56.0786 12.7321 714 155.714 134.688 465.021
966 0 55.1028 13.012 717 157.798 133.234 464.623
967 0 59.244 12.9465 767 155.413 133.304 464.196
968 0 60.1464 12.9019 776 154.42 133.67 462.943
969 0 62.2222 13.2268 823 157.475 133.835 462.366
970 0 65.3211 13.1504 859 149.173 134.249 458.758
971 0 67.2056 12.5882 846 156.392 134.541 458.325
972 0 69.2166 12.7137 880 155.647 134.151 457.967
973 0 71.2128 13.0454 929 151.555 134.489 456.32
974 0 73.0941 13.3253 974 146.463 135.058 454.962
975 0 76.1518 12.6195 961 155.16 135.02 454.947
976 0 78.2224 12.7329 996 155.834 134.191 453.642
977 0 81.1148 12.8953 1046 154.413 133.457 452.439
978 0 84.1733 13.0564 1099 150.568 133.954 450.748
979 0 87.1003 12.8358 1118 149.268 133.474 448.977
980 0 89.1392 12.8451 1145 145.07 133.08 448.427
981 0 92.1917 13.0164 1200 156.593 133.441 445.771
982 0 92.2953 13.1101 1210 158.721 134.36 446.574
983 0 98.2657 12.9648 1274 149.88 134.484 444.014
984 0 100.346 13.3638 1341 145.142 135.006 441.534
985 0 104.36 12.9647 1353 151.928 134.382 440.523
986 1 53.3425 11.6417 621 158.271 134.718 466.147
987 0 54.3212 12.1315 659 150.833 134.425 464.763
988 0 56.1682 12.516 703 150.154 135.492 463.218
989 0 57.2671 12.4155 711 146.377 134.66 461.589
990 0 59.2022 12.8205 759 146.087 133.045 461.497
991 0 61.2213 12.267 751 149.364 132.589 461.433
992 0 64.2313 12.237 786 147.664 133.265 460.059
993 0 66.1607 12.6661 838 150.171 133.841 459.388
994 0 67.1604 12.7456 856 143.583 133.172 457.881
995 0 71.2786 12.8229 914 151.798 133.17 456.802
996 0 73.2183 13.0432 955 144.987 132.444 454.907
997 0 77.2028 12.8493 992 149.933 132.496 453.668
998 0 79.2353 12.7973 1014 146.884 132.349 452.47
999 0 82.2634 12.9584 1066 155.236 132.661 452.006
1000 0 84.5056 13.0524 1103 148.083 132.369 449.496
1001 0 87.3478 12.7651 1115 101.048 132.111 449.057
1002 0 90.2265 12.9784 1171 147.272 133.882 446.141
1003 0 93.2341 12.9566 1208 154.203 133.906 442.902
1004 0 93.2616 13.5533 1264 148.07 134.084 435.29
1005 1 50.1333 11.0106 552 150.505 134.835 458.332
1006 0 50.2256 11.4882 577 151.468 134.821 460.712
1007 0 54.2241 11.8582 643 153.11 134.647 460.992
1008 0 55.0748 12.6011 694 145.878 134.618 461.663
1009 0 56.1158 12.9554 727 148.037 135.301 459.77
1010 0 57.291 12.8991 739 154.433 135.77 459.786
1011 0 60.1332 12.8215 771 155.922 136.434 460.09
1012 0 61.1577 12.7376 779 157.946 137.081 459.082
1013 0 61.1592 13.3913 819 160.646 137.107 456.44
1014 0 65.1486 12.7555 831 156.846 136.681 459.4
1015 0 67.1606 12.9242 868 152.629 135.317 458.262
1016 0 67.1133 13.142 882 158.679 136.553 458.107
1017 0 70.2141 12.9034 906 160.511 135.763 457.001
1018 0 72.2523 13.093 946 160.011 135.766 456.712
1019 0 74.1429 13.0559 968 152.267 135.86 453.269
1020 0 76.3124 13.2613 1012 149.388 136.345 454.064
1021 0 80.2215 12.7771 1025 151.495 134.452 452.789
1022 0 82.2393 13.0838 1076 145.994 134.405 450.42
1023 0 85.347 12.7128 1085 147.665 134.73 448.513
1024 0 87.3682 12.785 1117 145.683 134.517 447.148
1025 0 89.3368 12.7383 1138 153.887 134.615 445.689
1026 0 93.3506 12.9512 1209 141.163 134.591 441.253
1027 1 46.2322 11.3125 523 150.742 133.365 462.883
1028 0 49.2092 10.8923 536 144.756 133.356 462.599
1029 0 50.1829 12.0559 605 144.081 133.949 461.372
1030 0 53.0664 11.8531 629 141.176 134.38 464.347
1031 0 53.2981 12.1018 645 142.352 134.54 463.791
1032 0 55.2236 12.1868 673 136.936 134.287 462.759
1033 0 56.1689 12.3912 696 136.033 137.694 462.987
1034 0 59.2371 12.0532 714 137.924 135.459 461.134
1035 0 59.3176 12.4752 740 141.435 135.261 460.626
1036 0 62.2938 12.2163 761 138.104 134.712 459.18
1037 0 65.1687 12.4753 813 135.982 134.474 458.523
1038 0 65.3035 12.373 808 138.712 134.397 457.912
1039 0 67.309 12.138 817 136.07 134.223 456.255
1040 0 69.201 12.6299 874 122.501 133.85 455.265
1041 0 71.2837 12.3871 883 135.121 136.84 454.647
1042 0 75.2151 12.2316 920 142.129 135.767 453.536
1043 0 76.233 12.6061 961 136.231 135.864 452.056
1044 0 78.1874 12.5084 978 142.032 135.188 452.809
1045 0 81.2164 12.8792 1046 138.081 134.381 450.077
1046 0 83.559 12.6378 1056 127.375 134.549 448.799
1047 0 84.4449 12.671 1070 133.453 134.536 448.112
1048 0 89.3874 12.9213 1155 137.177 134.779 446.202
1049 1 48.387 9.7547 472 139.5 134.284 466.703
1050 0 49.4338 9.6088 475 137.472 134.945 466.234
1051 0 51.2319 10.1109 518 142.598 134.94 465.07
1052 0 52.2231 10.953 572 142.322 134.778 465.297
1053 0 54.2005 11.5128 624 138.42 135.638 463.43
1054 0 56.1172 11.8324 664 141.53 134.108 463.066
1055 0 58.4972 12.0006 702 140.114 133.41 459.415
1056 0 61.3911 12.2493 752 142.601 133.113 459.831
1057 0 62.2198 12.3755 770 147.895 131.851 459.205
1058 0 64.129 12.3813 794 149.466 132.514 458.049
1059 0 66.383 12.2019 810 151.014 132.168 456.731
1060 0 67.295 12.7201 856 149.126 132.639 455.963
1061 0 69.1736 12.765 883 153.629 133.724 456.941
1062 0 73.2824 12.3768 907 157.31 133.624 456.064
1063 0 75.3422 12.7817 963 158.051 133.457 454.873
1064 0 78.3315 12.6003 987 153.508 137.285 454.26
1065 0 78.4253 12.8275 1006 155.516 135.88 453.261
1066 0 83.4685 13.1666 1099 156.889 135.549 450.742
1067 0 85.3536 12.8993 1101 157.779 135.241 450.012
1068 0 87.4626 12.8626 1125 160.353 135.468 449.045
1069 0 90.3703 12.9799 1173 151.884 135.743 447.616
1070 0 93.5122 12.9288 1209 160.928 135.07 445.963
1071 0 98.5034 14.0706 1386 154.08 134.367 441.886
1072 1 52.3487 11.5189 603 158.982 134.713 466.942
1073 0 52.1836 12.2261 638 155.395 134.906 465.154
1074 0 54.2807 12.4354 675 153.296 134.641 465.332
1075 0 55.2713 12.7553 705 154.909 133.357 464.298
1076 0 56.25 12.7467 717 157.918 133.939 463.932
1077 0 58.1156 12.3375 717 151.427 133.678 463.563
1078 0 58.3956 12.9462 756 160.179 134.308 462.041
1079 0 60.2591 12.9607 781 158.475 134.105 461.723
1080 0 61.3192 12.8182 786 155.158 134.148 460.71
1081 0 63.2644 12.8192 811 161.741 134.101 460.863
1082 0 64.3626 13.0977 843 157.982 134.49 460.416
1083 0 68.2603 12.8186 875 161.943 134.454 458.326
1084 0 69.2505 13.4728 933 163.771 134.912 457.238
1085 0 71.3878 13.2095 943 154.726 134.385 457.244
1086 0 72.4162 13.6019 985 162.616 134.373 456.048
1087 0 77.6613 13.2498 1029 161.439 134.062 454.993
1088 0 79.4489 13.6566 1085 163.937 133.494 453.155
1089 0 81.474 13.2435 1079 165.599 133.445 451.377
1090 0 85.4622 13.6084 1163 159.109 133.31 449.893
1091 0 88.6287 13.4155 1189 161.246 133.88 447.226
1092 0 91.5112 13.3208 1219 160.98 133.527 444.804
1093 0 93.7523 13.3117 1248 166.077 133.845 445.492
1094 0 95.5981 13.2848 1270 170.606 134.328 445.094
1095 0 101.551 13.6484 1386 166.051 133.68 440.527
1096 0 102.636 14.0497 1442 167.531 133.448 439.187
1097 0 108.544 13.3586 1450 165.726 133.302 437.236
1098 0 110.589 13.3106 1472 166.932 133.331 435.857
1099 0 114.511 13.5708 1554 160.945 133.638 434.059
1100 1 57.4026 12.3339 708 155.264 133.551 462.123
1101 0 60.3051 12.6026 760 153.764 133.238 457.22
1102 0 63.1466 13.7933 871 156.281 134.743 461.04
1103 0 65.2646 12.886 841 159.485 134.364 460.916
1104 0 66.3386 13.0693 867 157.426 134.379 458.653
1105 0 70.267 12.7371 895 147.735 134.371 457.558
1106 0 72.3554 13.254 959 151.077 134.047 456.659
1107 0 75.2699 13.5911 1023 154.625 133.418 455.615
1108 0 76.4904 13.1781 1008 155.388 133.541 454.66
1109 0 77.2472 13.1008 1012 156.881 133.544 453.183
1110 0 82.3055 13.2798 1093 153.381 133.807 450.951
1111 0 83.36 13.6037 1134 155.228 133.675 449.213
1112 0 87.38 12.8634 1124 156.876 133.657 448.56
1113 0 90.3892 13.2981 1202 151.29 133.432 446.465
1114 0 94.5012 12.6771 1198 156.447 133.587 444.485
1115 0 96.626 13.0503 1261 155.83 133.768 441.863
1116 0 100.559 13.0073 1308 156.096 133.466 441.463
1117 0 103.42 13.305 1376 158.831 133.124 439.175
1118 1 55.4747 12.2038 677 152.235 133.006 461.285
1119 0 57.2086 12.603 721 141.036 134.133 462.859
1120 0 59.1387 12.513 740 154.166 134.064 463.241
1121 0 62.1462 11.8591 737 155.554 133.52 461.769
1122 0 64.3813 12.0377 775 145.375 133.285 460.165
1123 0 66.3235 12.1978 809 157.994 134.083 457.41
1124 0 67.3795 12.9565 873 152.092 134.021 457.727
1125 0 69.3115 12.754 884 151.498 134.202 455.772
1126 0 72.2984 12.8495 929 158.52 133.834 454.808
1127 0 75.3814 12.5097 943 151.617 132.962 453.963
1128 0 75.5472 12.8926 974 152.172 132.758 452.611
1129 0 80.3655 12.8787 1035 152.164 132.475 451.229
1130 0 83.3523 12.5251 1044 154.152 132.394 450.934
1131 0 85.4909 12.7148 1087 157.056 133.162 447.895
1132 0 87.348 12.6734 1107 154.536 132.016 445.443
1133 0 91.4251 12.2723 1122 159.568 132.234 443.499
1134 1 50.2257 11.3089 568 155.746 133.334 466.151
1135 0 51.1308 11.4021 583 158.336 133.286 465.576
1136 0 52.1567 11.8297 617 157.006 132.856 464.423
1137 0 55.1317 12.2071 673 150.226 133.428 463.582
1138 0 55.0296 12.5569 691 150.67 130.857 463.301
1139 0 58.1295 12.0937 703 155.24 130.646 463.341
1140 0 61.1591 11.6091 710 154.004 130.492 461.777
1141 0 62.0851 12.2735 762 149.255 129.74 459.879
1142 0 62.1457 12.5029 777 152.477 130.295 458.727
1143 0 65.1502 12.5402 817 158.82 129.881 458.548
1144 0 68.1102 12.4504 848 156.439 129.921 456.475
1145 0 71.1375 12.3564 879 156.404 130.217 456.056
1146 0 73.0713 12.3441 902 158.004 130.11 454.191
1147 0 74.1393 12.9216 958 159.281 130.733 453.57
1148 0 75.0725 12.9875 975 160.437 130.319 452.766
1149 0 77.0658 13.2225 1019 154.366 129.836 450.007
1150 0 83.2003 12.9567 1078 158.855 130.097 449.957
1151 0 84.2559 12.8418 1082 147.14 130.053 446.001
1152 0 86.3133 13.115 1132 156.345 130.725 442.478
1153 0 89.3542 12.8366 1147 160.088 131.078 441.216
1154 0 94.2853 13.0137 1227 158.364 131.635 439.972
1155 0 96.3139 12.5942 1213 158.065 132.12 437.777
1156 0 98.34 12.8229 1261 158.833 132.431 437.515
1157 0 103.37 12.9342 1337 153.918 131.868 437.617
1158 0 105.258 13.0442 1373 151.92 131.73 438.155
1159 0 108.363 13.1779 1428 158.25 131.433 437.763
1160 0 111.407 13.0153 1450 154.883 131.706 434.86
1161 0 111.407 13.0153 1450 163.039 130.706 434.86
1162 1 59.0616 11.8182 698 145.812 131.033 461.109
1163 0 62.1112 11.8336 735 150.377 129.831 458.939
1164 0 65.0834 12.0461 784 136.652 130.11 458.398
1165 0 66.1004 11.8002 780 143.894 129.837 456.613
1166 0 67.1165 12.2474 822 143.498 129.961 454.875
1167 0 70.3224 12.1014 851 135.619 130.874 455.979
1168 0 72.1295 12.131 875 147.464 131.255 454.043
1169 0 75.3288 12.5317 944 151.07 131.406 452.517
1170 0 76.2583 12.7199 970 141.361 132.533 453.006
1171 0 79.1929 12.1602 963 147.236 132.455 450.661
1172 0 79.3519 12.7407 1011 141.542 132.431 449.677
1173 0 84.2932 12.6582 1067 146.395 132.36 448.109
1174 0 85.3223 12.5993 1075 147.595 132.007 447.335
1175 0 88.2905 12.6061 1113 146.739 132.464 445.996
1176 0 90.392 12.4347 1124 147.162 132.399 444.825
1177 0 93.6046 12.5421 1174 150.114 131.845 442.175
1178 0 96.7024 13.0297 1260 145.917 132.035 441.413
1179 0 99.6354 12.7866 1274 148.994 132.029 438.387
1180 0 103.461 12.8744 1332 144.84 131.973 436.128
1181 0 106.705 12.6798 1353 144.466 132.01 436.46
1182 0 107.725 12.959 1396 151.528 132.493 434.42
1183 0 111.6 13.0645 1458 146.893 132.104 433.012
1184 0 114.477 13.0768 1497 148.782 132.438 431.458
1185 0 119.724 12.7627 1528 144.561 132.124 430.641
1186 1 66.2734 11.181 741 144.718 132.877 456.534
1187 0 66.3054 11.8542 786 147.95 132.83 452.424
1188 0 69.421 12.1721 845 144.542 132.693 451.336
1189 0 72.4299 12.7572 924 143.404 133.392 453.774
1190 0 76.465 12.4371 951 155.582 133.1 452.544
1191 0 79.4141 12.6048 1001 146.626 134.057 451.5
1192 0 81.5898 12.3545 1008 151.759 133.392 450.492
1193 0 83.6112 12.8212 1072 153.132 132.851 449.114
1194 0 87.4979 12.6632 1108 148.128 133.94 447.355
1195 0 90.498 12.9174 1169 141.995 133.404 445.702
1196 0 90.498 12.9174 1169 168.228 132.404 445.702
1197 0 96.4835 12.7587 1231 141.985 133.3 439.739
1198 0 97.6358 12.8232 1252 147.965 132.895 435.973
1199 0 101.451 12.952 1314 70.5533 132.612 435.557
1200 0 104.486 13.083 1367 145.584 132.432 433.572
1201 0 109.451 13.4399 1471 145.647 132.984 431.754
1202 1 58.1293 11.1992 651 144.054 134.189 457.462
1203 0 62.467 12.2625 766 141.035 134.004 459.396
1204 0 63.1078 11.9953 757 142.958 133.314 458.931
1205 0 64.218 12.115 778 147.402 131.647 457.594
1206 0 64.3946 12.4545 802 147.279 131.882 456.431
1207 0 67.3964 12.4042 836 147.67 132.187 455.754
1208 0 68.474 13.0414 893 147.367 132.12 454.499
1209 0 72.2288 12.5989 910 147.916 132.312 453.735
1210 0 74.2773 12.7899 950 151.331 131.809 452.205
1211 0 75.1788 13.2351 995 149.148 131.567 451.629
1212 0 77.2631 13.0075 1005 153.152 132.053 450.733
1213 0 79.2527 13.2614 1051 151.971 131.567 449.497
1214 0 82.1367 12.9905 1067 153.3 131.989 448.406
1215 0 86.1867 13.2155 1139 148.249 132.361 445.955
1216 0 88.2645 12.8477 1134 142.055 132.394 446.53
1217 0 89.2742 13.0273 1163 151.553 132.58 445.143
1218 1 49.0356 11.3591 557 158.413 132.052 464.465
1219 0 51.0658 11.2404 574 146.226 131.805 464.286
1220 0 51.0686 11.9447 610 149.825 131.518 463.1
1221 0 54.2305 12.41 673 145.798 132.056 462.18
1222 0 56.2092 12.0977 680 144.653 131.587 461.791
1223 0 57.1874 12.3804 708 149.521 132.453 461.395
1224 0 58.262 12.7699 744 144.321 132.511 459.978
1225 0 59.2682 12.9749 769 148.105 132.603 458.791
1226 0 62.1357 12.7141 790 148.447 132.78 457.846
1227 0 63.221 13.0811 827 141.322 133.457 457.579
1228 0 64.1547 13.483 865 143.51 132.378 456.985
1229 0 66.0933 13.6474 902 139.196 132.635 456.905
1230 0 67.2172 13.7019 921 140.116 132.991 454.672
1231 0 68.3458 13.5634 927 144.685 133.97 455.316
1232 0 71.4635 13.4054 958 143.88 133.767 453.553
1233 0 73.1777 13.8977 1017 143.855 133.761 452.027
1234 0 76.3164 13.7192 1047 137.7 133.938 450.529
1235 0 78.2271 13.3202 1042 143.061 134.269 450.072
1236 0 79.4116 13.7511 1092 144.218 133.954 449.152
1237 0 82.3965 13.4957 1112 145.329 133.511 446.728
1238 0 84.5905 13.3703 1131 146.617 133.572 446.063
1239 0 85.5634 13.4754 1153 143.425 133.642 444.406
1240 0 89.5868 13.5734 1216 130.731 133.816 442.787
1241 0 92.5344 13.6814 1266 136.523 133.666 440.941
1242 0 95.4598 13.325 1272 139.763 134.037 440.384
1243 0 98.4617 13.8429 1363 140.657 134.542 437.062
1244 0 102.279 13.9129 1423 140.94 133.646 435.264
1245 0 104.196 13.5609 1413 142.958 133.617 436.28
1246 1 59.1651 11.9327 706 147.286 133.251 459.13
1247 0 60.0746 12.8673 773 146.668 133.08 458.814
1248 0 62.3607 12.9408 807 142.646 133.53 458.017
1249 0 64.1313 13.0046 834 146.825 133.517 457.595
1250 0 66.2065 12.8688 852 146.178 133.427 455.671
1251 0 67.2109 13.7478 924 144.799 133.82 455.562
1252 0 71.0874 13.406 953 145.735 133.705 454.882
1253 0 74.158 13.3903 993 147.54 133.603 452.647
1254 0 76.3012 13.7744 1051 138.889 134.326 451.154
1255 0 77.3068 13.7633 1064 149.728 135.199 449.652
1256 0 81.1909 13.6838 1111 144.615 136.327 447.162
1257 0 83.1625 13.648 1135 143.367 135.329 446.043
1258 0 86.5316 13.7291 1188 145.581 134.611 444.388
1259 0 88.4583 13.9953 1238 145.722 135.462 442.931
1260 0 90.4864 13.7921 1248 146.381 134.109 441.213
1261 0 93.2269 13.687 1276 149.75 134.338 440.837
1262 0 97.3048 13.5553 1319 152.643 134.176 439.854
1263 0 102.221 13.6273 1393 151.593 134.173 438.457
1264 1 57.3074 11.9705 686 146.286 133.312 460.687
1265 0 58.1128 12.665 736 150.698 133.776 459.677
1266 0 61.0897 12.5062 764 142.26 132.589 458.564
1267 0 62.0542 13.1015 813 145.533 133.069 458.518
1268 0 63.1314 12.8621 812 146.554 133.493 456.671
1269 0 65.05 13.0515 849 146.859 133.388 455.741
1270 0 67.0944 13.3245 894 137.858 133.034 453.983
1271 0 68.0624 13.4876 918 146.109 134.084 453.733
1272 0 69.0681 13.2623 916 147.65 133.804 453.299
1273 0 73.0949 13.2567 969 145.436 133.986 451.753
1274 0 75.102 13.3685 1004 144.615 134.098 450.698
1275 0 77.0875 13.3095 1026 146.075 133.961 450.17
1276 0 80.1081 13.2446 1061 145.041 133.573 447.874
1277 0 82.088 13.3637 1097 149.837 134.802 447.501
1278 0 87.1856 13.2935 1159 145.148 134.125 445.761
1279 0 89.2709 13.3974 1196 150.934 134.54 444.035
1280 0 92.2546 13.4953 1245 150.755 134.265 440.279
1281 0 96.2303 13.4365 1293 141.074 134.195 439.623
1282 0 99.1751 13.1787 1307 147.3 135.077 438.018
1283 1 52.0672 11.9845 624 152.982 134.628 459.446
1284 0 56.1832 12.6016 708 143.037 132.888 460.815
1285 0 56.2386 12.9271 727 150.942 132.927 460.62
1286 0 59.2732 13.1257 778 143.272 132.485 459.107
1287 0 61.1914 13.0574 799 146.685 132.521 458.338
1288 0 60.1301 13.3876 805 143.017 132.395 457.991
1289 0 64.1682 13.1841 846 146.966 133.453 456.982
1290 0 65.1811 13.4548 877 147.086 133.356 455.195
1291 0 67.1 13.6513 916 149.663 133.251 454.611
1292 0 69.1942 13.6572 945 147.782 133.377 453.423
1293 0 71.2091 13.5938 968 148.625 133.534 453.058
1294 0 74.3528 13.8798 1032 151.789 133.193 451.528
1295 0 75.3532 13.6955 1032 154.605 133.241 450.425
1296 0 79.3022 13.5053 1071 151.05 133.669 449.858
1297 0 81.2813 13.8285 1124 146.227 134 447.717
1298 0 83.4248 13.8208 1153 147.843 133.544 445.367
1299 0 87.4366 13.5641 1186 150.068 133.059 445.083
1300 0 89.444 13.6398 1220 151.523 133.618 442.811
1301 0 92.3643 13.6849 1264 156.622 133.62 442.082
1302 0 94.751 13.4458 1274 155.506 134.55 440.118
1303 0 98.646 13.5231 1334 153.208 134.811 438.094
1304 1 56.5648 12.11 685 156.436 133.793 458.831
1305 0 58.1812 13.1486 765 150.911 133.218 458.614
1306 0 59.3391 13.4144 796 150.959 133.573 458.837
1307 0 60.1525 13.4159 807 146.622 134.126 458.605
1308 0 62.2489 13.4942 840 148.371 133.977 458.24
1309 0 64.4359 13.3311 859 149.753 133.591 456.042
1310 0 66.2727 13.6557 905 151.899 133.992 454.597
1311 0 67.4161 14.0026 944 152.176 134.076 451.756
1312 0 69.3151 13.6045 943 151.481 134.115 451.585
1313 0 73.4545 13.6411 1002 137.687 134.495 448.77
1314 0 75.6761 13.6635 1034 141.174 134.657 448.118
1315 0 77.2796 13.7682 1064 145.189 134.842 448.188
1316 0 79.2611 13.9034 1102 146.23 134.537 446.534
1317 0 82.5656 13.5165 1116 141.139 134.323 444.985
1318 0 85.2816 14.0241 1196 143.933 134.027 443.51
1319 0 88.3486 13.9108 1229 143.566 135.018 442.203
1320 0 91.4725 14.0479 1285 143.114 134.38 441.557
1321 0 92.4658 14.1782 1311 142.098 134.834 439.321
1322 0 98.4735 14.1256 1391 145.611 134.533 435.296
1323 0 100.482 14.2115 1428 141.275 134.531 434.326
1324 0 103.744 13.649 1416 144.209 134.948 433.761
1325 0 108.65 14.4132 1566 141.79 134.742 429.999
1326 0 113.811 13.9266 1585 143.477 133.982 429.078
1327 0 115.621 14.3573 1660 144.881 134.767 426.801
1328 1 63.3488 12.8495 814 147.515 134.17 453.486
1329 0 66.1731 13.6309 902 147.03 134.181 452.662
1330 0 69.3504 13.6264 945 146.005 133.685 449.788
1331 0 72.5084 13.2398 960 143.755 134.416 447.319
1332 0 75.4924 13.5643 1024 138.489 134.403 445.879
1333 0 77.4129 13.4861 1044 141.648 134.562 444.889
1334 0 79.4329 13.6593 1085 146.807 134.937 443.65
1335 0 83.3116 13.3715 1114 143.874 134.329 442.511
1336 0 86.4805 13.7372 1188 143.578 134.359 442.137
1337 0 87.3669 13.9412 1218 140.154 134.543 440.66
1338 0 91.5277 13.7773 1261 141.174 135.137 440.109
1339 0 92.4474 14.3866 1330 138.069 135.15 438.793
1340 0 95.4752 14.0874 1345 139.497 135.015 435.538
1341 0 100.408 13.7339 1379 145.08 135.276 434.873
1342 0 103.456 13.8223 1430 143.244 134.836 434.077
1343 0 106.425 13.7185 1460 145.721 134.375 432.225
1344 0 108.354 13.8712 1503 148.814 134.73 431.877
1345 0 111.481 14.1997 1583 138.31 134.486 428.824
1346 0 115.338 14.4011 1661 139.951 135.024 426.298
1347 1 65.2722 12.3023 803 146.87 135.598 452.484
1348 0 66.2078 13.0649 865 137.177 136.231 451.629
1349 0 69.5968 13.3483 929 138.208 134.91 450.41
1350 0 70.4818 13.5638 956 149.518 135.396 449.409
1351 0 74.4002 13.3333 992 147.158 135.094 449.487
1352 0 73.5009 13.6733 1005 146.174 135.079 449.704
1353 0 77.5533 13.4875 1046 141.467 134.777 447.173
1354 0 80.4297 13.9376 1121 17.4915 134.54 447.112
1355 0 82.4971 13.6247 1124 147.72 134.617 444.91
1356 0 84.6399 13.6933 1159 148.751 134.613 444.53
1357 0 86.8449 13.622 1183 145.372 134.502 443.423
1358 0 90.5347 13.6522 1236 149.749 134.943 442.765
1359 0 91.5276 13.7663 1260 149.598 135.04 440.965
1360 0 95.5377 13.7851 1317 149.684 135.386 437.561
1361 0 99.6051 13.8848 1383 150.473 134.539 436.403
1362 0 102.636 13.4845 1384 150.417 135.58 434.457
1363 0 105.305 13.4752 1419 152.88 136.355 433.215
1364 0 108.627 13.6154 1479 149.695 135.73 432.204
1365 1 61.5942 13.0045 801 147.603 135.337 455.079
1366 0 63.4733 13.1551 835 153.043 135.447 455.769
1367 0 66.2774 13.4888 894 149.346 135.375 454.219
1368 0 68.5403 12.7516 874 151.839 135.786 453.307
1369 0 70.5925 13.1175 926 152.033 135.408 451.895
1370 0 73.8218 13.1804 973 147.503 135.727 449.638
1371 0 76.4878 13.7538 1052 145.482 135.866 449.223
1372 0 77.837 13.6054 1059 148.468 136.662 446.319
1373 0 80.7698 13.458 1087 140.839 136.607 445.234
1374 0 82.5462 13.4591 1111 147.737 136.388 444.714
1375 0 82.8492 13.5427 1122 146.533 136.373 443.44
1376 0 88.8479 13.9114 1236 146.325 136.883 440.928
1377 0 91.7366 13.6151 1249 138.813 136.477 439.731
1378 0 93.8256 13.7169 1287 143.901 136.62 439.151
1379 0 96.6368 13.5249 1307 149.244 136.626 438.451
1380 0 99.9174 13.6813 1367 138.99 136.123 435.809
1381 0 100.725 13.7305 1383 146.866 136.174 435.099
1382 0 105.755 13.4178 1419 146.92 136.371 434.166
1383 0 107.953 13.8394 1494 145.845 136.699 431.77
1384 0 112.718 13.4051 1511 141.804 137.075 428.819
1385 0 117.792 13.2352 1559 142.747 136.647 428.38
1386 1 60.8652 12.0759 735 151.961 136.237 454.717
1387 0 63.7707 12.7018 810 145.267 136.301 453.64
1388 0 65.9082 12.9271 852 141.396 136.246 452.763
1389 0 68.825 13.4253 924 133.853 136.716 450.994
1390 0 71.6415 13.5536 971 142.891 136.872 449.243
1391 0 73.9012 12.8956 953 142.895 136.952 447.95
1392 0 75.6297 13.4868 1020 138.682 136.936 445.778
1393 0 77.4747 13.8755 1075 142.262 136.776 445.649
1394 0 78.7925 13.5292 1066 133.518 136.309 443.634
1395 0 82.4816 13.4575 1110 142.848 136.888 443.532
1396 0 85.6416 13.1712 1128 141.708 136.73 442.154
1397 0 88.6616 13.1286 1164 130.25 137.21 439.172
1398 0 93.5818 13.9343 1304 141.738 137.048 440.031
1399 0 94.5039 13.7137 1296 144.648 136.461 437.832
1400 0 99.5024 13.7685 1370 145.234 136.652 436.702
1401 0 101.601 13.9762 1420 144.304 136.668 434.982
1402 0 105.445 13.8461 1460 137.921 136.658 433.293
1403 0 107.544 13.455 1447 127.473 136.626 430.748
1404 0 110.665 13.0394 1443 134.114 136.666 429.158
1405 0 114.74 12.951 1486 128.702 135.834 426.042
1406 0 119.474 13.8189 1651 152.428 136.781 428.122
1407 1 67.3532 12.3676 833 153.545 137.155 453.637
1408 0 68.3158 13.0131 889 156.021 136.871 452.135
1409 0 71.1871 13.2187 941 146.542 136.312 452.879
1410 0 73.2485 13.0242 954 145.256 135.638 450.61
1411 0 76.1925 12.849 979 138.782 134.994 449.061
1412 0 78.2529 12.8557 1006 135.682 135.477 447.238
1413 0 80.1483 13.0009 1042 145.97 135.332 447.187
1414 0 84.2008 13.1471 1107 151.081 135.701 446.159
1415 0 87.2402 13.3081 1161 145.693 134.742 444.795
1416 0 89.1703 13.4798 1202 148.73 133.993 442.932
1417 0 92.3128 13.2593 1224 155.784 134.1 441.932
1418 0 94.2058 13.513 1273 156.354 134.921 440.025
1419 0 98.381 13.7222 1350 154.009 135.112 439.27
1420 0 99.3169 13.764 1367 155.982 134.241 437.799
1421 0 104.308 13.9395 1454 154.62 134.777 436.715
1422 0 106.492 13.6348 1452 157.332 134.118 434.532
1423 0 110.383 13.725 1515 156.747 134.886 433.273
1424 0 114.452 13.6651 1564 158.143 135.086 431.972
1425 0 117.31 13.4345 1576 158.728 134.306 431.069
1426 0 120.254 13.5546 1630 159.067 134.473 428.921
1427 0 122.337 14.0922 1724 152.321 133.483 427.231
1428 1 69.2004 10.578 732 150.489 132.826 455.667
1429 0 72.1894 11.4283 825 142.36 132.39 453.828
1430 0 72.2323 11.8368 855 143.419 132.421 452.303
1431 0 75.2543 11.3349 853 147.505 132.325 452.181
1432 0 80.2458 11.5894 930 144 132.018 450.163
1433 0 81.2732 11.4429 930 145.36 132.206 448.575
1434 0 85.3273 11.2156 957 144.94 131.273 446.434
1435 0 86.2633 11.3606 980 141.737 131.167 445.957
1436 0 90.199 11.397 1028 143.486 130.849 443.887
1437 0 92.3192 11.2869 1042 145.662 131.721 441.604
1438 0 97.3558 11.3193 1102 144.677 131.273 439.988
1439 0 97.2882 11.5327 1122 148.43 131.547 438.895
1440 0 102.351 11.3824 1165 143.467 132.041 436.908
1441 0 104.465 11.6307 1215 141.504 131.193 435.245
1442 0 107.281 11.5025 1234 143.174 132.785 434.287
1443 0 111.27 11.6024 1291 135.642 131.34 433.804
1444 0 115.304 11.5694 1334 138.117 131.35 432.191
1445 1 67.178 8.58912 577 129.437 131.399 458.551
1446 0 68.2488 9.3335 637 132.796 131.984 457.144
1447 0 71.1826 10.0165 713 129.541 132.415 455.996
1448 0 72.322 10.1491 734 134.287 131.876 453.958
1449 0 74.2649 10.4356 775 133.146 132.348 453.194
1450 0 74.2021 10.8488 805 133.68 130.829 452.472
1451 0 77.3003 10.7503 831 137.746 131.454 450.797
1452 0 80.3051 10.9084 876 141.396 131.998 450.054
1453 0 81.3534 10.903 887 143.154 131.766 449.303
1454 0 83.4425 10.7979 901 141.655 131.751 448.398
1455 0 86.4422 10.9669 948 138.672 132.007 446.36
1456 0 87.4056 11.1892 978 144.432 131.474 445.116
1457 0 89.4106 11.3633 1016 141.476 131.406 444.015
1458 0 91.346 11.4948 1050 144.028 131.801 442.054
1459 0 94.481 11.7378 1109 142.216 131.341 440.364
1460 0 97.4376 11.4022 1111 131.737 131.761 440.178
1461 0 99.3609 11.7753 1170 146.023 131.58 438.754
1462 0 102.596 11.5794 1188 148.226 131.784 436.349
1463 0 106.491 11.6724 1243 144.285 132.15 435.101
1464 0 108.529 11.9231 1294 149.897 132.016 432.608
1465 0 111.55 12.0126 1340 142.504 132.501 430.512
1466 1 63.3144 10.1715 644 148.317 131.703 454.764
1467 0 66.3225 10.2831 682 147.61 132.974 454.99
1468 0 68.227 10.5823 722 151.83 133.622 454.59
1469 0 69.1056 11.4607 792 149.126 133.977 453.362
1470 0 72.2903 11.108 803 148.057 134.014 452.321
1471 0 73.3019 11.555 847 147.973 133.397 451.904
1472 0 74.2571 11.7968 876 146.098 133.691 450.743
1473 0 76.2364 11.7004 892 148.009 133.34 449.507
1474 0 78.2293 11.6964 915 142.984 134.139 449.164
1475 0 78.2624 12.062 944 140.405 133.711 445.328
1476 0 80.233 11.8779 953 145.28 133.746 444.92
1477 0 85.282 11.8665 1012 152.163 134.201 443.833
1478 0 86.2756 12.0544 1040 142.552 134.375 442.175
1479 0 88.1511 12.3084 1085 151.308 134.627 440.994
1480 0 92.2504 12.0541 1112 146.858 134.788 440.182
1481 0 95.2262 12.4125 1182 146.886 134.771 437.821
1482 0 99.1585 12.7775 1267 146.025 135.233 436.38
1483 0 101.342 12.7588 1293 146.218 135.394 436.899
1484 0 102.479 12.6855 1300 150.763 135.651 435.398
1485 0 104.498 13.0816 1367 149.688 136.159 426.951
1486 0 106.491 13.0903 1394 146.413 135.961 426.159
1487 0 108.74 13.2058 1436 150.743 135.945 426.258
1488 0 111.508 13.0305 1453 149.705 135.292 423.951
1489 1 61.2051 11.0285 675 146.243 134.901 450.646
1490 0 62.1021 11.5938 720 147.644 134.156 450.144
1491 0 67.2257 11.7068 787 146.213 132.812 452.999
1492 0 66.2713 12.0565 799 143.232 133.866 450.587
1493 0 69.3307 12.4909 866 141.888 134.346 452.367
1494 0 71.2591 12.1388 865 145.775 135.142 452.382
1495 0 74.2987 12.692 943 143.15 134.495 449.73
1496 0 75.1688 12.5318 942 144.307 134.202 449.909
1497 0 76.2025 12.7817 974 136.663 134.385 449.746
1498 0 79.1787 12.6802 1004 145.388 134.016 447.665
1499 0 83.2239 12.7728 1063 143.97 133.656 446.973
1500 0 82.2542 13.2273 1088 143.501 133.731 445.597
1501 0 84.3115 12.9638 1093 145.336 132.885 444.994
1502 0 87.1805 13.0419 1137 144.906 133.061 443.866
1503 0 92.3766 12.8171 1184 138.232 134.03 442.373
1504 0 93.205 13.2611 1236 141.32 134.573 441.736
1505 0 96.1736 13.0493 1255 141.889 133.828 440.955
1506 0 98.2408 13.3855 1315 145.223 133.698 439.321
1507 0 102.33 13.1242 1343 148.755 133.267 438.218
1508 0 105.311 13.1895 1389 146.096 133.49 436.097
1509 0 108.393 13.1004 1420 148.789 133.124 434.438
1510 0 111.327 12.8181 1427 149.692 133.357 433.154
1511 1 63.1696 10.5905 669 141.676 133.066 458.67
1512 0 65.1766 11.722 764 146.174 132.491 456.991
1513 0 65.2102 11.9153 777 137.555 132.712 455.632
1514 0 69.2289 12.2926 851 138.407 132.823 455.073
1515 0 71.2387 12.2265 871 140.445 132.014 453.431
1516 0 72.1507 12.2244 882 136.588 132.042 453.179
1517 0 77.4204 12.0123 930 131.91 131.992 451.955
1518 0 79.2253 12.4329 985 136.152 132.316 449.71
1519 0 81.3716 12.2647 998 136.066 131.682 449.064
1520 0 81.3336 12.4303 1011 136.576 131.838 448.635
1521 0 84.3192 12.7254 1073 136.357 131.652 447.674
1522 0 89.3969 12.4389 1112 138.639 131.647 446.593
1523 0 91.582 12.4151 1137 140.255 131.347 443.624
1524 0 94.31 12.7664 1204 137.794 131.802 443.248
1525 0 96.3964 13.0088 1254 139.804 131.565 440.918
1526 0 100.335 13.0363 1308 141.689 131.209 440.05
1527 0 103.301 12.817 1324 138.442 131.261 436.81
1528 0 106.693 12.7 1355 139.658 132.335 433.229
1529 0 109.581 13.3052 1458 139.532 131.565 433.512
1530 0 110.499 13.1584 1454 141.089 132.384 432.377
1531 0 114.59 13.4304 1539 138.426 132.691 430.231
1532 0 119.421 13.1803 1574 138.759 132.314 428.887
1533 0 122.582 13.0198 1596 142.058 132.315 427.207
1534 0 129.598 13.5804 1760 144.423 131.578 425.886
1535 0 133.895 13.4135 1796 150.521 131.77 424.225
1536 0 138.564 13.8564 1920 148.934 131.856 421.514
1537 0 140.57 13.744 1932 140.132 132.271 418.325
1538 1 77.3931 12.8435 994 146.766 132.457 440.612
1539 0 79.3389 12.6798 1006 139.714 132.294 439.281
1540 0 82.2548 13.0327 1072 142.771 131.989 441.26
1541 0 84.5154 13.181 1114 147.588 132.585 444.333
1542 0 86.4699 13.23 1144 145.399 132.375 447.248
1543 0 88.2674 13.4138 1184 146.359 132.291 447.267
1544 0 93.3723 13.2052 1233 140.177 132.104 445.9
1545 0 97.472 13.0704 1274 144.672 132.164 443.145
1546 0 99.4422 13.2238 1315 145.782 132.921 442.087
1547 0 103.54 13.4344 1391 139.775 132.91 440.313
1548 0 105.39 13.4927 1422 147.44 133.508 439.589
1549 0 109.411 13.2436 1449 147.513 133.627 437.086
1550 0 110.269 13.3945 1477 149.815 133.298 432.056
1551 0 114.233 13.4199 1533 150.548 133.839 430.982
1552 1 63.2791 12.0735 764 150.462 133.041 455.008
1553 0 66.4644 11.871 789 150.606 132.904 453.317
1554 0 65.3247 12.9966 849 152.353 133.111 452.746
1555 0 70.3539 12.4655 877 153.229 132.284 452.67
1556 0 72.2339 12.5703 908 146.293 132.26 450.87
1557 0 73.2447 12.9429 948 149.288 131.843 449.016
1558 0 76.3276 12.7739 975 144.049 132.559 447.41
1559 0 78.4789 13.0226 1022 149.77 132.776 446.596
1560 0 80.6968 13.0612 1054 144.55 133.112 445.019
1561 0 83.6532 13.0659 1093 143.535 133.321 443.441
1562 0 88.5012 12.8699 1139 141.252 133.421 441.369
1563 0 89.4676 12.7532 1141 144.092 133.781 439.201
1564 0 92.6908 12.9247 1198 132.644 134.103 436.866
1565 0 97.6505 12.5447 1225 142.78 133.543 436.838
1566 0 100.418 12.6471 1270 142.461 133.908 435.634
1567 0 104.433 12.4099 1296 139.427 133.385 434.863
1568 0 108.256 12.6921 1374 140.314 133.538 432.838
1569 1 61.1516 10.4004 636 139.127 133.44 453.909
1570 0 66.4694 10.6515 708 133.767 133.662 453.782
1571 0 68.3726 12.1394 830 133.306 134.945 453.559
1572 0 70.2898 11.6233 817 133.328 134.6 455.163
1573 0 72.1472 12.1418 876 128.011 134.22 452.925
1574 0 73.221 12.6057 923 131.348 134.003 452.15
1575 0 77.171 12.6861 979 131.277 133.645 451.073
1576 0 79.3036 12.6854 1006 130.814 134.039 449.476
1577 0 81.402 12.8621 1047 133.787 133.869 448.089
1578 0 83.3506 13.3172 1110 135.631 134.087 445.96
1579 0 85.3102 12.9879 1108 136.278 134.017 445.525
1580 0 88.3202 13.0321 1151 131.432 134.257 444.65
1581 0 89.338 13.1075 1171 132.87 133.781 442.726
1582 0 98.4308 14.6804 1445 126.325 134.78 436.995
1583 0 100.255 14.3533 1439 129.897 134.729 436.116
1584 0 101.529 12.9224 1312 137.923 134.732 437.38
1585 0 106.501 12.9389 1378 136.707 135.271 435.984
1586 0 108.523 13.0755 1419 134.826 135.512 433.574
1587 0 112.537 13.1779 1483 138.167 134.782 432.544
1588 1 62.3088 11.4109 711 132.878 135.211 457.284
1589 0 64.3691 11.9933 772 134.285 135.584 454.227
1590 0 65.1982 12.5924 821 134.816 134.341 455.938
1591 0 68.0654 12.7524 868 133.963 136.84 454.896
1592 0 71.1291 12.5968 896 139.047 137.092 452.05
1593 0 74.1848 12.7115 943 134.608 136.525 451.292
1594 0 75.1246 12.7388 957 135.184 136.242 450.548
1595 0 76.1783 13.0221 992 136.533 136.142 449.905
1596 0 77.0648 13.015 1003 136.172 134.615 450.779
1597 0 80.3763 13.4244 1079 131.471 134.568 449.283
1598 0 82.3607 13.0523 1075 140.019 134.212 447.66
1599 0 85.1516 13.0591 1112 136.888 134.175 446.266
1600 0 86.3076 13.4055 1157 139.981 134.541 444.439
1601 0 90.4247 13.4255 1214 134.274 134.493 442.955
1602 0 93.4257 13.1548 1229 135.858 134.268 439.926
1603 0 95.4771 13.553 1294 143.614 134.761 439.352
1604 0 100.408 13.5845 1364 139.244 134.806 438.479
1605 0 102.571 13.532 1388 147.719 135.14 435.717
1606 0 106.554 13.7583 1466 142.94 134.851 434.76
1607 0 109.659 13.5511 1486 148.422 134.378 432.141
1608 0 112.457 13.4451 1512 139.549 134.448 431.501
1609 0 116.569 13.537 1578 143.533 134.646 429.188
1610 0 119.531 13.6869 1636 149.128 134.675 426.776
1611 1 66.5227 11.9809 797 144.266 135.243 454.7
1612 0 69.4291 12.0699 838 138.448 134.733 454.259
1613 0 70.4493 12.6332 890 141.345 134.801 453.06
1614 0 73.1803 12.8587 941 139.92 135.077 452.747
1615 0 77.2852 12.6415 977 138.977 134.475 451.463
1616 0 78.4447 12.8881 1011 146.235 134.513 450.665
1617 0 80.436 13.1782 1060 143.413 134.278 448.816
1618 0 83.4578 13.0964 1093 144.949 134.403 447.859
1619 0 86.4625 13.1849 1140 144.118 133.712 445.515
1620 0 88.3408 13.3913 1183 141.052 133.45 446.096
1621 0 90.395 13.1202 1186 148.726 133.748 445.352
1622 0 92.4579 13.7252 1269 149.095 132.705 442.788
1623 0 96.3686 13.7804 1328 147.533 132.954 441.934
1624 0 99.585 13.2148 1316 143.603 133.612 440.604
1625 0 101.236 13.4932 1366 148.696 133.521 439.795
1626 0 105.368 13.3153 1403 149.54 132.881 438.324
1627 0 107.516 13.3283 1433 151.672 132.581 437.992
1628 0 111.347 13.3726 1489 153.508 131.915 436.156
1629 1 61.3118 11.3681 697 145.222 132.445 459.808
1630 0 64.1979 11.9942 770 147.127 132.261 458.948
1631 0 65.244 12.2463 799 150.969 131.986 459.294
1632 0 68.2451 12.7482 870 137.543 132.113 456.744
1633 0 69.1584 12.9702 897 149.47 132.397 456.085
1634 0 73.4376 12.7183 934 144.557 131.965 455.247
1635 0 75.3392 12.9017 972 141.966 132.621 453.234
1636 0 75.2674 13.2461 997 146.604 132.278 453.005
1637 0 78.2776 13.2222 1035 147.796 131.959 451.631
1638 0 80.1517 13.7739 1104 150.124 132.189 451.144
1639 0 83.6416 13.1633 1101 147.21 131.321 448.668
1640 0 86.5778 13.3984 1160 145.624 131.803 446.756
1641 0 88.4766 13.2577 1173 147.468 132.04 446.329
1642 0 91.5391 13.4806 1234 151.063 132.682 443.942
1643 0 94.5808 13.5545 1282 141.761 132.832 442.676
1644 0 96.3808 13.5193 1303 151.623 132.781 439.679
1645 0 100.392 13.7661 1382 149.658 132.459 437.693
1646 0 103.409 13.6739 1414 155.55 132.381 435.777
1647 0 105.45 13.6178 1436 153.632 132.106 433.192
1648 1 58.2431 12.2074 711 160.841 132.508 456.752
1649 0 60.1729 12.8962 776 150.661 132.238 457.534
1650 0 62.1439 13.1147 815 157.371 132.98 457.355
1651 0 65.1887 12.6402 824 156.775 133.237 456.403
1652 0 67.1224 13.0806 878 152.686 132.79 454.432
1653 0 68.4147 13.2866 909 117.892 132.946 452.987
1654 0 70.2771 13.1053 921 151.663 132.472 451.453
1655 0 73.5359 13.3948 985 161.442 132.927 450.13
1656 0 75.4068 13.4471 1014 158.173 132.797 449.14
1657 0 76.3354 13.5848 1037 151.615 132.751 448.558
1658 0 78.3756 13.295 1042 154.652 132.839 447.375
1659 0 82.5108 13.3801 1104 163.328 132.679 445.317
1660 0 85.4292 13.2507 1132 165.3 132.554 443.799
1661 0 87.7003 13.3979 1175 166.503 132.721 442.801
1662 0 91.6415 13.3564 1224 163.84 132.873 440.805
1663 0 93.4611 13.6741 1278 163.767 133.255 439.12
1664 0 94.8057 13.554 1285 164.696 133.589 437.606
1665 0 100.439 13.6202 1368 161.001 132.416 434.766
1666 0 102.483 13.8657 1421 156.407 133.427 434.177
1667 0 105.514 13.8938 1466 158.394 133.135 432.866
1668 0 107.354 14.1308 1517 160.929 133.291 431.887
1669 0 112.386 14.112 1586 156.183 133.535 429.808
1670 0 116.305 13.9461 1622 160.677 134.12 428.281
1671 0 121.333 14.2253 1726 157.672 134.032 425.648
1672 0 124.44 14.2397 1772 159.415 134.239 424.037
1673 0 130.32 14.1882 1849 160.123 134.692 421.224
1674 0 134.474 14.1738 1906 158.444 134.188 420.125
1675 1 72.1437 12.7939 923 152.299 133.837 449.303
1676 0 74.3805 13.0679 972 150.833 134.028 448.144
1677 0 77.2633 13.4346 1038 150.573 134.464 446.768
1678 0 78.2827 13.7961 1080 151.738 134.237 445.277
1679 0 81.2278 13.4806 1095 148.815 134.451 444.277
1680 0 83.22 13.7948 1148 151.594 134.323 443.61
1681 0 87.42 13.6468 1193 152.123 134.116 442.871
1682 0 91.2992 13.6913 1250 153.63 134.331 441.013
1683 0 94.2626 13.526 1275 151.565 134.469 440.784
1684 0 97.4749 13.6958 1335 149.388 134.622 437.755
1685 0 100.171 13.7764 1380 149.15 134.744 436.251
1686 0 104.119 13.3981 1395 152.811 134.503 435.141
1687 0 106.334 13.5517 1441 153.814 134.426 434.248
1688 0 110.25 13.6871 1509 144.612 134.185 432.36
1689 0 113.306 13.9093 1576 145.027 134.144 429.773
1690 0 119.229 13.7132 1635 141.315 133.739 427.841
1691 0 123.328 13.7519 1696 139.081 134.396 424.861
1692 0 124.456 13.7157 1707 143.905 134.11 422.637
1693 1 66.4466 11.498 764 141.745 134.542 452.767
1694 0 71.5092 11.8726 849 133.544 134.855 452.596
1695 0 73.3161 12.7666 936 136.042 133.846 452.797
1696 0 75.3458 12.874 970 135.641 134.254 451.928
1697 0 78.2855 12.7738 1000 139.057 133.571 450.97
1698 0 78.3114 13.1015 1026 142.384 133.428 450.181
1699 0 82.5023 12.436 1026 140.468 133.515 447.775
1700 0 85.4013 12.7281 1087 141.442 133.547 445.8
1701 0 87.3769 12.612 1102 133.162 133.776 444.99
1702 0 89.5374 12.9443 1159 130.357 133.3 444.094
1703 0 93.4562 12.9258 1208 132.379 133.513 442.248
1704 0 96.3583 12.9517 1248 134.538 133.171 441.845
1705 0 98.3696 12.453 1225 135.83 132.78 441.662
1706 0 99.3612 12.8622 1278 147.021 133.726 438.887
1707 0 103.408 12.6973 1313 150.104 133.188 438.124
1708 0 106.371 12.7572 1357 145.794 132.903 435.3
1709 0 109.403 12.687 1388 146.643 132.141 434.988
1710 1 65.1138 10.9654 714 148.347 131.716 458.507
1711 0 66.0746 11.2146 741 143.696 132.242 458.61
1712 0 68.0642 11.4157 777 139.387 133.19 456.641
1713 0 71.3131 11.8211 843 142.646 132.764 455.731
1714 0 73.271 11.8055 865 141.708 132.975 454.555
1715 0 75.1568 11.7887 886 146.999 132.9 453.374
1716 0 77.2562 12.3485 954 144.843 132.609 451.544
1717 0 81.2165 11.6479 946 140.351 131.758 450.944
1718 0 83.2207 12.1364 1010 139.226 132.414 449.625
1719 0 86.3313 12.0119 1037 144.595 132.382 448.802
1720 0 88.2269 12.1732 1074 144.953 131.696 448.327
1721 0 91.394 12.2656 1121 146.87 132.773 446.942
1722 0 93.3528 12.276 1146 141.675 132.867 445.383
1723 0 96.4353 12.5058 1206 145.318 131.42 444.719
1724 0 100.531 12.4738 1254 146.172 131.388 442.238
1725 1 56.3213 10.7064 603 145.512 131.315 464.657
1726 0 58.3358 11.3481 662 144.387 131.825 463.952
1727 0 61.1429 11.6612 713 148.724 131.445 462.453
1728 0 62.1662 11.791 733 137.055 131.885 462.044
1729 0 62.0767 12.0979 751 141.719 130.365 461.381
1730 0 63.0611 11.8615 748 143.349 129.846 460.5
1731 0 66.0593 11.8378 782 143.726 129.753 460.27
1732 0 69.0483 11.9337 824 143.851 130.459 458.586
1733 0 69.0596 12.5399 866 143.44 130.088 458.714
1734 0 71.0422 12.5981 895 144.177 129.943 457.906
1735 0 75.0833 12.4395 934 147.411 129.344 456.275
1736 0 78.0433 12.1855 951 143.31 129.647 456.039
1737 0 79.0276 12.793 1011 151.465 129.112 455.128
1738 0 81.2113 12.5968 1023 146.905 129.061 452.29
1739 0 83.1078 12.6101 1048 149.406 129.554 450.412
1740 0 84.1219 12.8742 1083 151.746 129.585 448.968
1741 0 87.1178 12.8102 1116 146.849 129.034 448.475
1742 0 89.0782 12.9998 1158 149.123 128.462 449.269
1743 0 91.0853 13.1196 1195 152.309 128.872 448.646
1744 0 93.1305 13.0462 1215 146.882 129.595 447.137
1745 0 97.1848 13.1296 1276 152.788 129.789 445.418
1746 0 99.253 12.7351 1264 153.735 129.565 444.619
1747 0 101.266 13.43 1360 157.929 129.622 443.31
1748 0 103.198 13.0526 1347 150.941 129.29 441.791
1749 0 106.234 13.122 1394 151.466 129.501 440.098
1750 0 109.312 13.4477 1470 158.446 130.182 438.563
1751 0 111.274 13.1657 1465 152.749 129.843 438.31
1752 0 116.141 13.2511 1539 161.033 131.155 436.452
1753 0 118.228 13.5247 1599 158.076 131.448 434.29
1754 0 119.299 12.9171 1541 157.059 131.896 431.83
1755 0 124.364 13.2996 1654 153.236 131.201 428.204
1756 0 128.275 13.4398 1724 155.788 131.474 426.661
1757 0 134.425 13.1003 1761 151.835 130.835 423.825
1758 0 137.417 13.1934 1813 150.713 130.291 421.251
1759 1 81.1952 11.7618 955 155.177 130.285 452.416
1760 0 84.145 12.4785 1050 149.31 131.661 450.069
1761 0 87.1341 13.1062 1142 142.222 131.19 447.177
1762 0 88.2093 12.5837 1110 150.863 130.955 446.887
1763 0 90.1796 12.6414 1140 138.157 130.625 445.297
1764 0 95.1544 12.4429 1184 144.48 130.571 443.117
1765 0 96.193 12.9323 1244 151.363 130.732 442.777
1766 0 103.17 13.8703 1431 149.484 131.556 440.347
1767 0 103.256 13.4521 1389 144.571 132.271 439.192
1768 0 108.404 13.2467 1436 154.132 132.026 438.719
1769 0 111.375 13.6655 1522 146.746 132.769 435.129
1770 0 114.402 13.4001 1533 154.005 132.472 434.704
1771 0 117.3 13.2225 1551 155.439 132.563 434.259
1772 0 120.282 13.6679 1644 153.931 132.722 432.352
1773 0 123.246 13.5258 1667 157.347 132.636 430.018
1774 0 128.361 13.4309 1724 156.464 132.968 429.111
1775 0 132.237 13.4985 1785 153.869 132.879 426.885
1776 0 135.318 13.5828 1838 149.802 133.078 424.267
1777 0 141.339 13.8461 1957 160.041 132.649 421.384
1778 0 145.401 13.4593 1957 161.137 133.158 420.234
1779 0 150.314 13.658 2053 157.461 132.485 416.855
1780 1 79.1634 12.6574 1002 159.69 131.45 451.483
1781 0 80.1469 13.7498 1102 165.277 131.17 451.211
1782 0 86.2343 13.1502 1134 155.175 131.51 449.272
1783 0 87.2247 13.1155 1144 162.226 131.398 447.537
1784 0 89.1257 13.5202 1205 162.797 132.492 447.734
1785 0 91.1838 13.4563 1227 161.104 132.92 446.592
1786 0 96.1309 13.2944 1278 165.369 133.046 444.848
1787 0 97.2152 13.4238 1305 153.301 133.386 444.594
1788 0 99.3369 13.7713 1368 162.335 133.558 442.678
1789 0 103.329 13.6844 1414 162.948 133.121 440.26
1790 0 105.344 13.736 1447 164.522 133.445 438.065
1791 0 108.331 13.9479 1511 162.148 133.768 436.017
1792 0 111.466 13.9146 1551 159.417 133.666 434.701
1793 0 114.427 14.0527 1608 161.266 133.144 433.182
1794 0 117.425 13.7534 1615 163.693 133.465 431.327
1795 0 119.218 14.1925 1692 162.871 132.856 429.918
1796 0 126.695 14.1126 1788 157.531 133.501 425.837
1797 0 130.719 14.0607 1838 150.927 133.058 422.595
1798 1 69.4183 12.7632 886 167.754 133.298 453.333
1799 0 70.4486 13.3714 942 161.188 133.107 452.359
1800 0 72.5076 13.2814 963 154.327 133.56 451.214
1801 0 77.5718 13.5359 1050 158.271 133.928 448.583
1802 0 80.5912 13.401 1080 157.729 133.396 447.651
1803 0 81.916 13.5261 1108 160.771 133.821 448.329
1804 0 84.5999 13.6289 1153 149.731 133.591 446.707
1805 0 88.7609 13.7335 1219 154.735 133.12 444.3
1806 0 91.5228 13.7561 1259 149.866 132.406 443.65
1807 0 94.5631 13.8109 1306 162.789 133.149 442.02
1808 0 95.481 14.2332 1359 161.398 132.92 440.511
1809 0 99.4932 14.1115 1404 157.002 133.295 439.585
1810 0 101.568 14.0005 1422 161.634 132.925 438.968
1811 0 103.621 14.0898 1460 161.394 132.936 438.397
1812 0 108.457 14.0148 1520 163.42 132.786 437.406
1813 0 112.562 14.1167 1589 164.606 132.921 435.027
1814 0 112.517 14.3623 1616 162.845 133.084 433.092
1815 0 117.536 14.3701 1689 157.724 133.47 430.924
1816 0 121.586 14.681 1785 156.721 134.234 430.002
1817 0 126.52 14.2191 1799 164.103 133.667 428.844
1818 1 65.4187 13.1767 862 167.089 132.821 457.05
1819 0 69.3792 13.3469 926 165.244 132.352 455.548
1820 0 71.3747 13.9405 995 167.692 132.253 455.482
1821 0 71.2601 14.3839 1025 158.463 131.667 453.796
1822 0 75.1972 13.9234 1047 162.231 132.212 452.674
1823 0 76.5541 14.3428 1098 156.634 132.629 451.46
1824 0 80.3168 13.9323 1119 163.345 131.599 450.166
1825 0 82.3539 13.952 1149 163.105 130.976 448.903
1826 0 82.3595 14.2181 1171 169.988 130.82 448.036
1827 0 86.3789 14.3438 1239 164.63 131.727 446.839
1828 0 90.5141 14.1967 1285 160.177 131.909 446.307
1829 0 92.2923 14.4866 1337 150.582 132.017 444.349
1830 0 95.3753 15.0144 1432 159.975 131.195 442.902
1831 0 99.3243 14.4174 1432 164.108 131.779 442.286
1832 0 101.371 14.3927 1459 163.251 131.483 441.273
1833 0 104.4 14.502 1514 162.891 131.599 439.766
1834 0 108.401 14.3357 1554 164.375 131.425 438.246
1835 0 111.262 14.4344 1606 161.164 130.865 436.838
1836 0 115.519 14.8807 1719 159.518 131.688 434.449
1837 0 117.335 14.676 1722 163.162 130.118 432.812
1838 0 121.245 14.8707 1803 163.196 130.657 430.679
1839 0 124.47 15.0156 1869 164.187 129.775 429.257
1840 0 126.43 14.688 1857 168.179 129.876 428.061
1841 0 132.285 14.6351 1936 162.561 130.689 426.317
1842 0 134.203 14.8209 1989 164.442 129.768 425.523
1843 0 137.537 14.7742 2032 163.576 130.16 424.217
1844 0 143.265 14.5464 2084 170.075 130.057 422.605
1845 1 58.1196 12.7152 739 152.097 129.495 463.821
1846 0 62.3019 12.7284 793 28.1702 128.884 463.407
1847 0 62.2109 13.3417 830 161.642 128.349 463.586
1848 0 65.2782 13.1131 856 159.175 129.472 462.839
1849 0 67.0828 13.3566 896 156.422 129.343 461.878
1850 0 69.2369 13.2733 919 161.435 128.725 461.443
1851 0 72.2545 12.9819 938 157.501 129.329 459.146
1852 0 74.2864 13.0037 966 155.946 129.115 458.04
1853 0 74.2182 13.6894 1016 160.313 129.284 457.506
1854 0 78.2928 13.1685 1031 157.259 128.697 456.764
1855 0 80.3182 13.8823 1115 155.667 129.391 455.964
1856 0 81.2763 13.6817 1112 157.149 129.059 454.29
1857 0 84.3553 13.6684 1153 157.893 128.858 452.705
1858 0 87.2846 13.8741 1211 160.069 128.594 451.832
1859 0 91.3057 13.6684 1248 162.94 128.966 449.251
1860 0 94.2173 13.6387 1285 162.731 129.401 448.653
1861 0 98.4211 13.747 1353 157.446 128.9 447.312
1862 0 100.17 13.9663 1399 159.642 129.186 445.42
1863 1 55.0561 12.7325 701 159.971 129.144 466.484
1864 0 57.1596 12.8062 732 158.851 128.686 464.91
1865 0 58.1447 13.2944 773 161.171 128.203 463.439
1866 0 62.2443 13.1257 817 158.42 128.693 461.925
1867 0 64.2659 13.1174 843 157.125 129.097 461.091
1868 0 64.3598 13.1448 846 148.002 128.696 460.048
1869 0 68.2414 13.1005 894 158.575 128.449 459.634
1870 0 69.1466 12.9869 898 157.318 128.654 458.992
1871 0 72.226 13.3193 962 149.877 129.086 457.658
1872 0 75.1871 13.6194 1024 152.694 129.554 456.249
1873 0 77.3253 13.2428 1024 148.148 129.38 454.354
1874 0 78.1973 13.5427 1059 150.033 129.537 453.891
1875 0 82.1962 13.8814 1141 148.137 129.369 451.612
1876 0 84.2926 13.5125 1139 149.277 129.399 451.128
1877 0 86.2891 13.5475 1169 151.099 130.05 450.665
1878 0 88.2095 13.9554 1231 149.36 130.218 448.504
1879 0 91.2633 13.7405 1254 150.683 130.201 446.447
1880 0 94.27 14.0342 1323 154.375 130.884 445.364
1881 0 96.221 13.8223 1330 155.395 131.143 444.398
1882 0 100.231 13.808 1384 154.048 130.829 442.295
1883 0 101.345 13.9622 1415 153.049 131.165 440.328
1884 0 104.317 13.8999 1450 146.776 130.308 439.682
1885 0 108.278 13.8902 1504 154.148 130.898 438.379
1886 0 112.376 13.7752 1548 158.826 131.555 436.839
1887 1 60.2635 11.5493 696 154.486 132.131 461.029
1888 0 64.3808 11.929 768 151.574 131.941 461.013
1889 0 66.3394 12.3305 818 152.793 132.266 455.455
1890 0 68.3028 13.1034 895 154.89 131.934 456.613
1891 0 69.3196 13.4882 935 153.325 132.501 456.395
1892 0 71.442 13.4795 963 148.708 132.978 455.144
1893 0 74.7337 13.5414 1012 152.222 132.698 453.294
1894 0 76.4833 13.467 1030 156.147 133.466 453.106
1895 0 79.6058 13.6422 1086 155.831 133.552 451.864
1896 0 78.2472 13.6363 1067 158.876 133.542 448.655
1897 0 82.4079 13.8458 1141 153.991 133.348 445.07
1898 0 84.4234 13.7403 1160 157.74 133.634 444.444
1899 0 87.3521 13.6459 1192 162.391 132.828 443.412
1900 0 90.552 13.6717 1238 161.959 132.617 442.538
1901 0 93.3894 14.0273 1310 159.592 132.878 439.721
1902 0 97.4142 14.2074 1384 158.801 133.078 438.6
1903 0 99.2845 13.4664 1337 164.254 132.249 438.656
1904 1 54.3503 12.309 669 159.543 131.845 461.058
1905 0 55.3236 12.4902 691 161.999 132.136 460.08
1906 0 57.2718 12.9732 743 156.024 132.018 459.117
1907 0 57.119 13.3406 762 156.612 132.507 458.772
1908 0 60.1891 12.8761 775 155.52 131.723 458.472
1909 0 62.277 12.894 803 154.943 132.126 456.381
1910 0 62.6144 13.5592 849 146.814 131.84 454.577
1911 0 65.3507 13.2363 865 155.237 132.083 455.056
1912 0 66.3705 13.6506 906 158.244 132.587 453.621
1913 0 69.1879 13.7307 950 147.564 132.159 451.399
1914 0 70.3389 13.9183 979 154.337 132.662 450.706
1915 0 74.3439 13.7066 1019 152.392 131.889 449.365
1916 0 75.3409 13.8968 1047 151.517 131.985 447.596
1917 0 80.7033 13.655 1102 145.309 131.365 447.034
1918 0 81.3361 13.4995 1098 146.401 133.147 445.27
1919 0 82.303 14.2887 1176 151.91 131.983 444.96
1920 0 82.303 14.2887 1176 155.987 131.983 444.96
1921 0 88.3154 13.9726 1234 152.276 132.119 442.771
1922 0 89.5871 14.6785 1315 148.811 132.185 441.287
1923 0 92.2525 14.4278 1331 151.395 130.575 439.706
1924 0 94.3039 14.1245 1332 148.514 130.408 438.651
1925 0 99.2957 14.1698 1407 154.345 130.294 438.481
1926 0 102.466 14.5512 1491 151.148 129.694 435.797
1927 0 104.316 14.4561 1508 156.454 130.491 436.35
1928 0 107.356 14.5497 1562 154.264 130.811 434.682
1929 0 108.285 14.5265 1573 155.361 131.282 433.536
1930 0 115.351 14.3735 1658 152.99 129.687 431.316
1931 1 61.3766 12.0241 738 65.355 129.646 458.301
1932 0 65.3725 12.5129 818 149.02 129.532 457.312
1933 0 67.4199 13.186 889 158.573 130.956 456.165
1934 0 69.3541 13.4671 934 152.234 130.854 455.548
1935 0 73.2868 12.8809 944 151.54 131.314 454.776
1936 0 74.1822 13.386 993 157.813 130.896 453.113
1937 0 78.2353 13.4338 1051 158.798 130.956 451.986
1938 0 78.2687 13.6325 1067 158.863 129.58 451.952
1939 0 82.3892 13.6304 1123 160.289 129.151 450.049
1940 0 85.3286 13.5359 1155 158.061 128.955 448.994
1941 0 88.3162 13.429 1186 155.187 129.911 447.569
1942 0 90.3395 13.7481 1242 158.303 129.762 445.907
1943 0 94.2938 13.4898 1272 157.706 129.733 444.509
1944 0 97.3618 13.8864 1352 158.345 130.033 443.325
1945 0 100.268 14.222 1426 157.154 130.074 441.006
1946 0 103.201 13.9146 1436 157.645 129.575 440.304
1947 0 107.44 13.9985 1504 156.39 129.184 440.52
1948 0 111.341 13.7775 1534 160.336 129.023 438.753
1949 0 113.38 14.3676 1629 159.954 128.474 437.021
1950 0 118.326 13.8516 1639 156.829 129.8 434.102
1951 1 66.2632 12.0882 801 158.429 129.66 460.974
1952 0 70.1048 12.3672 867 152.341 130.258 460.213
1953 0 73.0988 12.7088 929 146.811 129.465 458.833
1954 0 73.1119 13.0211 952 148.193 128.136 457.774
1955 0 76.1565 13.0915 997 151.309 128.359 456.588
1956 0 79.1679 12.7956 1013 154.872 128.935 454.561
1957 0 81.2209 12.977 1054 151.336 128.263 453.979
1958 0 84.2515 12.9968 1095 150.587 128.896 452.716
1959 0 87.2119 12.8194 1118 148.888 128.651 451.51
1960 0 90.1361 13.0358 1175 149.066 128.267 449.308
1961 0 93.4413 13.0991 1224 149.315 129.122 448.305
1962 0 95.2415 13.009 1239 146.309 129.63 447.02
1963 0 99.2445 13.099 1300 145.091 130.345 444.118
1964 0 102.263 13.0155 1331 142.699 130.75 443.361
1965 0 104.242 13.0466 1360 150.348 129.321 441.897
1966 0 105.343 13.2235 1393 146.424 128.777 440.266
1967 0 111.356 13.1021 1459 149.759 130.37 438.582
1968 0 115.273 13.2988 1533 147.626 129.586 436.172
1969 1 69.2645 11.0879 768 144.585 129.738 458.747
1970 0 72.2976 12.0751 873 146.798 128.789 457.614
1971 0 74.3136 12.6356 939 140.936 129 456.553
1972 0 77.2215 12.38 956 136.962 129.258 454.396
1973 0 80.3236 12.35 992 138.018 128.435 452.61
1974 0 82.2663 12.9093 1062 141.518 128.825 451.412
1975 0 85.3208 12.6933 1083 139.403 129.27 449.943
1976 0 87.3421 12.8231 1120 135.846 129.074 447.904
1977 0 89.3414 12.8048 1144 132.599 130.095 445.566
1978 0 92.2998 13.142 1213 136.089 130.519 443.908
1979 0 97.2911 12.848 1250 136.032 130.201 442.322
1980 0 99.589 13.2846 1323 141.963 130.567 440.026
1981 0 104.546 13.3434 1395 139.887 130.643 437.081
1982 0 105.523 13.1724 1390 141.652 130.183 432.399
1983 0 109.569 13.1789 1444 139.039 130.268 432.102
1984 1 61.4399 11.1003 682 136.912 130.834 456.799
1985 0 62.4142 11.4717 716 138.113 131.55 457.469
1986 0 63.206 12.214 772 133.872 130.442 458.264
1987 0 66.2679 12.0571 799 134.844 130.02 457.96
1988 0 67.3291 12.4909 841 139.081 131.001 456.838
1989 0 68.1722 12.9965 886 136.798 131.837 456.076
1990 0 70.357 12.7351 896 137.962 131.646 455.78
1991 0 73.3594 13.0045 954 135.99 132.031 454.134
1992 0 75.2044 13.1641 990 138.431 132.582 452.061
1993 0 79.4289 12.6276 1003 140.48 132.328 451.687
1994 0 81.4076 13.3526 1087 136.149 132.686 450.253
1995 0 82.4477 13.3175 1098 140.19 132.822 446.555
1996 0 86.3162 13.381 1155 140.299 133.272 445.66
1997 0 89.5333 13.6486 1222 136.764 132.921 443.394
1998 0 91.3904 13.5025 1234 146.437 133.047 443.001
1999 0 92.3948 13.583 1255 144.661 133.246 440.75
2000 0 94.4542 13.6574 1290 146.057 133.023 440.789
2001 0 98.5805 13.6031 1341 142.676 133.201 439.91
2002 0 101.54 13.9748 1419 136.882 132.886 437.992
2003 0 104.614 13.6979 1433 148.174 133.452 436.597
2004 0 107.333 14.1057 1514 142.74 132.826 434.236
2005 0 109.472 13.9853 1531 141.346 132.1 432.265
2006 0 113.319 14.04 1591 143.294 132.171 432.204
2007 0 117.367 14.2034 1667 143.873 132.29 429.327
2008 0 121.563 14.2066 1727 137.826 131.961 428.42
2009 1 69.267 12.1992 845 145.057 132.237 454.447
2010 0 71.3824 12.5801 898 137.648 132.124 453.739
2011 0 74.2973 12.7865 950 134.316 132.332 455.761
2012 0 76.2696 13.1114 1000 130.903 132.187 453.284
2013 0 79.4043 13.4124 1065 131.311 131.874 452.336
2014 0 81.4399 13.6788 1114 133.079 131.447 450.897
2015 0 83.1521 13.5655 1128 134.739 131.801 448.523
2016 0 86.3938 13.0449 1127 130.035 131.251 447.809
2017 0 88.1542 13.4083 1182 132.392 131.534 446.785
2018 0 91.2589 13.3576 1219 133.768 131.455 446.236
2019 0 93.217 13.6563 1273 133.114 131.075 443.076
2020 0 97.2167 13.6294 1325 94.9102 130.737 443.005
2021 0 100.116 13.814 1383 129.134 131.012 440.328
2022 0 103.15 13.7761 1421 136.6 131.115 439.258
2023 0 104.077 13.6342 1419 133.847 131.218 439.383
2024 0 108.137 13.8713 1500 135.399 130.796 438.725
2025 0 110.245 13.9598 1539 137.724 130.801 436.992
2026 0 115.234 13.9455 1607 137.493 130.251 436.11
2027 0 116.242 13.9537 1622 138.961 131.787 434.618
2028 0 120.386 13.7558 1656 136.262 131.397 432.519
2029 0 128.341 13.8849 1782 145.5 131.256 428.87
2030 0 131.252 13.9579 1832 146.694 130.341 426.208
2031 1 71.1145 11.8541 843 142.836 130.677 457.963
2032 0 73.1556 12.5896 921 148.117 130.314 456.841
2033 0 76.0874 12.8799 980 140.506 130.374 454.657
2034 0 78.146 13.0781 1022 149.041 130.754 454.69
2035 0 81.0572 13.2746 1076 144.716 130.75 452.773
2036 0 84.1253 13.4918 1135 142.752 130.53 451.519
2037 0 87.1688 13.296 1159 150.227 129.784 450.667
2038 0 88.1 13.5641 1195 138.522 130.085 449.936
2039 0 93.0787 13.451 1252 151.765 129.664 447.463
2040 0 94.1595 13.594 1280 156.789 129.543 446.358
2041 0 97.1135 13.6953 1330 150.431 129.005 444.759
2042 0 102.163 13.5078 1380 159.151 128.724 443.347
2043 0 105.265 13.7937 1452 150.417 128.382 441.287
2044 0 107.187 13.7983 1479 149.632 129.092 441.285
2045 0 112.156 13.8824 1557 151.722 129.961 439.245
2046 0 116.115 13.7536 1597 160.934 129.875 437.554
2047 0 119.235 13.897 1657 154.812 130.05 434.882
2048 0 124.374 13.7971 1716 148.779 129.458 432.4
2049 0 129.179 13.7948 1782 154.967 129.033 430.057
2050 1 75.246 12.5588 945 161.988 129.725 456.972
2051 0 79.18 13.1094 1038 153.332 130.951 454.624
2052 0 81.1524 13.296 1079 147.434 131.539 454.587
2053 0 84.2109 13.1218 1105 155.511 131.058 452.805
2054 0 86.1426 13.3035 1146 151.581 130.784 452.387
2055 0 89.1499 13.5502 1208 154.099 130.539 451.09
2056 0 92.2367 13.4112 1237 152.566 130.653 450.237
2057 0 94.2922 13.5854 1281 154.936 129.398 447.213
2058 0 97.3501 13.5901 1323 148.926 129.1 443.884
2059 0 99.3973 13.7529 1367 155.767 129.097 438.625
2060 0 102.24 13.84 1415 153.206 128.967 437.416
2061 0 104.217 13.779 1436 158.11 129.336 436.607
2062 0 109.28 13.5248 1478 162.921 128.678 433.955
2063 0 110.297 13.8082 1523 159.372 128.66 434.307
2064 0 114.258 13.8283 1580 152.261 128.896 433.015
2065 0 117.385 13.8945 1631 154.289 130.104 431.817
2066 1 63.0831 12.7134 802 159.06 128.241 462.094
2067 0 66.0335 12.7057 839 158.828 127.903 459.682
2068 0 67.0945 13.563 910 143.523 128.391 458.233
2069 0 71.128 13.3421 949 154.651 128.937 454.294
2070 0 72.0897 13.7051 988 150.883 128.372 454.019
2071 0 75.1523 13.5857 1021 144.055 128.36 449.683
2072 0 80.1915 13.5052 1083 147.053 130.11 448.702
2073 0 82.0961 13.5573 1113 148.146 128.719 448.401
2074 0 84.1175 13.6238 1146 153.013 129.109 445.331
2075 0 88.3266 13.7331 1213 150.847 130.351 446.005
2076 0 90.1582 14.0309 1265 150.588 130.426 444.207
2077 0 93.1343 14.1946 1322 150.029 130.652 442.949
2078 0 96.2323 14.0805 1355 153.055 130.06 440.669
2079 0 99.1871 14.024 1391 154.218 130.297 440.962
2080 0 102.282 14.3622 1469 152.393 130.958 438.573
2081 0 107.435 14.1016 1515 153.511 130.931 437.585
2082 0 109.388 14.1423 1547 147.87 131.187 435.152
2083 0 114.309 14.0235 1603 152.874 131.193 432.913
2084 1 62.1485 13.3551 830 156.92 130.118 458.92
2085 0 63.1673 13.9629 882 154.158 130.569 457.558
2086 0 65.0856 14.2735 929 153.302 131.353 456.421
2087 0 66.1642 14.4036 953 157.043 131.775 456.523
2088 0 69.237 14.5154 1005 155.811 131.71 454.707
2089 0 72.1783 14.8798 1074 152.668 132.12 453.672
2090 0 73.2179 14.928 1093 150.221 131.93 452.767
2091 0 76.2919 14.8246 1131 151.923 131.27 452.389
2092 0 78.2632 15.9462 1248 157.409 131.736 449.913
2093 0 79.2242 15.1595 1201 158.074 132.46 450.281
2094 0 82.2209 14.7043 1209 164.007 131.349 448.956
2095 0 85.2696 15.0464 1283 156.564 131.339 447.724
2096 0 87.2082 15.1477 1321 157.546 131.058 446.061
2097 0 90.1596 14.9956 1352 151.454 131.624 445.753
2098 0 93.2448 15.411 1437 152.25 132.711 442.948
2099 0 96.1222 15.5219 1492 148.773 132.913 442.284
2100 0 99.3126 15.8489 1574 153.645 132.706 441.194
2101 0 102.253 15.3834 1573 157.772 132.583 439.251
2102 0 104.275 15.4496 1611 156.268 132.696 437.935
2103 0 107.18 15.1148 1620 158.919 133.439 435.704
2104 0 111.105 14.8238 1647 163.351 133.494 435.136
2105 0 114.414 14.9107 1706 164.159 133.795 434.243
2106 0 118.202 15.4058 1821 159.586 134.383 430.818
2107 1 61.0905 14.3885 879 159.777 134.03 457.845
2108 0 62.1243 14.7607 917 161.725 133.906 455.466
2109 0 63.1273 15.7143 992 164.047 133.543 455.181
2110 0 66.1206 16.1221 1066 155.952 133.711 452.365
2111 0 70.2104 15.6102 1096 160.103 133.995 451.154
2112 0 71.1617 16.048 1142 151.125 134.069 450.963
2113 0 75.0985 15.979 1200 149.341 134.18 449.385
2114 0 77.1776 16.028 1237 160.837 134.821 448.963
2115 0 81.4014 15.9948 1302 154.94 134.79 448.063
2116 0 81.3572 16.0281 1304 163.018 135.704 447.933
2117 0 86.3144 15.4551 1334 159.682 134.265 446.986
2118 0 89.5325 15.8155 1416 160.478 134.708 444.63
2119 0 93.4068 15.7162 1468 168.481 134.507 442.334
2120 0 97.5385 15.7066 1532 159.358 134.303 441.442
2121 0 99.4233 15.6402 1555 158.161 133.934 440.546
2122 1 47.2309 15.456 730 168.801 134.097 463.653
2123 0 49.3108 15.9803 788 163.202 133.676 462.393
2124 0 50.3069 16.5584 833 163.304 134.229 461.445
2125 0 53.6715 16.6382 893 158.206 134.085 460.357
2126 0 55.6256 16.2875 906 162.671 134.052 459.518
2127 0 56.6719 16.1456 915 152.09 134.047 458.951
2128 0 59.5661 16.1165 960 154.703 133.849 457.817
2129 0 60.4815 16.1041 974 155.659 133.99 457.883
2130 0 62.3682 16.0018 998 153.524 134.174 457.352
2131 0 62.3278 16.333 1018 164.606 134.163 457.211
2132 0 65.492 16.2615 1065 160.236 134.36 455.517
2133 0 67.587 15.935 1077 167.136 134.161 455.058
2134 0 70.6295 15.8857 1122 169.45 134.537 454.39
2135 0 70.7848 16.1193 1141 163.059 133.978 454.547
2136 0 73.6625 16.0869 1185 163.549 134.096 453.03
2137 0 74.6829 16.2822 1216 165.775 133.504 452.281
2138 0 77.6753 16.4531 1278 166.013 132.838 450.599
2139 0 80.9241 16.1139 1304 165.269 133.404 449.477
2140 0 81.6477 16.3997 1339 169.657 133.223 448.562
2141 0 83.5462 16.2066 1354 163.172 133.136 448.06
2142 0 87.0782 16.3991 1428 168.714 132.693 446.135
2143 0 91.8318 15.8224 1453 160.508 133.039 444.702
2144 0 93.3563 16.1639 1509 164.355 133.144 443.834
2145 0 98.3943 16.1798 1592 161.907 133.501 440.913
2146 0 103.127 15.9221 1642 161.205 133.91 439.487
2147 0 106.556 15.9259 1697 158.465 133.83 437.958
2148 1 46.5508 15.5099 722 178.273 133.481 465.087
2149 0 48.6116 15.5519 756 171.5 133.689 463.771
2150 0 49.5613 15.8995 788 174.181 133.08 463.685
2151 0 53.582 15.5836 835 166.838 132.608 463.067
2152 0 54.3721 15.8169 860 174.079 132.887 462.472
2153 0 55.5003 16.3242 906 171.787 132.383 462.33
2154 0 59.5566 16.0016 953 173.99 132.055 461.052
2155 0 60.5189 16.0941 974 167.592 131.761 459.879
2156 0 60.5307 16.5701 1003 166.06 132.09 459.944
2157 0 63.3566 16.3835 1038 171.122 132.054 459.308
2158 0 66.5467 15.9738 1063 170.008 132.073 458.905
2159 0 67.4579 16.2323 1095 168.451 132.683 458.183
2160 0 69.3717 16.2314 1126 173.505 132.374 457.658
2161 0 71.4573 16.5554 1183 169.047 132.634 457.518
2162 0 75.1687 16.2169 1219 172.056 132.424 455.446
2163 0 75.3876 16.3422 1232 166.59 131.883 454.825
2164 0 77.6575 16.7917 1304 169.587 131.804 454.49
2165 0 83.4177 16.2915 1359 171.013 131.588 452.61
2166 0 83.5408 16.7224 1397 160.297 131.701 451.701
2167 1 38.6048 15.1795 586 172.181 131.724 472.957
2168 0 40.401 15.3957 622 168.127 132.035 472.248
2169 0 41.3596 15.74 651 167.066 131.642 471.005
2170 0 43.986 15.6413 688 165.719 132.122 471.525
2171 0 44.5645 16.0442 715 168.878 132.067 472.576
2172 0 45.4592 15.8824 722 172.278 132.269 472.615
2173 0 46.4051 16.6146 771 173.061 131.157 472.423
2174 0 48.9294 16.3092 798 167.094 130.726 472.068
2175 0 48.1895 16.9954 819 171.673 131.01 471.283
2176 0 50.3346 16.8671 849 171.494 130.839 471.876
2177 0 51.3615 17.075 877 168.249 130.66 470.073
2178 0 53.2686 16.9331 902 167.664 130.937 470.308
2179 0 54.607 16.6828 911 165.742 132.086 469.565
2180 0 55.3674 16.7247 926 135.328 131.029 468.701
2181 0 55.3425 17.6176 975 173.47 130.638 469.687
2182 0 58.1856 16.8942 983 175.081 130.101 468.687
2183 0 60.3305 17.3213 1045 171.459 129.954 467.794
2184 0 61.5198 17.3115 1065 170.744 129.885 467.469
2185 0 63.7788 16.8551 1075 173.391 130.95 466.584
2186 0 65.6974 17.1392 1126 175.293 131.278 465.852
2187 0 67.6022 17.174 1161 170.006 130.756 465.525
2188 0 67.6804 17.8486 1208 168.222 130.541 464.197
2189 0 69.6739 17.6967 1233 172.123 130.599 463.367
2190 0 73.549 17.3626 1277 170.555 131.384 461.817
2191 0 75.9822 16.8724 1282 173.718 131.37 460.629
2192 0 76.8665 17.0165 1308 179.531 130.496 459.05
2193 0 78.1571 17.1961 1344 175.638 131.174 457.443
2194 0 82.3674 17.0456 1404 169.571 131.728 455.88
2195 0 82.8361 17.2751 1431 170.048 131.876 455.157
2196 0 84.9962 17.0714 1451 174.014 130.982 454.119
2197 0 87.9375 16.887 1485 173.689 131.315 452.775
2198 0 92.9419 16.8815 1569 172.343 131.497 451.84
2199 0 94.7154 16.9772 1608 170.89 131.908 449.624
2200 0 100.034 16.4244 1643 166.571 132.056 447.551
2201 0 102.998 16.2819 1677 168.913 130.157 446.211
2202 0 106.977 15.966 1708 166.389 131.27 444.047
2203 0 110.125 16.1089 1774 167.561 131.092 442.825
2204 0 113.223 16.0656 1819 172.033 131.215 441.949
2205 1 58.0464 15.2809 887 175.244 131.175 466.189
2206 0 59.9291 15.5851 934 172.3 131.316 465.141
2207 0 61.016 15.3402 936 164.62 131.498 463.65
2208 0 63.0763 15.7111 991 171.957 131.263 462.478
2209 0 66.055 15.5325 1026 163.358 131.291 460.803
2210 0 69.2376 15.3385 1062 165.217 133.083 459.503
2211 0 70.3462 15.4664 1088 170.12 133.364 457.869
2212 0 73.8848 15.1317 1118 166.62 133.059 455.525
2213 0 75.5135 14.8583 1122 172.902 133.881 455.364
2214 0 78.434 14.9553 1173 164.802 133.835 452.437
2215 0 83.3548 14.7322 1228 163.18 133.721 451.111
2216 1 98.2561 13.1493 1292 152.576 133.728 442.188
2217 0 99.5711 13.1866 1313 158.072 134.026 442.014
2218 0 103.343 13.431 1388 158.329 134.248 441.085
2219 0 104.521 13.4231 1403 161.848 133.912 438.308
2220 0 107.337 13.2573 1423 164.604 134.225 436.156
2221 0 110.313 13.5704 1497 159.714 134.621 434.297
2222 0 114.093 13.6906 1562 159.629 135.061 432.412
2223 0 115.033 13.6135 1566 160.647 135.326 432.008
2224 1 31.2897 10.3229 323 144.489 135.443 475.978
2225 0 31.3683 10.4245 327 142.557 135.434 477.153
2226 0 33.3923 10.0922 337 145.588 135.407 477.056
2227 0 35.256 10.0692 355 147.211 136.296 475.952
2228 0 36.4074 10.3825 378 143.831 136.368 475.32
2229 0 36.1279 10.9611 396 141.846 136.018 474.333
2230 0 37.106 11.292 419 145.308 135.461 472.974
2231 0 38.2106 11.4366 437 140.087 135.572 472.602
2232 0 39.1195 11.0687 433 149.113 135.677 471.534
2233 0 38.2662 11.0803 424 148.054 135.172 472.231
2234 0 41.2581 11.3432 468 148.658 135.389 470.872
2235 0 40.3967 11.288 456 145.904 136.013 470.93
2236 0 43.3574 10.9324 474 148.141 136.156 471.11
2237 0 43.2953 10.9481 474 148.483 135.141 471.357
2238 0 44.3619 11.3836 505 147.028 134.65 470.345
2239 0 46.444 11.0671 514 146.702 134.796 469.111
2240 0 46.2848 11.3644 526 147.072 135.116 468.899
2241 0 47.533 11.4447 544 147.287 134.432 467.812
2242 0 50.4917 11.2494 568 140.305 135.366 466.852
2243 0 51.4874 10.993 566 136.661 135.191 467.065
2244 0 52.486 11.565 607 144.707 135.091 466.54
2245 0 53.4826 11.5552 618 147.877 134.786 465.524
2246 0 56.0109 11.6049 650 143.263 134.108 464.054
2247 0 57.7186 11.4001 658 147.368 134.787 463.748
2248 0 58.4661 11.7846 689 142.154 134.466 462.811
2249 0 60.9683 11.9734 730 146.292 133.815 462.289
2250 1 33.3995 10.3594 346 147.971 133.87 473.913
2251 0 33.5541 10.4607 351 150.208 133.576 475.248
2252 0 34.4443 10.5097 362 149.903 133.92 474.224
2253 0 37.7027 10.9541 413 147.736 134.45 473.189
2254 0 39.4355 11.2842 445 147.079 134.348 473.357
2255 0 40.2663 11.3246 456 141.583 134.099 471.947
2256 0 40.4856 11.8067 478 148.354 134.831 469.898
2257 0 42.3857 11.8672 503 146.946 133.863 469.577
2258 0 43.271 11.8555 513 145.673 133.786 468.538
2259 0 44.5054 11.7963 525 141.573 133.118 468.461
2260 0 43.2811 12.1069 524 141.237 133.594 467.63
2261 0 46.392 12.3297 572 142.336 133.607 466.965
2262 0 47.274 12.3324 583 140.991 132.768 466.995
2263 0 49.3349 12.1415 599 138.755 132.947 466.434
2264 0 51.262 12.0167 616 136.896 132.588 465.891
2265 0 52.2759 12.434 650 136.777 133.054 465.374
2266 0 54.1969 12.0487 653 139.118 132.165 465.919
2267 0 53.3082 12.5872 671 139.164 132.089 464.536
2268 0 56.2132 12.8795 724 136.854 132.975 463.877
2269 0 56.2638 12.868 724 139.247 132.856 463.624
2270 0 59.3322 12.8598 763 140.539 131.465 461.491
2271 0 64.3421 13.8479 891 153.082 131.333 459.019
2272 0 66.4684 13.2695 882 154.656 131.87 458.529
2273 0 66.2902 13.9538 925 163.661 131.292 459.082
2274 0 69.2237 13.7814 954 163.343 131.314 458.128
2275 0 70.4087 13.9755 984 152.757 130.642 457.202
2276 0 72.3872 13.7179 993 161.56 130.844 456.269
2277 0 75.2848 13.5618 1021 162.037 130.036 454.473
2278 0 77.3319 13.7977 1067 165.934 130.073 454.293
2279 0 80.3052 13.3989 1076 163.655 130.289 452.593
2280 1 40.1037 12.0438 483 165.335 129.472 471.451
2281 0 42.023 13.1119 551 163.713 131.214 472.096
2282 0 44.0979 12.7217 561 163.75 131.312 472.214
2283 0 44.4469 13.0943 582 166.423 130.875 471.162
2284 0 45.1626 13.1525 594 167.141 130.557 469.685
2285 0 45.1748 13.3039 601 165.935 130.849 469.857
2286 0 48.1864 13.2402 638 163.155 131.334 468.216
2287 0 49.2144 13.5733 668 164.519 131.819 467.591
2288 0 51.1379 14.3925 736 154.322 132.189 465.436
2289 0 52.061 13.5226 704 145.243 132.25 466.175
2290 0 57.2052 15.086 863 143.949 131.929 462.555
2291 0 59.116 14.9875 886 141.846 132.454 462.468
2292 0 60.1154 14.6052 878 143.167 132.181 462.126
2293 0 61.1629 15.3198 937 144.609 132.037 460.955
2294 0 59.1018 14.6188 864 154.85 132.609 461.137
2295 0 62.1869 13.7167 853 145.039 132.055 460.501
2296 0 64.123 13.4429 862 153.403 132.189 460.427
2297 0 67.134 13.5997 913 151.023 131.995 457.713
2298 0 68.2349 13.8053 942 158.471 132.578 456.539
2299 0 70.1866 13.8203 970 158.878 132.455 455.97
2300 0 74.2424 13.5098 1003 154.718 132.843 454.764
2301 0 75.2787 14.2936 1076 156.615 132.339 451.601
2302 0 77.1914 13.6544 1054 156.987 132.267 450.975
2303 0 80.5119 13.824 1113 157.149 132.523 450.06
2304 1 43.1269 12.3357 532 160.352 132.325 468.196
2305 0 45.1781 12.7495 576 160.196 132.342 466.649
2306 0 47.1672 12.5511 592 157.851 132.299 466.948
2307 0 49.1759 13.0348 641 156.64 132.087 465.13
2308 0 49.1594 13.3443 656 154.809 132.322 464.02
2309 0 51.2135 13.2973 681 157.653 132.289 464.156
2310 0 54.3357 12.9749 705 153.719 132.184 463.349
2311 0 56.1972 13.1145 737 152.412 132.412 460.411
2312 0 57.1617 13.9254 796 152.18 132.288 459.408
2313 0 59.2079 13.6806 810 153.688 132.474 458.641
2314 0 62.2461 13.2538 825 150.575 132.668 457.564
2315 0 65.1225 13.2827 865 154.62 133.082 455.214
2316 0 65.1722 13.5641 884 156.581 133.609 455.32
2317 0 67.1932 13.4389 903 150.628 133.29 454.337
2318 0 70.2009 13.5468 951 146.291 133.52 452.098
2319 0 73.1808 13.4462 984 154.896 133.819 452.414
2320 0 76.1915 13.3348 1016 152.724 133.297 450.341
2321 0 79.0942 13.5155 1069 154.255 133.638 448.885
2322 0 81.1832 13.3402 1083 157.328 133.369 446.679
2323 0 85.1574 12.9407 1102 154.176 134.006 444.675
2324 0 87.086 13.5269 1178 155.52 134.135 444.56
2325 0 89.1486 13.1915 1176 157.793 134.936 443.448
2326 1 44.0095 11.2703 496 150.208 134.994 464.597
2327 0 47.0264 11.6743 549 154.967 135.251 463.614
2328 0 48.0797 11.8553 570 152.025 134.735 464.172
2329 0 49.1222 12.0923 594 151.396 134.79 463.52
2330 0 49.1903 12.3602 608 152.352 134.885 462.837
2331 0 53.1869 12.3715 658 147.696 134.669 462.24
2332 0 54.1563 12.0392 652 149.313 135.31 462.686
2333 0 55.1307 12.2255 674 150.252 135.361 459.504
2334 0 56.1576 12.6786 712 151.817 135.632 459.534
2335 0 59.1613 12.0011 710 152.884 135.463 458.623
2336 0 60.155 12.3348 742 148.376 135.399 457.136
2337 0 64.2795 12.2434 787 151.399 135.837 456.741
2338 0 66.161 12.258 811 152.742 135.861 455.44
2339 0 67.1844 12.5476 843 149.025 135.435 454.354
2340 0 70.2834 12.3927 871 150.031 135.516 453.474
2341 0 70.2143 12.8606 903 155.444 135.514 451.959
2342 0 76.1814 12.4309 947 149.337 135.749 450.224
2343 0 78.2769 12.8263 1004 152.323 136.398 449.636
2344 0 80.2201 12.366 992 152.98 137.219 448.582
2345 0 83.3419 12.4547 1038 148.052 136.659 447.467
2346 1 41.0378 11.3066 464 144.696 137.623 467.886
2347 0 45.0887 11.2445 507 143.521 137.162 467.288
2348 0 45.1516 11.4946 519 143.919 136.776 466.364
2349 0 48.3163 11.9835 579 140.71 135.409 465.544
2350 0 49.1516 11.9019 585 140.937 134.954 463.61
2351 0 53.127 11.4255 607 133.629 135.852 463.198
2352 0 53.0713 13.3217 707 133.686 135.638 460.945
2353 0 58.0668 14.0356 815 120.228 135.542 457.591
2354 0 58.0409 14.1107 819 129.957 134.407 457.955
2355 0 60.0418 14.5732 875 125.449 134.688 457.126
2356 0 59.1613 12.373 732 139.227 134.693 458.618
2357 0 61.2072 12.6456 774 148.078 134.225 459.298
2358 0 63.1264 12.5146 790 142.408 135.091 458.715
2359 0 66.1672 12.4986 827 143.909 134.909 456.031
2360 0 67.251 12.9069 868 28.9908 134.184 456.02
2361 0 69.2814 12.673 878 143.359 134.101 456.473
2362 0 71.2779 12.7669 910 146.653 133.441 456.329
2363 0 75.2929 12.5776 947 138.638 133.391 454.154
2364 0 76.2587 12.8772 982 134.049 133.134 451.012
2365 0 80.3503 12.5202 1006 144.963 132.774 451.987
2366 0 82.398 12.9736 1069 153.849 133.684 449.782
2367 1 47.2141 11.755 555 152.274 133.686 469.049
2368 0 47.35 12.1647 576 145.108 133.278 468.167
2369 0 49.1548 12.0436 592 137.193 132.557 466.846
2370 0 47.0507 12.3484 581 136.723 132.411 465.503
2371 0 51.1371 12.7696 653 149.392 132.176 465.812
2372 0 53.0826 12.8291 681 145.41 133.054 465.223
2373 0 55.0741 12.6012 694 140.915 132.537 463.565
2374 0 56.0674 12.7704 716 138.923 132.641 463.418
2375 0 57.1173 12.7982 731 149.606 132.436 463.795
2376 0 60.0358 12.859 772 146.531 131.996 462.817
2377 0 61.0528 13.2508 809 158.314 131.832 461.989
2378 0 61.1384 13.0687 799 163.009 131.631 461.456
2379 0 64.1598 13.0144 835 166.987 131.781 460.699
2380 0 65.0842 13.2751 864 148.795 132.074 460.086
2381 0 70.0459 14.2478 998 149.369 132.656 458.969
2382 0 71.0687 14.085 1001 152.724 132.36 458.16
2383 0 73.0533 13.6065 994 158.136 132.112 456.654
2384 0 72.0864 13.7613 992 158.14 132.154 457.6
2385 0 75.1193 13.7515 1033 154.598 132.675 456.219
2386 0 79.1033 13.514 1069 148.514 132.669 453.877
2387 0 84.1734 14.7196 1239 140.24 132.315 452.005
2388 0 87.1552 15.0192 1309 134.458 132.093 450.181
2389 1 45.1097 12.2147 551 142.681 132.009 471.303
2390 0 47.1416 12.8973 608 153.171 132.178 470.765
2391 0 48.1278 13.3187 641 153.434 131.811 469.691
2392 0 51.1503 14.2717 730 145.618 132.073 468.77
2393 0 52.0935 13.9173 725 144.408 131.806 467.928
2394 0 54.158 13.5345 733 148.003 132.057 467.517
2395 0 54.0561 13.9485 754 151.286 131.842 467.841
2396 0 56.0654 13.7875 773 152.761 131.446 466.373
2397 0 57.1653 14.9041 852 142.631 131.768 464.623
2398 0 60.1226 15.2854 919 142.326 131.252 463.066
2399 0 62.2142 15.736 979 137.987 131.896 462.333
2400 0 64.2599 15.0172 965 145.79 132.028 462.2
2401 0 64.2329 15.0857 969 142.527 131.429 460.991
2402 0 66.1984 14.6227 968 147.458 131.457 460.488
2403 0 69.126 14.5387 1005 150.449 132.186 459.003
2404 0 70.2232 15.7213 1104 145.947 131.746 458.143
2405 0 73.1625 14.707 1076 143.066 132.6 457.799
2406 0 76.2841 14.8786 1135 145.843 132.618 454.831
2407 0 77.3105 15.8323 1224 135.389 132.159 453.238
2408 0 80.3807 14.7175 1183 149.06 132.087 452.788
2409 0 80.2811 14.3247 1150 154.702 131.971 452.251
2410 0 81.4679 14.7911 1205 151.534 131.888 450.891
2411 0 85.3175 14.2409 1215 155.592 132.248 448.923
2412 0 90.4579 15.1673 1372 148.095 132.297 445.686
2413 0 92.6154 14.2633 1321 153.906 132.525 446.313
2414 0 95.5567 14.3894 1375 149.899 132.924 444.351
2415 0 98.7546 14.612 1443 153 133.09 442.379
2416 0 100.617 14.3813 1447 150.508 133.19 441.576
2417 0 103.51 14.3658 1487 147.424 132.934 439.756
2418 1 53.3923 13.8597 740 148.753 132.3 463.201
2419 0 57.4552 13.9239 800 154.212 132.959 461.441
2420 0 57.2329 14.3973 824 148.888 133.058 461.91
2421 0 60.3439 13.9036 839 140.423 133.372 460.603
2422 0 63.1116 13.8485 874 139.684 133.556 459.213
2423 0 65.2493 13.7779 899 143.731 133.736 458.425
2424 0 67.1484 14.1776 952 146.308 133.95 456.461
2425 0 69.2903 13.9125 964 147.871 134.175 454.441
2426 0 72.1964 13.9896 1010 146.571 134.529 452.627
2427 0 74.2478 13.9398 1035 145.255 134.745 453.102
2428 0 76.1845 14.2286 1084 143.196 134.258 451.481
2429 0 80.2257 14.2348 1142 144.595 134.25 448.534
2430 0 80.307 14.457 1161 140.645 134.25 447.751
2431 0 83.3109 13.8637 1155 145.965 134.03 446.003
2432 0 84.2512 14.3262 1207 146.384 134.266 445.579
2433 0 88.3947 14.2995 1264 141.099 134.148 444.686
2434 0 90.326 14.1709 1280 138.056 134.173 443.719
2435 0 92.2263 14.2476 1314 145.071 133.736 442.962
2436 0 96.2599 13.7233 1321 144.653 133.761 442.431
2437 0 101.255 15.4659 1566 132.367 134.319 438.354
2438 0 103.076 15.5032 1598 135.297 134.912 438.23
2439 0 104.167 15.0336 1566 140.14 134.879 437.967
2440 0 108.466 14.2717 1548 138.744 135.683 437.865
2441 1 54.1455 13.2236 716 153.205 135.946 463.377
2442 0 57.1831 13.0983 749 145.724 136.323 461.451
2443 0 60.2021 13.2221 796 149.031 136.008 461.212
2444 0 63.1448 13.2077 834 139.369 136.044 461.573
2445 0 65.2428 13.3195 869 144.632 135.934 458.779
2446 0 66.2189 13.4101 888 148.672 135.105 456.723
2447 0 71.1398 13.0869 931 143.797 135.618 455.626
2448 0 72.2039 13.171 951 147.666 135.511 454.301
2449 0 75.174 13.0896 984 136.762 134.544 453.056
2450 0 77.1126 13.383 1032 138.923 134.353 451.063
2451 0 82.2045 12.8825 1059 149.777 135.415 449.692
2452 0 86.1613 12.848 1107 143.338 134.453 447.68
2453 1 44.0188 10.1547 447 145.013 135.55 468.251
2454 0 46.08 10.6554 491 139.145 133.096 467.289
2455 0 48.18 11.5401 556 126.973 133.549 465.534
2456 0 50.0806 11.4815 575 127.997 134.33 464.489
2457 0 50.2176 11.709 588 120.551 134.811 465.255
2458 1 108.442 12.3292 1337 112.591 134.571 434.474
2459 0 108.411 12.7662 1384 118.341 134.828 433.074
2460 1 54.1751 12.1643 659 118.37 134.37 462.313
2461 0 57.1746 11.7535 672 120.491 134.153 461.498
2462 0 59.2067 11.8399 701 121.966 133.593 461.438
2463 0 61.1692 11.7543 719 118.032 132.947 459.572
2464 0 64.13 12.9269 829 132.298 133.75 395.524
2465 0 65.1463 13.2625 864 119.981 133.672 391.197
2466 0 67.054 13.0194 873 120.856 133.75 387.119
2467 0 70.1687 13.3393 936 123.344 133.913 383.404
2468 0 72.1104 13.2436 955 127.128 133.738 381.031
2469 0 75.2106 12.0196 904 114.606 133.136 451.952
2470 1 155.354 11.8117 1835 123.606 133.592 410.589
2471 1 81.0431 12.2404 992 118.998 133.142 448.451
2472 0 83.2239 12.3042 1024 124.27 132.885 448.286
2473 1 130.304 8.39578 1094 121.999 133.548 427.87
2474 0 134.166 8.80999 1182 128.764 133.918 425.538
2475 1 93.1356 12.1328 1130 120.48 133.505 443.466
2476 0 97.1845 11.8229 1149 118.553 132.427 441.554
2477 1 53.2054 11.1267 592 128.449 132.929 465.488
2478 0 54.2613 11.7948 640 128.442 133.589 465.006
2479 0 56.2402 11.8954 669 132.572 133.042 463.712
2480 0 59.2323 12.0205 712 134.888 133.074 462.278
2481 0 62.1854 12.125 754 132.46 133.329 461.971
2482 0 63.1478 12.1144 765 133.634 133.099 460.961
2483 0 63.0936 12.3626 780 130.679 132.64 459.694
2484 0 67.0724 12.2852 824 136.021 133.551 458.342
2485 0 70.1668 12 842 137.068 132.724 458.511
2486 0 71.2142 12.3852 882 142.336 132.805 457.897
2487 0 73.3353 12.136 890 144.427 133.035 456.831
2488 0 77.3292 12.492 966 142.953 133.451 455.317
2489 0 79.2711 12.7032 1007 148.403 133.611 453.887
2490 0 82.4103 12.4863 1029 138.151 133.733 452.157
2491 0 83.4436 12.859 1073 147.535 133.747 449.974
2492 1 45.2894 11.3051 512 144.699 133.752 470.803
2493 0 46.325 11.4841 532 143.891 133.07 469.171
2494 0 47.1895 11.6551 550 144.636 132.749 468.591
2495 0 48.0641 12.4417 598 151.167 132.721 468.565
2496 0 51.1006 12.2112 624 150.407 133.056 467.559
2497 0 53.0627 11.967 635 148.113 133.15 466.781
2498 0 54.1311 12.3404 668 145.395 132.91 466.034
2499 0 54.0811 12.5182 677 147.6 133.047 465.406
2500 0 56.0642 12.3787 694 149.782 133.504 464.105
2501 0 58.0807 12.5859 731 145.997 133.172 461.505
2502 0 58.1516 13.0349 758 153.525 133.397 461.294
2503 0 60.0602 13.2034 793 152.521 133.276 459.704
2504 0 62.155 12.855 799 153.683 133.04 459.365
2505 0 63.0956 13.1547 830 154.853 133.323 457.736
2506 0 65.1154 13.1305 855 152.028 133.129 458.226
2507 0 66.145 13.6972 906 148.361 132.733 456.611
2508 0 69.1153 13.5136 934 154.833 133.429 455.65
2509 0 71.0753 13.5349 962 153.859 133.867 455.031
2510 0 72.1981 13.74 992 150.278 133.623 454.228
2511 0 74.1566 13.6738 1014 150.822 133.58 453.432
2512 0 77.1408 13.5985 1049 158.281 133.783 452.128
2513 0 79.1232 13.8645 1097 127.163 133.487 451.9
2514 0 81.282 13.57 1103 153.073 133.394 449.693
2515 0 83.2185 14.0233 1167 155.662 132.98 447.923
2516 0 87.2295 13.8371 1207 156.947 133.872 446.236
2517 0 89.1717 13.8721 1237 153.926 133.819 444.662
2518 0 93.2637 13.8318 1290 156.863 133.875 442.212
2519 0 96.3161 13.871 1336 151.781 134.053 440.666
2520 0 99.1502 13.8376 1372 146.485 133.431 437.946
2521 0 102.097 13.8398 1413 154.891 133.995 437.042
2522 0 105.345 13.8687 1461 160.365 134.036 435.509
2523 1 57.2326 12.4579 713 144.126 134.896 461.475
2524 0 57.0329 13.0802 746 154.134 135.008 461.079
2525 0 58.0943 13.2199 768 146.792 134.492 460.43
2526 0 61.2196 12.888 789 165.213 134.686 458.876
2527 0 64.16 13.139 843 165.335 134.96 458.638
2528 0 66.1966 12.9463 857 156.015 134.757 457.506
2529 0 68.1597 13.395 913 160.52 134.532 456.089
2530 0 70.2044 13.1331 922 161.611 134.356 454.97
2531 0 72.1178 13.2006 952 161.811 133.873 453.656
2532 0 74.1291 13.2337 981 161.138 134.199 453.129
2533 0 75.2189 13.135 988 154.369 134.587 450.561
2534 0 79.2458 13.1742 1044 159.53 135.592 448.832
2535 0 80.2057 13.3532 1071 156.991 135.612 448.134
2536 0 83.4689 13.1067 1094 155.549 135.848 447.738
2537 0 85.389 13.4326 1147 157.468 135.934 445.122
2538 0 89.3818 13.1906 1179 160.456 135.93 444.326
2539 0 92.398 13.312 1230 143.443 135.389 442.194
2540 0 94.4289 13.4387 1269 153.158 135.563 440.131
2541 0 97.3881 13.3897 1304 157.444 135.916 438.396
2542 1 53.1561 11.2311 597 156.454 136.487 461.238
2543 0 55.0867 12.2534 675 152.784 135.474 459.822
2544 0 57.0779 12.3691 706 149.884 135.239 458.278
2545 0 58.1066 12.3738 719 144.814 134.932 459.003
2546 0 59.1171 12.6698 749 139.251 135.126 458.443
2547 0 62.1144 12.6863 788 142.835 135.537 456.65
2548 0 65.0927 12.6896 826 136.712 135.429 455.415
2549 0 68.0717 12.9275 880 132.949 135.539 455.199
2550 0 69.1213 13.1653 910 131.278 136.159 454.037
2551 0 72.1138 13.132 947 133.984 136.505 452.486
2552 0 74.0597 12.949 959 127.832 137.279 451.302
2553 0 76.1165 13.3611 1017 122.826 135.363 450.102
2554 0 79.1811 13.0966 1037 142.615 135.602 448.789
2555 0 82.1357 13.2464 1088 143.186 135.955 447.736
2556 0 85.1739 13.1261 1118 144.43 135.385 446.359
2557 0 88.2298 13.2268 1167 141.646 135.434 444.598
2558 0 92.3015 13.4234 1239 142.458 135.473 442.773
2559 0 95.2289 13.1263 1250 143.162 135.582 441.97
2560 0 97.2449 13.0598 1270 141.48 135.939 439.267
2561 1 51.3031 11.5003 590 144.192 134.958 463.025
2562 0 52.1676 11.9423 623 140.39 134.687 462.156
2563 0 53.0286 12.7667 677 143.598 134.929 461.035
2564 0 55.0439 12.5718 692 144.344 134.497 460.34
2565 0 58.0264 12.2186 709 138.094 134.337 460.738
2566 0 58.0309 12.9931 754 139.066 134.454 459.284
2567 0 60.0541 12.522 752 139.39 134.376 458.408
2568 0 61.0904 12.948 791 134.932 134.504 456.893
2569 0 64.0332 12.5872 806 136.18 134.454 456.536
2570 0 65.1088 13.1165 854 138.971 133.918 454.945
2571 0 66.198 13.1122 868 135.518 134.099 453.931
2572 0 71.0598 12.9609 921 135.957 133.999 452.594
2573 0 71.144 13.0159 926 135.895 133.931 451.965
2574 0 73.1218 13.1835 964 134.889 134.127 450.888
2575 0 75.1295 13.0308 979 134.993 134.344 450.024
2576 0 78.0854 12.8321 1002 126.022 134.833 449.403
2577 0 79.1578 12.8478 1017 132.374 134.958 447.828
2578 0 81.0909 12.9978 1054 130.108 134.934 448.147
2579 0 84.1435 12.9065 1086 121.517 134.848 447.482
2580 0 87.1575 12.7815 1114 122.689 134.862 445.829
2581 0 88.3452 12.6323 1116 126.993 135.139 443.789
2582 1 45.1093 10.8847 491 123.743 134.491 466.301
2583 0 47.0705 10.9198 514 130.142 134.486 465.484
2584 0 49.2362 11.3534 559 130.311 134.932 464.812
2585 0 50.2105 11.8302 594 136.97 135.458 464.125
2586 0 52.1091 12.0708 629 134.615 135.604 463.124
2587 0 52.1431 12.5999 657 133.482 135.294 462.621
2588 0 53.2091 12.5355 667 133.657 134.927 461.625
2589 0 57.1639 11.7732 673 129.545 134.783 461.006
2590 0 58.1424 12.4006 721 134.671 134.506 460.298
2591 0 60.1286 12.4566 749 127.959 134.785 458.975
2592 0 62.1448 12.487 776 123.759 136.001 458.21
2593 0 65.1332 12.0983 788 123.882 134.867 456.75
2594 0 65.2704 12.9921 848 118.057 134.738 455.91
2595 0 67.0803 12.8801 864 114.831 135.167 455.243
2596 0 68.1728 13.0551 890 132.854 134.855 453.973
2597 0 71.1088 12.8676 915 136.093 134.76 453.514
2598 0 75.1075 12.6485 950 137.674 134.845 451.684
2599 0 77.102 12.6715 977 133.401 135.377 450.806
2600 0 79.0834 12.7966 1012 132.771 135.675 450.034
2601 0 82.0947 12.7414 1046 125.152 134.85 449.001
2602 0 86.1122 12.7043 1094 133.648 134.373 446.97
2603 0 88.0454 12.4368 1095 132.219 134.622 446.102
2604 0 91.1954 12.3362 1125 132.898 134.251 444.954
2605 1 45.0862 11.4226 515 134.748 133.342 466.957
2606 0 49.1314 11.7237 576 131.203 133.542 465.679
2607 0 46.0341 12.4038 571 130.538 134.149 464.832
2608 0 49.011 12.3646 606 128.866 134.573 463.946
2609 0 53.0707 12.0405 639 134.441 134.638 463.676
2610 0 53.0766 12.4914 663 131.451 133.857 463.327
2611 0 55.1088 12.8292 707 128.576 134.397 463.13
2612 0 57.0306 12.7651 728 129.201 134.359 461.519
2613 0 59.048 12.9217 763 129.692 134.284 460.608
2614 0 61.0274 12.8631 785 129.498 134.056 459.738
2615 0 63.1236 13.1963 833 126.507 134.618 458.735
2616 0 64.1262 13.0836 839 127.513 134.477 457.622
2617 0 65.2136 13.6015 887 131.156 134.129 456.058
2618 0 67.1786 13.2483 890 127.726 133.736 455.451
2619 0 72.0498 13.0882 943 130.738 133.592 454.057
2620 0 73.1551 13.4509 984 122.745 134.633 452.867
2621 0 74.1574 13.377 992 128.301 134.288 451.98
2622 0 77.1306 13.5614 1046 125.579 134.478 450.813
2623 0 79.1187 13.4987 1068 125.049 133.931 449.058
2624 0 83.1972 13.1855 1097 126.451 133.674 447.917
2625 1 44.1724 11.3646 502 125.508 134.886 467.962
2626 0 44.0767 12.3421 544 117.632 134.706 467.018
2627 0 46.0743 12.3496 569 128.011 133.722 467.216
2628 0 46.0417 12.619 581 130.628 133.329 465.697
2629 0 48.008 12.6437 607 132.928 133.178 465.222
2630 0 50.0195 12.3952 620 132.379 132.416 465.084
2631 0 52.0624 12.7731 665 135.747 132.905 463.803
2632 0 53.1449 12.8517 683 129.685 132.458 464.354
2633 0 53.1857 13.1614 700 132.72 132.693 465.037
2634 0 57.0682 12.4237 709 131.327 132.329 462.694
2635 0 59.1182 12.7034 751 138.108 132.382 461.98
2636 0 60.034 12.5262 752 139.29 132.936 460.539
2637 0 62.1171 12.7662 793 128.503 132.444 459.924
2638 0 63.2162 12.7657 807 136.584 132.678 459.108
2639 0 67.0893 12.6846 851 135.976 132.542 459.625
2640 0 66.2222 12.8356 850 130.429 131.749 456.876
2641 0 69.3929 12.912 896 135.962 132.003 456.134
2642 0 70.4703 12.97 914 132.787 132.354 455.21
2643 0 74.682 12.5867 940 127.18 131.522 452.615
2644 0 77.5855 12.5152 971 126.122 132.075 451.975
2645 1 42.3121 11.4388 484 125.132 131.762 468.033
2646 0 42.1974 11.2803 476 122.958 131.51 467.59
2647 0 44.2142 11.9871 530 128.379 132.147 470.17
2648 0 45.2161 11.8763 537 130.557 132.631 469.428
2649 0 46.0535 12.7243 586 131.259 133.125 468.101
2650 0 48.2051 12.1357 585 132.479 132.969 468.494
2651 0 49.0306 12.1149 594 129.283 133.386 467.675
2652 0 50.0737 12.5215 627 127.64 133.383 466.743
2653 0 51.0424 12.519 639 122.138 133.203 466.845
2654 0 52.0727 12.5594 654 131.451 133.26 465.83
2655 0 53.0904 12.4505 661 124.012 133.283 465.89
2656 0 54.1023 12.8091 693 130.009 132.95 464.133
2657 0 57.0542 12.4969 713 124.811 133.323 463.494
2658 0 58.2082 12.713 740 126.258 133.277 462.268
2659 0 60.2367 12.9489 780 128.1 133.672 461.44
2660 0 62.3012 13.1779 821 127.39 133.146 460.079
2661 0 63.2512 13.312 842 128.505 133.166 458.702
2662 0 65.2346 13.1679 859 126.014 133.927 458.513
2663 0 67.0827 13.2672 890 138.582 133.935 457.647
2664 0 69.2054 13.1782 912 142.33 134.037 456.123
2665 0 70.1516 13.4423 943 146.696 133.665 455.951
2666 0 73.1559 13.5464 991 136.691 133.938 455.692
2667 0 75.3744 13.36 1007 134.616 134.12 453.734
2668 0 79.2864 13.6467 1082 136.088 134.437 452.409
2669 0 81.6672 13.6407 1114 134.316 134.234 449.66
2670 1 43.1275 11.153 481 141.861 133.274 469.802
2671 0 43.112 11.9224 514 131.782 133.233 467.558
2672 0 47.3139 12.2163 578 135.493 132.74 466.088
2673 0 49.0815 13.0192 639 143.099 132.956 466.648
2674 0 50.2676 13.1695 662 137.711 132.938 466.924
2675 0 52.1559 12.7886 667 141.81 133.336 466.214
2676 0 53.035 12.8406 681 143.279 133.363 465.673
2677 0 55.0566 13.0593 719 129.282 133.503 465.007
2678 0 56.1023 13.0476 732 134.809 133.419 463.671
2679 0 59.0488 13.0401 770 139.439 133.239 463.538
2680 0 59.1437 13.5771 803 133.535 133.062 462.291
2681 0 62.1575 13.2888 826 132.275 133.3 461.137
2682 0 62.194 13.3775 832 129.895 133.159 461.131
2683 0 65.1324 13.4342 875 133.037 133 460.063
2684 0 65.2093 14.0777 918 126.217 133.272 459.162
2685 0 70.3962 14.7451 1038 121.098 133.978 456.986
2686 0 72.2166 14.2488 1029 120.33 133.393 456.477
2687 0 73.4818 14.2348 1046 125.188 131.936 454.946
2688 0 77.1721 14.1891 1095 121.635 133.1 451.867
2689 0 80.453 14.1449 1138 123.785 132.857 452.08
2690 0 84.5665 13.7643 1164 121.229 132.886 450.462
2691 0 86.3075 13.7763 1189 117.363 132.892 449.701
2692 0 88.32 14.3003 1263 120.344 132.898 448.115
2693 0 93.34 13.874 1295 117.249 132.995 444.646
2694 1 47.059 12.1337 571 112.489 133.578 468.215
2695 0 49.0497 12.3548 606 116.602 132.545 469.48
2696 0 51.0493 12.9679 662 112.548 133.072 468.521
2697 0 52.0437 13.2005 687 111.394 132.716 468.346
2698 0 55.0486 12.8614 708 110.997 133.329 467.517
2699 0 55.0246 13.1578 724 113.218 133.094 466.289
2700 0 58.1794 12.7021 739 111.518 132.836 465.161
2701 0 59.0877 13.4546 795 117.492 133.707 464.306
2702 0 62.1995 13.0548 812 126.336 133.815 463.318
2703 0 63.0597 13.4476 848 130.657 133.818 462.529
2704 0 66.0888 13.4819 891 124.843 133.751 461.468
2705 0 68.2354 13.2043 901 124.222 133.821 460.7
2706 0 72.1535 13.2911 959 117.255 133.397 458.767
2707 0 73.2112 13.3859 980 118.401 133.365 457.815
2708 0 75.2583 13.2211 995 112.792 133.315 456.981
2709 0 77.2093 13.6642 1055 114.864 133.602 455.103
2710 1 39.1582 10.7768 422 119.04 134.341 474.422
2711 0 41.1037 10.8993 448 121.348 133.527 474.092
2712 0 41.1395 11.3516 467 120.904 133.668 472.88
2713 0 44.1262 11.7617 519 120.622 133.593 472.489
2714 0 45.0408 11.9225 537 114.998 132.886 471.898
2715 0 48.0181 12.1204 582 115.869 132.289 471.576
2716 0 50.2165 12.0677 606 116.422 132.543 470.208
2717 0 49.056 12.8017 628 114.6 132.847 468.537
2718 0 51.0375 12.5202 639 113.62 132.607 469.027
2719 0 53.1393 12.8906 685 111.143 133.223 467.945
2720 0 55.144 12.549 692 117.89 133.676 468.009
2721 0 58.0725 12.5705 730 111.175 133.264 466.585
2722 0 57.0402 12.7279 726 131.494 133.211 466.094
2723 0 60.1065 13.2099 794 139.01 132.961 464.936
2724 0 61.0142 13.2592 809 136.057 132.915 464.34
2725 0 63.1235 13.4815 851 132.82 132.797 463.248
2726 0 66.1016 13.3885 885 128.729 133.308 462.826
2727 0 67.2656 13.6325 917 133.708 133.542 461.411
2728 0 69.1576 13.5198 935 137.521 133.456 460.257
2729 0 69.2213 13.6808 947 138.224 132.892 460.386
2730 0 74.2902 13.1915 980 129.782 132.741 458.214
2731 0 75.2976 13.7189 1033 130.846 132.567 457.663
2732 0 77.1505 13.6875 1056 128.099 133.236 455.989
2733 0 80.3579 13.7261 1103 121.085 133.809 455.578
2734 0 82.2893 13.3553 1099 116.942 132.797 452.61
2735 0 84.2654 13.7423 1158 122.881 133.228 450.093
2736 0 88.2629 13.5391 1195 119.538 133.044 449.878
2737 0 90.2236 14.0096 1264 126.328 133.065 448.325
2738 0 94.3566 13.5232 1276 135.73 132.897 446.812
2739 0 98.2637 13.4027 1317 132.514 133.259 445.839
2740 1 51.0295 12.0322 614 133.827 133.792 469.423
2741 0 51.0449 12.4988 638 130.027 133.835 469.32
2742 0 55.0703 12.3115 678 136.195 133.294 468.296
2743 0 55.1718 12.9414 714 134.196 131.604 466.595
2744 0 58.2605 12.7187 741 122.664 131.984 464.495
2745 0 58.1265 13.0921 761 132.398 132.026 464.965
2746 0 60.1422 13.2519 797 129.048 132.077 464.264
2747 0 64.1968 13.0224 836 123.689 131.999 462.626
2748 0 66.2363 12.8026 848 125.632 132.428 461.968
2749 0 68.1112 13.2871 905 124.715 132.175 460.028
2750 0 71.1308 13.2432 942 116.539 132.631 459.292
2751 0 72.3233 13.5226 978 120.043 133.371 458.498
2752 0 75.326 13.4482 1013 118.996 132.845 456.673
2753 0 78.2642 13.3522 1045 119.219 132.897 455.784
2754 0 80.2828 12.9418 1039 127.409 132.916 455.571
2755 0 82.3013 13.3169 1096 122.384 133.325 453.948
2756 0 87.2624 13.4651 1175 129.34 133.109 451.35
2757 0 89.3224 13.1882 1178 125.992 133.078 450.755
2758 1 46.196 11.4296 528 127.879 132.652 471.773
2759 0 50.355 11.4785 578 128.708 133.606 468.125
2760 0 51.3055 12.4158 637 131.181 132.518 468.529
2761 0 53.2647 12.6726 675 131.05 133.234 467.281
2762 0 54.0443 13.1004 708 131.901 133.292 466.465
2763 0 56.1327 13.4859 757 125.626 133.608 465.758
2764 0 58.0968 13.2882 772 117.829 132.981 464.734
2765 0 59.0966 13.9433 824 127.761 133.121 463.724
2766 0 62.2546 13.4127 835 132.64 133.503 463.308
2767 0 64.2208 13.2979 854 126.833 132.912 462.21
2768 0 66.2362 13.3613 885 120.408 133.576 460.731
2769 0 68.2687 14.1646 967 121.705 133.861 458.51
2770 0 70.4312 13.6445 961 128.317 133.665 457.078
2771 0 72.2259 13.4578 972 130.777 133.876 456.292
2772 0 73.336 13.8404 1015 128.335 134.483 455.404
2773 0 77.2463 13.7741 1064 125.756 134.282 452.705
2774 0 78.451 14.149 1110 116.532 134.153 451.533
2775 0 80.3997 14.1045 1134 130.404 134.282 450.856
2776 0 82.4644 14.2607 1176 123.735 134.747 449.313
2777 0 87.4627 13.7316 1201 121.149 134.047 447.373
2778 0 91.4045 13.8286 1264 121.117 134.048 445.82
2779 0 94.4933 13.5565 1281 125.623 134.233 444.422
2780 0 97.5802 13.9065 1357 122.761 134.082 441.447
2781 0 101.435 13.6146 1381 125.303 134.335 439.992
2782 0 105.457 13.8445 1460 121.921 134.586 438.097
2783 0 108.603 13.4711 1463 122.964 134.812 437.647
2784 1 54.4157 12.4596 678 131.327 135.065 463.541
2785 0 59.3702 12.6326 750 122.525 135.351 461.453
2786 0 61.2483 13.2575 812 126.686 135.314 460.065
2787 0 62.137 13.4702 837 123.491 135.282 459.934
2788 0 63.1762 13.5494 856 120.015 135.408 459.201
2789 0 64.543 13.4174 866 123.383 135.717 456.738
2790 0 68.2838 13.0778 893 120.275 135.747 454.761
2791 0 71.1681 13.2222 941 118.486 135.886 452.851
2792 0 72.353 13.0195 942 114.774 135.707 451.683
2793 0 73.3134 13.4218 984 114.855 135.598 450.543
2794 0 78.4205 13.1981 1035 111.386 135.567 448.51
2795 0 81.3854 13.8108 1124 110.902 135.42 446.749
2796 0 83.345 13.5101 1126 120.582 135.988 445.799
2797 0 85.3592 14.1168 1205 115.995 136.293 445.432
2798 0 89.2195 13.5396 1208 115.92 136.866 443.498
2799 0 92.4085 13.4728 1245 116.127 136.654 441.283
2800 0 96.4008 13.226 1275 111.822 136.586 440.329
2801 1 47.194 11.0184 520 117.563 137.962 465.819
2802 0 49.071 12.003 589 110.508 138.025 465.538
2803 0 52.0966 12.9375 674 114.307 137.737 462.671
2804 0 53.1441 12.9836 690 109.742 136.457 461.465
2805 0 55.0371 13.0639 719 113.114 136.492 463.604
2806 0 55.0693 14.0368 773 107.837 136.159 462.01
2807 0 58.1442 13.4493 782 99.9015 135.934 461.953
2808 0 58.0933 14.1841 824 109.091 136.053 460.85
2809 0 63.1195 13.5616 856 105.027 136.004 459.018
2810 0 64.034 13.8832 889 103.231 136.195 458.394
2811 0 67.056 13.3471 895 108.496 136.315 458.648
2812 0 67.1114 13.8874 932 107.063 136.406 456.983
2813 0 70.1332 13.6169 955 104.773 136.434 455.622
2814 0 73.1056 13.6515 998 100.505 136.95 455.798
2815 0 74.1571 13.5928 1008 110.506 137.005 454.111
2816 0 77.252 13.8249 1068 106.31 136.971 452.483
2817 0 81.1213 13.5599 1100 107.643 136.676 450.938
2818 0 84.0356 13.4229 1128 104.017 136.688 448.268
2819 0 87.2342 13.4924 1177 103.716 136.575 446.999
2820 0 90.1173 13.5046 1217 112.144 136.807 447.664
2821 0 92.1117 13.6031 1253 114.033 137.378 445.606
2822 0 96.1579 13.2282 1272 116.896 137.796 444.605
2823 1 51.2567 13.5007 692 110.779 136.568 464.611
2824 0 52.2125 13.6174 711 118.232 136.273 464.411
2825 0 56.2627 13.117 738 118.259 136.004 464.802
2826 0 56.2281 13.4097 754 116.643 136.18 464.057
2827 0 61.2456 13.503 827 121.042 136.397 461.666
2828 0 61.1799 13.6156 833 110.772 136.043 460.43
2829 0 62.1441 13.5652 843 107.336 135.354 460.172
2830 0 64.2327 13.8247 888 108.392 134.435 459.266
2831 0 67.3893 13.3256 898 110.777 134.298 459.725
2832 0 68.4521 13.9221 953 111.343 134.056 457.946
2833 0 69.311 14.1247 979 103.219 133.925 457.753
2834 0 72.1799 13.9374 1006 111.694 133.505 455.097
2835 0 76.2969 13.5785 1036 105.45 132.948 453.755
2836 0 78.2188 13.8713 1085 108.545 132.416 451.953
2837 0 82.292 13.8409 1139 111.465 132.559 449.401
2838 0 86.3493 13.8855 1199 109.141 132.792 447.216
2839 0 85.3108 14.1131 1204 110.551 132.896 447.615
2840 0 90.1119 13.794 1243 107.126 132.849 443.542
2841 1 43.2729 13.542 586 116.246 132.623 466.193
2842 0 45.2082 13.5816 614 107.735 132.598 464.79
2843 0 47.4222 14.3182 679 111.191 132.423 463.707
2844 0 48.4219 14.2498 690 113.441 132.899 463.464
2845 0 48.184 14.6522 706 110.358 132.499 461.857
2846 0 51.4662 14.3589 739 111.529 132.671 460.07
2847 0 53.4044 14.4745 773 114.608 133.229 460.171
2848 0 54.2956 14.5868 792 120.967 132.567 459.374
2849 0 56.3174 14.7024 828 123.618 132.411 459.019
2850 0 56.1637 14.7782 830 123.228 133.143 458.707
2851 0 61.3549 14.6036 896 119.262 133.09 457.454
2852 0 62.6199 14.4842 907 122.078 133.191 456.417
2853 0 65.7332 14.787 972 120.747 132.652 454.76
2854 0 67.4004 14.8367 1000 116.167 133.403 454.491
2855 0 69.3985 14.8851 1033 113.595 133.925 453.445
2856 0 71.4808 14.6893 1050 115.151 133.933 453.083
2857 0 74.6852 14.5544 1087 111.889 133.728 451.354
2858 0 75.3707 14.8466 1119 116.521 133.754 450.694
2859 0 79.531 14.7112 1170 134.812 133.609 449.64
2860 0 83.5314 14.294 1194 132.985 134.333 448.706
2861 0 86.642 14.5541 1261 138.677 134.152 446.756
2862 0 87.4689 14.4509 1264 143.236 134.459 446.721
2863 0 91.8735 14.237 1308 134.647 134.52 444.377
2864 1 45.7369 13.5558 620 140.981 134.644 466.11
2865 0 45.3407 14.5565 660 134.574 134.608 466.458
2866 0 48.5303 14.8361 720 137.319 134.176 465.275
2867 0 50.4816 14.7777 746 133.578 134.126 464.662
2868 0 52.4725 14.4647 759 128.298 134.129 463.652
2869 0 54.5194 14.3252 781 122.927 134.567 463.211
2870 0 56.6464 14.5111 822 130.489 134.582 460.832
2871 0 57.3463 14.9792 859 132.841 134.234 459.121
2872 0 59.6313 15.0257 896 133.377 133.902 457.387
2873 0 62.363 14.9287 931 122.709 133.467 456.425
2874 0 64.3175 15.1436 974 135.28 133.729 455.923
2875 0 67.4797 14.8637 1003 134.504 133.541 454.598
2876 0 70.3877 14.96 1053 133.834 134.178 453.403
2877 0 70.4926 15.3208 1080 134.148 134.869 452.256
2878 0 73.2777 15.3116 1122 131.654 135.037 450.134
2879 0 75.4908 15.1674 1145 133.879 135.322 449.643
2880 0 80.292 14.8832 1195 132.379 134.836 448.198
2881 0 81.3234 15.297 1244 130.018 135.31 447.061
2882 0 84.3414 15.1883 1281 133.068 134.777 445.148
2883 0 88.5665 14.9379 1323 130.791 134.872 442.71
2884 0 91.2931 15.4228 1408 128.69 134.543 441.4
2885 0 93.2834 15.1903 1417 127.315 134.594 439.371
2886 0 99.1779 14.7714 1465 129.267 134.496 438.674
2887 0 101.393 15.1391 1535 132.896 134.482 435.741
2888 0 107.416 15.0351 1615 131.718 134.684 435.226
2889 0 111.212 14.6297 1627 137.33 134.95 431.781
2890 1 56.3159 12.9093 727 138.494 134.025 457.023
2891 0 57.2965 13.6483 782 139.156 134.515 456.676
2892 0 61.3605 13.2822 815 130.719 134.227 455.789
2893 0 63.722 13.606 867 134.896 134.469 455.437
2894 0 65.2717 13.4668 879 128.598 134.257 453.486
2895 0 67.4221 13.7195 925 138.372 134.252 452.605
2896 0 68.5616 14.0312 962 137.937 135.075 451.186
2897 0 73.277 13.8379 1014 137.232 134.615 449.395
2898 0 74.4509 13.9555 1039 134.688 134.981 448.48
2899 0 77.4485 14.2805 1106 130.159 135.247 447.636
2900 0 81.5943 13.9838 1141 126.269 135.083 445.871
2901 0 83.6708 14.067 1177 129.828 134.779 444.354
2902 0 86.5996 13.7645 1192 134.644 135.388 443.3
2903 0 86.3483 14.1983 1226 128.535 135.759 442.797
2904 0 91.4716 14.1355 1293 128.23 135.623 441.712
2905 0 93.6179 13.9503 1306 128.49 135.607 439.289
2906 0 96.365 14.0507 1354 126.124 135.828 438.013
2907 0 99.6328 14.3326 1428 116.4 135.22 436.057
2908 0 104.512 13.9888 1462 118.893 136.022 434.722
2909 0 106.714 14.2062 1516 128.709 136.323 432.863
2910 0 111.454 14.1942 1582 119.005 136.527 429.829
2911 0 114.403 14.0731 1610 142.348 136.37 428.276
2912 0 118.726 13.9818 1660 135.69 136.492 426.104
2913 0 121.495 14.3462 1743 137.761 136.411 423.891
2914 1 70.4029 11.0081 775 131.426 137.071 452.359
2915 0 71.2128 10.9671 781 134.736 137.151 450.209
2916 0 75.2013 10.7312 807 126.835 136.589 448.682
2917 0 77.3912 10.9832 850 130.062 136.324 448.016
2918 0 80.5013 10.8942 877 129.737 135.894 446.023
2919 0 82.2787 10.8169 890 133.479 135.767 445.218
2920 0 86.3954 11.2275 970 126.523 136.41 442.731
2921 0 89.3649 11.1453 996 122.511 136.14 442.064
2922 0 90.549 11.2204 1016 120.682 136.218 440.459
2923 0 94.48 11.1875 1057 119.746 136.373 438.643
2924 0 97.6115 11.136 1087 122.913 136.486 438.784
2925 0 99.6064 10.923 1088 124.375 136.248 437.437
2926 0 103.643 11.2116 1162 120.983 136.156 436.151
2927 1 59.1686 9.21096 545 101.316 136.864 460.292
2928 0 58.4876 9.72856 569 102.851 136.83 459.938
2929 0 62.1917 10.146 631 100.193 136.361 457.599
2930 1 36.0912 7.75812 280 103.018 136.15 471.461
2931 0 37.0984 7.54749 280 116.011 135.361 470.129
2932 0 38.0546 7.6469 291 107.21 135.543 469.646
2933 0 40.0293 7.51949 301 109.007 135.365 469.904
2934 0 40.0186 7.82136 313 106.307 134.39 469.387
2935 0 44.0225 7.29172 321 105.991 133.723 468.131
2936 0 44.037 8.26578 364 103.676 134.277 467.313
2937 0 45.114 7.93545 358 112.349 134.553 466.57
2938 0 47.026 8.48467 399 117.118 134.897 464.822
2939 0 48.0734 8.61182 414 114.365 134.8 465.386
2940 0 47.0383 8.73756 411 111.681 134.871 465.74
2941 0 49.056 8.70433 427 109.354 134.48 463.981
2942 0 52.1224 8.42248 439 111.251 135.328 463.617
2943 0 53.2909 7.95634 424 109.594 136.854 463.196
2944 0 52.1766 8.60539 449 105.786 137.457 462.938
2945 0 55.2598 8.72244 482 103.22 137.124 462.512
2946 0 59.1962 8.61542 510 105.414 137.039 462.402
2947 0 58.1912 9.07354 528 101.326 137.212 462.044
2948 0 60.1853 9.32121 561 101.419 137.367 460.342
2949 0 62.1083 9.95036 618 100.105 137.469 458.586
2950 0 62.1061 10.2566 637 100.595 137.598 458.202
2951 0 65.3056 10.3054 673 100.41 136.738 456.645
2952 0 66.2229 10.4496 692 105.1 136.53 456.288
2953 0 69.2424 10.4993 727 104.524 137.067 454.36
2954 0 72.219 11.022 796 103.411 136.877 453.236
2955 0 73.5186 10.8816 800 105.362 136.966 451.782
2956 0 76.3085 11.3094 863 113.718 136.499 451.021
2957 0 80.333 11.2407 903 107.007 136.446 449.367
2958 0 82.3881 11.4822 946 110.202 136.554 448.137
2959 0 84.3515 11.6062 979 109.244 136.663 447.392
2960 0 86.2236 11.1106 958 115.803 135.18 446.356
2961 0 88.3497 11.6016 1025 110.52 134.903 444.616
2962 0 89.2674 11.7848 1052 115.556 135.211 442.891
2963 0 92.2159 10.9309 1008 109.312 134.582 440.972
2964 1 51.3812 9.26408 476 113.284 134.433 465.277
2965 0 51.3237 10.4045 534 115.783 134.925 463.543
2966 0 55.2239 10.4665 578 112.318 134.631 463.151
2967 0 56.1751 10.9301 614 113.744 134.581 463.244
2968 0 57.0538 10.8669 620 107.105 134.91 462.768
2969 0 59.1201 11.2483 665 109.338 134.726 461.468
2970 0 59.1925 11.5217 682 109.509 135.142 459.213
2971 0 61.1682 11.0842 678 114.934 134.99 460.184
2972 0 63.1736 11.9037 752 107.993 134.758 459.719
2973 0 65.1453 11.6048 756 110.065 134.536 459.074
2974 0 64.141 12.0516 773 111.215 134.181 458.802
2975 0 67.1558 12.0019 806 115.511 133.548 459.029
2976 0 70.2726 11.5835 814 113.394 134.27 458.348
2977 0 70.3561 11.9677 842 122.409 133.918 457.531
2978 0 72.4368 11.7758 853 117.286 133.723 457.328
2979 0 75.4493 12.3792 934 117.966 132.992 454.614
2980 0 77.2312 12.3914 957 116.736 133.726 454.143
2981 0 77.321 12.752 986 114.453 133.445 452.422
2982 0 79.3092 12.5584 996 112.944 132.693 452.016
2983 1 42.1367 10.727 452 116.124 132.936 470.429
2984 0 43.131 11.0825 478 118.877 131.856 469.59
2985 0 45.3757 11.526 523 113.639 131.979 469.662
2986 0 46.0493 11.77 542 115.17 132.666 469.526
2987 0 44.3281 12.3624 548 114.109 133.007 469.631
2988 0 47.3812 12.0723 572 104.72 133.573 469.528
2989 0 49.3971 12.0655 596 111.834 133.987 468.859
2990 0 49.3444 12.6255 623 111.209 134.006 467.838
2991 0 53.0325 12.4829 662 111.397 134.198 467.239
2992 0 53.0936 12.4874 663 113.276 133.926 466.002
2993 0 55.1886 12.5569 693 115.665 134.338 465.427
2994 0 56.0614 12.8252 719 113.786 134.413 464.739
2995 0 58.1367 12.4878 726 109.957 134.107 463.568
2996 0 60.2121 12.5888 758 108.219 133.79 463.309
2997 0 61.2167 13.199 808 103.941 133.807 462.286
2998 0 64.2494 12.7316 818 109.443 133.67 461.839
2999 0 65.1843 12.9326 843 105.514 133.133 459.902
3000 0 67.5063 12.9766 876 105.167 133.668 458.46
3001 0 67.3068 13.5202 910 104.557 133.792 457.784
3002 0 72.1816 13.189 952 99.7742 134.012 456.429
3003 0 73.248 13.0243 954 118.919 133.938 455.798
3004 0 74.3936 13.0925 974 107.28 133.992 454.096
3005 0 77.3048 13.5308 1046 118.178 133.51 451.803
3006 0 78.5665 13.1863 1036 116.998 133.508 450.796
3007 0 80.4849 12.8347 1033 119.87 133.644 448.656
3008 0 85.5244 13.084 1119 114.187 133.972 448.148
3009 0 88.6376 12.9516 1148 121.012 133.72 445.36
3010 1 46.5482 10.5267 490 116.09 134.218 466.359
3011 0 47.6565 10.8065 515 114.66 134.689 466.276
3012 0 49.5839 11.3343 562 112.201 133.861 465.696
3013 0 51.2359 11.9252 611 110.643 133.944 465.725
3014 0 52.0705 12.5599 654 108.758 134.576 465.526
3015 0 55.3086 12.1681 673 108.082 134.426 463.285
3016 0 56.3765 11.9199 672 105.189 134.933 462.741
3017 0 57.3332 12.4186 712 100.542 135.169 461.289
3018 0 60.3339 12.033 726 104.708 134.444 461.945
3019 0 61.3189 12.7367 781 105.786 134.933 460.883
3020 0 63.3916 12.967 822 110.659 135.277 457.405
3021 0 63.4776 12.8392 815 118.514 135.372 456.812
3022 0 65.4641 13.2439 867 118.155 135.519 455.388
3023 0 68.4091 13.1561 900 120.053 135.18 454.188
3024 0 70.6696 13.3579 944 110.103 135.582 453.092
3025 0 71.6795 13.1837 945 112.867 135.579 450.958
3026 0 75.5259 13.267 1002 113.807 135.99 450.086
3027 0 77.5669 13.1241 1018 110.806 135.821 449.04
3028 0 79.5124 13.2181 1051 107.817 135.67 446.941
3029 0 81.3398 12.958 1054 105.561 135.435 445.748
3030 0 84.6289 12.8443 1087 106.113 135.513 445.403
3031 0 88.5296 12.7415 1128 103.668 136.227 443.956
3032 0 91.5641 12.9199 1183 103.68 136.707 442.819
3033 0 93.5721 12.6961 1188 108.593 136.849 441.154
3034 1 52.3317 10.7965 565 104.395 137.366 461.149
3035 0 52.2456 10.6612 557 106.74 137.47 460.598
3036 0 55.1509 10.3353 570 102.712 135.923 459.137
3037 0 55.1292 11.0105 607 109.374 136.329 457.354
3038 0 60.085 11.7667 707 105.741 136.644 456.955
3039 0 60.0872 12.6649 761 107.497 136.97 456.239
3040 0 63.1378 12.1797 769 110.358 136.529 456.555
3041 0 63.1206 12.7534 805 108.955 137.087 454.496
3042 0 64.2614 12.4491 800 115.028 136.988 453.682
3043 0 68.0942 11.8512 807 115.011 137.16 451.782
3044 0 68.0783 12.324 839 118.311 137.646 450.744
3045 0 72.0785 12.1395 875 113.024 137.551 450.274
3046 0 73.2602 11.9983 879 115.317 137.859 447.309
3047 0 77.1203 12.3962 956 113.548 137.71 446.564
3048 0 79.3276 12.253 972 109.534 137.436 445.276
3049 0 81.2504 12.443 1011 112.714 137.455 444.083
3050 0 87.1195 13.3954 1167 110.677 137.868 443.494
3051 0 91.0962 12.9863 1183 108.235 137.413 442.106
3052 0 94.1793 12.9328 1218 111.528 137.639 441.31
3053 1 50.0789 12.1009 606 105.485 137.744 463.366
3054 0 52.1149 12.3573 644 104.488 138.387 462.138
3055 0 53.0269 12.4654 661 104.991 137.201 461.174
3056 0 54.0567 12.5609 679 106.088 137.442 460.356
3057 0 56.0796 12.3218 691 102.78 137.46 460.275
3058 0 58.1105 12.9237 751 102.864 137.662 458.77
3059 0 59.0814 12.9313 764 102.288 137.804 458.537
3060 0 61.1139 13.1558 804 109.565 137.522 456.805
3061 0 63.0397 12.8966 813 108.395 137.069 456.119
3062 0 64.0666 13.1114 840 115.263 136.462 455.293
3063 0 64.0333 13.3368 854 113.23 136.726 455.32
3064 0 67.0799 13.2379 888 116.62 136.377 454.573
3065 0 69.1926 13.5419 937 111.531 136.395 453.931
3066 0 70.0999 13.5949 953 111.762 136.111 453.319
3067 0 73.0639 13.4813 985 121.604 136.123 452.189
3068 0 75.0863 13.5844 1020 119.906 135.771 451.71
3069 0 77.083 13.0509 1006 117.812 136.553 451.13
3070 0 80.1159 13.6178 1091 117.5 135.859 450.613
3071 0 81.1043 13.2176 1072 117.946 136.096 449.164
3072 0 84.1248 12.9213 1087 113.967 135.877 447.374
3073 0 87.0994 13.1918 1149 108.157 135.086 445.631
3074 0 96.1155 15.4294 1483 100.409 136.302 439.14
3075 0 98.1243 15.2867 1500 97.666 135.788 438.745
3076 0 97.1098 13.0986 1272 111.855 135.511 440.892
3077 0 100.133 13.2923 1331 111.563 135.331 438.128
3078 0 104.377 13.5087 1410 116.57 135.059 436.621
3079 1 57.0638 11.7062 668 118.979 134.916 460.865
3080 0 58.1199 12.1301 705 117.423 134.399 460.36
3081 0 59.071 12.5273 740 111.131 134.191 459.904
3082 0 61.1421 12.9207 790 118.737 134.619 458.801
3083 0 62.0737 13.2584 823 116.522 134.917 457.789
3084 0 66.0986 13.0109 860 112.081 133.944 456.376
3085 0 66.1291 13.3678 884 115.135 134.236 456.054
3086 0 68.0545 13.6214 927 104.265 133.652 455.165
3087 0 71.1132 13.8652 986 102.178 134.504 453.491
3088 0 74.0892 13.3758 991 100.785 133.717 453.884
3089 0 78.1746 13.0733 1022 109.412 133.856 452.524
3090 0 78.0903 13.3563 1043 111.197 133.687 451.184
3091 0 80.1505 13.4123 1075 106.571 133.585 450.374
3092 0 83.1388 13.1347 1092 119.656 133.549 449.925
3093 0 84.1587 13.4745 1134 119.174 132.97 448.397
3094 0 88.2313 13.4759 1189 114.75 133.509 446.008
3095 0 91.341 13.3565 1220 109.495 132.793 444.313
3096 0 95.3418 13.1422 1253 117.364 132.606 443.132
3097 0 98.4641 13.609 1340 119.351 132.663 440.038
3098 0 100.409 13.5147 1357 117.988 132.806 439.872
3099 1 58.1965 11.7705 685 121.582 133.984 461.492
3100 0 59.1944 12.4674 738 122.676 133.668 458.313
3101 0 61.0717 12.9192 789 120.035 134.261 460.307
3102 0 62.1629 12.8855 801 121.376 133.981 459.896
3103 0 64.1665 13.4026 860 120.785 133.936 457.814
3104 0 67.1741 12.9961 873 122.512 133.891 456.581
3105 0 68.2067 13.7816 940 120.215 134.046 452.993
3106 0 69.4004 13.8472 961 112.824 134.659 451.017
3107 0 73.1886 13.4447 984 117.884 133.853 451.187
3108 0 77.2426 13.3734 1033 121.32 134.544 449.386
3109 0 78.3368 13.4803 1056 117.443 133.319 446.604
3110 0 80.1781 13.4451 1078 110.376 133.532 444.836
3111 0 84.2388 12.975 1093 112.353 133.864 443.694
3112 0 87.2751 13.8642 1210 113.167 133.462 443.383
3113 0 88.149 13.5906 1198 114.987 133.72 442.316
3114 0 92.3691 13.6084 1257 109.369 134.415 441.428
3115 0 95.2809 13.3815 1275 134.504 134.484 440.03
3116 0 100.306 13.5386 1358 166.795 134.56 437.621
3117 0 102.39 13.6048 1393 158.436 134 435.455
3118 0 104.406 13.7827 1439 165.575 133.263 434.079
3119 0 107.239 13.8662 1487 162.644 133.188 432.268
3120 0 112.3 13.9359 1565 156.282 133.07 430.722
3121 0 116.217 13.6813 1590 170.909 133.394 429.268
3122 0 119.243 14.0302 1673 162.128 133.377 426.922
3123 0 123.305 14.1357 1743 165.071 133.922 424.977
3124 1 65.3228 12.8286 838 159.59 133.81 452.976
3125 0 68.2029 13.2839 906 157.403 134.342 454.02
3126 0 71.1692 13.2642 944 157.947 133.608 452.279
3127 0 74.1552 13.3369 989 153.689 133.565 450.42
3128 0 75.1753 13.4752 1013 154.616 133.583 449.414
3129 0 79.0774 14.6818 1161 142.24 134.962 443.618
3130 0 79.2786 13.4841 1069 152.864 134.958 444.563
3131 0 82.2323 13.5227 1112 154.485 134.557 444.981
3132 0 86.1734 13.6005 1172 154.244 134.205 444.218
3133 0 89.2899 13.6298 1217 159.239 134.597 441.979
3134 0 91.2594 13.7849 1258 154.944 135.557 440.004
3135 0 95.2732 13.3826 1275 161.927 134.718 439.457
3136 0 99.2534 13.7627 1366 158.319 135.085 437.928
3137 0 102.119 13.6703 1396 159.136 135.117 435.931
3138 0 106.306 13.4046 1425 154.523 135.838 434.466
3139 0 110.182 13.7682 1517 154.167 135.017 432.309
3140 0 111.212 14.0183 1559 147.019 135.687 430.191
3141 0 116.139 13.4666 1564 155.019 135.811 429.035
3142 0 120.389 13.4896 1624 145.916 136.474 426.86
3143 0 125.399 13.8438 1736 148.976 136.011 423.912
3144 1 71.1937 12.6275 899 155.117 135.61 449.395
3145 0 73.1171 13.2801 971 155.104 135.462 448.191
3146 0 77.1888 13.1884 1018 153.109 136.329 448.076
3147 0 80.1744 12.847 1030 152.675 136.065 446.571
3148 0 82.1461 13.476 1107 160.478 135.565 445.882
3149 0 85.1319 13.2383 1127 161.189 135.137 445.021
3150 0 88.2199 13.183 1163 154.429 135.363 443.397
3151 0 90.156 13.8427 1248 146.542 135.218 441.191
3152 0 95.156 13.4096 1276 156.303 135.413 440.217
3153 0 98.1188 13.341 1309 154.895 134.87 438.695
3154 0 99.2042 13.6486 1354 148.674 135.56 435.185
3155 0 104.241 13.5839 1416 144.47 135.013 433.408
3156 0 109.221 13.285 1451 144.223 135.482 434.422
3157 0 111.205 13.3268 1482 141.586 134.961 432.681
3158 0 115.194 13.2994 1532 142.935 135.15 430.448
3159 0 117.231 13.3753 1568 150.381 135.655 427.222
3160 0 122.437 13.2558 1623 154.866 136.019 423.651
3161 1 65.1075 12.0109 782 150.129 136.994 453.465
3162 0 69.1526 12.5953 871 151.611 134.993 451.543
3163 0 71.1194 13.1328 934 149.255 134.953 451.064
3164 0 74.1782 13.0901 971 156.319 135.136 451.418
3165 0 77.1177 13.1876 1017 156.188 134.983 449.478
3166 0 79.2239 13.039 1033 154.949 135.533 449.396
3167 0 81.08 13.3325 1081 151.049 134.644 447.488
3168 0 84.1366 13.3355 1122 155.903 135.205 446.4
3169 0 86.297 13.3608 1153 157.411 135.781 444.728
3170 0 88.1878 13.2671 1170 159.216 135.363 444.326
3171 0 91.317 13.36 1220 160.222 135.245 443.425
3172 0 94.1964 13.2808 1251 163.093 135.175 441.149
3173 0 96.2726 13.4722 1297 158.406 134.374 439.831
3174 0 100.325 13.4663 1351 159.294 134.496 438.606
3175 0 102.458 13.8886 1423 153.593 135.339 436.842
3176 0 104.383 13.8049 1441 161.446 135.922 435.455
3177 0 110.419 13.7748 1521 162.094 135.408 433.923
3178 0 111.436 13.5593 1511 154.829 135.278 433.374
3179 1 61.5107 12.8108 788 162.685 135.345 457.372
3180 0 62.2502 13.0281 811 166.063 134.101 458.549
3181 0 64.1186 13.2567 850 148.034 134.469 458.004
3182 0 67.3021 13.1497 885 140.664 134.791 455.495
3183 0 69.2623 12.9941 900 142.17 133.65 455.532
3184 0 70.2542 13.2804 933 148.51 133.29 453.937
3185 0 74.2121 13.3671 992 151.253 133.683 452.407
3186 0 74.2615 13.3986 995 141.18 133.359 451.962
3187 0 78.4587 13.1534 1032 142.896 133.618 449.012
3188 0 81.3502 13.3005 1082 132.37 133.344 448.189
3189 0 84.2868 13.5015 1138 144.026 133.26 446.934
3190 0 87.385 13.3433 1166 144.331 133.353 445.555
3191 0 91.5515 13.0418 1194 144.75 133.753 443.837
3192 0 93.2732 13.2943 1240 150.958 133.926 440.981
3193 0 97.4558 13.1239 1279 154.575 133.973 440.851
3194 0 101.65 13.271 1349 150.794 134.786 439.18
3195 0 104.571 13.1202 1372 155.532 133.988 437.176
3196 0 110.388 14.4672 1597 151.017 134.557 432.604
3197 1 57.1565 11.8622 678 149.935 133.165 459.442
3198 0 62.29 12.3936 772 141.124 134.269 460.364
3199 0 62.1141 12.8956 801 136.001 133.357 459.184
3200 0 65.2416 12.7526 832 138.05 133.547 459.169
3201 0 67.1437 12.7488 856 138.397 133.775 457.592
3202 0 68.2759 12.9035 881 151.28 133.199 456.16
3203 0 70.3067 13.1282 923 158.441 133.22 454.871
3204 0 74.218 12.8001 950 155.366 133.296 453.717
3205 0 76.27 13.2293 1009 150.337 134.104 453.24
3206 0 78.2464 13.3297 1043 143.543 134.096 452.163
3207 0 80.2259 13.7985 1107 138.802 134.392 449.449
3208 0 82.2802 13.9037 1144 142.977 134.546 446.552
3209 0 87.3909 13.3195 1164 144.456 134.378 444.635
3210 0 88.4552 13.1931 1167 151.392 134.656 445.642
3211 0 90.5777 13.8666 1256 149.643 133.941 442.88
3212 0 94.4598 13.2543 1252 142.467 134.074 441.651
3213 0 97.5036 13.1893 1286 147.757 133.642 439.757
3214 0 100.564 13.3249 1340 146.248 133.898 439.319
3215 0 103.409 13.6545 1412 136.419 133.705 437.384
3216 0 106.403 13.4207 1428 132.822 133.109 434.902
3217 0 108.392 13.7095 1486 129.843 132.75 432.806
3218 0 113.44 13.6195 1545 135.915 133.986 432.545
3219 1 62.0325 12.2355 759 145.41 134.493 460.038
3220 0 64.3372 12.4656 802 161.103 132.409 456.744
3221 0 66.3168 12.5609 833 159.837 132.264 455.682
3222 0 68.0628 12.9439 881 164.168 133.539 455.742
3223 0 69.1422 12.9877 898 157.968 133.351 454.81
3224 0 73.2033 13.3874 980 159.584 133.04 452.607
3225 0 75.1424 13.1085 985 159.337 133.76 452.481
3226 0 77.2473 12.8807 995 163.506 133.377 451.413
3227 0 80.3196 13.4089 1077 158.283 134.209 449.744
3228 0 82.2952 13.2936 1094 158.02 134.42 448.556
3229 0 84.2874 13.5608 1143 156.349 134.266 447.254
3230 0 87.2589 13.3855 1168 149.299 133.677 446.312
3231 0 90.3215 13.3634 1207 142.2 134.243 444.165
3232 0 92.2811 13.2963 1227 139.887 133.382 443.398
3233 0 95.3563 13.4129 1279 133.321 133.832 441.57
3234 0 98.3748 13.2249 1301 141.061 133.959 440.251
3235 0 102.412 13.2797 1360 139.076 133.643 438.335
3236 0 105.31 13.3605 1407 127.432 134.263 435.794
3237 0 107.452 13.2989 1429 126.756 133.739 433.745
3238 0 112.491 13.1744 1482 125.865 133.982 431.958
3239 0 116.264 13.1684 1531 128.147 134.916 431.315
3240 0 119.474 12.9903 1552 119.633 135.606 429.673
3241 1 63.2172 11.7689 744 123.927 134.407 456.222
3242 0 66.0865 12.3323 815 154.493 134.629 454.982
3243 0 69.15 12.4657 862 156.594 135.824 453.189
3244 0 71.1476 12.9449 921 154.506 135.936 451.645
3245 0 75.1684 12.8911 969 146.305 136.86 449.801
3246 0 79.0991 13.1481 1040 154.23 136.685 449.083
3247 0 79.2177 12.8633 1019 155.333 136.927 446.759
3248 0 83.2146 13.303 1107 149.619 136.796 446.101
3249 0 85.2026 13.1569 1121 152.323 135.776 444.788
3250 0 86.4037 13.0781 1130 152.187 136.157 443.759
3251 0 90.1237 13.1819 1188 152.159 135.839 441.609
3252 0 91.2312 13.2192 1206 151.891 137.004 440.924
3253 0 96.2728 13.0878 1260 139.068 136.208 439.803
3254 0 99.3035 13.3429 1325 127.94 136.912 437.009
3255 0 103.275 13.1106 1354 121.133 136.347 435.937
3256 0 106.278 12.6932 1349 124.146 136.342 434.968
3257 1 56.2237 12.0412 677 129.313 136.86 459.468
3258 0 58.2156 13.0721 761 127.724 135.782 457.987
3259 0 60.1018 12.8449 772 135.066 136.133 456.694
3260 0 61.1566 13.3919 819 127.47 136.31 456.153
3261 0 62.044 13.4421 834 138.124 136.495 454.263
3262 0 64.186 13.2428 850 134.221 135.604 451.754
3263 0 66.1547 13.5591 897 144.99 135.264 452.064
3264 0 67.1578 13.7437 923 141.836 135.634 451.522
3265 0 70.2228 13.7847 968 132.197 136.591 450.949
3266 0 73.0932 13.6812 1000 126.774 135.137 448.92
3267 0 74.2748 13.7866 1024 131.959 134.744 448.9
3268 0 76.29 13.5404 1033 133.782 135.565 448.296
3269 0 77.2602 13.694 1058 134.539 134.98 447.486
3270 0 81.3558 13.9511 1135 130.176 134.959 445.924
3271 0 83.332 13.9682 1164 137.605 134.932 444.725
3272 0 84.25 13.9466 1175 148.083 134.871 444.255
3273 0 89.36 13.8764 1240 149.979 134.99 442.622
3274 0 91.3097 14.2701 1303 146.745 135.15 440.147
3275 0 94.4294 13.8304 1306 160.652 135.687 439.889
3276 0 97.6186 14.2493 1391 139.842 135.393 438.145
3277 0 100.613 13.8849 1397 150.642 135.795 436.75
3278 0 101.234 14.1751 1435 147.092 135.023 436.855
3279 0 105.436 14.1982 1497 142.342 135.162 435.353
3280 0 109.758 14.3315 1573 145.507 135.791 433.25
3281 0 113.496 14.0622 1596 139.432 135.219 431.313
3282 0 117.573 14.2465 1675 148.71 135.736 429.226
3283 0 118.492 14.0938 1670 146.484 135.221 427.466
3284 0 123.524 14.2078 1755 144.194 135.795 425.607
3285 1 64.3853 12.7514 821 152.29 134.999 455.325
3286 0 68.2379 12.7935 873 150.229 134.536 454.283
3287 0 69.2273 14.0552 973 139.067 134.36 452.943
3288 0 72.38 14.1475 1024 143.021 134.259 450.419
3289 0 75.5803 13.866 1048 142.649 134.365 450.211
3290 0 76.5679 14.2227 1089 145.061 133.681 450.168
3291 0 79.3181 14.3221 1136 147.245 133.97 448.035
3292 0 81.4557 14.0935 1148 157.013 134.341 447.74
3293 0 85.2201 14.2103 1211 154.124 134.197 445.874
3294 0 88.2657 14.3544 1267 152.879 134.393 444.039
3295 0 93.4528 14.1569 1323 157.413 133.472 443.085
3296 0 94.4262 14.3604 1356 156.68 133.695 441.748
3297 0 97.3528 14.2574 1388 156.666 134.143 440.87
3298 0 101.579 14.1072 1433 159.373 133.671 439.413
3299 0 105.534 14.0145 1479 152.757 133.898 436.527
3300 0 108.663 14.2275 1546 157.402 133.87 434.448
3301 1 57.3135 12.8068 734 158.286 133.613 458.606
3302 0 59.2259 13.9128 824 160.83 134.152 458.36
3303 0 61.226 14.2913 875 152.989 134.389 457.567
3304 0 64.3326 13.8343 890 155.394 133.644 456.843
3305 0 66.4175 13.9722 928 157.218 133.677 455.893
3306 0 68.3376 13.7552 940 162.346 133.641 454.983
3307 0 69.456 14.1672 984 154.385 133.287 453.192
3308 0 73.5018 14.2446 1047 151.426 133.302 452.295
3309 0 75.3767 14.3413 1081 158.393 132.994 449.703
3310 0 77.3713 15.1219 1170 150.374 133.012 447.834
3311 0 80.4096 14.451 1162 159.213 133.399 448.836
3312 0 86.3008 15.2953 1320 143.734 133.284 444.447
3313 0 87.478 14.1864 1241 150.933 133.309 445.306
3314 0 90.3685 14.12 1276 149.437 133.025 444.145
3315 0 92.4446 14.1707 1310 153.456 133.207 442.365
3316 0 95.2865 14.0524 1339 154.966 132.855 441.394
3317 0 99.533 14.0757 1401 143.753 132.97 439.555
3318 0 101.348 14.2677 1446 151.55 132.781 438.437
3319 0 104.415 14.3657 1500 153.569 132.565 436.026
3320 0 109.316 14.17 1549 157.832 132.477 435.866
3321 0 110.428 14.3442 1584 161.429 132.306 434.966
3322 0 114.45 14.6439 1676 152.742 132.748 432.371
3323 0 119.45 14.4496 1726 156.65 133.287 429.598
3324 0 121.367 14.5591 1767 157.516 132.892 428.643
3325 0 127.576 14.5012 1850 155.099 132.987 426.614
3326 0 130.424 14.5525 1898 159.75 133.439 424.136
3327 0 135.312 14.7216 1992 161.639 133.619 422.795
3328 0 137.334 15.3349 2106 161.384 133.463 421.142
3329 0 143.292 14.3343 2054 168.256 134.157 419.677
3330 0 147.281 15.1479 2231 160.384 133.918 418.32
3331 0 151.192 14.9611 2262 162.189 133.518 417.684
3332 0 157.443 14.9768 2358 162.394 133.441 413.354
3333 0 162.311 14.7988 2402 156.308 133.883 410.7
3334 0 165.245 14.8144 2448 158.915 133.424 408.564
3335 0 172.266 16.0798 2770 155.114 134.361 403.353
3336 0 179.45 14.8119 2658 157.246 134.162 402.635
3337 0 183.348 15.0751 2764 141.326 134.09 399.524
3338 0 189.506 15.4243 2923 144.594 133.99 394.666
3339 0 195.6 15.317 2996 157.571 134.375 393.335
3340 0 201.724 14.966 3019 158.002 134.072 390.489
3341 0 207.94 15.1967 3160 148.504 134.188 384.979
3342 0 214.906 15.1415 3254 148.495 134.761 382.346
3343 0 222.716 15.1718 3379 147.603 134.771 378.613
3344 0 231.632 14.9763 3469 149.703 135.316 374.057
3345 1 68.2912 12.8421 877 149.936 134.731 456.537
3346 0 69.1231 13.3675 924 162.214 134.925 455.092
3347 0 72.0691 14.2502 1027 150.104 136.078 451.901
3348 0 73.0667 13.7546 1005 162.015 135.473 452.278
3349 0 76.1942 13.8068 1052 160.813 136.05 449.751
3350 0 79.2026 13.8506 1097 160.583 136.042 449.113
3351 0 83.1876 13.9564 1161 159.072 136.245 447.113
3352 0 85.2017 13.6969 1167 158.943 135.506 445.904
3353 0 87.1317 14.0707 1226 160.3 135.754 444.685
3354 0 91.2489 13.8303 1262 156.836 135.786 442.464
3355 0 95.0997 13.9012 1322 152.355 135.805 440.176
3356 0 97.156 13.9363 1354 148.47 136.451 439.072
3357 0 101.242 13.6109 1378 153.553 136.031 438.254
3358 0 104.167 13.5936 1416 149.204 135.513 436.835
3359 0 107.147 13.8968 1489 154.448 135.941 434.555
3360 0 111.236 13.8894 1545 156.922 136.093 433.049
3361 0 115.302 13.946 1608 155.527 136.083 430.678
3362 0 118.296 13.8889 1643 151.948 135.29 425.417
3363 0 120.175 14.1295 1698 148.92 135.941 421.217
3364 0 125.158 13.7666 1723 158.187 135.99 420.667
3365 0 130.335 13.8106 1800 156.398 136.654 419.632
3366 1 76.0872 12.88 980 164.088 135.956 445.368
3367 0 78.0353 13.4042 1046 159.283 136.405 444.606
3368 0 81.0806 13.1227 1064 156.143 137.443 446.105
3369 0 85.2124 13.4605 1147 151.201 137.028 444.736
3370 0 87.191 13.0059 1134 151.265 136.941 442.744
3371 0 92.2535 13.3762 1234 147.322 136.664 441.516
3372 0 93.2305 13.354 1245 143.931 137.366 440.594
3373 0 97.1531 13.2163 1284 139.991 137.263 437.479
3374 0 101.103 13.323 1347 131.792 137.18 435.038
3375 0 104.305 13.355 1393 133.526 137.897 433.699
3376 0 109.232 13.8146 1509 138.94 136.99 429.295
3377 1 61.2494 12.7022 778 134.802 136.374 454.527
3378 0 63.2735 12.8648 814 133.99 136.576 455.48
3379 0 64.2596 12.8541 826 135.034 136.232 454.95
3380 0 66.2748 12.5387 831 135.197 135.844 453.545
3381 0 68.4329 13.1223 898 137.507 136.926 450.786
3382 0 69.289 13.22 916 141.952 136.639 450.18
3383 0 72.4157 13.1049 949 149.94 136.888 449.385
3384 0 73.3658 13.0715 959 150.859 137.212 448.182
3385 0 76.2433 13.5225 1031 143.433 136.687 446.226
3386 0 77.3624 13.4432 1040 140.639 136.879 445.913
3387 0 80.475 13.5197 1088 152.737 136.374 444.433
3388 0 83.558 13.1525 1099 157.884 137.034 442.981
3389 0 86.5882 13.3274 1154 151.191 137.159 441.127
3390 0 88.7137 13.6506 1211 149.055 137.002 440.689
3391 0 91.6533 13.7256 1258 153.076 136.531 439.427
3392 0 94.6323 13.6317 1290 150.174 135.912 437.496
3393 0 97.5632 13.6527 1332 148.173 137.02 435.125
3394 0 101.548 13.8063 1402 150.28 136.254 431.967
3395 0 105.63 13.784 1456 150.149 136.496 430.775
3396 0 108.654 13.8329 1503 147.548 136.395 430.552
3397 0 109.597 14.2522 1562 144.291 136.948 429.197
3398 0 115.54 13.7961 1594 145.165 137.264 427.064
3399 0 119.688 13.9111 1665 141.65 136.439 424.683
3400 0 121.481 13.9693 1697 138.68 136.333 421.529
3401 1 68.3725 11.9785 819 137.284 135.814 450.982
3402 0 70.2438 12.6275 887 126.282 136.814 449.289
3403 0 73.4204 12.9664 952 133.017 136.433 449.99
3404 0 75.362 13.1499 991 137.306 135.542 449.487
3405 0 79.4485 12.9014 1025 135.977 136.15 448.597
3406 0 81.3372 12.7371 1036 128.866 135.053 448.042
3407 0 84.4931 13.0543 1103 122.049 135.092 446.813
3408 0 87.4047 12.6652 1107 127.095 134.866 446.853
3409 0 88.5663 13.4024 1187 123.188 135.346 444.277
3410 0 90.3415 13.4158 1212 128.993 134.754 442.906
3411 0 95.4576 12.6653 1209 127.504 135.574 440.356
3412 0 97.4685 12.8657 1254 131.888 134.869 439.509
3413 0 100.52 13.261 1333 138.116 135.525 437.965
3414 0 103.544 13.0958 1356 139.422 135.788 436.869
3415 0 107.293 13.2348 1420 137.547 134.764 435.461
3416 0 109.347 13.3428 1459 131.973 134.48 434.423
3417 1 62.1657 11.6946 727 133.392 134.799 458.023
3418 0 64.1649 12.2653 787 127.961 135.812 456.806
3419 0 65.0903 12.5364 816 134.627 135.561 456.377
3420 0 69.0519 12.8744 889 131.184 134.592 455.931
3421 0 71.1462 13.1138 933 125.219 133.397 455.805
3422 0 71.1493 12.8743 916 134.029 133.954 455.523
3423 0 74.1448 13.0825 970 128.954 133.492 453.738
3424 0 77.2011 13.0179 1005 130.857 134.508 452.918
3425 0 79.1652 13.6803 1083 122.73 134.157 451.363
3426 0 81.1227 13.72 1113 129.783 134.447 450.181
3427 0 85.101 13.6191 1159 121.354 134.164 449.168
3428 0 86.1083 13.2856 1144 127.842 134.418 448.876
3429 0 91.1636 13.3935 1221 122.682 133.829 446.391
3430 0 95.11 14.3518 1365 118.007 134.067 443.277
3431 0 95.2188 13.9888 1332 115.577 134.056 443.491
3432 0 98.1896 13.4434 1320 118.846 133.909 443.155
3433 0 102.185 13.4266 1372 114.715 134.219 440.17
3434 0 106.219 13.5381 1438 117.474 134.283 439.725
3435 0 109.158 13.6683 1492 114.79 134.501 436.693
3436 0 112.397 13.5947 1528 113.887 133.946 434.032
3437 0 115.283 13.8095 1592 111.305 133.812 432.518
3438 0 118.393 13.5481 1604 109.954 133.769 431.105
3439 0 123.327 13.7278 1693 107.684 133.843 429.845
3440 0 127.369 13.5904 1731 106.801 133.51 427.532
3441 1 67.1743 12.0731 811 107.862 133.324 457.201
3442 0 69.0238 12.3725 854 105.715 132.9 455.919
3443 0 74.0606 12.9489 959 104.075 132.443 454.983
3444 0 74.0477 13.6399 1010 98.995 132.249 453.795
3445 0 76.0849 13.3929 1019 105.282 132.485 453.318
3446 0 79.0291 13.5773 1073 105.747 132.205 452.63
3447 0 82.0729 13.2809 1090 115.506 132.939 451.339
3448 0 83.178 13.5493 1127 116.35 132.793 450.108
3449 0 86.1038 13.6579 1176 118.815 131.935 448.227
3450 0 89.0668 13.7986 1229 115.528 132.491 447.622
3451 0 92.1362 13.7622 1268 121.933 132.151 445.42
3452 0 95.0496 13.4246 1276 123.042 132.223 444.274
3453 0 98.1259 13.7171 1346 114.871 131.759 443.12
3454 0 100.08 13.9188 1393 118.912 132.19 442.154
3455 0 102.092 13.958 1425 117.559 131.636 439.983
3456 0 106.192 13.7769 1463 116.944 131.22 438.794
3457 0 110.229 13.6715 1507 120.061 132.317 437.448
3458 0 113.278 13.7979 1563 116.289 131.951 435.594
3459 0 115.264 13.8118 1592 114.964 131.789 433.608
3460 0 119.219 14.0917 1680 133.429 131.618 431.8
3461 0 124.305 14.1426 1758 133.973 131.549 430.553
3462 0 129.275 14.1559 1830 137.384 131.252 427.752
3463 0 134.261 14.1888 1905 137.426 131.416 426.183
3464 0 137.168 14.0047 1921 130.461 131.866 423.887
3465 1 72.1379 12.5177 903 137.77 130.425 455.044
3466 0 76.0776 12.4741 949 127.977 132.426 453.561
3467 0 78.2744 13.376 1047 126.154 132.611 452.618
3468 0 82.2334 13.4982 1110 131.141 132.213 450.49
3469 0 82.0839 13.7786 1131 142.13 131.782 448.812
3470 0 87.1452 13.4259 1170 142.982 131.267 448.898
3471 0 89.0863 13.6946 1220 141.946 131.937 446.702
3472 0 92.0605 13.6541 1257 144.186 131.052 444.227
3473 0 94.0675 13.671 1286 146.151 131.747 443.398
3474 0 99.3143 13.3616 1327 138.202 132.002 442.573
3475 0 102.104 13.6919 1398 135.585 131.655 440.169
3476 0 103.273 13.7886 1424 130.71 132.406 438.841
3477 0 108.096 13.5805 1468 127.881 131.935 437.493
3478 0 112.131 13.6537 1531 124.435 131.914 435.343
3479 0 114.255 13.8462 1582 126.154 132.374 434.049
3480 0 117.196 14.0449 1646 117.696 132.52 430.369
3481 0 123.16 13.787 1698 119.97 132.906 428.617
3482 0 126.238 14.3222 1808 118.19 132.147 426.078
3483 0 129.255 13.9414 1802 117.208 131.976 424.142
3484 0 136.213 14.1176 1923 109.077 133.047 422.3
3485 0 140.219 13.9853 1961 111.208 133.239 419.763
3486 0 145.37 13.6548 1985 115.95 132.885 418.099
3487 0 151.305 13.8727 2099 114.297 133.181 414.042
3488 1 86.2776 12.4598 1075 113.762 132.509 447.029
3489 0 88.1818 13.234 1167 115.91 132.953 444.772
3490 0 92.2402 13.4215 1238 110.777 133.325 442.395
3491 0 96.086 13.6024 1307 108.875 133.695 441.662
3492 0 100.1 13.2967 1331 118.85 133.546 438.591
3493 0 103.173 13.6664 1410 120.333 133.77 436.293
3494 0 107.219 13.4211 1439 119.669 134.147 436.129
3495 0 109.275 13.4706 1472 120.717 134.549 433.336
3496 0 113.162 12.9107 1461 118.32 134.737 430.923
3497 0 114.323 13.6018 1555 120.893 134.734 429.789
3498 0 118.399 13.4882 1597 116.845 134.566 427.31
3499 0 124.355 13.4614 1674 115.778 135.097 425.763
3500 0 126.453 13.7442 1738 123.219 134.925 423.866
3501 0 131.304 13.2745 1743 120.081 135.04 420.943
3502 1 72.2176 11.5346 833 123.145 134.866 452.132
3503 0 77.3595 12.5906 974 118.508 134.676 451.004
3504 0 77.3329 13.2932 1028 119.214 135.008 447.2
3505 0 79.2579 13.4371 1065 118.579 135.586 446.988
3506 0 82.2974 13.2933 1094 116.541 135.161 445.52
3507 0 85.226 13.517 1152 113.762 135.102 444.375
3508 0 89.33 13.1423 1174 121.255 135.248 443.092
3509 0 92.3121 13.4219 1239 123.944 135.242 442.383
3510 0 92.2031 13.2642 1223 122.571 135.259 441.011
3511 0 98.3986 12.9778 1277 121.901 135.088 439.027
3512 0 100.323 13.2771 1332 126.515 135.411 437.246
3513 0 104.438 13.6157 1422 127.189 135.469 435.676
3514 0 107.396 13.2127 1419 127.772 135.394 435.479
3515 0 109.253 13.6473 1491 128.54 136.382 432.386
3516 0 113.55 13.3158 1512 126.306 134.931 431.733
3517 0 117.391 13.6637 1604 119.615 135.01 430.385
3518 0 119.283 14.6626 1749 115.493 135.091 426.962
3519 0 122.34 13.9775 1710 117.115 135.29 426.463
3520 0 127.448 13.4486 1714 114.079 135.726 423.963
3521 1 69.1997 12.1966 844 122.761 135.321 452.399
3522 0 72.1652 12.1665 878 126.934 134.716 451.788
3523 0 72.1108 13.1603 949 127.727 134.889 450.083
3524 0 76.2009 13.8056 1052 121.149 135.305 449.295
3525 0 77.2413 14.0081 1082 116.363 134.791 448.832
3526 0 80.1008 14.3694 1151 115.925 134.831 446.722
3527 0 83.1131 13.8005 1147 114.049 135.415 446.473
3528 0 83.0936 14.3212 1190 114.147 135.118 446.131
3529 0 89.1589 13.919 1241 113.425 134.492 444.255
3530 0 91.1441 14.0766 1283 114.952 135.025 443.463
3531 0 94.056 13.7897 1297 113.588 134.635 441.558
3532 0 96.1019 13.9852 1344 118.571 135.467 440.189
3533 0 100.086 13.9181 1393 118.194 134.515 438.736
3534 0 103.107 14.2667 1471 115.191 134.69 436.886
3535 0 105.377 14.3484 1512 115.488 134.312 434.249
3536 0 107.328 14.125 1516 112.37 134.638 433.055
3537 0 111.195 13.6338 1516 113.283 133.431 431.658
3538 0 115.238 14.2401 1641 106.71 133.471 429.138
3539 0 119.223 14.0912 1680 113.794 133.385 427.269
3540 0 124.323 14.3014 1778 115.562 134.089 425.152
3541 1 68.2516 13.377 913 117.011 133.116 455.089
3542 0 71.1514 13.7734 980 112.992 133.559 453.935
3543 0 72.256 13.6321 985 117.195 134.175 453.362
3544 0 74.1091 13.5206 1002 114.331 133.443 453.08
3545 0 75.1779 14.4856 1089 112.788 133.064 450.626
3546 0 78.2664 14.5145 1136 114.871 132.989 449.51
3547 0 81.1558 13.9978 1136 120.485 133.649 447.511
3548 0 84.2318 14.8519 1251 115.741 133.807 445.548
3549 0 86.234 14.2867 1232 115.305 133.319 446.629
3550 0 89.2943 14.2562 1273 115.277 133.588 445.269
3551 0 91.4035 14.2992 1307 117.228 133.611 443.508
3552 0 94.3561 14.4559 1364 112.83 132.402 442.771
3553 0 96.2129 14.7693 1421 130.21 132.918 441.894
3554 0 98.2449 14.2501 1400 121.51 132.214 440.464
3555 0 102.442 14.2324 1458 122.416 133.254 439.095
3556 0 105.292 14.436 1520 128.414 132.905 438.051
3557 0 108.261 14.4927 1569 127.244 133.215 437.769
3558 0 109.334 14.378 1572 130.952 133.46 435.962
3559 0 115.244 14.0918 1624 129.786 133.349 435.126
3560 0 120.25 14.1455 1701 127.837 133.265 432.284
3561 0 121.226 14.2708 1730 131.655 133.523 429.767
3562 0 127.363 14.1878 1807 125.007 133.255 427.377
3563 1 68.3418 13.213 903 133.258 133.391 456.944
3564 0 71.4013 13.4591 961 129.545 133.248 455.255
3565 0 75.3199 13.8343 1042 129.224 132.61 453.936
3566 0 77.3363 13.9262 1077 124.211 132.874 453.363
3567 0 80.2883 14.012 1125 126.264 132.716 451.426
3568 0 83.2941 14.1667 1180 122.435 133.704 449.12
3569 0 84.2917 14.4736 1220 114.886 133.469 448.626
3570 0 88.2674 14.1728 1251 125.429 133.596 447.836
3571 0 91.3101 14.2262 1299 128.739 133.412 445.373
3572 0 95.3604 14.052 1340 123.756 133.239 443.913
3573 0 97.3195 14.1287 1375 120.174 132.863 442.167
3574 0 100.319 14.3443 1439 126.314 133.167 440.505
3575 0 105.215 14.209 1495 129.898 132.963 438.343
3576 0 107.415 14.4579 1553 124.143 132.466 437.507
3577 0 111.308 14.2488 1586 130.726 132.744 435.383
3578 0 113.276 14.7957 1676 120.666 132.742 433.606
3579 0 116.483 14.3025 1666 125.736 133.723 432.222
3580 0 123.254 15.0259 1852 118.151 133.579 427.481
3581 0 126.28 14.1036 1781 112.549 133.87 426.559
3582 0 131.408 14.1087 1854 116.667 133.484 424.818
3583 0 135.457 14.6541 1985 114.465 133.885 422.344
3584 0 140.388 14.2533 2001 117.759 134.021 420.956
3585 0 147.467 13.9014 2050 119.494 134.018 417.038
3586 1 79.2779 12.7274 1009 132.044 134.136 449.311
3587 0 82.2507 13.3737 1100 116.911 134.536 447.837
3588 0 86.3235 13.4378 1160 119.409 134.425 445.598
3589 0 88.4157 13.5157 1195 111.203 133.92 443.622
3590 0 91.2642 13.8718 1266 108.751 134.197 442.225
3591 0 94.2269 13.701 1291 114.352 134.19 441.977
3592 0 95.2033 13.76 1310 115.906 134.529 439.379
3593 0 101.45 13.7605 1396 128.11 135.072 437.964
3594 0 101.355 14.1384 1433 128.652 135.018 436.624
3595 0 106.292 14.4132 1532 123.081 135.034 434.77
3596 0 109.405 14.4509 1581 128.86 135.327 433.48
3597 0 111.639 14.1438 1579 129.139 134.956 431.751
3598 0 116.245 14.6415 1702 127.864 135.484 429.216
3599 0 120.366 14.215 1711 131.909 135.478 427.753
3600 0 123.267 14.3266 1766 129.559 135.972 426.232
3601 0 128.276 14.1725 1818 140.362 135.518 422.673
3602 0 133.339 14.4069 1921 134.825 135.559 420.5
3603 0 138.376 14.4823 2004 132.112 135.441 418.173
3604 0 142.264 14.4942 2062 126.52 135.32 416.635
3605 0 144.225 15.1014 2178 123.601 136.034 413.886
3606 0 150.274 14.8063 2225 119.237 135.813 411.983
3607 0 155.461 14.5824 2267 123.318 136.089 408.872
3608 0 155.461 14.5824 2267 173.581 137.089 408.872
3609 1 166.301 14.7864 2459 128.871 137.301 402.881
3610 0 171.187 14.6039 2500 128.522 137.461 401.572
3611 0 175.189 14.8525 2602 125.377 137.118 399.57
3612 1 100.175 13.137 1316 129.659 136.968 436.903
3613 0 103.283 13.4097 1385 130.964 136.691 434.554
3614 0 105.139 13.7913 1450 135.655 136.718 432.061
3615 0 110.13 14.0017 1542 131.733 137.086 430.217
3616 0 113.226 14.1045 1597 135.776 137.069 429.818
3617 0 116.328 13.7543 1600 139.101 136.461 427.256
3618 0 121.177 14.062 1704 125.803 136.353 424.467
3619 0 124.171 14.1096 1752 131.982 137.336 422.892
3620 0 129.228 13.8205 1786 139.956 137.373 420.864
3621 0 134.146 14.0295 1882 135.113 136.65 417.447
3622 0 139.26 13.8948 1935 125.595 136.897 415.227
3623 0 144.404 14.0716 2032 129.635 136.19 412.932
3624 0 148.251 14.2933 2119 127.31 136.261 410.321
3625 0 154.338 14.8376 2290 119.172 136.334 405.112
3626 0 159.284 14.1885 2260 125.268 136.531 404.856
3627 0 166.43 14.1321 2352 119.188 137.194 402.087
3628 0 172.3 14.1033 2430 122.074 136.865 399.363
3629 0 180.657 14.1871 2563 121.366 137.129 393.579
3630 1 107.288 12.7787 1371 128.205 135.9 432.915
3631 0 111.56 13.105 1462 117.819 135.912 430.898
3632 0 113.378 13.6447 1547 117.07 135.76 429.368
3633 0 117.519 13.6744 1607 116.116 136.086 427.558
3634 0 122.354 13.8942 1700 111.654 135.409 426.418
3635 0 124.445 13.5964 1692 111.818 135.511 424.787
3636 0 129.371 13.8825 1796 105.306 135.742 424.198
3637 0 132.46 13.8306 1832 113.1 135.808 422.404
3638 0 137.375 13.5832 1866 113.553 135.666 419.992
3639 0 141.34 13.7612 1945 116.703 135.504 415.625
3640 0 146.654 13.8557 2032 113.617 135.526 414.597
3641 0 151.658 13.748 2085 123.994 134.039 412.584
3642 0 155.976 13.4252 2094 120.258 134.176 409.587
3643 1 83.4921 12.3006 1027 126.799 134.61 445.519
3644 0 84.3465 12.7213 1073 123.338 134.063 443.541
3645 0 86.173 12.9159 1113 118.623 134.758 444.486
3646 0 91.2367 12.7799 1166 129.666 134.77 443.316
3647 0 94.2868 13.268 1251 116.257 134.943 440.856
3648 0 97.3606 13.2908 1294 115.159 134.843 439.563
3649 0 101.441 12.8646 1305 114.559 134.193 438.552
3650 0 104.353 13.1285 1370 108.523 134.444 438.481
3651 0 108.478 13.2285 1435 122.865 134.272 437.178
3652 0 111.336 13.3919 1491 120.886 134.709 435.109
3653 0 112.368 13.3135 1496 114.912 134.652 433.706
3654 0 116.442 13.4487 1566 117.526 134.914 430.909
3655 0 119.518 13.7385 1642 114.809 134.587 428.488
3656 0 124.442 13.4922 1679 114.156 133.903 425.562
3657 0 127.463 13.4078 1709 116.638 133.829 422.142
3658 0 130.613 13.9726 1825 118.506 134.108 423.212
3659 0 134.57 13.7178 1846 115.652 133.427 424.689
3660 0 141.523 13.6233 1928 116.701 133.957 421.223
3661 0 146.444 13.5956 1991 118.471 133.999 418.222
3662 0 150.586 14.0186 2111 110.514 133.689 412.25
3663 0 156.416 13.2787 2077 108.365 133.355 412.17
3664 0 161.6 13.8057 2231 106.517 133.437 409.377
3665 1 90.2974 12.3259 1113 108.7 133.188 444.869
3666 0 94.5801 12.5925 1191 116.613 133.304 441.656
3667 0 94.6956 13.6648 1294 115.238 133.327 439.295
3668 0 100.44 13.5006 1356 122.482 132.85 438.24
3669 0 102.474 13.1449 1347 116.196 134.01 438.843
3670 0 108.494 13.0514 1416 117.837 133.857 435.897
3671 0 108.433 13.8149 1498 110.703 133.78 432.755
3672 0 113.513 13.9984 1589 116.491 133.809 431.95
3673 0 118.479 13.5636 1607 107.212 133.798 429.934
3674 0 120.604 13.7972 1664 107.669 133.055 427.981
3675 0 125.503 13.8881 1743 105.444 132.846 424.016
3676 0 129.442 13.5968 1760 108.348 132.826 424.909
3677 0 133.718 13.7528 1839 104.657 132.667 422.212
3678 1 78.4289 11.8451 929 103.169 132.647 449.995
3679 0 81.1561 12.9996 1055 108.083 132.569 450.535
3680 0 85.1377 13.2609 1129 108.203 133.207 449.11
3681 0 87.1564 13.0455 1137 105.668 133.099 447.507
3682 0 89.1165 12.9381 1153 110.208 133.329 446.471
3683 0 93.4468 12.8629 1202 114.728 133.573 444.777
3684 0 94.4496 13.3193 1258 110.59 134.176 441.998
3685 0 98.1917 13.2903 1305 106.9 133.862 441.092
3686 0 101.292 13.6338 1381 105.093 134.322 439.415
3687 0 103.089 13.2604 1367 106.178 134.249 438.266
3688 0 106.197 13.0418 1385 109.956 134.248 436.832
3689 0 109.258 13.491 1474 110.557 134.657 434.856
3690 0 111.513 13.2003 1472 110.331 134.393 433.692
3691 0 115.366 13.1235 1514 103.313 133.933 432.756
3692 0 115.275 12.9082 1488 104.841 134.135 426.31
3693 0 120.389 12.6507 1523 99.2633 133.859 425.823
3694 0 126.505 13.7465 1739 99.3744 134.496 424.642
3695 0 129.498 13.8072 1788 100.873 134.654 422.916
3696 0 131.524 13.7769 1812 99.6606 134.671 421.663
3697 0 136.54 13.703 1871 98.0647 135.472 417.94
3698 0 141.445 13.8004 1952 94.2531 135.675 415.887
3699 0 146.595 13.2747 1946 91.6238 135.486 413.052
3700 0 150.525 13.6057 2048 93.9312 135.617 412.032
3701 0 155.624 13.7254 2136 88.6601 134.505 408.86
3702 0 161.782 13.8273 2237 107.026 134.609 407.494
3703 1 93.5168 12.9175 1208 102.978 135.082 442.033
3704 0 95.5668 13.1008 1252 109.927 135.401 439.867
3705 0 98.5456 13.2223 1303 106.952 135.273 437.602
3706 0 101.27 13.0245 1319 97.7316 135.672 436.637
3707 0 104.416 13.4558 1405 97.3537 135.991 433.821
3708 0 108.391 13.2298 1434 108.182 135.53 433.274
3709 0 111.625 13.635 1522 107.555 135.7 428.391
3710 0 114.481 13.5656 1553 111.361 136.081 429.471
3711 0 119.449 13.4366 1605 114.24 135.836 428.62
3712 0 121.542 14.0363 1706 105.702 136.696 426.952
3713 0 127.565 14.1811 1809 108.119 136.403 424.459
3714 0 129.498 13.6604 1769 107.143 135.393 423.17
3715 1 67.3403 12.3403 831 103.771 136.248 453.149
3716 0 69.2066 12.86 890 99.018 136.334 450.498
3717 0 72.3951 13.302 963 100.726 137.047 451.324
3718 0 74.3273 13.2118 982 105.85 136.189 450.161
3719 0 76.1906 13.0725 996 96.8022 136.131 448.317
3720 0 78.2378 13.3056 1041 103.232 136.843 446
3721 0 82.1973 13.2486 1089 106.686 136.623 446.656
3722 0 83.4058 13.2964 1109 105.197 136.198 445.675
3723 0 84.3207 13.4249 1132 105.145 135.691 443.797
3724 0 87.3285 13.7183 1198 105.937 136.199 442.217
3725 0 91.417 13.3236 1218 102.782 136.442 440.872
3726 0 94.3226 13.4962 1273 103.888 136.852 438.966
3727 0 97.5377 13.5742 1324 99.6533 136.824 437.678
3728 0 98.3336 13.8406 1361 100.314 136.914 437.835
3729 0 102.29 13.579 1389 103.769 136.495 435.304
3730 0 105.455 13.693 1444 104.065 136.464 434.086
3731 0 108.368 13.7956 1495 99.5217 135.813 433.483
3732 0 109.431 13.7621 1506 95.6321 136.034 430.731
3733 0 113.26 13.6589 1547 97.6025 136.116 429.388
3734 0 115.205 13.9317 1605 96.7944 136.363 428.65
3735 0 118.387 14.0049 1658 96.9849 135.896 426.664
3736 0 122.274 13.7724 1684 97.0119 135.616 426.198
3737 0 126.25 13.5287 1708 96.3208 135.997 422.065
3738 0 131.346 13.9707 1835 94.4556 135.728 421.291
3739 0 135.304 14.1164 1910 94.0309 135.269 418.825
3740 0 140.378 13.4351 1886 97.7789 135.173 416.335
3741 0 146.319 13.5321 1980 94.6793 135.232 414.093
3742 1 82.1696 11.9752 984 94.374 134.873 445.911
3743 0 85.3483 12.5486 1071 95.7507 134.74 442.529
3744 0 89.2359 13.257 1183 95.5275 134.793 441.693
3745 0 91.0902 13.053 1189 95.6114 134.03 438.359
3746 0 94.0733 13.2237 1244 98.0756 134.096 437.541
3747 0 96.2644 13.2448 1275 96.8902 133.755 436.104
3748 0 99.1184 13.0147 1290 97.345 133.682 434.022
3749 0 105.188 13.3856 1408 99.8729 133.918 433.768
3750 0 107.081 13.6065 1457 104.923 134.06 432.146
3751 0 111.178 13.7617 1530 103.306 134.508 432.354
3752 0 115.245 14.1698 1633 101.272 134.013 430.427
3753 0 117.264 13.8661 1626 105.665 134.683 427.991
3754 0 119.371 13.5879 1622 102.917 134.309 425.845
3755 0 125.336 13.8269 1733 102.327 134.505 424.474
3756 1 73.311 12.2083 895 103.724 133.184 450.052
3757 0 75.3894 12.7604 962 96.6788 134.114 450.101
3758 0 79.3047 13.1266 1041 101.776 133.525 449.524
3759 0 82.4311 13.0412 1075 99.4298 134.021 449.744
3760 0 83.3431 13.2584 1105 101.518 133.064 448.064
3761 0 87.4753 13.3638 1169 99.1557 134.182 446.613
3762 0 90.4447 14.097 1275 96.7514 134.407 446.111
3763 0 93.3115 13.2245 1234 96.8622 134.263 444.877
3764 0 95.6023 13.7549 1315 99.2935 133.637 443.107
3765 0 97.6578 13.5678 1325 97.7132 134.051 441.496
3766 0 102.697 13.496 1386 99.8167 133.491 438.72
3767 0 105.789 13.5648 1435 103.879 134.016 436.764
3768 0 108.831 13.9574 1519 100.876 134.136 435.468
3769 0 111.69 13.9045 1553 105.675 133.798 434.432
3770 0 116.81 13.9201 1626 106.149 134.367 432.263
3771 0 118.704 13.917 1652 102.277 133.967 430.59
3772 0 122.549 13.6844 1677 100.679 133.598 429.077
3773 0 127.573 13.8901 1772 98.7872 133.661 427.706
3774 1 72.4892 12.6364 916 100.638 133.407 452.753
3775 0 74.5062 13.2338 986 95.3185 132.948 450.322
3776 0 77.219 13.5718 1048 97.5401 134.021 451.269
3777 0 81.2639 13.4623 1094 93.0548 133.654 451.349
3778 0 82.5092 13.2228 1091 96.3199 133.285 450.156
3779 0 85.4758 13.5126 1155 98.6667 133.027 448.105
3780 0 88.4295 13.5136 1195 96.5414 132.416 447.021
3781 0 90.5162 13.8539 1254 96.8684 132.506 444.64
3782 0 94.3512 13.4815 1272 97.4057 132.311 443.442
3783 0 96.6163 13.8486 1338 95.8266 132.305 442.214
3784 0 99.4547 14.1371 1406 92.4559 132.371 440.024
3785 0 102.661 13.8515 1422 109.598 132.425 438.281
3786 0 105.612 13.9188 1470 114.176 131.963 436.677
3787 0 109.587 14.0984 1545 109.474 132.364 435.68
3788 0 110.469 13.7685 1521 106.865 131.624 435.062
3789 0 115.67 14.0054 1620 105.056 132.088 432.749
3790 0 118.548 13.7666 1632 105.6 132.033 431.965
3791 0 123.62 13.9621 1726 108.081 132.155 430.535
3792 0 124.401 13.7539 1711 110.283 132.534 429.038
3793 0 130.388 13.5211 1763 111.434 132.087 426.836
3794 1 74.2984 12.046 895 110.003 132.429 454.631
3795 0 78.2504 12.6261 988 57.3907 132.714 452.392
3796 0 81.1885 12.7481 1035 107.624 132.125 451.776
3797 0 81.186 13.2289 1074 108.809 132.06 450.225
3798 0 85.265 13.288 1133 108.884 132.362 449.524
3799 0 85.1372 13.4136 1142 106.677 132.955 448.023
3800 0 90.2071 12.9147 1165 106.888 132.749 445.335
3801 0 93.1858 13.1672 1227 110.328 133.139 445.555
3802 0 96.2322 13.0102 1252 103.716 133.04 444.637
3803 0 96.4816 13.3704 1290 111.94 132.752 442.816
3804 0 100.21 13.6514 1368 112.122 132.82 440.397
3805 0 103.302 13.5428 1399 112.626 132.836 440.175
3806 0 107.366 12.9743 1393 111.047 133.016 438.74
3807 0 110.294 13.5456 1494 109.521 132.679 435.902
3808 0 113.305 13.8741 1572 104.953 132.941 433.695
3809 0 117.257 13.6196 1597 106.847 133.048 431.643
3810 0 120.291 13.5588 1631 105.986 132.895 429.974
3811 0 123.422 13.5956 1678 101.772 133.203 427.909
3812 0 125.256 14.115 1768 105.178 133.493 425.009
3813 0 131.341 14.2073 1866 101.017 133.107 422.332
3814 0 134.891 13.8853 1873 106.112 133.371 420.707
3815 0 138.468 14.0032 1939 103.461 133.729 418.553
3816 0 143.525 14.0185 2012 105.914 134.422 416.436
3817 0 147.504 14.2369 2100 101.355 134.405 415.183
3818 0 152.651 14.0844 2150 102.273 134.466 412.037
3819 0 155.521 14.3261 2228 107.349 133.806 409.518
3820 0 163.431 14.3792 2350 102.842 134.161 405.633
3821 0 169.476 13.8131 2341 103.696 133.924 403.678
3822 1 100.462 12.4226 1248 99.9479 134.056 438.047
3823 0 104.399 12.9024 1347 94.248 134.088 437.369
3824 0 106.455 13.1886 1404 92.5897 134.498 436.63
3825 0 109.576 13.3332 1461 92.6208 134.212 433.882
3826 0 113.585 13.4877 1532 95.7291 134.638 431.99
3827 0 118.7 13.3193 1581 95.604 134.495 430.175
3828 0 120.512 13.4177 1617 89.3216 134.015 427.852
3829 0 123.763 13.4128 1660 93.2753 134.627 426.084
3830 0 126.639 13.4793 1707 98.4646 134.701 424.315
3831 1 72.4298 11.5008 833 98.1477 134.612 453.359
3832 0 74.5171 12.0509 898 100.318 134.973 452.006
3833 0 78.4972 12.2552 962 98.5541 135.19 450.222
3834 0 80.4517 13.1259 1056 94.2708 135.608 450.535
3835 0 83.5352 12.9646 1083 97.0942 135.374 447.959
3836 0 86.4754 13.2754 1148 102.097 135.875 446.191
3837 0 87.7148 13.3273 1169 90.8845 135.712 445.499
3838 0 91.5489 13.5774 1243 98.0322 135.571 443.563
3839 0 95.6392 13.5196 1293 98.3983 135.621 442.766
3840 0 97.4303 13.5995 1325 92.7087 136.177 441.98
3841 0 100.803 13.5909 1370 95.8007 136.247 440.325
3842 0 103.694 13.9932 1451 95.7657 136.068 438.043
3843 0 104.693 13.9838 1464 101.111 136.383 437.398
3844 0 110.463 13.7693 1521 101.073 136.341 436.308
3845 0 112.58 14.0433 1581 102.863 136.467 434.237
3846 0 114.371 14.1557 1619 109.964 137.01 431.52
3847 0 119.558 13.7172 1640 109.42 135.91 431.013
3848 0 124.588 13.9902 1743 104.204 136.263 429.103
3849 0 128.495 13.9072 1787 109.73 137.025 425.84
3850 1 72.2476 12.6233 912 110.195 136.605 454.227
3851 0 74.2426 13.3077 988 109.262 136.393 451.716
3852 0 77.3763 14.2421 1102 111.27 136.01 450.318
3853 0 80.129 14.0149 1123 108.228 136.5 450.095
3854 0 82.0998 13.8125 1134 110.879 136.284 448.894
3855 0 85.0599 14.1195 1201 107.47 136.954 447.819
3856 0 89.0978 13.6592 1217 100.608 137.048 445.385
3857 0 90.0996 13.9734 1259 98.3106 135.376 444.69
3858 0 94.1476 13.7444 1294 104.105 135.796 442.636
3859 0 95.0992 14.4481 1374 106.631 136.361 441.934
3860 0 99.1853 14.2057 1409 97.2903 135.575 439.678
3861 0 104.181 14.158 1475 93.9505 135.406 438.539
3862 0 107.142 15.0641 1614 88.3315 134.603 434.197
3863 0 111.145 13.7837 1532 94.6501 134.535 434.376
3864 0 114.154 14.279 1630 95.1301 134.286 432.203
3865 0 117.253 14.635 1716 97.4749 134.306 429.757
3866 0 121.315 15.2826 1854 94.2352 134.238 426.976
3867 0 121.211 14.9079 1807 100.039 134.277 426.902
3868 0 127.321 14.97 1906 105.244 134.952 423.236
3869 0 134.411 14.5895 1961 106.058 134.068 422.073
3870 0 135.126 14.8454 2006 100.378 134.092 419.388
3871 0 143.34 15.1668 2174 98.3983 133.889 417.896
3872 0 147.308 14.9211 2198 106.168 133.684 416.071
3873 0 152.318 14.9424 2276 104.014 134.669 414.803
3874 0 157.189 15.5036 2437 100.288 133.897 412.54
3875 0 161.395 15.2235 2457 103.203 134.502 410.103
3876 0 166.324 15.1271 2516 101.544 134.53 408.287
3877 0 172.368 14.7069 2535 107.053 133.789 406.669
3878 0 178.347 15.1895 2709 101.109 134.807 403.989
3879 0 184.393 15.3151 2824 98.6462 134.981 401.115
3880 0 192.289 15.2531 2933 102.386 135.136 398.636
3881 0 198.24 14.9516 2964 101.357 134.413 395.869
3882 0 204.436 15.2028 3108 98.7558 134.926 392.912
