index division length width area intensity CMx CMy
0 0 59.0404 14.1937 838 158.835 348.841 320.179
1 0 60.0303 14.6926 882 87.3583 349.231 320.22
2 0 61.1204 14.5941 892 161.628 349.557 318.976
3 0 64.1087 14.4286 925 164.284 348.157 318.515
4 0 66.1234 14.4276 954 169.437 348.043 317.807
5 0 69.1073 14.4702 1000 172.4 347.588 317.394
6 0 70.0313 15.1932 1064 166.119 346.796 316.613
7 0 74.1748 14.7355 1093 172.186 346.952 316.572
8 0 75.1312 14.6144 1098 168.879 346.987 316.384
9 0 78.2077 14.8195 1159 176.204 347.078 314.819
10 0 80.0398 14.8176 1186 173.578 347.479 315.492
11 0 82.0985 14.9333 1226 173.297 347.701 315.115
12 0 85.1481 14.7743 1258 166.015 348.563 314.868
13 0 87.2056 15.171 1323 178.993 349.246 313.632
14 0 91.0408 14.9713 1363 171.91 349.723 313.937
15 0 94.1202 15.3102 1441 172.349 350.84 312.725
16 0 95.1785 14.9929 1427 172.638 352.151 313.131
17 0 97.079 15.0599 1462 164.273 352.202 313.756
18 0 101.313 15.4176 1562 176.846 352.892 314.211
19 1 53.0592 14.8325 787 177.116 353.136 337.13
20 0 55.0424 14.9884 825 176.612 353.756 338.767
21 0 56.0907 14.5657 817 178.873 354.305 339.745
22 0 58.1058 15.0415 874 177.485 355.106 341.474
23 0 59.1798 14.6334 866 178.012 355.64 342.445
24 0 63.0751 14.6492 924 177.096 355.987 343.498
25 0 64.1398 14.827 951 175.628 356.575 345.119
26 0 68.1054 14.551 991 164.098 355.792 346.631
27 0 68.0948 14.9498 1018 173.742 356.224 346.762
28 0 73.1736 14.4451 1057 173.898 356.563 348.491
29 1 38.084 13.4702 513 175.489 356.22 368.386
30 0 40.044 13.61 545 170.961 355.793 370.415
31 0 42.0236 13.3259 560 170.493 355.254 373.241
32 0 43.0467 13.3111 573 168.543 355.175 375.253
33 0 43.184 13.8014 596 176.426 354.21 378.364
34 0 46.1023 13.7303 633 174.539 354.158 380.806
35 0 46.0623 13.8074 636 170.019 353.267 382.34
36 0 47.0677 14.2136 669 175.362 352.873 383.209
37 0 50.0968 13.8931 696 165.628 352.638 386.579
38 0 51.0905 14.6407 748 166.301 352.11 389.072
39 0 54.0522 14.4305 780 173.94 351.791 392.288
40 0 56.0499 14.2016 796 164.611 351.156 396.386
41 0 58.0857 14.2548 828 168.382 350.421 399.452
42 0 60.1118 14.4564 869 171.395 349.972 402.257
43 0 62.0962 14.1394 878 163.376 349.9 406.814
44 0 65.1065 14.484 943 172.396 349.856 410.345
45 0 67.1484 14.1627 951 173.672 349.156 416.239
46 0 71.0859 14.0534 999 168.532 350.039 420.377
47 0 74.1494 14.3089 1061 170.376 349.678 425.457
48 0 76.0792 13.8145 1051 174.521 349.079 430.283
49 1 38.0267 13.2538 504 169.143 348.823 455.573
50 0 40.0803 13.4729 540 161.48 349.433 461.183
51 0 41.0221 13.5049 554 168.211 349.298 466.592
52 0 43.0323 13.5015 581 167.513 349.088 471.575
53 0 44.11 13.8064 609 172.803 349.094 475.903
54 0 44.199 14.0727 622 172.175 349.079 480.521
55 0 45.0969 14.0586 634 170.681 349.349 482.552
56 0 47.0421 13.4773 634 176.096 349.639 482.924
57 0 47.1076 14.2864 673 173.339 350.239 482.473
58 0 49.0706 14.204 697 164.341 350.489 481.473
59 0 50.141 13.7014 687 173.201 350.665 481.15
60 0 55.1207 13.9512 769 171.446 350.663 478.861
61 0 56.0516 13.5946 762 165.866 351.451 478.075
62 0 59.1571 13.7093 811 168.589 351.583 477.028
63 0 60.2037 13.8031 831 173.063 351.566 475.533
64 0 62.1298 13.842 860 168.412 351.478 475.522
65 0 64.0983 13.7601 882 160.489 351.695 473.841
66 0 68.1037 13.6116 927 166.119 351.837 472.134
67 0 70.2202 13.6713 960 164.896 352.193 471.134
68 1 36.1186 12.099 437 165.151 353.451 487.833
69 0 37.1109 12.3953 460 165.774 352.785 486.843
70 0 39.1053 12.6581 495 165.543 351.857 486.685
71 0 39.1466 12.7214 498 162.863 351.882 486.5
72 0 39.1169 13.4469 526 163.046 352.048 486.059
73 0 43.1537 12.9073 557 164.047 351.684 483.98
74 0 44.1017 12.6072 556 163.297 351.324 483.004
75 0 45.2178 12.8932 583 158.118 351.37 483.194
76 0 47.1086 12.9276 609 162.299 351.649 483.217
77 0 47.2125 12.9415 611 161.615 351.809 481.738
78 0 50.1012 12.6145 632 164.889 351.604 481.272
79 0 51.2166 12.8864 660 104.906 351.745 481.162
80 0 53.2341 13.0931 697 166.872 351.01 480.23
81 0 53.3165 13.1667 702 165.321 350.839 479.5
82 0 54.4699 13.3835 729 164.953 350.756 478.578
83 0 58.1929 13.0772 761 164.537 351.443 476.87
84 0 60.2406 13.0145 784 170.953 350.547 476.578
85 0 63.3795 13.0484 827 166.445 350.23 475.076
86 0 64.4299 13.0064 838 160.757 349.863 474.195
87 0 66.1863 13.0389 863 167.677 350.534 473.432
88 0 69.2724 13.151 911 158.943 350.057 471.3
89 0 71.3578 13.117 936 160.309 349.299 470.137
90 0 75.2266 12.9476 974 159.428 349.145 469.221
91 1 35.0492 12.1829 427 157.96 348.888 487.576
92 0 39.0279 11.9402 466 157.155 349.152 485.897
93 0 40.0208 12.1437 486 162.547 349.566 485.879
94 0 42.1087 12.1115 510 157.318 349.714 484.982
95 0 42.0454 12.3914 521 162.434 350.626 484.983
96 0 44.0677 12.3673 545 151.378 349.767 484.239
97 0 44.0692 12.8434 566 157.504 349.954 484.256
98 0 46.1145 12.5991 581 157.711 349.661 483.272
99 0 47.0417 12.9034 607 159.092 349.75 482.664
100 0 48.016 12.6 605 156.324 350.036 482.521
101 0 51.0685 12.2385 625 155.782 349.694 481.275
102 0 52.096 12.9185 673 153.623 349.84 480.315
103 0 54.1574 12.796 693 155.899 349.74 479.798
104 0 55.0642 13.0575 719 149.195 350.506 478.668
105 0 59.0616 12.8679 760 155.853 351.159 477.842
106 0 59.0869 13.1332 776 156.914 351.107 477.242
107 0 63.0365 12.5959 794 153.063 351.344 476.592
108 0 64.0592 13.3002 852 150.634 351.819 474.682
109 0 68.0798 12.9995 885 154.586 350.959 473.066
110 0 69.2061 13.0191 901 155.14 350.752 472.22
111 0 72.0698 12.6405 911 155.856 350.223 470.755
112 0 75.0791 13.1461 987 152.253 350.049 469.053
113 0 77.0565 12.8996 994 157.258 350.104 468.402
114 1 41.0891 11.5359 474 156.738 349.416 484.133
115 0 42.063 12.2435 515 149.918 349.45 483.555
116 0 44.1312 12.2362 540 155.88 349.661 483.583
117 0 46.1069 11.8637 547 148.42 349.536 483.051
118 0 48.1173 11.8876 572 152.556 349.734 481.89
119 0 47.0621 12.5791 592 145.88 349.154 480.992
120 0 50.0553 12.1865 610 151.18 349.384 480.949
121 0 53.3144 12.1543 648 151.091 349.759 479.648
122 0 54.1567 12.5192 678 150.292 350.044 478.155
123 0 56.1828 12.2279 687 147.502 349.881 477.281
124 0 57.1885 12.8522 735 146.827 350.008 475.767
125 0 59.0803 12.4068 733 153.292 350.492 474.861
126 0 60.1794 12.8948 776 153.001 350.485 474.455
127 0 64.1164 13.0388 836 157.855 350.725 471.403
128 0 66.1779 12.5873 833 152.025 350.549 470.58
129 0 68.4033 12.6164 863 154.08 350.356 469.672
130 0 71.285 12.7937 912 162.602 350.183 467.862
131 0 72.3434 13.1318 950 164.604 350.669 466.417
132 0 76.3552 12.8086 978 162.286 351.052 465.417
133 0 81.2881 12.5357 1019 154.553 350.878 463.199
134 1 43.102 11.5076 496 159.772 351.185 481.222
135 0 45.0715 11.6704 526 158.935 351.534 479.791
136 0 45.0379 12.4118 559 148.531 352.249 479.404
137 0 49.1102 12.4007 609 156.465 351.997 477.365
138 0 49.044 12.2339 600 152.365 351.195 477.873
139 0 50.1385 12.3657 620 155.468 352.055 476.576
140 0 53.1147 12.1059 643 153.411 352.829 475.376
141 0 54.094 12.0346 651 150.204 351.982 474.816
142 0 54.0792 12.3153 666 152.622 352.308 474.745
143 0 58.2182 12.2127 711 148.255 353.128 473.256
144 0 60.0408 12.4415 747 148.15 353.185 471.321
145 0 62.0927 12.6424 785 154.637 353.05 469.357
146 0 63.1833 12.3609 781 148.502 353.131 469.945
147 0 65.2422 12.2007 796 152.295 353.95 467.403
148 0 67.1178 12.5004 839 153.188 354.054 467.147
149 0 71.3012 12.0334 858 148.802 354.217 464.866
150 0 72.2264 12.0455 870 153.351 354.529 463.631
151 0 77.2946 11.7861 911 147.751 354.72 461.81
152 0 77.3062 12.444 962 155.195 355.102 461.36
153 0 82.2316 12.0635 992 149.926 355.171 457.703
154 1 44.1552 10.4404 461 147.62 355.512 476.594
155 0 45.3772 10.6 481 148.121 355.501 476.892
156 0 46.2951 11.1891 518 145.32 355.89 475.158
157 0 48.3259 11.4224 552 141.565 356.034 474.324
158 0 48.1058 12.0776 581 138.136 357.504 474.351
159 0 49.2265 12.026 592 143.574 357.066 473.037
160 0 52.1649 11.9429 623 144.308 356.902 471.305
161 0 54.1102 12.0865 654 142.408 356.927 470.691
162 0 55.082 11.9821 660 146.65 356.63 470.23
163 0 57.1117 11.8014 674 135.444 357.153 469.445
164 0 59.1806 12.1662 720 145.433 356.628 468.944
165 0 60.1809 12.1799 733 140.573 356.602 467.812
166 0 63.2153 12.671 801 125.422 356.658 466.758
167 0 65.0965 12.3509 804 141.611 357.093 465.649
168 0 66.1856 12.3894 820 146.105 357.36 463.863
169 0 68.1921 12.3181 840 147.67 357.699 463.257
170 0 68.1194 12.5074 852 144.621 357.953 462.021
171 0 71.0911 12.3363 877 150.497 357.71 461.021
172 0 74.1389 13.151 975 142.883 357.667 458.704
173 0 76.1205 12.6773 965 150.144 357.434 457.785
174 0 78.1571 12.8587 1005 148.683 357.243 457.211
175 0 83.2378 12.5304 1043 146.397 358.121 455.501
176 0 85.1435 13.0486 1111 143.599 357.086 453.103
177 0 87.264 12.5825 1098 150.35 358.397 453.912
178 0 90.2499 12.554 1133 147.433 358.801 451.799
179 0 94.3137 12.6175 1190 146.132 358.611 450.461
180 0 97.3343 12.7293 1239 148.023 358.19 447.993
181 1 47.05 10.4145 490 147.32 357.686 472.986
182 0 49.0514 11.1516 547 146.631 358.064 471.947
183 0 51.1066 11.3684 581 146.303 357.449 470.527
184 0 52.0949 11.863 618 147.236 357.817 468.714
185 0 55.0819 12.0548 664 147.474 357.681 467.896
186 0 58.0732 12.0193 698 149.408 356.764 467.417
187 0 59.0384 12.043 711 151.692 356.262 465.805
188 0 61.1201 12.3364 754 142.336 356.296 465.538
189 0 61.1449 12.1187 741 144.978 356.714 464.931
190 0 64.0848 12.4366 797 144.065 356.065 464.093
191 0 66.1669 12.3627 818 144.637 356.446 462.29
192 0 67.1378 12.4222 834 143.483 357.022 461.402
193 0 69.1523 12.4508 861 147.259 356.553 460
194 0 72.2778 12.2029 882 145.353 356.595 459.81
195 0 76.1787 12.5626 957 141.054 356.271 458.587
196 0 77.4255 12.6961 983 146.096 356.304 457.142
197 0 80.4103 12.6849 1020 148.261 356.137 454.828
198 0 82.4975 12.2913 1014 146.789 355.751 453.651
199 0 85.3669 12.5693 1073 149.103 356.427 453.299
200 1 43.2742 10.8379 469 155.158 355.467 473.655
201 0 46.3328 11.0721 513 153.105 355.632 472.733
202 0 46.2865 12.077 559 147.288 356.086 471.801
203 0 49.0457 12.2743 602 141.86 356.683 471.419
204 0 48.1132 12.0757 581 141.193 355.11 471.394
205 0 52.1812 12.4183 648 144.363 355.539 470.147
206 0 54.5595 12.2435 668 142.409 355 466.305
207 0 56.1841 12.3878 696 147.908 356.099 467.481
208 0 56.1094 12.4578 699 149.283 355.976 467.957
209 0 56.3714 12.8079 722 145.47 355.58 466.134
210 0 58.1416 12.7447 741 145.08 355.209 466.111
211 0 60.5323 12.5718 761 150.57 355.673 465.686
212 0 61.2947 12.9212 792 133.794 355.098 464.465
213 0 65.3297 12.7813 835 145.099 355.187 464.144
214 0 66.2328 12.758 845 139.97 354.83 463.419
215 0 70.1704 12.9684 910 140.054 354.823 461.911
216 0 71.2361 12.985 925 138.794 354.91 461.208
217 0 74.3712 12.9082 960 137.39 354.722 461.029
218 0 75.35 13.1785 993 130.127 354.676 459.58
219 0 77.1705 13.1916 1018 131.973 354.718 459.284
220 0 82.3016 12.8187 1055 133.792 354.744 455.936
221 0 84.2252 13.3333 1123 135.483 354.247 455.284
222 1 42.2567 10.7675 455 138.281 354.413 474.842
223 0 45.1216 11.3693 513 134.951 354.823 473.183
224 0 45.1202 12.2561 553 135.734 355.034 473.165
225 0 48.0556 12.0069 577 139.915 354.631 474.782
226 0 49.0462 12.111 594 141.125 354.857 474.48
227 0 50.0646 12.5837 630 142.017 354.568 473.83
228 0 53.1092 12.5026 664 138.83 354.673 472.736
229 0 54.1017 13.1419 711 140.629 354.459 472.267
230 0 56.1044 13.0293 731 138.892 354.747 471.041
231 0 56.1044 13.1541 738 143.244 354.211 470.411
232 0 59.0731 13.1532 777 143.916 354.172 469.852
233 0 60.088 13.1307 789 146.725 354.49 469.222
234 0 61.1458 13.1489 804 145.692 353.697 468.864
235 0 64.2107 13.1909 847 146.845 354.151 468.071
236 0 66.0763 13.1363 868 150.847 354.097 467.343
237 0 68.1188 13.359 910 144.109 354.085 465.253
238 0 70.0685 13.3298 934 142.109 354.16 464.658
239 0 72.0704 13.4452 969 150.035 354.325 464.388
240 0 74.1289 13.0988 971 153.098 354.065 463.766
241 0 75.1218 13.4315 1009 155.421 353.768 461.81
242 0 79.1091 14.0313 1110 146.902 353.976 460.095
243 0 81.1188 13.9055 1128 145.804 354 458.168
244 0 84.1872 13.9095 1171 152.474 354.265 457.937
245 0 86.1698 13.5778 1170 150.847 354.45 455.488
246 0 89.1211 13.6444 1216 154.433 354.362 454.005
247 0 91.0916 13.5029 1230 145.831 354.559 452.812
248 0 95.1659 13.6604 1300 144.59 354.788 453.454
249 1 49.1067 12.2794 603 151.048 354.292 474.844
250 0 51.0383 12.5788 642 150.078 354.752 473.952
251 0 53.0708 12.4362 660 147.618 354.898 472.394
252 0 54.1125 13.0839 708 146.675 355.703 471.403
253 0 57.0575 12.8642 734 146.565 355.563 470.678
254 0 58.1337 12.8841 749 149.656 355.772 468.999
255 0 60.1506 13.0672 786 141.92 355.566 468.709
256 0 62.1803 13.3804 832 138.002 355.642 467.284
257 0 64.1743 13.1205 842 143.308 356.451 465.571
258 0 67.2015 13.0801 879 134.752 355.799 464.627
259 0 70.1176 13.5201 948 145.846 355.916 463.936
260 0 72.0721 13.1674 949 144.274 356.191 462.557
261 0 74.0976 13.1853 977 142.402 356.301 461.582
262 0 77.1005 13.2943 1025 144.901 356.749 460.563
263 0 79.3685 13.3932 1063 138.193 356.577 458.781
264 0 82.2049 13.2839 1092 143.196 356.635 457.984
265 0 85.1041 13.4424 1144 141.006 356.625 456.233
266 0 87.1382 13.4958 1176 147.524 357.089 454.126
267 0 90.1416 13.3346 1202 153.96 356.887 453.651
268 1 46.037 12.1424 559 146.676 357.487 474.732
269 0 47.0352 12.4587 586 152.418 358.145 474.009
270 0 47.0798 12.9355 609 155.742 357.631 473.626
271 0 51.1527 12.2183 625 150.522 357.41 472.523
272 0 52.0802 12.5384 653 153.85 357.997 471.207
273 0 53.0487 12.4791 662 153.657 358.16 470.903
274 0 55.1252 12.6258 696 152.94 358.658 468.648
275 0 57.0482 12.4807 712 156.874 358.452 468.903
276 0 55.1205 13.4977 744 151.427 358.138 467.708
277 0 59.0656 12.9348 764 152.958 357.772 466.255
278 0 61.0739 12.8533 785 156.571 357.997 465.553
279 0 64.1322 12.5522 805 49.5478 358.381 465.355
280 0 67.0666 12.8529 862 157.564 358.457 462.181
281 0 69.2008 13.0056 900 149.119 358.533 461.708
282 0 70.1095 12.7229 892 159.176 358.249 460.222
283 0 73.1918 12.7747 935 151.63 358.724 459.494
284 0 74.0734 12.8116 949 151.27 358.837 458.376
285 0 78.1519 12.834 1003 150.451 359.324 457.402
286 0 81.1064 12.7487 1034 145.238 359.246 454.959
287 0 84.0997 12.616 1061 148.105 358.728 454.048
288 1 46.0451 11.3367 522 147.891 358.674 471.347
289 0 47.1122 11.3983 537 144.22 358.16 471.043
290 0 47.1549 12.2787 579 148.461 358.021 470.37
291 0 49.1245 12.3156 605 146.41 358.455 470.033
292 0 50.1253 12.4488 624 147.42 357.974 468.554
293 0 51.1085 12.7572 652 145.462 358.161 467.626
294 0 54.2263 12.3003 667 154.939 357.991 467.628
295 0 57.1916 12.1871 697 153.088 358.118 466.598
296 0 57.1205 12.4474 711 152.537 357.799 465.184
297 0 61.1199 12.1237 741 148.876 358.103 464.115
298 0 63.226 12.3683 782 141.355 357.321 462.48
299 0 65.1803 12.5038 815 151.665 357.498 462.032
300 0 68.1934 12.5672 857 144.034 357.422 460.077
301 0 70.2259 12.2177 858 148.071 357.929 460.182
302 0 74.3742 12.4102 923 148.371 357.719 457.574
303 1 36.0685 10.3969 375 142.312 357.125 474.907
304 0 39.0451 10.4494 408 148.52 356.728 474.897
305 0 40.0401 11.0889 444 145.838 356.779 474.721
306 0 42.0427 10.9888 462 147.918 356.684 474.338
307 0 44.0185 11.4952 506 144.016 356.204 473.419
308 0 45.059 11.9399 538 144.468 356.519 472.459
309 0 46.0597 12.1581 560 148.859 356.612 471.112
310 0 48.0562 11.8195 568 149.224 356.657 471.048
311 0 49.0907 11.5704 568 148.736 356.989 471.421
312 0 51.0434 11.4217 583 139.345 356.302 470.48
313 0 52.1044 12.1871 635 149.517 355.55 468.556
314 0 54.0588 11.8205 639 144.396 356.216 468.451
315 0 56.0665 12.2355 686 149.697 355.888 467.372
316 0 57.0469 12.1479 693 147.33 355.616 467.355
317 0 57.0626 12.3724 706 152.428 355.378 466.29
318 0 58.0308 12.6829 736 150.205 355.102 464.819
319 0 61.0527 12.5302 765 154.681 355.441 464.667
320 0 62.0519 12.8118 795 151.265 355.502 463.281
321 0 65.0526 11.7905 767 151.602 355.647 464.743
322 0 67.0287 12.2932 824 151.701 355.999 463.314
323 0 70.0958 12.5971 883 150.608 355.69 463.008
324 0 72.0594 12.5174 902 155.884 355.458 459.898
325 0 74.0905 12.4172 920 155.788 355.987 459.057
326 0 77.0953 12.5299 966 152.204 355.9 458.504
327 1 41.0162 10.5568 433 153.859 355.141 476.506
328 0 41.0146 11.5325 473 148.844 355.243 475.436
329 0 41.0374 11.9891 492 144.114 355.154 474.707
330 0 44.0436 11.9881 528 147.277 355.43 474.062
331 0 44.0852 11.5685 510 144.304 355.173 473.78
332 0 45.019 11.2397 506 147.704 355.19 473.563
333 0 46.0541 11.7905 543 135.759 354.996 472.543
334 0 49.0709 11.7585 577 146.241 355.069 471.775
335 0 50.0556 11.5472 578 147.593 355.413 470.995
336 0 50.1476 11.9846 601 145.13 355.458 471.087
337 0 53.0619 12.4383 660 139.421 355.514 470.059
338 0 52.0825 12.7682 665 150.901 355.653 470.433
339 0 55.0564 12.2602 675 140.412 356.342 470.136
340 0 57.0798 11.773 672 150.199 355.857 469.835
341 0 58.0503 12.2825 713 149.217 355.941 469.401
342 0 60.0876 12.2488 736 145.417 355.874 467.557
343 0 62.1398 12.327 766 149.849 355.097 468.354
344 0 61.0908 13.1116 801 147.382 355.159 466.939
345 0 66.1281 13.2621 877 145.653 354.49 465.162
346 0 66.163 13.104 867 152.165 355.448 465.345
347 0 69.1396 12.7713 883 154.759 354.578 464.207
348 0 71.202 12.8788 917 143.985 355.119 462.546
349 0 74.1123 12.8319 951 153.207 354.974 462.117
350 0 76.1537 13.2758 1011 154.698 355.284 460.315
351 0 80.1459 12.9763 1040 155.004 355.392 459.748
352 0 84.1051 12.7697 1074 150.432 355.484 458.192
353 0 87.1295 12.5905 1097 160.919 355.331 456.707
354 1 45.0999 11.2417 507 154.915 355.805 476.237
355 0 48.1017 11.4965 553 143.472 356.235 475.204
356 0 49.1055 12.1982 599 149.222 356.072 474.745
357 0 50.1271 12.5281 628 151.932 356.022 473.866
358 0 52.1887 12.4931 652 159.514 355.908 472.5
359 0 54.1705 12.4607 675 151.393 355.735 470.761
360 0 56.1378 12.5406 704 150.771 355.713 470.787
361 0 57.0807 12.9816 741 146.316 355.735 468.14
362 0 59.1544 12.797 757 152.729 355.857 468.367
363 0 61.1414 12.9372 791 151.02 355.728 466.957
364 0 62.2 13.1351 817 138.911 356.245 466.181
365 0 64.2663 13.1329 844 148.845 356.225 465.094
366 0 65.1887 13.1771 859 148.306 356.066 463.597
367 0 69.1833 12.9945 899 141.133 355.64 461.97
368 0 70.1673 13.3395 936 149.296 356.256 461.849
369 0 73.2781 13.3601 979 146.043 356.199 460.747
370 0 75.2389 13.5701 1021 140.942 356.243 459.245
371 0 77.2339 13.6469 1054 148.072 355.854 459.013
372 0 81.1334 13.4963 1095 149.992 356.251 457.352
373 0 83.1739 13.6461 1135 148.63 356.793 455.967
374 0 86.3072 13.6026 1174 147.751 356.384 454.586
375 0 90.2124 13.7343 1239 153.774 356.131 451.894
376 0 91.1188 14.0695 1282 153.343 356.537 451.177
377 1 50.1456 11.4666 575 157.329 356.51 473.089
378 0 51.085 11.7255 599 162.546 356.359 472.533
379 0 52.0739 12.7127 662 153.168 357.128 471.21
380 0 55.126 12.5893 694 151.771 357.795 471.271
381 0 55.0284 13.2295 728 155.055 357.39 469.64
382 0 58.0341 12.7339 739 161.885 357.93 469.031
383 0 60.0853 13.0315 783 160.439 358.261 467.172
384 0 62.056 13.3428 828 155.876 358.321 466.656
385 0 65.1378 13.0186 848 157.101 358.833 465.591
386 0 65.1541 13.046 850 156.678 358.293 465.249
387 0 68.0959 13.4957 919 157.75 358.136 462.9
388 0 69.1385 13.6248 942 154.505 357.797 462.305
389 0 70.1166 13.5917 953 148.917 358.029 461.594
390 0 74.0985 13.617 1009 151.441 358.189 459.937
391 0 76.2259 13.355 1018 155.085 357.528 458.547
392 0 78.3295 13.7368 1076 157.067 357.793 457.454
393 0 81.2524 13.6365 1108 157.653 356.792 456.525
394 0 84.2217 13.5713 1143 153.331 357.1 454.962
395 0 85.1412 13.9415 1187 144.806 356.902 454.356
396 0 89.1164 13.8919 1238 165.171 357.358 452.647
397 0 90.2438 13.9843 1262 161.519 357.529 451.254
398 0 95.1127 13.5418 1288 160.091 358.141 450.71
399 0 97.0745 13.9171 1351 95.3945 357.767 449.715
400 1 51.1144 12.5405 641 152.452 356.835 472.811
401 0 50.1307 12.7666 640 154.573 358.656 472.492
402 0 51.1772 13.1309 672 159.487 357.894 472.305
403 0 55.0583 12.8409 707 157.543 358.157 470.849
404 0 58.0825 12.9987 755 163.934 357.825 468.623
405 0 61.0717 12.5918 769 161.133 357.584 468.414
406 0 62.0873 12.8529 798 164.322 357.372 469.086
407 0 62.1853 13.3311 829 158.585 357.068 466.637
408 0 64.1263 13.4266 861 153.179 356.617 465.062
409 0 67.1065 13.1582 883 155.849 357.129 464.684
410 0 70.1449 13.6432 957 156.902 356.673 463.278
411 0 71.1553 13.3932 953 161.131 356.886 462.58
412 0 73.1284 13.825 1011 159.365 356.493 461.694
413 0 75.2064 13.5228 1017 150.753 356.832 459.789
414 0 79.1383 13.5585 1073 160.901 356.212 459.67
415 0 80.2085 13.7143 1100 159.337 356.381 458.247
416 0 85.2601 13.9925 1193 161.673 355.597 455.093
417 0 88.1486 14.0672 1240 164.398 356.285 454.13
418 0 91.2146 13.4847 1230 164.675 356.415 452.462
419 0 93.1575 13.5792 1265 164.429 356.181 452.09
420 0 95.1583 13.6825 1302 167.197 356.176 452.084
421 1 48.1244 12.0936 582 158.801 356.912 475.418
422 0 49.0353 12.7459 625 158.691 357.094 474.934
423 0 50.0454 12.7484 638 149.893 356.89 474.492
424 0 53.1151 12.8965 685 159.136 356.606 473.429
425 0 54.0732 12.2242 661 161.286 355.74 472.033
426 0 55.1951 13.1715 727 161.176 356.662 470.685
427 0 57.1101 13.2026 754 165.873 356.633 470.216
428 0 59.0542 13.0727 772 159.049 356.028 469.982
429 0 61.163 13.2597 811 163.961 356.375 469.139
430 0 63.109 13.1043 827 167.844 355.814 467.93
431 0 65.0618 13.4641 876 150.905 355.83 466.369
432 0 67.1708 13.0265 875 165.082 356.661 466.243
433 0 69.0841 13.3026 919 162.297 355.977 465.306
434 0 70.0836 13.2984 932 158.618 355.468 463.571
435 0 72.1198 13.3805 965 159.508 355.629 463.364
436 0 76.0524 13.3592 1016 159.951 355.288 462.015
437 0 79.0931 13.1744 1042 158.079 355.366 460.203
438 0 83.1147 13.3791 1112 150.894 355.075 458.874
439 0 85.0981 13.5256 1151 151.866 355.134 457.368
440 0 87.1143 13.247 1154 157.39 354.706 456.278
441 1 43.0593 11.5422 497 157.37 354.326 478.27
442 0 43.067 12.2367 527 159.427 354.184 477.488
443 0 46.1153 12.8591 593 153.017 353.833 476.956
444 0 46.1265 12.7475 588 161.735 354.333 476.723
445 0 47.0815 13.1049 617 163.308 354.402 475.932
446 0 49.2706 13.0098 641 155.635 354.68 475.591
447 0 51.1486 13.7052 701 151.957 354.408 474.619
448 0 54.1568 12.907 699 163.237 354.494 473.824
449 0 54.3005 13.0201 707 158.591 354.008 472.506
450 0 56.2897 13.4305 756 160.582 354.317 471.968
451 0 57.2932 13.5095 774 153.319 354.278 471.196
452 0 60.1031 13.194 793 159.18 354.127 470.632
453 0 63.2512 12.9958 822 152.674 353.73 469.416
454 0 65.2322 13.337 870 161.384 353.626 468.397
455 0 67.1775 13.3527 897 159.231 354.11 468.196
456 0 69.332 13.3704 927 160.373 353.916 467.096
457 0 72.3384 13.2848 961 157.402 354.162 464.981
458 0 75.4993 13.4306 1014 154.452 354.49 464.233
459 0 78.2319 13.3322 1043 155.776 354.477 460.967
460 0 81.3835 13.1968 1074 152.731 354.637 460.007
461 1 42.1614 12.0252 507 159.838 354.148 477.925
462 0 44.2634 11.7253 519 152.753 354.908 478.94
463 0 46.2036 12.2934 568 158.53 354.977 477.592
464 0 46.1428 13.1765 608 154.919 355.306 477.408
465 0 50.1317 12.6467 634 151.219 355.415 475.385
466 0 49.066 13.0437 640 156.014 355.225 474.708
467 0 53.1142 12.9344 687 161.991 354.902 473.927
468 0 53.1047 12.9179 686 159.398 354.771 473.504
469 0 56.3004 13.6766 770 159.595 354.686 471.194
470 0 58.1434 13.2259 769 158.631 354.752 471.555
471 0 59.292 13.6275 808 156.65 354.926 469.498
472 0 62.2377 13.4324 836 157.378 355.62 467.66
473 0 63.1931 13.3559 844 167.945 355.755 467.39
474 0 65.2061 13.5724 885 161.847 356.336 465.414
475 0 66.1561 14.1635 937 165.633 356.134 464.632
476 0 69.3464 14.0454 974 167.54 355.876 462.762
477 0 71.4187 13.6239 973 165.524 356.338 461.179
478 0 74.4932 13.518 1007 167.986 356.446 460.466
479 0 75.6597 13.9308 1054 169.547 356.37 457.677
480 0 79.4297 13.7984 1096 169.28 356.455 455.825
481 0 83.6149 13.5143 1130 167.243 356.727 453.648
482 0 85.6617 13.635 1168 167.759 356.812 452.684
483 0 89.4857 13.7229 1228 169.518 356.685 449.573
484 0 92.5429 13.5937 1258 168.577 356.545 448.497
485 1 48.4196 13.2797 643 172.67 356.193 469.846
486 0 51.237 13.4083 687 174.865 356.026 470.198
487 0 53.2676 13.4979 719 171.495 355.779 470.734
488 0 53.1444 13.962 742 169.225 356.065 469.943
489 0 55.5191 13.6169 756 173.452 356.069 468.348
490 0 56.4127 14.0926 795 170.108 356.245 465.702
491 0 59.297 13.7781 817 166.707 356.493 465.013
492 0 61.5343 14.1384 870 169.762 356.877 464.611
493 0 63.6605 14.1061 898 171.542 357.042 463.036
494 0 64.6099 14.0536 908 171.475 357.195 462.938
495 0 64.6644 14.3046 925 172.217 357.597 463.123
496 0 66.417 14.7854 982 170.791 357.199 462.14
497 0 70.4391 14.2109 1001 163.058 357.965 460.433
498 0 74.4296 14.0401 1045 168.907 357.974 459.555
499 0 75.242 14.46 1088 167.634 358.107 458.503
500 0 78.2997 14.4828 1134 164.118 358.344 457.842
501 0 81.3514 14.9967 1220 163.507 358.601 455.257
502 0 84.3756 14.3999 1215 167.901 358.347 455.262
503 0 88.3986 14.2762 1262 163.353 358.204 452.926
504 0 90.2044 14.5337 1311 164.185 357.887 451.409
505 0 92.1889 14.9801 1381 160.909 358.244 450.381
506 0 96.418 14.3749 1386 168.019 357.705 449.185
507 0 98.2431 14.5761 1432 164.812 358.217 447.452
508 0 100.254 14.992 1503 167.92 357.9 445.166
509 1 53.1938 13.4038 713 165.396 357.864 467.931
510 0 57.2941 13.6489 782 166.769 357.762 467.422
511 0 59.1005 13.7562 813 162.791 358.299 466.729
512 0 61.0331 13.845 845 161.796 358.33 465.573
513 0 63.061 13.5583 855 162.461 358.82 463.878
514 0 65.1855 13.8988 906 160.227 358.551 463.03
515 0 68.2281 13.704 935 157.257 358.29 462.359
516 0 70.1174 14.0479 985 160.13 358.078 459.581
517 0 74.0934 14.1848 1051 158.667 357.455 459.276
518 0 75.1845 14.245 1071 156.115 357.532 458.071
519 0 81.16 13.8615 1125 151.267 357.274 455.943
520 0 82.2827 14.1585 1165 151.088 356.675 453.455
521 0 85.2485 14.053 1198 154.368 356.652 452.381
522 0 88.2456 13.4964 1191 159.589 356.288 451.8
523 0 90.2693 14.2906 1290 157.075 356.709 449.629
524 0 94.4245 13.9159 1314 155.122 355.826 447.896
525 0 98.223 13.9784 1373 151.392 356.266 446.323
526 1 50.2705 12.015 604 149.205 355.563 469.23
527 0 52.1805 12.3801 646 146.262 356.085 469.175
528 0 54.0786 12.8517 695 146.06 356.891 468.892
529 0 56.1375 12.1844 684 147.513 356.762 466.906
530 0 58.0682 12.7264 739 146.346 356.876 466.903
531 0 59.0786 13.0673 772 140.865 356.684 466.185
532 0 63.0837 12.7133 802 142.464 356.813 465.36
533 0 63.084 13.2839 838 134.437 357.283 463.916
534 0 67.0953 13.0412 875 136.088 357.091 462.928
535 0 70.0843 13.4838 945 139.172 357.6 461.745
536 0 73.0894 13.2167 966 136.405 357.369 461.558
537 0 73.0938 13.6263 996 132.37 357.046 458.928
538 0 75.1647 13.6234 1024 135.636 356.757 457.398
539 0 80.1362 13.3772 1072 133.168 356.547 456.772
540 0 82.1836 13.3117 1094 135.179 356.814 454.298
541 0 86.228 13.7078 1182 128.843 355.942 452.69
542 1 46.0898 11.4993 530 135.517 355.685 472.051
543 0 48.0372 11.158 536 138.377 355.974 472.511
544 0 51.0556 12.6529 646 132.58 356.799 471.096
545 0 51.1069 12.5619 642 135.301 356.419 470.254
546 0 51.1204 12.6564 647 153.502 356.57 469.742
547 0 55.0831 12.3813 682 151.991 355.736 469.295
548 0 57.1016 12.9944 742 143.803 356.005 467.344
549 0 59.0827 12.9987 768 146.201 356.139 466.712
550 0 60.1956 12.8913 776 147.504 355.773 466.599
551 0 62.0567 12.7464 791 148.121 355.794 466.046
552 0 64.0765 12.8908 826 150.906 355.488 464.85
553 0 67.1108 12.9785 871 154.325 355.214 464.109
554 0 67.1252 13.4674 904 153.452 355.551 462.771
555 0 71.1713 13.4464 957 152.899 355.277 461.305
556 0 74.1134 13.8032 1023 149.349 355.531 459.792
557 0 77.0834 13.6346 1051 152.548 355.241 457.593
558 0 79.133 13.7996 1092 145.849 355.301 457.146
559 0 82.1785 13.7019 1126 160.401 355.218 455.786
560 0 83.0463 13.6791 1136 151.456 355.54 455.285
561 0 86.1238 13.8173 1190 155.131 355.268 454.034
562 0 90.1292 13.5139 1218 157.241 354.867 452.555
563 0 95.1653 14.0177 1334 154.689 354.245 451.103
564 0 97.2108 13.4964 1312 154.133 354.849 450.213
565 0 100.124 13.5233 1354 155.989 354.623 448.694
566 0 103.206 13.478 1391 161.276 354.922 447.249
567 1 54.0498 12.137 656 161.564 354.326 471.424
568 0 55.0712 12.7834 704 150.713 354.98 469.805
569 0 59.0688 12.6124 745 155.95 355.11 468.31
570 0 61.1047 12.6831 775 155.298 354.983 467.876
571 0 63.0508 13.1323 828 148.034 355.454 467.401
572 0 67.1 12.8912 865 153.132 355.728 465.8
573 0 69.1269 13.1931 912 150.578 356.004 464.798
574 0 71.0448 12.8792 915 146.972 356.414 464.284
575 0 73.1146 13.5814 993 150.673 355.751 461.884
576 0 76.1785 13.0877 997 146.609 355.46 461.424
577 0 77.1291 13.2635 1023 154.152 355.676 459.896
578 0 81.197 13.067 1061 157.78 355.926 457.789
579 0 84.1429 13.1087 1103 152.599 355.607 456.612
580 0 87.1782 12.9619 1130 157.893 355.98 455.984
581 0 89.1791 13.3551 1191 151.746 355.908 453.317
582 0 94.0609 12.7258 1197 151.5 355.474 451.475
583 0 94.0639 13.5121 1271 154.463 355.716 450.543
584 0 99.1663 12.6454 1254 156.911 356.085 449.993
585 0 100.227 13.0903 1312 160.101 356.136 448.357
586 0 105.246 13.0646 1375 158.672 356.49 445.611
587 0 108.319 12.9894 1407 156.42 356.977 444.837
588 1 54.1375 12.6714 686 158.329 356.751 469.595
589 0 58.2493 12.3778 721 157.008 356.096 467.612
590 0 59.1016 12.4701 737 154.582 357.255 466.936
591 0 60.0664 12.969 779 153.724 357.381 465.677
592 0 63.0699 12.1928 769 147.632 357.425 464.809
593 0 64.05 12.5839 806 146.452 357.391 464.471
594 0 67.0551 12.363 829 150.82 357.156 463.996
595 0 69.0714 12.5667 868 151.912 357.229 463.151
596 0 72.253 12.6777 916 148.92 356.26 459.241
597 0 74.113 12.9937 963 158.293 357.305 460.651
598 0 75.0986 13.2626 996 153.067 357.038 459.369
599 0 78.0343 13.2762 1036 159.1 357.539 458.014
600 0 80.1308 13.2034 1058 161.163 357.331 457.044
601 0 84.1255 13.3016 1119 162.45 357.442 454.888
602 0 88.1038 13.4841 1188 161.517 357.678 453.792
603 0 92.0685 13.175 1213 162.39 356.954 451.641
604 0 95.1501 13.3999 1275 163.024 356.862 449.106
605 0 98.1454 13.5411 1329 157.836 357.561 447.453
606 1 51.069 12.4733 637 163.116 357.292 471.516
607 0 52.073 12.7129 662 164.044 357.409 470.746
608 0 54.0657 12.6698 685 163.356 357.669 469.12
609 0 55.1107 13.1916 727 158.648 358.212 467.916
610 0 58.1592 12.9644 754 159.024 357.752 468.101
611 0 60.0876 13.0809 786 156.573 358.435 466.095
612 0 63.157 13.031 823 154.044 358.687 465.808
613 0 65.1892 13.2077 861 158.98 358.372 463.923
614 0 66.072 13.0161 860 160.302 358.652 462.79
615 0 67.1864 13.6784 919 163.183 357.736 460.64
616 0 71.2138 13.0874 932 158.829 357.561 459.773
617 0 73.1095 13.3225 974 163.299 357.695 459.853
618 0 73.0902 13.5449 990 160.556 358.394 459.334
619 0 76.2259 13.1058 999 164.151 358.643 458.316
620 0 80.146 13.1136 1051 164.592 358.375 457.713
621 0 82.1423 13.6227 1119 157.492 357.69 455.645
622 0 84.1691 13.5917 1144 166.073 357.469 454.665
623 0 89.1832 13.6124 1214 163.446 358.217 452.291
624 0 90.1166 13.6601 1231 154.135 357.963 450.186
625 0 94.1425 13.692 1289 165.228 358.312 450.387
626 0 96.1346 13.4707 1295 166.103 357.527 448.178
627 0 100.294 13.58 1362 164.828 358.161 446.556
628 0 103.199 13.6823 1412 163.776 357.972 444.563
629 0 105.446 13.4571 1419 167.227 358.304 442.39
630 0 110.372 13.4908 1489 162.136 358.037 440.327
631 0 114.358 13.5977 1555 165.492 358.206 438.296
632 0 117.562 13.3887 1574 167.873 358.088 436.489
633 1 65.2319 12.3866 808 161.218 357.843 463.298
634 0 65.1954 12.9457 844 163.219 357.831 462.906
635 0 69.253 12.7792 885 166.821 357.862 461.216
636 0 72.216 12.8365 927 168.121 357.921 461.078
637 0 74.2147 12.4504 924 161.468 357.799 459.273
638 0 76.2066 13.1878 1005 159.418 356.175 455.891
639 0 79.19 12.6784 1004 151.668 357.484 457.39
640 0 82.1978 12.6767 1042 163.274 356.581 455.679
641 0 86.1246 12.4935 1076 160.027 356.948 454.012
642 0 87.1525 12.7937 1115 158.82 356.367 452.729
643 0 92.1917 12.6476 1166 156.479 356.779 450.854
644 0 95.2852 13.0765 1246 149.25 356.226 449.316
645 0 99.1679 12.8267 1272 154.816 356.652 447.624
646 0 102.176 12.9874 1327 150.303 356.261 445.703
647 1 54.0607 11.3206 612 145.007 356.544 468.917
648 0 56.1629 11.8584 666 140.85 356.455 469.138
649 0 57.1154 11.9057 680 146.675 356.76 468.978
650 0 60.1278 12.4235 747 140.811 356.61 467.05
651 0 59.0319 12.2307 722 138.647 356.517 462.766
652 0 61.1122 12.6489 773 139.503 356.454 461.032
653 0 63.0753 12.2711 774 142.566 356.217 460.8
654 0 64.0827 12.4058 795 135.787 356.33 460.308
655 0 67.1958 12.3668 831 142.479 355.826 461.386
656 0 72.1762 11.8183 853 139.947 355.329 460.792
657 0 71.2271 12.1583 866 140.863 355.51 459.406
658 0 75.2256 12.7749 961 139.471 355.341 458.18
659 0 79.2396 12.5821 997 143.298 355.298 456.593
660 0 81.2291 12.594 1023 137.507 355.538 456.477
661 0 82.2424 12.5604 1033 135.051 355.297 454.398
662 0 86.182 12.5548 1082 135.8 355.136 452.576
663 0 88.2855 12.958 1144 133.006 355.512 451.97
664 0 91.3021 12.4641 1138 137.17 355.253 450.272
665 0 93.2882 12.6168 1177 138.968 355.48 449.143
666 0 96.2895 12.6597 1219 138.938 355.301 447.493
667 0 99.3787 12.7693 1269 128.438 355.1 445.744
668 0 103.467 12.6514 1309 134.095 354.49 442.785
669 1 50.3216 9.51878 479 130.898 355.797 468.326
670 0 57.4347 9.78503 562 137.069 356.208 465.395
671 0 57.4916 10.5407 606 133.111 356.05 464.063
672 0 60.534 10.5891 641 138.056 356.02 462.154
673 0 62.3272 11.2471 701 131.565 355.227 464.475
674 0 64.3842 11.6954 753 126.637 355.112 462.688
675 1 35.0108 7.94041 278 131.245 355.165 478.77
676 0 35.008 8.34094 292 130.003 355.418 478.712
677 0 36.0765 8.0939 292 127.925 354.993 479.041
678 0 37.0934 7.60244 282 127.546 355.184 479.248
679 0 40.041 7.51729 301 127.216 355.316 477.85
680 0 41.0346 8.1151 333 121.856 355.471 477.829
681 0 44.139 8.06542 356 126.758 354.893 476.242
682 0 45.345 8.0494 365 130.767 354.545 474.159
683 0 47.3096 8.41266 398 125.834 354.756 472.96
684 0 50.4067 8.64965 436 120.452 354.259 470.991
685 0 45.3905 8.3057 377 117.987 354.732 473.3
686 0 45.3734 8.41903 382 121.325 354.542 472.757
687 0 50.2581 8.1181 408 120.637 354.14 471.554
688 0 50.342 8.40253 423 119.392 354.345 471.872
689 0 53.1986 9.21078 490 119.327 354.222 470.059
690 0 59.2513 9.55253 566 116.733 354.348 466.77
691 0 61.2463 9.92712 608 116.224 354.551 467.229
692 0 60.228 10.8753 655 116.285 354.455 465.788
693 0 65.0799 10.8943 709 107.024 354.79 465.31
694 0 66.0684 11.6849 772 108.171 355.058 464.592
695 0 68.0304 11.2744 767 111.435 354.173 463.31
696 0 71.0442 11.2184 797 112.773 354.003 463.511
697 0 71.0442 11.2184 797 129.378 353.003 463.511
698 0 75.0776 12.0276 903 109.467 353.777 460.701
699 0 77.1399 11.8097 911 111.543 353.727 457.78
700 0 79.1077 11.971 947 114.002 353.239 458.393
701 0 81.1372 11.9674 971 108.553 353.384 456.688
702 0 85.2134 12.3689 1054 110.995 353.373 455.565
703 0 88.4676 12.773 1130 114.572 353.17 454.246
704 0 90.3763 12.9791 1173 112.665 353.713 452.922
705 0 94.1767 12.0943 1139 116.737 353.568 452.869
706 1 51.1075 9.58763 490 114.604 353.431 475.949
707 0 51.1988 9.74633 499 115.162 354.263 475.707
708 0 53.2343 10.8389 577 116.201 354.915 472.619
709 0 55.0683 11.0772 610 118.231 354.069 472.38
710 0 56.094 11.3203 635 115.373 353.698 472.902
711 0 56.0409 11.8306 663 114.519 354.968 472.324
712 0 57.0532 11.9888 684 118.515 355.452 471.069
713 0 60.1098 11.7285 705 124.628 354.779 470.336
714 0 61.0734 11.5599 706 116.922 354.635 469.715
715 0 62.0246 12.2371 759 120.393 354.477 468.552
716 0 64.0369 11.5402 739 116.843 355.905 469.28
717 0 63.0332 12.3586 779 120.044 354.855 469.062
718 0 66.0878 11.742 776 123.959 354.876 468.402
719 0 67.0487 12.394 831 121.04 354.377 468.254
720 0 69.0701 12.0023 829 120.324 353.876 466.147
721 0 72.1151 12.4107 895 120.806 354.125 465.606
722 0 71.0533 13.0466 927 118.479 354.515 462.9
723 0 77.0487 12.9139 995 117.425 354.279 461.561
724 0 80.1442 12.4401 997 118.477 354.599 461.469
725 0 82.1391 12.4058 1019 119.11 354.149 461
726 0 85.2113 12.6392 1077 116.807 354.376 459.163
727 0 87.0775 13.0688 1138 122.683 354.673 457.02
728 0 91.1145 13.1812 1201 125.296 354.86 455.584
729 1 48.0484 10.8641 522 126.341 355.044 478.161
730 0 48.0524 10.7799 518 128.963 354.857 477.033
731 0 49.0547 11.4158 560 122.036 354.136 476.412
732 0 51.1688 11.9995 614 121.528 355.795 474.093
733 0 53.0414 12.2923 652 122.798 354.755 474.405
734 0 53.0835 12.6593 672 123.576 355.257 473.113
735 0 56.0383 12.4201 696 128.522 354.763 472.336
736 0 58.0813 12.7924 743 127.157 355.475 471.328
737 0 60.0502 12.6061 757 122.386 354.561 469.444
738 0 60.0908 12.6642 761 128.644 355.074 470.368
739 0 63.2126 12.8772 814 130.229 355.355 468.703
740 0 65.0902 13.1663 857 129.233 355.499 466.916
741 0 67.1872 12.9787 872 130.12 355.835 465.195
742 0 70.1089 12.6945 890 138.489 355.851 465.169
743 0 72.1253 13.1438 948 138.589 356.352 462.818
744 0 73.1482 13.3428 976 134.303 356.45 462.045
745 0 76.2337 12.8027 976 134.839 356.664 461.17
746 0 79.13 13.1429 1040 135.266 356.85 458.982
747 0 79.0958 13.5911 1075 146.813 356.514 458.525
748 0 84.2174 13.1564 1108 148.058 356.52 456.888
749 0 84.1267 13.2776 1117 152.713 356.439 456.273
750 0 88.3532 13.2423 1170 155.025 356.483 454.078
751 0 89.1526 13.6171 1214 154.203 356.874 452.507
752 0 94.168 13.5396 1275 156.654 356.667 450.58
753 0 97.2773 13.076 1272 155.208 357.273 449.822
754 0 101.199 13.3499 1351 158.739 356.987 448.38
755 1 52.0797 12.4425 648 159.818 357.344 470.855
756 0 54.0789 12.7037 687 156.635 356.814 470.033
757 0 55.0693 12.7476 702 160.348 357.566 469.013
758 0 57.0552 13.1452 750 157.596 357.707 467.989
759 0 59.0461 13.227 781 157.732 357.339 465.99
760 0 60.0616 13.3529 802 155.046 357.822 465.444
761 0 63.0828 13.2207 834 154.153 358.084 465.371
762 0 64.0802 12.9681 831 157.231 357.738 464.285
763 0 66.08 13.5896 898 161.068 358.013 461.994
764 0 70.0984 13.1244 920 152.913 358.26 461.375
765 0 71.1971 13.5258 963 155.081 358.874 460.613
766 0 74.1327 13.314 987 148.844 358.894 458.811
767 0 78.0941 13.2276 1033 152.638 358.685 456.654
768 0 81.2462 13.0098 1057 151.896 358.697 454.867
769 0 83.2481 13.4418 1119 147.177 358.466 454.226
770 1 44.06 11.3709 501 153.938 358.335 472.531
771 0 46.1673 11.9349 551 154.336 358.145 472.43
772 0 48.2018 12.178 587 150.363 357.877 471.574
773 0 51.065 11.8085 603 150.025 357.315 470.602
774 0 52.0926 12.4586 649 143.618 357.451 470.202
775 0 54.125 11.6212 629 152.289 357.679 470.402
776 0 54.087 12.7387 689 145.164 357.001 468.312
777 0 55.0721 12.874 709 141.271 357.807 467.805
778 0 58.088 12.4811 725 142.673 357.044 465.977
779 0 59.0873 13.0146 769 147.813 357.352 465.814
780 0 62.0477 13.264 823 142.295 356.548 463.866
781 0 64.0558 12.6296 809 144.324 356.485 463.686
782 0 66.028 12.9642 856 143.084 357.236 462.7
783 0 69.1282 12.4985 864 146.153 357.145 462.48
784 0 68.0874 13.0861 891 151.219 357.146 461.002
785 0 71.1699 13.1657 937 146.669 357.085 459.869
786 0 73.0403 13.1024 957 155.124 356.784 459.791
787 0 75.0801 13.1859 990 154.547 356.863 457.731
788 0 78.0513 13.6577 1066 151.565 356.722 456.638
789 0 81.0717 13.2475 1074 151.887 356.089 455.403
790 0 83.1234 13.4258 1116 155.441 356.256 455.039
791 0 85.0629 13.6605 1162 155.845 356.251 452.092
792 0 89.1198 13.364 1191 156.809 356.498 451.096
793 1 48.055 11.3828 547 157.581 356.702 472.516
794 0 48.0083 11.9354 573 158.291 356.501 472.347
795 0 51.0632 12.2202 624 159.723 356.904 471.003
796 0 53.0785 13.0373 692 159.598 356.957 470.736
797 0 54.1467 12.9648 702 156.691 356.85 469.014
798 0 56.0561 12.987 728 152.496 356.729 468.625
799 0 58.0447 13.0417 757 156.609 357.073 467.785
800 0 61.1043 13.0269 796 149.967 356.584 466.21
801 0 62.0934 12.7711 793 159.883 356.61 465.946
802 0 64.0623 13.2527 849 149.265 356.848 465.09
803 0 67.0733 13.0156 873 158.77 356.908 464.467
804 0 69.0569 13.192 911 162.645 356.894 462.85
805 0 72.0808 13.2906 958 162.287 357.206 461.738
806 0 75.2439 12.9977 978 158.754 356.814 459.038
807 0 77.1033 13.3976 1033 160.905 356.617 459.011
808 0 80.1836 13.1074 1051 160.083 356.675 456.678
809 0 82.1998 12.9684 1066 160.433 357.002 456.109
810 0 85.0616 13.2257 1125 154.5 357.119 453.985
811 0 88.0876 13.0325 1148 162.322 356.909 452.707
812 0 91.2078 13.1458 1199 158.214 357.247 451.402
813 0 94.0756 13.2128 1243 162.078 357.41 449.545
814 1 46.0988 12.1261 559 162.64 357.528 471.928
815 0 50.0629 12.0049 601 163.281 357.522 470.902
816 0 52.0559 12.3137 641 162.8 358.52 468.994
817 0 53.1606 12.8102 681 163.421 358.455 468.58
818 0 55.1521 12.8191 707 158.059 358.406 466.489
819 0 59.2541 12.573 745 151.111 359.031 465.639
820 0 62.1317 14.1474 879 151.886 359.301 462.114
821 0 62.1264 13.4082 833 156.526 358.726 463.068
822 0 65.1388 13.0798 852 152.92 358.682 461.831
823 0 68.2339 12.9408 883 148.883 358.829 461.035
824 0 70.2431 13.0262 915 147.143 358.835 458.783
825 0 72.1885 12.4812 901 143.511 359.05 458.396
826 0 75.2276 12.9341 973 146.998 358.867 456.694
827 0 78.321 13.1765 1032 151.946 358.647 454.12
828 0 79.3789 13.4797 1070 152.914 358.732 453.315
829 0 83.295 13.2061 1100 145.523 358.587 451.266
830 1 43.3152 10.666 462 154.58 358.922 472.039
831 0 44.0599 11.7794 519 140.507 358.636 470.981
832 0 46.0479 11.6401 536 150.332 358.864 470.228
833 0 48.0331 12.1583 584 142.808 360.435 468.829
834 0 50.0751 12.2416 613 146.649 360.734 467.775
835 0 50.0434 11.9296 597 149.513 360.193 467.973
836 0 51.0677 11.9449 610 150.908 360.584 467.061
837 0 53.1213 12.255 651 147.501 360.618 467.602
838 0 54.0634 12.2264 661 146.894 360.253 466.92
839 0 58.1196 12.113 704 147.668 360.51 465.2
840 0 59.3804 12.3441 733 148.559 360.915 464.31
841 0 60.126 12.4073 746 147.245 360.267 462.68
842 0 62.2527 12.642 787 145.699 360.377 461.553
843 0 64.1027 12.3708 793 141.478 360.475 461.369
844 0 67.199 12.0389 809 151.977 360.378 460.564
845 0 68.1424 12.4445 848 148.939 360.217 459.874
846 0 70.3076 12.744 896 143.368 359.833 458.614
847 0 73.1762 12.3128 901 146.071 359.806 457.825
848 1 37.1921 10.3248 384 146.018 359.911 474.156
849 0 39.0489 11.1143 434 146.569 359.677 473.73
850 0 41.1201 11.0408 454 142.031 359.546 472.744
851 0 43.2106 11.687 505 133.584 360.301 472.057
852 0 43.2301 12.0287 520 135.883 360.252 472.117
853 0 44.2581 12.2238 541 138.205 360.684 470.939
854 0 46.1996 11.6668 539 137.388 360.295 471.067
855 0 47.0602 12.2609 577 131.962 360.289 470.139
856 0 49.0639 11.6786 573 135.183 360.264 470.216
857 0 50.1282 12.0292 603 135.655 360.552 469.871
858 0 52.1665 12.5368 654 134.454 361.009 468.135
859 0 54.1642 12.9421 701 138.107 360.401 465.645
860 0 55.2653 12.7205 703 131.987 360.233 465.99
861 0 59.2674 12.7895 758 131.536 360.121 464.604
862 0 59.2041 12.6343 748 133.62 360.078 464.289
863 0 61.2674 12.8943 790 135.115 359.823 462.348
864 0 63.4231 12.7241 807 132.067 360.115 461.053
865 0 65.2676 13.1612 859 131.37 361.005 460.068
866 0 67.4292 12.9469 873 131.874 359.283 459.307
867 0 70.6295 13.0682 923 134.962 358.628 458.342
868 0 70.5037 13.4319 947 133.938 358.08 457.063
869 0 71.2968 13.7033 977 131.414 358.095 457.502
870 0 74.5627 13.5054 1007 135.839 358.311 456.014
871 0 76.3986 13.3772 1022 136.063 358.083 454.584
872 0 78.413 13.5054 1059 142.197 358.918 453.723
873 0 81.6153 13.3921 1093 139.684 359.846 450.637
874 0 84.681 13.4977 1143 140.309 359.34 449.642
875 0 83.6306 13.464 1126 142.672 359.121 448.174
876 0 87.5165 13.4832 1180 145.568 359.188 447.314
877 0 91.5149 13.5606 1241 145.325 359.425 447.514
878 0 94.4784 13.5481 1280 141.537 359.398 447.105
879 0 98.6126 13.2843 1310 144.806 358.937 445.539
880 0 101.77 13.2554 1349 142.398 359.084 443.131
881 0 104.508 13.4822 1409 144.062 359.318 442.938
882 1 57.4755 11.9181 685 139.933 359.839 467.727
883 0 59.2424 12.8455 761 142.715 359.693 466.226
884 0 61.1314 12.8085 783 147.188 359.571 465.587
885 0 63.0359 12.7864 806 141.323 360.051 465.077
886 0 65.0809 12.4922 813 145.419 359.285 463.717
887 0 67.0343 12.4712 836 140.401 359.834 462.443
888 0 69.0954 13.0834 904 146.56 359.522 461.817
889 0 71.1513 13.0005 925 137.869 359.618 459.796
890 0 74.0799 12.905 956 142.593 360.169 458.952
891 0 76.1307 12.9514 986 138.58 360.183 458.493
892 0 80.1873 12.371 992 143.602 360.19 457.559
893 0 82.1528 12.8419 1055 142.882 359.617 455.398
894 0 85.219 12.8492 1095 139.982 360.384 453.382
895 0 88.2579 13.0866 1155 146.802 360.285 450.939
896 0 92.1633 12.8142 1181 144.728 360.137 448.887
897 1 49.0661 11.4947 564 142.447 360.684 469.642
898 0 51.0904 11.1175 568 140.199 360.386 468.727
899 0 52.0763 12.3473 643 142.459 360.093 467.742
900 0 55.0324 12.0656 664 136.495 360.792 466.767
901 0 56.067 12.2175 685 142.847 359.777 468.381
902 0 58.0495 12.2309 710 139.679 359.438 467.723
903 0 60.0384 12.542 753 144.75 359.594 465.769
904 0 61.0881 12.5556 767 142.66 359.579 466.072
905 0 65.0826 12.7069 827 142.676 359.665 464.406
906 0 66.0481 12.6423 835 138.808 359.636 463.113
907 0 68.0622 12.7677 869 141.371 359.308 462.039
908 0 70.0777 12.7573 894 132.023 359.482 460.569
909 0 72.1247 12.9775 936 127.397 359.161 459.386
910 0 75.052 13.2575 995 138.661 359.315 458.902
911 0 77.1505 12.9617 1000 144.283 359.533 457.62
912 0 82.0898 12.9736 1065 144.109 360.116 455.98
913 0 84.0791 13.6181 1145 145.838 360.347 454.644
914 0 87.0841 12.7808 1113 151.583 359.964 453.586
915 0 89.1029 12.9289 1152 149.878 361.05 451.791
916 0 91.104 13.4462 1225 148.518 361.038 450.029
917 0 94.0874 13.2643 1248 155.02 361.058 450.093
918 0 97.0567 13.4354 1304 153.002 361.004 447.517
919 0 101.108 13.4806 1363 155.913 360.728 446.12
920 1 53.0289 11.2014 594 157.987 360.699 471.125
921 0 54.0525 11.8958 643 157.527 359.849 470.414
922 0 57.1258 11.5534 660 155.347 360.244 469.203
923 0 59.1137 12.772 755 155.605 361.389 467.43
924 0 59.0654 12.8332 758 152.022 361.069 467.001
925 0 62.255 12.7058 791 163.288 361.315 466.908
926 0 64.0989 12.7147 815 155.232 361.155 464.399
927 0 66.1323 12.5657 831 160.827 360.245 462.487
928 0 69.159 12.7677 883 160.743 361.169 461.925
929 0 72.1233 12.2291 882 160.984 361.223 461.231
930 0 74.1914 12.9126 958 155.683 361.438 458.578
931 0 77.105 12.5024 964 140.733 361.001 457.099
932 0 80.2007 13.2044 1059 156.441 360.855 456.15
933 0 83.2365 12.5546 1045 153.924 361.143 455.165
934 0 87.3229 12.7458 1113 158.009 360.951 453.416
935 0 89.2027 13.105 1169 143.089 361.348 451.979
936 1 46.0169 10.8221 498 157.137 360.996 472.681
937 0 49.0449 10.6229 521 152.253 361.125 471.96
938 0 51.0254 11.6217 593 148.605 361.573 471.847
939 0 51.0828 11.7456 600 135.182 361.483 470.828
940 0 52.0703 12.003 625 150.362 360.11 470.013
941 0 55.0935 12.1975 672 152.839 360.219 467.421
942 0 56.0533 12.2919 689 151.313 359.745 466.999
943 0 57.0529 12.4972 713 148.736 360.164 466.394
944 0 60.0473 12.3403 741 143.356 360.15 465.856
945 0 62.1012 12.3025 764 144.914 360.428 464.997
946 0 62.0583 12.3432 766 154.189 360.184 465.151
947 0 63.0494 12.514 789 155.757 360.074 462.948
948 0 66.0294 12.6459 835 150.57 359.307 461.383
949 0 68.0553 12.6074 858 153.867 359.879 461.003
950 0 71.049 12.8221 911 154.79 360.294 460.504
951 0 75.0639 12.2429 919 151.442 360.173 459.311
952 0 75.1103 12.4883 938 151.152 359.991 457.817
953 0 79.1371 12.1814 964 144.022 361.092 457.418
954 0 81.142 12.4227 1008 147.582 361.161 454.067
955 0 82.1335 12.1875 1001 154.576 361.317 454.319
956 0 86.2108 12.4462 1073 155.252 361.687 452.931
957 1 47.0879 10.6397 501 151.206 361.725 472.417
958 0 50.0583 10.9272 547 151.534 361.967 471.753
959 0 50.0603 11.1266 557 145.452 362.661 471.512
960 0 52.0439 11.7785 613 147.519 362.954 470.468
961 0 54.0954 11.8864 643 149.11 361.196 469.403
962 0 55.1117 11.8305 652 144.67 362.416 468.883
963 0 56.0638 11.8793 666 146.758 362.404 468.201
964 0 57.1308 11.85 677 148.292 362.235 467.291
965 0 60.143 12.4204 747 148.151 362.3 465.772
966 0 61.0877 12.523 765 147.501 361.639 465.08
967 0 62.0979 12.6091 783 147.811 361.48 465.594
968 0 65.0474 12.4063 807 147.084 362.124 463.176
969 0 67.0412 12.5744 843 150.009 362.192 463.935
970 0 67.0581 12.2282 820 146.756 362.077 461.943
971 0 71.1231 12.3307 877 151.896 362.453 461.591
972 0 72.0788 12.5557 905 153.465 362.099 460.157
973 0 74.0718 13.1224 972 148.123 362.218 457.767
974 0 79.0709 12.7986 1012 144.16 363.174 455.806
975 0 81.0698 12.8901 1045 151.087 362.942 455.204
976 0 83.062 12.6773 1053 152.281 362.06 454.422
977 0 87.0775 13.0573 1137 149.68 361.585 451.898
978 1 44.0203 10.6087 467 149.353 361.308 474.681
979 0 45.0401 11.8117 532 143.118 360.827 472.789
980 0 48.0205 11.5576 555 136.267 359.924 471.589
981 0 51.0635 11.8872 607 146.529 360.334 470.453
982 0 50.058 11.9461 598 147.334 362.788 471.256
983 0 52.0706 11.8301 616 140.36 362.713 470.511
984 0 52.1094 12.2243 637 137.275 362.972 469.672
985 0 55.1026 12.3769 682 142.72 362.292 468.364
986 0 56.1457 12.6813 712 146.813 363.258 467.073
987 0 57.1113 12.9221 738 143.614 361.78 465.436
988 0 61.2376 12.329 755 143.486 362.935 464.719
989 0 60.0807 12.7329 765 139.907 362.621 463.212
990 0 62.093 12.4491 773 142.94 361.602 464.083
991 0 66.0756 12.8187 847 146.263 361.164 462.178
992 0 69.0874 12.6941 877 146.432 362.111 461.145
993 0 71.0635 12.8617 914 147.732 362.356 460.278
994 0 72.1404 12.9331 933 142.718 361.658 458.93
995 0 76.1662 12.6303 962 147.774 361.769 458.565
996 0 79.139 12.6613 1002 144.994 361.295 456.351
997 0 79.2497 13.1862 1045 149.802 361.139 454.571
998 0 83.2192 13.0619 1087 146.213 360.9 453.39
999 0 86.4675 13.1263 1135 149.963 361.297 453.122
1000 0 88.6219 12.9765 1150 142.387 360.905 449.943
1001 0 91.4664 13.0321 1192 98.5327 360.676 448.815
1002 1 47.2514 11.132 526 146.534 360.759 469.854
1003 0 51.1203 11.1697 571 153.963 360.615 469.123
1004 0 53.2243 11.4421 609 150.125 361.19 467.675
1005 0 54.1689 12.1472 658 149.65 360.758 466.015
1006 0 55.3816 12.5674 696 148.279 360.813 464.46
1007 0 56.0301 13.0644 732 152.195 361.378 464.249
1008 0 59.0703 12.6121 745 143.232 360.933 465.53
1009 0 62.1781 12.1104 753 145.984 361.68 464.108
1010 0 63.2934 12.7817 809 149.855 361.926 464.671
1011 0 64.2024 12.9279 830 151.142 362.705 464.334
1012 0 67.2219 12.6744 852 151.401 363.258 463.522
1013 0 70.2777 12.5929 885 154.553 363.421 462.147
1014 0 71.3941 12.9983 928 149.227 363.127 461.788
1015 0 74.2459 13.1186 974 146.503 362.451 459.395
1016 0 77.2732 13.187 1019 152.367 363.504 458.781
1017 0 76.283 13.4106 1023 153.961 363.562 457.516
1018 0 80.5893 13.0414 1051 154.784 363.695 455.951
1019 0 85.5897 12.852 1100 148.739 363.883 453.504
1020 0 85.5367 13.1172 1122 145.642 364.349 453.567
1021 0 91.4498 13.122 1200 146.729 363.609 451.487
1022 0 94.4739 12.7337 1203 145.566 362.996 449.259
1023 0 96.3914 13.1858 1271 143.319 363.437 447.714
1024 1 48.2756 11.7243 566 141.716 363.479 470.951
1025 0 52.2061 12.1825 636 148.734 363.415 468.95
1026 0 54.465 12.1179 660 142.547 363.782 466.894
1027 0 55.1151 12.6826 699 146.026 363.784 468.239
1028 0 56.0418 12.5442 703 141.548 363.654 467.492
1029 0 59.0282 12.6888 749 146.425 364.36 465.737
1030 0 62.0426 13.0233 808 142.877 363.832 465.27
1031 0 63.0309 13.1047 826 144.111 364.114 464.37
1032 0 65.0726 12.7857 832 136.249 363.659 464.036
1033 0 67.0977 12.9513 869 134.815 367.205 464.296
1034 0 69.079 12.7101 878 140.657 364.86 462.503
1035 0 71.1946 12.9223 920 144.815 364.342 459.018
1036 0 73.0485 13.4157 980 138.449 364.397 459.021
1037 0 76.0975 13.1542 1001 136.763 364.218 459.039
1038 0 78.1018 13.2904 1038 137.647 364.124 457.013
1039 0 82.2007 13.3332 1096 135.118 363.328 454.149
1040 0 84.182 13.1382 1106 121.957 363.287 454.619
1041 0 87.1709 13.5481 1181 130.631 366.366 452.585
1042 0 91.1794 13.3802 1220 137.805 365.072 450.543
1043 0 92.1226 13.2432 1220 133.611 365.141 450.407
1044 0 95.1751 13.2283 1259 140.355 364.222 448.465
1045 0 100.34 12.7866 1283 137.735 363.186 446.313
1046 1 51.1813 11.5276 590 125.232 362.778 470.373
1047 0 53.1721 11.4722 610 132.613 362.926 470.356
1048 0 55.1392 12.278 677 134.195 363.843 469.764
1049 0 58.1235 12.0777 702 138.651 361.916 468.893
1050 0 59.2114 12.1261 718 139.816 362.528 467.713
1051 0 60.11 12.4272 747 142.726 362.328 466.752
1052 0 63.0755 12.1125 764 143.016 362.527 465.512
1053 0 65.3218 12.5226 818 137.2 364.11 463.088
1054 0 67.2393 12.4183 835 141.628 362.667 462.672
1055 0 68.5673 12.4695 855 139.822 362.626 461.975
1056 0 71.3024 12.44 887 144.609 362.494 460.492
1057 0 73.2753 12.7601 935 147.554 362.043 459.828
1058 0 74.2194 12.6786 941 149.956 362.589 458.103
1059 0 75.3883 13.1187 989 151.675 362.433 457.431
1060 0 79.2157 12.7121 1007 152.995 362.716 454.865
1061 0 81.4289 12.9315 1053 156.094 363.064 455.168
1062 0 85.3657 12.9794 1108 162.244 361.931 452.767
1063 0 86.4844 13.5285 1170 160.079 361.771 451.542
1064 0 91.4343 13.1242 1200 157.348 364.816 449.953
1065 0 93.5776 12.9732 1214 152.782 363.493 448.815
1066 0 96.2437 13.2684 1277 156.44 363.41 447.859
1067 0 99.484 12.9468 1288 156.043 363.37 446.521
1068 0 102.303 13.4014 1371 156.773 363.775 445.334
1069 0 105.38 13.0385 1374 150.102 364.089 444.325
1070 1 55.0751 11.6568 642 159.187 363.891 469.319
1071 0 57.0693 12.0906 690 159.788 363.274 467.91
1072 0 60.1224 12.275 738 154.944 363.012 467.606
1073 0 60.0845 12.6821 762 154.428 363.031 466.161
1074 0 61.1195 12.7946 782 155.254 362.93 465.483
1075 0 63.0772 12.6987 801 153.934 362.511 463.998
1076 0 67.1435 12.8233 861 152.769 362.74 463.332
1077 0 69.1138 12.4433 860 147.3 362.17 461.912
1078 0 70.1112 12.5657 881 152.884 362.417 461.358
1079 0 73.2078 12.8675 942 146.109 362.416 459.761
1080 0 76.1866 12.6794 966 142.971 361.929 458.171
1081 0 78.2225 12.7201 995 151.943 361.792 457.433
1082 0 81.2107 12.6584 1028 148.64 362.119 456.87
1083 0 83.2249 12.7005 1057 152.111 362.019 454.028
1084 0 85.2989 12.8607 1097 150.598 362.347 452.846
1085 0 90.3526 13.0821 1182 139.694 361.985 451.606
1086 0 92.1844 12.8547 1185 145.132 361.916 450.808
1087 0 97.1951 12.6755 1232 141.278 361.546 449.498
1088 0 99.1848 12.6935 1259 145.688 361.096 447.54
1089 1 51.0545 11.4584 585 145.786 360.674 471.118
1090 0 54.0651 11.3567 614 142.637 360.7 470.021
1091 0 56.0657 11.8789 666 137.515 361.323 466.598
1092 0 55.0207 12.6316 695 138.519 361.298 467.747
1093 0 58.0724 12.1572 706 140.936 362.313 468.02
1094 0 59.0486 12.0409 711 144.049 362.592 467.805
1095 0 62.08 12.6289 784 140.671 362.161 465.705
1096 0 63.0179 12.1394 765 145.112 361.85 464.658
1097 0 65.0353 12.547 816 141.533 361.85 463.29
1098 0 68.1326 12.417 846 142.329 362.033 462.851
1099 0 69.026 12.8647 888 136.959 362.222 461.602
1100 0 70.0499 12.9622 908 135.646 361.667 460.586
1101 0 72.0747 12.8062 923 144.321 361.522 459.728
1102 0 75.0768 12.9201 970 143.541 362.063 458.93
1103 0 77.0653 12.6257 973 144.392 361.67 457.621
1104 0 79.0856 12.733 1007 143.893 361.654 455.87
1105 0 80.3011 13.275 1066 137.72 361.819 454.101
1106 0 84.1195 13.4808 1134 144.325 361.787 453.197
1107 0 85.2029 13.4503 1146 152.398 361.278 452.605
1108 0 89.2112 13.4736 1202 151.215 361.39 450.093
1109 0 93.1824 13.4467 1253 150.441 361.761 448.249
1110 0 94.1746 13.39 1261 151.769 362.04 446.035
1111 1 49.0364 11.053 542 152.873 362.758 468.832
1112 0 50.0719 12.0626 604 149.334 362.151 468.114
1113 0 52.0471 12.335 642 145.455 360.972 469.525
1114 0 54.0901 12.1094 655 150.115 361.269 469.055
1115 0 55.0696 11.9122 656 150.309 361.706 468.659
1116 0 55.0464 13.0072 716 147.884 361.151 467.419
1117 0 58.1283 12.438 723 153.716 361.003 466.938
1118 0 56.0462 13.4532 754 148.855 360.61 466.745
1119 0 59.0963 12.7081 751 135.746 361.087 466.297
1120 0 61.1511 12.4773 763 148.676 361.186 466.329
1121 0 65.0626 12.7877 832 146.102 360.657 464.129
1122 0 66.0641 13.2144 873 138.276 360.763 461.821
1123 0 68.079 12.9115 879 151.712 361.643 461.094
1124 0 69.0949 12.8664 889 149.058 361.524 460.794
1125 0 72.111 12.8136 924 148.189 361.79 458.244
1126 0 73.0376 13.2534 968 153.504 361.411 456.823
1127 0 78.0699 12.5657 981 145.877 360.519 455.956
1128 0 80.1107 12.9321 1036 144.596 360.751 453.975
1129 0 83.1473 12.8086 1065 144.329 360.722 453.398
1130 0 85.1601 12.9638 1104 144.561 360.49 452.062
1131 0 88.1993 12.8006 1129 147.481 361.345 450.58
1132 0 91.1522 12.9015 1176 143.237 360.651 449.396
1133 1 46.0512 11.0529 509 145.64 361.167 471.597
1134 0 47.0868 11.1709 526 143.091 361.675 471.549
1135 0 50.0999 11.3773 570 147.4 361.737 470.453
1136 0 52.1098 11.6485 607 143.832 359.934 468.985
1137 0 54.2109 12.2116 662 136.511 359.668 467.257
1138 0 55.2453 12.707 702 134.437 361.107 467.783
1139 0 55.108 12.4664 687 140.686 359.738 467.531
1140 0 57.2895 12.463 714 138.794 359.514 465.56
1141 0 61.1235 12.3684 756 133.352 358.677 464.169
1142 0 61.1635 12.0824 739 136.318 359.263 463.41
1143 0 62.151 12.4053 771 142.843 358.722 463.808
1144 0 64.1111 12.8215 822 139.432 359.195 461.109
1145 0 66.2406 12.5905 834 138.601 359.396 461.072
1146 0 69.2398 12.3917 858 141.029 359.223 459.951
1147 0 72.212 12.2971 888 143.805 359.842 459.133
1148 0 74.1655 12.6069 935 144.241 359.584 457.354
1149 1 39.111 10.8921 426 143.725 360.073 473.648
1150 0 41.0278 11.3825 467 151.852 360.251 473.591
1151 0 40.0689 12.1541 487 136.509 360.366 472.294
1152 0 42.0767 11.8118 497 149.068 359.028 473.163
1153 0 43.091 12.4388 536 150.181 359.269 472.095
1154 0 44.0701 12.707 560 147.021 359.85 472.15
1155 0 43.0378 12.8259 552 145.252 360.716 471.447
1156 0 46.0644 12.1569 560 150.554 360.736 471.793
1157 0 47.0776 12.5113 589 146.18 359.798 470.832
1158 0 48.141 12.6088 607 146.122 359.31 469.341
1159 0 49.0785 12.5717 617 154.316 359.073 470.37
1160 0 53.2452 12.8087 682 150.672 359.174 467.563
1161 0 55.1761 12.2698 677 141.006 361.498 467.575
1162 0 56.1178 12.6341 709 147.245 360.162 465.406
1163 0 57.0797 13.122 749 151.625 359.51 465.613
1164 0 58.0669 13.0883 760 141.85 359.43 464.796
1165 0 60.0678 12.952 778 147.656 359.49 464.093
1166 0 62.0771 12.7583 792 149.967 359.535 463.027
1167 0 64.0729 12.7199 815 142.361 359.963 463.004
1168 0 66.088 12.9524 856 149.876 360.304 461.437
1169 0 69.1318 13.1922 912 154.667 359.935 459.447
1170 0 70.3037 13.1714 926 148.261 360.405 460.192
1171 0 72.105 13.1475 948 152.833 360.295 458.34
1172 0 75.1162 13.2062 992 146.846 360.566 456.895
1173 0 78.0989 13.0219 1017 153.839 360.34 455.739
1174 0 78.1187 12.9803 1014 156.923 360.101 455.144
1175 1 41.0147 11.4349 469 159.759 360.947 474.115
1176 0 42.0164 11.8287 497 154.71 360.992 471.457
1177 0 43.3205 12.396 537 158.078 359.119 471.639
1178 0 45.0628 12.649 570 153.488 360.6 471.642
1179 0 46.0773 12.6743 584 157.764 360.229 470.488
1180 0 47.1768 12.9089 609 153.823 360.243 470.658
1181 0 48.1482 12.9392 623 153.148 360.233 470.591
1182 0 48.105 13.0548 628 160.844 360.815 470.068
1183 0 50.2032 13.3856 672 156.948 360.126 469.579
1184 0 51.147 13.1386 672 159.996 360.481 469.251
1185 0 54.1312 13.2641 718 152.688 360.134 468.773
1186 0 55.2298 13.3442 737 155.537 360.455 467.906
1187 0 56.2012 13.6652 768 160.992 360.719 467.651
1188 0 60.0868 13.4139 806 158.488 360.705 466.056
1189 0 59.1226 13.565 802 159.005 360.833 465.359
1190 0 62.1453 13.3558 830 167.987 360.733 464.229
1191 0 63.1758 13.2962 840 160.546 361.763 463.61
1192 0 67.2091 12.6025 847 164.702 361.004 463.216
1193 0 70.1169 13.0211 913 165.64 360.843 461.734
1194 0 71.1913 13.0493 929 160.946 361.608 460.453
1195 0 74.0932 12.9836 962 155.266 361.168 459.181
1196 0 77.2782 13.1473 1016 151.893 360.949 457.24
1197 1 41.1566 11.5656 476 151.784 361.095 474.821
1198 0 42.0784 12.1915 513 155.673 360.943 473.795
1199 0 43.0689 12.7935 551 73.5717 360.688 473.232
1200 0 46.2231 12.4397 575 153.687 360.729 472.014
1201 0 45.1362 13.0937 591 156.107 361.267 471.469
1202 0 46.1324 13.2228 610 148.477 361.128 470.256
1203 0 49.1569 12.2668 603 149.337 361.516 469.861
1204 0 50.1395 13.1035 657 153.749 360.871 468.123
1205 0 52.09 12.9391 674 156.295 361.049 467.065
1206 0 52.2718 13.7168 717 153.251 361.329 465.179
1207 0 54.1775 13.4742 730 155.91 361.507 466.155
1208 0 57.196 13.2702 759 157.012 361.344 465.12
1209 0 57.1655 13.2947 760 157.228 361.697 464.499
1210 0 58.2892 13.6389 795 161.321 361.153 462.898
1211 0 61.2386 13.6515 836 159.145 360.795 462.549
1212 0 63.2153 13.5727 858 160.322 361.316 462.023
1213 0 65.2465 13.7172 895 159.903 360.908 459.379
1214 0 66.4629 13.8573 921 159.668 361.443 457.1
1215 0 68.454 13.951 955 156.214 361.799 456.036
1216 0 71.3406 13.7229 979 145.439 361.618 456.228
1217 0 72.4015 13.9362 1009 157.35 361.82 455.29
1218 0 73.5183 14.1733 1042 161.258 361.885 454.064
1219 0 77.747 13.7883 1072 150.562 361.643 452.465
1220 0 79.8711 13.7722 1100 156.66 361.239 450.802
1221 0 82.8973 13.9208 1154 153.983 361.666 449.127
1222 0 87.6003 14.0296 1229 150.855 361.044 447.162
1223 0 89.8525 13.8226 1242 158.508 361.91 446.992
1224 0 91.5719 14.0218 1284 154.227 361.933 444.52
1225 0 95.5671 13.5821 1298 161.312 361.844 443.5
1226 1 50.5886 12.8883 652 161.314 362.064 465.594
1227 0 52.3724 13.404 702 152.632 362.755 464.093
1228 0 53.4055 13.4256 717 155.538 361.709 464.393
1229 0 54.3462 13.6348 741 151.364 361.931 463.603
1230 0 57.3492 13.6532 783 150.559 362.151 461.498
1231 0 58.3645 13.3472 779 155.57 363.022 461.741
1232 0 60.6575 13.4361 815 155.768 362.575 460.394
1233 0 62.4743 13.7336 858 156.085 362.552 459.565
1234 0 65.4287 13.465 881 151.011 362.672 458.471
1235 0 67.481 13.6187 919 153.627 362.686 458.33
1236 0 68.8603 13.9558 961 154.988 362.506 456.568
1237 0 73.6431 13.5383 997 154.937 361.827 454.252
1238 0 74.6369 13.9073 1038 155.648 361.807 453.013
1239 0 76.3806 14.1004 1077 153.011 361.908 451.291
1240 0 80.6554 13.6507 1101 141.028 361.934 450.125
1241 0 83.5849 13.9858 1169 146.583 361.849 448.652
1242 0 83.6807 14.1012 1180 151.419 362.096 448.28
1243 0 88.6069 14.1637 1255 152.834 362.6 445.049
1244 0 90.5091 14.4737 1310 153.36 361.515 443.931
1245 0 94.412 14.299 1350 154.364 361.575 444.015
1246 0 96.5499 14.5728 1407 157.303 361.265 442.061
1247 0 100.561 14.439 1452 159.279 360.759 441.898
1248 1 52.1584 12.6538 660 153.795 361.092 466.674
1249 0 55.2408 12.7623 705 157.884 361.085 466.207
1250 0 55.1651 13.378 738 157.267 361.271 464.877
1251 0 57.1837 13.1681 753 157.133 361.463 465.267
1252 0 59.062 13.325 787 159.734 361.118 464.67
1253 0 60.1748 14.1255 850 158.178 361.201 462.369
1254 0 63.1976 13.2442 837 151.504 361.675 461.815
1255 0 66.154 13.4081 887 160.931 362.577 459.82
1256 0 67.1766 13.4422 903 156.913 363.439 458.765
1257 0 70.19 13.2925 933 153.946 362.391 457.35
1258 0 71.2244 13.5066 962 156.94 361.631 456.537
1259 0 74.2209 13.5945 1009 157.119 362.491 455.329
1260 0 75.2188 13.494 1015 158.529 361.283 454.228
1261 0 77.2582 13.8885 1073 160.155 361.678 452.617
1262 0 80.2387 13.9584 1120 163.027 361.782 451.734
1263 0 82.2359 14.1301 1162 165.398 361.767 450.751
1264 0 86.2167 13.9068 1199 160.543 362.582 449.224
1265 0 88.2588 14.0723 1242 163.41 362.362 446.641
1266 0 90.1981 13.9027 1254 156.675 362.25 446.315
1267 0 93.2357 13.8145 1288 163.002 362.026 445.55
1268 0 95.2004 13.981 1331 162.593 362.417 443.384
1269 0 97.1705 13.8519 1346 164.886 362.475 442.655
1270 0 101.224 13.6528 1382 157.086 362.09 441.172
1271 0 104.122 13.8012 1437 164.571 362.927 440.748
1272 1 58.0555 12.5053 726 164.988 362.981 463.504
1273 0 60.1559 12.4676 750 163.66 362.353 461.336
1274 0 62.1115 13.1377 816 160.289 362.277 460.045
1275 0 66.0706 12.971 857 162.146 362.355 460.916
1276 0 67.0864 12.9684 870 159.68 362.152 460.02
1277 0 69.1977 13.1652 911 162.379 362.38 459.29
1278 0 74.1922 12.6967 942 157.891 361.655 457.587
1279 0 77.1415 13.2613 1023 159.662 362.197 454.35
1280 0 78.2061 13.2343 1035 160.298 362.16 452.517
1281 0 81.1955 13.2766 1078 150.434 362.142 451.367
1282 0 83.222 13.6142 1133 153.346 363.211 450.534
1283 0 88.0678 13.1944 1162 160.389 362.513 448.262
1284 0 90.1358 13.169 1187 153.084 361.612 447.81
1285 0 93.1932 13.4774 1256 160.084 361.893 446.124
1286 0 96.2084 13.6579 1314 152.38 361.413 443.471
1287 0 100.153 13.709 1373 154.154 361.867 441.99
1288 0 102.143 13.5399 1383 149.352 361.53 440.172
1289 1 55.1113 11.9576 659 153.936 363.259 464.384
1290 0 56.1075 12.0127 674 154.261 363.145 462.975
1291 0 59.0908 12.6077 745 155.855 362.413 462.424
1292 0 61.1523 12.2481 749 154.256 361.945 462.043
1293 0 63.1636 12.6339 798 152.688 361.927 460.799
1294 0 65.1234 12.7758 832 157.401 361.517 459.291
1295 0 68.2337 12.8089 874 157.613 361.602 458
1296 0 70.3067 13.1566 925 155.972 361.889 458.27
1297 0 71.3159 12.3114 878 155.224 362.235 457.703
1298 0 73.2104 12.7577 934 156.398 361.704 456.005
1299 0 75.2574 12.8891 970 157.668 361.158 455.356
1300 0 78.216 12.8874 1008 159.071 361.557 453.811
1301 0 80.2769 13.3164 1069 162.462 361.67 453.032
1302 0 83.368 13.0626 1089 160.358 362.642 450.23
1303 0 84.3471 13.1362 1108 158.924 362.733 449.546
1304 0 86.4375 13.3854 1157 159.333 362.089 448.728
1305 0 89.3675 13.0137 1163 159.823 361.445 447.639
1306 0 92.5019 13.3186 1232 156.792 362.047 445.873
1307 0 96.6787 13.2087 1277 151.254 362.335 444.877
1308 0 98.6309 13.2514 1307 153.732 362.229 443.535
1309 0 102.695 13.2528 1361 155.498 361.952 440.293
1310 0 105.861 12.9037 1366 161.714 362.135 440.81
1311 1 61.3391 12.2108 749 163.629 362.352 461.367
1312 0 63.47 12.4153 788 160.693 362.325 461.74
1313 0 64.2278 12.6736 814 149.849 361.948 459.962
1314 0 64.5178 12.7872 825 154.312 362.128 459.69
1315 0 66.5106 13.3813 890 156.449 362.403 458.47
1316 0 69.4964 13.1662 915 160.451 361.946 456.882
1317 0 72.2703 12.979 938 154.077 361.865 455.763
1318 0 75.6664 12.9648 981 160.057 361.574 454.501
1319 0 77.8085 13.2119 1028 157.435 362.523 450.335
1320 0 80.5417 13.1981 1063 157.253 361.875 450.755
1321 0 81.4287 13.2386 1078 155.309 362.315 450.34
1322 0 85.5295 13.2001 1129 160.312 361.951 448.732
1323 0 87.9482 13.4511 1183 154.472 361.855 445.811
1324 0 88.891 13.3197 1184 156.204 362.41 445.162
1325 0 93.115 13.6068 1267 156.909 362.164 442.391
1326 0 96.7801 13.5048 1307 157.199 361.675 440.374
1327 0 100.909 13.2397 1336 160.019 362.582 438.897
1328 0 105.072 13.191 1386 157.528 362.068 437.53
1329 0 107.654 13.3854 1441 159.154 362.108 437.629
1330 0 110.712 13.3047 1473 160.382 361.473 436.244
1331 0 113.533 13.4235 1524 157.425 361.817 434.347
1332 1 61.5396 11.9435 735 154.162 361.873 460.736
1333 0 61.6647 12.795 789 156.364 362.015 457.186
1334 0 65.464 12.5565 822 162.491 362.31 457.918
1335 0 66.482 12.6801 843 157.84 361.703 457.961
1336 0 70.7496 12.5654 889 160.054 361.769 456.349
1337 0 72.6736 12.6456 919 155.866 361.961 455.324
1338 0 72.3978 12.9976 941 157.358 362.616 454.412
1339 0 76.5957 12.7553 977 153.623 362.52 453.435
1340 0 78.5901 13.0169 1023 154.867 362.238 451.851
1341 0 82.7891 13.166 1090 159.951 362.373 447.802
1342 0 84.9623 13.3706 1136 156.726 362.171 446.752
1343 0 87.7659 12.9321 1135 159.93 361.67 445.219
1344 0 89.6736 13.1142 1176 163.959 362.167 445.07
1345 0 93.6103 13.0862 1225 153.057 361.896 442.678
1346 0 95.7108 13.3214 1275 156.674 362.459 441.192
1347 1 49.5398 11.9702 593 162.04 363.039 464.099
1348 0 50.608 12.2115 618 155.22 363.608 464.71
1349 0 55.6632 12.2163 680 155.693 362.834 463.251
1350 0 57.2373 12.2298 700 167.199 363.724 464.33
1351 0 57.3217 12.4386 713 165.129 363.36 463.403
1352 0 59.322 12.6597 751 165.249 362.915 461.288
1353 0 61.3935 12.6886 779 159.479 362.575 459.551
1354 0 63.2943 13.0975 829 19.7575 362.2 459.052
1355 0 65.4232 12.2892 804 164.066 362.445 458.348
1356 0 65.1506 12.9392 843 163.428 362.439 458.152
1357 0 69.3932 12.8255 890 158.539 362.387 456.062
1358 0 69.4181 12.8641 893 166.342 362.785 455.683
1359 0 73.5369 12.8643 946 163.767 362.751 453.325
1360 0 74.499 12.7921 953 167.318 362.967 452.118
1361 0 77.4603 12.8711 997 169.404 362.096 450.112
1362 0 79.385 13.3652 1061 165.079 363.297 448.641
1363 0 81.5882 13.3598 1090 168.267 363.972 447.339
1364 0 83.454 13.5883 1134 165.061 363.377 446.652
1365 0 85.7279 13.4612 1154 163.282 363.076 445.75
1366 0 89.5969 13.2929 1191 167.839 362.816 444.338
1367 0 90.5968 13.8526 1255 164.127 362.712 443.244
1368 0 94.6019 13.6572 1292 165.21 363.074 441.342
1369 0 97.5485 13.8188 1348 167.626 362.835 440.68
1370 0 99.4271 13.7085 1363 168.041 363.072 439.643
1371 0 104.55 14.0029 1464 168.479 363.095 439.447
1372 0 106.433 13.7364 1462 170.96 363.867 436.567
1373 0 109.539 13.7577 1507 164.244 363.841 434.134
1374 0 114.684 15.05 1726 164.867 363.528 431.687
1375 0 115.675 14.0047 1620 170.104 363.688 431.074
1376 0 120.507 13.8001 1663 174.361 364.072 428.408
1377 0 121.767 14.0597 1712 163.754 363.697 427.154
1378 0 127.631 14.0561 1794 169.415 363.782 425.778
1379 0 130.624 13.9637 1824 175.159 363.714 424.968
1380 0 135.84 14.1122 1917 163.749 363.282 421.428
1381 0 138.606 14.1625 1963 171.9 363.346 420.474
1382 0 142.477 14.2129 2025 173.454 363.648 418.724
1383 0 148.551 13.9952 2079 172.608 363.971 414.79
1384 0 157.589 16.2829 2566 152.319 364.439 406.183
1385 0 158.531 15.2525 2418 161.206 364.071 406.671
1386 0 162.615 14.3898 2340 171.175 363.931 405.477
1387 0 168.695 14.3217 2416 166.241 363.868 402.992
1388 0 173.593 14.0271 2435 164.296 363.963 401.346
1389 0 179.71 14.5846 2621 156.689 364.053 397.127
1390 0 187.438 14.4848 2715 166.93 364.459 395.836
1391 1 91.2562 12.3937 1131 158.135 364.347 447.094
1392 0 91.2679 12.7975 1168 156.883 364.065 445.751
1393 0 96.1894 13.016 1252 158.997 363.778 445.236
1394 0 99.4041 12.917 1284 147.396 363.198 443.083
1395 0 103.349 12.5884 1301 160.516 363.705 441.412
1396 0 106.278 12.5991 1339 156.113 363.457 440.338
1397 0 108.229 12.8339 1389 142.325 363.996 438.566
1398 0 113.53 12.8336 1457 160.212 363.699 437.443
1399 0 116.177 12.8597 1494 159.55 362.867 434.363
1400 0 121.251 12.9154 1566 159.973 363.363 432.592
1401 0 124.292 12.889 1602 160.379 363.349 431.017
1402 1 71.4028 11.3161 808 148.851 363.181 457.946
1403 0 74.2347 11.7061 869 133.318 363.359 456.849
1404 0 74.2101 12.5455 931 136.266 363.386 455.291
1405 0 78.2431 11.7966 923 127.774 362.605 454.053
1406 0 81.1759 12.1834 989 154.281 363.666 453.22
1407 0 83.2 12.2236 1017 154.581 363.71 450.714
1408 0 87.2861 12.4648 1088 155.954 363.44 449.353
1409 0 89.5267 12.2868 1100 150.33 363.021 448.643
1410 0 93.3492 12.405 1158 146.921 362.591 446.604
1411 0 96.4108 12.1978 1176 139.136 362.077 445.674
1412 0 97.5976 12.8897 1258 134.652 362.524 442.87
1413 0 103.582 12.2801 1272 145.284 362.432 441.541
1414 1 58.3492 10.1458 592 148.289 362.211 464.611
1415 0 60.3404 10.8551 655 143.227 361.104 463.484
1416 0 62.3307 11.824 737 143.228 360.137 461.699
1417 0 63.5617 12.1771 774 146.894 360.477 460.947
1418 0 65.1923 12.0413 785 149.474 361.47 460.088
1419 0 67.3961 11.885 801 149.398 361.664 459.734
1420 0 69.2999 12.3377 855 146.337 360.922 459.72
1421 0 71.2433 12.0152 856 147.714 361.401 459.868
1422 0 72.197 12.6044 910 147.815 360.713 458.311
1423 0 73.1943 12.2004 893 149.132 361.651 458.222
1424 0 74.1648 12.5531 931 149.476 361.907 457.374
1425 0 79.3914 12.2935 976 147.572 361.204 456.514
1426 0 81.3254 12.6406 1028 149.855 361.518 454.415
1427 0 81.318 12.5802 1023 144.964 360.858 454.31
1428 0 84.2941 12.5987 1062 146.368 360.599 452.653
1429 0 87.2318 12.6559 1104 142.891 360.4 451.136
1430 0 88.2664 12.8135 1131 145.234 360.647 449.656
1431 0 91.3376 12.952 1183 152.665 360.886 448.565
1432 0 96.1995 12.8483 1236 153.741 360.647 447.202
1433 0 97.3802 12.7849 1245 155.304 360.827 445.904
1434 0 101.421 12.7981 1298 154.938 360.01 443.8
1435 0 103.228 12.9616 1338 150.4 359.907 442.504
1436 0 106.198 13.2959 1412 151.838 359.453 440.698
1437 0 109.276 12.9855 1419 153.992 360.483 439.235
1438 0 113.309 12.9292 1465 153.628 359.891 437.336
1439 0 116.283 13.4585 1565 153.415 359.72 435.433
1440 0 121.297 13.5536 1644 147.531 359.864 432.773
1441 0 124.326 13.1911 1640 145.609 359.175 430.628
1442 0 130.257 12.7901 1666 147.374 360.649 429.543
1443 1 71.1926 10.9562 780 137.533 358.86 459.745
1444 0 73.1511 12.2213 894 139.346 358.236 458.842
1445 0 76.1909 12.4162 946 139.55 358.837 456.943
1446 0 80.166 12.0625 967 141.441 359.145 456.019
1447 0 80.2388 12.2509 983 140.289 359.482 455.908
1448 0 84.2341 12.2753 1034 144.659 358.711 452.658
1449 0 87.2456 12.035 1050 143.384 359.154 451.167
1450 0 89.1148 12.3885 1104 143.811 358.812 450.738
1451 0 92.2447 12.2717 1132 149.804 359.094 448.617
1452 0 96.2795 12.3183 1186 151.831 359.337 447.726
1453 0 99.3171 12.4148 1233 151.011 359.148 446.564
1454 0 101.257 12.2361 1239 150.104 359.228 444.522
1455 0 104.178 12.2195 1273 146.909 359.716 442.887
1456 0 107.148 12.2635 1314 150.87 358.98 441.422
1457 0 110.203 12.5223 1380 146.976 359.089 440.622
1458 0 110.196 12.6048 1389 148.06 359.567 438.212
1459 0 117.107 13.7567 1611 140.079 359.719 433.597
1460 0 119.162 12.7893 1524 131.196 359.37 435.729
1461 0 121.246 12.5778 1525 147.194 359.243 433.75
1462 0 126.251 12.3881 1564 146.114 359.442 431.173
1463 0 130.168 12.3072 1602 142.292 359.7 429.371
1464 0 134.206 12.5404 1683 145.54 359.81 426.739
1465 0 137.333 12.8593 1766 137.858 360.351 422.844
1466 1 73.1995 10.7651 788 139.344 359.693 456.486
1467 0 76.1428 11.8199 900 135.664 361.162 455.259
1468 0 76.2139 11.7957 899 141.825 361.605 454.503
1469 0 78.2139 12.3507 966 142.683 361.306 453.216
1470 0 79.2183 12.636 1001 149.252 362.611 451.596
1471 0 83.2622 12.0943 1007 150.697 362.578 449.671
1472 0 86.2615 12.4041 1070 148.474 362.83 448
1473 0 88.4295 12.7446 1127 149.783 362.936 446.339
1474 0 90.5682 12.5872 1140 146.508 363.683 445.174
1475 0 93.4599 12.615 1179 149.04 362.907 443.768
1476 0 95.6315 12.7991 1224 153.918 363.064 441.758
1477 0 97.5449 12.8044 1249 157.012 363.488 440.905
1478 0 100.531 12.7423 1281 150.964 363.58 440.502
1479 0 103.397 12.5536 1298 157.322 363.813 438.664
1480 0 106.513 12.7403 1357 154.252 363.901 437.125
1481 0 109.375 12.5166 1369 154.996 363.871 436.475
1482 0 110.279 13.0306 1437 154.892 364.415 434.662
1483 0 113.28 13.118 1486 151.634 364.583 433.411
1484 0 119.534 13.059 1561 153.535 364.803 431.199
1485 1 65.1029 10.66 694 152.856 365.223 458.349
1486 0 68.0584 11.064 753 145.77 364.934 457.526
1487 0 68.1167 11.1133 757 145.499 364.692 457.63
1488 0 72.1967 11.3163 817 140.687 364.099 454.966
1489 0 74.1242 11.2784 836 138.977 362.602 453.882
1490 0 77.2591 12.0633 932 143.707 363.389 451.517
1491 0 78.1812 11.614 908 141.432 362.504 452.63
1492 0 78.115 11.9695 935 145.003 363.384 451.52
1493 0 83.1764 12.0347 1001 139.493 363.649 449.293
1494 0 84.1565 12.0014 1010 145.342 363.154 448.511
1495 0 89.2739 11.8288 1056 144.834 362.651 447.226
1496 0 89.2288 12.6641 1130 141.196 362.128 445.719
1497 0 94.31 12.056 1137 136.876 362.512 445.117
1498 0 96.2699 12.3507 1189 144.907 362.14 442.002
1499 0 98.3644 12.3927 1219 144.902 361.767 441.331
1500 0 100.301 12.5123 1255 144.614 362.018 439.929
1501 1 55.1369 10.1384 559 142.143 362.472 464.682
1502 0 57.0835 9.84523 562 140.374 362.509 464.093
1503 0 57.1531 10.4806 599 132.571 362.504 462.918
1504 0 61.0889 10.673 652 134.273 362.923 462.497
1505 0 63.3727 11.3771 721 131.559 361.372 459.903
1506 0 65.0368 11.8702 772 134.696 362.475 459.212
1507 0 69.0436 11.6738 806 134.887 362.21 458.819
1508 0 70.0689 12.2308 857 132.995 362.539 458.009
1509 0 73.1772 11.684 855 135.939 362.178 457.119
1510 0 74.0373 11.9129 882 137.207 362.185 456.068
1511 0 78.1993 12.2763 960 132.75 362.342 455.978
1512 0 78.1515 12.5014 977 139.684 361.359 455.29
1513 0 81.1681 12.0368 977 132.079 361.658 454.019
1514 0 81.2488 12.8986 1048 135.412 361.937 453.208
1515 0 84.2367 12.4649 1050 140.276 360.937 451.31
1516 0 89.1699 12.1678 1085 138.805 360.836 451.359
1517 0 91.3443 12.7102 1161 137.135 360.471 448.076
1518 0 94.3954 12.5112 1181 139.628 360.756 447.247
1519 0 95.28 12.6364 1204 140.228 360.166 446.568
1520 0 98.2779 12.8615 1264 139.684 360.411 445.713
1521 0 100.204 12.9835 1301 141.138 360.123 444.009
1522 0 105.318 12.562 1323 145.013 360.251 442.723
1523 0 108.238 12.6111 1365 144.919 359.682 441.505
1524 0 108.514 13.0859 1420 142.799 359.659 440.501
1525 1 62.4177 11.6153 725 143.429 359.086 462.359
1526 0 65.5878 11.801 774 145.504 358.344 459.191
1527 0 67.2745 12.2335 823 139.318 358.768 459.891
1528 0 69.2068 12.441 861 142.729 359.504 462.05
1529 0 71.2635 12.4608 888 143.571 358.626 461.499
1530 0 73.1823 12.3527 904 144.059 359.659 460.571
1531 0 74.3214 12.4056 922 144.209 359.957 459.695
1532 0 77.2461 12.9456 1000 140.012 359.616 457.67
1533 0 81.2485 12.6648 1029 143.061 359.848 457.422
1534 0 83.1044 12.743 1059 152.035 359.397 455.659
1535 0 85.2199 13.0955 1116 154.886 359.487 455.017
1536 0 85.2899 13.0379 1112 153.516 359.591 453.107
1537 0 88.2477 13.3828 1181 143.229 359.699 453.117
1538 0 92.3906 12.9559 1197 156.805 360.014 450.878
1539 0 94.2642 12.3695 1166 150.665 359.727 450.208
1540 0 97.2537 12.8016 1245 152.217 359.766 448
1541 0 101.457 12.7837 1297 157.726 360.221 446.4
1542 0 104.431 12.4101 1296 155.961 360.066 445.023
1543 0 107.27 12.5758 1349 156.594 360.025 443.921
1544 1 58.1504 11.0575 643 145.393 359.505 468.781
1545 0 60.2001 11.2458 677 149.409 359.433 466.388
1546 0 62.4384 12.14 758 151.435 361.015 460.718
1547 0 64.1099 11.917 764 144.035 361.063 464.055
1548 0 66.1286 12.264 811 149.682 361.388 463.678
1549 0 68.2349 12.4716 851 147.322 361.576 462.477
1550 0 70.1986 12.3792 869 152.224 361.157 460.547
1551 0 71.2429 12.7171 906 151.189 361.563 460.16
1552 0 74.1199 12.6417 937 148.763 361.007 459.279
1553 0 75.6495 13.0206 985 147.769 360.977 458.347
1554 0 78.2871 12.5947 986 152.926 361.278 456.7
1555 0 80.444 12.8412 1033 152.331 360.79 454.85
1556 0 83.2897 12.5706 1047 148.486 360.697 454.475
1557 0 84.2828 12.5174 1055 153.278 359.901 453.765
1558 0 88.5228 12.6182 1117 148.047 360.577 451.321
1559 0 90.4341 12.7828 1156 156.421 360.837 450.716
1560 0 92.3991 13.3984 1238 151.317 361.12 449.301
1561 0 94.5335 13.1594 1244 154.306 361.305 446.876
1562 0 96.6282 13.1432 1270 153.148 361.371 446.714
1563 0 101.381 13.2964 1348 154.507 361.655 444.746
1564 0 103.435 13.1967 1365 145.752 361.979 444.021
1565 0 104.441 13.5961 1420 156.539 361.503 443.116
1566 0 108.591 13.4541 1461 157.094 362.028 441.531
1567 1 61.3813 11.5996 712 157.154 361.729 464.284
1568 0 61.2998 12.4307 762 159.129 362.348 459.953
1569 0 63.2708 12.7863 809 154.087 362.548 458.132
1570 0 65.2416 12.8292 837 154.155 362.53 458.76
1571 0 67.1987 12.902 867 157.325 362.542 457.173
1572 0 69.3524 13.1791 914 151.371 362.497 455.977
1573 0 72.2493 13.2596 958 146.592 362.29 454.493
1574 0 74.2205 13.4464 998 152.077 362.37 452.854
1575 0 74.3133 13.8064 1026 155.711 361.894 451.335
1576 0 79.279 13.5976 1078 153.224 362.25 449.776
1577 0 81.336 13.8438 1126 155.605 362.11 448.586
1578 0 84.3943 13.9701 1179 157.864 362.232 445.742
1579 0 85.4927 14.0363 1200 157.236 362.338 445.265
1580 0 88.2554 14.1181 1246 151.724 362.333 443.6
1581 0 92.3103 14.0504 1297 152.435 362.191 441.826
1582 0 94.2761 14.2984 1348 156.274 362.61 441.485
1583 0 98.1759 14.036 1378 156.52 362.668 439.67
1584 0 102.192 13.9738 1428 158.497 362.793 438.86
1585 0 106.247 14.2686 1516 155.778 363.109 437.982
1586 0 108.219 14.3043 1548 154.867 363.344 435.399
1587 0 112.288 13.9285 1564 159.917 362.684 434.816
1588 1 60.2247 12.3869 746 159.168 363.023 461.275
1589 0 61.0961 13.2905 812 159.666 363.148 459.212
1590 0 64.1038 13.4001 859 158.171 362.864 460.194
1591 0 68.2079 13.0044 887 155.612 363.413 459.087
1592 0 69.1293 13.0769 904 160.217 363.44 459.299
1593 0 72.1191 12.9231 932 156.322 362.998 457.939
1594 0 74.1347 13.2327 981 157.7 362.767 456.636
1595 0 77.249 13.2041 1020 158.008 362.82 454.825
1596 0 78.2066 13.5283 1058 158.027 362.773 454.212
1597 0 82.1593 13.1817 1083 154.696 362.634 452.957
1598 0 84.168 13.5087 1137 161.449 362.243 450.845
1599 0 85.3621 13.308 1136 159.108 362.163 449.979
1600 0 86.1377 13.4784 1161 162.531 362.473 448.562
1601 0 90.2333 13.6424 1231 156.096 362.446 446.643
1602 0 94.2696 13.1431 1239 156.781 361.941 445.924
1603 0 97.338 13.787 1342 160.913 362.452 444.206
1604 0 99.3015 13.3633 1327 158.661 362.495 443.219
1605 0 102.506 13.5992 1394 165.466 362.798 441.648
1606 0 106.207 13.6055 1445 158.568 362.546 440.866
1607 0 110.359 13.6826 1510 163.666 362.045 436.161
1608 0 112.549 13.8784 1562 152.036 362.023 434.416
1609 1 61.3447 12.0956 742 157.284 361.864 457.482
1610 0 62.3368 13.2025 823 159.748 362.012 457.741
1611 0 67.3341 12.9503 872 158.437 362.554 456.901
1612 0 68.1869 12.6857 865 153.376 362.323 456.168
1613 0 71.1849 12.9803 924 155.518 362.317 455.466
1614 0 73.3096 13.0679 958 156.397 362.072 453.453
1615 0 76.3089 13.1046 1000 154.564 361.603 451.996
1616 0 80.3637 13.0905 1052 160.347 361.341 452.162
1617 0 82.246 12.6936 1044 157.848 361.118 450.511
1618 0 86.2661 13.0758 1128 155.332 361.175 448.895
1619 0 88.236 13.0219 1149 155.454 360.59 446.118
1620 0 89.2552 13.1981 1178 152.146 360.528 445.706
1621 0 94.308 13.3817 1262 155.212 360.71 444.381
1622 0 95.2255 13.4943 1285 158.065 359.865 442.11
1623 0 99.2284 13.3933 1329 157.124 360.184 440.843
1624 0 102.248 13.5455 1385 151.082 360.96 440.232
1625 0 106.247 13.5251 1437 155.779 360.939 439.516
1626 0 108.226 13.7028 1483 155.635 360.216 438.773
1627 0 112.163 13.2218 1483 158.319 359.987 436.924
1628 0 115.358 13.4711 1554 157.616 359.385 434.885
1629 0 119.207 13.3549 1592 148.778 359.867 432.124
1630 0 123.319 13.2988 1640 153.62 359.993 431.247
1631 0 127.404 13.4218 1710 158.48 359.649 430.86
1632 1 74.2467 11.2059 832 151.115 359.875 458.434
1633 0 76.2161 11.9266 909 159.583 360.109 456.653
1634 0 78.179 13.2644 1037 151.034 359.777 454.288
1635 0 82.2275 12.733 1047 150.023 360.487 452.512
1636 0 85.4177 12.714 1086 153.286 360.031 452.136
1637 0 87.1916 13.0288 1136 153.007 359.438 450.548
1638 0 90.205 13.1478 1186 157.378 359.777 449.129
1639 0 93.1318 13.1427 1224 153.551 359.047 447.566
1640 0 96.1331 12.982 1248 152.9 359.653 446.683
1641 0 98.2388 13.4774 1324 153.125 360.149 445.091
1642 0 102.168 13.1548 1344 157.936 360.828 444.055
1643 0 105.181 13.6907 1440 147.469 361.078 441.822
1644 0 109.234 13.4391 1468 157.309 361.079 440.436
1645 0 111.285 13.2812 1478 157.664 360.699 438.748
1646 0 116.259 13.4097 1559 162.663 360.597 437.004
1647 0 118.406 13.5888 1609 159.086 360.298 434.175
1648 0 122.415 13.8136 1691 162.449 360.678 430.956
1649 0 126.448 13.7527 1739 155.541 360.273 430.502
1650 0 131.373 13.4731 1770 165.394 360.931 429.802
1651 1 73.1218 12.3219 901 158.241 360.685 458.212
1652 0 74.2309 12.2591 910 158.905 360.499 456.569
1653 0 77.3085 12.5471 970 120.771 360.667 455.626
1654 0 80.4368 12.7429 1025 153.918 361.119 452.252
1655 0 82.2853 12.4931 1028 166.738 360.94 452.817
1656 0 84.249 12.7005 1070 161.779 360.88 450.995
1657 0 87.5605 12.9739 1136 152.591 361.513 448.636
1658 0 90.4448 12.6597 1145 155.479 361.53 447.748
1659 0 91.4503 12.6079 1153 166.546 361.438 446.361
1660 0 94.5449 12.8405 1214 166.591 361.25 445.035
1661 0 95.4455 13.4317 1282 165.239 361.201 444
1662 0 99.4665 12.8687 1280 165.536 361.295 442.316
1663 0 101.343 13.0349 1321 164.905 361.667 440.812
1664 0 104.315 13.2675 1384 163.553 361.957 438.881
1665 0 109.388 13.1733 1441 161.3 360.791 436.83
1666 0 110.27 13.2765 1464 158.182 361.686 436.329
1667 0 113.304 12.9386 1466 163.371 361.341 435.435
1668 0 116.493 15.0652 1755 156.037 362.095 430.084
1669 0 120.5 13.1702 1587 162.338 362.21 430.158
1670 0 125.67 13.5594 1704 162.857 362.616 428.202
1671 0 129.446 13.272 1718 163.873 362.105 426.368
1672 1 74.1741 11.4191 847 158.204 361.78 456.136
1673 0 77.145 11.5497 891 158.553 362.038 454.495
1674 0 79.1045 12.2875 972 151.895 361.972 454.141
1675 0 81.2011 12.1796 989 149.18 363.326 452.577
1676 0 82.2793 12.2145 1005 150.968 363.429 452.021
1677 0 85.1629 12.4467 1060 152.535 363.858 450.479
1678 0 87.2563 12.0908 1055 154.911 363.471 449.462
1679 0 91.2318 12.3422 1126 149.282 363.839 448.321
1680 0 94.3164 12.2036 1151 155.388 363.5 447.393
1681 0 97.2051 12.6845 1233 154.339 363.308 446.399
1682 0 100.304 12.3524 1239 157.906 363.449 444.593
1683 0 103.31 12.1866 1259 153.492 363.533 444.5
1684 0 105.148 11.7739 1238 153.645 363.683 442.877
1685 0 107.245 11.5902 1243 155.071 363.814 441.088
1686 0 111.278 12.2665 1365 156.36 363.273 438.566
1687 0 116.343 12.1366 1412 157.38 363.033 436.876
1688 1 65.0454 10.6695 694 146.687 362.406 462.762
1689 0 65.1433 11.6666 760 143.524 362.233 460.701
1690 0 68.1054 11.6878 796 138.922 361.862 460.182
1691 0 71.0574 11.3148 804 138.138 361.922 457.974
1692 0 73.0409 11.3635 830 141.264 361.539 457.357
1693 0 75.0419 11.4336 858 145.045 362.048 456.759
1694 0 78.0738 12.0399 940 131.661 362.249 453.657
1695 0 81.0474 11.8079 957 139.235 361.456 453.438
1696 0 83.0646 12.3278 1024 137.63 361.557 451.924
1697 0 86.08 12.1515 1046 140.549 361.211 451.384
1698 0 88.136 11.9928 1057 144.023 361.197 451.047
1699 0 91.1507 12.1228 1105 140 361.366 448.166
1700 0 94.0574 11.9501 1124 143.086 361.383 446.294
1701 0 97.23 12.2287 1189 133.533 361.748 444.214
1702 1 54.0755 9.80112 530 134.664 361.719 466.645
1703 0 55.0449 9.64666 531 138.693 361.972 465.529
1704 0 58.0805 10.2616 596 137.19 361.505 465.164
1705 0 59.0592 10.8027 638 134.47 360.987 464.263
1706 0 62.2229 11.716 729 142.272 361.517 461.509
1707 0 63.2901 12.1346 768 140.635 360.94 460.035
1708 0 64.12 12.0243 771 139.975 360.157 461.292
1709 0 67.0931 11.9386 801 140.498 359.296 461.775
1710 0 67.0408 11.9927 804 146.313 358.736 460.672
1711 0 68.035 12.376 842 140.77 359.037 460.798
1712 0 72.0904 12.1098 873 136.463 359.456 460.238
1713 0 72.0357 12.591 907 140.645 360.407 459.669
1714 0 76.0518 12.4389 946 137.188 360.253 458.155
1715 0 77.0652 12.457 960 142.751 360.126 457.812
1716 0 80.0815 12.8369 1028 140.91 359.584 455.927
1717 0 85.1493 14.7506 1256 126.433 360.667 452.131
1718 0 86.2005 13.1206 1131 135.4 360.896 452.461
1719 0 87.2283 13.2296 1154 139.713 360.304 452.261
1720 0 91.1256 13.026 1187 141.201 359.504 450.727
1721 0 92.1528 13.304 1226 142.104 360.528 451.557
1722 0 97.1779 12.9865 1262 137.194 360.525 449.539
1723 0 99.2047 13.0437 1294 142.271 359.73 447.6
1724 0 101.218 13.1103 1327 144.629 359.695 446.108
1725 1 56.1706 12.0526 677 147.03 359.374 468.449
1726 0 57.0784 12.7894 730 141.996 359.636 469.144
1727 0 59.0857 12.5242 740 147.884 359.301 467.481
1728 0 61.1834 12.8303 785 138.215 359.805 466.484
1729 0 63.0959 12.7267 803 146.212 359.938 466.189
1730 0 62.1141 13.1693 818 143.929 359.119 465.441
1731 0 66.0936 13.0119 860 144.298 358.874 465.035
1732 0 67.3094 12.97 873 147.825 359.821 463.828
1733 0 70.1459 13.2866 932 146.122 359.144 464.269
1734 0 70.068 13.2728 930 148.487 358.831 463.567
1735 0 73.2043 13.5921 995 152.24 358.604 461.496
1736 0 76.231 13.1443 1002 145.299 359.275 461.043
1737 0 78.3098 13.4338 1052 155.53 358.811 460.048
1738 0 79.5586 13.688 1089 154.21 359.251 454.595
1739 0 83.4836 13.4757 1125 156.879 359.656 454.901
1740 0 85.4772 13.9686 1194 158.259 359.736 449.8
1741 0 86.6131 13.8432 1199 154.207 359.103 450.59
1742 0 89.5516 13.9249 1247 159.575 358.334 449.493
1743 0 93.765 13.7258 1287 162.002 358.595 448.721
1744 0 94.5433 13.9619 1320 154.818 359.192 447.967
1745 0 99.5808 13.5568 1350 157.336 358.914 444.915
1746 1 54.2501 12.553 681 162.856 358.646 468.069
1747 0 56.3324 12.302 693 168.784 358.426 470.078
1748 0 58.096 12.9785 754 156.304 357.822 469.732
1749 0 59.1084 12.9931 768 155.401 358.04 468.482
1750 0 61.1072 13.4027 819 161.969 358.736 466.474
1751 0 62.2948 13.1953 822 154.176 358.285 466.968
1752 0 64.3792 13.5137 870 159.113 359.632 465.879
1753 0 64.3301 13.6328 877 157.568 359.799 463.487
1754 0 68.3713 13.6607 934 152.952 360.012 463.263
1755 0 69.2258 13.9543 966 150.622 359.169 462.065
1756 0 72.2719 14.0719 1017 151.259 359.418 460.593
1757 0 75.218 13.7467 1034 146.586 358.581 459.632
1758 0 78.391 13.7388 1077 145.003 358.513 458.232
1759 0 81.3723 13.5919 1106 149.13 359.769 456.219
1760 0 81.5189 14.2053 1158 151.682 360.781 455.21
1761 0 84.4352 13.9752 1180 148.411 360.248 453.992
1762 0 88.544 13.8123 1223 153.244 360.039 452.585
1763 0 92.4633 13.7352 1270 140.109 359.632 450.354
1764 0 94.4048 13.9823 1320 143.879 359.538 448.334
1765 0 97.565 14.0624 1372 150.877 359.662 447.687
1766 0 101.445 13.7118 1391 150.591 359.978 445.653
1767 0 105.434 13.8475 1460 144.575 360.066 443.834
1768 1 57.0967 12.7503 728 157.026 359.74 467.129
1769 0 59.0564 13.0892 773 148.621 359.986 466.577
1770 0 60.1028 13.1774 792 153.883 360.023 465.336
1771 0 63.0707 13.7148 865 149.497 359.993 464.114
1772 0 65.1588 13.7357 895 150.354 360.12 463.41
1773 0 65.1208 13.498 879 154.973 360.043 461.787
1774 0 68.1353 13.6933 933 152.487 360.305 461.617
1775 0 69.3012 13.8814 962 151.201 360.219 460.768
1776 0 72.2318 13.512 976 148.183 360.364 459.024
1777 0 74.2504 13.6296 1012 159.96 360.07 457.584
1778 0 77.2463 13.9295 1076 156.757 360.649 456.112
1779 0 80.3044 13.6979 1100 157.605 360.134 455.263
1780 0 82.3236 13.945 1148 158.045 360.15 453.411
1781 0 85.325 13.8412 1181 165.101 360.099 451.993
1782 0 86.217 14.0923 1215 154.745 360.491 449.61
1783 0 91.4535 14.2805 1306 158.574 360.507 446.344
1784 0 91.4184 14.1985 1298 161.529 361.521 447.5
1785 0 96.3451 13.9602 1345 158.297 361.806 446.413
1786 0 99.3966 13.6524 1357 163.66 361.656 445.709
1787 0 102.352 14.0203 1435 150.128 361.824 444.571
1788 0 104.158 14.0171 1460 160.658 361.94 443.029
1789 0 109.122 14.1677 1546 158.349 361.149 440.704
1790 1 58.0497 12.6099 732 159.478 361.007 464.977
1791 0 61.1282 12.9073 789 155.97 361.511 463.493
1792 0 63.1046 12.5347 791 152.963 361.265 462.843
1793 0 66.0445 12.5067 826 153.512 360.741 461.416
1794 0 68.0932 12.7766 870 152.972 361.037 460.463
1795 0 71.0638 12.2847 873 153.417 360.452 460.651
1796 0 72.1199 13.228 954 148.193 360.867 458.15
1797 0 75.1693 12.4519 936 144.774 360.514 457.147
1798 0 75.2507 13.2889 1000 159.334 361.19 456.438
1799 0 79.1844 12.7803 1012 155.935 361.065 454.994
1800 0 81.1241 12.9431 1050 147.665 361.319 453.69
1801 0 85.2067 12.8511 1095 151.58 361.277 452.858
1802 0 87.2319 12.9654 1131 150.347 360.668 450.668
1803 0 89.2222 13.0125 1161 153.502 361.185 450.38
1804 0 93.3214 12.9552 1209 143.888 360.999 448.774
1805 0 95.3576 12.9408 1234 150.01 360.434 446.272
1806 0 99.2153 12.8105 1271 145.206 359.638 445.461
1807 0 101.164 12.9295 1308 156.517 360.385 443.307
1808 1 57.0894 10.8251 618 151.091 359.715 466.628
1809 0 59.1175 11.4687 678 145.215 360.066 465.889
1810 0 60.0368 11.9926 720 147.871 359.794 465.531
1811 0 62.17 12.3532 768 146.592 360.501 465.124
1812 0 65.1292 12.1144 789 146.75 360.223 464.826
1813 0 65.1115 11.7644 766 149.886 360.309 463.349
1814 0 67.2371 12.151 817 144.993 360.39 461.962
1815 0 70.1403 11.9047 835 141.35 360.705 460.315
1816 0 73.1402 12.3051 900 140.749 361.476 459.732
1817 0 75.2296 12.1229 912 146.529 360.954 458.911
1818 0 75.1828 12.3698 930 144.391 360.027 456.868
1819 0 80.2883 12.5298 1006 139.583 359.599 455.314
1820 0 81.2961 12.3622 1005 145.143 359.509 455.365
1821 0 85.214 11.7938 1005 139.547 358.613 452.918
1822 0 88.2541 12.4187 1096 138.742 359.187 450.782
1823 0 89.2334 12.1255 1082 135.481 359.56 449.896
1824 0 93.3641 12.6601 1182 137.64 358.871 447.621
1825 0 96.223 12.5854 1211 138.827 357.9 446.087
1826 0 100.27 12.586 1262 143.72 357.881 445.013
1827 0 102.281 12.5829 1287 142.061 358.781 444.411
1828 0 105.317 12.581 1325 140.269 358.916 443.145
1829 1 59.1246 9.92819 587 129.605 358.382 466.925
1830 0 60.0767 10.4533 628 139.669 357.58 467.839
1831 0 64.1112 10.9653 703 138.003 358.236 466.498
1832 0 66.0614 11.4742 758 135.921 357.885 464.805
1833 0 69.1124 11.7779 814 137.813 357.873 463.269
1834 0 71.1552 11.496 818 139.935 357.628 462.749
1835 0 72.0948 12.0258 867 137.491 358.072 462.503
1836 0 76.1535 11.7526 895 138.063 358.707 460.397
1837 0 77.2058 12.2659 947 139.264 357.01 459.348
1838 0 81.1285 11.9933 973 140.955 357.388 458.062
1839 0 81.2006 11.9827 973 143.609 356.547 457.196
1840 0 83.3093 12.2795 1023 145.496 356.683 455.051
1841 0 85.2554 12.2573 1045 141.215 357.601 454.612
1842 0 91.3366 12.1747 1112 141.892 356.849 453.435
1843 0 92.374 12.0488 1113 141.591 357.434 452.103
1844 1 52.1834 10.3481 540 143.291 357.385 473.348
1845 0 54.1032 10.2397 554 132.57 357.209 471.829
1846 0 54.1124 11.5685 626 24.3498 357.511 471.486
1847 0 56.1663 11.4659 644 143.149 356.47 471.736
1848 0 58.1381 11.5759 673 137.993 357.339 471.076
1849 0 59.2168 11.6859 692 136.314 356.981 470.734
1850 0 61.2867 11.6665 715 141.338 356.515 470.25
1851 0 63.0609 11.9567 754 142.678 356.887 467.512
1852 0 64.1717 12.077 775 141.685 356.417 466.538
1853 0 65.1549 12.2324 797 146.305 356.556 466.415
1854 0 69.1183 12.0663 834 141.912 356.01 465.384
1855 0 71.1323 12.3572 879 140.951 356.84 465.412
1856 0 73.3314 11.8367 868 141.554 356.488 463.738
1857 0 76.1834 12.4043 945 140.375 356.268 461.781
1858 0 78.2429 12.6401 989 141.363 356.142 460.548
1859 0 79.4488 12.4357 988 147.525 356.622 459.285
1860 0 83.2572 12.5034 1041 146.9 357.093 457.215
1861 0 86.4024 12.8584 1111 139.662 356.536 453.85
1862 0 90.4514 12.4266 1124 143.246 356.946 454.316
1863 0 94.329 12.8168 1209 142.557 357.817 452.112
1864 0 97.4948 12.3904 1208 142.602 357.294 449.682
1865 1 52.2339 11.0082 575 146.767 356.29 471.405
1866 0 54.2764 10.6861 580 145.35 356.502 469.907
1867 0 56.3046 11.7042 659 142.411 357.372 468.187
1868 0 59.275 11.2864 669 132.505 357.375 467.143
1869 0 61.392 12.184 748 141.091 356.723 467.032
1870 0 60.2086 12.4733 751 145.858 356.555 466.935
1871 0 61.1654 12.4417 761 142.506 356.954 466.127
1872 0 65.202 12.7603 832 143.609 357.064 464.514
1873 0 66.0999 12.0726 798 140.471 356.791 463.871
1874 0 66.1158 12.5689 831 143.803 356.876 463.58
1875 0 69.1106 12.603 871 142.377 356.808 461.177
1876 0 74.0705 12.6771 939 139.017 356.934 458.659
1877 0 74.0948 12.6595 938 142.722 357.604 459.486
1878 0 78.0852 12.6656 989 141.234 357.668 458.229
1879 0 81.3319 13.0945 1065 139.468 358.064 454.084
1880 0 84.1205 13.1003 1102 142.639 358.652 456.359
1881 0 87.353 13.2222 1155 142.235 358.943 455.029
1882 0 89.2655 13.3982 1196 141.15 358.737 453.703
1883 0 91.2745 13.3663 1220 140.852 359.087 450.866
1884 0 93.3231 13.6194 1271 134.662 358.155 451.395
1885 0 98.2875 14.2745 1403 138.09 358.974 447.622
1886 0 101.427 13.2016 1339 145.237 359.718 447.855
1887 0 103.433 13.4289 1389 136.891 360.992 445.059
1888 0 110.203 15.6983 1730 124.773 360.812 440.574
1889 0 110.321 13.7962 1522 137.409 360.798 442.566
1890 0 113.256 13.933 1578 142.569 360.724 441.121
1891 0 114.329 13.881 1587 141.318 361.02 440.498
1892 0 119.401 13.7185 1638 135.816 361.592 437.793
1893 1 64.2206 12.2235 785 143.654 361.029 464.096
1894 0 68.1429 12.6646 863 143.732 361.778 463.082
1895 0 69.0714 13.1458 908 144.747 361.856 462.705
1896 0 71.1143 13.2744 944 147.381 361.863 461.247
1897 0 74.2153 13.5417 1005 143.606 361.31 455.04
1898 0 77.2674 13.4209 1037 143.757 362.344 458.037
1899 0 77.302 13.6866 1058 147.752 361.521 456.557
1900 0 81.1507 13.6783 1110 148.053 361 455.583
1901 0 83.2389 13.7436 1144 147.022 361.298 453.722
1902 0 87.3959 13.6505 1193 147.613 361.22 453.282
1903 0 88.1846 13.846 1221 149.306 361.097 451.927
1904 0 92.1796 14.0812 1298 146.484 360.668 449.637
1905 0 93.2416 14.1353 1318 148.241 360.538 448.365
1906 0 99.1387 13.8392 1372 144.47 360.366 447.101
1907 0 102.324 14.1804 1451 142.594 360.919 444.724
1908 0 103.19 13.9839 1443 142.222 360.426 444.553
1909 0 106.344 14.2369 1514 142.05 360.698 443.057
1910 0 109.391 13.6666 1495 139.408 360.277 442.202
1911 0 114.224 15.7936 1804 135.525 360.646 437.449
1912 1 60.1767 13.0782 787 149.365 360.667 463.606
1913 0 62.1916 13.3298 829 139.772 360.485 461.791
1914 0 64.0787 13.7643 882 143.603 361.149 461.049
1915 0 67.0796 13.6256 914 141.412 360.344 460.024
1916 0 70.0923 13.9102 975 138.417 360.323 458.493
1917 0 72.1288 13.8502 999 133.692 359.419 457.445
1918 0 76.1053 13.5996 1035 132.573 361.368 456.212
1919 0 76.1083 13.8487 1054 140.532 360.3 455.333
1920 0 79.2053 13.7491 1089 136.199 359.612 454.209
1921 0 81.1215 14.2872 1159 138.927 360.041 453.137
1922 0 84.1185 14.3726 1209 137.476 359.988 452.028
1923 0 86.1409 14.0235 1208 140.805 358.618 450.559
1924 0 90.1668 13.9519 1258 137.169 358.461 448.865
1925 0 92.0685 13.8701 1277 144.835 358.487 448.323
1926 0 95.1266 14.3493 1365 141.557 357.919 445.648
1927 0 96.1324 14.6257 1406 145.826 358.787 445.962
1928 0 100.146 14.7385 1476 143.873 359.11 444.001
1929 0 103.348 14.5625 1505 144.795 359.631 442.791
1930 0 106.212 14.1886 1507 146.101 357.916 441.608
1931 0 111.444 14.5544 1622 60.8083 358.221 440.347
1932 0 118.327 16.2516 1923 132.136 358.144 435.205
1933 0 121.255 13.9129 1687 154.408 359.504 435.813
1934 0 125.324 14.5463 1823 148.021 359.398 434.805
1935 1 68.2772 12.9765 886 153.219 359.209 462.713
1936 0 70.2293 13.6553 959 157.832 358.749 460.17
1937 0 73.2166 13.5625 993 162.391 358.896 459.696
1938 0 75.3699 13.7986 1040 161.332 357.388 458.758
1939 0 78.3058 13.7027 1073 163.991 357.086 457.072
1940 0 80.2938 13.6748 1098 162.019 356.844 457.058
1941 0 83.3215 13.6699 1139 158.354 357.95 455.922
1942 0 85.2706 14.0025 1194 161.477 357.643 453.419
1943 0 88.3185 13.7231 1212 162.896 357.63 451.878
1944 0 89.288 13.966 1247 164.229 358.007 451.276
1945 0 94.2568 14.0679 1326 163.2 357.989 449.702
1946 0 97.2125 13.7945 1341 160.699 357.421 447.233
1947 0 100.294 14.0786 1412 159.237 356.768 445.72
1948 0 104.164 13.9396 1452 163.706 356.559 445.008
1949 0 106.29 14.0841 1497 165.784 356.001 444.216
1950 0 111.192 13.6521 1518 162.873 357.256 442.181
1951 0 113.328 13.9859 1585 165.781 356.9 439.108
1952 1 61.0575 12.4473 760 161.522 357.597 465.526
1953 0 64.086 12.5144 802 153.263 357.488 464.633
1954 0 65.0702 12.9245 841 153.102 356.78 464.2
1955 0 70.0911 12.3554 866 159.291 357.04 465.117
1956 0 71.0977 12.9681 922 157.948 357.57 462.89
1957 0 74.0885 13.0924 970 155.338 356.978 462.202
1958 0 75.0916 12.9708 974 156.704 357.553 461.068
1959 0 77.1624 13.1411 1014 153.879 357.372 460.64
1960 0 80.1104 13.1194 1051 154.881 357.213 458.927
1961 0 84.0598 13.1692 1107 153.238 358.129 458.085
1962 0 87.1588 13.3779 1166 148.619 358.414 456.311
1963 0 87.055 13.279 1156 151.136 358.968 454.447
1964 0 91.2061 12.872 1174 149.156 359.143 451.684
1965 0 92.19 13.3095 1227 155.387 357.676 451.234
1966 0 97.151 13.1548 1278 152.039 357.194 448.969
1967 0 101.141 13.0906 1324 155.916 358.635 447.245
1968 0 103.213 12.9151 1333 155.162 357.717 446.102
1969 0 103.213 12.9151 1333 156.848 355.717 446.102
1970 1 57.2856 11.1372 638 153.246 357.967 466.232
1971 0 60.1268 11.1265 669 149.892 358.018 466.744
1972 0 61.1942 12.1253 742 144.811 357.922 464.747
1973 0 63.1857 12.2338 773 142.746 356.257 464.899
1974 0 66.2443 12.3482 818 149.729 356.727 464.533
1975 0 68.2408 11.8697 810 147.335 356.935 463.072
1976 0 70.3557 11.9109 838 141.447 356.695 461.032
1977 0 72.2308 12.2247 883 140.103 357.721 459.495
1978 0 74.1814 12.4694 925 142.748 357.961 459.053
1979 0 76.2664 12.0105 916 145.26 357.67 458.44
1980 0 78.2427 12.3845 969 148.469 358.039 456.599
1981 0 82.2409 12.9133 1062 147.931 358.228 454.196
1982 0 84.306 12.7274 1073 150.81 357.424 453.106
1983 0 86.2459 12.8238 1106 149.418 357.532 452.524
1984 0 89.2792 12.7689 1140 146.633 358.374 450.495
1985 0 93.4185 12.9203 1207 149.242 359.005 448.963
1986 0 96.3407 12.3831 1193 147.557 358.709 447.027
1987 0 98.5552 13.0282 1284 146.897 358.615 444.305
1988 0 101.521 13.1796 1338 152.411 359.729 443.641
1989 0 104.38 13.1443 1372 152.802 360.493 441.915
1990 0 107.509 12.678 1363 155.765 360.366 440.06
1991 0 111.35 13.2016 1470 153.343 360.765 438.635
1992 1 61.3481 11.3125 694 156.758 361.036 464.984
1993 0 63.4782 11.8939 755 156.84 360.207 465.075
1994 0 65.1872 12.5024 815 154.978 360.14 464.596
1995 0 69.1505 12.7259 880 157.839 360.391 461.815
1996 0 70.2061 12.6912 891 159.441 360.966 461.512
1997 0 72.2323 12.8751 930 156.91 360.678 460.02
1998 0 76.2292 12.4493 949 166.565 360.564 459.919
1999 0 77.0313 12.7611 983 162.339 360.409 457.893
2000 0 79.1328 12.8771 1019 163.779 360.473 456.803
2001 0 82.103 12.9593 1064 160.183 360.671 455.491
2002 0 86.0757 12.733 1096 155.6 360.693 453.258
2003 0 87.2932 13.0709 1141 166.979 361.227 453.459
2004 0 92.2652 14.9027 1375 151.765 360.412 448.081
2005 0 91.2237 13.297 1213 158.144 359.68 447.962
2006 0 95.3693 13.0231 1242 161.76 359.485 447.192
2007 0 97.3765 13.1449 1280 165.076 359.675 444.939
2008 0 100.548 12.9292 1300 159.278 359.371 443.892
2009 0 104.407 13.3037 1389 165.143 359.549 442.249
2010 0 106.483 13.3449 1421 161.327 359.683 440.066
2011 0 109.433 13.6156 1490 158.083 360.054 439.51
2012 0 113.516 13.5663 1540 155.795 359.864 437.255
2013 0 116.465 13.4118 1562 157.781 359.433 436.172
2014 0 120.394 13.5306 1629 158.551 359.282 434.056
2015 1 65.2215 11.3766 742 161.274 359.611 461.612
2016 0 67.1383 11.9753 804 151.624 359.422 460.877
2017 0 70.129 11.9351 837 155.272 360.381 458.828
2018 0 71.33 12.323 879 154.821 360.222 458.071
2019 0 73.1816 12.4211 909 153.876 358.979 456.279
2020 0 75.3018 12.6026 949 109.82 358.453 455.124
2021 0 77.2815 12.655 978 150.536 358.835 453.528
2022 0 81.5003 12.8589 1048 157.22 359.131 451.761
2023 0 82.4941 13.31 1098 150.679 359.015 449.394
2024 0 86.4217 12.844 1110 154.165 358.549 448.832
2025 0 87.4201 13.132 1148 156.513 358.507 447.382
2026 0 90.4942 13.2495 1199 155.771 357.969 446.749
2027 0 94.5459 13.1259 1241 155.782 359.464 444.792
2028 0 97.4486 13.0428 1271 153.13 359.029 444.002
2029 0 101.515 13.6137 1382 162.319 358.91 442.289
2030 0 103.402 13.5297 1399 164.441 357.832 440.994
2031 0 105.482 13.8602 1462 162.01 358.493 440.115
2032 0 108.267 13.6977 1483 166.676 358.085 439.985
2033 0 110.321 13.6601 1507 158.543 358.026 436.47
2034 0 114.363 13.7545 1573 164.224 358.444 435.418
2035 0 115.408 13.8639 1600 160.202 358.353 432.97
2036 0 118.223 14.1004 1667 158.334 358.293 431.118
2037 1 68.2491 11.8243 807 158.963 356.831 463.602
2038 0 71.102 12.0109 854 145.238 357.55 462.376
2039 0 74.1189 12.7093 942 153.689 357.263 460.177
2040 0 76.1818 12.7983 975 164.144 357.555 458.724
2041 0 79.2599 12.7177 1008 154.886 357.514 457.16
2042 0 80.2325 12.6757 1017 164.148 357.192 457.027
2043 0 81.2117 12.806 1040 156.013 356.912 455.539
2044 0 86.267 12.5193 1080 153.339 357.602 454.839
2045 0 90.1969 12.6168 1138 155.779 358.417 453.479
2046 0 93.4856 13.2748 1241 160.416 358.052 450.491
2047 0 94.2147 13.0128 1226 157.547 357.637 449.598
2048 0 96.2942 12.8357 1236 153.222 357.714 448.344
2049 0 100.276 13.383 1342 157.681 357.621 446.072
2050 0 103.481 13.1811 1364 165.349 357.859 445.801
2051 0 106.39 12.9335 1376 158.581 358.461 443.184
2052 0 109.343 12.9684 1418 156.675 358.353 442.796
2053 1 62.4749 11.9728 748 161.817 358.271 465.493
2054 0 63.3653 12.4674 790 157.416 357.632 459.335
2055 0 66.1481 12.2604 811 159.834 357.223 461.857
2056 0 66.1045 12.7677 844 157.459 356.88 461.726
2057 0 68.1737 12.8935 879 158.478 356.436 460.144
2058 0 70.1178 12.9354 907 151.509 356.178 458.87
2059 0 73.0918 12.7511 932 159.841 356.295 458.603
2060 0 74.2081 13.3813 993 154.806 356.778 457.165
2061 0 78.1776 13.1623 1029 155.753 357.203 455.851
2062 0 80.3093 12.8752 1034 162.998 357.291 454.233
2063 0 83.2543 13.2005 1099 158.133 357.407 452.906
2064 0 87.7561 13.1159 1151 151.134 357.696 452.165
2065 0 89.4793 13.3997 1199 150.639 358.042 450.761
2066 0 91.4029 13.993 1279 153.493 357.515 449.82
2067 0 94.6666 13.4683 1275 156.07 356.903 448.587
2068 0 96.3871 14.0994 1359 143.586 357.631 446.13
2069 0 99.7445 14.096 1406 156.149 358.216 443.688
2070 0 104.621 13.8214 1446 154.49 357.568 441.805
2071 0 107.489 13.7595 1479 148.324 357.576 441.284
2072 0 109.551 14.0574 1540 152.77 359.195 441.739
2073 0 112.598 13.6503 1537 156.666 357.825 439.967
2074 0 115.528 13.7542 1589 160.269 358.106 437.05
2075 0 117.615 13.5442 1593 161.504 358.805 435.079
2076 0 121.667 13.8575 1686 160.216 359.009 433.075
2077 0 125.854 13.9288 1753 157.908 359.213 431.284
2078 0 130.606 13.6671 1785 160.834 358.68 429.892
2079 1 72.834 12.4942 910 158.252 358.61 459.392
2080 0 75.4355 12.6863 957 156.435 359.469 457.414
2081 0 76.6307 12.9452 992 158.25 359.482 456.562
2082 0 80.6511 12.6843 1023 149.192 359.681 455.464
2083 0 82.4439 12.6874 1046 155.701 359.621 454.103
2084 0 83.5726 13.1981 1103 156.423 359.13 451.706
2085 0 86.3111 12.93 1116 153.412 359.666 450.835
2086 0 90.3643 13.346 1206 151.941 360.258 449.103
2087 0 94.367 13.1084 1237 155.409 360.534 447.565
2088 0 96.4252 13.1294 1266 155.209 360.605 445.72
2089 0 101.467 12.9697 1316 154.002 360.955 444.413
2090 0 104.369 13.0881 1366 150.439 360.761 442.575
2091 0 107.318 13.1851 1415 151.545 360.067 441.092
2092 0 107.318 13.1851 1415 160.807 358.067 441.092
2093 0 115.434 13.185 1522 154.311 361.064 437.844
2094 0 120.68 14.9072 1799 150.203 360.012 432.154
2095 0 121.292 13.3315 1617 152.736 359.881 432.704
2096 0 124.437 13.2597 1650 154.211 359.596 431.499
2097 1 72.1763 11.555 834 148.371 359.916 458.257
2098 0 75.1504 11.9227 896 148.349 360.417 457.048
2099 0 79.1571 12.9742 1027 144.819 361.299 451.07
2100 0 81.1931 12.8336 1042 149.079 360.33 454.184
2101 0 85.2226 12.8722 1097 150.606 360.068 451.09
2102 0 85.2671 12.6544 1079 150.221 360.057 449.829
2103 0 91.1916 12.863 1173 146.285 360.935 448.175
2104 0 94.2272 13.0748 1232 151.179 360.916 446.775
2105 0 97.3184 13.1116 1276 152.88 361.462 444.618
2106 0 98.3632 13.074 1286 150.747 361.983 442.731
2107 0 104.242 13.0753 1363 143.742 361.711 439.985
2108 0 104.167 13.3536 1391 145.457 361.657 436.812
2109 0 108.226 13.1391 1422 152.344 361.338 436.778
2110 0 112.367 13.2335 1487 146.143 361.472 433.549
2111 0 115.308 13.078 1508 152.582 361.509 432.41
2112 0 117.398 13.4329 1577 144.839 361.803 430.164
2113 0 122.343 14.4267 1765 137.684 362.113 426.005
2114 0 127.349 13.4041 1707 152.616 362.796 427.088
2115 0 130.427 13.1414 1714 150.018 362.685 426.2
2116 0 131.347 13.6204 1789 154.587 363.684 426.21
2117 0 137.332 13.2963 1826 152.981 362.308 424.496
2118 0 143.336 13.2067 1893 153.547 362.742 422.081
2119 0 146.216 13.2954 1944 159.937 362.477 416.516
2120 0 152.425 13.1475 2004 152.404 362.259 414.752
2121 0 158.31 13.284 2103 150.308 361.975 411.391
2122 1 91.148 11.8598 1081 146.499 362.242 443.853
2123 0 95.2414 12.5366 1194 141.08 361.8 441.537
2124 0 98.0626 12.0433 1181 141.916 362.732 439.717
2125 0 101.125 12.529 1267 139.797 362.394 438.107
2126 0 103.268 12.3369 1274 143.438 362.417 436.186
2127 0 108.282 12.292 1331 132.499 362.089 434.95
2128 0 110.272 12.8228 1414 133.102 362.232 433.207
2129 0 116.308 13.3954 1558 133.125 361.679 429.863
2130 0 118.229 12.9748 1534 131.528 361.832 431.604
2131 0 122.137 13.1737 1609 137.751 361.874 431.155
2132 0 125.134 13.098 1639 135.688 362.25 428.43
2133 0 129.328 13.0831 1692 139.228 362.788 426.934
2134 1 74.1138 12.1975 904 139.816 363.041 454.524
2135 0 77.205 12.2531 946 132.159 362.248 454.645
2136 0 77.1014 12.5549 968 131.472 362.586 454.988
2137 0 81.0294 12.4152 1006 131.971 362.303 453.251
2138 0 83.0706 12.5315 1041 132.377 361.666 451.329
2139 0 85.0553 12.7564 1085 131.123 362.27 450.356
2140 0 88.2649 13.1423 1160 132.322 361.036 448.624
2141 0 91.1893 14.4425 1317 123.074 360.945 446.15
2142 0 94.2146 13.1402 1238 133.361 360.414 445.956
2143 0 95.0941 13.4393 1278 126.66 360.376 444.786
2144 0 99.089 13.0892 1297 130.678 360.513 444.502
2145 0 101.157 13.7608 1392 128.652 361.679 441.742
2146 0 103.216 13.3797 1381 128.411 362.204 441.773
2147 0 108.101 13.0803 1414 126.51 361.985 441.033
2148 0 109.14 13.4506 1468 134.939 361.47 438.814
2149 0 113.149 13.6016 1539 129.885 361.569 436.895
2150 0 118.38 13.5073 1599 133.593 360.72 430.163
2151 0 119.232 13.7966 1645 128.612 360.437 433.69
2152 0 123.207 13.5138 1665 135.521 360.865 432.903
2153 0 125.255 13.6841 1714 136.54 360.228 431.366
2154 0 129.254 13.6862 1769 138.479 359.862 428.209
2155 0 133.493 13.5438 1808 133.857 359.532 426.26
2156 0 138.389 13.5777 1879 131.862 359.91 424.806
2157 0 142.235 13.4777 1917 136.48 359.889 421.577
2158 0 147.429 13.7829 2032 133.814 359.843 419.55
2159 0 152.418 13.522 2061 134.131 360.764 417.363
2160 1 89.2175 11.5112 1027 132.263 359.69 449.723
2161 0 92.0366 12.2451 1127 128.8 361.401 450.889
2162 0 94.1039 12.4331 1170 134.33 361.056 449.385
2163 0 97.2146 12.7244 1237 127.51 360.461 447.386
2164 0 100.35 12.4663 1251 132.423 360.552 446.703
2165 0 103.16 12.5436 1294 135.42 360.333 445.565
2166 0 107.32 12.6723 1360 124.712 360.444 443.647
2167 0 109.242 12.486 1364 132.504 360.149 442.185
2168 0 111.128 12.6971 1411 128.694 360.888 440.466
2169 0 115.28 13.0118 1500 125.935 360.485 437.41
2170 0 118.244 12.6687 1498 126.629 361.012 435.883
2171 0 122.214 12.8299 1568 129.645 360.812 435.224
2172 0 123.262 13.4673 1660 129.561 360.902 433.102
2173 0 128.191 13.0976 1679 130.616 360.225 432.555
2174 0 130.142 13.0934 1704 126.043 359.585 430.768
2175 0 135.197 12.9958 1757 128.572 360.217 428.377
2176 0 140.51 13.024 1830 128.475 359.608 425.825
2177 1 83.2997 10.8284 902 123.732 359.713 454.186
2178 0 86.3288 11.294 975 120.071 360.13 454.074
2179 0 89.2835 12.1187 1082 116.183 360.869 451.886
2180 0 91.2962 12.0925 1104 95.0471 359.543 449.737
2181 0 93.2724 12.2544 1143 118.283 358.896 450.855
2182 0 97.2254 12.0545 1172 118.406 358.392 449.417
2183 0 99.2855 12.4792 1239 115.917 358.314 447.901
2184 0 103.283 12.1705 1257 116.7 358.274 445.619
2185 0 104.28 12.3801 1291 116.627 359.27 443.968
2186 0 107.495 12.4657 1340 119.567 359.648 442.135
2187 0 112.482 12.4642 1402 114.712 359.373 440.715
2188 0 115.439 12.3961 1431 113.656 359.043 438.874
2189 0 120.544 12.4353 1499 114.877 359.094 437.848
2190 1 70.6171 10.918 771 111.134 359.756 461.907
2191 0 71.652 11.4861 823 115.283 359.835 458.301
2192 0 72.514 12.2597 889 116.865 358.888 456.949
2193 0 73.2149 11.7599 861 111.883 359.566 458.225
2194 0 77.2746 11.4785 887 109.275 360.114 456.931
2195 0 80.3874 12.1288 975 108.301 359.985 456.423
2196 0 82.4926 12.0617 995 112.862 358.869 454.674
2197 0 83.3689 12.4747 1040 111.482 359.155 453.554
2198 0 86.5811 12.4623 1079 115.597 359.056 449.395
2199 0 87.6142 12.7377 1116 113.208 359.475 449.402
2200 0 90.8501 12.5591 1141 110.899 359.592 446.386
2201 0 93.7658 12.5099 1173 113.752 357.681 444.984
2202 0 95.6114 12.8123 1225 111.744 358.767 443.95
2203 0 98.5636 12.7532 1257 113.418 358.516 443.308
2204 0 101.628 12.6639 1287 116.611 358.66 441.979
2205 0 105.626 13.3679 1412 115.916 358.572 439.413
2206 0 107.473 12.7381 1369 116.791 358.633 439.137
2207 0 109.668 12.164 1334 113.743 358.954 438.942
2208 0 112.583 13.1725 1483 117.681 358.771 437.024
2209 0 115.425 13.0041 1501 112.932 358.906 435.622
2210 0 121.55 14.2 1726 111.078 360.544 429.421
2211 0 122.497 13.2003 1617 119.301 360.83 430.195
2212 0 126.647 13.3284 1688 117.717 360.685 427.786
2213 0 127.853 13.1479 1681 122.027 361.38 427.384
2214 0 133.431 13.2353 1766 118.24 361.459 425.138
2215 0 139.604 13.1014 1829 118.247 361.365 423.602
2216 0 142.577 13.263 1891 116.686 361.461 420.355
2217 1 81.4443 11.9345 972 117.462 361.479 453.404
2218 0 86.5608 12.3266 1067 116.362 361.634 449.929
2219 0 87.4079 12.8936 1127 117.807 361.179 446.657
2220 0 90.4923 13.0729 1183 118.966 361.451 445.14
2221 0 91.3896 12.682 1159 117.192 361.886 444.725
2222 0 94.5286 12.684 1199 117.359 362.419 442.141
2223 0 96.5214 13.0023 1255 116.429 362.653 441.741
2224 0 102.485 12.7531 1307 116.941 362.533 439.943
2225 0 105.401 12.9505 1365 113.473 362.637 439.895
2226 0 107.568 13.043 1403 114.893 362.626 439.674
2227 0 112.397 12.3757 1391 119.4 363.765 439.316
2228 0 114.51 13.2128 1513 114.595 363.519 434.731
2229 0 117.553 13.143 1545 113.181 363.495 434.761
2230 0 122.46 14.3394 1756 111.523 363.097 428.897
2231 0 124.382 13.346 1660 111.995 362.975 430.01
2232 0 126.332 13.2508 1674 118.849 362.963 427.258
2233 0 132.422 13.1172 1737 114.531 362.748 426.99
2234 0 135.334 12.9384 1751 117.397 363.433 425.226
2235 1 76.135 11.125 847 110.243 364.472 455.477
2236 0 77.0946 12.2317 943 110.698 364.399 454.367
2237 0 82.2501 12.5957 1036 108.712 363.318 453.708
2238 0 83.1648 12.361 1028 107.474 362.943 453.149
2239 0 86.2817 12.6794 1094 107.788 363.122 451.662
2240 0 87.1401 13.1053 1142 110.182 363.309 449.723
2241 0 91.2007 12.8727 1174 109.448 362.687 448.056
2242 0 94.1154 12.8566 1210 106.144 363.563 447.017
2243 0 95.2794 12.8464 1224 102.23 363.31 446.838
2244 0 99.2342 12.7678 1267 109.23 363.132 445.384
2245 0 103.231 12.8644 1328 111.937 362.686 443.079
2246 0 106.326 12.8755 1369 107.947 362.259 442.161
2247 0 109.278 12.9395 1414 110.394 362.929 440.008
2248 0 111.442 13.2086 1472 107.385 362.535 438.815
2249 0 115.495 12.9876 1500 112.345 361.863 437.403
2250 0 120.395 13.7215 1652 106.191 361.5 433.013
2251 0 120.315 13.3899 1611 112.183 361.184 432.441
2252 0 125.349 13.4584 1687 110.977 361.793 430.352
2253 0 127.607 13.5964 1735 109.783 362.013 427.49
2254 0 133.355 13.5653 1809 110.663 361.855 424.243
2255 0 138.405 13.9518 1931 103.949 361.77 422.772
2256 1 74.2344 12.1776 904 108.002 362.389 454.814
2257 0 78.3501 12.6356 990 108.023 362.558 454.334
2258 0 80.3897 12.8997 1037 107.411 362.437 453.505
2259 0 80.2917 13.2641 1065 108.609 361.393 451.896
2260 0 85.2794 13.0278 1111 104.652 361.892 450.932
2261 0 86.2664 13.3424 1151 109.288 362.189 448.267
2262 0 90.2974 13.0569 1179 107.773 361.174 447.88
2263 0 92.2551 13.4952 1245 106.659 361.139 445.871
2264 0 93.3231 13.4158 1252 106.482 360.905 445.462
2265 0 97.2903 13.434 1307 106.969 361.308 444.748
2266 0 99.265 13.7007 1360 108.454 360.492 443.965
2267 0 102.359 13.5796 1390 108.822 360.337 441.657
2268 0 105.688 13.748 1453 109.69 361.315 440.65
2269 0 106.303 13.8096 1468 111.385 361.051 439.173
2270 0 111.445 13.63 1519 114.059 359.879 436.875
2271 0 116.383 15.6639 1823 125.097 359.84 431.612
2272 0 118.572 13.6541 1619 132.389 360.561 432.41
2273 0 120.273 13.8351 1664 142.374 359.859 431.309
2274 0 124.265 13.9138 1729 140.101 359.968 428.923
2275 0 128.322 13.809 1772 131.719 359.259 426.9
2276 0 133.5 13.6105 1817 137.507 359.309 424.808
2277 0 136.277 13.7735 1877 137.172 358.458 421.951
2278 0 141.541 13.671 1935 140.199 358.941 419.349
2279 0 151.612 16.9313 2567 121.1 359.196 411.381
2280 1 85.0981 12.6442 1076 127.954 358.479 447.698
2281 0 90.3369 13.1065 1184 130.33 359.529 450.247
2282 0 90.1745 12.8529 1159 131.947 359.736 450.025
2283 0 94.4048 13.0714 1234 131.571 359.467 447.942
2284 0 98.3502 12.4758 1227 134.989 359.298 445.488
2285 0 100.239 13.1686 1320 132.063 359.49 444.435
2286 0 103.387 12.9996 1344 132.871 359.843 441.815
2287 0 107.408 13.053 1402 134.511 360.138 441.141
2288 0 110.374 13.1009 1446 133.041 360.353 438.568
2289 0 112.356 13.1546 1478 121.915 360.274 438.167
2290 0 115.264 13.1958 1521 133.149 359.954 436.471
2291 0 119.364 13.4714 1608 131.098 360.197 434.305
2292 0 122.629 13.1698 1615 130.492 359.74 430.238
2293 0 125.628 13.4286 1687 134.253 359.516 429.154
2294 0 129.557 13.4381 1741 136.026 360.45 428.06
2295 0 133.616 13.1646 1759 126.234 360.134 426.484
2296 1 75.2383 11.8291 890 127.769 360.784 456.891
2297 0 78.457 12.1468 953 126.356 360.726 453.925
2298 0 81.2691 12.0833 982 133.08 361.262 452.448
2299 0 83.3329 11.9881 999 133.021 360.968 451.556
2300 0 90.5639 12.7093 1151 127.907 360.632 446.684
2301 0 91.5516 12.4629 1141 133.586 360.391 444.528
2302 0 93.447 12.4991 1168 131.152 360.145 444.331
2303 0 96.5675 12.6026 1217 132.766 360.288 441.915
2304 0 99.6759 12.5607 1252 131.788 360.383 441.058
2305 0 102.605 12.3873 1271 134.223 360.337 439.707
2306 0 105.704 12.554 1327 132.746 360.254 438.834
2307 0 108.238 12.6203 1366 130.747 360.287 437.219
2308 0 112.446 12.5661 1413 129.679 360.482 433.551
2309 0 115.609 12.6374 1461 130.382 360.426 433.068
2310 0 118.721 12.5589 1491 128.983 360.302 431.854
2311 0 121.79 12.6036 1535 129.185 360.542 428.162
2312 0 124.458 12.6549 1575 132.552 360.42 426.803
2313 0 128.658 12.5838 1619 133.377 360.573 424.967
2314 0 130.583 12.628 1649 130.656 360.693 422.474
2315 1 73.5735 9.40556 692 129.493 361.168 453.529
2316 0 76.4298 9.9961 764 131.36 361.8 452.539
2317 0 79.6625 10.3185 822 125.089 361.064 446.872
2318 0 82.7259 11.2419 930 120.932 361.038 444.091
2319 0 85.394 11.7924 1007 126.243 361.579 446.629
2320 0 86.6915 12.0081 1041 125.431 360.616 441.847
2321 0 91.9563 11.5055 1058 129.459 361.176 441.215
2322 0 92.7434 12.2057 1132 130.557 361.08 438.486
2323 0 94.9067 11.9591 1135 129.718 361.591 436.409
2324 0 98.9233 12.1913 1206 132.08 361.86 435.042
2325 0 102.805 11.9644 1230 133.464 362.474 435.165
2326 0 103.835 12.2214 1269 127.174 362.593 433.703
2327 0 108.266 12.2291 1324 135.887 362.688 430.916
2328 0 110.863 12.4117 1376 134.688 362.549 428.248
2329 0 112.588 12.3281 1388 136.643 362.709 427.814
2330 0 116.897 12.2757 1435 137.639 362.679 426.613
2331 0 119.839 12.4583 1493 136.553 362.422 426.38
2332 0 122.838 12.5775 1545 136.547 363.127 425.861
2333 0 125.841 12.2774 1545 139.561 363.278 422.963
2334 0 131.54 12.4525 1638 141.038 363.637 423.064
2335 0 136.652 12.316 1683 141.658 363.403 419.089
2336 0 141.467 12.2644 1735 139.349 363.579 417.96
2337 1 80.3931 10.4984 844 141.96 364.159 449.815
2338 0 84.4731 11.0094 930 142.165 363.896 446.782
2339 0 85.2977 11.7705 1004 137.77 363.376 444.813
2340 0 87.2833 11.8694 1036 142.943 363.693 446.311
2341 0 89.2147 11.9599 1067 148.346 363.76 445.113
2342 0 94.2024 11.815 1113 142.913 363.739 444.3
2343 0 95.216 11.9938 1142 148.231 363.87 443.297
2344 0 98.3261 11.9704 1177 148.912 363.675 440.81
2345 0 101.286 11.9957 1215 144.684 364.207 440.442
2346 0 104.313 12.2707 1280 148.101 364.524 438.965
2347 0 105.27 12.4727 1313 148.676 364.162 438.275
2348 0 109.216 12.3883 1353 148.857 363.817 436.832
2349 0 111.526 12.4993 1394 142.173 363.598 436.066
2350 0 115.294 12.4725 1438 143.976 363.545 435.494
2351 0 117.24 12.6749 1486 136.897 364.339 432.892
2352 0 120.25 12.815 1541 143.766 363.92 431.38
2353 0 127.358 12.7279 1621 135.866 363.966 427.503
2354 0 131.345 12.8212 1684 144.213 362.893 426.657
2355 0 131.319 13.1893 1732 142.326 362.949 424.047
2356 0 137.248 13.0348 1789 143.17 362.743 421.591
2357 0 141.463 13.0705 1849 152.859 362.685 420.368
2358 0 146.447 12.8647 1884 146.968 363.168 419.305
2359 0 148.343 13.253 1966 149.248 363.11 416.736
2360 0 155.404 13.0306 2025 30.2785 362.497 414.407
2361 0 160.372 13.1694 2112 148.605 362.778 411.943
2362 0 163.485 13.1572 2151 151.559 362.292 410.176
2363 1 97.4526 10.4974 1023 139.269 360.883 443.896
2364 0 100.462 11.3078 1136 132.109 360.584 439.848
2365 0 103.497 11.324 1172 143.955 360.502 439.342
2366 0 106.467 12.1916 1298 150.182 360.908 436.797
2367 0 108.568 12.232 1328 145.547 361.057 436.809
2368 0 113.489 12.1157 1375 139.937 360.787 435.698
2369 0 114.448 12.5035 1431 130.808 360.81 433.51
2370 0 117.622 12.3786 1456 127.527 360.602 432.456
2371 0 119.429 12.543 1498 144.276 360.509 431.178
2372 0 125.414 12.4548 1562 140.56 361.177 430.07
2373 0 126.416 12.8465 1624 135.715 360.687 427.19
2374 0 131.544 12.6573 1665 134.523 360.686 425.967
2375 0 133.404 12.6758 1691 144.782 360.668 425.847
2376 0 139.52 12.6219 1761 142.212 360.157 423.647
2377 0 144.282 13.4736 1944 151.03 360.099 419.854
2378 0 146.337 13.0657 1912 155.372 359.897 420.148
2379 0 149.431 13.3507 1995 159.734 360.259 417.742
2380 0 155.313 13.3472 2073 144.041 360.23 416.78
2381 0 158.372 13.342 2113 153.926 360.595 414.653
2382 0 163.485 13.2245 2162 157.019 360.529 412.855
2383 0 168.319 13.4388 2262 159.907 360.456 409.018
2384 0 173.605 14.0607 2441 156.328 360.73 405.431
2385 0 176.812 13.7491 2431 156.533 361.197 403.693
2386 0 180.347 13.6404 2460 152.315 361.093 402.042
2387 0 189.458 13.8606 2626 151.199 360.786 399.432
2388 0 193.479 14.0015 2709 146.513 360.695 396.856
2389 0 197.311 14.4746 2856 141.488 361.011 394.595
2390 0 205.437 14.0481 2886 155.691 361.164 392.234
2391 0 209.474 14.0065 2934 156.589 361.106 388.6
2392 0 216.338 14.4404 3124 155.369 361.538 386.032
2393 1 56.068 10.3089 578 136.031 361.282 468.37
2394 0 56.1327 10.7959 606 132.977 360.944 468.812
2395 0 57.0703 10.601 605 136.236 360.674 468.314
2396 0 60.1298 10.9929 661 134.773 360.145 466.094
2397 0 60.0944 11.7315 705 129.34 360.359 465.299
2398 0 63.1635 11.5415 729 133.381 359.844 464.588
2399 0 64.126 11.3215 726 133.826 360.494 464.354
2400 0 66.1423 11.7323 776 136.168 360.716 463.21
2401 0 68.096 11.5132 784 131.333 360.385 461.654
2402 0 70.0751 11.6018 813 134.408 360.375 460.603
2403 0 73.1843 11.5735 847 138.296 361.09 458.391
2404 0 74.1668 11.9191 884 138.666 360.588 457.885
2405 0 77.2207 11.7714 909 131.614 361.147 457.745
2406 1 29.0712 8.118 236 122.191 360.627 481.636
2407 0 30.1761 8.01959 242 114.599 361 480.603
2408 0 33.1018 8.67023 287 121.585 360.495 478.99
2409 0 33.108 9.54453 316 124.889 360.364 478.509
2410 0 34.0533 9.7788 333 124.489 360.234 478.381
2411 0 35.1142 9.939 349 125.639 361.02 477.519
2412 0 35.1791 9.94909 350 129.137 360.729 477.329
2413 0 35.0801 10.6328 373 127.828 360.96 478.335
2414 0 37.0073 10.1331 375 126.467 361.413 477.909
2415 0 36.02 9.18933 331 118.764 363.245 473.556
2416 0 37.0529 10.3636 384 124.484 361.99 477.253
2417 0 37.0968 10.4052 386 122.596 362.14 476.547
2418 0 38.0512 10.9326 416 119.618 361.966 476.897
2419 0 38.1022 10.9967 419 127.718 362.427 476.284
2420 0 40.0378 10.615 425 127.885 362.266 476.16
2421 0 41.0123 10.7041 439 120.825 362.355 476.121
2422 0 40.0294 10.842 434 124.73 362.461 476.078
2423 0 41.0207 10.8726 446 130.857 362.771 475.312
2424 0 40.0152 11.3957 456 137.116 363.059 474.776
2425 0 43.0779 10.5855 456 139.873 363.154 474.015
2426 0 42.0178 10.8287 455 141.919 363.681 473.776
2427 0 42.0339 10.9673 461 141.705 364.321 475.31
2428 0 41.0748 11.0774 455 140.029 364.147 475.226
2429 0 41.0413 11.062 454 144.921 364.271 474.249
2430 0 42.1422 11.0341 465 139.895 364.219 474.026
2431 0 41.0716 11.0295 453 143.996 363.907 473.547
2432 0 42.0913 11.4513 482 144.015 364.28 473.824
2433 0 42.0647 11.6963 492 140.791 363.98 474.063
2434 0 41.1037 11.6778 480 136.317 364.09 473.779
2435 0 41.1598 11.6376 479 144.276 363.564 473.549
2436 0 41.1543 12.3438 508 139.803 363.476 473.766
2437 0 43.057 11.4499 493 136.414 363.899 474.797
2438 0 41.1322 12.2775 505 137.562 364.418 474.111
2439 0 41.056 11.9593 491 139.849 364.418 474.079
2440 0 43.1266 11.5706 499 133.902 364.401 474.485
2441 0 44.0985 11.7011 516 147.004 363.89 474.769
2442 0 43.0896 11.9982 517 141.528 364.412 473.838
2443 0 43.0566 12.0539 519 146.152 364.173 474.091
2444 0 43.0445 11.6623 502 139.432 364.458 475.307
2445 0 43.168 11.8375 511 146.072 364.335 474.914
2446 0 44.0496 11.8276 521 149.226 363.516 473.777
2447 0 45.1252 11.9889 541 141.468 364.037 473.85
2448 0 43.12 12.3145 531 144.898 364.077 473.599
2449 0 43.0551 12.2866 529 134.229 363.28 473.168
2450 0 45.0594 12.2283 551 134.321 363.005 473.779
2451 0 45.0619 12.2054 550 146.616 363.933 473.88
2452 0 43.0952 12.4376 536 140.711 362.996 474.084
2453 0 45.071 12.1808 549 138.301 363.064 473.643
2454 0 45.0282 12.1035 545 136.27 362.927 473.688
2455 0 45.0676 12.4036 559 126.03 363.165 472.896
2456 0 45.0623 12.405 559 126.125 363.676 472.476
2457 0 45.0805 12.1339 547 121.378 363.962 474.34
2458 0 44.0615 12.5733 554 109.527 363.532 474.39
2459 0 45.0779 12.4451 561 112.955 364.005 473.875
2460 0 46.0685 12.1992 562 119.078 363.749 474.044
2461 0 45.0516 12.186 549 120.153 363.581 474.271
2462 0 43.0822 12.8824 555 123.405 363.114 474.82
2463 0 46.0386 12.294 566 118.905 362.581 473.866
2464 0 46.0858 12.1512 560 119.236 362.768 474.825
2465 0 45.0604 12.6275 569 108.518 362.583 474.39
2466 0 45.055 12.518 564 108.317 362.429 474.97
2467 0 46.0754 12.4144 572 110.201 362.753 473.962
2468 0 45.0456 12.7204 573 112.38 362.435 474.74
2469 0 47.1614 11.8317 558 117.228 362.353 474.656
2470 0 45.0815 12.178 549 116.55 362.386 475.133
2471 0 46.0986 10.9982 507 126.195 362.11 475.393
2472 0 46.0666 11.9175 549 128.301 362.133 475.308
2473 0 47.0407 12.2022 574 109.272 362.228 474.737
2474 0 47.1263 11.4798 541 116.732 362.566 474.787
2475 0 47.1258 12.3924 584 119.368 362.211 474.116
2476 0 45.0931 12.7736 576 114.545 361.141 473.88
2477 0 47.0393 12.4577 586 125.531 361.111 474.517
2478 0 48.0635 12.1922 586 126.654 361.805 474.964
2479 0 48.07 12.149 584 128.098 361.632 474.445
2480 0 46.0807 12.3045 567 132.046 361.601 474.409
2481 0 48.0956 12.2672 590 127.898 362.003 475.066
2482 0 47.0748 11.6411 548 131.529 361.818 475.838
2483 0 47.0611 12.0057 565 125.761 361.354 475.004
2484 0 47.1054 11.9095 561 133.428 362.253 474.508
2485 0 48.0588 12.0061 577 131.471 361.577 474.416
2486 0 46.0545 12.0509 555 137.742 360.241 475.701
2487 0 48.0513 11.8207 568 136.724 360.479 474.854
2488 0 47.0901 12.1257 571 135.088 360.755 475.795
2489 0 48.0455 12.1135 582 138.407 360.852 474.888
2490 0 46.037 12.4465 573 129.501 360.859 474.62
2491 0 46.0737 12.5017 576 138.203 360.814 473.342
2492 0 46.0652 11.7659 542 137.268 360.426 474.496
2493 0 46.1222 11.8164 545 136.343 360.007 473.301
2494 0 47.0684 11.9401 562 136.224 360.342 473.865
2495 0 47.0365 11.6931 550 140.816 360.371 474.364
2496 0 48.0228 11.7444 564 138.436 360.635 474.238
2497 0 47.0771 12.0441 567 135.739 360.908 473.693
2498 0 48.0346 11.9289 573 133.01 360.522 473.709
2499 0 48.0568 11.528 554 133.439 360.671 473.8
2500 0 48.0422 12.0935 581 134.466 361.093 472.935
2501 0 48.0503 12.4661 599 128.718 360.805 472.589
2502 0 47.0735 12.0238 566 137.369 361.028 472.592
2503 0 47.0456 11.8396 557 136.553 360.917 471.944
2504 0 48.0198 12.3282 592 134.459 360.794 472.091
2505 0 49.0685 11.6776 573 135.925 361.131 471.906
2506 0 48.1141 12.2002 587 132.719 360.773 472.468
2507 0 48.0567 11.9026 572 131.556 360.413 472.283
2508 0 48.0722 11.878 571 135.646 361.131 472.333
2509 0 49.0293 11.6461 571 134.944 361.702 472.501
2510 0 48.0518 11.9246 573 130.199 361.257 472.538
2511 0 47.0418 12.0318 566 129.878 361.24 472.269
2512 0 49.0812 11.7764 578 135.239 361.481 472.478
2513 0 48.0929 11.6857 562 109.564 361.13 473.456
2514 0 48.0767 11.9185 573 129.621 361.147 471.946
2515 0 49.0535 11.9869 588 131.662 360.777 471.74
2516 0 49.0399 11.9699 587 132.003 361.635 471.836
2517 0 49.0511 12.436 610 126.777 361.87 471.174
2518 0 48.0447 11.968 575 132.042 361.617 470.873
2519 0 49.0937 11.8956 584 127.93 362.324 470.271
2520 0 51.1309 11.3825 582 123.79 361.416 469.89
2521 0 48.0232 12.369 594 128.657 361.705 470.448
2522 0 50.0328 12.0521 603 130.57 361.494 469.37
2523 0 49.0433 12.1933 598 118.63 362.149 469.99
2524 0 49.0665 12.2487 601 125.879 362.206 469.78
2525 0 50.0293 12.1529 608 117.62 362.211 469.689
2526 0 49.0975 12.2409 601 134.817 362.659 469.383
2527 0 50.0615 12.1051 606 135.764 362.855 470.432
2528 0 50.1016 11.6363 583 129.172 362.743 470.259
2529 0 48.0956 11.789 567 135.956 362.441 469.935
2530 0 48.0474 12.0714 580 135.905 362.193 469.522
2531 0 50.0788 11.9611 599 136.145 361.907 469.219
2532 0 50.0511 11.6081 581 138.229 362.072 470.145
2533 0 47.0657 12.4507 586 129.807 362.067 468.724
2534 0 47.0794 12.3408 581 136.838 362.52 468.27
2535 0 49.0548 11.7827 578 133.924 362.415 468.256
2536 0 49.0177 11.8529 581 133.045 362.547 468.881
2537 0 48.0439 12.0723 580 136.114 362.612 467.948
2538 0 50.0699 11.9433 598 135.95 362.592 467.575
2539 0 50.0915 12.1178 607 121.809 362.132 467.026
2540 0 50.1015 12.2551 614 130.415 362.262 466.287
2541 0 50.0531 12.1471 608 134.646 362.635 466.09
2542 0 51.152 11.847 606 134.234 362.946 466.662
2543 0 50.0419 12.3496 618 132.466 362.324 466.049
2544 0 50.0532 12.0472 603 128.929 362.433 465.294
2545 0 51.0664 12.239 625 123.317 362.291 466.698
2546 0 50.0606 12.1453 608 120.842 362.383 467.344
2547 0 51.124 12.2643 627 123.836 362.833 466.437
2548 0 51.1029 12.0933 618 119.27 362.61 467.731
2549 0 48.133 12.5694 605 120.557 362.813 468.021
2550 0 49.085 12.4071 609 117.455 363.227 468.122
2551 0 49.1032 12.2192 600 121.91 363.252 467.632
2552 0 50.0378 12.3107 616 113.583 363.64 467.049
2553 0 51.0803 12.0007 613 110.212 362.914 466.693
2554 0 51.021 12.1323 619 127.321 363.115 466.805
2555 0 50.0349 12.2115 611 128.828 363.331 467.769
2556 0 51.0673 12.1604 621 129.316 362.688 467.477
2557 0 51.1254 12.264 627 125.53 362.753 467.844
2558 0 50.1273 12.2887 616 128.589 362.808 467.792
2559 0 50.1146 12.3716 620 128.587 362.835 468.015
2560 0 48.07 12.4402 598 127.273 363.293 466.538
2561 0 50.101 12.1355 608 128.446 362.885 466.633
2562 0 50.0376 12.6505 633 127.507 362.848 466.163
2563 0 50.0458 12.4686 624 132.457 362.897 467.05
2564 0 51.1164 11.9336 610 133.959 362.933 467.402
2565 0 49.0711 12.5736 617 129.653 362.697 468.094
2566 0 50.0476 12.608 631 130.414 362.758 467.117
2567 0 50.046 12.4685 624 129.468 362.718 467.112
2568 0 51.0778 12.0209 614 126.787 362.638 466.795
2569 0 50.0882 12.5579 629 126.661 362.642 466.83
2570 0 48.0374 12.5943 605 132.14 362.06 466.912
2571 0 50.07 11.404 571 130.737 362.271 466.97
2572 0 49.0548 12.1089 594 132.657 361.916 467.384
2573 0 49.0878 11.8767 583 132.837 361.688 467.535
2574 0 51.0659 11.2404 574 133.488 361.944 467.721
2575 0 48.0986 11.913 573 131.749 361.983 467.902
2576 0 50.043 11.8498 593 122.476 362.597 467.278
2577 0 49.0726 11.432 561 129.046 362.594 467.492
2578 0 49.046 11.6014 569 126.958 362.596 468.71
2579 0 49.0465 11.8255 580 118.476 362.44 468.993
2580 0 50.0653 11.2653 564 120.346 362.48 469.115
2581 0 47.0178 11.9104 560 123.28 362.557 467.895
2582 0 50.0668 11.8841 595 116.731 362.247 468.306
2583 0 48.0331 11.8876 571 123.977 362.457 468.611
2584 0 49.0922 11.3052 555 128.119 362.933 468.719
2585 0 48.0714 11.899 572 133.794 363.364 468.362
2586 0 48.0714 11.899 572 131.752 364.364 468.362
2587 0 49.0589 11.2518 552 129 362.694 469.299
2588 0 48.0153 11.9545 574 126.497 362.3 468.772
2589 0 48.0922 12.0186 578 121.91 361.924 468.244
2590 0 49.0877 11.4693 563 127.512 362.085 469.426
2591 0 48.0608 11.7767 566 120.912 362.182 469.125
2592 0 49.1507 11.5156 566 117.237 363.719 469.647
2593 0 48.1639 11.4401 551 116.098 362.441 468.35
2594 0 49.0762 11.3089 555 112.027 362.384 469.216
2595 0 49.0554 11.3953 559 108.272 362.989 469.653
2596 0 50.0818 11.1817 560 124.529 362.45 469.13
2597 0 48.1343 11.5718 557 127.122 362.443 470.14
2598 0 49.0682 11.2497 552 129.52 362.5 469.806
2599 0 48.0609 11.2982 543 124.405 363 470.085
2600 0 48.0484 11.4468 550 123.527 363.216 470.215
2601 0 48.0391 11.449 550 118.018 362.316 470.591
2602 0 48.1036 11.7663 566 125.06 362.007 469.928
2603 0 48.0603 11.3815 547 124.636 362.234 469.384
2604 0 48.0446 11.3228 544 124.68 361.767 470.009
2605 0 48.062 11.4227 549 124.018 361.57 470.654
2606 0 50.0892 11.2799 565 122.57 361.943 469.795
2607 0 50.1121 11.2149 562 119.97 361.607 469.824
2608 0 49.0448 11.4997 564 120.183 362.02 469.018
2609 0 48.0487 12.0086 577 125.69 362.094 469.662
2610 0 48.0599 11.8186 568 122.202 361.327 470.035
2611 0 49.0328 11.5433 566 121.346 361.938 470.375
2612 0 49.1047 11.058 543 122.169 361.692 470.243
2613 0 49.0673 11.1276 546 122.383 361.656 470.115
2614 0 48.0271 11.5352 554 122.679 361.294 470.536
2615 0 49.0761 10.8607 533 121.934 361.675 469.974
2616 0 47.0763 11.8743 559 119.512 361.637 469.78
2617 0 49.0642 11.1487 547 123.865 361.238 469.483
2618 0 48.0179 11.6831 561 118.111 360.913 469.455
2619 0 48.0709 11.0462 531 124.699 360.915 469.503
2620 0 48.0392 11.2408 540 115.874 361.798 469.315
2621 0 48.042 11.032 530 120.613 361.37 469.651
2622 0 49.0303 10.8504 532 117.823 361.521 469.528
2623 0 48.0763 10.9409 526 117.371 360.979 469.234
2624 0 48.0505 11.2382 540 117.156 360.878 468.928
2625 0 48.0461 11.5098 553 113.854 360.935 468.667
2626 0 48.0854 11.6252 559 108.161 361.027 468.293
2627 0 49.0566 11.8639 582 117.103 360.864 468.734
2628 0 49.0685 11.5553 567 119.469 360.774 468.954
2629 0 47.023 11.2924 531 122.533 360.689 469.467
2630 0 50.0779 11.3024 566 121.668 360.044 469.357
2631 0 51.086 10.9032 557 124.874 360.44 469.377
2632 0 49.0305 11.3603 557 118.381 360.043 469.833
2633 0 47.0148 11.188 526 123.867 360.272 472.034
2634 0 51.0362 10.7767 550 121.384 359.945 471.238
2635 0 49.0323 11.7473 576 127.491 360.257 470.248
2636 0 48.0454 11.8638 570 126.532 360.514 469.9
2637 0 50.0286 11.5134 576 116.635 360.292 469.611
2638 0 49.0304 11.6254 570 124.881 360.414 470.412
2639 0 50.1147 11.6932 586 123.865 360.203 471.043
2640 0 50.1119 11.7537 589 116.581 359.435 469.905
2641 0 49.0598 11.8223 580 124.579 359.61 470.098
2642 0 50.0518 11.548 578 119.789 360.017 471.526
2643 0 51.0468 12.0478 615 112.314 359.343 469.829
2644 0 52.0349 12.3571 643 108.667 359.83 469.065
2645 0 52.0395 12.625 657 106.026 359.924 468.648
2646 0 51.068 12.0819 617 108.032 359.434 468.929
2647 0 50.0535 12.4067 621 112.174 359.815 469.709
2648 0 50.0535 12.4067 621 131.684 360.815 469.709
2649 0 52.1558 12.1942 636 115.546 360.709 469.582
2650 0 50.0827 13.1183 657 112.174 360.571 469.344
2651 0 52.1356 12.2757 640 109.697 360.794 470.405
2652 0 50.1341 12.6461 634 110.09 360.762 470.486
2653 0 51.1357 11.9682 612 105.961 360.662 471.163
2654 0 51.0688 12.3363 630 112.408 360.651 470.937
2655 0 51.0485 12.3804 632 105.701 360.649 470.467
2656 0 51.0281 12.0718 616 112.054 360.182 471.088
2657 0 50.0497 12.088 605 107.719 360.585 471.084
2658 0 51.021 12.2107 623 107.026 360.562 470.345
2659 0 50.0667 12.4834 625 109.096 360.949 470.059
2660 0 51.0721 12.5705 642 107.748 360.47 469.628
2661 0 52.0269 11.9938 624 108.974 360.599 469.587
2662 0 51.1136 11.9538 611 106.628 361.17 470.979
2663 0 50.0464 12.1887 610 117.005 361.139 470.71
2664 0 52.1401 11.2006 584 119.89 361.36 470.416
2665 0 53.0651 12.1737 646 119.423 361.014 469.68
2666 0 53.0758 12.3974 658 109.953 361.078 470.386
2667 0 52.2036 11.5701 604 109.778 361.386 470.015
2668 0 51.0788 12.6863 648 109.074 361.738 470.194
2669 0 52.0504 12.0076 625 109.197 361.386 469.651
2670 0 53.0573 12.1001 642 109.713 360.715 469.556
2671 0 52.0821 12.0963 630 104.938 360.632 469.93
2672 0 51.0606 11.8878 607 110.369 360.334 469.494
2673 0 52.0216 12.341 642 113.146 360.157 469.171
2674 0 52.0318 12.0888 629 108.847 361.025 470.914
2675 0 51.1026 11.9368 610 113.152 361.843 470.638
2676 0 51.1189 12.0699 617 111.882 361.99 470.724
2677 0 51.0836 11.7259 599 103.765 362.002 470.603
2678 0 51.0599 11.7901 602 106.586 361.902 471.415
2679 0 50.0496 11.9481 598 111.59 361.577 471.43
2680 0 50.0787 11.442 573 108.365 361.351 471.171
2681 0 51.0584 11.4379 584 106.283 361.491 471.402
2682 0 50.0898 11.7988 591 103.321 361.506 471.259
2683 0 50.0669 11.8841 595 105.634 361.435 471.182
2684 0 50.1443 11.9655 600 100.37 361.83 471.985
2685 0 51.1183 11.6397 595 101.096 361.874 472.743
2686 0 50.0694 11.564 579 99.9948 361.506 471.264
2687 0 51.0969 11.351 580 103.11 360.016 471.184
2688 0 49.0982 11.5687 568 101.282 360.887 471.968
2689 0 50.0648 11.7448 588 102.124 360.791 471.57
2690 0 44.02 8.79146 387 103.641 360.439 476.088
2691 0 50.059 12.2256 612 93.9412 360.415 471.449
2692 0 50.02 11.7353 587 98.7189 360.683 471.589
2693 0 50.2052 11.7518 590 95.7797 360.659 471.485
2694 0 50.1351 11.5089 577 92.539 360.473 471.808
2695 0 50.1121 11.9133 597 93.8945 360.707 472.695
2696 0 49.0387 11.7662 577 93.6638 361.279 472.95
2697 0 49.0788 12.3475 606 90.6716 360.944 473.084
2698 0 42.0659 9.31871 392 97.4515 361.283 477.214
2699 0 38.1671 7.88637 301 100.831 360.867 478.671
2700 0 50.1083 11.5749 580 90.9966 361.09 471.952
2701 1 123.844 11.9263 1477 115.821 361.705 434.697
2702 0 127.748 11.5071 1470 124.412 361.923 433.592
2703 0 129.709 11.6877 1516 129.927 361.853 431.09
2704 0 131.047 12.2017 1599 125.019 361.916 430.61
2705 0 133.833 11.873 1589 124.454 361.98 428.631
2706 0 136.81 11.2931 1545 120.976 361.508 425.832
2707 0 139.828 11.4212 1597 120.24 361.584 422.93
2708 0 143.55 11.5917 1664 112.508 361.728 423.305
2709 0 144.801 12.2651 1776 114.239 361.907 422.623
2710 0 150.264 12.0122 1805 116.704 362.074 422.768
2711 0 151.571 11.7041 1774 119.91 361.923 419.433
2712 0 154.654 11.8458 1832 118.913 361.731 417.526
2713 0 160.866 12.0908 1945 118.914 361.689 415.494
2714 1 110.821 8.65356 959 115.917 361.225 439.295
2715 1 51.0268 11.6409 594 93.8333 361.18 472.833
2716 0 52.093 11.7866 614 92.4349 361.005 471.757
2717 0 52.141 11.4305 596 93.9614 361.495 471.532
2718 0 52.1071 11.0733 577 93.688 361.428 471.558
2719 0 51.2265 11.3808 583 91.9091 361.575 471.298
2720 0 49.104 11.384 559 97.6923 361.81 472.792
2721 0 50.096 11.438 573 92.6702 361.988 471.606
2722 1 130.877 11.3695 1488 127.078 362.103 430.404
2723 0 132.872 11.3493 1508 137.225 361.818 429.917
2724 0 135.328 11.3428 1535 135.355 361.676 429.341
2725 0 140.472 13.1699 1850 126.257 361.301 425.028
2726 0 140.472 13.1699 1850 134.203 362.301 425.028
2727 0 144.621 11.8932 1720 132.162 361.81 423.662
2728 0 146.962 11.9282 1753 135.16 361.533 422.371
2729 0 150.782 11.971 1805 134.103 360.734 422.077
2730 1 50.0406 11.2509 563 101.819 361.357 472.236
2731 0 51.0565 11.3796 581 102.046 361.029 471.867
2732 0 50.1173 11.9121 597 98.3618 361.65 470.92
2733 0 51.0682 10.8091 552 93.8768 362.326 472.342
2734 0 48.0467 11.7802 566 88.9187 361.44 471.507
2735 0 51.0609 11.3002 577 93.4957 361.983 470.747
2736 0 51.0298 11.7774 601 89.599 361.526 471.225
2737 0 39.0378 8.78635 343 102.956 361.528 476.519
2738 0 35.0965 7.32268 257 111.65 361.44 479.078
2739 0 35.0487 7.56091 265 108.981 361.287 478.238
2740 0 42.0264 9.42266 396 105.624 361.417 475.659
2741 0 50.0944 11.6181 582 100.215 361.473 472.095
2742 0 50.1403 11.3481 569 108.805 361.153 471.91
2743 0 50.1668 11.3621 570 105.333 360.602 470.895
2744 0 49.0898 11.9169 585 95.5846 361.089 470.468
2745 0 50.1004 11.2574 564 105.363 361.342 471.154
2746 0 51.1216 11.815 604 103.44 361.134 471.19
2747 0 49.1149 11.6054 570 101.163 361.24 471.532
2748 0 50.1101 11.814 592 101.623 361.535 471.6
2749 0 49.0755 12.0019 589 101.233 361.367 470.856
2750 0 50.0968 12.2762 615 95.3545 361.629 471.348
2751 0 49.1227 11.4407 562 98.8221 361.851 472.454
2752 0 50.065 11.9245 597 96.9229 361.834 471.841
2753 0 50.1034 12.2147 612 96.433 361.631 472.003
2754 0 50.0451 12.229 612 101.049 361.779 471.824
2755 0 49.061 12.3112 604 97.9752 362.293 472.104
2756 0 49.0871 12.1213 595 105.822 361.76 471.829
2757 0 50.0898 11.9186 597 103.642 361.965 471.576
2758 0 51.136 11.3423 580 100.803 361.843 471.569
2759 0 49.0546 12.1905 598 100.406 362.365 471.256
2760 0 50.1086 11.8343 593 104.577 361.503 471.218
2761 0 50.04 11.4109 571 106.201 361.942 471.846
2762 0 50.1675 12.6775 636 102.329 361.844 470.314
2763 0 50.0863 12.2788 615 99.426 361.982 470.407
2764 0 48.1434 12.1927 587 92.8467 361.503 470.417
2765 0 51.1628 11.3559 581 102.007 361.596 470.554
2766 0 50.1188 11.4129 572 106.264 361.788 471.437
2767 0 48.1055 11.3916 548 102.084 361.296 471.429
2768 0 49.0656 11.2095 550 96.6527 361.729 471.38
2769 0 48.1309 11.0947 534 100.228 362.051 470.781
2770 0 48.0805 11.7719 566 104.201 361.982 470.35
2771 0 49.0512 11.2332 551 104.045 362.201 470.828
2772 0 48.1561 11.5665 557 102.908 362.811 470.145
2773 0 38.0558 9.14447 348 106.92 362.253 475.247
2774 1 21.0148 6.66198 140 96.8357 362.114 482.636
2775 0 24.008 7.37254 177 108.271 362.26 482.316
2776 1 49.0544 11.5994 569 98.051 363.148 470.026
2777 0 50.0556 11.8668 594 95.6515 362.46 469.264
2778 0 49.1073 11.9738 588 95.6105 362.34 469.906
2779 0 50.1523 11.804 592 98.1571 362.539 469.664
2780 0 49.1184 11.9304 586 97.1997 362.276 469.299
2781 0 49.1197 12.3168 605 97.2579 362.552 469.241
2782 0 51.1004 11.5655 591 97.0372 362.827 469.623
2783 0 49.1108 11.5453 567 97.4709 363.171 469.243
2784 0 51.0591 11.5552 590 100.168 363.236 469.588
2785 0 50.1548 12.1424 609 94.3596 363.695 468.468
2786 0 51.1634 11.8053 604 97.4156 363.68 469.219
2787 0 51.1064 11.8185 604 94.2185 363.487 469.858
2788 0 51.2254 12.0058 615 91.6195 363.748 469.883
2789 0 51.1414 12.1819 623 91.8732 364.146 468.002
2790 0 50.0899 12.0384 603 89.7828 363.985 468.94
2791 0 50.0603 12.2053 611 89.4239 364.105 469.11
2792 0 52.0837 12.5759 655 83.716 364.066 467.98
2793 0 51.1186 12.872 658 83.8283 363.895 467.877
2794 0 51.1068 12.0532 616 83.8166 363.742 468.417
2795 0 52.1154 12.3956 646 83.7895 363.435 466.954
2796 0 51.1572 12.1977 624 90.7067 364.04 467.771
2797 0 51.0867 12.195 623 88.4366 364.207 468.445
2798 0 52.1334 12.3338 643 86.0062 364.977 468.087
2799 0 52.1065 12.4361 648 86.5895 364.728 467.347
2800 0 52.1107 12.0705 629 83.1304 364.712 467.607
2801 0 52.106 12.417 647 83.7465 364.983 467.578
2802 0 51.0429 12.0683 616 82.539 365.24 468.073
2803 0 52.1028 12.0339 627 84.4801 365.502 467.14
2804 0 52.1495 12.3491 644 79.8137 364.862 467.037
2805 0 52.076 12.4434 648 83.6389 365.27 467.373
2806 0 53.101 12.3161 654 80.7064 364.843 467.002
2807 0 52.1735 12.5926 657 74.0137 364.651 467.216
2808 0 53.1348 12.4589 662 80.4154 364.769 467.299
2809 0 53.1412 12.6832 674 77.3116 364.543 467.72
2810 0 53.1882 12.6344 672 74.4747 364.768 467.948
2811 0 52.0777 13.0766 681 79.0499 364.88 468.386
2812 0 52.1913 12.8757 672 77.9152 364.857 467.143
2813 0 52.1823 12.9546 676 74.8432 365.044 467.327
2814 0 53.1172 12.5383 666 72.2087 365.535 468.105
2815 0 54.1538 12.8523 696 77.375 365.568 467.149
2816 0 51.1256 12.1074 619 77.3393 365.43 466.827
2817 0 108.141 13.7228 1484 83.9865 364.606 384.672
2818 0 107.149 13.8592 1485 80.6687 365.007 383.764
2819 0 109.262 14.3783 1571 78.6353 364.668 383.815
2820 0 109.315 13.8408 1513 84.9755 364.861 384.352
2821 1 208.287 14.6912 3060 85.0961 366.019 334.784
2822 1 111.137 14.0097 1557 87.1394 365.564 383.652
2823 0 113.213 13.7175 1553 82.5518 365.118 382.772
2824 0 51.0831 12.3524 631 83.0523 365.353 465.517
2825 1 163.586 13.8398 2264 85.7279 364.585 405.414
2826 0 165.833 13.99 2320 83.5047 364.651 404.769
2827 1 44.0826 10.2535 452 100.069 364.982 470.281
2828 0 41.1495 9.55055 393 84.8295 364.702 471.293
2829 0 52.1287 12.4883 651 75.2519 364.192 466.366
2830 0 43.2128 9.5342 412 81.9393 363.083 470.954
2831 0 52.2232 12.5806 657 76.9924 363.231 466.201
2832 0 53.0534 12.3272 654 76.2049 363.076 466.732
2833 0 53.0867 13.186 700 69.7486 362.984 467.744
2834 0 53.1166 12.2372 650 76.2738 362.671 466.268
2835 0 52.0795 12.5193 652 71.385 362.173 465.658
2836 0 52.0799 12.116 631 74.3376 361.624 465.441
2837 0 46.0753 9.76663 450 82.7778 361.738 469.822
2838 1 139.382 8.54485 1191 81.3442 361.722 426.929
2839 0 138.277 6.34234 877 83.2281 361.87 437.688
2840 0 139.364 6.91714 964 78.3734 362.094 434.255
2841 0 139.529 6.65814 929 80.6426 362.005 436.096
2842 0 91.2332 8.95508 817 72.9327 361.442 396.324
2843 1 104.255 10.2633 1070 76.7533 361.549 387.377
2844 0 103.079 10.6714 1100 77.5927 361.974 387.483
2845 0 104.292 10.6336 1109 74.5537 361.486 387.506
2846 0 104.312 10.3152 1076 75.8634 361.768 386.622
2847 0 157.788 9.37968 1480 78.6723 362.658 415.216
2848 1 178.761 20.5974 3682 61.6646 361.431 382.539
2849 1 51.1581 12.3929 634 80.5457 362.134 466.106
2850 0 53.2625 11.9033 634 79.7508 362.811 466.077
2851 0 52.1471 11.9086 621 78.0032 362.76 466.213
2852 0 53.1741 13.0327 693 76.5556 362.931 465.659
2853 0 55.2089 12.2263 675 77.8356 362.29 465.421
2854 0 53.042 12.6692 672 73.7798 362.96 466.289
2855 0 51.0533 12.6534 646 73.9644 363.585 466.091
2856 0 53.2064 12.5361 667 73.057 363.525 466.321
2857 0 44.1063 9.88521 436 76.8142 363.135 470.954
2858 0 52.1507 12.809 668 73.5958 363.29 465.738
2859 1 146.641 8.30599 1218 91.1839 362.868 425.918
2860 1 182.841 14.0668 2572 82.582 363.544 396.201
2861 0 182.732 14.3763 2627 86.6734 363.301 395.868
2862 0 182.886 14.0361 2567 88.903 363.672 395.94
2863 0 30.1954 21.5265 650 118 348.891 114.862
2864 0 27.7738 22.0351 612 122.046 348.804 115.614
2865 0 24.1966 20.1681 488 124.518 349.016 117.668
2866 0 23.4133 23.1065 541 132.02 347.771 116.896
2867 0 25.6241 21.8154 559 127.719 347.785 116.869
2868 0 23.9705 21.6517 519 124.873 346.713 116.64
2869 0 28.1258 33.6701 947 109.943 348.883 113.326
2870 0 27.6908 32.249 893 117.821 346.46 112.321
2871 0 23.6515 32.0064 757 113.223 341.926 111.861
2872 0 350.34 19.15 6709 61.4876 361.465 292.589
2873 0 341.415 19.1234 6529 57.0579 363.032 298.216
2874 0 344.908 17.3235 5975 65.6521 363.696 306.164
2875 0 348.836 18.2865 6379 62.6383 363.296 298.717
2876 0 360.36 16.4696 5935 66.2177 363.897 308.28
2877 0 358.211 16.0548 5751 65.9353 364.762 310.224
2878 0 358.211 16.0548 5751 98.6456 367.762 310.224
2879 0 341.282 17.5134 5977 62.6883 365.271 305.348
2880 0 317.864 13.3265 4236 72.8012 364.64 326.291
2881 0 340.184 17.758 6041 61.9368 365.097 303.101
2882 0 46.2188 19.9486 922 105.311 355.233 116.469
2883 0 45.5923 26.9125 1227 106.121 361.98 113.495
