index division length width area intensity CMx CMy
2693 0 77.1943 13.615 1051 114.358 637.73 287.329
2694 0 81.4021 13.6237 1109 114.816 636.904 288.709
2695 0 84.1884 13.351 1124 110.79 636.848 290.436
2696 0 87.247 13.3873 1168 107.233 637.357 290.552
2697 0 91.295 13.6919 1250 104.958 637.203 292.829
2698 0 93.3482 13.7978 1288 107.747 637.434 293.621
2699 0 97.2359 13.8426 1346 115.397 637.303 295.88
2700 1 49.1535 11.9422 587 107.945 636.942 323.135
2701 0 51.1241 12.2838 628 110.393 637.408 324.815
2702 0 50.0534 12.5466 628 114.532 637.068 326.408
2703 0 52.0938 12.4583 649 113.655 636.932 327.276
2704 0 55.0259 12.5577 691 114.423 637.52 329.928
2705 0 57.0451 13.0949 747 111.114 637.316 332.711
2706 0 56.0487 13.1314 736 112.378 637.75 336.179
2707 0 58.0674 12.761 741 112.474 637.254 336.779
2708 0 61.123 12.5976 770 109.421 637.9 340.236
2709 0 64.0551 13.0044 833 115.294 637.448 341.576
2710 0 66.1314 12.7322 842 108.361 637.448 344.574
2711 0 69.0752 12.6529 874 115.22 637.223 346.16
2712 0 71.0703 13.2404 941 116.475 637.31 346.782
2713 0 72.1166 13.3811 965 116.125 637.091 349.308
2714 0 75.0912 13.3438 1002 114.626 637.436 351.057
2715 0 75.0912 13.3438 1002 154.619 637.436 351.057
2716 1 40.0665 10.9818 440 112.111 637.425 375.877
2717 0 44.0486 11.3738 501 104.413 637.441 379.226
2718 0 44.0694 12.0719 532 110.622 637.252 382.276
2719 0 45.0834 12.5323 565 107.312 637.172 385.313
2720 0 48.1179 11.8667 571 108.009 636.911 388.348
2721 0 50.0407 12.0702 604 115.656 636.781 389.634
2722 0 50.1048 12.2743 615 109.567 636.893 391.985
2723 0 51.0496 12.5956 643 111.631 636.868 395.285
2724 0 54.077 12.2603 663 116.647 636.87 398.603
2725 0 55.0521 12.1521 669 112.395 636.759 400.979
2726 0 56.1506 12.5555 705 116.634 637.248 403.017
2727 0 58.0593 12.7111 738 114.648 637.154 404.98
2728 0 60.0595 12.4044 745 116.055 636.906 408.815
2729 0 61.052 12.1372 741 113.456 636.542 412.425
2730 0 63.0566 12.2905 775 110.897 636.763 414.964
2731 0 65.057 12.8042 833 109.637 636.432 416.812
2732 0 67.2152 13.003 874 105.097 636.363 420.594
2733 0 70.0687 12.4021 869 108.254 636.696 423.724
2734 0 72.0736 11.8074 851 111.188 636.04 427.519
2735 0 75.1509 12.6678 952 109.355 636.212 429.992
2736 0 76.0686 12.1338 923 108.467 636.384 433.313
2737 0 80.2539 12.3608 992 111.832 637.028 436.601
2738 1 39.0118 10.8429 423 107.969 637.234 461.073
2739 0 41.0605 10.448 429 99.3566 637.347 466.867
2740 0 42.0312 10.9918 462 97.1818 637.178 470.797
2741 0 43.1582 10.8207 467 100.424 636.233 473.923
2742 0 42.0961 11.5213 485 108.761 635.656 473.528
2743 0 45.073 11.0931 500 110.474 635.41 472.944
2744 0 45.0926 11.2213 506 106.014 635.899 472.32
2745 0 48.0524 11.2585 541 114.592 635.412 471.972
2746 0 50.0671 11.4047 571 111.31 634.974 472.305
2747 0 50.0701 11.6836 585 111.012 634.993 471.55
2748 0 52.1087 11.5336 601 116.326 635.203 471.862
2749 0 54.0533 11.4332 618 46.1149 634.633 470.804
2750 0 55.0926 11.3445 625 113.56 634.904 469.779
2751 0 55.0926 11.3445 625 154.514 635.904 469.779
2752 0 58.0287 11.4081 662 114.228 635.092 468.514
2753 0 60.0612 10.9388 657 117.438 634.598 468.756
2754 0 62.0457 10.8791 675 116.772 635.646 467.581
2755 0 63.0364 10.9461 690 115.735 635.265 466.704
2756 0 65.131 11.4999 749 117.266 635.481 465.677
2757 0 66.08 11.3045 747 118.576 635.71 465.865
2758 0 68.056 11.0056 749 123.561 635.61 464.953
2759 0 71.0949 11.2807 802 116.995 636.203 462.786
2760 0 71.0534 11.0621 786 120.823 635.448 462.162
2761 0 76.0833 10.7645 819 119.65 635.131 460.708
2762 1 40.0215 10.0446 402 118.701 636.244 477.239
2763 0 40.0203 10.1698 407 119.494 636.484 477.098
2764 0 40.0632 10.9327 438 122.776 636.459 475.977
2765 0 42.1061 10.9485 461 117.399 636.516 475.328
2766 0 44.0369 10.4912 462 122.058 636.26 474.435
2767 0 45.1066 10.6415 480 127.379 635.769 474.188
2768 0 46.0358 10.8177 498 121.95 635.58 474.245
2769 0 46.1122 10.7347 495 128.693 635.646 473.172
2770 0 45.0751 10.9817 495 127.998 636.028 472.489
2771 0 49.0666 10.7609 528 122.737 636.104 471.405
2772 0 50.1023 10.7779 540 127.976 636.037 471.517
2773 0 51.0917 10.9215 558 124.803 636.28 470.903
2774 0 54.125 10.7714 583 127.12 635.878 470.566
2775 0 56.1009 10.8733 610 133.639 636.512 468.859
2776 0 55.0992 10.7261 591 133.76 636.819 468.848
2777 0 56.0726 10.7004 600 132.837 636.805 467.25
2778 0 59.0809 10.8834 643 126.505 637.05 465.874
2779 0 61.0968 10.8025 660 133.545 637.203 464.342
2780 0 62.203 11.3178 704 125.578 637.166 463.784
2781 0 64.2261 11.0236 708 120.462 637.451 462.092
2782 0 66.2676 11.4988 762 125.786 637.697 461.65
2783 0 68.3194 10.6412 727 122.125 637.227 460.637
2784 0 69.1552 11.2211 776 121.769 638.023 459.781
2785 0 72.1879 10.9437 790 131.158 637.994 458.939
2786 0 74.2791 10.9721 815 127.793 638.113 458.121
2787 0 78.3151 11.1345 872 128.687 638.212 455.789
2788 0 78.3111 11.25 881 134.233 638.401 454.311
2789 0 81.2198 11.0934 901 128.697 638.159 453.386
2790 0 84.1704 10.8233 911 127.797 638.139 451.796
2791 1 44.1005 10.5214 464 123.694 638.912 471.513
2792 0 45.065 10.274 463 119.38 638.907 470.994
2793 0 45.1751 10.2269 462 118.641 637.82 470.364
2794 0 46.2103 10.7768 498 114.496 638.817 470.705
2795 0 49.1558 10.2124 502 116.098 639.028 469.353
2796 0 47.1685 10.8335 511 115.618 639.229 469.139
2797 0 51.1984 10.7816 552 111.815 639.317 467.623
2798 0 52.0751 10.4272 543 113.867 639.118 467.293
2799 0 52.2613 11.0215 576 109.915 639.752 466.149
2800 0 56.1504 11.1664 627 112.729 639.845 464.904
2801 0 58.2491 10.9701 639 106.967 640.011 464.618
2802 0 64.1645 11.5017 738 115.585 639.703 461.72
2803 0 65.2657 11.3229 739 114.49 640.134 461.548
2804 0 64.1956 11.3403 728 117.489 640.192 461.484
2805 0 64.1889 11.6687 749 115.628 639.882 460.26
2806 0 67.2859 11.4288 769 113.758 639.908 458.809
2807 0 70.3429 11.188 787 114.582 640.038 457.682
2808 1 39.1175 10.4301 408 116.042 640.157 472.439
2809 0 39.2274 9.53414 374 114.543 640.021 472.717
2810 0 38.0828 10.057 383 114.285 640.164 472.64
2811 0 39.067 10.4436 408 117.914 640.024 472.64
2812 0 40.1092 10.5961 425 123.332 640.358 472.746
2813 0 43.0558 10.1961 439 118.203 639.702 472.834
2814 0 43.0788 10.5853 456 118.053 639.596 471.204
2815 0 44.1231 11.2186 495 117.178 640.222 470.063
2816 0 44.1769 11.205 495 127.527 640.422 469.709
2817 0 47.2071 10.9306 516 124.19 639.663 469.347
2818 0 48.189 11.2474 542 126.688 640.107 468.684
2819 0 49.1809 10.8375 533 115.807 640.169 466.882
2820 0 50.1716 11.1617 560 115.632 640.364 467.223
2821 0 50.2236 11.1501 560 109.546 640.132 466.655
2822 0 50.114 10.4162 522 117.847 640.027 466.462
2823 0 57.3074 10.784 618 106.445 640.251 465.214
2824 0 57.1313 10.7472 614 105.534 640 464.866
2825 0 61.2675 10.9193 669 109.67 640.121 462.066
2826 0 62.154 10.6992 665 114.08 640.414 460.674
2827 0 66.2296 11.2034 742 101.26 640.437 459.678
2828 0 67.2129 11.233 755 73.5073 640.072 458.258
2829 0 69.1882 10.7099 741 105.547 639.621 458.209
2830 0 72.1708 11.0017 794 104.704 638.637 456.543
2831 0 72.1708 11.0017 794 148.05 637.637 456.543
2832 0 78.2514 10.5813 828 107.186 638.787 455.222
2833 0 81.2065 11.0952 901 110.121 638.081 454.508
2834 1 44.1135 10.1103 446 104.928 638.785 473.576
2835 0 44.0469 10.9883 484 121.233 638.428 471.986
2836 0 46.0413 10.8381 499 111.309 638.1 470.739
2837 0 46.0218 11.4294 526 113.848 638.42 469.989
2838 0 48.0202 11.3911 547 114.603 638.159 469.667
2839 0 49.0441 11.3979 559 116.698 638.233 469.097
2840 0 49.0441 11.3979 559 152.932 638.233 469.097
2841 0 53.0829 11.6045 616 129.74 638.362 467.997
2842 0 53.0829 11.6045 616 155.701 639.362 467.997
2843 0 58.0456 11.9734 695 119.321 638.099 465.207
2844 0 59.1137 11.7908 697 119.608 637.572 464.538
2845 0 61.074 12.051 736 121.704 638.152 462.667
2846 0 63.1384 11.8153 746 112.901 637.568 462.961
2847 0 64.075 11.8455 759 115.833 637.02 461.519
2848 0 65.0832 12.1844 793 115.311 636.538 461.168
2849 0 69.0896 11.8831 821 114.009 638.048 459.077
2850 0 73.1226 11.1593 816 115.48 637.798 457.738
2851 0 73.2268 11.6624 854 112.691 637.568 457.364
2852 1 39.0876 10.1055 395 110.727 636.84 475.124
2853 0 39.1669 10.7744 422 109.95 637.68 474.704
2854 0 40.1653 10.8551 436 114.023 636.934 474.096
2855 0 40.0913 10.7006 429 111.655 637.368 474.333
2856 0 41.1619 11.1268 458 106.959 637.236 473.79
2857 0 43.111 11.5284 497 109.875 637.078 473.268
2858 0 44.2118 11.0378 488 110.527 636.877 472.369
2859 0 46.1086 11.7115 540 110.487 637.178 471.165
2860 0 47.1158 11.6946 551 117.368 637.51 471.935
2861 0 49.1115 11.7284 576 106.207 638.118 470.227
2862 0 47.0279 11.9078 560 110.089 638.348 468.698
2863 0 50.0666 11.6645 584 107.642 638.639 469.238
2864 0 52.0529 11.7957 614 103.502 637.881 468.746
2865 0 52.0808 12.5574 654 105.214 638.289 468.878
2866 0 55.1252 11.7914 650 107.832 638.446 467.475
2867 0 57.1176 11.6251 664 117.759 638.974 466.8
2868 0 57.1109 12.1868 696 104.19 638.98 465.205
2869 0 61.1246 11.8283 723 106.788 638.916 464.559
2870 0 62.1468 12.3096 765 101.834 638.18 462.312
2871 0 63.1408 12.3692 781 102.633 637.834 461.319
2872 0 68.1415 12.2099 832 108.471 637.537 459.74
2873 0 71.1896 12.2068 869 104.826 637.018 458.986
2874 0 74.2386 12.0557 895 112.596 637.269 457.99
2875 0 76.1591 12.1719 927 114.657 637.784 456.454
2876 1 39.0983 9.7191 380 103.624 637.518 474.192
2877 0 41.1037 10.7533 442 94.1878 637.471 473.204
2878 0 43.0827 10.886 469 96.4925 637.635 471.945
2879 0 43.0468 11.3133 487 100.71 637.85 471.665
2880 0 46.0626 11.0936 511 103.601 637.812 470.673
2881 0 46.0883 11.2393 518 97.4575 637.571 470.365
2882 0 46.0879 11.3913 525 94.2114 637.432 468.756
2883 0 49.0576 11.2521 552 99.2246 637.346 467.848
2884 0 50.083 11.3611 569 104.529 637.854 466.701
2885 0 52.0706 11.4844 598 100.221 637.754 465.781
2886 0 52.0776 11.9053 620 90.979 637.24 465.452
2887 0 54.0875 12.0545 652 90.0445 637.695 465.632
2888 0 56.1155 12.0822 678 91.2168 637.491 464.152
2889 0 56.1087 12.048 676 91.8225 637.717 464.067
2890 0 59.1101 11.9607 707 94.3253 637.986 462.457
2891 0 60.1052 11.4632 689 98.4383 638.293 462.753
2892 0 64.1136 12.2595 786 94.6501 638.174 460.504
2893 0 65.0916 11.8756 773 95.925 638.131 460.441
2894 0 67.0527 11.8265 793 97.6961 637.849 458.699
2895 0 70.0848 12.542 879 97.992 638.254 457.439
2896 0 72.0141 12.081 870 92.8552 638.337 457.572
2897 0 74.0566 12.5715 931 95.0011 638.249 455.885
2898 0 77.131 12.3426 952 94.6134 638.774 454.835
2899 0 79.1719 12.3276 976 92.5932 638.661 453.658
2900 0 81.2152 12.3992 1007 94.3148 638.759 452.36
2901 0 83.2464 12.2648 1021 93.2703 638.725 452.297
2902 1 45.0401 11.6119 523 89.8451 638.44 470.382
2903 0 48.0792 11.7722 566 94.8092 639.45 469.069
2904 0 49.0975 11.691 574 95.507 639.376 468.446
2905 0 50.1069 11.8746 595 93.0202 639.089 467.291
2906 0 52.033 11.9924 624 94.0641 638.375 466.378
2907 0 53.083 12.1508 645 91.2233 638.381 465.681
2908 0 54.0296 11.5677 625 95.3056 638.346 465.682
2909 0 56.0367 11.8137 662 93.9577 638.506 464.225
2910 0 57.0332 12.0807 689 94.7446 638.826 463.189
2911 0 60.0328 11.8102 709 95.3653 638.807 462.917
2912 0 60.0373 11.9093 715 92.014 638.853 462.306
2913 0 61.0823 12.0493 736 95.5367 639.005 461.12
2914 0 63.1093 12.2169 771 88.0674 638.68 460.744
2915 0 65.0747 11.9094 775 87.1058 639.464 459.209
2916 0 66.0372 12.4324 821 83.9208 638.737 458.337
2917 0 69.0801 12.0585 833 83.5426 639.25 456.897
2918 0 71.0889 11.8865 845 88.0047 639.088 456.741
2919 0 73.0486 11.8141 863 89.5064 638.85 456.041
2920 0 72.11 12.4393 897 89.7168 639.09 454.44
2921 0 77.0694 12.0411 928 89.7748 638.877 452.865
2922 0 80.0896 11.9616 958 85.0992 638.65 451.898
2923 0 82.0846 12.1338 996 89.6787 638.465 450.617
2924 1 44.0151 9.11051 401 89.8105 639.087 469.554
2925 0 44.0243 9.17676 404 93.604 639.379 469.431
2926 0 45.1201 9.64094 435 90.2138 639.184 469.193
2927 0 48.0365 9.84668 473 86.0381 638.436 468.782
2928 0 49.0091 10.4266 511 87.3386 637.777 468.636
2929 0 50.1106 10.3571 519 87.8092 638.006 467.755
2930 0 54.0796 10.8174 585 86.7026 637.38 467.209
2931 0 55.042 11.3186 623 83.6822 637.69 466.754
2932 0 56.0389 12.0452 675 83.077 638.004 464.009
2933 0 58.0375 11.3203 657 83.9117 636.994 464.353
2934 0 60.081 11.6509 700 83.7657 637.313 463.524
2935 0 61.0553 11.7926 720 84.3278 637.619 463.022
2936 0 62.0421 11.9113 739 82.5359 637.604 461.816
2937 0 65.0706 12.0638 785 76.1567 637.624 461.265
2938 0 65.0355 12.301 800 77.725 637.858 459.779
2939 0 68.0362 12.2435 833 78.9436 637.912 459.634
2940 0 69.0438 12.5572 867 79.0692 638.078 458.293
2941 0 72.094 12.5669 906 79.1258 638.22 457.355
2942 0 76.1367 12.3068 937 81.0854 638.451 456.081
2943 0 78.0451 12.4159 969 88.485 638.92 456.165
2944 0 81.1031 12.367 1003 87.5474 638.593 453.527
2945 0 84.0871 12.4514 1047 99.3744 638.399 452.244
2946 0 85.2107 12.4867 1064 96.4502 638.373 452.133
2947 0 88.1228 12.6868 1118 100.906 638.436 450.357
2948 1 48.0182 10.5793 508 102.15 638.459 471.039
2949 0 49.0214 11.4236 560 101.262 637.904 469.057
2950 0 51.0195 11.7406 599 98.2204 637.159 468.743
2951 0 51.111 12.2674 627 98.8246 637.978 467.718
2952 0 53.0254 12.1263 643 99.283 637.058 467.585
2953 0 54.0958 11.9233 645 100.639 637.206 467.033
2954 0 57.0152 12.0143 685 99.1489 637.253 465.161
2955 0 58.0743 12.0363 699 96.2504 637.373 465.232
2956 0 58.0301 12.459 723 98.1618 637.376 464.118
2957 0 61.0873 11.9992 733 92.9195 637.293 462.664
2958 0 62.0706 12.5986 782 94.2289 637.568 462.356
2959 0 64.0596 12.2386 784 89.5702 637.438 461.402
2960 0 67.0939 12.013 806 93.6489 637.231 460.449
2961 0 67.0724 12.6878 851 92.1022 637.203 459.569
2962 0 69.0979 12.4316 859 98.0151 637.296 458.211
2963 0 73.1409 12.9339 946 97.4123 636.837 456.896
2964 0 74.1334 12.8147 950 105.012 637.376 456.775
2965 0 77.195 12.6951 980 102.62 636.952 455.979
2966 0 80.125 12.8674 1031 90.3356 636.798 454.723
2967 0 81.1696 12.9975 1055 92.4938 636.587 453.972
2968 0 83.1993 13.053 1086 92.5562 636.348 452.587
2969 0 86.1024 12.88 1109 93.3868 636.328 451.35
2970 0 90.2886 13.9552 1260 96.8936 636.06 448.448
2971 0 92.2595 12.8767 1188 96.4529 635.867 448.09
2972 0 95.3023 13.3155 1269 93.4444 636.133 446.07
2973 1 50.1703 10.3248 518 96.529 635.554 470.014
2974 0 51.0794 10.5131 537 94.4227 635.855 469.706
2975 0 52.0852 11.4428 596 89.797 635.592 468.089
2976 0 54.0866 11.2412 608 87.6941 636.319 467.433
2977 0 54.1321 11.3796 616 91.9756 636.299 468.149
2978 0 56.1678 11.1808 628 96.801 636.32 467.546
2979 0 58.1771 11.379 662 91.6646 636.032 467.284
2980 0 59.1629 12.3219 729 96.9877 636.111 465.095
2981 0 60.1157 12.2264 735 93.0286 635.497 464.546
2982 0 63.1197 12.5001 789 94.7224 635.195 463.564
2983 0 63.0646 12.5427 791 95.9532 635.185 463.382
2984 0 67.0748 12.1804 817 94.3452 635.181 463.018
2985 0 70.0971 12.4684 874 93.294 635.267 461.477
2986 0 72.1391 12.6145 910 93.344 635.61 460.592
2987 0 74.0663 12.5158 927 96.3085 634.953 459.501
2988 0 77.1285 12.4727 962 91.7339 635.072 458.304
2989 0 77.159 13.2454 1022 94.5851 635.2 457.056
2990 0 83.0685 12.8087 1064 100.412 635.102 455.634
2991 0 85.1372 12.7794 1088 100.977 635.163 453.878
2992 0 88.1955 12.7898 1128 99.4149 635.16 452.318
2993 0 91.2765 12.9825 1185 100.687 635.349 451.397
2994 0 92.2094 13.0139 1200 95.7158 635.172 452.008
2995 0 95.0938 13.2711 1262 97.206 635.207 448.96
2996 0 99.222 12.7492 1265 96.0482 635.16 447.904
2997 0 101.146 12.6352 1278 96.1565 635.187 446.3
2998 0 104.216 13.1649 1372 93.1589 635.098 443.482
2999 0 108.21 13.1226 1420 96.8056 634.849 441.973
3000 1 58.0194 11.2204 651 100.8 634.27 467.117
3001 0 59.0241 12.0629 712 100.732 635.242 466.277
3002 0 59.1073 12.3166 728 97.6937 635.666 464.571
3003 0 63.057 12.2905 775 98.7613 635.126 465.008
3004 0 64.1012 12.5739 806 100.568 635.386 462.687
3005 0 65.1262 12.6216 822 103.367 635.401 461.277
3006 0 68.074 12.3542 841 100.126 635.794 461.033
3007 0 71.1931 12.3748 881 98.1759 635.882 459.335
3008 0 72.1905 12.7718 922 100.341 636.278 458.073
3009 0 74.1677 12.8088 950 102.014 636.126 455.919
3010 0 78.0775 12.7566 996 96.2691 636.199 455.563
3011 0 79.156 13.0881 1036 94.861 636.026 453.714
3012 0 81.1831 12.8968 1047 103.1 635.928 452.35
3013 1 43.1809 9.47178 409 105.971 635.936 472.037
3014 0 44.1001 9.84125 434 105.495 635.786 471.67
3015 0 46.0819 10.069 464 103.459 635.53 471.364
3016 0 49.1429 10.968 539 105.852 636.08 469.705
3017 0 51.06 11.32 578 107.296 636.438 468.458
3018 0 52.0812 11.2517 586 110.258 635.956 468.29
3019 0 53.1326 11.8383 629 108.919 636.595 466.831
3020 0 55.1239 11.2837 622 108.87 636.246 465.955
3021 0 55.1315 11.79 650 113.578 635.922 465.483
3022 0 56.1142 12.0825 678 106.811 635.994 465.024
3023 0 60.1442 11.7883 709 104.379 635.766 464.166
3024 0 59.1641 12.2371 724 106.204 636.138 464.32
3025 0 62.1408 12.0694 750 105.773 636.271 462.796
3026 0 65.0969 11.7671 766 98.6149 636.299 461.621
3027 0 65.0807 12.7534 830 108.929 636.535 459.472
3028 0 68.1148 12.2147 832 108.273 636.728 458.617
3029 0 72.2078 12.1732 879 110.077 636.497 457.349
3030 0 72.16 12.5416 905 108.156 636.912 456.361
3031 0 72.16 12.5416 905 163.367 637.912 456.361
3032 0 78.1478 12.1309 948 113.287 637.182 454.531
3033 0 81.2424 12.4319 1010 114.661 637.775 452.154
3034 0 83.3222 12.5537 1046 112.335 637.871 450.783
3035 0 87.3173 12.9299 1129 109.38 638.015 449.03
3036 0 90.299 12.1485 1097 115.3 638.223 447.751
3037 1 46.2653 10.6343 492 119.622 638.516 467.805
3038 0 50.3634 10.9206 550 113.031 638.293 466.187
3039 0 49.1724 11.9579 588 110.048 638.264 465.531
3040 0 53.0388 11.3879 604 112.69 639.465 465.127
3041 0 52.0373 11.9337 621 111.502 639.39 464.879
3042 0 56.0204 11.8707 665 107.496 640.268 463.011
3043 0 57.0394 12.0618 688 109.541 639.94 462.221
3044 0 59.0536 12.3955 732 104.813 639.5 461.336
3045 0 59.1597 12.5761 744 114.45 639.972 460.305
3046 0 62.0567 12.2791 762 113.453 639.816 458.95
3047 0 65.1509 11.8801 774 114.142 639.853 458.611
3048 0 65.0882 12.4907 813 112.091 639.886 457.812
3049 0 68.096 12.5117 852 116.955 640.073 456.696
3050 0 70.1649 12.4136 871 117.696 639.489 456.206
3051 0 69.114 12.9496 895 118.308 639.136 454.799
3052 0 74.2439 12.4724 926 126.274 639.812 453.917
3053 0 75.1285 12.9911 976 122.85 639.237 452.753
3054 0 76.2042 13.5163 1030 121.454 639.026 450.952
3055 0 79.1553 12.8734 1019 121.217 639.092 450.688
3056 0 81.1376 12.5589 1019 131.286 638.992 449.74
3057 0 83.2044 12.8359 1068 122.965 639.12 448.058
3058 0 86.1954 13.3418 1150 121.763 639.117 447.884
3059 0 88.234 13.1015 1156 125.497 639.327 445.699
3060 0 92.2048 13.5893 1253 122.197 639.079 444.193
3061 0 94.278 12.9192 1218 125.869 638.869 443.427
3062 0 97.1202 13.1486 1277 119.801 639.042 441.775
3063 0 101.299 13.2085 1338 126.608 638.713 439.907
3064 1 54.0209 10.4959 567 130.111 638.998 464.33
3065 0 54.0465 11.1756 604 132.268 638.081 463.828
3066 0 57.1842 11.9614 684 124.863 637.617 463.2
3067 0 59.0444 13.0241 769 127.144 637.954 462.252
3068 0 61.0828 12.8841 787 126.501 637.718 460.91
3069 0 63.1075 12.6926 801 123.034 637.317 460.499
3070 0 64.1726 13.043 837 125.986 637.066 459.349
3071 0 67.1892 13.1866 886 122.396 637.167 458.734
3072 0 70.1332 13.4031 940 131.682 636.958 456.804
3073 0 73.1011 13.2283 967 127.601 637.431 455.83
3074 0 73.1015 13.6659 999 125.367 637.367 455.397
3075 0 77.171 14.0208 1082 125.335 637.104 454.146
3076 0 78.1431 13.5009 1055 131.834 637.6 452.214
3077 0 80.1553 13.6984 1098 120.337 637.696 451.868
3078 0 84.1448 13.4887 1135 124.136 637.204 450.685
3079 0 86.1842 13.5292 1166 119.37 637.401 449.24
3080 0 89.1377 13.5408 1207 117.416 637.237 448.282
3081 0 90.2311 14.0196 1265 122.825 637.342 446.393
3082 1 50.0261 11.574 579 117.511 637.586 468.174
3083 0 52.0364 11.8763 618 120.856 636.662 467.892
3084 0 54.0579 14.5955 789 114.188 637.117 465.141
3085 0 56.0516 12.8453 720 117.214 637.162 465.497
3086 0 56.1037 12.6908 712 111.055 636.886 465.313
3087 0 59.106 12.5368 741 110.1 636.188 464.063
3088 0 59.0225 13.0289 769 116.547 636.274 463.784
3089 0 62.0748 12.7588 792 117.398 636.505 462.55
3090 0 64.0484 12.9902 832 119.575 636.76 462.228
3091 0 65.0702 12.8784 838 118.685 636.816 461.325
3092 0 68.0528 13.1956 898 107.833 636.797 461.12
3093 0 71.0976 12.9259 919 110.095 636.541 459.85
3094 0 74.1787 13.0091 965 108.705 636.491 458.418
3095 0 74.1787 13.0091 965 169.032 636.491 458.418
3096 0 79.1884 13.108 1038 113.569 636.374 456.031
3097 0 81.2836 12.8808 1047 115.351 637.102 454.928
3098 0 83.1966 13.1015 1090 109.676 636.608 453.594
3099 1 45.1296 11.1678 504 115.97 636.329 472.562
3100 0 48.138 11.5086 554 108.81 637.148 471.733
3101 0 49.073 11.4116 560 102.575 637.693 471.907
3102 0 51.0362 12.3638 631 99.2821 638.582 469.772
3103 0 52.0806 12.0774 629 103.103 638.129 469.006
3104 0 53.1019 12.3536 656 103.892 638 468.581
3105 0 52.0874 12.7862 666 119.087 637.734 467.754
3106 0 54.0447 12.5822 680 126.954 637.847 466.722
3107 0 57.0432 12.3591 705 116.445 637.628 465.942
3108 0 59.0691 12.5108 739 119.586 637.116 464.424
3109 0 61.0431 12.6959 775 116.728 637.502 463.29
3110 0 62.0778 12.4038 770 117.871 636.506 462.606
3111 0 62.0688 13.0823 812 117.49 636.82 461.472
3112 0 65.0675 12.9404 842 115.088 636.942 460.316
3113 0 67.0734 13.0305 874 108.779 637.148 458.664
3114 0 67.0807 13.0142 873 109.164 637.057 457.986
3115 0 70.1641 13.1691 924 103.307 636.776 456.603
3116 0 73.064 13.3171 973 113.993 636.437 455.22
3117 0 76.1469 12.5678 957 96.2926 636.674 454.032
3118 0 80.1395 13.3642 1071 148.832 636.85 453.37
3119 0 81.1749 12.9104 1048 149.681 637.019 452.722
3120 0 83.0704 12.9529 1076 142.758 636.725 450.994
3121 0 86.0807 13.011 1120 149.004 637.267 449.679
3122 1 46.0282 10.6674 491 145.988 636.454 469.289
3123 0 49.0465 11.3158 555 144.317 636.324 468.836
3124 0 49.0214 11.5868 568 136.783 636.789 467.222
3125 0 49.0396 12.0923 593 139.902 637.931 466.794
3126 0 52.041 12.1058 630 141.402 636.784 465.967
3127 0 53.0358 12.6707 672 116.982 636.966 464.701
3128 0 52.0727 12.6938 661 129.528 638.29 464.542
3129 0 56.0532 12.6487 709 37.1171 638.543 463.116
3130 0 59.1822 12.3348 730 136.666 638.073 462.474
3131 0 60.0848 12.7819 768 134.182 638.452 461.957
3132 0 60.0964 12.9292 777 127.493 638.414 460.144
3133 0 64.1042 12.4641 799 126.96 638.289 459.621
3134 0 66.0761 12.5764 831 113.04 638.789 458.2
3135 0 68.099 12.8049 872 104.349 638.961 456.74
3136 0 69.0788 12.768 882 107.505 638.888 456.703
3137 0 70.0812 13.3987 939 104.001 639.561 455.314
3138 0 73.1408 13.2621 970 106.294 639.126 453.975
3139 0 76.0232 13.3249 1013 109.356 639.681 452.183
3140 0 79.0276 13.0081 1028 107.075 638.816 451.057
3141 0 82.0987 12.9235 1061 107.289 640.203 449.219
3142 0 85.0955 12.8561 1094 109.526 639.676 447.682
3143 0 86.1556 12.9533 1116 101.923 639.422 446.292
3144 0 90.0491 12.8152 1154 100.635 640.17 445.417
3145 1 51.0689 10.9068 557 101.987 639.526 465.612
3146 0 51.034 11.6589 595 102.983 639.323 464.284
3147 0 51.034 11.6589 595 146.943 639.323 464.284
3148 0 55.0311 11.648 641 102.25 639.902 463.105
3149 0 56.0488 12.5426 703 100.96 639.875 462.232
3150 0 58.0279 12.1149 703 98.1878 639.597 462.148
3151 0 59.0669 12.6467 747 92.5582 639.403 460.426
3152 0 61.0356 12.3371 753 95.0106 639.304 459.389
3153 0 63.0792 12.1752 768 94.4583 639.438 458.499
3154 0 64.0697 12.6113 808 88.9455 639.587 457.252
3155 0 67.0851 12.8344 861 88.9837 639.448 455.551
3156 0 70.0539 12.7331 892 92.4462 639.263 455.339
3157 0 72.0792 13.069 942 96.3673 639.06 454.341
3158 0 76.12 12.6379 962 91.8087 639.101 453.342
3159 0 77.0473 12.9271 996 91.3845 639.009 451.798
3160 0 80.1418 12.715 1019 91.212 639.463 450.637
3161 0 84.0568 12.7295 1070 94.6243 639.293 449.124
3162 1 45.0436 10.7895 486 95.1193 638.854 469.103
3163 0 45.1346 11.3438 512 92.8281 637.662 467.691
3164 0 47.0411 11.5431 543 85.6446 638.035 467.956
3165 0 49.0354 11.9505 586 88.8106 639.439 466.884
3166 0 51.0407 11.5398 589 90.2003 639.496 466.963
3167 0 51.1313 12.3799 633 87.673 639.401 466.314
3168 0 52.1233 12.0484 628 93.0764 638.451 465.565
3169 0 55.1564 12.2923 678 91.1209 638.454 464.935
3170 0 56.1404 12.1659 683 91.9678 638.482 464.205
3171 0 56.0877 12.4805 700 92.1657 638.467 464.047
3172 0 58.1047 12.8389 746 91.5871 638.295 463.244
3173 0 60.1132 12.4598 749 91.1535 638.302 462.227
3174 0 61.1037 12.9125 789 88.493 638.984 461.586
3175 0 62.1252 12.5875 782 91.4348 637.364 461.198
3176 0 64.1015 12.8858 826 94.4709 638.061 459.975
3177 0 65.0856 13.3977 872 93.8257 637.234 459.308
3178 0 68.0524 13.1076 892 99.8419 638.019 459.352
3179 0 72.2283 13.6235 984 96.565 638.001 457.178
3180 0 77.2165 14.5565 1124 93.9591 637.535 455.886
3181 0 75.1066 13.5141 1015 99.1744 637.338 455.502
3182 0 78.1584 13.1912 1031 98.9408 637.32 455.759
3183 0 83.243 14.764 1229 89.9943 637.511 451.421
3184 0 85.1659 13.233 1127 99.8971 637.075 451.829
3185 0 88.1702 13.0883 1154 96.3388 637.365 450.161
3186 0 90.1605 13.5425 1221 86.6839 637.441 448.364
3187 0 92.1195 13.2328 1219 91.402 636.743 448.194
3188 1 50.0639 11.5852 580 97.2241 636.51 470.559
3189 0 52.1624 11.215 585 97.3675 637.824 467.956
3190 0 53.1895 11.8068 628 97.9076 637.465 468.083
3191 0 54.1113 11.7536 636 95.4764 637.358 467.156
3192 0 56.1457 12.1113 680 95.0632 637.266 467.013
3193 0 58.0949 12.2042 709 91.3202 637.472 466.109
3194 0 58.0986 12.7026 738 93.5881 637.722 465.108
3195 0 59.0808 12.4744 737 91.4518 637.601 464.034
3196 0 62.1068 12.5751 781 91.8118 637.243 463.315
3197 0 64.169 12.4359 798 89.7519 636.838 463.09
3198 0 67.098 12.9959 872 91.4713 637.056 461.446
3199 0 69.1044 12.9804 897 89.1862 637.37 461.25
3200 0 70.1305 13.1754 924 85.2435 637.53 459.964
3201 0 72.1815 13.2305 955 82.8984 637.364 459.155
3202 0 74.0986 13.2391 981 93.5046 637.532 458.455
3203 0 78.1156 12.8912 1007 90.1152 637.153 457.072
3204 0 81.1469 12.9888 1054 94.5693 637.446 455.731
3205 0 81.1163 13.721 1113 90.6172 637.343 453.239
3206 0 86.0523 13.2129 1137 88.8663 637.595 452.726
3207 0 89.201 12.9707 1157 94.7563 638.073 450.861
3208 0 93.0878 12.8696 1198 86.8531 637.786 449.957
3209 0 94.0689 13.3944 1260 85.1071 637.585 447.629
3210 0 97.1058 13.0373 1266 83.6698 637.464 446.493
3211 0 102.1 13.193 1347 78.507 637.27 443.847
3212 1 56.0339 10.4401 585 83.3829 637.595 466.34
3213 0 56.0652 11.2369 630 83.4079 636.498 465.67
3214 0 58.0554 11.8508 688 82.4288 636.094 463.858
3215 0 61.1758 12.129 742 80.1375 638.014 461.716
3216 0 61.0969 12.5866 769 77.762 638.346 461.382
3217 0 64.037 12.2273 783 77.0434 638.992 459.999
3218 0 66.0581 12.1106 800 78.145 638.979 459.362
3219 0 68.0149 12.262 834 82.0815 638.482 458.281
3220 0 71.0353 12.4445 884 78.3529 638.356 457.238
3221 0 74.1276 13.2879 985 79.5787 637.804 455.585
3222 0 75.0628 12.6028 946 80.7125 638.55 454.611
3223 0 78.0482 12.5948 983 79.7813 638.738 453.657
3224 0 81.1141 12.8954 1046 76.6702 638.727 451.752
3225 0 83.1635 12.7219 1058 76.327 638.757 451.077
3226 0 87.0867 12.8378 1118 82.9204 638.542 448.176
3227 0 89.2597 12.5925 1124 83.6317 638.401 446.053
3228 0 92.127 12.5479 1156 81.314 638.351 444.73
3229 0 95.082 12.9046 1227 79.0693 637.905 442.94
3230 0 97.2037 13.23 1286 77.5373 638.642 442.234
3231 1 51.0144 10.4872 535 85.2131 638.559 464.166
3232 0 54.0182 10.9963 594 80.8384 639.029 464.562
3233 0 55.0709 11.2037 617 83.2399 639.01 463.483
3234 0 56.1129 11.8333 664 84.4849 639.425 461.625
3235 0 58.0694 12.3645 718 82.7437 639.245 461.67
3236 0 59.0843 11.8306 699 85.0143 639.9 460.584
3237 0 61.0814 11.9513 730 86.9384 639.562 459.875
3238 0 63.0973 12.1558 767 84.8162 639.824 458.847
3239 0 66.1296 12.0672 798 84.0852 640.079 457.773
3240 0 66.0827 12.2574 810 86.2086 639.951 456.265
3241 0 67.1355 12.2588 823 87.6804 639.949 455.593
3242 0 70.1291 12.4342 872 86.4014 639.942 454.541
3243 0 73.1042 12.79 935 80.2214 640.068 452.68
3244 0 77.1196 12.9409 998 82.2525 640.103 450.992
3245 0 79.0999 13.0594 1033 79.4966 639.771 450.68
3246 0 84.1596 12.7258 1071 80.4015 640.234 447.81
3247 0 85.0893 12.9981 1106 79.4892 639.846 446.784
3248 0 87.0758 13.2988 1158 81.5587 640.088 446.544
3249 0 91.1821 13.2702 1210 87.6727 640.615 443.766
3250 0 94.1118 12.9846 1222 89.1015 640.64 442.822
3251 0 96.1126 13.7651 1323 85.6281 640.971 440.689
3252 0 100.173 13.1772 1320 90.95 641.148 439.244
3253 0 103.09 13.3087 1372 88.9606 640.644 438.112
3254 0 107.351 13.74 1475 84.7607 640.836 435.692
3255 0 111.309 13.3143 1482 82.9879 640.566 434.412
3256 1 59.1035 11.7421 694 82.4741 640.615 459.791
3257 0 60.0543 11.8892 714 84.7577 641.818 458.839
3258 0 61.1977 11.5037 704 82.8494 640.76 458.364
3259 0 64.0778 11.486 736 86.394 640.796 457.317
3260 0 66.0745 12.1681 804 90.8632 640.702 457.177
3261 0 69.1212 11.8632 820 90.7488 640.76 454.667
3262 0 68.1589 12.1774 830 94.5747 640.4 455.301
3263 0 71.1101 12.4455 885 87.5017 640.171 453.523
3264 0 73.1261 12.54 917 83.7328 640.441 452.306
3265 0 75.1415 12.217 918 86.4379 640.112 451.529
3266 0 79.095 13.0729 1034 86.6944 640.672 449.58
3267 0 81.28 12.3155 1001 88.3676 640.256 449.549
3268 0 83.179 12.5633 1045 88.7751 640.388 448.675
3269 0 86.1053 12.4847 1075 89.9609 639.912 446.802
3270 0 88.176 12.2596 1081 87.8455 639.956 445.757
3271 0 91.1831 12.5681 1146 81.9895 639.228 444.886
3272 0 94.1419 12.2687 1155 84.5446 639.384 443.084
3273 1 50.0748 9.62559 482 92.4896 640.18 464.73
3274 0 51.2569 9.65725 495 96.8586 639.19 464.42
3275 0 50.1276 10.8324 543 92.8177 639.389 462.536
3276 0 53.1107 11.1465 592 93.152 640.257 463.443
3277 0 55.0761 11.1664 615 95.026 640.128 463.309
3278 0 57.0782 11.2652 643 90.0047 640.277 462.243
3279 0 57.1572 11.0397 631 85.42 640.559 461.631
3280 0 61.0997 10.7856 659 85.0713 640.712 461.015
3281 0 62.2014 11.1091 691 85.1216 640.243 459.404
3282 0 64.1924 11.4032 732 95.2596 639.488 458.542
3283 0 65.0604 11.497 748 93.2192 638.477 457.731
3284 0 68.0713 11.5173 784 93.2666 638.797 457.265
3285 0 70.1582 11.2888 792 93.3535 638.638 455.734
3286 0 72.171 11.445 826 94.0278 638.538 455.682
3287 0 74.2094 11.5484 857 94.1774 638.443 454.446
3288 0 76.1741 11.4343 871 91.4558 638.465 453.25
3289 0 78.2006 11.6367 910 88.5429 638.066 452.519
3290 0 80.2487 12.2743 985 88.0244 638.526 450.209
3291 0 82.1948 11.8012 970 89.1052 638.528 448.659
3292 0 85.1771 11.6933 996 86.4488 638.473 448.126
3293 0 90.3674 11.9291 1078 87.0371 638.147 446.306
3294 0 92.1829 11.6182 1071 88.9365 638.362 445.064
3295 0 93.2496 11.7963 1100 89.4836 637.645 444.142
3296 1 52.2886 8.3001 434 90.9286 637.175 466.168
3297 0 51.2464 9.95191 510 90.002 637.374 465.533
3298 0 53.2346 10.0123 533 91.5554 636.54 464.73
3299 0 55.3278 10.483 580 89.0155 636.84 464.933
3300 0 56.2902 12.2402 689 88.1596 636.721 463.268
3301 0 55.1256 11.5191 635 88.7638 636.706 463.118
3302 0 60.092 11.5656 695 89.0691 637.599 462.404
3303 0 61.0442 11.4999 702 86.6595 638.436 460.594
3304 0 65.0604 10.6209 691 88.6932 638.796 460.268
3305 0 64.2273 11.2569 723 92.0456 637.671 459.544
3306 0 68.1642 11.4723 782 90.156 637.563 458.235
3307 0 71.1347 11.8086 840 86.3071 637.843 456.908
3308 0 73.1645 11.6723 854 86.6534 637.788 456.207
3309 0 74.1107 12.4678 924 87.8528 637.439 454.956
3310 0 80.2094 12.617 1012 88.2836 637.401 454.953
3311 0 79.2936 12.5105 992 89.9607 637.494 453.448
3312 0 81.1051 12.8105 1039 86.8085 637.094 452.609
3313 0 84.1667 12.5941 1060 85.5509 637.001 451.942
3314 0 88.1957 12.6083 1112 86.768 637.392 450.865
3315 0 90.1191 13.3268 1201 81.6195 637.056 449.196
3316 0 92.097 13.0623 1203 84.6135 637.533 448.106
3317 0 95.1878 12.9008 1228 91.4349 637.281 446.704
3318 0 98.1619 13.1619 1292 89 637.115 444.792
3319 0 99.1681 13.3612 1325 93.7774 637.297 443.766
3320 0 102.242 13.1257 1342 91.1706 637.489 442.469
3321 0 107.438 12.947 1391 90.3429 637.491 440.33
3322 0 111.272 13.1839 1467 87.863 637.453 439.139
3323 1 58.0943 11.5158 669 90.3498 637.048 464.505
3324 0 61.094 12.2271 747 78.9826 637.509 465.332
3325 0 62.1081 12.2528 761 79.6058 637.281 463.482
3326 0 64.158 12.0328 772 83.5777 637.508 461.75
3327 0 65.0838 12.3072 801 82.8639 637.779 460.985
3328 0 67.087 12.3869 831 86.7726 637.798 459.89
3329 0 69.1052 12.1264 838 86.6706 637.487 459.632
3330 0 72.1045 12.7315 918 85.0316 637.756 458.94
3331 0 72.1045 12.7315 918 161.52 637.756 458.94
3332 0 75.0669 11.9893 900 86.5267 637.959 456.391
3333 0 75.1791 12.5035 940 84.5808 637.692 454.934
3334 0 79.1 12.086 956 89.9697 637.836 453.848
3335 0 82.0797 12.7437 1046 95.218 637.995 452.439
3336 0 85.1019 12.5732 1070 95.1374 637.942 450.832
3337 0 88.1327 12.7875 1127 92.6637 637.693 449.609
3338 0 91.1704 12.6357 1152 93.3898 638.197 448.189
3339 0 94.1672 13.0831 1232 88.2825 638.198 446.304
3340 1 53.0919 10.2087 542 91.0941 638.897 467.327
3341 0 53.1804 11.2259 597 88.8811 638.97 466.02
3342 0 55.0952 11.108 612 91.3039 638.567 465.373
3343 0 56.1394 11.5071 646 83.7771 638.887 464.361
3344 0 58.1675 11.8623 690 83.5768 638.993 462.387
3345 0 60.1274 11.8083 710 84.2479 638.713 461.396
3346 0 63.0968 12.045 760 85.2763 639.128 460.653
3347 0 63.1668 12.095 764 92.5589 639.068 459.945
3348 0 65.1129 12.4706 812 79.4089 639.213 458.164
3349 0 68.1492 11.6509 794 78.7922 639.252 457.296
3350 0 70.1001 12.1255 850 76.0318 639.396 455.381
3351 0 72.0926 11.9846 864 78.3252 639.337 454.597
3352 0 75.1174 13.2992 999 82.0641 639.126 452.549
3353 0 75.1048 12.609 947 81.8268 639.871 452.31
3354 0 78.102 12.0356 940 82.3968 639.731 451.968
3355 0 81.0587 11.9543 969 80.7069 639.42 450.873
3356 0 82.1187 12.3236 1012 85.1532 639.626 449.952
3357 0 84.1776 12.1172 1020 85.351 639.579 447.699
3358 0 88.1638 12.3293 1087 83.3726 639.73 446.268
3359 0 89.2224 12.5081 1116 87.8754 639.794 444.164
3360 0 93.249 12.858 1199 89.2394 639.637 442.108
3361 0 96.1768 12.9449 1245 84.9406 640.118 441.733
3362 1 52.0921 10.3854 541 83.6488 640.214 463.031
3363 0 55.1203 10.4136 574 87.1638 640.404 462.058
3364 0 56.0562 11.4706 643 81.0404 640.46 461.014
3365 0 58.1243 11.6303 676 82.4408 640.396 459.67
3366 0 60.0862 11.8663 713 87.7167 640.641 458.864
3367 0 63.0832 11.9525 754 89.4363 640.927 457.798
3368 0 64.0879 11.9679 767 87.8853 640.913 456.69
3369 0 66.2207 11.7637 779 91.1528 641.144 455.62
3370 0 68.0849 12.4991 851 85.0705 641.106 454.109
3371 0 71.0731 12.255 871 84.7612 641.107 453.463
3372 0 74.0992 11.768 872 88.0528 641.484 451.869
3373 0 76.106 11.8387 901 89.758 641.455 451.792
3374 0 78.054 12.6195 985 91.4345 641.574 449.374
3375 0 80.0573 12.4536 997 93.1926 641.687 447.944
3376 0 84.0692 12.4421 1046 89.5201 641.294 447.076
3377 0 87.0893 12.424 1082 90.8355 641.567 446.025
3378 0 91.0564 12.7613 1162 85.5448 641.282 443.71
3379 0 92.0709 12.36 1138 92.0378 641.282 443.06
3380 1 47.0952 10.4681 493 86.9919 641.053 466.939
3381 0 49.0791 10.4933 515 85.8427 640.61 465.92
3382 0 49.2724 11.6698 575 82.4974 639.903 463.805
3383 0 53.1174 11.2769 599 83.2654 640.496 464.147
3384 0 54.129 11.2324 608 86.2516 641.743 462.61
3385 0 56.1025 12.0672 677 88.675 641.222 462.588
3386 0 56.1656 12.3919 696 92.0876 641.151 462.167
3387 0 59.1197 12.517 740 91.5203 641.419 460.476
3388 0 60.1673 12.0331 724 93.2735 641.274 460.675
3389 0 62.2496 12.3053 766 93.8825 640.91 459.354
3390 0 61.1339 12.6771 775 93.1471 641.254 458.445
3391 0 63.0961 12.996 820 86.889 640.837 457.641
3392 0 67.2338 12.3747 832 87.5312 640.225 456.941
3393 0 69.1968 12.4861 864 89.1447 640.644 456.031
3394 0 71.1383 12.7779 909 88.1177 640.649 454.212
3395 0 74.1364 12.531 929 89.267 640.829 453.242
3396 0 75.0989 12.8231 963 91.5161 640.492 452.221
3397 0 77.1596 13.5174 1043 87.8485 640.481 450.329
3398 0 80.2255 13.2377 1062 90.193 640.443 449.151
3399 0 84.0859 12.9391 1088 90.9862 639.974 447.543
3400 0 87.1075 12.9725 1130 90.8027 639.76 447.181
3401 0 89.2191 13.0465 1164 89.0567 639.409 445.899
3402 0 92.165 12.6078 1162 86.8554 639.005 444.488
3403 0 95.4253 12.3866 1182 91.857 638.823 443.475
3404 1 53.0671 11.5326 612 97.9118 638.49 463.217
3405 0 55.0498 12.0981 666 98.473 638.746 461.586
3406 0 57.0799 12.0708 689 96.6981 639.012 463.033
3407 0 58.099 12.4615 724 106.088 639.392 461.785
3408 0 58.0988 12.341 717 106.639 638.98 461.131
3409 0 64.1074 12.3231 790 97.781 638.913 459.976
3410 0 64.1074 12.3231 790 153.88 638.913 459.976
3411 0 65.1418 13.0792 852 103.305 638.499 458.881
3412 0 67.1632 12.8046 860 99.9919 638.133 459.086
3413 0 69.1434 13.0598 903 99.7331 639.15 457.716
3414 0 71.1176 12.7676 908 101.194 638.735 456.881
3415 0 73.0794 13.3827 978 92.9898 639.598 455.719
3416 0 76.1029 13.035 992 94.1885 638.911 454.489
3417 0 78.1004 13.5723 1060 89.4406 639.279 453.694
3418 0 80.1215 12.9803 1040 97.901 638.894 453.189
3419 0 83.2562 13.4525 1120 100.233 638.65 450.416
3420 0 84.1812 13.7442 1157 96.2411 638.827 449.741
3421 0 87.2378 13.4116 1170 94.9812 638.353 448.613
3422 0 90.1947 13.2269 1193 96.2934 638.533 446.303
3423 0 93.2337 13.2248 1233 93.365 638.377 447.033
3424 0 96.3382 13.5253 1303 88.9954 638.424 445.234
3425 0 100.323 13.1276 1317 89.6196 638.075 443.271
3426 0 103.415 13.6054 1407 88.28 638.011 441.405
3427 1 53.127 11.1808 594 85.9242 638.512 466.934
3428 0 56.1584 11.2539 632 93.2263 638.769 465.231
3429 0 59.2214 11.6174 688 94.7878 638.362 465.122
3430 0 60.0543 12.1057 727 93.4979 638.653 463.44
3431 0 61.0801 12.9829 793 90.3594 639.01 461.605
3432 0 65.0918 12.3825 806 85.737 638.868 461.455
3433 0 65.0492 12.8057 833 88.9604 638.478 459.233
3434 0 69.156 12.1175 838 100.677 637.527 458.708
3435 0 71.1387 12.3421 878 95.3178 637.652 457.005
3436 0 76.0726 12.9482 985 93.1858 638.259 456.442
3437 0 77.0483 12.4597 960 92.1167 638.424 455.778
3438 0 79.0552 12.9909 1027 95.5696 638.06 453.905
3439 0 83.0981 12.9365 1075 94.0884 638.127 452.225
3440 0 85.1676 12.6809 1080 94.6907 636.955 451.209
3441 0 88.1108 13.0631 1151 90.9792 637.745 450.042
3442 0 91.1584 13.3065 1213 89.9662 637.26 448.695
3443 0 94.2763 13.0468 1230 88.6837 637.206 447.631
3444 0 100.408 13.2559 1331 86.1104 636.376 446.156
3445 0 102.344 13.2592 1357 87.1422 636.713 443.347
3446 0 107.352 12.976 1393 86.3704 636.14 442.719
3447 1 57.0368 10.5195 600 88.0433 637.413 466.872
3448 0 58.0879 11.1899 650 83.7569 636.98 465.842
3449 0 61.0596 11.759 718 86.2437 637.11 465.141
3450 0 61.1519 12.1501 743 83.2059 637.03 465.393
3451 0 63.1163 11.8195 746 88.6743 636.924 463.552
3452 0 63.1301 11.3892 719 91.2712 635.985 462.662
3453 0 66.1011 12.1632 804 86.7948 636.386 461.271
3454 0 68.1504 12.1936 831 86.1721 636.712 460.17
3455 0 70.0942 11.8412 830 85.2904 636.754 459.233
3456 0 73.1302 11.5821 847 86.3117 636.51 458.218
3457 0 77.1087 13.0336 1005 84.6408 636.233 455.597
3458 0 79.1915 12.1099 959 84.7404 636.384 456.463
3459 0 80.1459 11.6288 932 86.3251 636.409 453.406
3460 0 84.0894 12.344 1038 83.6339 636.201 453.377
3461 0 86.0923 12.3704 1065 82.2535 636.18 452.326
3462 0 90.0945 12.3759 1115 79.6475 636.716 450.378
3463 0 93.1194 12.7256 1185 86.2025 636.506 448.431
3464 0 97.1782 12.0089 1167 87.6958 636.39 447.46
3465 0 100.288 12.2347 1227 85.6936 636.23 445.217
3466 1 53.0199 9.90194 525 86.9276 636.893 469.945
3467 0 55.059 11.0064 606 83.1749 637.34 468.144
3468 0 57.0532 11.4805 655 79.2626 636.944 465.992
3469 0 59.089 11.7958 697 78.8752 637.139 465.323
3470 0 60.0262 11.9948 720 85.6722 636.618 464.921
3471 0 62.1552 11.97 744 87.496 636.749 463.152
3472 0 63.2263 12.2576 775 84.7084 637.084 462.568
3473 0 64.1747 12.1387 779 82.9666 637.054 461.22
3474 0 67.1829 12.012 807 84.4337 637.017 460.948
3475 0 70.1445 12.4743 875 82.2126 636.45 460.224
3476 0 71.1075 12.6288 898 80.7294 636.302 459.081
3477 0 74.1518 12.2047 905 82.8011 636.933 457.029
3478 0 77.1594 13.0509 1007 82.3227 636.83 455.831
3479 0 80.1651 13.4223 1076 81.5539 636.717 454.144
3480 0 83.1622 12.8424 1068 81.1105 636.75 451.991
3481 0 84.086 13.1413 1105 74.9538 636.372 451.022
3482 0 88.1509 13.0231 1148 77.7361 636.65 449.848
3483 0 90.2023 13.0817 1180 82.278 636.655 448.811
3484 0 93.1438 13.5489 1262 78.5293 636.931 447.387
3485 0 97.2223 13.5771 1320 79.4636 637.475 446.158
3486 0 101.2 14.9704 1515 73.8383 637.752 441.844
3487 0 107.162 15.7425 1687 74.0237 637.478 439.336
3488 0 107.149 13.9151 1491 84.6875 637.637 440.787
3489 0 110.234 13.4169 1479 81.9283 637.794 437.427
3490 0 112.179 13.3982 1503 80.9561 637.593 436.199
3491 1 62.2221 12.7929 796 91.9058 638.987 459.773
3492 0 66.1981 12.9007 854 86.9368 639.192 458.978
3493 0 65.0717 13.4467 875 87.2343 639.086 458.553
3494 0 68.1284 12.9755 884 88.5328 638.471 458.14
3495 0 68.1284 12.9755 884 171.316 638.471 458.14
3496 0 71.2976 13.7592 981 84.7074 637.564 456.572
3497 0 76.2778 13.3197 1016 88.2707 638.134 454.627
3498 0 78.3468 13.236 1037 89.6249 638.354 452.632
3499 0 80.4981 13.4786 1085 90.5936 638.978 451.288
3500 0 83.3601 13.4717 1123 87.2894 638.825 448.443
3501 0 87.5214 13.231 1158 87.8273 638.243 447.507
3502 0 89.622 13.4007 1201 89.2764 639.062 445.686
3503 0 93.4494 13.2799 1241 91.7881 639.207 442.301
3504 0 96.2278 13.0524 1256 94.0454 639.308 441.603
3505 0 98.3698 13.6627 1344 91.6064 639.582 439.5
3506 0 102.466 13.0189 1334 86.4483 639.14 439.469
3507 0 104.354 13.5979 1419 86.3383 639.628 437.246
3508 0 109.318 13.6117 1488 82.9704 640.238 435.528
3509 0 111.329 13.5005 1503 87.5649 640.236 432.935
3510 0 117.312 13.5791 1593 86.1362 640.35 430.718
3511 0 122.443 13.4511 1647 89.694 640.16 428.396
3512 1 64.1746 11.8115 758 88.4235 639.84 457.017
3513 0 67.1624 12.0454 809 96.9122 639.805 455.354
3514 0 67.2547 12.7277 856 97.6589 639.819 452.873
3515 0 70.2151 12.5044 878 96.2437 640.642 452.08
3516 0 70.2151 12.5044 878 156.048 640.642 452.08
3517 0 76.2536 12.3797 944 104.978 640.01 450.363
3518 0 79.5118 12.3378 981 108.109 640.138 448.021
3519 0 82.6774 12.2282 1011 103.19 639.75 448.328
3520 0 85.7653 12.4759 1070 92.543 639.453 446.568
3521 0 87.5388 12.2003 1068 100.039 639.335 444.316
3522 0 92.5948 12.4521 1153 99.1093 639.422 443.251
3523 0 94.4938 12.2971 1162 99.2797 639.262 441.834
3524 0 97.556 12.5364 1223 96.5421 638.916 439.49
3525 1 51.4589 10.3189 531 103.514 639.499 462.945
3526 0 52.4454 10.8112 567 105.757 639.342 462.072
3527 0 54.4818 11.123 606 101.64 639.376 461.218
3528 0 55.4239 11.5474 640 98.9625 638.958 461.25
3529 0 55.4239 11.5474 640 146.995 637.958 461.25
3530 0 59.3806 11.9736 711 104.034 640.128 459.053
3531 0 61.3233 11.9367 732 105.168 640.105 458.52
3532 0 62.1704 12.2566 762 106.99 638.899 460.608
3533 0 64.3662 11.7608 757 102.033 639.19 456.798
3534 0 66.1659 12.1513 804 99.2736 638.662 456.292
3535 0 67.3376 12.1181 816 98.0748 638.43 455.11
3536 0 68.3508 12.509 855 102.653 638.077 456.978
3537 0 72.4257 12.5646 910 99.7846 638.798 456.009
3538 0 73.4155 12.9673 952 103.915 638.636 454.048
3539 0 75.597 13.0032 983 100.732 638.393 451.504
3540 0 78.5653 12.7665 1003 92.001 638.103 451.225
3541 0 81.5787 13.0058 1061 95.7144 638.421 449.927
3542 0 82.4916 12.9589 1069 97.4443 638.308 450.185
3543 0 85.5755 12.749 1091 99.0312 638.421 448.701
3544 0 87.422 13.0631 1142 98.028 637.944 447.132
3545 0 88.4803 13.4832 1193 95.7946 637.66 447.588
3546 0 92.4947 12.9521 1198 97.4341 637.416 445.632
3547 0 94.4583 13.7203 1296 98.9931 637.542 444.414
3548 0 97.4436 13.6592 1331 98.1157 637.512 441.887
3549 0 100.317 13.3577 1340 95.803 637.52 440.403
3550 0 104.361 14.0666 1468 96.8944 637.292 440.828
3551 0 107.406 14.0308 1507 99.4897 637.434 438.877
3552 0 111.533 14.1034 1573 99.939 636.926 436.331
3553 1 58.5423 11.5643 677 104.069 636.965 461.991
3554 0 60.4047 12.499 755 100.066 636.788 463.558
3555 0 61.4016 12.9475 795 101.805 637.123 460.426
3556 0 63.4077 12.9006 818 97.2983 637.029 460.087
3557 0 66.6287 12.6972 846 100.078 637.027 458.869
3558 0 69.4934 13.1235 912 103.547 637.052 458.773
3559 0 72.6117 12.8216 931 96.7175 637.21 457.106
3560 0 72.4826 13.2722 962 102.209 636.896 456.289
3561 0 74.2925 12.9757 964 102.419 637.45 454.786
3562 0 76.4422 12.4931 955 112.834 636.863 454.613
3563 0 80.376 13.6483 1097 105.19 636.803 453.286
3564 0 81.4714 13.6367 1111 104.973 636.921 453.462
3565 0 86.4639 14.1793 1226 110.223 637.132 450.774
3566 0 88.4772 14.1279 1250 112.138 636.872 448.563
3567 0 91.5237 13.166 1205 114.588 636.597 449.149
3568 0 95.3568 13.0877 1248 109.596 636.914 445.825
3569 1 48.1987 11.5771 558 107.6 636.928 468.638
3570 0 52.1624 12.0777 630 110.249 636.849 468.262
3571 0 54.312 12.6675 688 105.18 637.058 467.342
3572 0 56.2374 12.6073 709 102.463 637.633 466.536
3573 0 57.1373 12.8638 735 103.114 636.742 464.869
3574 0 60.2451 13.2459 798 97.2606 637.059 463.429
3575 0 62.3897 13.063 815 101.507 637.434 463.683
3576 0 63.2325 13.1103 829 99.6031 637.794 461.877
3577 0 64.3374 13.165 847 103.943 637.889 460.496
3578 0 67.3522 13.4071 903 103.823 637.217 458.813
3579 0 69.516 13.148 914 98.2418 637.566 457.39
3580 0 71.6299 14.1561 1014 99.8501 637.606 454.903
3581 0 74.4241 13.974 1040 104.398 637.825 454.272
3582 0 77.3892 13.4903 1044 105.876 638.012 453.333
3583 0 79.4022 13.9669 1109 100.889 638.264 452.656
3584 0 81.2582 14.4108 1171 101.196 638.086 450.38
3585 0 85.3126 13.726 1171 100.525 638.204 450.114
3586 0 87.2966 13.9868 1221 99.5225 638.128 448.848
3587 0 89.2508 13.9719 1247 98.8581 638.261 447.378
3588 0 93.323 14.1444 1320 97.725 638.375 446.163
3589 0 93.4026 14.7319 1376 100.74 638.509 444.864
3590 0 99.3394 14.4656 1437 99.38 638.603 443.516
3591 0 102.368 14.6725 1502 102.95 638.705 441.816
3592 0 105.239 14.6048 1537 96.8718 638.557 441.54
3593 0 106.358 14.5264 1545 99.4913 638.476 439.395
3594 0 111.457 14.6694 1635 96.6691 638.853 438.333
3595 0 113.366 14.8457 1683 99.3304 638.686 436.71
3596 0 118.333 15.0761 1784 93.7747 638.933 435.402
3597 0 122.459 15.2949 1873 93.5996 638.92 432.395
3598 0 126.2 15.111 1907 91.6345 638.726 431.042
3599 0 132.218 15.1568 2004 92.2695 639.862 428.59
3600 1 72.1268 13.0742 943 100.822 639.09 459.452
3601 0 75.2147 13.7739 1036 100.526 639.307 457.596
3602 0 79.2284 13.3286 1056 105.611 639.188 455.969
3603 0 78.2327 13.6771 1070 105.804 639.161 455.589
3604 0 80.2348 13.984 1122 104.835 639.505 454.262
3605 0 86.1887 13.6909 1180 107.092 639.542 452.393
3606 0 88.13 13.6049 1199 104.181 639.627 451.021
3607 0 91.2064 14.2424 1299 108.189 639.687 449.533
3608 0 94.2534 14.6202 1378 100.768 640.04 448.598
3609 0 98.303 14.435 1419 97.8915 639.756 446.211
3610 0 99.2692 14.3952 1429 99.4885 640.113 445.787
3611 0 103.32 14.6438 1513 97.499 640.792 444.145
3612 0 103.32 14.6438 1513 174.325 641.792 444.145
3613 0 109.376 14.5644 1593 106.722 640.547 439.398
3614 0 112.305 14.9148 1675 103.823 640.631 434.965
3615 0 114.499 14.8299 1698 104.793 640.704 433
3616 0 119.179 15.5648 1855 99.0911 640.743 431.649
3617 0 123.316 14.5724 1797 100.889 640.399 430.252
3618 0 128.377 14.9326 1917 100.454 640.822 427.362
3619 1 65.2642 13.5296 883 112.325 639.913 458.574
3620 0 68.3627 13.8818 949 114.447 639.982 457.388
3621 0 71.3614 14.1813 1012 101.534 639.605 455.953
3622 0 73.334 14.4953 1063 118.076 639.833 453.289
3623 0 74.459 14.5046 1080 119.464 639.971 452.281
3624 0 77.5249 14.6018 1132 120.665 640.078 450.25
3625 0 80.4302 14.5343 1169 120.13 640.077 449.882
3626 0 85.4168 14.5756 1245 115.099 639.625 449.503
3627 0 86.5055 14.7621 1277 118.784 640.055 446.603
3628 0 91.3859 14.5427 1329 113.077 639.636 445.615
3629 0 93.4477 14.6713 1371 120.709 639.545 443.341
3630 0 97.4505 14.9101 1453 111.529 639.56 443.359
3631 0 100.548 14.4408 1452 107.694 639.003 440.494
3632 0 102.299 14.6042 1494 104.818 638.989 440.28
3633 0 106.391 14.8791 1583 96.1314 639.114 438.256
3634 0 112.586 16.7427 1885 94.8462 639.138 433.368
3635 1 59.1874 13.3136 788 107.36 638.613 459.187
3636 0 61.2108 13.6087 833 112.06 638.592 458.438
3637 0 63.2735 13.9711 884 108.054 638.386 457.522
3638 0 65.2042 13.7875 899 106.473 637.717 456.144
3639 0 65.2042 13.7875 899 166.476 637.717 456.144
3640 0 68.308 14.4053 984 108.458 637.787 455.181
3641 0 72.1846 14.0889 1017 111.198 638.217 454.51
3642 0 73.3171 14.5123 1064 108.674 638.114 453.011
3643 0 76.4012 14.7249 1125 110.669 638.185 451.426
3644 0 78.4121 14.1942 1113 107.191 638.018 450.387
3645 0 83.4972 14.4196 1204 112.704 637.954 448.948
3646 0 84.2777 14.3692 1211 115.079 638.253 448.493
3647 0 90.3748 15.5132 1402 108.305 638.646 444.621
3648 0 90.291 14.8409 1340 112.925 638.101 445.039
3649 0 95.3518 14.5461 1387 108.722 638.288 444.027
3650 0 99.403 14.3054 1422 108.706 637.778 442.594
3651 0 103.366 15.3628 1588 98.6272 638.172 440.57
3652 1 56.2384 12.9093 726 99.9835 638.015 463.496
3653 0 58.3482 13.1281 766 102.326 637.962 462.154
3654 0 61.4527 12.953 796 101.898 637.515 462.403
3655 0 62.2938 13.2758 827 98.3797 637.183 460.929
3656 0 65.6354 12.8437 843 99.1744 637.514 460.848
3657 0 67.4218 13.2005 890 98.1618 637.265 458.709
3658 0 69.2178 13.2769 919 99.2263 637.4 456.98
3659 0 69.2178 13.2769 919 162.333 638.4 456.98
3660 0 74.4234 13.1679 980 97.1541 637.482 454.506
3661 0 77.4242 13.6004 1053 93.0066 636.994 452.618
3662 0 79.3038 13.2402 1050 95.1162 637.196 452.292
3663 0 80.3934 13.6454 1097 88.6007 637.131 450.214
3664 0 84.4812 13.6835 1156 103.965 637.253 449.55
3665 0 87.3373 13.6139 1189 106.83 637.123 448.458
3666 0 93.5993 13.4082 1255 102.171 637.318 446.822
3667 0 97.5574 13.633 1330 99.915 637.191 445.853
3668 0 99.1611 14.2294 1411 97.4415 637.292 442.431
3669 0 102.423 13.2685 1359 98.9132 637.504 441.684
3670 1 55.333 10.5362 583 96.307 637.473 466.226
3671 0 58.3629 10.726 626 90.869 637.479 466.026
3672 0 60.2567 11.0195 664 89.0602 637.474 465.053
3673 0 60.5038 11.1894 677 95.7947 636.818 464.064
3674 0 61.6578 12.3423 761 91.0999 636.669 461.175
3675 0 65.4391 11.7055 766 92.3629 637.226 460.734
3676 0 68.3717 11.7446 803 89.3176 636.985 459.899
3677 0 71.5523 12.2428 876 88.79 636.966 457.974
3678 0 70.6117 12.5617 887 86.2773 637.05 457.165
3679 0 75.4054 12.1875 919 95.2579 636.779 455.545
3680 0 79.4037 11.939 948 93.7954 636.973 454.736
3681 0 80.4454 12.1076 974 93.8932 636.851 453.474
3682 0 83.5551 11.9921 1002 91.1397 637.328 452.205
3683 0 84.4528 12.3619 1044 93.4004 636.974 450.331
3684 0 88.3314 12.4418 1099 95.5732 636.919 448.293
3685 0 92.6604 12.4541 1154 93.2981 637.205 446.165
3686 0 95.5035 12.5336 1197 94.8421 637.103 443.981
3687 0 99.5354 12.3976 1234 91.7002 637.616 442.583
3688 1 55.3364 10.2464 567 98.3563 637.529 464.847
3689 0 56.3437 10.8797 613 102.223 637.486 463.67
3690 0 58.2176 11.3196 659 98.431 637.841 463.134
3691 0 62.1248 11.2354 698 101.342 637.744 462.613
3692 0 64.1861 11.3888 731 105.863 638.469 461.338
3693 0 65.2059 11.318 738 102.283 638.207 459.617
3694 0 67.3027 11.322 762 106.244 637.911 459.039
3695 0 69.3662 11.8357 821 104.582 638.052 457.067
3696 0 68.3283 11.9423 816 106.973 638.236 456.697
3697 0 73.218 11.7048 857 105.441 638.818 455.019
3698 0 75.2421 12.1873 917 106.938 638.888 454.586
3699 0 77.2408 11.7684 909 109.41 638.967 451.694
3700 0 80.3065 11.7674 945 105.898 639.143 451.534
3701 0 81.3988 11.8798 967 107.886 639.38 451.01
3702 0 84.2301 12.2165 1029 104.606 639.849 449.141
3703 0 87.3158 12.2544 1070 104.375 639.949 446.454
3704 0 90.3306 12.0446 1088 105.001 639.88 445.455
3705 0 92.3408 12.8004 1182 107.164 639.572 442.788
3706 0 97.3372 11.8146 1150 102.676 639.921 442.64
3707 0 99.1925 12.6723 1257 96.2705 639.666 440.65
3708 1 53.2108 10.5806 563 105.476 639.17 464.551
3709 0 52.1571 10.6793 557 103.181 639.858 463.591
3710 0 56.0917 10.8929 611 104.982 640.018 461.123
3711 0 57.125 11.151 637 106.396 639.691 461.804
3712 0 59.1378 11.2449 665 103.302 639.313 461.699
3713 0 59.181 11.8957 704 107.17 640.051 460.051
3714 0 62.0649 11.8747 737 104.345 640.99 458.583
3715 0 63.1075 12.2331 772 103.302 639.29 458.38
3716 0 63.0333 12.1206 764 99.3521 640.425 459.584
3717 0 65.0979 11.9051 775 99.3652 640.904 458.099
3718 0 67.0621 12.302 825 92.2873 640.784 456.514
3719 0 68.0761 12.7064 865 91.5202 641.128 455.726
3720 0 72.084 11.8889 857 91.2602 641.247 454.707
3721 0 73.1959 12.4051 908 87.7676 641.094 453.356
3722 0 73.1723 13.065 956 86.5858 641.393 452.469
3723 0 77.1824 12.6195 974 85.5411 641.096 451.61
3724 0 80.1492 12.2397 981 87.371 641.125 451.133
3725 0 83.2726 13.0895 1090 88.3541 640.841 448.649
3726 0 85.1254 13.4742 1147 88.5946 640.703 448.268
3727 0 87.136 13.2092 1151 94.1964 640.597 448.249
3728 0 88.2349 13.3507 1178 88.3574 640.329 446.059
3729 0 92.1365 13.2738 1223 100.754 640.15 444.312
3730 0 94.0754 13.149 1237 104.474 639.414 443.741
3731 0 97.2016 13.3228 1295 107.367 639.488 443.531
3732 0 100.146 13.2206 1324 107.625 639.42 441.276
3733 0 104.253 13.0452 1360 102.074 639.388 439.254
3734 0 109.189 13.4538 1469 92.0082 639.131 437.848
3735 0 110.204 13.1574 1450 101.928 639.232 435.628
3736 1 60.2205 10.8103 651 96.172 639.724 459.356
3737 0 63.3488 11.4919 728 92.2582 639.35 458.402
3738 0 64.0944 12.0603 773 89.1734 639.818 457.682
3739 0 67.1339 12.2591 823 87.2357 639.55 457.136
3740 0 66.1702 12.5132 828 84.4565 638.587 456.833
3741 0 71.1232 12.0354 856 82.4474 638.746 457.558
3742 0 71.0919 12.6878 902 91.204 638.559 454.904
3743 0 73.1993 12.5821 921 88.6949 639.118 452.469
3744 0 78.0477 11.9286 931 83.6617 638.807 452.107
3745 0 80.208 12.5175 1004 82.0139 638.595 449.712
3746 0 82.1458 12.4169 1020 79.0765 638.527 449.164
3747 0 85.1508 12.4955 1064 76.4145 638.544 449.104
3748 0 88.1966 12.4721 1100 80.9073 637.545 447.071
3749 0 90.1359 12.703 1145 93.7738 637.548 446.145
3750 0 95.227 12.4649 1187 96.5232 638.104 444.618
3751 0 99.1513 13.0003 1289 84.4864 638.035 442.14
3752 1 52.067 11.005 573 90.8778 638.651 464.801
3753 0 57.0183 11.014 628 88.1465 638.693 463.799
3754 0 58.0369 11.7856 684 86.4152 638.747 462.82
3755 0 59.0925 12.3704 731 83.6046 638.654 462.542
3756 0 62.0377 11.5897 719 85.7775 638.382 461.954
3757 0 63.0456 12.0389 759 86.2569 638.174 460.362
3758 0 62.0182 12.6415 784 86.7334 638.372 461.589
3759 0 66.0652 12.5785 831 84.9832 638.726 460.213
3760 0 68.0861 12.7192 866 85.1363 638.357 458.938
3761 0 70.1638 12.6276 886 84.6591 638.414 458.082
3762 0 73.0627 13.3447 975 78.6892 638.687 457.316
3763 0 74.0313 13.1431 973 84.4656 638.725 456.399
3764 0 76.0728 12.843 977 93.5486 638.018 455.812
3765 0 78.0855 13.5364 1057 94.6131 638.172 455.438
3766 0 79.0693 13.3554 1056 100.543 638.25 453.604
3767 0 83.1397 13.4593 1119 97.227 638.552 453.38
3768 0 84.104 13.9827 1176 100.299 638.176 451.276
3769 0 87.0808 13.2176 1151 102.857 638.218 450.703
3770 0 89.0782 14.7062 1310 99.558 637.633 448.993
3771 0 92.0801 14.1616 1304 100.608 637.601 447.475
3772 0 95.1094 13.8998 1322 95.702 638.026 446.977
3773 0 97.112 14.0456 1364 99.7053 638.26 445.674
3774 0 100.118 14.7826 1480 94.6926 637.83 443.08
3775 0 103.092 14.1622 1460 95.9411 637.618 442.471
3776 0 108.077 15.1928 1642 91.8831 637.531 438.976
3777 0 109.077 13.4859 1471 95.2393 637.081 439.061
3778 0 113.171 13.8551 1568 96.4668 636.79 436.87
3779 0 118.162 14.4547 1708 94.5135 636.748 434.615
3780 1 62.0308 11.2364 697 99.1263 636.719 463.324
3781 0 64.1758 12.3723 794 95.728 636.116 460.152
3782 0 68.131 12.7695 870 89.5701 636.472 461.359
3783 0 69.189 13.5426 937 88.2327 636.481 459.187
3784 0 71.1382 13.9166 990 87.9273 636.216 458.38
3785 0 75.094 13.5031 1014 105.484 636.484 457.963
3786 0 79.0634 14.3176 1132 101.798 636.187 454.552
3787 0 80.1024 13.1831 1056 103.274 635.758 454.773
3788 0 80.1024 13.4453 1077 100.773 635.607 454.384
3789 0 84.2492 12.6292 1064 103.157 635.649 452.041
3790 0 86.2794 13.3288 1150 89.5678 635.532 451.43
3791 0 89.2647 13.544 1209 87.4334 635.629 450.293
3792 0 93.1962 13.4018 1249 79.9648 635.034 450.407
3793 0 97.1968 13.0663 1270 89.2307 634.7 450.06
3794 0 99.2792 12.9534 1286 89.8631 634.897 447.476
3795 0 102.316 13.126 1343 88.312 635.561 445.178
3796 0 105.323 12.1341 1278 92.4828 635.628 442.482
3797 0 110.176 13.1063 1444 88.4259 635.651 441.221
3798 0 114.255 13.96 1595 93.985 635.928 438.409
3799 0 117.235 13.0251 1527 99.1408 636.286 438.597
3800 0 119.141 13.0434 1554 94.1351 635.994 437.588
3801 1 64.0976 10.2032 654 104.576 635.472 463.771
3802 0 65.0553 11.1597 726 104.196 635.098 462.625
3803 0 68.1166 11.9795 816 93.2279 636.998 460.332
3804 0 71.0847 11.6762 830 95.4096 636.76 459.941
3805 0 73.0857 12.1501 888 92.7782 636.876 457.316
3806 0 75.1679 11.9333 897 92.524 636.839 455.662
3807 0 78.1454 12.0289 940 87.5936 637.039 455.823
3808 0 79.1806 11.72 928 93.2274 636.682 455.069
3809 0 84.1639 12.3212 1037 100.852 637.051 453.143
3810 0 85.1243 12.1352 1033 98.5779 636.774 451.41
3811 0 87.0928 12.5728 1095 94.9224 636.375 449.908
3812 0 92.2476 13.2361 1221 92.7027 636.6 448.811
3813 0 93.2595 12.9317 1206 93.3109 636.006 447.794
3814 0 96.298 13.6971 1319 88.4033 636.655 444.45
3815 0 100.209 12.6436 1267 87.7782 636.621 441.594
3816 0 102.22 13.0209 1331 86.5327 636.666 439.859
3817 0 104.236 13.5941 1417 90.957 636.75 437.836
3818 0 107.184 13.0896 1403 84.7498 637.195 436.624
3819 0 111.139 12.7048 1412 92.8357 637.137 435.616
3820 0 113.223 13.3365 1510 104.417 637.464 434.861
3821 0 116.373 12.8552 1496 98.5575 637.491 435.143
3822 0 120.147 12.801 1538 96.5748 637.848 431.389
3823 0 123.178 13.1842 1624 95.0634 637.709 431.148
3824 0 127.183 13.2958 1691 97.7747 637.837 428.828
3825 0 133.241 13.4568 1793 99.4155 638.519 426.554
3826 0 137.233 13.8232 1897 96.9009 638.342 424.275
3827 0 143.185 13.4721 1929 95.1597 638.385 422.069
3828 0 146.291 13.5278 1979 95.2006 637.844 419.176
3829 0 151.391 13.5477 2051 100.011 638.194 416.721
3830 0 157.342 13.0798 2058 93.6769 638.582 414.62
3831 1 86.1068 12.9142 1112 90.6574 639.168 450.407
3832 0 88.076 13.0115 1146 91.8447 639.281 449.182
3833 0 90.0722 13.3004 1198 85.4808 639.303 448.936
3834 0 94.1091 13.3568 1257 88.755 639.446 447.032
3835 0 96.227 13.1252 1263 92.2747 639.947 444.698
3836 0 101.158 13.7013 1386 80.767 639.631 443.597
3837 0 101.149 13.1489 1330 103.32 639.504 441.87
3838 0 106.197 14.6238 1553 94.5596 639.678 438.894
3839 0 107.248 13.8744 1488 100.036 639.676 439.36
3840 0 109.169 13.7035 1496 90.2767 639.515 437.833
3841 0 115.185 15.5315 1789 79.9072 639.97 433.605
3842 0 116.174 14.2459 1655 84.4598 639.998 434.438
3843 0 121.129 14.4969 1756 80.1452 640.145 431.285
3844 0 125.058 13.9775 1748 80.8398 640.168 430.656
3845 0 130.282 14.8754 1938 88.1306 639.934 425.553
3846 1 68.071 11.2823 768 91.8581 639.46 458.583
3847 0 71.186 12.1934 868 80.9136 639.876 457.234
3848 0 74.1131 12.2785 910 85.2418 640.158 456.87
3849 0 77.1704 12.2327 944 77.4968 640.146 455.303
3850 0 77.1243 12.7716 985 74.6406 639.826 453.356
3851 0 82.2115 12.8936 1060 72.7443 639.47 451.543
3852 0 85.347 12.5956 1075 76.8242 639.161 451.664
3853 0 85.1265 12.6987 1081 80.3904 639.226 450.037
3854 0 91.2591 14.552 1328 71.0926 639.514 444.956
3855 0 90.2041 12.8376 1158 78.7435 639.448 445.817
3856 0 96.3176 13.7358 1323 75.5865 639.163 443.761
3857 0 97.3188 12.9985 1265 73.4372 638.963 442.181
3858 0 98.1054 13.6486 1339 76.5444 638.797 441.236
3859 0 102.28 14.2256 1455 79.8309 639.063 437.922
3860 0 106.199 12.938 1374 74.31 638.761 437.029
3861 0 107.348 13.0696 1403 72.0912 638.418 433.795
3862 0 112.336 13.4685 1513 73.4851 638.452 433.652
3863 0 114.351 13.5547 1550 72.0458 638.269 431.099
3864 0 119.326 13.7188 1637 71.9462 638.072 430.066
3865 0 122.446 13.263 1624 75.8775 637.95 428.145
3866 0 125.229 13.4075 1679 73.7701 637.907 426.309
3867 0 131.309 13.4873 1771 74.5867 637.716 423.921
3868 0 135.27 13.0849 1770 75.0876 637.775 421.926
3869 1 72.2695 11.2911 816 72.636 637.131 455.099
3870 0 74.1437 12.4893 926 72.851 637.375 455.297
3871 0 74.1437 12.4893 926 156.824 637.375 455.297
3872 0 79.2086 12.3724 980 86.0684 637.838 453.031
3873 0 82.2825 12.7488 1049 77.8151 637.589 453.264
3874 0 82.1038 13.4099 1101 73.9827 637.126 452.057
3875 0 86.163 12.6272 1088 76.9494 637.062 451.563
3876 0 92.1931 15.4567 1425 72.407 636.538 446.383
3877 0 94.2101 14.0855 1327 75.0995 637.006 446.358
3878 0 96.3401 14.0648 1355 73.769 636.879 445.216
3879 0 97.3707 12.7554 1242 11.153 637.377 444.561
3880 0 100.233 12.7303 1276 88.4107 637.15 444.141
3881 0 104.273 12.9659 1352 87.3062 636.609 442.393
3882 1 54.029 11.4568 619 88.3037 637.641 467.045
