index division length width area intensity CMx CMy
2918 0 63.1642 13.4728 851 88.47 413.431 225.993
2919 0 63.094 13.8365 873 90.008 412.731 226.706
2920 0 65.0655 14.1703 922 89.5575 413.26 226.125
2921 0 67.1322 14.3448 963 89.4839 413.233 226.334
2922 0 69.1572 13.9682 966 86.6553 412.868 226.527
2923 0 71.0372 13.8097 981 92.3303 412.847 226.254
2924 0 71.0895 13.9683 993 91.4834 413.246 227.234
2925 0 72.1498 13.9848 1009 96.1457 413.684 227.241
2926 0 76.1908 13.7024 1044 93.6322 413.667 227.807
2927 0 76.1105 13.6643 1040 91.4154 412.907 228.417
2928 0 78.1798 13.4945 1055 93.4569 412.657 230.153
2929 0 80.0866 13.6477 1093 93.2242 412.801 230.207
2930 0 84.185 13.3516 1124 93.8238 412.149 231.335
2931 1 43.0564 8.38436 361 94.2992 412.945 253.784
2932 0 43.0501 9.66316 416 92.5457 413.139 253.815
2933 0 46.0665 9.55142 440 91.9955 411.648 255.514
2934 0 46.0568 10.7693 496 90.5202 411.655 256.909
2935 0 48.0122 10.8514 521 90.6084 412.073 257.353
2936 0 50.0196 11.5755 579 85.9706 411.997 258.853
2937 0 51.1401 11.2045 573 81.3578 412.689 260.565
2938 0 53.1281 11.877 631 81.2092 412.729 260.989
2939 0 53.0702 12.1537 645 81.7256 412.788 262.904
2940 0 55.0631 12.6945 699 81.6981 412.817 264.455
2941 0 59.0363 12.4839 737 81.0801 413.008 265.829
2942 0 60.1357 12.4053 746 83.6609 412.926 266.981
2943 0 60.0874 12.5151 752 91.9973 413.072 269.547
2944 0 64.0652 13.0492 836 89.2811 412.561 270.181
2945 0 67.1128 12.6205 847 101.725 412.673 271.656
2946 0 68.1339 12.4314 847 99.0177 412.642 274.259
2947 0 70.1116 12.6085 884 103.531 412.724 274.847
2948 0 73.1301 13.0316 953 102.726 412.866 276.749
2949 0 77.1908 12.9938 1003 101.058 412.343 278.058
2950 0 80.1244 13.4915 1081 98.1434 411.789 280.829
2951 0 83.1686 13.5388 1126 99.0178 411.868 282.302
2952 0 86.1141 13.6795 1178 97.8896 412.138 284.023
2953 0 89.2135 13.7199 1224 98.0196 412.239 284.887
2954 1 45.0463 9.34594 421 96.6485 412.941 310.781
2955 0 47.0713 9.39002 442 93.9457 412.873 313.695
2956 0 49.0159 10.8332 531 93.7872 412.508 315.808
2957 0 49.2622 12.1188 597 88.5209 411.342 318.749
2958 0 16.0015 16.061 257 64.5992 412.44 349.482
2959 0 18.0299 16.1398 291 62.0619 410.158 350.179
2960 0 72.2743 13.933 1007 70.5958 411.826 354.246
2961 0 81.8522 12.4126 1016 68.9026 411.041 360.636
2962 0 75.5409 15.5677 1176 69.1182 411.23 358.933
2963 0 75.3151 15.9331 1200 71.3142 410.953 359.598
2964 0 80.1265 14.5145 1163 78.7446 410.958 360.75
2965 0 75.1282 15.4802 1163 78.4927 410.641 361.063
2966 0 77.0701 16.3747 1262 68.5602 410.596 360.526
2967 0 77.2802 16.7313 1293 70.3882 410.664 361.794
2968 0 75.1902 17.356 1305 71.2912 410.678 359.384
2969 0 76.1796 15.8179 1205 75.839 410.422 359.934
2970 0 75.073 15.1719 1139 84.9421 410.178 360.247
2971 0 77.1235 14.587 1125 84.184 409.995 361.25
2972 0 76.1278 14.2918 1088 85.4274 410.176 362.785
2973 0 80.1178 13.3179 1067 88.6542 409.832 365.545
2974 0 82.2605 12.8494 1057 88.3491 409.482 368.591
2975 0 84.0968 12.7591 1073 86.1016 409.573 370.827
2976 0 87.0833 12.9416 1127 83.283 408.735 374.193
2977 0 89.09 12.8073 1141 88.177 409.386 376.544
2978 1 45.0133 10.0637 453 89.4856 409.099 404.137
2979 0 45.0726 10.9379 493 84.5822 407.927 408.673
2980 0 48.211 11.1178 536 89.3507 408.291 410.817
2981 0 53.0207 13.3155 706 76.2564 407.067 416.739
2982 0 50.097 11.857 594 83.5724 407.094 419.118
2983 0 53.1253 11.4258 607 84.0165 407.028 422.593
2984 0 54.1514 11.8002 639 81.1189 407.26 427.311
2985 0 55.1919 11.7409 648 82.0031 406.721 432.556
2986 0 58.1732 11.3626 661 81.8684 407.484 436.657
2987 0 58.1489 11.7113 681 82.9163 406.539 441.947
2988 0 62.2389 10.9578 682 79.0865 407.685 445.852
2989 0 64.1323 11.8349 759 80.2319 407.959 451.968
2990 0 66.3077 11.703 776 84.6946 407.937 457.68
2991 0 64.0885 11.7338 752 86.9122 407.303 461.221
2992 0 66.0416 11.5988 766 84.8825 407.476 459.681
2993 0 74.0725 10.3412 766 88.4086 407.641 457.341
2994 0 74.1474 10.1015 749 84.5394 407.547 458.354
2995 0 74.0819 11.4198 846 84.7695 407.527 456.481
2996 0 77.164 11.6375 898 83.0356 407.274 454.739
2997 0 78.2459 12.3201 964 81.9554 407.214 453.372
2998 0 83.2911 12.3903 1032 80.2461 407.565 451.504
2999 0 84.2793 12.0433 1015 85.5163 407.469 449.646
3000 1 48.1357 7.04259 339 91.8171 406.705 470
3001 0 48.1357 7.04259 339 118.912 406.705 470
3002 0 40.1498 7.52183 302 91.5861 408.281 469.189
3003 0 48.3921 9.71234 470 89 407.908 467.451
3004 0 50.254 10.2281 514 89.6206 408.245 466.035
3005 0 52.2837 10.443 546 91.8407 408.099 464.797
3006 0 56.0764 11.2882 633 87.9889 407.733 465.603
3007 0 56.0993 11.854 665 85.218 408.537 464.632
3008 0 58.1134 11.5292 670 87.4254 408.966 463.654
3009 0 60.0373 11.8926 714 89.7843 408.74 462.583
3010 0 63.0688 12.3357 778 84.3702 408.715 461.91
3011 0 64.1765 12.528 804 84.0759 408.098 460.458
3012 0 65.0996 12.4578 811 92.2626 408.102 459.612
3013 0 67.254 12.1926 820 92.8878 408.426 458.751
3014 0 70.2 12.7493 895 93.0994 408.322 457.715
3015 0 70.2129 12.9748 911 92.3348 408.144 457.431
3016 0 74.1613 12.5133 928 97.6767 408.523 455.831
3017 0 76.149 12.9089 983 100.706 408.375 453.79
3018 0 79.2168 12.4721 988 103.257 408.411 453.298
3019 0 81.1835 12.6627 1028 103.975 408.917 451.936
3020 0 83.1496 12.6519 1052 103.428 408.785 449.94
3021 0 87.2459 12.5507 1095 107.558 408.522 448.962
3022 0 88.1775 12.5996 1111 101.488 408.684 448.423
3023 0 91.1213 12.8071 1167 99.3153 408.701 447.198
3024 0 95.1387 12.8339 1221 99.0328 409.077 445.477
3025 1 50.0271 10.1545 508 99.9193 408.876 468.185
3026 0 52.0942 10.8649 566 92.0583 408.917 466.479
3027 0 55.0401 11.319 623 101.841 410.051 464.435
3028 0 54.0589 12.2459 662 97.8459 409.779 463.983
3029 0 57.0602 11.8471 676 101.506 409.429 462.78
3030 0 57.0619 12.0571 688 99.1381 409.719 461.717
3031 0 59.0521 11.7015 691 102.456 409.718 460.667
3032 0 61.1001 12.2258 747 102.479 409.756 460.26
3033 0 66.0647 11.8066 780 103.741 410.09 458.381
3034 0 66.1281 12.3246 815 101.452 409.988 456.901
3035 0 68.07 11.8114 804 100.777 409.952 456.403
3036 0 70.0721 11.9306 836 103.139 410.285 454.573
3037 0 72.1644 12.0697 871 107.568 410.41 452.842
3038 0 75.0533 12.3646 928 101.308 410.232 451.833
3039 0 76.0902 12.7218 968 98.5558 410.524 450.432
3040 0 78.071 12.2196 954 103.799 410.72 449.261
3041 0 81.0541 12.5472 1017 100.716 410.854 448.246
3042 0 84.2381 12.3222 1038 98.7437 411.753 446.758
3043 0 83.2034 12.6678 1054 102.288 411.45 445.086
3044 0 88.1256 12.6524 1115 96.7408 411.266 443.46
3045 0 91.2069 12.4004 1131 105.203 411.691 441.614
3046 0 94.1235 12.6536 1191 104.497 411.63 439.18
3047 0 96.1988 12.6405 1216 104.488 411.823 437.855
3048 0 100.299 13.2005 1324 101.676 412.026 437.708
3049 0 99.3193 13.2301 1314 107.751 412.205 436.344
3050 0 103.239 13.0668 1349 108.102 411.664 435.618
3051 0 107.217 13.3188 1428 107.001 411.487 434.006
3052 0 109.199 13.1503 1436 117.16 412.25 431.949
3053 0 113.27 12.7395 1443 114.132 411.579 429.639
3054 0 116.314 12.9134 1502 112.31 411.164 427.048
3055 1 60.11 9.88189 594 109.512 411.429 457.003
3056 0 61.0774 10.9042 666 116.225 411.335 456.278
3057 0 63.024 11.6781 736 108.971 412.071 455.625
3058 0 65.0687 11.9105 775 108.472 412.098 454.148
3059 0 68.052 11.5059 783 111.706 412.082 453.914
3060 0 69.0563 12.1205 837 110.714 411.828 453.125
3061 0 71.0794 12.2258 869 111.253 411.757 451.155
3062 0 74.1531 12.0696 895 106.629 411.236 451.078
3063 0 75.1386 12.244 920 113.826 410.56 451.471
3064 0 77.1614 12.5192 966 110.311 410.637 449.553
3065 0 79.1662 12.3664 979 111.851 410.872 448.759
3066 0 83.1855 12.1415 1010 109.035 410.808 447.64
3067 0 85.126 11.9117 1014 115.29 410.744 447.177
3068 0 87.1716 11.9764 1044 113.647 410.428 445.292
3069 0 91.258 11.7031 1068 109.981 409.918 443.642
3070 1 45.2262 8.91076 403 110.434 408.136 465.935
3071 0 47.2082 9.4687 447 107.237 408.275 466.434
3072 0 50.2242 9.65669 485 114.697 408.148 464.647
3073 0 50.0468 11.0896 555 110.025 409.503 464.368
3074 0 52.0521 11.1042 578 106.67 410.708 463.891
3075 0 53.028 11.0885 588 109.93 410.485 463.594
3076 0 54.0861 11.5372 624 112.271 409.776 462.125
3077 0 56.0789 11.0737 621 103.341 409.662 460.564
3078 0 59.0481 10.8048 638 105.572 409.298 460.859
3079 0 59.0956 10.9822 649 101.658 409.062 459.846
3080 0 61.1617 11.4451 700 98.9514 409.02 458.804
3081 0 64.167 11.2363 721 104.307 409.135 458.108
3082 0 64.1077 11.6835 749 98.8384 409.323 457.474
3083 0 67.1133 11.4135 766 103.077 409.176 457.332
3084 0 68.0738 11.2819 768 107.017 409.428 455.99
3085 0 71.0952 11.7167 833 102.677 409.631 454.653
3086 1 37.0696 8.33568 309 96.9515 409.029 472.783
3087 0 37.0143 7.75377 287 97.0767 408.226 472.408
3088 0 37.0344 8.20858 304 102.697 408.178 471.862
3089 0 38.023 8.46856 322 102.925 408.46 470.599
3090 0 40.0291 8.36891 335 105.827 408.612 470.955
3091 0 41.0096 8.0469 330 104.127 410.47 469.685
3092 0 44.0166 8.31505 366 95.0956 408.962 470.634
3093 0 44.0121 9.31562 410 96.1244 408.41 469.822
3094 0 46.0226 9.32151 429 95.5967 408.676 468.879
3095 0 46.0226 9.32151 429 131.653 408.676 468.879
3096 0 48.0198 10.5582 507 98.712 408.018 467.11
3097 0 49.0567 10.6611 523 99.5545 408.725 466.887
3098 0 49.0823 11.389 559 93.5242 408.311 466.911
3099 0 52.0839 11.1743 582 100.208 408.294 465.924
3100 0 50.1149 11.4138 572 96.278 408.537 464.703
3101 0 53.0555 11.3089 600 89.915 408.937 464.81
3102 0 57.0681 11.2147 640 90.0234 409.57 463.744
3103 0 57.07 11.8802 678 91.8201 409.754 462.873
3104 0 59.0957 11.5744 684 93.8436 409.633 461.899
3105 0 61.0583 11.8903 726 107.117 409.57 460.901
3106 0 62.0503 11.668 724 114.503 410.742 459.849
3107 0 63.0896 12.0147 758 106.433 410.263 459.323
3108 0 63.0662 12.6375 797 108.77 410.053 457.423
3109 0 69.0552 12.4393 859 105.267 410.555 456.716
3110 0 71.0474 12.8646 914 105.021 409.511 456.062
3111 0 71.0474 12.8646 914 150.658 408.511 456.062
3112 0 74.0339 13.0751 968 104.886 409.676 454.345
3113 0 77.0701 12.7416 982 99.613 409.832 452.581
3114 0 78.0452 13.0053 1015 99.7478 410.059 450.749
3115 0 81.0819 12.8759 1044 95.6695 410.072 449.135
3116 0 85.114 13.0883 1114 105.873 409.732 447.583
3117 0 86.0582 13.4328 1156 87.7327 410.275 445.443
3118 0 89.0419 13.05 1162 139.54 410.489 444.688
3119 0 91.0548 12.8933 1174 141.001 410.567 443.552
3120 0 94.0648 13.0655 1229 133.312 410.029 441.37
3121 0 96.1244 12.7959 1230 141.363 410.675 440.989
3122 1 53.0409 10.162 539 138.38 410.299 461.712
3123 0 54.082 11.6675 631 134.859 409.824 460.783
3124 0 56.0415 11.6878 655 127.551 410.84 459.124
3125 0 57.0427 12.1313 692 133.805 410.72 460.451
3126 0 59.0823 12.4234 734 134.909 410.728 459.828
3127 0 60.0431 12.6076 757 113.83 410.968 458.461
3128 0 62.0655 12.3901 769 124.906 411.532 457.599
3129 0 64.0287 12.5256 802 36.2282 411.776 455.787
3130 0 66.0309 12.6759 837 132.339 411.773 454.834
3131 0 67.04 12.7685 856 131.766 412.147 454.125
3132 0 68.0543 13.1513 895 124.017 412.017 451.487
3133 0 73.0975 12.5586 918 124.586 411.742 450.83
3134 0 73.0409 13.0475 953 112.137 411.832 450.399
3135 0 74.0572 12.8819 954 104.95 412.046 449.225
3136 0 77.1469 12.7549 984 108.697 411.663 448.129
3137 0 78.1268 13.2221 1033 105.633 412.13 446.827
3138 0 82.1921 12.9818 1067 108.461 411.131 446.393
3139 0 85.0617 12.826 1091 111.712 411.842 443.866
3140 0 87.1188 13.0626 1138 109.529 411.663 442.661
3141 0 88.1307 12.9013 1137 111.124 412.339 441.51
3142 0 94.205 13.0142 1226 110.811 411.855 439.594
3143 0 96.1245 13.2016 1269 104.1 411.84 437.491
3144 1 52.1302 10.1093 527 101.696 412.216 461.816
3145 0 55.1089 10.4702 577 101.274 412.386 460.556
3146 0 57.1146 11.153 637 101.568 411.766 460.485
3147 0 57.1146 11.153 637 147.686 410.766 460.485
3148 0 61.034 12.2063 745 98.647 412.768 458.416
3149 0 62.0616 12.117 752 100.363 412.88 457.997
3150 0 64.0391 12.102 775 96.1781 412.483 456.799
3151 0 67.1688 12.1336 815 90.2564 412.385 454.732
3152 0 68.023 12.3488 840 92.0357 412.185 453.542
3153 0 71.1408 12.2152 869 91.2543 412.529 453.299
3154 0 72.1715 13.0384 941 84.9065 412.624 451.408
3155 0 74.0258 12.7253 942 86.8811 412.378 449.739
3156 0 78.1479 12.7195 994 90.8129 412.213 449.61
3157 0 78.2005 12.6853 992 97.1754 412.002 448.401
3158 0 82.1385 13.2216 1086 91.3858 411.948 447.144
3159 0 84.0748 12.8933 1084 91.5572 411.814 446.05
3160 0 88.1517 13.0003 1146 90.1597 412.537 443.625
3161 0 89.1775 12.9853 1158 95.3662 412.155 441.707
3162 0 92.2831 12.5917 1162 96.7565 411.881 440.43
3163 0 94.142 13.0335 1227 94.4662 411.462 440.079
3164 0 98.1682 13.0592 1282 88.5187 411.946 439.637
3165 1 52.0435 10.2222 532 96.0846 412.378 463.539
3166 0 53.0148 11.2233 595 96.8487 412.417 462.938
3167 0 56.0244 11.6199 651 92.0061 412.596 461.336
3168 0 57.0453 12.1658 694 94.987 411.552 462.329
3169 0 57.0888 12.5243 715 94.3287 411.641 461.22
3170 0 60.0401 12.1752 731 93.8495 411.517 461.088
3171 0 61.0458 12.5971 769 92.5579 411.693 460.85
3172 0 61.0511 12.6779 774 92.5142 411.439 459.49
3173 0 63.0729 12.8581 811 90.2713 411.693 457.349
3174 0 67.1579 12.1505 816 88.4473 411.4 457.045
3175 0 70.0764 12.2866 861 88.6876 409.916 456.577
3176 0 71.0494 12.4843 887 92.177 410.828 454.724
3177 0 72.1106 13.0355 940 91.1713 410.163 453.94
3178 0 75.0767 12.5871 945 97.0518 410.746 452.877
3179 0 79.1832 12.3132 975 95.2933 410.536 451.978
3180 0 80.1531 12.7007 1018 96.3026 410.408 451.276
3181 0 83.1293 12.1979 1014 96.6647 410.166 449.8
3182 0 87.11 12.2144 1064 95.7359 410.014 449.637
3183 1 45.0326 9.34879 421 91.4727 410.993 469.242
3184 0 48.0274 9.30719 447 96.4631 410.564 467.971
3185 0 47.0474 9.56482 450 93.6356 410.68 467.478
3186 0 49.05 10.5606 518 82.334 410.921 466.527
3187 0 53.1068 11.4675 609 84.0246 410.353 465.232
3188 0 53.0342 11.1437 591 90.0457 410.176 466.173
3189 0 56.1276 12.044 676 88.932 409.769 464.234
3190 0 57.0972 11.7694 672 89.4807 409.786 463.592
3191 0 59.0473 11.4993 679 87.7202 410.056 461.972
3192 0 61.0424 11.3364 692 89.3801 409.89 461.545
3193 0 61.1108 11.7655 719 86.0042 409.677 461.019
3194 0 63.0908 11.4597 723 89.9876 409.44 460.249
3195 0 65.0888 11.6456 758 86.471 409.559 458.375
3196 0 68.0935 11.6017 790 87.2177 409.063 457.661
3197 0 68.1079 12.025 819 84.8107 408.531 457.506
3198 0 72.303 11.7699 851 89.0352 408.709 457.516
3199 0 73.2328 12.0984 886 85.807 409.223 456.722
3200 1 38.1038 9.29041 354 83.7938 409.624 474.277
3201 0 40.0809 9.55567 383 80.9504 410.013 473.01
3202 0 41.0508 9.91455 407 91.5553 410.531 473.479
3203 0 43.0206 11.0645 476 85.042 410.019 471.704
3204 0 44.0215 10.6766 470 91.2638 410.545 471.853
3205 0 46.0303 11.0362 508 87.9921 410.157 470.754
3206 0 47.028 11.5888 545 85.345 410.461 470.545
3207 0 48.083 11.2514 541 91.525 410.939 470.031
3208 0 50.0241 11.9942 600 83.4167 410.437 468.473
3209 0 52.0373 11.7608 612 82.9314 410.319 468.686
3210 0 52.0246 12.1865 634 81.5189 410.352 467.568
3211 0 54.0366 12.1399 656 77.1875 410.302 466.631
3212 0 55.0815 12.1093 667 81.1499 410.49 465.544
3213 0 56.0247 12.3517 692 81.7514 410.412 465.108
3214 0 58.0504 12.2997 714 81.3641 410.487 463.968
3215 0 59.0442 12.6007 744 81.6667 410.739 462.719
3216 0 61.0295 12.3383 753 80.5604 410.956 462.109
3217 0 63.0267 12.7089 801 79.0936 411.02 460.695
3218 0 64.0779 12.7501 817 80.8127 411.048 459.87
3219 0 66.1141 13.2347 875 84.3326 410.869 458.642
3220 0 68.0701 13.1335 894 81.2774 410.648 457.949
3221 0 70.0519 13.2045 925 82.9243 410.504 457.33
3222 0 73.0765 12.5348 916 82.7784 410.749 456.239
3223 0 75.085 12.679 952 81.0798 410.924 455.275
3224 0 76.1109 13.2044 1005 78.1721 411.175 453.047
3225 0 78.0627 12.8102 1000 78.008 411.413 452.656
3226 0 82.1416 13.0263 1070 84.7963 411.232 451.214
3227 0 83.1847 13.1515 1094 85.2057 411.186 450.139
3228 0 91.0717 15.5482 1416 74.3609 411.287 444.536
3229 0 89.0785 12.8201 1142 80.4159 410.604 446.835
3230 0 92.0737 12.8701 1185 79.4219 410.919 445.627
3231 0 94.1954 13.0261 1227 84.78 410.319 443.548
3232 0 97.0834 13.1433 1276 82.4412 410.917 442.638
3233 0 102.15 13.3137 1360 83.6147 411.136 440.631
3234 1 50.0592 11.1668 559 85.458 411.297 465.78
3235 0 51.0643 11.4366 584 84.7842 411.188 465.961
3236 0 53.1048 11.4679 609 83.046 411.796 463.154
3237 0 54.0821 12.2776 664 85.7319 411.748 463.889
3238 0 55.1404 12.713 701 83.3866 412.097 462.556
3239 0 57.0633 12.4248 709 83.2581 412.536 461.908
3240 0 58.1106 12.9581 753 84.7835 412.118 460.583
3241 0 60.0847 12.9317 777 85.2471 412.364 460.341
3242 0 61.1008 12.9949 794 84.0957 412.537 459.864
3243 0 62.0636 13.1156 814 79.9398 412.769 458.608
3244 0 65.0833 13.2753 864 81.9306 412.883 456.162
3245 0 65.0335 13.3162 866 79.9792 412.497 457.022
3246 0 68.0466 12.7266 866 82.5381 412.871 455.023
3247 0 70.0884 13.4687 944 79.6886 412.585 453.648
3248 0 71.0468 14.6664 1042 79.2889 412.901 451.705
3249 0 75.1039 13.3548 1003 88.0957 413.378 451.203
3250 0 75.0388 13.1399 986 90.9341 413.396 451.176
3251 0 78.0817 13.1657 1028 88.3268 413.805 448.633
3252 0 80.0579 13.2529 1061 91.3544 413.617 447.485
3253 0 82.0637 13.5261 1110 90.4739 413.218 446.466
3254 0 83.1176 13.2824 1104 88.2989 413.658 445.709
3255 0 86.1245 13.4108 1155 85.6632 413.565 444.116
3256 0 87.1001 13.4787 1174 87.7743 413.502 443.301
3257 0 90.1349 13.857 1249 90.6629 413.207 441.217
3258 0 92.0994 13.8763 1278 88.2692 412.962 440.228
3259 0 95.0993 14.3639 1366 90.7167 413.04 439.474
3260 0 99.0815 13.3728 1325 98.9962 413.129 438.061
3261 0 102.07 13.285 1356 98.913 412.986 436.398
3262 0 106.088 13.4039 1422 101.096 412.59 434.34
3263 0 110.109 13.0598 1438 94.7566 412.292 432.495
3264 0 112.112 12.7461 1429 90.93 412.451 429.887
3265 1 58.0218 12.2368 710 88.831 412.635 459.18
3266 0 59.0649 12.681 749 90.7517 412.219 459.146
3267 0 61.252 13.1751 807 88.5502 411.663 457.974
3268 0 63.1213 12.8958 814 89.7174 411.703 457.448
3269 0 65.1168 12.5467 817 90.9743 411.201 456.556
3270 0 69.0982 13.4446 929 85.3552 411.578 456.102
3271 0 72.0912 13.15 948 80.4641 411.631 454.536
3272 0 74.0756 13.1757 976 81.6865 412.001 451.418
3273 0 75.1149 13.1399 987 90.1277 411.251 451.205
3274 0 81.0985 13.0705 1060 92.7708 411.359 451.627
3275 0 81.066 13.5322 1097 90.8687 411.634 449.302
3276 0 86.1248 13.5733 1169 91.1343 412.411 447.511
3277 0 89.1463 13.1806 1175 94.4928 412.207 445.172
3278 1 44.012 11.5196 507 88.783 411.712 468.256
3279 0 47.0956 12.0606 568 81.9437 412.276 467.312
3280 0 48.0324 11.8878 571 83.317 412.485 467.331
3281 0 48.0422 12.6347 607 83.0972 412.051 466.109
3282 0 51.0748 12.3936 633 93.8294 411.49 465.446
3283 0 51.0409 12.5194 639 92.3099 410.969 464.701
3284 0 53.0393 12.5379 665 92.8827 411.159 464.576
3285 0 53.0717 12.794 679 92.0987 410.287 463.922
3286 0 55.0518 12.9151 711 94.5148 410.309 463.049
3287 0 56.0348 13.0455 731 94.212 410.618 462.973
3288 0 57.0299 12.9932 741 91.8731 411.04 462.394
3289 0 59.0785 13.0166 769 89.2614 410.626 461.852
3290 0 62.024 13.1078 813 89.187 411.284 461.16
3291 0 64.0494 13.068 837 89.0311 410.928 459.029
3292 0 66.0338 12.9479 855 86.924 410.895 459.288
3293 0 66.0375 12.3566 816 90.3676 410.8 456.001
3294 0 70.054 13.2326 927 87.7184 411.139 456.097
3295 0 72.0663 12.7799 921 90.3692 410.446 455.156
3296 0 75.0213 12.5698 943 88.5642 410.368 454.567
3297 0 77.0943 12.9452 998 90.2816 410.536 452.699
3298 0 78.0558 13.2597 1035 93.5005 410.403 451.654
3299 0 82.0692 13.318 1093 90.6029 410.513 450.631
3300 1 41.035 10.3326 424 91.6958 410.259 472.347
3301 0 44.02 10.6315 468 90.7885 410.047 470.816
3302 0 46.0069 10.8462 499 89.9579 409.846 470.172
3303 0 47.0266 11.738 552 86.6486 409.851 469.886
3304 0 49.0255 11.0351 541 88.5749 409.412 469.259
3305 0 50.0385 11.5111 576 90.6094 409.023 468.602
3306 0 49.0182 11.9344 585 90.1077 409.072 467.6
3307 0 41.0301 7.01924 288 95.3993 409.743 471.691
3308 0 38.0139 6.94483 264 95.7197 409.89 471.53
3309 0 49.1442 10.6218 522 93.069 409.843 465.284
3310 0 49.0391 10.5834 519 96.054 409.547 465.252
3311 0 61.0714 11.7567 718 90.5543 409.813 462.198
3312 0 63.1439 12.0202 759 86.78 409.136 462.497
3313 0 64.0591 12.6758 812 84.3276 409.095 460.797
3314 0 67.1184 12.0235 807 87.7683 409.239 460.441
3315 0 69.1011 12.6047 871 82.0057 408.994 458.874
3316 0 72.1298 12.7132 917 83.8811 409.449 458.775
3317 0 72.0898 12.7619 920 90.6315 409.036 456.88
3318 0 76.169 12.7217 969 88.2219 408.784 455.416
3319 0 77.2857 12.3697 956 94.5021 408.726 454.082
3320 0 80.1634 12.9985 1042 89.5173 409.132 453.361
3321 0 81.2051 12.8563 1044 89.8381 409.307 451.549
3322 1 53.1186 8.03862 427 93.4824 408.745 466.499
3323 0 45.0764 9.02912 407 93.0467 408.432 470.656
3324 0 46.0723 8.85565 408 83.2059 408.615 470.706
3325 0 44.0306 8.83476 389 82.982 409.075 468.774
3326 0 44.0527 9.21624 406 86.6404 409.507 468.281
3327 0 48.0196 10.5374 506 84.8597 409.271 468.243
3328 0 50.0376 10.9318 547 88.8336 409.029 466.046
3329 0 52.0302 12.2044 635 83.685 408.52 466.625
3330 0 55.1043 11.8684 654 83.792 408.846 466.878
3331 0 55.1043 11.8684 654 147.846 408.846 466.878
3332 0 58.0483 12.2829 713 84.0435 409.004 463.053
3333 0 59.0405 12.8386 758 81.529 409.078 462.828
3334 0 63.0684 12.4309 784 86.9056 409.367 461.577
3335 0 66.0861 12.2113 807 94.1115 409.561 460.418
3336 0 68.0461 12.4768 849 93.6961 409.667 459.038
3337 0 70.0704 12.3733 867 92.9066 410.339 458.016
3338 0 73.0738 12.2068 892 93.537 410.939 456.362
3339 0 73.0369 12.5827 919 89.5734 410.802 454.951
3340 0 78.0754 12.3598 965 91.4518 411.168 453.518
3341 0 79.0472 12.17 962 92.6882 411.246 451.818
3342 1 43.0303 10.4345 449 94.7884 411.114 469.405
3343 0 45.0269 11.0156 496 86.8165 411.054 468.163
3344 0 46.039 11.4468 527 86.1423 411.218 468.186
3345 0 47.1074 11.633 548 86.604 411.173 467.261
3346 0 50.0663 11.4648 574 87.8345 411.603 467.169
3347 0 50.0489 11.4488 573 94.281 411.548 466.504
3348 0 52.0258 12.1286 631 81.0808 412.117 464.067
3349 0 52.0478 11.8737 618 80.479 412.087 463.565
3350 0 53.031 12.1061 642 78.0794 412.103 462.227
3351 0 56.0307 12.1183 679 78.6009 412.09 462.409
3352 0 58.0417 12.0431 699 86.2876 411.886 461.352
3353 0 58.0475 12.1969 708 83.3079 412.494 460.403
3354 0 61.0433 12.3519 754 81.4231 412.179 459.744
3355 0 64.0266 12.6041 807 78.482 411.959 457.831
3356 0 66.0748 12.5161 827 82.9516 412.053 457.168
3357 0 67.034 12.4713 836 82.9761 412.16 455.998
3358 0 68.0918 12.909 879 80.7179 412.367 454.036
3359 0 70.0682 12.6876 889 85.5219 412.324 453.101
3360 0 74.0259 12.6307 935 87.9818 412.091 452.175
3361 0 76.0599 12.5296 953 84.0105 412.206 450.297
3362 0 78.0317 11.6363 908 82.2148 412.319 448.802
3363 1 38.0283 10.8603 413 85.2494 412.574 467.872
3364 0 42.0606 10.6037 446 79.0628 411.989 466.751
3365 0 43.2155 11.0377 477 78.5157 411.845 465.497
3366 0 45.0364 11.7239 528 84.7633 411.697 466.487
3367 0 46.0373 11.7731 542 86.2528 411.847 465.965
3368 0 46.0539 12.0728 556 84.8903 411.779 465.608
3369 0 48.0477 12.3419 593 88.2664 412.25 464.6
3370 0 49.0449 12.3356 605 84.6578 412.317 464.137
3371 0 49.0688 12.4927 613 85.2414 412.351 464.075
3372 0 50.1258 13.1669 660 87.0227 412.732 463.126
3373 0 52.0661 12.8683 670 89.3493 412.658 462.736
3374 0 53.1717 13.2401 704 92.7713 412.692 461.293
3375 0 54.0366 13.3798 723 94.2849 412.927 460.743
3376 0 56.1325 12.809 719 92.8136 412.73 460.06
3377 0 58.033 13.096 760 94.5658 413.08 458.933
3378 0 60.1215 12.8573 773 89.8603 412.753 458.278
3379 0 62.082 13.16 817 94.12 413.032 456.745
3380 0 63.1489 12.9218 816 89.2757 412.863 456.241
3381 0 65.2266 13.0315 850 88.7835 412.822 454.852
3382 0 66.2046 13.2921 880 88.2227 413.262 449.601
3383 0 69.233 13.144 910 89.1297 412.885 450.931
3384 0 70.144 13.7717 966 93.6863 413.077 452.802
3385 0 73.1087 13.2816 971 99.2224 412.594 451.178
3386 0 75.2448 13.4494 1012 103.025 412.722 450.686
3387 0 80.2849 13.6888 1099 100.13 413.086 449.626
3388 0 82.3075 13.7047 1128 102.004 412.798 447.15
3389 1 41.2304 11.7874 486 102.344 412.035 465.519
3390 0 43.2295 12.1214 524 99.6679 412.54 464.929
3391 0 43.172 12.7861 552 96.1504 412.793 466.944
3392 0 45.0258 12.615 568 96.0757 412.199 466.361
3393 0 47.0713 12.4067 584 99.2928 412.697 466.067
3394 0 48.0342 13.074 628 98.008 412.537 464.713
3395 0 50.0842 12.479 625 99.272 412.989 464.208
3396 0 51.0268 13.1696 672 100.979 412.744 463.588
3397 0 53.0884 13.129 697 97.5452 412.588 463.04
3398 0 55.0344 12.6466 696 100.644 412.624 462.234
3399 0 56.054 12.8626 721 102.269 412.198 461.182
3400 0 56.054 12.8626 721 161.933 411.198 461.182
3401 0 59.1502 13.6771 809 97.4227 411.721 458.917
3402 0 61.0804 13.0975 800 96.0675 411.215 458.31
3403 0 62.2208 13.8057 859 99.3644 410.875 457.156
3404 0 65.2629 13.392 874 105.154 410.872 455.53
3405 0 65.167 13.5958 886 108.112 410.865 454.985
3406 0 69.2746 12.9629 898 107.161 410.392 454.871
3407 0 70.199 13.4047 941 117.763 410.92 453.158
3408 0 72.2511 12.9548 936 116.897 410.362 452.506
3409 0 75.2913 13.5208 1018 107.883 410.448 451.607
3410 0 75.2913 13.5208 1018 160.698 411.448 451.607
3411 0 78.2385 13.919 1089 114.432 410.107 449.633
3412 0 82.194 13.456 1106 109.693 409.859 449.387
3413 1 45.0299 11.5479 520 107.506 410.104 468.329
3414 0 46.0477 11.4012 525 108.194 410.309 468.798
3415 0 48.1037 11.4752 552 102.232 410.797 468.107
3416 0 49.0433 12.7846 627 101.049 410 467.861
3417 0 50.0381 12.2107 611 99.2799 411.499 467.285
3418 0 51.1206 12.5585 642 106.291 411.291 467.483
3419 0 53.0358 12.8027 679 111.561 411.203 465.348
3420 0 56.0237 12.8338 719 107.663 410.989 465.51
3421 0 55.0819 12.9444 713 106.832 410.588 464.774
3422 0 57.0545 13.1629 751 109.571 410.956 464.711
3423 0 58.0301 13.0966 760 106.205 410.843 464.139
3424 0 61.1016 13.0929 800 102.11 410.768 462.655
3425 0 63.0469 12.7683 805 103.344 410.481 462.503
3426 0 63.0314 13.295 838 103.431 410.402 462.038
3427 0 66.0893 13.285 878 97.5558 410.638 460.879
3428 0 68.0805 13.1462 895 108.181 410.867 459.672
3429 0 70.0662 12.8593 901 110.935 410.524 459.529
3430 0 72.0372 13.5208 974 109.418 410.428 457.535
3431 0 76.1094 12.9682 987 108.469 410.67 456.2
3432 0 77.1562 13.0774 1009 103.76 410.45 455.896
3433 0 80.2341 13.1864 1058 108.738 410.13 454.125
3434 0 83.1935 13.4145 1116 116.927 409.638 452.266
3435 0 83.1929 13.667 1137 112.786 409.748 450.976
3436 0 88.2359 13.6792 1207 114.339 409.404 450.311
3437 0 90.2542 13.9827 1262 111.045 409.412 448.404
3438 0 93.2549 13.876 1294 115.183 409.139 446.829
3439 0 96.3178 14.0888 1357 112.534 409.229 445.249
3440 0 99.269 13.8613 1376 112.677 408.64 443.362
3441 0 103.304 14.104 1457 109.387 409.168 441.843
3442 1 52.1199 11.1474 581 109.327 408.94 467.849
3443 0 54.0385 12.047 651 105.335 409.283 466.874
3444 0 56.1827 12.228 687 102.508 408.277 466.371
3445 0 59.079 12.3563 730 100.981 409.197 464.786
3446 0 61.108 12.8134 783 98.198 408.609 464.056
3447 0 63.1142 12.4695 787 98.7192 409.25 462.062
3448 0 65.1354 12.758 831 94.0084 409.071 460.763
3449 0 66.1357 12.7616 844 99.2891 408.882 460.537
3450 0 69.1214 12.3985 857 95.853 408.888 460.809
3451 0 71.1157 12.6133 897 100.964 408.841 459.123
3452 0 73.1169 12.2817 898 103.506 407.682 457.541
3453 0 76.2965 12.4645 951 99.6993 407.912 455.447
3454 0 80.1566 12.4257 996 98.8444 408.403 453.688
3455 0 81.1705 12.9604 1052 95.7548 408.26 453.383
3456 1 40.1615 9.41199 378 96.3624 407.958 474.815
3457 0 41.1437 9.94076 409 97.9413 407.902 473.995
3458 0 43.106 10.5786 456 94.318 408.213 472.965
3459 0 45.0175 11.1956 504 93.1766 407.667 471.565
3460 0 47.1603 11.5563 545 89.2716 408.494 470.908
3461 0 47.1792 10.9582 517 89.8607 408.205 470.484
3462 0 48.1549 11.6499 561 85.0998 408.668 470.114
3463 0 51.1061 11.212 573 91.9372 408.579 469.08
3464 0 53.1135 11.2213 596 90.5604 408.208 467.923
3465 0 53.0865 11.8486 629 88.0032 408.256 466.69
3466 0 57.2683 11.7168 671 88.6632 408.577 465.11
3467 0 58.141 12.2117 710 85.5662 408.855 463.576
3468 0 58.0779 11.7773 684 83.5643 408.316 462.654
3469 0 60.1712 11.9659 720 83.8597 408.651 461.64
3470 0 63.1839 11.7751 744 89.9059 408.077 461.196
3471 0 64.2764 12.1195 779 90.4262 408.33 458.959
3472 0 68.2804 11.2477 768 87.8542 408.737 458.742
3473 0 69.1664 12.0145 831 84.4477 408.809 457.266
3474 0 70.3124 12.0605 848 86.6521 408.774 456.442
3475 0 75.3703 11.5563 871 85.2377 408.729 455.115
3476 0 77.3265 11.639 900 82.9989 408.619 453.431
3477 0 80.3091 11.2939 907 85.4399 408.717 451.699
3478 0 80.3091 11.2939 907 131.191 408.717 451.699
3479 1 43.0899 10.3272 445 81.9281 409.178 469.885
3480 0 44.0996 10.2495 452 80.6792 409.396 467.923
3481 0 47.1855 10.7448 507 71.5247 409.493 466.629
3482 0 49.1925 10.774 530 74.6491 409.543 466.774
3483 0 49.1512 11.6376 572 77.1206 409.327 466.227
3484 0 49.2729 11.6697 575 75.8296 409.607 465.993
3485 0 53.2036 11.3526 604 75.8974 409.952 465.414
3486 0 54.1148 11.2169 607 74.7216 410.254 463.239
3487 0 57.1912 11.9249 682 74.7801 410.252 462.287
3488 0 59.0683 11.8168 698 79.9269 409.872 462.648
3489 0 61.0541 11.3178 691 77.4616 409.711 460.421
3490 0 63.1047 12.0276 759 74.3241 410.315 458.817
3491 0 65.1337 12.1289 790 81.5114 410.737 457.743
3492 0 69.116 11.9654 827 78.5018 411.137 456.144
3493 0 70.2061 12.5345 880 78.0261 411.066 455.083
3494 0 73.1337 11.6909 855 80.2117 410.32 455.206
3495 0 73.1337 11.6909 855 143.949 411.32 455.206
3496 0 79.1251 12.158 962 75.8836 410.103 451.669
3497 0 81.2264 12.7299 1034 78.3598 410.458 450.431
3498 0 84.124 12.7193 1070 78.9654 410.715 448.572
3499 1 45.1424 10.4337 471 80.3524 411.777 468.658
3500 0 48.1506 10.2387 493 78.7018 411.686 467.501
3501 0 48.362 11.4139 552 78.0652 410.786 467.197
3502 0 49.29 12.0105 592 79.4476 411.688 466.595
3503 0 52.1302 11.8741 619 80.8142 411.439 464.654
3504 0 54.2283 11.6913 634 83 411.73 464.691
3505 0 55.1106 12.1574 670 81.1403 412.131 463.275
3506 0 59.1784 14.262 844 70.2998 411.632 462.018
3507 0 60.1351 12.6216 759 74.971 411.947 463.574
3508 0 59.1869 12.5873 745 74.3557 412.596 461.647
3509 0 63.2534 12.7108 804 78.7886 412.527 460.394
3510 0 63.2662 12.3447 781 80.0499 412.626 459.014
3511 0 64.3221 12.2975 791 84.5853 412.336 458.528
3512 0 67.3057 12.6141 849 80.1578 412.343 457.194
3513 0 69.379 12.5542 871 89.8301 412.334 455.859
3514 0 71.3067 12.7477 909 91.22 412.363 453.985
3515 0 74.3247 12.6338 939 90.2673 412.373 452.75
3516 0 74.3247 12.6338 939 146.488 412.373 452.75
3517 0 77.2003 12.5906 972 99.7315 412.537 449.73
3518 0 80.1859 12.5708 1008 103.721 412.569 447.025
3519 0 85.3165 12.9166 1102 98.2305 412.507 448.005
3520 1 44.2268 10.0618 445 88.8135 411.351 468.526
3521 0 44.341 10.532 467 96.2184 410.822 465.3
3522 0 45.3663 10.823 491 96.0061 410.627 465.819
3523 0 48.0875 11.0632 532 96.6598 411.675 467.336
3524 0 48.1198 11.3051 544 96.4706 411.779 467.289
3525 0 52.0947 11.3255 590 101.278 412.205 464.917
3526 0 52.1541 10.5649 551 108.388 412.234 463.167
3527 0 55.1647 11.5291 636 101.643 412.465 463.079
3528 0 57.1412 11.4453 654 99.1269 412.352 462.939
3529 0 57.1412 11.4453 654 148.728 412.352 462.939
3530 0 60.0524 11.3901 684 110.857 412.294 461.404
3531 0 61.0994 11.7841 720 112.085 412.286 460.696
3532 0 64.1237 11.8677 761 111.859 411.585 459.633
3533 0 65.1288 11.8227 770 108.245 411.636 458.695
3534 0 65.1072 12.1492 791 106.236 410.69 458.668
3535 0 69.0992 11.9249 824 105.393 410.574 457.545
3536 0 72.2367 12.5559 907 106.239 410.772 455.856
3537 0 72.0836 12.9572 934 105.135 411.665 454.76
3538 0 75.0875 12.5986 946 111.115 411.425 453.5
3539 0 78.1299 12.7736 998 109.632 411.334 453.223
3540 0 80.1315 12.467 999 101.34 411.247 451.212
3541 0 82.1037 12.1554 998 106.943 411.222 450.584
3542 0 87.2757 13.9329 1216 101.762 410.641 447.301
3543 0 89.2263 13.18 1176 105.449 410.872 447.24
3544 0 91.2623 12.875 1175 106.726 410.385 446.683
3545 0 93.4674 12.8494 1201 104.141 410.221 446.142
3546 0 97.4603 13.072 1274 104.366 409.711 444.013
3547 1 52.3085 11.4513 599 106.775 410.277 466.603
3548 0 53.0957 12.0537 640 105.722 410.214 465.683
3549 0 54.0831 12.5917 681 100.448 410.094 465.078
3550 0 56.1887 12.7606 717 103.35 409.649 466.102
3551 0 58.1275 12.5414 729 106.486 409.901 465.702
3552 0 60.2971 12.1731 734 107.77 409.67 463.456
3553 0 62.0603 12.8262 796 105.431 409.891 462.485
3554 0 63.1702 13.1233 829 105.241 409.642 462.443
3555 0 65.1683 13.0278 849 109.084 410.06 461.962
3556 0 65.1707 12.6591 825 106.599 409.51 458.566
3557 0 67.1821 12.5629 844 109.993 409.526 457.598
3558 0 72.2168 15.0381 1086 105.678 409.547 455.522
3559 0 74.3369 13.3985 996 103.827 409.462 457.128
3560 0 74.3632 13.8375 1029 109.372 409.111 456.121
3561 0 79.3481 12.7791 1014 109.562 409.533 454.825
3562 0 83.3583 12.6202 1052 118.287 409.034 454.885
3563 0 85.4008 13.2083 1128 112.76 408.606 452.608
3564 0 87.3697 13.1167 1146 112.868 408.898 451.586
3565 0 90.1509 13.4219 1210 120.611 409.561 450.679
3566 0 95.2758 13.4872 1285 121.124 409.279 448.232
3567 1 49.4964 11.617 575 122.703 407.661 469.231
3568 0 52.1019 12.0917 630 114.403 409.548 468.602
3569 0 52.0913 12.0558 628 108.667 409.771 469.85
3570 0 53.0331 12.5016 663 112.608 409.76 467.661
3571 0 56.1498 11.9858 673 111.695 409.663 467.431
3572 0 56.1219 12.2412 687 111.144 410.114 465.211
3573 0 58.0511 12.3856 719 107.559 409.601 464.796
3574 0 59.0579 12.9534 765 104.191 409.805 463.102
3575 0 62.0328 12.4934 775 107.083 410.255 462.583
3576 0 63.0271 12.8516 810 104.335 410.695 461.44
3577 0 65.0898 13.0896 852 107.383 410.653 460.559
3578 0 67.0356 12.6202 846 108.34 410.186 459.271
3579 0 69.1109 12.6174 872 102.164 410.651 456.782
3580 0 71.0953 12.6731 901 105.441 410.789 456.662
3581 0 74.0605 12.7058 941 108.045 411.032 454.516
3582 0 75.1274 13.0312 979 106.968 410.422 453.964
3583 0 79.0452 12.5624 993 102.789 410.68 453.108
3584 0 81.047 12.573 1019 103.138 409.525 451.429
3585 0 84.0278 12.9243 1086 99.4033 409.687 449.885
3586 0 87.0966 12.2967 1071 99.9253 409.325 449.206
3587 0 88.0609 13.0819 1152 98.1059 409.472 447.809
3588 1 43.0511 11.2889 486 97.6584 409.44 469.543
3589 0 47.0463 11.6268 547 97.362 409.534 468.45
3590 0 49.2983 11.3391 559 95.7263 411.111 466.011
3591 0 50.0227 11.5947 580 99.8655 409.817 467.362
3592 0 50.0288 11.9131 596 92.896 409.628 467.027
3593 0 53.0222 11.7121 621 93.5459 409.623 465.351
3594 0 55.0081 13.8707 763 84.5242 409.924 463.402
3595 0 55.0696 11.9667 659 93.2701 410.071 464.536
3596 0 55.0616 12.4043 683 88.6281 410.031 463.548
3597 0 57.059 12.3031 702 89.1838 410.195 463.269
3598 0 59.0207 12.4024 732 86.3005 409.94 462.123
3599 0 61.1071 12.5681 768 87.2839 411.242 460.46
3600 0 65.0337 14.9615 973 81.6927 410.692 458.684
3601 0 65.0551 13.2964 865 89.1387 410.671 458.778
3602 0 68.0214 12.452 847 94.6057 410.68 458.139
3603 0 69.0827 12.5212 865 92.7642 410.754 456.82
3604 0 72.132 12.8098 924 90.0942 411.68 455.26
3605 0 76.0666 12.5679 956 92.6872 411.842 453.937
3606 0 79.1513 12.2045 966 89.2619 412.355 451.016
3607 0 81.2123 12.4735 1013 92.4344 412.329 450.689
3608 1 41.0532 10.0358 412 86.4854 412.687 470.437
3609 0 42.043 10.2276 430 84.4837 412.267 470.884
3610 0 45.0769 11.0034 496 82.1835 411.161 469.617
3611 0 44.0594 11.5299 508 82.0315 411.909 469.453
3612 0 44.0594 11.5299 508 148.5 412.909 469.453
3613 0 47.1208 11.3113 533 89.4409 413.285 467.805
3614 0 49.1243 11.5829 569 86.2355 413.211 466.438
3615 0 51.0272 11.7976 602 85.6329 414.153 465.052
3616 0 54.0676 11.5041 622 83.508 413.206 464.936
3617 0 55.2043 11.8107 652 81.8558 412.37 464.656
3618 0 57.1223 12.1144 692 82.0116 412.715 462.613
3619 0 56.1638 12.0362 676 87.6376 412.571 462.775
3620 0 59.153 12.1887 721 89.9348 412.411 462.14
3621 0 62.1583 11.8086 734 80.5899 411.856 461.148
3622 0 62.1028 12.3827 769 93.5657 412.182 459.003
3623 0 63.1236 12.024 759 95.1686 412.306 457.895
3624 0 67.2165 11.7828 792 96.846 412.332 456.644
3625 0 70.1882 11.5689 812 96.984 412.272 455.966
3626 0 73.2416 12.2608 898 91.5067 411.977 455.72
3627 1 38.036 9.14923 348 101.17 411.468 471.351
3628 0 41.0213 9.6779 397 95.6297 411.073 470.645
3629 0 42.0424 9.77585 411 102.071 411.007 470.08
3630 0 42.0625 10.4368 439 95.7882 410.932 470.702
3631 0 43.0914 10.8838 469 90.693 412.412 466.593
3632 0 45.1907 10.8429 490 86.798 412.055 466.555
3633 0 47.1543 11.0064 519 80.1541 412.135 465.956
3634 0 50.0347 11.492 575 84.4661 411.718 466.464
3635 0 50.0982 11.7369 588 85.085 410.374 465.158
3636 0 52.0985 11.8622 618 89.7298 411.22 464.487
3637 0 51.1157 11.7772 602 88.5581 411.291 464.45
3638 0 56.095 13.0493 732 81.8238 409.505 462.351
3639 0 56.095 13.0493 732 135.637 409.505 462.351
3640 0 57.0789 12.2988 702 89.9316 410.283 462.952
3641 0 59.1266 12.0927 715 93.5944 410.424 462.46
3642 0 59.0989 12.2845 726 92.0207 410.223 461.784
3643 0 63.063 12.4796 787 94.1334 410.675 459.537
3644 0 64.0898 12.4513 798 90.6955 410.842 458.563
3645 0 67.0534 12.3185 826 97.5109 411.608 457.18
3646 0 69.0963 12.4754 862 98.4176 411.927 456.814
3647 0 72.0859 12.5683 906 97.0497 412.334 454.425
3648 0 73.1035 13.1868 964 97.4398 411.843 453.818
3649 0 75.1391 12.9493 973 95.0709 411.96 453.334
3650 0 79.1378 13.0532 1033 95.2362 411.453 452.013
3651 1 41.114 9.41285 387 93.8708 411.915 471.881
3652 0 44.0604 9.9636 439 91.3645 411.829 470.579
3653 0 45.0768 10.3823 468 93.9936 411.857 469.498
3654 0 47.0396 11.012 518 92.8726 410.371 469.716
3655 0 48.0254 11.7021 562 88.1263 410.518 468.564
3656 0 50.0546 11.6073 581 88.4802 411.48 468.499
3657 0 52.0397 11.7218 610 88.5377 411.087 467.543
3658 0 54.0393 12.1393 656 88.3369 411.21 466.104
3659 0 54.0393 12.1393 656 147.665 411.21 466.104
3660 0 56.0917 12.0695 677 88.3811 411.043 466.185
3661 0 59.0736 12.1205 716 85.5684 410.518 464.169
3662 0 60.0501 11.9234 716 87.0684 410.705 464.07
3663 0 69.1706 17.305 1197 65.7552 410.911 459.061
3664 0 75.1813 16.5201 1242 75.6779 410.99 456.466
3665 0 72.2044 17.7136 1279 78.4746 410.729 456.495
3666 0 75.1876 17.3965 1308 75.4526 410.975 455.089
3667 0 76.0809 17.4288 1326 75.3643 410.861 455.635
3668 0 77.1069 17.3785 1340 76.0537 410.869 455.166
3669 0 76.0657 16.236 1235 80.2866 410.755 455.032
3670 0 77.0861 15.6578 1207 81.7713 410.387 454.657
3671 0 76.0794 14.7477 1122 81.6426 410.528 455.268
3672 0 78.0588 13.3489 1042 83.6593 410.349 455.353
3673 0 81.1172 13.351 1083 89.891 409.933 453.771
3674 0 83.1589 13.865 1153 86.9167 410.069 451.434
3675 0 86.0867 13.0682 1125 88.9778 410.604 450.853
3676 0 88.0514 13.0265 1147 86.7158 410.409 448.829
3677 0 93.2114 13.0242 1214 87.4358 410.577 447.552
3678 1 48.015 10.3509 497 84.9155 410.825 470.308
3679 0 50.0279 10.734 537 91.7914 410.534 468.108
3680 0 53.0492 10.5185 558 91.3943 410.758 467.466
3681 0 54.1622 11.9271 646 88.0619 409.136 466.808
3682 0 56.0307 11.5294 646 85.1625 411.127 465.302
3683 0 57.0213 11.9429 681 86.0147 410.721 464.54
3684 0 59.0214 11.7754 695 88.4532 410.643 463.224
3685 0 60.0419 12.5745 755 85.5166 410.91 461.421
3686 0 63.023 11.8528 747 87.7537 410.821 460.809
3687 0 64.0535 12.1617 779 83.8678 411.23 459.578
3688 0 70.0692 13.6722 958 84.4916 411.363 455.807
3689 0 70.0634 12.5886 882 92.1361 411.099 455.993
3690 0 70.0741 12.2584 859 91.7788 411.268 455.313
3691 0 73.0497 12.4025 906 92.7263 411.347 453.907
3692 0 76.0768 12.1588 925 97.3622 411.909 452.747
3693 0 80.0914 14.0714 1127 88.1739 411.428 448.418
3694 0 82.0804 12.9264 1061 95.5259 411.069 448.489
3695 0 83.1684 13.0218 1083 96.0979 411.191 447.206
3696 0 86.1729 11.9991 1034 99.675 410.632 446.272
3697 1 43.1169 9.25391 399 100.173 412.013 468
3698 0 42.0649 10.4363 439 102.613 411.934 468.319
3699 0 47.098 10.1278 477 101.96 412.08 465.551
3700 0 48.0765 10.9201 525 97.6724 412.472 465.526
3701 0 49.032 11.5843 568 97.838 412.859 465.104
3702 0 50.1036 10.6978 536 97.8825 413.364 464.903
3703 0 53.0507 10.8198 574 95.8624 413.206 462.669
3704 0 53.0643 11.3259 601 95.5391 413.115 461.374
3705 0 56.0613 11.7372 658 97.2523 411.954 460.201
3706 0 57.1222 11.4666 655 92.7267 412.122 460.583
3707 0 59.0584 11.4294 675 88.5393 412.055 460.08
3708 0 59.065 11.9868 708 97.3037 412.136 459.225
3709 0 60.1478 12.0869 727 93.7579 412.42 458.184
3710 0 66.0585 11.7169 774 96.1098 413.001 456.468
3711 0 65.1345 11.9292 777 100.236 412.589 456.309
3712 0 68.1154 11.686 796 97.9221 412.281 455.858
3713 0 70.1276 12.3204 864 101.346 412.949 453.992
3714 0 74.1085 12.1983 904 99.8916 412.607 452.214
3715 0 77.1452 12.2107 942 98.104 411.989 451.513
3716 0 79.1259 12.3727 979 94.4198 412.219 451.493
3717 0 80.1941 12.2328 981 94.3109 412.775 450.62
3718 0 84.1334 12.4564 1048 87.9933 412.572 447.48
3719 0 81.1286 11.6482 945 91.1005 412.814 447.119
3720 0 90.159 12.5445 1131 85.7692 412.929 444.54
3721 1 48.0965 10.271 494 84.1397 413.302 466.071
3722 0 50.3219 11.3469 571 80.9229 413.427 464.618
3723 0 52.3506 11.6904 612 79.6585 412.745 461.405
3724 0 54.1801 11.4249 619 81.8449 413.816 463.95
3725 0 56.0917 12.4082 696 82.5848 413.483 461.836
3726 0 57.0579 12.0404 687 84.1164 413.523 462.338
3727 0 58.069 12.2957 714 88.1639 413.396 461.873
3728 0 60.0226 12.1454 729 83.0137 413.359 460.882
3729 0 61.0303 12.6331 771 93.8677 413.124 459.794
3730 0 66.0774 15.1943 1004 87.5707 412.659 456.54
3731 0 65.0823 13.2755 864 98.2674 412.766 459.648
3732 0 68.0616 13.1205 893 97.299 412.608 457.943
3733 0 68.1468 13.1481 896 93.0647 412.549 455.867
3734 0 71.1978 12.8656 916 84.083 411.901 455.07
3735 0 72.1587 13.1654 950 93.3558 411.718 453.611
3736 0 76.2371 13.0907 998 88.6082 411.635 450.758
3737 1 38.3666 9.46135 363 89.6501 410.972 469.879
3738 0 39.2433 10.4222 409 86.5159 410.971 469.509
3739 0 40.1394 11.2358 451 84.1663 410.956 469.563
3740 0 43.1936 11.5758 500 79.094 411.07 468.018
3741 0 43.101 12.0183 518 77.9614 411.264 469.228
3742 0 46.1395 11.6386 537 86.1192 410.885 467.06
3743 0 47.072 11.5355 543 83.6575 411.142 466.727
3744 0 48.1 11.7464 565 78.6655 410.632 465.49
3745 0 51.1444 11.8684 607 78.0807 410.512 465.168
3746 0 50.1301 12.0486 604 75.25 410.32 464.926
3747 0 52.0898 12.2097 636 72.5582 410.179 464.648
3748 0 54.1515 12.3173 667 77.4573 409.472 464.117
3749 0 56.0803 12.5356 703 89.027 409.459 463.34
3750 0 55.0679 12.8387 707 93.8303 409.917 462.716
3751 0 58.1015 12.2544 712 84.3947 409.778 462.177
3752 0 60.0634 12.4535 748 87.5562 410.031 460.953
3753 0 61.0953 12.4887 763 86.5124 409.832 459.248
3754 0 63.1292 12.8784 813 85.166 409.899 458.608
3755 0 56.0532 9.68722 543 92.3683 410.009 462.389
3756 1 34.0398 8.34317 284 91.2887 409.894 472.651
3757 0 32.0615 7.76631 249 93.9197 409.723 471.639
3758 0 35.0664 8.3841 294 93.4864 410.031 472.252
3759 0 39.1216 7.69396 301 93.1063 410.193 471.113
3760 0 39.157 9.06606 355 91.3859 409.938 470.411
3761 0 41.2232 9.84882 406 90.2463 409.84 470.554
3762 0 42.2283 9.92226 419 86.5131 409.878 470.067
3763 0 43.2809 10.8824 471 89.7282 409.934 470.429
3764 0 47.1802 11.3607 536 95.6399 409.651 469.506
3765 0 47.0544 11.7098 551 99.2849 409.956 469.739
3766 0 50.081 11.8009 591 104.848 409.932 467.387
3767 0 50.0865 11.8195 592 102.816 410.243 465.488
3768 0 51.2272 11.654 597 108.333 409.898 465.169
3769 0 54.0741 12.3904 670 105.684 410.106 465.842
3770 0 55.1449 12.3855 683 106.574 409.687 465.165
3771 0 56.1495 12.5914 707 106.615 409.62 464.337
3772 0 61.2656 12.7967 784 98.9681 410.091 463.24
3773 0 60.2213 12.753 768 105.034 410.256 462.255
3774 0 64.1817 12.6672 813 100.117 409.786 460.993
3775 0 64.0957 12.2629 786 102.112 409.541 458.356
3776 0 68.1822 13.0093 887 99.097 409.484 458.546
3777 0 71.1283 13.4827 959 96.5256 409.13 457.49
3778 0 72.2151 13.0721 944 100.648 409.151 457.32
3779 0 74.3409 12.7117 945 101.811 408.894 457.115
3780 0 76.4734 12.658 968 105.206 407.866 454.027
3781 0 80.3328 12.9959 1044 102.262 408.073 454.069
3782 0 83.2666 13.1385 1094 97.5155 407.626 452.806
3783 0 86.2662 13.0294 1124 97.1673 407.979 451.688
3784 0 91.2527 14.1475 1291 96.4144 408.205 448.655
3785 1 48.0315 12.4085 596 115.98 408.911 469.896
3786 0 49.0495 12.0898 593 118.18 408.101 469.201
3787 0 50.0569 12.5257 627 115.378 407.656 467.525
3788 0 51.095 11.919 609 115.059 408.046 466.383
3789 0 53.0598 12.1184 643 114.148 407.757 466.002
3790 0 55.0995 13.1762 726 100.266 408.647 465.935
3791 0 57.0475 12.586 718 99.5794 408.173 465.603
3792 0 60.0622 12.8533 772 90.4093 408.304 465.649
3793 0 63.06 12.718 802 101.483 407.839 465.022
3794 0 65.0826 13.1679 857 100.081 408.107 463.583
3795 0 64.1263 13.6293 874 99.2025 408.728 461.57
3796 0 64.1263 13.6293 874 161.664 409.728 461.57
3797 0 68.08 12.8231 873 102.773 408.371 458.115
3798 0 70.1817 12.4249 872 113.032 408.558 457.175
3799 0 73.2589 13.4455 985 111.905 409.209 456.138
3800 0 76.1015 13.3506 1016 106.599 408.807 456.991
3801 0 79.1657 13.756 1089 113.644 409.078 454.967
3802 0 81.0616 13.6686 1108 118.227 408.672 453.927
3803 0 82.0305 13.6291 1118 109.788 408.947 451.425
3804 0 87.0769 13.6546 1189 111.302 408.631 450.616
3805 0 88.0678 13.9211 1226 110.462 408.553 448.31
3806 0 91.0614 14.0235 1277 109.103 408.513 446.414
3807 0 96.094 13.6429 1311 105.027 408.471 446.05
3808 0 100.054 14.0624 1407 106.935 408.853 443.147
3809 1 53.1533 10.592 563 117.195 409.044 466.373
3810 0 53.1479 11.0446 587 114.903 408.826 464.051
3811 0 52.098 11.5743 603 109.897 408.423 463.425
3812 0 57.0493 12.0773 689 106.554 409.035 463.425
3813 0 60.0682 12.1528 730 104.49 408.921 463.497
3814 0 60.0404 12.9912 780 100.609 409.591 460.785
3815 0 61.1502 12.7228 778 98.919 409.587 460.797
3816 0 64.0853 12.8735 825 97.3733 409.968 458.428
3817 0 66.0778 12.5156 827 104.619 410.203 458.035
3818 0 66.1533 13.1815 872 95.5505 410.526 456.22
3819 0 68.0998 13.2159 900 103.714 410.449 456.043
3820 0 69.1144 12.9785 897 119.242 410.794 454.52
3821 0 72.0574 13.0313 939 108.739 410.49 455.164
3822 0 75.0876 12.8517 965 107.761 410.625 452.314
3823 0 76.1169 12.9538 986 107.159 410.525 452.54
3824 0 77.0986 13.7357 1059 109.157 410.694 451.993
3825 0 82.1016 12.9352 1062 113.871 411.041 449.481
3826 0 84.0804 13.2135 1111 111.953 410.91 448.353
3827 0 84.0961 13.8175 1162 110.081 410.869 446.543
3828 0 88.0901 13.5316 1192 110.793 410.388 446.142
3829 0 91.1243 13.5529 1235 117.096 410.487 444.883
3830 0 94.0849 13.9023 1308 108.212 410.205 443.294
3831 0 95.1129 14.1411 1345 108.701 410.817 441.027
3832 0 100.085 13.1488 1316 113.983 410.277 439.634
3833 0 102.145 13.5689 1386 105.54 410.398 438.478
3834 0 107.195 14.1984 1522 107.89 410.502 437.118
3835 0 109.186 14.0586 1535 110.833 411.025 434.787
3836 0 112.159 13.9623 1566 100.503 410.779 434.157
3837 0 116.212 14.3273 1665 122.551 410.795 431.105
3838 0 122.184 14.1917 1734 118.478 410.994 428.721
3839 0 127.171 13.8553 1762 120.838 411.068 427.814
3840 1 65.0641 11.4195 743 106.646 411.303 455.331
3841 0 70.045 11.7781 825 97.2715 412.31 454.533
3842 0 72.0529 12.0606 869 97.458 412.403 452.781
3843 0 76.0411 12.2565 932 92.4989 412.516 452.789
3844 0 78.119 12.1737 951 92.2829 412.474 451.842
3845 0 80.1071 12.9701 1039 102.667 412.067 449.332
3846 0 80.1215 12.6558 1014 103.099 412.353 448.527
3847 0 85.1768 12.2451 1043 92.1544 412.098 447.406
3848 0 90.2131 12.0714 1089 97.663 412.312 445.079
3849 0 90.3539 12.4842 1128 88.5461 412.316 444.719
3850 0 94.1669 12.9132 1216 84.5929 412.076 442.178
3851 0 97.2616 12.6257 1228 83.9959 411.742 440.346
3852 0 98.2014 12.8715 1264 88.4802 411.593 439.277
3853 0 104.245 12.298 1282 91.9992 411.845 437.556
3854 0 106.298 12.9165 1373 85.3278 411.913 435.315
3855 1 59.2292 9.96131 590 88.4068 411.378 459.346
3856 0 59.1539 11.2757 667 85.3658 411.075 458.82
3857 0 62.2422 11.4713 714 81.0364 410.653 457.05
3858 0 65.067 11.8493 771 83.3372 411.997 456.678
3859 0 66.0198 12.0873 798 87.6015 411.751 456.221
3860 0 68.0477 11.874 808 79.7166 411.469 455.047
3861 0 69.091 12.2737 848 77.0755 411.4 453.379
3862 0 73.1172 12.0902 884 80.0769 411.533 452.679
3863 0 75.0629 12.2164 917 77.4406 411.224 450.624
3864 0 77.058 12.1986 940 78.1819 411.218 450.511
3865 0 80.1393 12.3285 988 82.5779 410.91 449.133
3866 0 81.1485 12.8407 1042 79.9818 410.939 448.853
3867 0 82.2327 12.7686 1050 82.4286 410.688 448.255
3868 0 86.1665 12.766 1100 82.15 410.653 446.36
3869 0 89.1011 12.4241 1107 80.6892 410.425 445.179
3870 0 92.1632 12.3802 1141 81.9071 410.348 444.503
3871 0 92.1632 12.3802 1141 141.06 410.348 444.503
3872 0 97.2729 12.7888 1244 96.8947 409.689 440.518
3873 0 101.324 13.1657 1334 86.9033 409.374 439.579
3874 0 103.335 12.7837 1321 84.1022 409.182 438.881
3875 0 107.398 13.3056 1429 84.8244 409.19 437.996
3876 0 110.316 13.1803 1454 87.9484 408.536 434.997
3877 0 114.266 13.5999 1554 85.9672 409.192 431.504
3878 1 62.2919 11.2214 699 82.5122 408.827 459.853
3879 0 63.1713 12.2841 776 11.7861 409.651 459.263
3880 0 66.1288 11.8557 784 93.1365 410.429 458.227
3881 0 68.1755 12.8492 876 91.5194 409.871 458.74
3882 0 72.0586 12.3233 888 92.6959 410.098 458.009
