index division length width area intensity CMx CMy
3216 0 68.1249 13.8716 945 116.731 1099.63 284.28
3217 0 70.1099 13.2791 931 111.924 1099.53 283.626
3218 0 72.1449 13.459 971 117.571 1099.49 284.777
3219 0 73.0568 13.291 971 115.935 1099.4 285.013
3220 0 76.1531 13.8799 1057 112.795 1098.93 286.774
3221 0 80.1359 13.8016 1106 104.499 1099.35 286.653
3222 0 81.0956 13.7862 1118 113.78 1099.29 287.081
3223 0 82.072 13.7806 1131 115.162 1099.57 287.584
3224 0 87.1462 13.3913 1167 109.498 1099.56 287.634
3225 0 91.1285 13.7279 1251 111.133 1100.13 289.95
3226 0 94.1155 14.2697 1343 113.803 1100.03 290.342
3227 0 97.1467 13.9789 1358 114.133 1100.06 291.571
3228 1 49.0487 11.4172 560 110.15 1099.48 315.932
3229 0 48.0674 11.4631 551 113.907 1099.15 317.967
3230 0 53.0925 11.6589 619 112.289 1099.86 319.641
3231 0 55.1391 11.1536 615 110.556 1099.59 321.92
3232 0 56.0501 11.9357 669 107.073 1100.36 323.9
3233 0 58.1026 12.0821 702 117.943 1099.84 325.321
3234 0 60.0378 11.8259 710 111.463 1100.32 326.799
3235 0 57.0637 11.7938 673 116.158 1100.41 328.504
3236 0 57.0637 11.7938 673 119.475 1101.41 328.504
3237 0 64.1157 12.2123 783 103.363 1100.33 332.705
3238 0 66.0638 12.4274 821 110.96 1100.35 334.074
3239 0 68.0584 12.2101 831 110.61 1100.6 335.415
3240 0 68.1765 11.3822 776 113.095 1100.48 338.675
3241 0 70.2045 11.6517 818 116.011 1100.64 340.289
3242 0 77.3709 12.3173 953 104.651 1100.46 342.604
3243 0 80.2193 13.862 1112 103.711 1100.95 345.796
3244 0 84.41 14.0623 1187 106.403 1100.87 346.984
3245 0 87.4666 14.154 1238 105.412 1100.81 350.028
3246 0 88.4033 14.3773 1271 102.175 1101.16 349.968
3247 0 91.4489 13.472 1232 111.282 1100.87 353.23
3248 1 51.2312 11.2041 574 108.341 1100.95 379.493
3249 0 52.22 11.7771 615 108.433 1101.21 383.302
3250 0 54.0624 12.726 688 105.751 1101.77 385.599
3251 0 55.075 12.9823 715 106.29 1102.47 388.876
3252 0 57.0992 12.7673 729 118.333 1102.74 392.513
3253 0 58.0901 12.8421 746 117.295 1102.16 395.532
3254 0 61.1392 12.3489 755 119.38 1101.87 400.216
3255 0 62.3112 13.0635 814 111.398 1101.87 405.125
3256 0 65.2211 13.0326 850 111.889 1101.8 408.224
3257 0 68.3586 12.7124 869 110.397 1100.59 413.831
3258 0 70.3434 12.7091 894 102.331 1100.2 417.723
3259 0 72.2613 13.0499 943 105.185 1100.56 422.311
3260 0 74.4906 13.2231 985 99.5695 1101.08 425.623
3261 0 75.4112 11.8285 892 109.277 1100.37 428.777
3262 0 78.5289 12.6196 991 107.012 1100.48 433.524
3263 0 82.7384 13.3191 1102 99.3131 1100.49 440.823
3264 1 43.6161 10.409 454 100.352 1099.95 467.612
3265 0 43.3484 10.1734 441 97.898 1100.64 473.118
3266 0 46.2397 11.6566 539 92.6679 1100.28 479.234
3267 0 47.4905 11.2865 536 94.291 1100.2 485.707
3268 0 48.1798 11.1665 538 92.132 1100.53 490.221
3269 0 49.3337 11.5742 571 98.8476 1100.64 489.054
3270 0 49.6008 11.5119 571 94.6515 1100.46 489.429
3271 0 52.4346 11.2712 591 97.8139 1100.16 487.645
3272 0 54.4582 10.5035 572 95.5612 1099.83 487.044
3273 0 56.4014 11.365 641 88.61 1099.68 486.236
3274 0 57.4739 11.1877 643 90.7061 1099.46 484.848
3275 0 59.3312 11.2083 665 94.9729 1099.24 485.018
3276 0 60.4175 10.9902 664 92.9819 1099.56 483.857
3277 1 122.438 11.2547 1378 106.009 1099.47 447.779
3278 0 131.736 11.7128 1543 99.9119 1099.65 445.307
3279 0 131.318 11.7272 1540 101.757 1099.49 444.206
3280 1 110.348 8.80846 972 105.721 1099.17 456.798
3281 0 111.376 8.45781 942 102.438 1099.1 457.955
3282 0 111.345 7.86744 876 96.3813 1098.87 458.349
3283 0 110.362 7.32136 808 97.9134 1098.75 459.86
3284 1 80.2252 8.40135 674 94.3116 1098.63 474.501
3285 0 81.2777 8.02189 652 98.8298 1097.96 475.067
3286 0 81.2507 9.403 764 99.5471 1098.14 474.034
3287 0 83.2165 10.5628 879 93.0171 1098.06 472.801
3288 0 86.2831 10.5351 909 100.993 1098.14 473.046
3289 0 84.4417 10.7056 904 100.679 1097.9 471.247
3290 0 86.4951 10.3127 892 99.0874 1098.57 470.522
3291 0 90.5108 10.275 930 94.3828 1098.3 468.402
3292 0 94.4083 10.2427 967 90.8718 1098.38 468.27
3293 0 94.4083 10.2427 967 124.607 1098.38 468.27
3294 0 99.6685 10.545 1051 92.5395 1098.78 464.676
3295 0 103.77 10.6871 1109 101.126 1098.75 463.125
3296 0 107.777 10.6887 1152 102.773 1098.45 462.735
3297 0 111.524 11.1276 1241 97.967 1098.51 460.902
3298 0 116.756 10.7746 1258 98.2854 1098.46 458.808
3299 0 117.495 11.0218 1295 96.4031 1098.55 456.039
3300 1 162.559 6.33617 1030 118.114 1098.58 437.233
3301 0 161.4 5.16108 833 117.503 1099.13 441.367
3302 1 63.1517 9.20006 581 96.6661 1098.05 484.069
3303 1 175.538 6.35191 1115 117.47 1098.33 436.777
3304 0 179.622 7.23742 1300 115.544 1098.75 429.967
3305 1 78.3997 10.6505 835 87.7725 1098.2 477.22
3306 0 77.1533 9.79868 756 92.0754 1098.07 477.079
3307 0 142.268 10.6911 1521 109.564 1098.61 367.375
3308 0 138.57 10.3125 1429 107.139 1098.37 367.47
3309 0 135.295 10.4512 1414 108.088 1098.58 367.121
3310 0 138.463 11.0571 1531 105.411 1098.35 363.743
3311 0 125.277 5.76323 722 108.618 1098.74 383.832
3312 0 124.241 7.99256 993 103.22 1097.68 374.691
3313 0 121.295 7.77441 943 104.128 1097.83 374.084
3314 0 121.312 6.24835 758 103.137 1097.89 374.42
3315 0 66.4172 11.6536 774 94.2623 1098.29 331.755
3316 0 64.2444 11.6897 751 96.0706 1098.49 330.336
3317 0 141.298 6.69505 946 120.564 1098.97 277.833
3318 0 142.497 6.51241 928 118.737 1099.05 279.928
3319 0 142.456 6.9776 994 117.609 1099.34 280.396
3320 0 138.519 10.2874 1425 113.147 1099.25 267.919
3321 1 56.1579 12.0019 674 106.31 1099.02 305.58
3322 0 71.1403 11.7233 834 105.591 1098.02 359.293
3323 0 168.639 5.67486 957 117.425 1098.36 321.904
3324 0 167.711 7.7097 1293 118.642 1098.44 311.493
3325 0 168.552 12.3879 2088 111.797 1098.64 293.667
3326 1 79.1331 11.8155 935 111.221 1098.17 337.73
3327 1 94.2813 11.2005 1056 108.298 1098.76 329.168
3328 1 20.0135 9.84337 197 97.8832 1099.04 357.858
3329 0 81.1696 12.0119 975 110.137 1098.36 315.002
3330 0 80.3082 12.1656 977 105.741 1098.48 314.46
3331 0 22.0126 11.3117 249 99.9237 1099.05 338.313
3332 0 45.1245 9.72864 439 97.2027 1098.07 352.681
3333 0 45.397 9.09753 413 99.7191 1097.67 355.211
3334 0 45.2186 9.59783 434 99.9631 1097.87 355.988
3335 1 117.373 11.7488 1379 102.505 1098.57 314.561
3336 1 99.3531 11.3736 1130 99.0938 1098.77 323.49
3337 0 47.0963 12.4214 585 108.046 1097.57 394.899
3338 0 146.395 11.2777 1651 114.069 1098.42 334.902
3339 0 143.375 5.74021 823 113.542 1098.23 358.899
3340 0 146.198 5.39678 789 115.639 1098.72 358.508
3341 0 149.368 6.70157 1001 116.806 1098.49 348.572
3342 1 122.186 9.42008 1151 109.405 1098.18 347.605
3343 0 116.616 13.3172 1553 104.356 1098.53 456.905
3344 0 119.497 12.9459 1547 103.296 1098.38 455.564
3345 0 123.452 12.361 1526 105.723 1098.37 453.413
3346 0 125.454 12.4667 1564 100.765 1098.98 449.897
3347 0 124.322 11.1163 1382 111.2 1098.75 450.531
3348 1 67.0625 11.9143 799 109.382 1098.75 481.68
3349 0 69.1146 12.2261 845 107.847 1098.77 480.179
3350 0 70.0864 11.8711 832 104.332 1098.54 479.986
3351 1 120.256 7.75011 932 117.495 1098.64 462.034
3352 0 119.118 7.37926 879 123.695 1098.53 463.694
3353 1 77.12 12.7982 987 110.102 1098.89 475.69
3354 0 81.1968 13.0916 1063 102.899 1099.21 474.497
3355 0 82.1174 13.0301 1070 112.964 1099.11 473.437
3356 0 84.1718 14.1615 1192 100.295 1099.22 472.505
3357 0 87.1105 13.1557 1146 108.064 1099.38 471.741
3358 1 65.1228 9.91973 646 129.861 1098.99 479.848
3359 0 64.0712 9.02121 578 125.251 1098.9 480.253
3360 0 67.0575 8.72386 585 120.231 1098.44 479.344
3361 0 69.1019 8.63942 597 128.879 1098.59 479.434
3362 1 101.125 12.2918 1243 115.458 1099.16 461.748
3363 0 106.146 13.7453 1459 118.71 1099.36 461.757
3364 0 108.129 14.048 1519 111.839 1099.45 461.359
3365 0 112.2 14.4564 1622 110.467 1099.21 458.978
3366 0 115.236 14.3357 1652 113.047 1099.38 458.726
3367 0 119.213 13.9079 1658 120.416 1099.51 454.382
3368 0 122.27 12.8976 1577 125.363 1099.75 452.644
3369 0 124.136 13.0905 1625 122.982 1100.3 449.451
3370 0 129.243 13.169 1702 118.474 1100.58 446.092
3371 0 123.189 10.5448 1299 122.437 1100.52 452.098
3372 1 66.0633 9.64227 637 126.906 1100.33 479.808
3373 0 70.0868 11.0292 773 114.48 1100.26 478.863
3374 0 70.0444 11.5213 807 124.115 1100.2 477.507
3375 0 74.0712 11.1109 823 122.335 1100.08 474.772
3376 0 77.0675 12.1322 935 120.387 1100.25 473.29
3377 0 81.1177 11.4278 927 113.888 1101.78 470.956
3378 0 83.1012 11.4559 952 121.516 1101.57 470.222
3379 0 85.0407 11.8884 1011 116.192 1101.87 468.409
3380 0 88.1148 12.0638 1063 112.068 1101.54 468.003
3381 0 91.065 12.1891 1110 122.662 1101.39 464.938
3382 0 93.0778 12.0437 1121 110.707 1101.31 462.311
3383 0 95.1552 12.1801 1159 109.011 1100.5 460.852
3384 0 97.1151 11.6048 1127 111.474 1100.44 460.947
3385 0 103.264 11.8047 1219 109.277 1100.84 459.938
3386 0 106.317 11.7667 1251 114.406 1100.81 458.052
3387 0 108.184 11.5636 1251 105.698 1100.92 454.494
3388 1 56.0278 9.01339 505 111.386 1100.97 483.558
3389 0 60.0427 10.276 617 115.9 1100.45 481.846
3390 0 63.0702 10.3852 655 113.919 1101.1 481.362
3391 0 63.0488 11.3563 716 109.708 1101.05 479.313
3392 0 65.0452 11.3921 741 108.356 1101.02 477.409
3393 0 67.0595 11.2736 756 106.319 1100.93 476.889
3394 0 71.0936 11.6185 826 108.057 1101.03 476.393
3395 0 73.0548 11.772 860 109.995 1101.32 475.158
3396 0 76.0726 12.1331 923 112.171 1100.73 474.09
3397 0 80.0856 11.9747 959 106.35 1100.22 473.018
3398 0 73.0475 9.21319 673 110.948 1099.91 476.857
3399 1 41.016 9.67915 397 101.091 1098.93 491.388
3400 0 44.0191 9.88207 435 104.207 1098.73 490.798
3401 0 45.016 10.574 476 98.9727 1098.19 489.813
3402 0 49.0852 9.9419 488 98.9303 1098.2 489.084
3403 0 50.0505 10.4095 521 95.8042 1097.85 488.251
3404 0 53.1096 11.2786 599 99.8013 1099.29 436.053
3405 1 26.0506 3.26288 85 129.659 1098.35 444.424
3406 0 46.064 9.66046 445 104.126 1099.53 487.438
3407 0 49.0331 9.91166 486 113.685 1099.19 486.94
3408 0 58.0591 12.1083 703 104.967 1099.24 485.609
3409 0 58.0788 12.087 702 102.684 1098.58 484.94
3410 0 57.0653 11.3204 646 106.568 1098.42 484.074
3411 0 59.0657 11.5126 680 108.641 1098.71 483.079
3412 0 63.0308 11.7403 740 112.222 1098.84 481.688
3413 0 64.0533 11.8651 760 109.667 1098.95 481.122
3414 0 56.0596 8.11636 455 115.495 1098.3 486.651
3415 0 55.0746 7.55339 416 116.947 1098.69 486.603
3416 0 56.0215 6.44395 361 113.075 1098.77 486.684
3417 0 57.0457 7.85335 448 108.835 1098.67 486.739
3418 1 117.157 9.27811 1087 112.416 1098.5 456.971
3419 0 118.282 9.3252 1103 109.879 1098.5 457.238
3420 0 119.27 8.97962 1071 113.025 1098.79 459.082
3421 1 84.0828 12.9396 1088 91.4908 1098.55 475.094
3422 1 44.0405 10.7174 472 97.8644 1098.83 494.794
3423 0 44.0674 11.732 517 96.8859 1099.21 493.513
3424 0 48.0653 11.6716 561 102.802 1098.61 491.939
3425 0 50.0355 12.1714 609 92.2677 1098.67 492.67
3426 0 48.0823 13.2065 635 95.2189 1098.4 492.362
3427 0 50.0413 12.2499 613 100.215 1098.41 491.166
3428 0 54.0265 11.846 640 93.2438 1096.87 490.112
3429 0 54.0643 12.0227 650 92.8277 1096.7 488.475
3430 0 53.0293 11.8236 627 100.478 1096.43 487.445
3431 0 58.0704 11.8305 687 97.8079 1096.64 488.001
3432 0 58.092 11.6195 675 103.418 1096.67 486.673
3433 0 60.091 11.9652 719 109.57 1096.41 486.261
3434 0 61.0471 12.0235 734 103.432 1096.44 484.974
3435 0 63.1104 11.2343 709 104.513 1096.11 483.443
3436 0 65.1002 12.089 787 101.661 1096.58 482.169
3437 0 67.0666 11.9434 801 105.89 1096.12 482.355
3438 0 72.1161 12.9513 934 99.4133 1096.46 481.927
3439 0 73.0912 13.4626 984 99.3476 1096.6 479.861
3440 0 74.0741 13.1355 973 98.261 1096.54 479.703
3441 0 76.0805 12.6314 961 100.221 1096.42 479.376
3442 0 79.1355 13.0283 1031 93.9952 1096.11 478.19
3443 0 83.1209 12.8367 1067 101.336 1096.42 476.663
3444 1 43.0788 9.81922 423 101.605 1095.66 496.158
3445 0 43.0379 10.0609 433 106.196 1096.09 495.822
3446 0 40.0168 9.37106 375 109.136 1096.63 497.072
3447 0 45.0445 11.4331 515 102.466 1096.24 493.685
3448 0 48.0631 11.3601 546 97.6282 1097.64 493.555
3449 0 47.0506 11.3495 534 100.62 1097.72 492.17
3450 0 51.0598 11.0459 564 106.028 1097.48 491.504
3451 0 53.0985 12.1284 644 103.708 1097.14 492.256
3452 0 53.0962 11.5639 614 111.184 1097.05 490.611
3453 0 55.0916 12.2523 675 117.719 1097.09 489.779
3454 0 59.0689 12.1892 720 113.74 1097.16 488.869
3455 0 60.0321 12.3434 741 119.227 1095.21 488.004
3456 0 64.0434 12.5696 805 116.084 1094.93 487.241
3457 0 65.0326 11.9786 779 113.235 1095.37 486.237
3458 0 65.0664 11.788 767 120.134 1095.73 484.421
3459 0 67.1018 12.5332 841 116.988 1095.73 482.815
3460 0 70.0783 12.0437 844 110.686 1095.74 481.37
3461 0 75.1013 12.6629 951 109.983 1095.78 482.918
3462 0 76.0552 12.6356 961 111.161 1095.44 482.615
3463 0 80.0883 13.7099 1098 111.292 1095.93 480.143
3464 0 82.2316 13.1336 1080 108.769 1095.93 479.557
3465 0 84.3583 13.4545 1135 117.485 1096.73 478.263
3466 1 46.1905 10.2835 475 111.067 1096.69 496.16
3467 0 46.2218 11.4881 531 109.079 1096.73 494.733
3468 0 49.1344 12.2114 600 109.915 1096.14 493.88
3469 0 49.0756 12.5521 616 106.208 1095.52 493.469
3470 0 51.067 12.3563 631 112.74 1094.65 493.788
3471 0 52.1564 11.9448 623 117.933 1095.08 491.284
3472 0 53.0532 11.9503 634 120.148 1095.24 492.114
3473 0 54.0989 12.3108 666 115.94 1096.17 490.201
3474 0 55.0333 12.3743 681 131.226 1095.3 490.076
3475 0 57.0324 13.0803 746 118.861 1095.84 488.468
3476 0 58.0718 12.8806 748 129.031 1095.53 488.591
3477 0 60.0876 12.5151 752 119.363 1095.65 487.441
3478 0 61.0346 13.2056 806 136.538 1095.71 487.01
3479 0 65.0399 13.2842 864 133.192 1096.01 486.372
3480 0 67.1105 13.2021 886 130.932 1096.28 485.383
3481 0 68.1323 13.4444 916 127.916 1096.38 483.904
3482 0 70.0858 13.4549 943 129.686 1096.52 483.872
3483 0 72.1131 13.4927 973 128.84 1096.65 481.725
3484 0 73.1787 13.7745 1008 110.858 1096.68 481.331
3485 0 76.1721 13.7846 1050 109.745 1096.6 480.445
3486 0 78.0841 12.9732 1013 113.239 1097.41 478.852
3487 0 82.172 13.7516 1130 116.27 1097.59 476.863
3488 0 84.2072 13.5737 1143 113.07 1097.61 475.695
3489 1 44.0912 11.1133 490 113.645 1098.26 495.82
3490 0 46.1041 11.5174 531 108.936 1098.21 494.241
3491 0 48.1536 11.5048 554 110.267 1098.38 495.042
3492 0 49.0922 11.9775 588 108.15 1098.82 493.464
3493 0 48.1026 12.1823 586 110.968 1098.5 492.326
3494 0 50.0832 12.2596 614 103.886 1098.95 490.534
3495 0 52.1133 12.185 635 116.836 1099.11 491.139
3496 0 53.1057 13.0118 691 118.708 1099.13 490.043
3497 0 56.0959 12.1756 683 120.097 1098.96 489.107
3498 0 56.0922 12.4081 696 116.491 1099.21 488.397
3499 0 57.1576 12.8417 734 117.36 1099.2 487.238
3500 0 60.1529 12.9836 781 120.224 1099.36 485.849
3501 0 62.1066 12.6718 787 118.637 1099.32 485.13
3502 0 62.1722 12.3045 765 122.311 1099.29 485.073
3503 0 61.0792 12.2628 749 112.628 1099.54 483.186
3504 0 58.0608 10.5062 610 119.497 1098.98 483.639
3505 0 69.0693 13.3634 923 113.109 1099.25 481.725
3506 0 69.1455 12.6979 878 109.219 1099.32 481.259
3507 0 72.0929 13.2329 954 108.692 1099.57 479.445
3508 0 73.1789 13.0912 958 116.177 1099.85 478.247
3509 0 77.2265 13.4798 1041 109.209 1099.86 477.333
3510 0 79.2794 13.0425 1034 106.917 1100.06 476.141
3511 0 83.2892 13.7833 1148 109.877 1099.66 474.797
3512 0 84.1908 13.9802 1177 107.852 1100.03 472.962
3513 0 86.2569 13.112 1131 102.291 1099.74 472.218
3514 0 90.1974 13.3596 1205 95.629 1099.63 469.09
3515 0 93.2257 13.1938 1230 105.129 1099.55 467.846
3516 0 97.1174 11.9031 1156 109.834 1099.96 464.513
3517 1 182.359 9.88707 1803 125.762 1099.78 419.52
3518 1 100.144 12.1526 1217 112.381 1099.31 462.887
3519 0 95.2039 9.68448 922 114.634 1099.23 467.548
3520 1 56.0591 11.5236 646 104.749 1098.87 487.839
3521 0 55.074 12.1291 668 100.966 1098.8 485.804
3522 0 60.0693 12.1859 732 97.3852 1099.29 486.403
3523 0 60.0647 12.8695 773 100.314 1098.92 485.259
3524 0 62.0592 12.198 757 99.1176 1098.77 484.832
3525 0 63.0742 12.8262 809 99.5389 1098.87 482.932
3526 0 66.0472 12.3699 817 97.4859 1098.95 482.252
3527 0 67.0631 11.5414 774 102.341 1098.62 479.088
3528 1 125.32 9.69516 1215 109.212 1099.31 450.348
3529 1 65.0744 9.35852 609 103.448 1098.29 480.209
3530 0 76.098 12.6942 966 95.0963 1098.57 477.531
3531 0 78.0798 12.6153 985 94.1675 1098.2 476.675
3532 0 81.1131 12.2175 991 108.349 1098.09 474.653
3533 0 78.0352 11.4051 890 110.731 1097.92 470.683
3534 0 78.0402 9.98203 779 114.575 1097.94 472.456
3535 1 45.0441 11.411 514 110.181 1097.78 490.92
3536 0 45.0947 11.243 507 112.298 1097.59 490.513
3537 0 48.0435 11.9475 574 113.808 1098.12 490.963
3538 0 51.07 11.8073 603 114.932 1097.91 490.211
3539 0 52.106 12.3786 645 114.547 1097.73 489.505
3540 0 53.0477 12.0081 637 112.797 1097.69 489.637
3541 0 53.0644 11.6274 617 117.955 1097.82 487.922
3542 0 55.0328 12.7742 703 112.787 1098.02 488.246
3543 0 56.0522 12.0245 674 103.742 1097.86 486.466
3544 0 58.1316 12.3685 719 108.48 1097.38 487.371
3545 0 61.022 12.4218 758 117.499 1097.24 487.297
3546 0 62.0966 12.5611 780 110.609 1097.02 485.844
3547 0 65.0389 12.4387 809 102.01 1096.99 485.088
3548 0 67.0506 12.6173 846 101.389 1097.02 483.732
3549 0 69.0692 13.1318 907 95.3947 1097.18 482.43
3550 0 71.1714 13.039 928 86.0862 1097.27 480.527
3551 0 74.174 12.8347 952 94.5473 1097.52 479.441
3552 0 77.2058 13.2244 1021 87.2429 1097.41 479.929
3553 0 81.0862 13.3932 1086 87.9705 1097.64 477.273
3554 1 45.0289 11.0596 498 88.3333 1097.15 495.665
3555 0 46.0422 11.5546 532 90.2049 1097.01 494.84
3556 0 48.0244 12.223 587 87.2232 1097.34 493.698
3557 0 49.0827 11.8372 581 90.4509 1097.76 493.94
3558 0 51.0948 11.9777 612 89.3758 1097.75 494.569
3559 0 53.0892 12.0175 638 90.9138 1097.9 492.616
3560 0 54.104 12.1248 656 97.4787 1097.81 492.128
3561 0 55.1565 11.9297 658 99.0137 1098.05 491.476
3562 0 55.1627 12.2909 678 93.4808 1097.02 490.702
3563 0 51.1086 9.74396 498 99.4378 1096.96 491.655
3564 0 58.1046 13.1315 763 88.8729 1097.37 489.807
3565 0 62.1062 12.4625 774 94.3488 1097.33 488.981
3566 0 63.1506 12.3356 779 90.6008 1097.06 487.313
3567 0 63.114 13.4835 851 93.1645 1097.31 485.307
3568 0 66.1399 12.8969 853 98.2978 1097.09 485.538
3569 0 69.0932 12.9825 897 97.4749 1097.38 484.921
3570 0 71.1138 13.2183 940 98.0915 1097.44 483.971
3571 0 73.0911 12.0261 879 108.365 1097.32 481.906
3572 0 74.1308 12.3161 913 97.345 1098.15 478.265
3573 0 76.1293 12.4919 951 112.943 1096.96 475.376
3574 1 28.0166 6.49616 182 116.775 1095.76 498.835
3575 0 38.0594 10.7989 411 100.489 1095.86 497.182
3576 0 39.0274 10.3261 403 105.4 1096.2 496.801
3577 0 33.1091 8.78913 291 102.718 1096.15 496.863
3578 0 42.1124 11.8255 498 89.1647 1096.21 495.502
3579 0 43.0223 11.8776 511 99.3405 1096.66 494.207
3580 0 46.0752 12.2843 566 96.0813 1098.22 493.413
3581 0 45.0732 11.914 537 95.8641 1098.58 492.631
3582 0 40.1577 9.78643 393 107.868 1098.26 492.664
3583 0 48.0426 12.5722 604 96.3725 1098.37 491.492
3584 0 50.0921 12.5369 628 89.7627 1098.26 490.505
3585 0 52.0607 11.9476 622 92.3039 1098.2 489.686
3586 0 52.1187 11.8959 620 93.6177 1098.35 488.35
3587 1 114.162 12.3684 1412 100.181 1098.86 453.209
3588 1 43.1223 7.69904 332 113.271 1098.71 490.991
3589 0 31.0216 4.35181 135 108.919 1098.54 494.393
3590 0 58.1716 12.2568 713 94.1599 1098.6 484.704
3591 0 56.1022 12.4237 697 93.2769 1098.64 482.727
3592 0 63.0988 12.9479 817 89.4847 1098.91 483.2
3593 0 61.1075 12.6171 771 90.2905 1099.07 481.271
3594 0 67.0395 12.4852 837 87.0681 1098.38 480.654
3595 0 68.1283 12.2269 833 87.563 1098.22 478.586
3596 0 69.0216 12.6047 870 83.0989 1098.24 478.334
3597 0 68.0407 12.7718 869 87.6479 1098.71 476.604
3598 0 68.0557 13.3126 906 90.5022 1098.42 476.408
3599 1 127.154 9.66541 1229 97.3303 1099.39 450.972
3600 0 127.1 9.11882 1159 99.3305 1098.89 452.301
3601 1 164.324 7.62517 1253 105.257 1099.67 440.769
3602 1 233.274 5.35851 1250 105.754 1099.89 428.373
3603 1 196.379 13.4179 2635 89.4478 1100.33 411.294
3604 0 197.234 13.6437 2691 92.8372 1100.6 411.738
3605 0 194.483 11.636 2263 92.7658 1100.73 409.69
3606 0 195.339 11.37 2221 97.9793 1100.61 410.986
3607 0 196.431 13.4348 2639 90.6385 1100.88 407.986
3608 0 196.426 13.7813 2707 90.7089 1100.43 408.918
3609 1 106.298 12.1169 1288 87.625 1100.8 459.494
3610 0 110.389 12.7821 1411 98.949 1101.05 458.321
3611 0 139.194 13.3052 1852 110.17 1102.18 329.918
3612 0 143.33 13.577 1946 105.607 1102.12 321.575
3613 1 175.435 12.2268 2145 105.002 1102.1 304.838
3614 0 172.502 12.5042 2157 108.32 1102.56 304.111
3615 0 167.647 12.3951 2078 108.037 1102.4 302.297
3616 0 62.0461 12.4424 772 93.0699 1100.77 480.579
3617 0 65.1771 12.7959 834 94.6367 1100.28 478.811
3618 0 69.0979 12.7935 884 95.3314 1100.47 476.803
3619 1 148.313 13.3232 1976 94.4873 1100.61 436.796
3620 1 130.261 9.10478 1186 102.497 1100.38 451.988
3621 0 129.135 8.48725 1096 103.582 1100 453.526
3622 0 129.49 8.70338 1127 101.628 1099.79 454.765
3623 0 128.155 6.94469 890 101.845 1099.82 460.206
3624 0 130.353 10.3795 1353 95.0377 1099.61 453.871
3625 0 130.344 13.8173 1801 85.8784 1099.8 444.675
3626 0 138.278 11.043 1527 92.3294 1099.39 447.67
3627 0 142.242 11.4875 1634 96.5618 1099.75 443.524
3628 0 140.231 9.02085 1265 103.013 1099.4 447.916
3629 0 153.218 13.5624 2078 95.4986 1099.7 440.562
3630 0 153.274 13.8249 2119 99.9547 1099.23 438.264
3631 0 159.278 13.4482 2142 101.392 1099.49 435.044
3632 1 141.135 9.35272 1320 110.972 1099.22 452.84
3633 0 140.236 8.20048 1150 116.621 1098.86 457.484
3634 0 147.327 7.98904 1177 111.879 1098.95 456.695
3635 1 121.236 12.7685 1548 108.2 1099.32 451.387
3636 0 121.181 12.8156 1553 108.623 1099.12 451.58
3637 0 120.232 11.7856 1417 111.582 1098.99 451.011
3638 0 116.159 11.8802 1380 111.175 1098.78 449.569
3639 0 380.466 11.6042 4415 103.719 1099 328.947
3640 1 107.389 8.78112 943 112.364 1098.68 459.012
3641 0 121.316 13.0651 1585 111.842 1098.51 445.727
3642 0 119.349 12.1995 1456 111.206 1098.72 443.28
3643 0 119.211 12.5408 1495 106.67 1098.35 443.494
3644 1 60.3326 4.98901 301 119.618 1098.72 484.488
3645 0 60.3326 4.98901 301 119.585 1098.72 484.488
3646 0 59.1689 5.10403 302 111.252 1099.08 484.361
3647 0 60.3763 6.9398 419 113.057 1098.75 481.413
3648 0 61.2664 6.51254 399 122.311 1098.78 480.135
3649 0 61.1522 6.73728 412 120.337 1098.54 480.75
3650 0 60.1412 5.96929 359 123.891 1099.25 481.312
3651 1 76.2717 6.98817 533 125.336 1098.81 474.092
3652 0 75.2033 6.83481 514 123.481 1098.49 473.953
3653 0 75.1806 7.67485 577 118.445 1098.85 474.097
3654 1 180.402 14.7892 2668 120.91 1098.43 416.368
3655 0 183.294 16.0834 2948 117.304 1098.56 416.648
3656 0 182.348 15.9475 2908 118.547 1098.63 415.867
3657 0 183.37 16.3277 2994 124.513 1098.55 415.774
3658 1 266.521 10.7571 2867 132.909 1098.13 402.576
3659 0 271.441 10.3264 2803 136.595 1098.51 403.998
3660 0 268.474 10.0308 2693 129.955 1098.74 404.522
3661 0 271.383 10.955 2973 127.078 1098.36 400.026
3662 0 272.35 11.4705 3124 129.36 1098.17 398.092
3663 1 251.289 16.1408 4056 104.919 1098.47 384.615
3664 0 251.293 16.6419 4182 108.781 1098.37 384.415
3665 0 252.203 16.3955 4135 114.911 1097.61 384.414
3666 0 258.336 16.9044 4367 114.144 1097.91 379.874
3667 0 264.332 16.6117 4391 118.961 1097.5 376.202
3668 0 272.434 16.6316 4531 120.326 1098.04 373.107
3669 0 272.288 16.2512 4425 127.087 1097.65 372.363
3670 0 350.414 10.1708 3564 135.211 1097.39 377.005
3671 1 333.754 22.0342 7354 105.67 1098.94 327.959
3672 0 333.805 21.2699 7100 107.483 1098.75 328.68
3673 0 332.748 21.7582 7240 107.036 1098.74 329.669
3674 0 331.33 21.4228 7098 111.612 1098.69 332.767
3675 0 333.875 20.1992 6744 121.456 1098.62 333.046
3676 0 339.514 20.2024 6859 113.752 1098.86 330.485
3677 0 351.848 19.1304 6731 117.701 1098.92 328.976
3678 0 353.652 18.6454 6594 128.262 1098.56 326.665
3679 0 357.789 14.7713 5285 149.439 1098.36 335.419
3680 0 362.545 13.9128 5044 152.233 1098.3 338.88
3681 0 1 6 6 85.8333 1100.17 513.5
3682 0 1 4 4 82.25 1100.5 514.25
3683 0 1 4 4 87 1100.75 513.25
3684 0 1 5 5 87 1099 512.6
3685 0 0 0 2 84.5 1100.5 512
3686 0 0 0 3 81.3333 1100 513
3687 0 0 0 0 -nan -nan -nan
3688 0 0 0 1 74 1101 513
3689 0 0 0 1 84 1101 509
3690 0 0 0 1 83 1100 513
3691 0 0 0 2 82 1100.5 513
3692 0 0 0 1 83 1100 511
3693 0 0 0 2 85.5 1098.5 510
3694 0 1 4 4 81.5 1099.75 511.25
3695 0 1 3 3 79.6667 1099.67 509.667
3696 0 1 5 5 81.4 1099 508.4
3697 0 1 2 2 84 1098 509.5
3698 0 1 3 3 85 1097 509.333
3699 0 1 3 3 72.3333 1095.67 484.333
3700 0 0 0 2 85.5 1094.5 442
3701 0 0 0 1 82 1095 415
3702 0 0 0 2 85.5 1096.5 412
3703 0 21.3461 2.81082 60 118.933 1090.57 139.533
3704 0 20.4639 3.46952 71 125.718 1087.73 140.69
3705 0 19.5922 3.36868 66 119.667 1086.55 140.485
3706 0 19.013 3.5239 67 69.4478 1087.28 141.866
3707 0 22.1502 3.16024 70 117.714 1087.3 140.571
3708 0 11.0797 6.85937 76 94.7237 1097.16 143.434
3709 0 8.84597 6.21752 55 86.8545 1091.15 144.345
3710 0 19.1104 3.08732 59 110.068 1086.12 139.508
3711 0 2 37 74 90.3784 1104.3 144.743
3712 0 8.92964 7.95104 71 88.4648 1090.77 144.268
3713 0 8.22342 6.0802 50 130.5 1113.98 141.9
3714 0 7.11315 7.16982 51 123.51 1113.27 142.412
3715 0 10.9034 4.40228 48 144.958 1114.35 141
3716 0 7.16023 10.6142 76 101.605 1105.05 144.711
3717 0 7.15595 8.94361 64 114.047 1108.52 144.672
3718 0 9.92316 4.73639 47 123.213 1113.49 143.468
3719 0 6 8.83333 53 101.453 1082.94 142.868
3720 0 14.7133 3.94201 58 116.103 1110.41 140.793
3721 0 6 6.16667 37 92.7297 1114.7 143.892
3722 0 10.5376 4.08064 43 106.744 1115.23 142.163
3723 0 7.11066 7.73487 55 81.2545 1083.38 146.545
3724 0 16.3145 4.47455 73 97.6849 1088.3 144.521
3725 0 16.0783 4.22931 68 102.75 1087.03 144.515
3726 0 19.0474 3.99005 76 94.7105 1089.21 145.434
3727 0 25.2438 2.69373 68 130.191 1086.54 141
3728 0 22.0394 2.5409 56 124.161 1092.07 140.036
3729 0 24.1389 2.56847 62 103.823 1085.53 143.048
3730 0 2 5 10 76.7 1106.4 152.1
3731 0 2 5 10 85.5 1106.4 152.1
3732 0 0 0 3 72.3333 1107 154
3733 0 1 12 12 74.1667 1106 153.5
3734 0 1 3 3 85.3333 1106 154.333
3735 0 2 2.5 5 80 1105.2 153
3736 0 2 2.5 5 77.2 1107 152.2
3737 0 2 8 16 76.3125 1112.56 153
3738 0 6 1.5 9 76.5556 1114.22 151.222
3739 0 1 11 11 83.4545 1105.55 149.273
3740 0 19.0774 2.72574 52 130.077 1113.46 141.288
3741 0 7.04549 7.38061 52 104.808 1113.17 144.5
3742 0 12.0558 4.14738 50 143.66 1113.9 140.5
3743 0 8.19489 5.61326 46 143.217 1114.87 141.848
3744 0 9.80459 5.20165 51 136.039 1113.51 142.314
3745 0 8.18842 5.1292 42 139.476 1115.9 142.167
3746 0 6 7 42 126.262 1115.79 144.024
3747 0 5 9.6 48 130.646 1114.33 144.438
3748 0 6 6.83333 41 138.098 1116.15 145.268
3749 0 1 39 39 92.8974 1115.74 148.436
3750 0 2 16 32 90.2188 1112.75 148.156
3751 0 14.4041 3.61009 52 91.1538 1087.29 143.846
3752 0 1 45 45 98.3556 1115.11 147.467
3753 0 0 0 4 81 1101.25 154
3754 0 1 8 8 78 1108.38 154.375
3755 0 1 7 7 78 1106.43 155.286
3756 0 1 13 13 79.1538 1105.38 155.308
3757 0 1 25 25 75.72 1114.08 152.44
3758 0 1 11 11 69.0909 1115.55 154.182
3759 0 5 6 30 73.8667 1113.87 154.033
3760 0 5 7.6 38 77.5526 1115.82 152.711
3761 0 5 5.2 26 76.0769 1116.23 153.577
3762 0 4 9.25 37 81.3514 1112.43 153.703
3763 0 4 5.5 22 82.8182 1113.73 154.727
3764 0 5 8.6 43 90.1395 1111.6 153.86
3765 0 7.04628 6.38635 45 87.0667 1115.18 153.4
3766 0 8.18451 5.37601 44 83.5455 1114.48 154.136
3767 0 2 10 20 71.5 1108.1 157.05
3768 0 3 5 15 72.5333 1111.73 157.533
3769 0 1 5 5 72.6 1101 159.2
3770 0 1 4 4 68 1106 161.25
3771 0 2 4.5 9 71.4444 1106.89 160.889
3772 0 1 11 11 75.5455 1105.36 160.455
3773 0 14.4036 2.15224 31 84.9677 1112.23 154.032
3774 0 16.8046 2.26128 38 90.7368 1113.63 151.921
3775 0 13.7076 3.57465 49 91.6122 1112.55 151.939
3776 0 3 4.66667 14 85.9286 1104.93 158.357
3777 0 17.6485 2.94643 52 100.712 1112.29 151.519
3778 0 5 7.6 38 85.6053 1115.13 149.632
3779 0 1 37 37 76.7297 1113.14 151.432
3780 0 13.6561 3.44168 47 141.319 1114.62 145.894
3781 0 13.562 3.39182 46 135.022 1114.96 145.239
3782 0 12.3122 3.97979 49 129.265 1114.12 147.367
3783 0 1 22 22 76.7273 1107.05 151.5
3784 0 5 7.8 39 96.7692 1116.41 150.487
3785 0 5 7.8 39 92.9487 1116.44 150.513
3786 0 2 12.5 25 79.12 1116.72 152.76
3787 0 6 7.5 45 102.378 1115.16 150.844
3788 0 7.11698 7.728 55 84.7455 1083.78 150.964
3789 0 1 32 32 72.5 1110.88 154.344
3790 0 10.581 4.53643 48 122.833 1114.4 150.292
3791 0 12.0441 3.98536 48 131.938 1114.35 149.354
3792 0 16.7578 3.28204 55 152.182 1112.75 148.145
3793 0 7.0591 7.79136 55 115.418 1112.69 151.909
3794 0 1 6 6 76.3333 1099.83 157.5
3795 0 12.5707 4.9321 62 127.145 1085.08 150.177
3796 0 5 3.8 19 83.6842 1085.47 153.368
3797 0 18.5118 3.67333 68 131.956 1086.62 149.706
3798 0 1 18 18 79.2778 1109.11 156.333
3799 0 6 4 24 87.7083 1084.92 153
3800 0 2 9 18 78.5556 1099.22 157.444
3801 0 2 9.5 19 79.421 1105.79 157.105
3802 0 8.29461 6.63081 55 85.4909 1085.6 153.927
3803 0 12.7865 4.92706 63 119.286 1085.29 150.079
3804 0 8.29199 7.2359 60 88.9 1088.1 152.183
3805 0 4 6 24 77.75 1093.46 154.042
3806 0 4 5.25 21 71.381 1094.33 154.238
3807 0 1 13 13 74.3846 1102.38 154.308
3808 0 7.04541 5.39358 38 95.579 1116.58 151.342
3809 0 3 6.33333 19 67.7368 1118.05 154
3810 0 14.9386 4.61891 69 99.1739 1087.07 148.493
3811 0 3 6 18 73 1102 153.111
3812 0 7.15256 6.01184 43 74 1089.19 150.814
3813 0 7.11696 6.18242 44 78.6364 1084.73 150.114
3814 0 9.90459 5.04816 50 91.62 1084.4 148.6
3815 0 2 8 16 77.25 1103.56 153.562
3816 0 1 7 7 75.1429 1100.43 152.143
3817 0 5 3.6 18 76.0556 1107.72 156.222
3818 0 6 6.5 39 80.3846 1114.1 152.564
3819 0 3 2.66667 8 81.125 1109.88 154.75
3820 0 4 3.25 13 81.7692 1118.08 152.769
3821 0 6 8.16667 49 92 1113.61 151.408
3822 0 9.59579 5.31483 51 99.7451 1113.47 149.902
3823 0 8.22358 5.71527 47 100.894 1114.68 149.234
3824 0 1 10 10 76.9 1109.8 152.3
3825 0 9.47938 4.74715 45 100.911 1114.98 148.467
3826 0 5 9.2 46 83.7826 1113.91 150.109
3827 0 1 4 4 72.75 1100.5 153.5
3828 0 5 4.8 24 81.8333 1113.96 150.625
3829 0 1 15 15 75.1333 1105.6 151.333
3830 0 16.4589 3.52393 58 135.448 1084.16 144.966
3831 0 6 7.66667 46 91.6739 1083.3 148.37
3832 0 5 9.2 46 88.8044 1083.72 149.043
3833 0 1 3 3 76 1105 152.333
3834 0 13.315 4.356 58 99.2241 1084.74 146.81
3835 0 1 9 9 75.4444 1106.56 151.556
3836 0 1 4 4 77 1103 152.25
3837 0 8 3.5 28 10.75 1089.75 147.714
3838 0 3 5.33333 16 79.25 1100 150.75
3839 0 2 4.5 9 84.8889 1108.56 155
3840 0 3 5 15 79.0667 1115.13 153.067
3841 0 0 0 3 83 1104.67 154
3842 0 6 8.16667 49 102.51 1113.82 150.163
3843 0 7.08042 7.34419 52 106.481 1113.23 149.615
3844 0 6 7.66667 46 99.8696 1114.63 149.804
3845 0 13.9544 3.51144 49 125.367 1114.12 147.633
3846 0 7.0419 6.81634 48 110.562 1114.4 148.479
3847 0 2 7 14 80.4286 1098.86 151
3848 0 9.95588 6.83013 68 109.956 1086.75 147.221
3849 0 5 3.2 16 69.875 1092.06 149.938
3850 0 1 39 39 78.7949 1115.21 150.385
3851 0 15.9882 4.87859 78 115.897 1089.09 145.641
3852 0 11.8808 4.71349 56 93.6071 1085.41 147.393
3853 0 6 2.83333 17 77.3529 1091.88 149.882
3854 0 29.5006 2.54232 75 139.56 1088.39 143.133
3855 0 25.9426 2.85245 74 132.365 1088.07 144.23
3856 0 22.7785 3.38038 77 107.286 1088.92 146.429
3857 0 6 2.16667 13 75.2308 1096.38 151.385
3858 0 10.0756 4.26774 43 78.9535 1084.79 149.256
3859 0 3 2 6 80.6667 1094 153.167
3860 0 13.2383 4.98554 66 96.0303 1086.39 149.076
3861 0 5 5.2 26 75.5 1092.81 152.154
3862 0 14.6421 4.23437 62 97.5968 1085.24 148.871
3863 0 1 15 15 76.2667 1108.4 152.4
3864 0 2 2 4 73.75 1098 153.75
3865 0 3 7.66667 23 77.3913 1097.35 152.174
3866 0 9.80285 6.52872 64 84.4688 1085.98 148.484
3867 0 7.11698 6.46342 46 81.913 1084.26 149.109
3868 0 18.7199 3.84617 72 106.458 1087.56 146.083
3869 0 23.2191 2.71329 63 111.81 1085.54 145.46
3870 0 20.023 3.44604 69 102.493 1087.13 146.217
3871 0 0 0 1 66 1107 153
3872 0 2 2.5 5 73.4 1098.6 153.2
3873 0 2 2.5 5 84.4 1098.6 153.2
3874 0 2 2.5 5 76.4 1101.8 155
3875 0 4 3.25 13 76.5385 1096.77 155.077
3876 0 5 5.8 29 81.1379 1095.76 154.138
3877 0 21.5081 2.83614 61 119.508 1084.87 148.656
3878 0 14.7201 4.00812 59 102.729 1084.56 150.136
3879 0 2 4.5 9 85.1111 1105.89 156.778
3880 0 18.8773 2.70165 51 88.5686 1082.8 150.078
3881 0 23.2336 2.84071 66 113.333 1086.15 149.773
3882 0 17.4512 3.20894 56 101.786 1083.77 150.804
