index division length width area intensity CMx CMy
2219 0 60.0929 13.4292 807 133.069 491.964 318.766
2220 0 63.1837 12.8514 812 125.772 492.127 320.047
2221 0 65.1345 12.881 839 127.646 492.298 321.965
2222 0 68.1571 12.8086 873 126.134 493.247 323.234
2223 0 71.2077 12.8919 918 126.41 492.804 325.071
2224 0 73.1114 12.9528 947 124.667 493.25 327.825
2225 0 75.127 12.5521 943 123.318 493.308 329.698
2226 0 78.1116 13.007 1016 125.835 493.669 333.026
2227 0 81.2217 13.1246 1066 125.48 493.694 334.452
2228 0 82.2038 13.2962 1093 119.598 493.691 336.283
2229 0 87.3744 13.1961 1153 126.858 493.43 338.323
2230 1 45.2132 10.7712 487 119.741 493.48 363.021
2231 0 47.2548 11.1735 528 120.676 493.178 366.22
2232 0 47.1426 11.2213 529 122.263 493.473 367.575
2233 0 48.2558 11.5426 557 118.373 493.636 369.316
2234 0 51.1277 11.4615 586 112.365 491.619 372.746
2235 0 52.1728 11.5003 600 113.437 491.858 376.367
2236 0 51.0863 12.1951 623 122.403 492.181 379.507
2237 0 55.1273 11.9542 659 119.69 491.234 382.194
2238 0 55.0806 12.1277 668 120.99 491.967 385.925
2239 0 57.0859 12.3148 703 119.385 491.283 387.768
2240 0 58.2033 12.2673 714 121.492 491.147 391.611
2241 0 61.1151 12.5174 765 110.746 491.761 394.316
2242 0 64.1212 12.3828 794 105.822 491.827 396.526
2243 0 67.1092 11.6079 779 114.009 492.638 398.71
2244 0 68.0738 12.1339 826 112.809 492.694 401.741
2245 0 71.1938 12.0516 858 112.66 493.14 405.77
2246 0 72.1232 12.1598 877 110.956 492.652 411.059
2247 0 75.0732 11.8284 888 110.257 492.691 412.821
2248 1 39.0236 9.71208 379 104.982 492.625 434.127
2249 0 42.0382 10.4429 439 109.756 491.615 435.547
2250 0 44.0838 10.8657 479 112.585 491.154 435.987
2251 0 44.055 11.6218 512 103.496 490.797 438.062
2252 0 45.151 11.1625 504 112.724 491.706 441.067
2253 0 48.1318 11.4062 549 108.847 491.574 442.113
2254 0 49.294 11.5024 567 109.141 490.792 443.936
2255 0 50.1844 11.3183 568 110.178 490.864 444.907
2256 0 52.2399 11.6386 608 106.025 491.238 447.459
2257 0 54.1468 11.4319 619 107.294 490.966 450.31
2258 0 54.2437 11.8908 645 122.487 490.431 453.183
2259 0 56.252 11.8574 667 123.66 490.429 455.532
2260 0 57.2006 12.36 707 120.802 490.645 457.29
2261 0 59.1456 12.5115 740 120.778 490.388 459.708
2262 0 62.2345 12.1476 756 113.534 489.832 461.95
2263 0 61.1811 11.6212 711 121.384 489.321 462.989
2264 0 65.119 12.0549 785 121.234 489.619 465.818
2265 0 67.1421 12.2129 820 118.557 490.127 468.262
2266 0 70.2299 12.2028 857 116.811 488.949 471.375
2267 0 72.1509 12.0165 867 124.696 490.293 474.466
2268 0 73.1671 12.0273 880 115.585 490.735 473.499
2269 1 37.0503 9.7435 361 122.942 490.438 492.446
2270 0 41.107 9.51177 391 126.565 490.156 491.852
2271 0 42.1747 10.0297 423 125.222 490.04 491.73
2272 0 43.0684 10.1002 435 116.108 489.299 491
2273 0 44.0633 10.6665 470 115.183 490.049 490.036
2274 0 44.1925 10.2959 455 122.44 489.826 490.565
2275 0 44.1845 10.0714 445 121.865 489.519 490.467
2276 0 46.1789 10.0695 465 127.677 489.789 488.944
2277 0 41.2543 8.48396 350 125.323 489.18 491.517
2278 0 48.1763 10.337 498 122.281 489.904 488.679
2279 0 51.3084 9.74499 500 119.686 490.054 489.476
2280 0 51.1322 10.3262 528 125.816 489.034 488.835
2281 0 52.1856 10.0794 526 122.595 489.968 488.202
2282 0 53.1552 10.4787 557 123.463 489.826 487.373
2283 0 55.2448 10.5168 581 123.95 489.198 485.921
2284 0 56.1422 10.3487 581 123.009 488.991 483.971
2285 1 31.0273 7.9285 246 132.789 488.098 497.683
2286 0 28.0923 7.08378 199 126.447 489.045 499.231
2287 0 30.0853 7.67818 231 123.498 489.558 497.861
2288 0 32.1361 7.65493 246 129.837 488.797 497.837
2289 0 29.031 7.06141 205 128.093 487.722 498.571
2290 0 27.0756 7.49753 203 125.749 487.892 497.621
2291 0 36.0445 8.32305 300 115.853 488.49 494.577
2292 0 38.0528 8.67215 330 112.736 487.809 494.618
2293 1 75.1719 10.19 766 108.41 489.172 475.201
2294 1 113.668 10.3547 1177 108.667 489.975 454.498
2295 1 155.03 10.6625 1653 114.502 489.648 430.301
2296 0 154.028 10.4266 1606 112.832 489.745 429.418
2297 1 160.758 6.38849 1027 122.581 489.621 441.738
2298 0 166.761 6.51832 1087 112.965 490.191 437.877
2299 0 168.415 6.72147 1132 112.895 489.677 438.116
2300 0 167.673 6.32779 1061 119.659 489.686 442.057
2301 0 166.688 6.15523 1026 113.057 490.234 443.051
2302 1 145.581 11.0797 1613 106.617 490.441 436.476
2303 0 150.633 10.894 1641 107.115 490.547 434.202
2304 1 132.489 6.88357 912 110.959 490.56 454.61
2305 0 133.581 7.01449 937 109.378 490.194 454.14
2306 0 134.263 8.28227 1112 118.466 490.379 450.271
2307 0 134.496 7.58386 1020 117.197 490.376 452.081
2308 1 58.1409 10.8013 628 105.49 490.957 481.205
2309 0 59.135 10.9918 650 106.002 491.314 480.486
2310 0 61.1294 10.8458 663 102.804 490.169 480.229
2311 1 97.2572 8.36956 814 114.504 489.991 467.584
2312 0 93.2752 7.89063 736 107.224 490.326 469.516
2313 0 96.3731 8.06242 777 105.909 489.852 468.453
2314 0 94.3157 8.13227 767 105.7 490.484 466.666
2315 0 95.2698 7.91436 754 108.507 490.883 467.187
2316 1 38.0289 8.96686 341 110.032 491.088 490.185
2317 0 38.0805 8.35074 318 110.947 490.893 490.516
2318 0 38.159 9.61766 367 105.185 492.131 489.741
2319 0 40.1559 10.1106 406 111.724 492.268 489.798
2320 0 44.0934 9.79739 432 115.69 492.039 488.333
2321 0 44.138 10.2859 454 114.639 492.48 488.348
2322 0 42.0867 10.3596 436 115.305 492.901 487.255
2323 0 44.1286 10.696 472 114.142 493.405 486.869
2324 0 38.0532 9.14509 348 117.799 493.566 489.888
2325 0 48.0744 10.5878 509 110.399 493.896 485.778
2326 0 47.0631 10.9852 517 118.791 493.735 485.534
2327 0 43.0542 8.68674 374 116.727 493.57 488.152
2328 0 48.1358 10.5119 506 115.54 493.621 482.937
2329 0 51.1442 11.1645 571 116.935 493.662 482.751
2330 0 54.0536 10.9891 594 112.712 493.803 481.689
2331 0 54.0618 11.4314 618 118.167 494.337 481.204
2332 0 54.0618 11.4314 618 133.914 495.337 481.204
2333 0 59.1318 11.2122 663 109.032 494.098 479.009
2334 0 59.1148 11.3677 672 107.579 494.143 477.588
2335 0 64.0727 11.8303 758 109.383 494.228 477.554
2336 0 67.1776 11.4473 769 118.113 493.817 476.562
2337 0 69.1328 11.2971 781 112.574 493.834 476.206
2338 0 70.0787 11.3444 795 126.781 493.631 474.73
2339 0 72.0955 11.2351 810 125.554 493.053 472.928
2340 0 69.301 10.4183 722 132.018 493.035 473.679
2341 1 41.0078 9.58355 393 119.903 492.631 489.669
2342 0 42.0194 10.1144 425 122.313 492.753 488.325
2343 0 42.0201 10.8758 457 121.247 492.954 487.93
2344 0 45.0665 11.0282 497 124.473 493.002 486.634
2345 0 44.0453 10.8525 478 129.044 494.08 486.282
2346 0 48.0454 11.2602 541 134.055 493.66 486.412
2347 0 49.0694 11.1067 545 145.242 493.723 486.594
2348 0 48.118 11.9498 575 138.941 493.809 485.939
2349 0 51.17 11.6084 594 144.51 493.226 485.519
2350 0 53.1292 11.4062 606 142.809 492.899 484.741
2351 0 53.0896 11.9421 634 133.636 492.724 483.921
2352 0 55.1042 12.304 678 133.516 492.842 483.313
2353 0 58.1005 11.7727 684 133.235 492.988 483.49
2354 0 57.1372 12.3737 707 133.694 492.808 483.071
2355 0 60.1748 12.2476 737 134.939 492.559 482.71
2356 0 62.1516 12.0673 750 134.34 492.704 481.108
2357 0 64.1285 12.4126 796 128.977 492.518 480.205
2358 0 66.1173 12.2509 810 125.309 492.252 479.156
2359 0 68.1299 12.212 832 126.394 492.18 477.921
2360 0 70.161 11.9012 835 49.7725 492.171 477.132
2361 0 72.2178 11.9777 865 123.695 492.09 476.288
2362 0 73.1994 12.1995 893 133.569 491.713 475.355
2363 0 77.2086 11.6438 899 135.453 491.75 473.96
2364 0 79.2065 11.8551 939 130.578 491.583 472.051
2365 0 81.2544 11.864 964 128.592 491.934 470.754
2366 0 84.2675 11.4635 966 125.816 491.016 469.238
2367 0 86.2619 11.639 1004 124.313 491.324 467.804
2368 0 89.2054 11.7818 1051 125.665 491.065 467.163
2369 0 92.3448 11.9877 1107 124.532 491.003 465.555
2370 1 54.112 8.18672 443 126.298 490.772 486.779
2371 0 49.1253 8.95668 440 124.65 490.639 487.689
2372 0 51.1432 8.38821 429 123.044 491.093 487.228
2373 0 53.1927 9.23059 491 124.739 490.36 485.503
2374 0 55.2027 9.03941 499 119.339 490.256 485.95
2375 0 57.1483 9.81657 561 121.959 490.016 484.645
2376 0 59.2446 10.2963 610 117.139 490.484 484.141
2377 0 62.2023 10.7231 667 118.747 490.273 483.226
2378 0 59.0782 10.7146 633 119.645 489.814 482.643
2379 0 65.184 11.1991 730 122.927 490.629 481.01
2380 0 66.0813 11.3951 753 122.138 491.015 480.344
2381 0 68.1507 11.6653 795 118.424 490.502 479.621
2382 0 71.0916 11.436 813 117.646 490.726 479.012
2383 0 72.2222 11.7416 848 115.057 490.6 477.588
2384 0 75.1618 11.6016 872 114.943 490.927 476.143
2385 0 76.3233 11.0582 844 117.435 490.514 474.671
2386 0 80.1877 11.3733 912 115.089 491.253 473.889
2387 0 83.2966 11.1049 925 117.21 490.645 473.417
2388 1 43.2011 9.51366 411 121.866 490.922 493.951
2389 0 44.2493 9.51428 421 119.128 491.074 493.311
2390 0 46.1663 9.48744 438 120.598 490.893 493.445
2391 0 46.1199 10.2125 471 125.391 490.807 491.499
2392 0 49.1069 10.1615 499 121.868 491.277 491.455
2393 0 50.2319 10.3122 518 122.639 491.382 491.064
2394 0 52.1211 10.3989 542 121.554 491.072 489.756
2395 0 52.2071 10.669 557 126.034 491.185 489.481
2396 0 55.1185 10.8675 599 122.018 491.422 487.808
2397 0 55.0683 10.9864 605 126.041 491.261 487.405
2398 0 58.1471 11.5913 674 126.184 490.896 486.445
2399 0 61.1088 11.0132 673 123.401 490.988 485.698
2400 0 61.0581 11.3826 695 129.38 490.915 484.252
2401 0 64.106 11.1846 717 122.519 491.642 483.338
2402 0 65.0946 11.322 737 124.783 491.516 481.904
2403 0 67.1721 11.076 744 130.609 491.468 480.661
2404 0 67.2068 10.1031 679 127.57 492.003 480.57
2405 0 70.1622 11.3879 799 120.932 492.01 476.738
2406 0 75.1344 11.3929 856 120.814 492.071 476.672
2407 0 78.0682 11.823 923 132.317 491.51 475.519
2408 0 81.2378 11.4971 934 122.227 491.411 473.845
2409 0 85.373 11.5142 983 126.174 491.079 471.755
2410 0 86.2944 11.9475 1031 121.689 490.77 470.11
2411 0 89.3611 11.392 1018 122.826 491.372 469.767
2412 1 46.1648 10.1159 467 118.527 491.666 490.994
2413 0 47.0953 10.6592 502 115.944 491.673 490.022
2414 0 49.3123 10.8695 536 135.618 491.961 489.942
2415 0 49.3123 10.8695 536 149.097 492.961 489.942
2416 0 52.2641 10.7148 560 136.514 492.6 488.366
2417 0 54.3271 11.2099 609 134.44 492.828 487.522
2418 0 54.392 10.7736 586 130.59 493.352 486.305
2419 0 56.1732 10.7346 603 133.72 493.338 485.458
2420 0 59.4141 10.9065 648 124.429 493.468 483.066
2421 0 61.3791 10.6877 656 134.425 493.716 483.148
2422 0 62.3067 10.8496 676 129.941 492.886 482.148
2423 0 63.4897 11.2302 713 131.944 492.914 480.913
2424 0 65.3663 10.5406 689 129.443 493.216 479.93
2425 0 68.442 10.5929 725 128.194 492.742 477.419
2426 0 72.4212 9.95566 721 123.201 493.42 476.906
2427 0 73.5409 10.6199 781 124.805 493.449 476.365
2428 0 75.4106 10.6219 801 124.391 493.729 474.454
2429 1 38.2669 10.0871 386 122.438 493.751 492.902
2430 0 40.1513 10.585 425 114.979 493.687 492.042
2431 0 45.2398 10.3449 468 121.566 493.709 489.859
2432 0 44.2782 11.0664 490 123.104 494.235 489.61
2433 0 43.2692 10.9778 475 124.316 494.341 490.168
2434 0 46.2208 10.6878 494 121.636 493.81 489.866
2435 0 47.1653 10.7282 506 120.154 493.63 488.069
2436 0 47.3698 10.5552 500 120.564 493.116 487.844
2437 0 49.1841 11.0402 543 117.247 492.788 486.595
2438 0 51.2529 10.4579 536 115.095 492.965 486.267
2439 0 50.2331 11.3869 572 127.43 492.886 485.712
2440 0 53.1843 10.6986 569 127.629 493.025 485.487
2441 0 53.1908 11.2425 598 124.254 492.799 485.129
2442 0 56.1879 11.0166 619 122.627 493.002 484.163
2443 0 58.2413 11.0575 644 134.576 492.469 483.506
2444 0 59.2593 11.5762 686 139.101 492.515 482.568
2445 0 60.2813 11.4463 690 132.574 492.626 482.459
2446 0 61.1971 11.079 678 130.239 492.954 481.097
2447 0 64.1705 10.8773 698 126.044 492.953 480.034
2448 0 65.2743 11.0763 723 123.27 493.032 478.555
2449 1 33.0142 8.39034 277 131.657 491.455 496.3
2450 0 35.1118 8.7435 307 126.114 491.44 495.466
2451 0 38.1536 9.12102 348 125.443 491.598 493.658
2452 0 40.0402 9.29065 372 121.589 491.132 492.632
2453 0 41.0852 9.29775 382 122.887 491.094 492.832
2454 0 43.0485 9.59382 413 134.416 491.036 491.501
2455 0 44.0551 10.1464 447 137.286 491.902 491.4
2456 0 45.0224 10.8391 488 141.256 491.762 489.635
2457 0 49.1495 10.4782 515 129.672 491.746 489.478
2458 0 50.1842 11.0991 557 137.066 491.206 486.434
2459 0 51.1132 10.7409 549 132.75 491.435 487.044
2460 0 52.1391 10.9898 573 134.731 491.279 486.803
2461 0 55.1323 10.8285 597 127.3 491.296 485.682
2462 0 55.1831 11.0179 608 136.625 491.572 486.224
2463 0 57.2893 10.9794 629 137.253 491.841 483.529
2464 0 59.2024 11.0975 657 134.353 491.804 483.747
2465 0 60.1655 11.136 670 130.209 492.064 482.436
2466 0 62.1704 11.1468 693 128.025 491.556 481.414
2467 0 64.1823 11.109 713 125.707 491.424 481.123
2468 0 68.1615 11.1647 761 130.95 491.327 478.29
2469 0 70.1395 11.3773 798 131.902 491.217 477.995
2470 0 71.0541 11.2027 796 137.508 491.069 477.064
2471 0 74.1273 11.143 826 132.74 491.01 476.766
2472 0 77.1386 11.3691 877 60.732 490.976 475.401
2473 1 42.0292 10.802 454 131.154 491.449 491.993
2474 0 41.0186 11.19 459 130.874 491.806 491.98
2475 0 44.0236 10.1536 447 123.709 491.638 491.342
2476 0 43.0575 11.264 485 129.821 490.35 490.55
2477 0 45.0795 10.7144 483 130.161 489.783 490.882
2478 0 47.0529 10.7326 505 123.703 490.052 490.481
2479 0 48.1112 11.1617 537 129.672 490.765 489.156
2480 0 51.0731 10.9255 558 147.324 490.871 488.403
2481 0 50.1133 11.6736 585 152.94 491.026 488.715
2482 0 53.0437 11.2926 599 148.733 491.114 487.342
2483 0 55.1074 11.5774 638 151.553 491.149 487.368
2484 0 55.1817 11.888 656 145.226 490.546 486.953
2485 0 56.1025 11.9781 672 140.482 490.6 485.621
2486 0 60.1138 11.578 696 141.937 490.694 485.353
2487 0 59.15 11.2595 666 133.653 490.716 484.203
2488 0 62.2966 11.1884 697 136.382 490.43 483.077
2489 0 62.0889 11.5318 716 129.158 490.532 481.851
2490 0 66.106 11.6631 771 131.044 490.999 481.75
2491 0 68.1584 11.9574 815 133.625 490.752 479.41
2492 0 71.2633 11.9697 853 140.358 491.059 478.597
2493 0 73.1756 11.5202 843 137.21 491.136 478.152
2494 0 70.177 10.9295 767 131.566 491.362 478.206
2495 1 39.0493 9.39837 367 131.155 491.736 494.3
2496 0 39.0737 9.85317 385 131.995 491.252 494.553
2497 0 41.1262 10.407 428 121.147 491.318 493.582
2498 0 43.138 10.4316 450 127.489 491.26 492.193
2499 0 46.1046 10.5196 485 126.41 491.468 491.433
2500 0 46.2128 11.2523 520 123.19 491.202 489.371
2501 0 49.1668 10.7796 530 118.745 490.975 489.847
2502 0 49.2257 11.6199 572 124.096 491.15 489.628
2503 0 52.1355 11.5852 604 120.813 490.753 487.786
2504 0 54.1495 11.1728 605 117.471 491.461 486.926
2505 0 54.2478 11.4106 619 115.381 491.236 486.279
2506 0 55.1541 11.5132 635 123.05 491.34 484.731
2507 0 59.2535 11.5267 683 121.694 491.432 484.184
2508 0 60.1779 11.3829 685 124.514 491.911 482.721
2509 0 61.1488 11.5456 706 123.109 491.484 481.358
2510 0 65.276 11.2139 732 121.581 492.347 480.191
2511 0 64.1376 11.6157 745 123.111 492.785 477.897
2512 0 68.2061 11.2893 770 120.574 492.695 477.487
2513 0 71.1673 11.213 798 120.376 492.976 475.796
2514 0 69.1343 10.646 736 120.995 493.424 475.372
2515 0 75.1853 11.332 852 117.257 493.246 474.723
2516 0 72.1304 10.2176 737 125.885 493.091 475.346
2517 0 73.2117 9.69791 710 122.456 492.462 476.01
2518 1 36.1828 8.37414 303 122.116 491.63 493.145
2519 0 42.1034 9.95168 419 121.439 492.107 490.098
2520 0 45.1854 9.78191 442 130.034 492.267 489.423
2521 0 45.1688 9.89622 447 129.87 492.273 488.441
2522 0 48.1807 10.2531 494 122.974 492.453 487.767
2523 0 48.156 11.1513 537 124.641 492.702 486.315
2524 0 51.1609 11.0045 563 119.998 492.718 487.327
2525 0 53.1189 11.4084 606 122.64 493.079 485.602
2526 0 51.1073 11.5835 592 123.446 492.402 486.022
2527 0 54.2148 11.7865 639 122.764 492.895 484.26
2528 0 54.0993 11.8671 642 121.171 493.164 482.883
2529 0 57.2255 11.4984 658 128.853 493.277 482.144
2530 0 57.2032 11.6427 666 130.914 493.339 480.872
2531 0 61.2174 11.1243 681 130.802 493.722 480.492
2532 0 61.1559 11.626 711 127.603 493.449 479.489
2533 0 64.1556 11.4565 735 131.299 493.709 477.521
2534 0 66.1651 11.9247 789 121.793 493.583 476.702
2535 0 69.1596 11.6108 803 120.326 493.711 476.115
2536 0 70.1439 11.5477 810 116.816 494.268 475.395
2537 0 73.1656 12.0002 878 115.614 493.612 474.092
2538 0 77.1764 11.8948 918 113.938 493.792 472.097
2539 0 79.0896 12.568 994 117.202 493.665 469.891
2540 0 81.1865 12.0217 976 116.385 493.883 467.457
2541 0 86.1463 12.6297 1088 109.763 494.199 466.737
2542 0 88.1758 13.303 1173 112.108 494.274 465.558
2543 0 92.1643 12.749 1175 116.849 493.917 465.066
2544 1 48.0402 11.303 543 116.948 492.888 485.249
2545 0 50.1156 11.4735 575 123.626 493.388 485.395
2546 0 51.1177 11.8941 608 119.688 493.086 484.076
2547 0 52.0353 11.7997 614 117.953 493.656 483.218
2548 0 52.0353 11.7997 614 165.435 494.656 483.218
2549 0 55.0392 11.7189 645 133.978 494.322 482.431
2550 0 57.0798 11.9482 682 134.616 494.475 481.971
2551 0 59.072 11.833 699 135.589 494.339 481.333
2552 0 61.1214 11.8126 722 133.55 494.154 479.997
2553 0 63.0891 11.7929 744 132.11 494.552 478.277
2554 0 66.1364 11.9148 788 122.067 494.121 477.435
2555 0 66.0713 11.9114 787 128.703 493.912 476.698
2556 0 69.1332 12.1071 837 126.237 494.01 475.738
2557 0 69.17 12.3319 853 127.386 494.315 474.591
2558 0 73.1474 11.9211 872 117.834 493.701 473.384
2559 0 74.1299 11.9925 889 121.453 493.845 471.896
2560 0 77.1241 12.616 973 124.091 493.245 470.686
2561 0 80.133 12.6664 1015 112.627 493.234 469.462
2562 0 84.1308 12.6826 1067 113.926 493.536 468.165
2563 0 86.1785 12.8338 1106 121.702 493.903 467.373
2564 0 89.3257 12.5048 1117 121.901 493.776 466.682
2565 0 92.164 12.7273 1173 126.419 493.732 464.795
2566 0 93.2366 12.7418 1188 123.915 493.714 464.322
2567 1 51.0661 11.162 570 124.095 492.821 486.16
2568 0 54.0571 11.7653 636 121.591 493.461 485.13
2569 0 55.0851 11.2916 622 117.857 493.169 485.103
2570 0 57.0251 11.9947 684 117.475 492.545 483.88
2571 0 56.0795 11.8582 665 117.901 493.881 482.624
2572 0 58.1224 11.9575 695 119.545 494.118 481.404
2573 0 62.0977 11.7879 732 114.755 494.169 481.6
2574 0 61.0961 12.3085 752 112.037 493.92 480.245
2575 0 65.1414 11.5288 751 110.348 493.764 478.286
2576 0 65.137 11.2532 733 118.896 493.461 476.899
2577 0 68.0971 11.6745 795 122.72 493.747 475.338
2578 0 70.1568 11.1465 782 121.757 493.884 474.746
2579 0 72.1566 11.5166 831 120.479 493.794 474.065
2580 0 75.229 11.5381 868 117.623 494.044 472.156
2581 0 76.2187 11.4539 873 118.513 493.696 470.9
2582 0 79.1974 11.7428 930 114.288 493.618 469.325
2583 0 82.1866 11.4496 941 118.564 493.932 467.269
2584 0 83.2626 11.3616 946 112.979 493.823 465.521
2585 0 86.1356 11.2497 969 111.406 493.54 463.818
2586 0 90.2949 10.9198 986 112.794 493.327 463.42
2587 0 91.1919 10.6588 972 114.694 493.438 462.783
2588 1 48.0306 10.4309 501 108.335 493.637 486.89
2589 0 49.1142 10.0785 495 109.105 493.622 484.133
2590 0 51.0662 11.1424 569 105.548 493.824 483.452
2591 0 53.0955 10.6789 567 108.055 493.838 484.252
2592 0 56.1352 10.9735 616 110.765 493.774 482.808
2593 0 57.0806 10.8093 617 110.253 494.148 482.415
2594 0 58.0885 11.0693 643 102.677 494.411 480.952
2595 0 59.1574 11.0045 651 111.126 493.808 479.24
2596 0 60.139 11.1575 671 114.77 493.739 479.54
2597 0 62.0803 10.7925 670 117.045 493.979 478.049
2598 0 65.0741 11.0028 716 117.263 493.282 476.278
2599 0 67.0782 10.853 728 112.527 493.194 475.955
2600 0 67.082 10.6735 716 114.26 493.81 476.191
2601 0 72.101 11.2065 808 112.041 494.062 474.312
2602 0 74.1144 11.2259 832 111.97 493.404 472.035
2603 0 78.1306 11.4936 898 105.762 493.672 471.144
2604 0 80.157 11.228 900 109.983 493.353 470.511
2605 1 43.025 8.64614 372 103.801 492.481 488.605
2606 0 46.0491 9.12071 420 99.3857 492.893 487.348
2607 0 46.0766 8.98504 414 96.7198 493.362 488.017
2608 0 49.1043 9.91766 487 100.704 494.033 487.665
2609 0 51.0551 10.1263 517 104.298 494.501 486.22
2610 0 52.0996 10.8638 566 125.606 493.896 486.495
2611 0 55.0969 11.1077 612 120.721 493.234 484.91
2612 0 57.1279 10.9579 626 122.55 493.998 484.631
2613 0 58.1198 10.9085 634 126.308 494.371 483.431
2614 0 60.0623 10.9719 659 124.605 494.174 482.296
2615 0 60.1688 11.501 692 135.38 494.392 481.767
2616 0 64.2197 10.8689 698 134.044 493.317 480.126
2617 0 65.1475 10.929 712 133.844 493.389 478.64
2618 0 66.1174 10.557 698 122.577 493.901 476.451
2619 0 68.1373 11.0072 750 120.183 493.849 475.059
2620 0 72.0865 10.3903 749 119.717 493.698 473.832
2621 0 73.056 10.9916 803 117.9 493.294 473.087
2622 0 76.1309 10.6527 811 114.12 492.832 472.118
2623 0 80.1238 11.0204 883 113.111 492.193 470.494
2624 0 84.1212 10.9485 921 116.827 493.012 469.052
2625 0 85.2614 10.8959 929 115.382 492.181 468.42
2626 0 88.3137 10.8137 955 113.419 491.853 467.044
2627 0 90.2113 10.9521 988 117.376 492.102 464.731
2628 1 52.215 10.8589 567 110.369 491.737 487.03
2629 0 52.1724 10.4653 546 118.108 492.394 486.342
2630 0 53.2017 11.0899 590 111.275 492.607 485.776
2631 0 56.3025 11.0475 622 121.686 492.36 484.214
2632 0 57.2198 10.6432 609 113.11 492.548 484.979
2633 0 59.3115 11.094 658 123.339 492.878 483.198
2634 0 61.131 11.1891 684 112.466 492.69 482.841
2635 0 62.2174 11.6688 726 120.685 491.924 481.311
2636 0 64.194 11.5743 743 130.069 491.93 482.336
2637 0 65.1512 11.6652 760 122.188 491.967 481.497
2638 0 66.3739 11.7968 783 119.428 491.96 480.845
2639 0 67.1886 12.0854 812 130.845 491.74 480.521
2640 0 69.3292 11.8998 825 130.844 491.97 480.13
2641 0 73.2806 12.1451 890 126.644 492.004 478.263
2642 0 75.294 11.661 878 127.646 492.473 477.237
2643 0 77.3887 12.1077 937 122.204 492.645 476.459
2644 0 80.2514 11.8627 952 122.145 492.832 475.292
2645 0 83.4065 11.426 953 127.15 492.184 474.487
2646 0 85.2543 11.5067 981 122.157 492.459 473.007
2647 0 86.3143 11.9215 1029 121.333 492.829 470.944
2648 1 44.1896 10.4097 460 117.033 493.052 492.574
2649 0 45.0756 11.159 503 116.441 492.736 492.215
2650 0 47.2174 10.5046 496 117.101 493.254 492.2
2651 0 49.1985 11.0776 545 114.585 493.053 490.317
2652 0 51.0803 11.0806 566 118.519 493.095 489.698
2653 0 52.1118 10.8804 567 114.705 492.577 489.513
2654 0 52.1792 12.3613 645 106.152 492.491 487.86
2655 0 49.2006 11.5852 570 116.881 492.525 487.721
2656 0 53.2133 10.8807 579 121.254 492.335 487.532
2657 0 52.2537 11.1188 581 118.01 492.477 486.575
2658 0 54.2175 11.1219 603 122.204 492.41 485.76
2659 0 57.1549 11.67 667 129.811 492.207 485.33
2660 0 58.1164 11.649 677 129.82 492.136 484.48
2661 0 59.4144 11.3609 675 127.769 491.979 482.93
2662 0 62.2882 11.8321 737 126.7 492.046 481.916
2663 0 63.2319 11.782 745 123.553 492.156 480.93
2664 0 63.3325 12.0475 763 132.776 492.075 481.19
2665 0 68.2359 12.0318 821 128.508 491.798 480.43
2666 0 70.3506 12.1392 854 121.418 491.629 479.055
2667 0 72.3198 12.182 881 117.156 491.59 478.09
2668 0 75.391 12.0837 911 123.153 491.846 477.922
2669 0 76.2285 12.4232 947 128.038 491.646 476.66
2670 0 78.3423 12.3305 966 124.625 491.628 475.214
2671 0 83.2499 11.9039 991 123.257 491.91 474.614
2672 0 85.3511 12.2201 1043 120.26 491.504 473.432
2673 0 91.4256 12.2723 1122 124.668 491.758 470.602
2674 0 91.3533 12.2929 1123 107.427 492.07 470.529
2675 0 92.1972 12.4733 1150 95.973 492.157 468.645
2676 1 50.0666 11.6245 582 97.2955 492.416 489.962
2677 0 48.1134 12.0133 578 93.1799 492.542 489.697
2678 0 51.1269 11.7355 600 94.51 492.167 489.717
2679 0 51.0554 11.1252 568 98.4454 492.004 488.759
2680 0 52.074 11.5989 604 95.2682 491.965 488.06
2681 0 51.0955 11.3121 578 103.756 492.284 486.604
2682 0 53.0375 11.6521 618 102.317 492.18 484.562
2683 0 51.0771 10.3373 528 112.85 492.059 486.746
2684 0 59.092 12.2013 721 98.2732 492.472 485.465
2685 0 60.0586 11.4055 685 101.18 491.375 483.448
2686 0 63.1241 11.7388 741 107.179 491.158 483.096
2687 0 64.0741 11.5023 737 102.818 490.734 481.539
2688 0 66.0712 11.7298 775 100.055 490.791 479.945
2689 0 67.1376 11.6775 784 117.587 490.703 480.384
2690 0 70.1408 12.0472 845 101.821 490.505 478.72
2691 0 72.1652 11.5568 834 101.356 490.424 477.98
2692 0 74.2539 11.0836 823 94.9769 490.689 476.535
2693 0 75.2605 11.3207 852 94.7676 491.102 475.573
2694 0 79.2347 11.4722 909 99.6425 490.81 473.15
2695 1 40.0556 10.6102 425 95.7412 491.48 493.184
2696 0 44.1843 10.8183 478 104.588 491.657 492.805
2697 0 45.1458 10.5658 477 107.342 491.637 492.614
2698 0 38.0137 8.75999 333 111.045 491.79 493.919
2699 0 37.0495 8.907 330 112.933 491.755 494.485
2700 0 48.0529 10.8006 519 108.865 491.796 489.832
2701 0 50.1796 10.9805 551 110.374 491.699 489.646
2702 0 51.073 11.1409 569 113.485 491.673 488.974
2703 0 48.1169 10.5576 508 110.291 492.224 487.207
2704 0 54.1504 10.3785 562 113.413 491.849 487.221
2705 0 54.0605 10.8212 585 107.062 491.515 485.2
2706 0 60.1153 10.2969 619 105.376 491.842 484.326
2707 0 60.0951 10.5666 635 105.82 491.513 483.066
2708 0 64.0356 11.1032 711 101.37 492.028 482.823
2709 1 32.061 9.13883 293 102.348 491.02 498.413
2710 0 34.0534 8.78033 299 111.726 491.054 497.167
2711 0 35.0301 9.53466 334 113.413 490.548 496.569
2712 0 36.0132 10.2185 368 110.696 490.541 496.845
2713 0 37.042 9.6647 358 110.899 491.053 495.813
2714 0 33.0103 9.05777 299 109.027 491.478 496.612
2715 0 33.0972 9.48722 314 109.175 491.185 495.959
2716 0 42.0531 11.0099 463 103.659 490.533 494.164
2717 0 44.0939 10.8859 480 104.76 490.667 493.29
2718 0 45.1946 10.5544 477 104.65 490.426 493.258
2719 0 46.0771 10.808 498 103.817 491.024 492.327
2720 0 47.2121 10.887 514 110.979 490.549 490.788
2721 0 49.1871 11.0192 542 112.28 490.566 490.297
2722 0 50.1855 10.4014 522 114.998 490.603 489.012
2723 0 51.2432 10.8892 558 105.785 490.627 489.106
2724 0 53.183 11.0186 586 107.517 490.584 488.691
2725 0 55.1769 10.4935 579 112.06 490.497 487.936
2726 0 57.1006 10.5953 605 106.111 490.499 487.255
2727 0 58.2402 10.5254 613 102.406 490.643 485.698
2728 0 59.3294 10.5007 623 105.705 490.74 485.48
2729 0 61.2228 10.764 659 100.627 490.932 484.898
2730 0 63.1512 10.6886 675 99.2222 490.652 483.25
2731 0 66.4865 10.5435 701 93.9301 490.78 482.735
2732 0 68.3059 10.5115 718 97.0571 491.102 480.751
2733 0 71.2101 10.2935 733 98.4025 491.409 479.052
2734 0 73.3966 10.4637 768 92.5052 490.904 478.086
2735 0 74.4163 9.97094 742 99.2035 491.701 478.492
2736 1 41.1758 9.98159 411 96.5377 492.212 494.47
2737 0 41.1004 10.4622 430 98.6209 492.002 493.988
2738 0 43.0582 10.5206 453 35.9912 491.74 493.06
2739 0 46.153 10.4435 482 94.6598 491.811 491.865
2740 0 46.0924 10.0667 464 95.1918 492.369 492.041
2741 0 48.1671 10.3182 497 100.676 492.243 490.632
2742 0 50.1177 10.2958 516 109.707 491.481 489.143
2743 0 50.0865 10.4819 525 108.122 491.524 488.754
2744 0 49.1213 10.525 517 103.569 491.3 489.133
2745 0 52.1163 10.1888 531 102.812 490.638 488.271
2746 0 52.3599 10.275 538 95.8216 491.18 487.842
2747 0 53.2568 10.3837 553 95.1844 490.76 487.336
2748 0 57.2618 9.83203 563 97.4298 490.837 486.295
2749 0 58.2112 9.86065 574 95.3206 490.442 484.223
2750 0 59.2567 9.34915 554 93.6787 490.144 484.339
2751 1 121.574 10.6684 1297 105.402 490.608 452.255
2752 0 125.702 10.1828 1280 111.502 490.662 450.441
2753 0 131.745 9.80686 1292 118.719 490.38 445.505
2754 1 40.0961 7.35732 295 105.061 491.322 493.424
2755 0 40.0554 7.939 318 105.673 491.531 493.478
2756 0 40.0691 6.71341 269 104.323 491.178 495.301
2757 0 40.0358 7.11863 285 102.477 491.053 495.305
2758 0 42.0476 9.86976 415 97.6626 491.306 494.352
2759 0 40.1378 9.44248 379 111.166 491.828 492.583
2760 0 37.1774 8.74186 325 110.72 491.628 492.643
2761 0 39.0812 9.31394 364 116.297 491.97 492.651
2762 0 39.0509 9.03947 353 113.241 492.232 491.935
2763 0 40.0564 8.46308 339 111.54 492.33 492.507
2764 0 40.094 9.4029 377 109.08 492.003 491.748
2765 1 95.2929 10.5674 1007 104.908 492.112 467.702
2766 0 96.5707 10.1687 982 110.19 491.016 465.892
2767 0 98.4347 10.9616 1079 108.158 491.21 463.153
2768 0 106.546 10.7089 1141 109.875 491.316 460.082
2769 0 106.52 10.3549 1103 110.143 491.421 460.539
2770 1 167.53 9.77736 1638 118.325 491.647 428.817
2771 0 172.806 10.3527 1789 116.394 491.463 424.645
2772 1 326.333 7.51992 2454 121.277 491.641 368.506
2773 0 332.303 7.54433 2507 123.288 492.327 365.721
2774 1 345.663 7.67799 2654 123.104 491.777 354.91
2775 1 144.778 8.85492 1282 115.061 491.79 440.187
2776 0 144.489 8.47814 1225 116.138 491.176 442.16
2777 0 142.571 8.52206 1215 110.172 491.172 441.686
2778 0 142.433 8.02485 1143 103.775 491.337 442.946
2779 0 144.828 10.6057 1536 99.4987 491.393 439.018
2780 0 135.436 6.51968 883 110.075 491.599 454.293
2781 0 140.424 6.40204 899 110.129 491.773 455.419
2782 1 384.489 10.5881 4071 108.863 492.459 323.408
2783 0 368.599 11.2534 4148 104.098 492.966 321.808
2784 0 368.066 10.547 3882 110.816 493.45 323.255
2785 0 368.44 10.1645 3745 102.098 492.974 325.054
2786 0 391.681 9.96729 3904 103.444 492.942 324.629
2787 0 389.964 10.5189 4102 103.761 492.174 318.034
2788 1 51.075 10.7685 550 101.173 493.613 484.262
2789 0 53.1352 10.8026 574 107.235 493.12 483.34
2790 0 55.0734 10.8945 600 100.943 493.285 482.177
2791 0 56.1344 11.2587 632 98.1392 493.473 481.422
2792 0 58.1636 11.0378 642 104.586 493.696 480.908
2793 0 59.0839 11.1706 660 104.044 493.723 480.574
2794 0 61.0625 11.218 685 101.238 494.181 479.518
2795 0 64.0686 11.1287 713 101.325 494.767 478.201
2796 0 66.0958 11.2715 745 99.1987 495.118 478.395
2797 0 65.1224 11.5782 754 105.792 495.304 477.505
2798 0 68.0482 11.5065 783 101.336 494.951 476.148
2799 0 72.0979 11.5399 832 97.4014 494.615 473.841
2800 0 72.0979 11.5399 832 129.722 494.615 473.841
2801 0 60.0759 7.04109 423 106.4 494.868 482.82
2802 0 60.1031 7.05454 424 104.896 494.762 482.856
2803 0 60.1471 7.9638 479 107.925 494.591 481.904
2804 0 61.176 7.06159 432 98.6319 494.377 484.069
2805 1 46.0622 9.42204 434 99.3249 494.629 487.18
2806 0 48.1629 9.6755 466 97.5064 494.783 486.163
2807 0 51.184 9.96405 510 96.9706 494.692 484.774
2808 0 54.2308 10.6397 577 93.0173 494.338 483.047
2809 0 56.1352 11.1873 628 87.4522 494.768 482.9
2810 0 58.083 11.3286 658 89.8875 494.854 482.307
2811 0 59.223 10.8404 642 88.3551 493.883 480.978
2812 0 59.2282 10.8901 645 89.3876 494.155 479.826
2813 0 60.2906 10.665 643 91.2442 494.103 480.271
2814 0 60.2666 10.7688 649 90.9183 493.794 479.575
2815 0 64.1786 11.1875 718 92.5153 494.426 477.298
2816 0 65.1991 11.4879 749 87.9599 494.437 477.227
2817 0 69.2314 11.3532 786 89.3282 494.086 476.067
2818 0 69.3504 11.1895 776 88.2925 494.308 475.367
2819 0 74.3316 11.5294 857 89.1704 494.368 473.828
2820 0 76.366 11.4187 872 85.4702 494.651 473.029
2821 0 75.2551 11.6404 876 90.1632 494.332 471.418
2822 0 78.3878 10.8435 850 93.1682 494.272 471.86
2823 0 84.2762 11.6878 985 85.5685 494.089 469.545
2824 0 88.2556 11.5007 1015 86.135 494.189 468.588
2825 0 90.3899 11.8708 1073 86.219 494.48 467.166
2826 0 85.3722 10.2375 874 90.6693 494.59 470.281
2827 0 76.1355 8.15651 621 95.1787 495.507 473.923
2828 0 78.2039 8.04308 629 93.5628 494.506 472.725
2829 0 85.2073 8.47345 722 95.0706 494.331 471.47
2830 0 83.146 8.79177 731 97.2025 493.353 471.826
2831 0 85.1306 10.5367 897 94.2085 493.146 469.392
2832 0 81.2074 8.80461 715 97.842 493.415 472.369
2833 1 117.32 11.2939 1325 91.1245 492.543 452.315
2834 0 117.186 11.486 1346 88.8923 492.796 451.166
2835 0 119.157 11.5645 1378 94.3788 493.093 449.012
2836 1 138.523 10.8213 1499 98.7425 492.803 441.436
2837 0 139.376 10.834 1510 97.7192 492.925 441.867
2838 0 139.345 10.5422 1469 99.8162 492.948 442.6
2839 0 140.195 10.9918 1541 103.742 492.539 442.846
2840 0 140.166 11.2866 1582 104.327 492.929 441.51
2841 1 203.589 11.2187 2284 101.047 493.005 408.363
2842 0 210.701 11.5092 2425 111.759 493.607 402.696
2843 0 216.088 11.2362 2428 114.187 493.835 400.35
2844 0 221.86 11.4397 2538 114.529 493.409 396.635
2845 0 230.23 11.2453 2589 107.731 493.238 392.572
2846 0 235.304 11.3853 2679 110.708 493.67 390.673
2847 1 208.651 7.43826 1552 116.448 492.631 422.09
2848 0 216.824 7.57756 1643 115.662 491.979 417.777
2849 0 220.684 8.00239 1766 120.672 493.766 410.84
2850 0 229 8.77294 2009 117.145 493.339 402.649
2851 0 235.103 9.35761 2200 119.027 493.355 397.153
2852 0 244.932 9.68022 2371 114.474 493.693 390.184
2853 0 255.267 9.47244 2418 106.581 493.524 386.706
2854 0 263.87 9.52364 2513 115.482 492.794 381.468
2855 0 271.063 10.1379 2748 116.785 493.356 377.268
2856 0 277.006 9.58462 2655 115.197 493.749 373.593
2857 1 174.802 11.1097 1942 112.939 493.4 423.65
2858 0 174.751 10.4778 1831 115.836 493.325 422.556
2859 0 174.852 10.7005 1871 119.412 493.823 422.07
2860 0 174.86 12.3356 2157 112.556 493.809 419.834
2861 0 175.952 11.7646 2070 113.219 493.947 419.954
2862 0 174.694 11.3627 1985 108.617 494.117 420.099
2863 0 22.0397 10.5264 232 108.793 495.539 343.659
2864 1 174.358 5.15032 898 118.099 495.099 296.163
2865 0 175.596 5.10831 897 112.505 494.952 299.731
2866 1 196.876 5.39932 1063 115.861 495.367 282.639
2867 0 14.0044 10.7823 151 105.311 495.079 406.113
2868 0 12.0005 9.16628 110 102.527 494.709 404.745
2869 0 107.523 10.5559 1135 99.3568 494.189 453.72
2870 0 106.396 11.1001 1181 99.3243 493.064 453.098
2871 0 114.336 11.44 1308 108.589 493.956 342.95
2872 0 71.1453 12.0317 856 106.444 494.394 255.308
2873 0 83.1058 12.3216 1024 106.659 494.218 248.719
2874 0 1 2 2 77 494.5 286.5
2875 0 103.52 10.4425 1081 107.153 493.33 323.95
2876 1 125.62 10.3805 1304 103.98 494.136 311.557
2877 0 125.495 11.4188 1433 99.8046 493.707 312.204
2878 1 34.0826 7.51117 256 110.578 492.91 354.895
2879 0 41.0687 6.23346 256 112.578 493.09 351.145
2880 0 42.1212 5.76906 243 108.93 493.778 351.473
2881 0 137.534 11.7571 1617 98.2925 492.91 434.758
2882 0 137.375 11.516 1582 97.6466 492.966 435.159
2883 0 138.471 11.4103 1580 97.1576 492.949 435.34
2884 1 73.124 9.24457 676 91.5237 493.096 468.657
2885 0 79.2017 11.1109 880 95.8966 493.026 467.093
2886 0 83.3349 11.2918 941 96.9575 492.936 465.836
2887 0 85.4449 11.2002 957 97.1358 493.185 465.661
2888 0 89.1678 11.4615 1022 96.0665 492.794 464.57
2889 0 90.3102 12.1027 1093 91.6057 492.738 463.087
2890 0 93.2216 11.4673 1069 91.6268 493.213 460.764
2891 0 97.2263 11.3755 1106 105.147 493.416 460.052
2892 0 100.556 11.1977 1126 107.144 492.927 459.052
2893 0 99.1758 11.3939 1130 110.677 492.881 457.381
2894 0 105.479 11.8507 1250 104.454 493.22 456.198
2895 1 55.1467 11.1158 613 104.772 493.126 481.277
2896 0 58.2624 11.7743 686 101.141 492.968 481.945
2897 0 58.2736 11.9437 696 94.5187 493.023 481.266
2898 0 59.3072 11.5669 686 90.137 492.843 480.949
2899 0 62.1882 11.7386 730 90.489 492.982 479.405
2900 0 65.1073 11.8573 772 87.4443 492.955 479.006
2901 0 66.142 11.8533 784 108.482 493.056 478.444
2902 0 69.263 11.2325 778 111.35 493.222 475.774
2903 0 72.2682 11.7894 852 103.001 493.127 475.188
2904 0 74.113 11.9412 885 99.7944 493.214 473.751
2905 1 36.082 10.1713 367 99.4496 493.003 493.368
2906 0 37.078 10.3566 384 94.776 493.529 491.904
2907 0 37.058 10.9828 407 95.8821 494.206 491.644
2908 0 37.1069 11.3456 421 95.9287 495.081 490.672
2909 0 40.0596 10.6092 425 101.579 494.814 488.969
2910 0 40.0414 11.1385 446 100.148 494.888 490.814
2911 0 42.035 10.6578 448 103.857 494.583 490.5
2912 0 43.147 10.9625 473 110.512 494.541 489.04
2913 0 44.0826 11.3197 499 111.212 494.525 488.992
2914 0 44.0586 11.5074 507 110.487 494.462 487.69
2915 0 48.1115 10.4341 502 109.394 495.086 486.765
2916 0 46.0246 10.9289 503 108.185 494.268 486.35
2917 0 51.0558 10.988 561 106.866 494.808 485.283
2918 0 51.0876 10.9616 560 115.229 494.402 483.755
2919 0 50.0716 10.9243 547 114.499 494.186 483.649
2920 0 52.1174 10.745 560 108.12 494.041 482.005
2921 0 55.0851 10.7107 590 112.829 493.737 481.72
2922 0 59.1531 11.2758 667 99.9595 493.78 478.916
2923 0 58.044 11.0089 639 105.33 493.21 478.549
2924 0 63.0876 10.3982 656 113.332 493.159 477.526
2925 0 63.1817 10.5569 667 113.429 493.358 476.826
2926 0 64.1986 10.0781 647 111.471 493.624 476.662
2927 0 66.3154 10.4501 693 113.984 493.342 476.595
2928 0 69.3152 11.4405 793 109.257 493.409 476.965
2929 1 35.0247 10.0786 353 104 494.337 495.051
2930 0 35.0848 10.9164 383 102.167 494.428 493.277
2931 0 37.1253 10.5588 392 101.283 494.232 492.691
2932 0 37.0726 10.3311 383 104.958 494.577 492.068
2933 0 37.1579 11.1955 416 103.385 493.69 491.024
2934 0 39.0767 11.2343 439 102.33 493.617 491.74
2935 0 40.2932 11.3667 458 104.76 494 490.522
2936 0 40.1645 11.3035 454 113.725 493.855 490.066
2937 0 42.2002 11.0663 467 116.073 493.291 489.812
2938 0 45.1985 11.6154 525 101.918 493.398 489.472
2939 0 46.1296 12.0096 554 101.31 493.754 487.305
2940 0 49.276 11.669 575 97.033 492.887 487.708
2941 0 48.1764 11.4579 552 97.0181 493.159 487.078
2942 0 50.1539 11.365 570 97.2333 493.382 486.002
2943 0 52.2627 11.5761 605 94.438 493.364 486.066
2944 0 52.159 11.3499 592 111.12 492.608 484.985
2945 0 54.1106 11.033 597 102.585 493.256 482.323
2946 0 55.1023 11.4514 631 107.642 493.323 483.927
2947 0 57.0693 11.6174 663 110.332 494.222 481.897
2948 0 60.1854 11.6307 700 99.68 494.69 480.137
2949 0 62.1729 11.6771 726 25.3595 494.068 479.511
2950 0 64.2107 11.8828 763 103.739 493.473 478.333
2951 1 33.1232 9.41937 312 107.776 493.215 493.92
2952 0 32.3542 9.67416 313 94.524 493.521 493.968
2953 0 34.1715 9.89127 338 94.2396 493.388 492.885
2954 0 33.1429 10.1983 338 95.6923 493.151 492.278
2955 0 36.31 9.96969 362 98.3619 493.318 492.453
2956 0 38.1924 10.3162 394 93.3629 493.178 490.393
2957 0 39.0678 10.6737 417 93.5444 492.681 490.499
2958 0 37.1129 11.4515 425 99.7647 493.496 490.739
2959 0 40.1267 11.5135 462 93.948 493.201 489.615
2960 0 42.1597 11.409 481 114.555 492.79 489.193
2961 0 42.0525 11.9137 501 106.902 492.886 488.455
2962 0 43.0335 12.1533 523 107.214 492.878 487.707
2963 0 46.1629 11.6761 539 103.122 492.095 486.364
2964 0 47.1571 11.5571 545 104.828 492.56 486.455
2965 0 47.1608 12.0863 570 99.2456 491.988 486.284
2966 0 49.0657 11.6375 571 104.436 492.452 485.173
2967 0 49.1971 12.2975 605 103.134 492.357 485.098
2968 0 53.0975 11.639 618 105.85 492.062 485.667
2969 0 53.1096 11.8623 630 112.908 492.16 484.041
2970 0 53.1602 12.1519 646 118.892 491.867 483.203
2971 0 56.1292 11.812 663 118.884 491.445 482.193
2972 0 59.2908 11.8737 704 117.342 491.631 481.7
2973 0 60.2337 11.8538 714 116.786 491.112 481.382
2974 0 63.3212 12.0971 766 118.678 491.064 480.285
2975 0 64.3865 12.2852 791 118.306 490.913 480.851
2976 0 67.3148 11.6913 787 125.276 491.038 478.637
2977 0 68.441 11.7035 801 128.07 490.895 477.275
2978 0 70.2777 12.0664 848 129.111 491.001 476.447
2979 0 72.3944 12.1418 879 128.071 490.763 474.577
2980 0 76.3875 12.0046 917 130.081 490.222 473.547
2981 1 39.2618 10.9521 430 129.86 490.235 492.609
2982 0 40.2487 11.6525 469 124.243 490.102 491.808
2983 0 40.2029 12.3125 495 123.263 489.921 491.455
2984 0 43.2678 11.9257 516 118.297 490.529 490.686
2985 0 45.1262 11.9664 540 121.422 490.45 490.607
2986 0 46.2669 12.1253 561 116.743 491.039 490.107
2987 0 47.1584 12.1293 572 117.406 490.184 489.264
2988 0 49.1634 12.5907 619 112.9 490.344 488.302
2989 0 51.119 12.0699 617 120.836 490.536 487.485
2990 0 54.0971 12.0339 651 128.069 490.329 487.642
2991 0 54.2187 12.3389 669 138.804 490.789 487.254
2992 0 56.1076 12.5117 702 132.725 490.59 486.125
2993 0 58.1382 12.2295 711 130.339 490.813 485.736
2994 0 58.2588 12.1012 705 132.064 490.896 485.166
2995 0 57.1878 11.9256 682 118.133 490.864 482.422
2996 0 56.0984 12.2642 688 119.673 490.968 482.124
2997 0 64.1831 11.9502 767 122.429 491.512 479.407
2998 0 66.307 11.5674 767 124.627 491.248 478.199
2999 0 71.1274 12.1894 867 124.454 491.046 477.57
3000 0 72.1829 11.7479 848 118.068 490.875 475.129
3001 1 116.291 8.37555 974 122.763 490.939 459.06
3002 1 75.2422 11.6291 875 113.346 491.729 471.446
3003 0 81.2275 11.9418 970 111.264 491.101 469.979
3004 1 118.221 11.064 1308 115.891 491.224 448.419
3005 1 165.245 8.31492 1374 120.743 490.953 436.008
3006 1 91.2079 11.7753 1074 112.492 491.084 463.854
3007 0 94.3204 12.0653 1138 113.599 491.516 461.23
3008 1 173.374 6.84071 1186 122.209 491.618 436.941
3009 0 172.25 6.42671 1107 122.148 491.706 440.455
3010 1 53.0581 11.5722 614 99.9055 491.923 482.967
3011 0 53.1131 11.7674 625 103.731 491.562 483.115
3012 0 56.2611 11.4466 644 110.522 491.502 481.525
3013 1 27.1318 7.70315 209 120.249 491.722 495.014
3014 0 28.0883 7.44083 209 108.541 491.804 494.311
3015 0 30.1535 8.45674 255 104.184 491.584 493.659
3016 0 30.151 8.32477 251 102.602 492.426 493.231
3017 0 31.1026 7.81285 243 103.424 491.527 492.296
3018 0 34.1877 8.33633 285 109.898 491.13 492.253
3019 0 33.1177 8.36411 277 101.578 491.567 491.917
3020 0 34.2294 8.53067 292 96.8836 491.322 491.791
3021 0 37.1494 9.01764 335 92.6507 491.564 490.131
3022 0 36.1554 10.2059 369 90.0163 491.696 490.444
3023 0 40.175 9.11014 366 108.631 491.877 490.437
3024 0 41.193 10.0988 416 107.964 491.964 489.524
3025 0 44.2405 11.008 487 106.146 491.979 488.14
3026 0 45.261 11.7982 534 102.213 492.715 487.082
3027 0 45.126 11.4125 515 107.532 492.262 486.99
3028 0 48.1202 11.4297 550 97.6818 492.936 485.895
3029 0 49.2006 11.9714 589 102.55 492.779 484.754
3030 0 52.2218 11.8916 621 94.8953 492.924 484.33
3031 0 53.1351 11.9318 634 96.9227 493.287 483.554
3032 0 55.1422 11.8421 653 94.9694 493.181 483.724
3033 0 54.1812 12.4213 673 90.1412 493.097 483.428
3034 0 57.1803 11.9272 682 91.5718 493.276 481.095
3035 0 59.2247 11.9038 705 88.2752 493.321 480.85
3036 0 61.1434 12.07 738 85.2331 493.398 479.259
3037 0 62.2743 12.5252 780 83.0795 493.485 477.944
3038 0 66.2311 12.7735 846 80.2411 493.158 476.884
3039 0 68.2057 12.2131 833 79.8295 493.212 475.449
3040 0 68.2983 12.6357 863 80.4357 493.316 474.644
3041 0 72.2578 12.5384 906 87.6369 493.342 473.156
3042 0 73.164 12.8205 938 81.79 494.082 472.036
3043 0 73.164 12.8205 938 161.122 495.082 472.036
3044 0 78.1655 12.6526 989 90.5986 493.924 469.915
3045 0 81.1522 12.6059 1023 88.7576 494.152 467.955
3046 0 85.2255 13.1416 1120 93.2607 494.471 465.987
3047 0 85.1526 13.3642 1138 94.5931 494.793 464.512
3048 0 89.1703 12.5939 1123 95.561 494.86 464.841
3049 1 46.1008 10.8024 498 95.3374 494.06 485.882
3050 0 49.1498 10.9868 540 90.1741 493.02 485.226
3051 0 49.0613 11.9239 585 88.4444 493.59 484.432
3052 0 51.042 11.7354 599 90.9015 493.135 482.77
3053 0 52.1017 11.5927 604 91.3576 492.434 483.124
3054 0 52.0534 11.8532 617 85.2188 492.909 481.938
3055 0 54.0357 12.0661 652 82.3221 492.768 480.391
3056 0 56.0709 11.753 659 85.2458 492.275 479.983
3057 0 59.0852 11.5088 680 85.3809 492.657 480.641
3058 0 60.1336 12.256 737 82.6554 492.362 479.324
3059 0 60.0496 11.9235 716 77.3561 492.761 477.598
3060 0 64.1454 12.3314 791 78.7244 492.742 477.622
3061 0 66.0776 12.0313 795 82.5711 493.013 476.121
3062 0 69.243 11.8135 818 97.0403 493.22 475.659
3063 0 68.0934 12.4094 845 94.8663 493.48 475.091
3064 0 72.0656 12.1972 879 85.4039 493.623 473.463
3065 0 75.0942 12.1847 915 82.2951 493.32 472.804
3066 0 77.0874 12.2977 948 81.1086 493.34 471.368
3067 0 80.0891 12.3363 988 88.6417 493.372 469.24
3068 0 82.1275 12.3467 1014 89.1065 492.985 468.076
3069 0 87.0756 14.1601 1233 84.6902 492.884 463.539
3070 0 88.1344 13.105 1155 80.2606 492.326 464.219
3071 1 48.0823 10.274 494 83.2166 493.387 487.289
3072 0 49.0466 11.1934 549 84.0656 493.137 485.137
3073 0 50.0243 11.5144 576 83.7257 492.95 483.01
3074 0 53.0172 12.0715 640 76.15 492.836 483.77
3075 0 54.1071 12.1426 657 79.6636 493.604 482.61
3076 0 57.0966 11.9271 681 81.2908 493.615 481.759
3077 0 56.1546 12.0916 679 83.7879 493.427 481.084
3078 0 59.1617 12.2376 724 83.2666 493.323 480.529
3079 0 59.1284 12.16 719 83.5257 492.602 480.058
3080 0 60.1547 12.2517 737 83.2985 492.204 478.593
3081 0 64.1654 12.7015 815 81.2736 492.48 478.519
3082 0 68.1629 12.8662 877 82.5462 492.233 477.035
3083 0 70.1611 12.8846 904 83.1117 491.696 476.903
3084 0 70.172 12.7544 895 85.2056 491.765 475.636
3085 0 72.1303 13.5033 974 93.1047 492.04 475.003
3086 0 76.0864 13.419 1021 89.4525 492.445 473.385
3087 0 79.1834 13.4498 1065 90.1418 491.468 472.032
3088 0 81.1032 13.5506 1099 90.8981 491.866 471.354
3089 1 42.0816 10.8598 457 87.5055 490.974 489.085
3090 0 44.0705 10.7328 473 89.4989 491.015 489.427
3091 0 45.1227 11.5685 522 88.4808 492.111 489.167
3092 0 47.1011 11.8681 559 86.4472 492.229 489.512
3093 0 49.0966 11.8134 580 55.1552 491.714 488.417
3094 0 48.0956 11.8722 571 83.6182 491.737 487.119
3095 0 51.1202 11.9718 612 85.1879 491.693 486.315
3096 0 51.0854 12.3519 631 84.1094 491.144 485.811
3097 0 53.1283 12.1592 646 82.0464 491.283 485.373
3098 0 54.1332 12.2291 662 84.7024 490.89 485.172
3099 0 57.0973 12.2423 699 84.8927 491.439 483.3
3100 0 58.1597 11.9671 696 81.6236 491.566 482.405
3101 0 58.1031 12.4434 723 86.6072 492.303 481.978
3102 0 61.1204 12.6635 774 87.363 492.682 480.947
3103 0 63.0847 12.1583 767 86.983 492.475 479.656
3104 0 65.0764 13.0462 849 82.6125 491.596 477.814
3105 0 66.1041 12.677 838 85.7721 491.619 477.426
3106 0 68.0748 12.6625 862 86.4026 491.853 475.897
3107 0 72.0879 12.346 890 85.5225 492.064 474.307
3108 0 75.1568 12.6535 951 92.5363 491.831 472.736
3109 0 76.0542 11.9783 911 93.9956 492.166 472.179
3110 1 38.0669 8.95792 341 94.7742 491.038 491.167
3111 0 40.0169 9.6959 388 95.9175 490.894 489.912
3112 0 41.0278 9.79823 402 95.1144 491.403 488.833
3113 0 41.0536 10.1331 416 94.9327 491.651 488.358
3114 0 44.0426 11.3981 502 93.5717 492.163 488.349
3115 0 46.0918 11.9761 552 95.8949 491.924 487.418
3116 0 46.0594 11.42 526 96.3194 491.624 486.255
3117 0 46.1032 11.9515 551 104.82 491.472 486.461
3118 0 48.1034 12.2029 587 113.482 491.785 486.332
3119 0 50.0277 12.0133 601 115.97 491.696 484.324
3120 0 51.1439 12.0445 616 114.226 492.12 484.159
3121 0 52.0668 12.58 655 115.751 492.701 484.038
3122 0 55.0916 12.0708 665 121.194 492.535 483.018
3123 0 57.0922 12.0332 687 118.996 492.942 482
3124 0 59.033 11.9933 708 111.205 492.864 480.34
3125 0 60.0937 13.0629 785 121.436 493.103 479.315
3126 0 63.0934 12.6638 799 112.305 492.606 478.563
3127 0 64.0799 13.8889 890 115.455 492.909 476.379
3128 0 67.0905 12.5651 843 116.56 493.199 476.911
3129 0 68.0701 12.9719 883 119.521 493.345 475.964
3130 0 70.0587 12.7036 890 119.63 492.925 475.073
3131 0 74.061 12.7732 946 116.426 493.072 473.857
3132 0 77.0512 13.1471 1013 111.333 492.906 471.312
3133 0 79.0645 13.2297 1046 114.238 493.402 470.898
3134 0 81.0879 13.3682 1084 110.559 493.862 468.839
3135 0 84.1468 13.1199 1104 112.76 493.976 467.364
3136 0 87.1306 13.4166 1169 113.192 493.852 466.031
3137 1 44.0591 11.0987 489 111.076 493.814 487.573
3138 0 45.0783 11.8682 535 114.256 494.069 486.576
3139 0 46.086 12.0644 556 114.626 494.275 485.968
3140 0 48.0503 11.3423 545 115.268 494.426 484.347
3141 0 48.1093 11.6609 561 114.398 494.472 484.152
3142 0 50.0748 12.3615 619 115.393 494.523 482.821
3143 0 53.0617 11.5149 611 115.791 494.524 482.833
3144 0 51.1112 12.6391 646 110.749 495.542 482.404
3145 0 53.1561 12.5103 665 112.504 495.451 482.389
3146 0 55.1839 12.7936 706 111.222 495.562 480.887
3147 0 57.1227 12.8145 732 106.769 495.337 480.538
3148 0 59.0796 12.1023 715 103.944 495.424 479.213
3149 0 61.1555 12.5255 766 103.416 495.151 478.055
3150 0 63.1799 12.504 790 99.1114 495.285 476.809
3151 0 65.1302 12.6669 825 111.59 495.312 476.104
3152 0 67.1661 12.5659 844 108.79 494.861 474.559
3153 0 69.1266 12.9328 894 109.229 495.145 473.081
3154 0 72.0767 12.6809 914 112.861 495.265 473.271
3155 0 74.1 12.4696 924 105.725 495.042 471.628
3156 0 77.0663 12.5866 970 100.459 495.236 471.766
3157 0 80.1048 12.6085 1010 105.159 494.987 469.603
3158 0 81.3039 12.73 1035 107.591 495.059 468.672
3159 0 86.1937 14.5834 1257 96.0175 494.282 464.754
3160 1 44.1136 10.3143 455 103.908 494.615 487.145
3161 0 45.1179 10.661 481 102.784 494.588 487.198
3162 0 46.0779 11.372 524 103.074 494.59 487.008
3163 0 49.1077 12.1977 599 101.73 493.943 485.543
3164 0 49.1467 12.3304 606 105.677 494.228 485.016
3165 0 51.1168 12.3247 630 106.77 494.297 483.94
3166 0 53.1562 12.6984 675 104.637 494.409 483.766
3167 0 55.1539 12.4198 685 99.4978 494.466 482.701
3168 0 57.1026 12.3287 704 96.7514 494.295 483.652
3169 0 56.1242 13.096 735 107.261 493.969 482.18
3170 0 59.1392 12.9356 765 108.6 493.868 482.382
3171 0 60.1839 12.844 773 100.426 493.816 482.085
3172 0 63.2841 12.8152 811 92.0814 493.694 480.813
3173 0 64.2264 12.6116 810 90.4963 494.254 479.01
3174 0 67.1969 12.4113 834 90.1007 494.586 478.433
3175 0 67.1025 12.5182 840 88.406 493.712 477.725
3176 0 69.0934 13.3153 920 85.0435 494.265 476.493
3177 0 72.213 13.1555 950 87.56 493.814 475.878
3178 0 74.0994 12.6182 935 95.4652 493.953 474.904
3179 0 76.1287 12.8992 982 96.0346 493.991 474.204
3180 0 79.176 12.9837 1028 94.5097 493.25 472.755
3181 0 83.1244 12.4031 1031 93.6615 493.505 469.845
3182 1 45.2261 10.945 495 90.2202 492.503 489.81
3183 0 46.2138 11.1006 513 86.4347 492.45 489.166
3184 0 47.1236 11.6927 551 95.4374 492.31 488.301
3185 0 46.0131 12.2574 564 103.775 491.282 488.369
3186 0 50.0213 12.1149 606 104.312 491.946 486.046
3187 0 53.0064 11.6778 619 95.2876 491.661 485.407
3188 0 53.0305 12.1817 646 87.3669 491.345 485.288
3189 0 56.0816 12.036 675 91.3437 491.199 484.148
3190 0 56.0303 12.2612 687 84.8646 491.37 484.041
3191 0 59.0431 12.2622 724 100.648 491.146 481.671
3192 0 60.0334 12.2265 734 101.057 490.981 481.575
3193 0 62.0163 12.1097 751 100.921 490.395 480.864
3194 0 64.0423 12.4917 800 106.146 490.654 479.745
3195 0 65.0385 13.0384 848 100.062 490.527 478.846
3196 0 69.139 13.3354 922 93.6692 490.331 476.919
3197 0 71.0589 12.9189 918 96.5261 490.214 478.108
3198 0 74.0639 12.7593 945 94.5386 490.394 477.713
3199 0 76.1103 12.7841 973 92.2919 490.662 475.441
3200 0 78.0743 12.693 991 96.0838 490.75 474.125
3201 0 81.1093 12.6866 1029 93.4257 490.309 473.886
3202 0 85.1734 12.8327 1093 95.6313 490.435 472.132
3203 0 87.0862 13.1249 1143 93.4016 490.297 469.839
3204 1 45.0495 11.0545 498 88.2831 490.233 492.43
3205 0 46.0478 11.8572 546 85.9304 490.258 490.767
3206 0 47.1056 11.9306 562 86.6495 491.381 490.404
3207 0 48.0938 12.2677 590 87.2288 491.79 489.175
3208 0 51.0725 11.748 600 104.94 491.592 488.678
3209 0 51.0443 12.1855 622 96.0852 491.551 487.83
3210 0 53.0969 12.1099 643 99.238 491.72 487.101
3211 0 55.0506 11.9526 658 107.922 491.523 486.195
3212 0 55.0417 12.4088 683 107.105 491.905 485.291
3213 0 59.0771 12.3398 729 109.189 492.144 485.097
3214 0 58.1593 12.1907 709 109.145 491.996 484.284
3215 0 60.1895 12.5603 756 110.836 492.381 483.515
3216 0 62.1775 13.172 819 108.42 492.462 482.429
3217 0 65.0866 12.8444 836 104.236 492.316 479.998
3218 0 67.1956 12.724 855 110.816 492.166 479.767
3219 0 67.1133 13.5294 908 108.955 491.993 479.348
3220 0 70.111 13.1934 925 109.161 491.471 478.498
3221 0 71.1027 13.5297 962 103.334 491.93 477.596
3222 0 73.12 13.4984 987 111.595 491.704 476.818
3223 0 76.1422 13.6061 1036 112.701 492.027 475.152
3224 0 79.316 13.213 1048 109.111 492.205 473.718
3225 0 82.3084 14.0083 1153 109.759 492.714 472.191
3226 0 89.2069 17.4202 1554 100.402 492.439 465.544
3227 0 88.1604 16.6288 1466 105.536 492.379 464.801
3228 0 91.3907 15.0015 1371 109.25 492.522 464.732
3229 0 93.2908 13.8599 1293 117.401 492.66 465.015
3230 0 96.2915 13.7395 1323 117.467 492.742 463.834
3231 0 97.378 14.1613 1379 114.314 492.479 462.239
3232 1 50.1644 11.9208 598 113.237 492.968 486.194
3233 0 53.1938 12.4075 660 122.22 492.436 484.394
3234 0 53.2708 13.009 693 114.388 492.916 483.154
3235 0 55.0252 13.0849 720 116.628 492.762 483.688
3236 0 56.0668 12.5743 705 111.048 493.085 483.367
3237 0 58.1585 12.7754 743 105.623 493.291 483.024
3238 0 59.122 12.4488 736 114.519 493.376 482.38
3239 0 62.0854 12.515 777 112.438 493.728 480.7
3240 0 63.1504 12.9532 818 111.575 493.863 479.727
3241 0 65.0994 13.1798 858 113.709 494.07 478.438
3242 0 67.0566 13.3171 893 105.545 493.801 477.741
3243 0 70.1168 12.907 905 108.683 494.432 476.68
3244 0 71.1027 13.0515 928 113.245 494.566 475.251
3245 0 73.1151 12.747 932 112.288 494.606 474.36
3246 0 76.2032 12.9391 986 106.086 495.044 472.164
3247 0 78.2014 12.9282 1011 112.342 494.729 470.844
3248 0 81.2531 13.0703 1062 111.62 495.295 470.202
3249 0 87.2451 15.4049 1344 102.455 495.416 464.93
3250 0 89.1939 14.3395 1279 106.658 495.279 464.202
3251 0 89.368 13.215 1181 112.075 495.685 464.891
3252 0 91.2488 12.9974 1186 124.759 495.868 463.997
3253 0 94.2378 12.5958 1187 124.65 495.572 463.156
3254 0 96.1708 13.0601 1256 126.672 495.531 460.885
3255 0 101.3 12.9812 1315 118.31 495.699 459.413
3256 0 104.267 13.2449 1381 118.536 495.513 457.133
3257 1 54.0446 11.361 614 119.801 494.956 482.293
3258 0 55.0828 11.9093 656 109.361 494.216 481.075
3259 0 59.0601 12.0386 711 111.283 494.647 479.378
3260 0 59.0281 12.1976 720 104.996 494.864 478.933
3261 0 63.1505 12.2089 771 108.54 494.708 477.933
3262 0 64.1703 12.5759 807 107.364 494.917 477.255
3263 0 64.2042 12.725 817 104.873 495.125 476.584
3264 0 67.1391 12.9135 867 106.761 494.931 475.655
3265 0 69.0776 12.5656 868 104.411 495.259 473.503
3266 0 72.084 12.4716 899 100.655 494.756 473.533
3267 0 74.0665 12.7858 947 101.265 494.671 472.819
3268 0 76.0926 13.0367 992 97.9264 494.725 471.472
3269 0 80.1311 12.492 1001 108.201 494.872 469.306
3270 0 83.1494 12.7121 1057 102.007 494.697 468.974
3271 0 85.2649 13.0417 1112 105.786 494.486 466.199
3272 0 90.1613 13.7309 1238 99.336 494.296 462.8
3273 0 93.2155 12.9699 1209 97.5955 493.888 462.704
3274 0 96.2987 12.7935 1232 98.9732 493.663 462.065
3275 0 99.222 13.0415 1294 103.215 493.356 461.038
3276 1 51.1593 11.0048 563 102.067 493.947 484.842
3277 0 53.0791 11.7937 626 102.858 493.364 483.059
3278 0 56.0381 12.6343 708 96.1949 493.294 481.446
3279 0 57.1224 12.1669 695 98.5324 493.688 481.472
3280 0 60.099 12.2964 739 95.8985 492.395 479.445
3281 0 61.0205 12.291 750 94.0173 492.401 479.015
3282 0 63.0482 12.2287 771 88.4617 492.21 478.975
3283 0 65.0567 12.8657 837 88.0633 492.395 477.082
3284 0 68.1166 12.8016 872 92.0814 492.056 477.692
3285 0 70.0755 13.2857 931 94.8657 492.499 476.958
3286 0 72.0928 13.0665 942 99.0775 492.618 475.5
3287 0 73.0937 12.997 950 96.4568 492.394 474.505
3288 0 76.0874 13.5765 1033 103.833 492.332 473.816
3289 0 80.2037 13.3784 1073 102.481 492.013 472.281
3290 0 82.1691 13.3384 1096 101.477 492.383 471.793
3291 0 83.0787 12.8914 1071 98.6489 491.704 471.128
3292 0 87.0898 12.9522 1128 94.9051 491.92 469.558
3293 0 89.2191 14.145 1262 93.3352 491.858 467.398
3294 1 48.0393 12.1151 582 95.6821 491.842 487.847
3295 0 52.0565 12.1407 632 104.283 491.755 487.326
3296 0 53.0682 12.3426 655 104.067 490.924 486.447
3297 0 55.0162 12.1601 669 101.688 491.341 486.351
3298 0 56.2329 12.3415 694 102.403 492.232 485.928
3299 0 57.3034 12.7392 730 100.318 492.292 485.923
3300 0 57.1003 12.8896 736 106.846 491.924 485.443
3301 0 59.1821 12.8755 762 106.114 492.412 483.942
3302 0 61.279 12.745 781 105.63 491.665 484.421
3303 0 62.2282 13.3862 833 109.333 491.647 483.831
3304 0 64.2461 13.0125 836 108.62 492.047 482.15
3305 0 66.2971 13.2736 880 98.2307 491.697 480.88
3306 0 69.2058 13.4382 930 100.042 491.71 479.555
3307 0 71.2133 13.6772 974 98.8049 491.929 478.53
3308 0 73.1957 13.4434 984 98.6829 491.791 477.745
3309 0 76.2561 13.4809 1028 100.625 492.01 475.878
3310 0 78.2582 13.7494 1076 98.9786 491.855 474.771
3311 0 80.1634 14.196 1138 97.4561 491.994 473.697
3312 0 84.2208 14.2008 1196 94.6948 491.365 472.866
3313 0 89.1653 16.4862 1470 88.9776 491.706 468.601
3314 0 90.1884 16.8203 1517 85.8306 490.808 466.854
3315 0 93.2649 15.011 1400 89.0464 491.076 467.011
3316 0 94.2544 14.3017 1348 96.6921 491.585 467.682
3317 0 97.2074 14.1656 1377 101.024 491.509 466.943
3318 0 99.3266 14.0848 1399 101.608 491.407 464.047
3319 0 102.334 13.798 1412 103.533 491.562 463.526
3320 0 105.428 14.0475 1481 103.73 491.314 462.309
3321 0 108.369 14.2291 1542 106.724 491.759 460.28
3322 0 115.546 16.7639 1937 100.864 491.588 454.27
3323 0 115.405 14.7047 1697 107.105 491.261 455.501
3324 0 121.332 13.8463 1680 111.061 491.276 454.266
3325 0 123.212 13.7811 1698 114.234 491.323 452.444
3326 1 63.114 11.6456 735 120.769 491.249 480.853
3327 0 65.0946 11.4756 747 117.471 491.61 478.933
3328 0 67.1718 12.5499 843 109.032 491.878 480.064
3329 0 70.052 12.6477 886 113.287 491.704 478.985
3330 0 72.112 12.6747 914 108.7 491.853 477.329
3331 0 74.1098 13.1561 975 106.813 491.764 475.073
3332 0 75.0769 12.081 907 110.65 491.741 474.355
3333 0 78.2217 12.4007 970 112.776 491.713 472.585
3334 0 83.1039 12.6589 1052 110.338 491.456 472.373
3335 0 85.1621 13.034 1110 111.722 491.623 470.985
3336 0 87.1174 13.0399 1136 110.006 491.239 469.105
3337 0 90.1294 12.9813 1170 128.59 491.156 467.815
3338 0 94.1129 13.0163 1225 127.164 491.442 465.928
3339 0 97.1486 13.2272 1285 118.242 491.397 464.785
3340 0 99.1277 13.2758 1316 121.865 492.356 462.406
3341 0 103.103 14.3933 1484 120.277 492.313 459.06
3342 0 109.165 17.075 1864 107.381 492.074 453.634
3343 1 57.08 11.5277 658 129.707 491.868 482.67
3344 0 58.1006 11.8759 690 125.767 491.642 482.148
3345 0 58.1017 12.6502 735 126.268 492.801 481.333
3346 0 60.1355 12.5882 757 119.947 493.486 480.67
3347 0 62.0719 12.2761 762 128.042 493.37 479.795
3348 0 63.0412 11.9604 754 136.952 493.272 477.801
3349 0 66.1079 12.7216 841 131.56 493.124 477.385
3350 0 68.1114 12.553 855 125.389 492.896 475.993
3351 0 71.158 12.0296 856 131.211 493.168 475.151
3352 0 73.1183 12.5413 917 133.667 492.71 473.959
3353 0 75.1454 12.8551 966 133.139 492.4 472.295
3354 0 77.1895 12.4758 963 127.96 492.659 472.085
3355 0 80.2053 12.4929 1002 138.206 492.854 470.489
3356 0 82.1479 12.721 1045 124.012 492.938 468.19
3357 0 85.2253 13.2003 1125 128.716 493.216 466.172
3358 0 89.2909 14.044 1254 134.573 493.346 462.837
3359 0 91.2108 13.266 1210 130.47 493.18 462.45
3360 0 93.2745 13.1118 1223 124.895 493.324 460.879
3361 0 96.1602 13.2279 1272 132.703 493.668 460.278
3362 1 50.0526 11.5279 577 126.213 493.802 483.778
3363 0 52.0138 11.5931 603 134.078 493.716 482.536
3364 0 54.1113 11.7905 638 126.752 494.061 481.997
3365 0 52.0904 11.0769 577 130.669 494.045 480.355
3366 0 54.1414 11.6177 629 130.99 494.105 480.169
3367 0 56.1684 11.9284 670 136.216 494.045 478.757
3368 0 58.2403 11.8303 689 137.665 494.11 479.268
3369 0 61.1607 12.2955 752 130.562 494.585 478.291
3370 0 62.2005 12.0578 750 126.339 494.525 476.317
3371 0 64.1171 11.5882 743 123.863 494.156 473.524
3372 0 66.1986 12.4172 822 127.543 494.743 474.918
3373 0 69.2855 12.4557 863 119.615 494.786 473.717
3374 0 71.2482 12.3652 881 130.385 494.842 472.977
3375 0 73.2382 12.3706 906 126.887 494.873 471.211
3376 0 73.316 11.9619 877 131.341 495.055 468.725
3377 0 77.4265 12.8638 996 120.128 495.174 468.942
3378 0 81.1806 12.503 1015 127.308 495.045 468.046
3379 0 85.4015 12.7047 1085 121.005 495.114 465.733
3380 0 86.4487 12.9094 1116 118.453 494.765 464.616
3381 0 88.236 12.5119 1104 129.792 494.565 462.206
3382 0 91.3197 12.7902 1168 114.527 494.644 460.967
3383 1 44.0488 10.7835 475 116.156 493.425 484.526
3384 0 45.0258 11.5934 522 112.149 493.218 484.096
3385 0 46.0678 11.9172 549 110.854 493.384 483.874
3386 0 46.0467 12.2484 564 112.931 493.947 483.965
3387 0 47.024 12.1853 573 106.127 494.134 480.972
3388 0 47.0437 12.1802 573 112.557 493.902 481.81
3389 0 49.0466 11.7643 577 120.77 493.622 482.251
3390 0 50.0658 11.5648 579 120.737 493.777 482.63
3391 0 51.0317 12.1101 618 116.04 493.728 480.935
3392 0 56.1434 12.3968 696 112.349 493.941 481.474
3393 0 57.1112 12.677 724 107.674 494.065 480.566
3394 0 56.1006 12.2637 688 114.531 494.055 478.648
3395 0 61.092 12.8331 784 111.912 494.352 478.487
3396 0 62.08 12.9833 806 116.418 494.381 477.739
3397 0 64.1364 13.3777 858 110.345 494.163 477.005
3398 0 65.1144 13.7604 896 106.283 494.227 476.248
3399 0 69.0974 13.2856 918 103.486 493.634 474.67
3400 0 70.1256 13.5471 950 107.784 494.066 474.017
3401 0 72.115 13.3814 965 102.577 494.094 473.09
3402 0 74.1257 13.4636 998 103.998 494.027 472.096
3403 0 78.1094 13.3787 1045 101.753 493.765 470.105
3404 0 82.1724 13.2648 1090 98.1184 493.414 469.251
3405 0 82.2283 13.2801 1092 107.172 492.875 468.877
3406 0 86.1533 14.0447 1210 101.426 492.689 466.674
3407 0 89.115 14.038 1251 110.577 492.601 465.089
3408 1 48.0469 11.0309 530 120.611 492.649 484.613
3409 0 51.082 11.5501 590 113.886 492.446 484.624
3410 0 52.1389 11.9297 622 112.683 492 484.048
3411 0 53.0664 12.7011 674 113.027 492.512 483.341
3412 0 55.0343 12.6285 695 119.53 491.692 482.85
3413 0 55.1107 12.9739 715 115.792 492.278 482.271
3414 0 59.0421 12.5504 741 111.827 491.773 481.447
3415 0 60.11 12.5936 757 113.679 491.976 480.231
3416 0 63.1348 12.5763 794 105.972 492.118 480.519
3417 0 65.0745 12.3397 803 107.783 491.826 480.032
3418 0 66.0747 12.7432 842 108.279 491.844 478.486
3419 0 69.088 12.8532 888 105.765 491.72 477.668
3420 0 71.0548 12.7085 903 107.481 491.924 477.882
3421 0 72.1053 12.7869 922 99.7451 491.873 475.924
3422 0 76.1319 12.544 955 105.174 491.928 475.19
3423 0 76.1393 13.1732 1003 106.428 492.457 473.238
3424 0 81.0944 13.0959 1062 113.163 491.936 471.676
3425 0 84.1235 13.2068 1111 102.724 492.102 471.505
3426 0 86.1399 13.6174 1173 106.306 491.916 469.743
3427 0 89.1933 13.0952 1168 109.877 492.145 468.585
3428 0 93.2761 13.9586 1302 102.826 492.434 465.82
3429 1 51.0775 10.4939 536 106.451 491.526 486.267
3430 0 54.1755 11.7581 637 108.589 491.16 486.185
3431 0 56.0528 12.0065 673 108.636 491.646 484.698
3432 0 57.1501 12.6859 725 110.088 491.68 484.706
3433 0 60.0545 12.5386 753 118.746 491.372 483.011
3434 0 62.0813 12.0326 747 111.81 491.987 482.09
3435 0 63.1174 12.7699 806 110.661 491.717 480.494
3436 0 64.086 12.6081 808 109.402 492.022 480.684
3437 0 67.2299 12.5837 846 113.848 491.784 480.242
3438 0 68.212 12.5931 859 111.331 492.037 479.083
3439 0 72.1795 12.4689 900 109.6 492.043 477.798
3440 0 74.2853 12.277 912 106.803 491.961 476.884
3441 0 77.1073 12.5021 964 107.481 491.636 475.83
3442 0 79.1448 13.6712 1082 98.1081 491.189 472.56
3443 0 81.1121 12.0944 981 110.406 491.408 471.262
3444 0 85.2497 12.8681 1097 106.5 490.738 471.103
3445 0 87.1678 12.7799 1114 110.771 490.98 469.768
3446 0 92.1708 14.6901 1354 104.414 490.372 465.872
3447 0 95.2769 12.8573 1225 109.775 490.758 466.011
3448 0 98.3553 12.648 1244 106.204 490.699 465.748
3449 1 52.2128 11.434 597 107.501 491.201 488.286
3450 0 55.242 11.0966 613 112.605 490.891 487.754
3451 0 56.1479 11.2025 629 111.477 490.412 486
3452 0 58.136 11.3183 658 116.068 490.397 485.869
3453 0 58.2342 12.0204 700 124.349 490.539 484.024
3454 0 62.122 11.4935 714 121.808 490.73 483.006
3455 0 63.265 11.9972 759 126.631 490.632 482.668
3456 0 65.0909 12.3366 803 124.476 490.498 482.039
3457 0 67.2422 11.5255 775 121.212 490.645 481.239
3458 0 70.2479 11.9719 841 124.307 490.847 480.136
3459 0 72.1368 12.2268 882 121.981 490.811 477.719
3460 0 72.3707 12.3669 895 114.4 490.716 477.346
3461 0 77.2536 11.9606 924 116.256 490.47 477.143
3462 0 78.2915 12.2874 962 116.193 490.464 475.776
3463 0 81.175 12.3807 1005 119.795 490.75 473.229
3464 0 84.2944 12.658 1067 113.086 490.652 472.385
3465 0 88.2976 12.775 1128 122.395 490.588 468.848
3466 0 90.3024 12.6907 1146 113.723 491.048 465.866
3467 0 93.25 12.5147 1167 114.134 491.159 463.084
3468 1 45.3295 8.75809 397 117.796 490.766 487.836
3469 0 48.1732 9.96404 480 109.84 491.148 486.45
3470 0 50.1494 10.3291 518 115.579 490.869 488.376
3471 0 51.0884 10.8635 555 116.373 491.077 485.304
3472 0 54.1389 11.2488 609 114.278 491.434 486.066
3473 0 56.0268 10.8162 606 111.997 490.741 485.531
3474 0 56.0257 11.584 649 123.718 490.561 484.975
3475 0 58.0504 11.4211 663 114.617 491.338 483.655
3476 0 60.0931 11.3657 683 124.628 491.138 483.146
3477 0 61.0329 11.1088 678 113.593 490.724 482.196
3478 0 61.0512 11.4494 699 130.87 490.449 481.303
3479 0 62.1046 11.6094 721 130.806 490.638 479.66
3480 0 66.0729 11.457 757 127.137 490.852 478.807
3481 0 67.2009 11.4879 772 123.909 490.943 477.437
3482 0 69.1058 10.8384 749 127.925 490.86 477.669
3483 0 72.1569 11.2255 810 122.952 491.293 475.506
3484 0 74.1713 11.2847 837 105.786 491.084 474.622
3485 0 76.1675 11.7504 895 103.751 491.274 472.79
3486 1 41.0589 9.18192 377 105.883 492.438 491.045
3487 0 44.059 9.64615 425 109.833 491.821 489.235
3488 0 44.1211 10.0179 442 105.943 492.152 488.704
3489 0 45.137 10.5678 477 102.549 492.245 488
3490 0 47.1796 11.0429 521 96.8292 492.62 487.355
3491 0 49.208 10.5267 518 101.222 492.373 487.251
3492 0 55.0528 14.3135 788 85.2665 493.091 482.14
3493 0 55.1199 14.0603 775 89.2877 492.818 480.743
3494 0 56.1425 13.5192 759 86.9275 493.177 481.257
3495 0 57.1201 12.9026 737 102.345 493.11 482.227
3496 0 56.1351 11.7574 660 111.926 493.261 482.365
3497 0 56.129 11.8121 663 113.237 492.855 482.327
3498 0 58.1209 11.7858 685 110.061 492.701 481.324
3499 0 59.1514 11.9524 707 112.188 492.802 480.28
3500 0 61.0428 12.0244 734 115.514 493.012 479.131
3501 0 64.1073 12.0891 775 112.034 492.805 478.246
3502 0 66.0675 12.4418 822 111.589 493.154 477.726
3503 0 67.0954 12.6238 847 101.359 493.479 476.83
3504 0 68.1387 12.9882 885 101.655 493.727 474.882
3505 0 71.1297 12.3858 881 108.7 493.997 473.51
3506 0 74.1293 12.694 941 101.019 493.898 475.425
3507 0 76.0692 12.1337 923 103.783 494.053 473.112
3508 0 79.1465 12.9001 1021 107.748 494.233 471.702
3509 0 82.129 12.5656 1032 103.428 494.278 470.079
3510 0 85.0942 13.3617 1137 98.3228 494.148 466.927
3511 0 88.1213 14.1396 1246 101.233 494.092 466.016
3512 0 91.0703 13.9233 1268 99.8549 494.277 463.666
3513 1 44.0465 10.8295 477 97.2306 493.329 487.669
3514 0 47.0661 11.0058 518 91.6042 493.525 485.855
3515 0 49.0832 11.7759 578 97.5623 494.036 485.23
3516 0 49.0291 11.8501 581 100.401 493.413 485.836
3517 0 51.1228 12.069 617 102.147 493.84 484.042
3518 0 51.0913 12.2134 624 104.614 493.729 482.752
3519 0 55.0721 12.0388 663 97.1795 493.609 483.917
3520 0 56.1141 12.1538 682 97.2463 493.377 482.66
3521 0 56.0694 12.5559 704 94.152 493.183 481.908
3522 0 57.164 12.9452 740 93.9122 493.638 481.149
3523 0 59.1594 12.61 746 98.2145 493.572 481.434
3524 0 62.075 12.6943 788 94.9772 493.244 480.994
3525 0 62.1122 12.7189 790 97.3962 493.499 478.838
3526 0 65.221 13.0939 854 92.8665 493.279 477.786
3527 0 66.1107 12.7513 843 96.5658 493.38 477.171
3528 0 68.0957 12.4824 850 96.2953 493.462 476.725
3529 0 71.2179 13.0726 931 92.5693 493.042 476.013
3530 0 72.0985 12.7742 921 94.8979 493.186 474.729
3531 0 74.061 13.2323 980 93.1276 493.196 474.267
3532 0 77.127 13.0434 1006 107.151 493 472.685
3533 0 78.1594 13.127 1026 105.247 492.855 470.9
3534 0 82.3308 12.8385 1057 105.377 492.957 469.957
3535 0 82.2982 13.3417 1098 109.444 492.778 469.462
3536 0 87.2027 14.0363 1224 108.633 492.975 466.425
3537 1 47.1529 11.6218 548 113.106 493.536 488.214
3538 0 46.1203 11.8169 545 115.136 493.462 487.771
3539 0 50.0655 12.224 612 113.23 493.034 487.075
3540 0 50.1266 12.1093 607 112.333 493.04 486.926
3541 0 51.0549 12.4376 635 114.479 493.088 485.496
3542 0 55.1141 12.3562 681 112.74 493.104 484.959
3543 0 54.2192 12.8552 697 100.524 493.131 484.522
3544 0 59.1162 12.6361 747 106.031 492.708 484.811
3545 0 57.0708 13.3343 761 116.623 492.468 484.712
3546 0 60.0712 13.2343 795 108.19 492.35 483.226
3547 0 62.1493 13.3228 828 100.976 492.512 482.083
3548 0 63.1288 13.6071 859 101.612 492.411 480.993
3549 0 67.1558 13.5208 908 96.4681 492.512 479.506
3550 0 70.2055 13.1044 920 86.9304 492.233 477.985
3551 0 71.1215 13.0903 931 96.1364 492.614 478.643
3552 0 74.1719 13.1586 976 90.2326 492.34 477.177
3553 0 75.1259 13.524 1016 92.2096 492.364 475.246
3554 0 78.2139 12.9772 1015 92.9842 492.187 475.639
3555 0 79.1616 13.9714 1106 93.5949 492.147 472.984
3556 0 85.1367 13.6721 1164 92.5387 492.186 471.08
3557 0 92.1873 17.4319 1607 81.9496 491.675 465.937
3558 0 92.1954 15.7166 1449 88.0442 491.828 467.723
3559 0 93.1392 14.6662 1366 93.9268 491.91 467.977
3560 0 96.2441 13.819 1330 103.173 491.862 468.009
3561 1 51.0958 12.2124 624 106.263 491.934 490.46
3562 0 52.054 12.756 664 98.5678 490.88 489.327
3563 0 54.0781 12.9442 700 97.73 491.4 488.757
3564 0 55.1009 13.1032 722 95.9862 491.813 488.021
3565 0 57.0476 13.1644 751 101.57 491.814 487.322
3566 0 58.068 13.0709 759 99.0606 491.677 486.123
3567 0 60.2028 13.2718 799 102.214 491.805 485.051
3568 0 61.0707 13.7709 841 106.294 491.847 483.967
3569 0 63.1404 13.3512 843 107.085 492.121 483.743
3570 0 66.0996 13.6612 903 107.433 492.125 482.857
3571 0 68.0308 13.2734 903 116.891 491.143 480.854
3572 0 71.0752 13.2536 942 104.125 491.838 478.989
3573 0 73.155 13.1092 959 122.578 491.313 477.418
3574 0 75.1691 13.3166 1001 114.235 491.332 477.088
3575 0 77.2862 13.3142 1029 111.596 491.216 475.581
3576 0 81.0957 13.0217 1056 114.581 491.48 473.975
3577 0 83.2782 12.9926 1082 106.262 491.2 472.275
3578 0 88.23 15.981 1410 94.2312 491.034 467.383
3579 0 90.2171 13.7668 1242 112.969 491.407 466.621
3580 0 93.1893 13.1667 1227 112.484 491.504 466.586
3581 1 49.0278 12.2379 600 109.123 492.187 487.905
3582 0 49.0582 13.0865 642 112.653 491.908 486.202
3583 0 52.1505 13.0775 682 109.257 492.028 485.503
3584 0 54.081 12.5367 678 102.034 491.661 484.695
3585 0 56.021 12.4596 698 105.593 491.605 483.352
3586 0 56.0259 12.994 728 105.845 491.595 483.227
3587 0 58.0081 12.9637 752 106.013 491.86 482.198
3588 0 61.0708 12.8539 785 116.008 492.144 481.059
3589 0 60.0487 14.0053 841 105.646 492.23 480.377
3590 0 65.1005 13.6712 890 104.772 491.903 479.575
3591 0 66.0607 13.2454 875 105.022 491.889 478.545
3592 0 69.0712 13.1459 908 104.434 492.319 477.456
3593 0 70.0613 12.9743 909 104.343 492.572 475.675
3594 0 73.048 12.9504 946 101.346 492.835 474.739
3595 0 75.0524 13.2574 995 100.592 492.747 473.332
3596 0 79.1925 13.2209 1047 95.0974 492.792 472.814
3597 0 81.1092 13.34 1082 98.9159 493.187 471.796
3598 0 83.0784 13.4933 1121 101.672 493.066 470.663
3599 0 90.1528 17.6367 1590 85.3157 494.044 463.885
3600 0 91.1292 16.1639 1473 90.924 493.783 463.158
3601 1 46.0212 11.3426 522 103.559 493.289 487.37
3602 0 49.1101 11.9324 586 96.6348 493.449 486.969
3603 0 50.0742 12.1819 610 92.741 494.292 486.246
3604 0 51.2053 12.2644 628 95.6481 494.57 485.041
3605 0 52.1081 13.0882 682 89.4018 494.927 484.934
3606 0 54.0984 12.9579 701 95.6106 494.541 484.295
3607 0 54.1195 12.5648 680 93.9294 494.631 484.551
3608 0 57.1616 12.8583 735 94.1973 494.604 481.844
3609 0 60.1508 13.2002 794 91.5416 494.844 482.346
3610 0 60.1274 13.5213 813 104.836 495.234 481.111
3611 0 64.1702 13.0746 839 106.201 495.738 480.554
3612 0 65.1527 13.0002 847 102.824 495.534 477.825
3613 0 68.207 14.6466 999 94.1592 495.112 476.432
3614 0 68.1949 13.2415 903 104.123 495.792 477.063
3615 0 71.1298 13.637 970 103.14 495.603 475.877
3616 0 72.1483 13.4445 970 100.109 495.663 475.4
3617 0 74.1001 13.0904 970 102.426 494.876 472.939
3618 0 78.0842 13.2549 1035 101.905 494.167 469.746
3619 0 79.0922 13.0733 1034 101.929 494.543 469.937
3620 0 84.0963 13.1516 1106 99.1872 494.31 468.172
3621 0 91.0633 15.5277 1414 90.691 494.033 463.606
3622 0 91.1054 14.357 1308 93.5635 494.603 464.362
3623 0 95.1276 13.8235 1315 92.0472 494.268 462.381
3624 0 98.1326 13.4002 1315 92.0076 493.808 462.456
3625 1 51.0856 11.6863 597 89.0318 493.412 484.843
3626 0 52.1112 12.032 627 90.5391 492.951 484.193
3627 0 52.0967 12.0737 629 94.6868 493.577 482.142
3628 0 55.1148 12.0294 663 95.3318 492.742 483.149
3629 0 56.0284 12.0653 676 98.5769 492.953 481.848
3630 0 58.0702 12.5538 729 100.394 492.855 482.41
3631 0 60.033 12.7263 764 100.275 492.851 480.688
3632 0 62.08 13.0155 808 99.2983 492.704 479.46
3633 0 62.0175 12.8351 796 104.256 492.384 479.394
3634 0 66.1298 13.1106 867 97.8916 492.464 477.057
3635 0 69.1014 12.677 876 100.137 492.8 477.22
3636 0 71.0155 13.6449 969 97.2549 492.326 474.648
3637 0 73.0387 12.8288 937 99.2753 492.354 475.106
3638 0 74.0513 12.91 956 96.6747 492.746 475.468
3639 0 76.1317 13.3847 1019 92.4161 492.766 473.622
3640 0 79.1705 12.6815 1004 91.6255 493.045 472.811
3641 0 81.1748 12.9843 1054 95.999 492.957 471.923
3642 0 84.0872 13.0103 1094 91.7678 492.764 468.35
3643 0 87.1393 13.9661 1217 84.8431 492.512 466.353
3644 0 88.1467 13.7952 1216 95.949 492.451 467.447
3645 0 92.1551 13.9764 1288 97.4371 492.146 464.265
3646 1 48.0179 10.9126 524 89.9943 491.639 488.943
3647 0 48.0729 11.3369 545 89.9523 491.49 487.106
3648 0 51.0727 11.8067 603 93.3881 491.459 487.146
3649 0 51.0417 11.8335 604 93.9818 491.402 485.702
3650 0 52.1058 12.1675 634 93.694 492.254 485.91
3651 0 54.1013 12.4951 676 90.7426 492.374 485.027
3652 0 57.0437 11.9908 684 90.3582 492.143 483.344
3653 0 59.1257 11.4671 678 87.6445 493.087 482.979
3654 0 59.128 12.4476 736 90.5408 492.727 482.226
3655 0 63.1713 12.2366 773 89.8849 492.812 480.704
3656 0 65.1922 12.6395 824 87.7488 492.766 479.667
3657 0 67.0816 11.9705 803 94.853 492.804 479.923
3658 0 69.1899 11.9382 826 94.5799 492.303 478.545
3659 0 72.2046 12.7 917 93.7328 492.665 478.123
3660 0 73.2389 12.9713 950 87.5526 492.767 475.145
3661 0 74.1988 13.3425 990 87.1495 492.296 473.957
3662 0 80.2006 12.7805 1025 88.1102 492.003 473.474
3663 0 82.2194 13.0626 1074 76.9441 492.028 471.578
3664 0 88.2513 15.0479 1328 74.2741 491.971 466.958
3665 0 86.5039 13.3751 1157 81.3103 491.256 467.895
3666 1 43.1258 11.107 479 82.3841 491.762 491.478
3667 0 45.0389 11.479 517 83.1412 491.176 491.037
3668 0 47.1566 12.151 573 81.4119 491.59 490.621
3669 0 49.2688 11.8939 586 84.7338 491.398 490.014
3670 0 49.3501 12.2188 603 81.3035 491.187 489
3671 0 51.1646 12.1373 621 84.6586 490.979 489.39
3672 0 51.4243 12.5233 644 83.1289 490.809 488.809
3673 0 53.2414 12.4715 664 84.0015 490.505 485.098
3674 0 55.2986 12.4235 687 85.2795 490.999 484.946
3675 0 56.5876 12.5646 711 86.9873 490.941 484.159
3676 0 57.4414 12.4823 717 80.5872 491.172 482.183
3677 0 60.352 12.5099 755 80.2384 491.469 480.672
3678 0 60.1699 12.3484 743 85.9731 490.782 479.497
3679 0 64.1983 12.6639 813 87.9434 491.011 479.178
3680 0 67.35 11.8931 801 88.6617 491.11 477.74
3681 0 67.1275 12.3943 832 89.8582 490.692 478.123
3682 0 71.1618 12.1975 868 85.9136 490.91 477.908
3683 1 36.225 10.9317 396 90.8535 491.482 493.083
3684 0 38.0659 11.1911 426 91.2958 491.27 493.056
3685 0 40.0611 11.2328 450 87.5711 491.52 491.576
3686 0 38.1722 11.5529 441 90.415 491.281 491.553
3687 0 41.1036 11.4588 471 87.2081 491.391 490.883
3688 0 42.1395 11.984 505 84.4673 491.305 490.808
3689 0 44.3184 12.0492 534 90.7659 490.684 488.285
3690 0 45.2851 12.8519 582 88.0584 491.46 486.459
3691 0 45.1362 12.7171 574 87.5052 491.348 485.742
3692 0 46.3633 12.3373 572 85.9126 491.907 484.339
3693 0 47.4027 12.9318 613 85.9804 491.695 483.488
3694 0 48.1619 12.894 621 88.7101 491.72 483.378
3695 0 51.5796 13.2029 681 75.3084 491.83 482.269
3696 0 51.2774 13.1832 676 75.6938 492.265 481.278
3697 0 54.6026 12.7283 695 78.118 491.901 480.541
3698 0 56.3972 12.9262 729 82.1619 492.262 479.366
3699 0 59.4309 12.7207 756 72.5 492.656 479.127
3700 0 60.3372 13.3251 804 86.2027 492.473 478.183
3701 0 61.7165 12.606 778 84.4794 492.909 476.94
3702 0 64.7235 12.8856 834 81.8813 493.114 475.229
3703 0 66.1797 12.7531 844 88.7701 493.614 474.697
3704 0 67.3875 13.4149 904 93.1405 493.494 473.366
3705 0 69.4318 13.1064 910 96.6066 493.01 472.673
3706 0 72.3674 13.1275 950 61.24 493.279 471.334
3707 0 76.5779 13.0325 998 95.6423 493.256 470.709
3708 0 85.4878 17.7101 1514 81.5443 493.295 461.631
3709 1 40.2887 12.7579 514 100.792 493.839 483.782
3710 0 42.224 13.2389 559 96.9463 493.487 483.204
3711 0 45.4438 13.0491 593 93.6897 493.565 484.452
3712 0 45.3014 13.5537 614 91.8176 493.653 484.161
3713 0 47.1683 13.2292 624 90.484 493.691 483.41
3714 0 49.3279 12.9744 640 92.8656 493.362 482.547
3715 0 49.2981 13.1445 648 97.0633 493.856 482.494
3716 0 51.4897 12.9346 666 97.0496 493.953 482.183
3717 0 52.3641 13.5398 709 100.049 493.931 481.073
3718 0 54.5503 13.9321 760 101.3 493.922 477.671
3719 0 56.4237 13.4341 758 94.5369 493.751 478.174
3720 0 56.5436 13.5117 764 100.012 494.013 476.757
3721 0 58.3363 14.005 817 97.2889 494.333 476.22
3722 0 61.3555 13.5603 832 97.2909 494.621 475.677
3723 0 64.6149 13.9906 904 94.6195 494.377 475.002
3724 0 65.423 13.7719 901 97.4029 494.532 474.071
3725 0 67.6681 14.4972 981 95.9704 494.72 473.115
3726 0 68.3895 13.9934 957 93 494.409 473.068
3727 0 73.4523 13.8593 1018 96.9116 494.561 471.86
3728 0 75.4779 14.1101 1065 96.6272 494.463 471.059
3729 0 74.2819 14.8892 1106 94.8219 494.128 469.239
3730 0 78.3289 14.5923 1143 96.4366 493.628 469.248
3731 0 83.2888 14.1796 1181 91.8688 494.188 467.55
3732 0 86.4311 14.2194 1229 91.677 493.718 466.09
3733 0 90.2667 16.551 1494 82.905 493.836 462.462
3734 0 94.3956 16.0495 1515 88.4535 493.596 461.492
3735 1 48.2609 13.3027 642 93.1464 493.6 482.737
3736 0 50.2684 13.5672 682 93.1026 493.657 482.441
3737 0 51.2448 13.7185 703 95.5818 493.418 482.942
3738 0 52.2189 14.1328 738 91.3835 492.98 482.058
3739 0 54.2194 14.4413 783 94.7241 492.451 481.318
3740 0 55.3432 14.5817 807 92.606 492.874 480.63
3741 0 56.2556 14.3452 807 96.0384 492.6 481.211
3742 0 57.2374 13.7672 788 99.2868 492.553 480.423
3743 0 59.3908 14.1604 841 97.1855 492.779 479.901
3744 0 61.257 14.9534 916 95.5884 492.626 476.964
3745 0 65.364 13.8608 906 92.362 492.819 476.164
3746 0 66.4731 14.457 961 95.1904 492.341 475.191
3747 0 68.5027 14.4228 988 94.8988 492.416 475
3748 0 69.3119 14.3121 992 100.489 491.711 474.356
3749 0 72.2784 14.4857 1047 97.1738 491.638 474.33
3750 0 76.288 13.9471 1064 95.0602 491.75 472.664
3751 0 78.2936 14.3818 1126 94.8925 491.841 470.937
3752 0 82.3987 14.3692 1184 89.4713 492.171 469.803
3753 0 84.3149 14.5882 1230 90.7984 491.793 468.193
3754 0 92.2458 18.0713 1667 79.5777 491.891 461.305
3755 0 93.2623 15.9014 1483 84.733 491.729 462.229
3756 0 94.1751 14.6217 1377 92.4561 491.529 463.897
3757 0 96.1691 14.6617 1410 89.683 492.36 462.96
3758 0 101.115 14.6962 1486 87.747 491.538 462.73
3759 0 104.09 15.4963 1613 84.3645 491.82 461.065
3760 1 54.0734 13.1673 712 89.8006 491.768 484.681
3761 0 56.0701 13.3939 751 89.9614 492.023 483.202
3762 0 58.0444 12.7489 740 93.577 492.318 482.357
3763 0 60.0715 13.0178 782 95.0294 492.591 482.003
3764 0 62.0317 13.4608 835 92.1509 491.824 481.392
3765 0 63.068 13.3348 841 91.8323 491.686 480.495
3766 0 67.3838 12.7924 862 87.1276 492.202 480.097
3767 0 67.1636 13.4001 900 87.0411 491.967 478.243
3768 0 71.3426 12.8535 917 85.8593 491.568 477.96
3769 0 74.2999 13.4859 1002 84.9202 491.577 475.831
3770 0 76.0834 13.3012 1012 78.1186 491.907 475.481
3771 0 79.225 13.1398 1041 84.4649 491.454 474.051
3772 0 82.3523 13.6001 1120 87.1277 491.708 472.216
3773 0 84.1974 13.2189 1113 91.7269 491.624 470.462
3774 1 43.4326 10.7523 467 87.3084 491.51 488.974
3775 0 45.2258 11.0556 500 88.438 491.586 488.946
3776 0 46.2729 11.8644 549 87.4754 491.563 489.182
3777 0 48.1049 11.7868 567 86.9489 490.919 488.21
3778 0 47.1584 12.1717 574 82.9338 491.206 488.167
3779 0 48.1518 12.4814 601 80.5058 490.865 488.246
3780 0 51.1298 11.3241 579 83.3765 490.751 487.618
3781 0 52.1729 12.0369 628 76.1354 491.083 487.174
3782 0 54.1203 11.8625 642 82.5343 490.709 487.215
3783 0 55.1456 12.6574 698 80.7851 490.476 485.499
3784 0 57.3463 12.4507 714 82.9398 490.422 484.903
3785 0 59.7333 12.1708 727 80.5337 490.729 483.579
3786 0 60.2566 12.5629 757 83.502 490.288 483.102
3787 0 63.3882 12.2893 779 86.3582 490.395 481.422
3788 0 63.3089 12.21 773 88.8202 490.259 479.3
3789 0 65.2251 12.4492 812 85.4717 490.233 479.724
3790 0 68.4299 12.4799 854 87.1276 489.814 478.699
3791 0 69.1861 12.4736 863 89.1889 489.966 477.013
3792 0 75.2082 12.02 904 91.8252 490.077 476.455
3793 0 76.1818 12.4045 945 91.5513 489.521 475.556
3794 1 37.202 10.1607 378 91.9339 490.569 493.55
3795 0 40.1518 10.2113 410 92.1976 490.361 491.771
3796 0 39.1021 11.4572 448 91.904 490.487 491.67
3797 0 42.087 11.2861 475 91.8484 490.303 490.497
3798 0 43.0958 11.5556 498 91.5763 490.474 491.201
3799 0 45.1415 11.8738 536 92.9235 489.888 489.767
3800 0 47.2936 11.6929 553 93.2568 490.08 489.816
3801 0 47.3856 11.9445 566 93.9187 490.113 489.274
3802 0 47.12 12.4151 585 94.5726 489.921 487.894
3803 0 49.3776 12.455 615 95.0228 490.067 486.008
3804 0 51.1695 12.527 641 93.4134 490.301 485.326
3805 0 53.2522 13.2389 705 88.7206 490.545 483.301
3806 0 54.1447 12.7436 690 88.0638 490.259 483.559
3807 0 56.1979 12.4026 697 89.9197 490.347 482.311
3808 0 58.3007 12.4012 723 91.0899 490.23 481.194
3809 0 60.3274 12.0509 727 89.2985 490.579 479.469
3810 0 61.2367 12.0026 735 89.4585 490.31 478.212
3811 0 64.2924 12.8009 823 89.1738 490.8 476.296
3812 0 69.1955 13.8737 960 82.5052 491.229 473.465
3813 0 69.2282 13.1738 912 87.8838 490.947 472.968
3814 0 72.3532 12.9642 938 93.0896 491.214 470.797
3815 0 74.5089 13.0052 969 90.8111 491.511 470.293
3816 0 75.3955 13.7674 1038 92.6397 491.532 467.822
3817 0 78.4126 13.3269 1045 98.8431 491.38 467.084
3818 0 82.3619 15.7476 1297 87.9507 491.655 462.46
3819 0 85.3792 14.6874 1254 100.876 491.676 462.97
3820 0 87.4179 14.1504 1237 101.159 492.05 464.318
3821 0 90.3731 14.4844 1309 97.7311 492.14 464.047
3822 0 93.4554 14.3384 1340 97.6918 492.249 461.546
3823 0 96.3017 14.9634 1441 91.2922 492.894 460.562
3824 1 108.487 18.9608 2057 78.7623 492.755 451.7
3825 0 110.555 18.3438 2028 76.4408 492.747 451.453
3826 0 111.509 17.2631 1925 82.1673 492.538 451.306
3827 0 113.508 16.1222 1830 84.6475 492.412 453.008
3828 0 114.732 15.157 1739 96.5612 492.284 451.721
3829 0 118.689 14.5338 1725 96.2539 492.712 450.005
3830 1 62.4078 13.2355 826 98.9915 493.002 477.341
3831 0 63.3543 12.5643 796 106.151 492.98 474.543
3832 0 65.55 13.4096 879 103.44 492.805 474.623
3833 0 67.432 13.8955 937 93.0011 492.924 474.567
3834 0 70.6206 13.7212 969 87.8524 492.746 473.111
3835 0 73.4279 13.6052 999 93.7638 492.81 471.002
3836 0 75.4577 13.597 1026 91.3801 492.853 471.147
3837 0 79.5393 14.3703 1143 11.2756 492.941 468.903
3838 0 81.5908 14.6218 1193 84.6513 493.133 466.833
3839 0 82.5096 13.962 1152 103.287 493.151 466.324
3840 0 85.4108 14.4478 1234 92.0859 493.25 465.718
3841 0 89.3193 15.6853 1401 92.5767 493.433 462.44
3842 0 92.4724 15.5398 1437 92.7488 493.41 461.221
3843 0 93.723 14.4575 1355 92.4229 493.591 460.962
3844 0 98.4502 14.7283 1450 92.0269 493.614 459.337
3845 0 100.52 14.4249 1450 93.2034 493.719 458.099
3846 0 107.419 17.6691 1898 79.3209 493.892 453.726
3847 0 109.334 16.8657 1844 84.8877 493.409 452.245
3848 0 111.292 16.1467 1797 84.5136 493.277 452.556
3849 0 114.237 14.7763 1688 82.0883 493.267 452.231
3850 0 118.248 14.7402 1743 85.0086 493.635 450.777
3851 0 122.516 14.8308 1817 87.6368 493.57 448.86
3852 0 125.474 14.6006 1832 87.9558 493.916 446.5
3853 0 128.411 14.6172 1877 89.9883 493.603 444.904
3854 0 133.415 14.9609 1996 91.6047 493.998 441.758
3855 0 138.536 14.48 2006 94.485 494.286 440.089
3856 0 138.536 14.48 2006 162.326 495.286 440.089
3857 1 152.374 18.5005 2819 79.4782 494.36 426.177
3858 0 156.421 17.242 2697 82.5454 493.795 426.088
3859 0 157.44 14.5198 2286 89.4707 493.316 429.677
3860 0 161.342 14.1439 2282 93.5925 493.19 428.029
3861 0 165.607 14.2747 2364 88.3147 493.539 424.418
3862 0 173.396 14.6486 2540 88.7083 493.524 420.646
3863 0 183.492 16.9599 3112 83.9759 493.195 411.286
3864 1 94.1737 11.0116 1037 91.1302 492.936 459.476
3865 0 99.0961 11.1407 1104 92.7563 492.467 458.894
3866 0 102.156 10.9049 1114 87.6454 492.288 457.627
3867 0 108.233 11.0503 1196 94.0226 491.986 455.396
3868 1 57.1821 10.0906 577 77.8146 491.712 479.747
3869 0 60.0698 9.98837 600 78.1067 492.293 478.935
3870 0 62.1468 10.2338 636 77.434 492.193 478.77
3871 0 63.2386 10.7371 679 73.5935 492.187 476.982
3872 0 67.2061 11.2639 757 75.4874 491.392 475.041
3873 0 68.1367 10.6551 726 78.3113 491.858 476.523
3874 0 71.1636 10.511 748 76.516 491.692 475.444
3875 0 73.3168 10.5842 776 78.5838 491.67 473.945
3876 0 74.1592 10.5449 782 82.3747 491.893 472.861
3877 0 79.1657 10.6485 843 89.2503 492.069 471.722
3878 0 80.1167 10.7593 862 93.116 492.637 468.92
3879 0 82.2312 11.4434 941 90.6525 493.028 465.397
3880 1 167.404 9.18139 1537 88.1249 492.4 418.009
3881 0 160.486 5.42103 870 98.4517 492.337 428.543
3882 1 47.2144 9.57336 452 90.8429 492.447 487.369
