index division length width area intensity CMx CMy
0 0 61.1573 13.5225 827 156.334 756.479 418.638
1 0 62.1633 13.8024 858 152.399 756.635 417.49
2 0 65.2542 13.8382 903 163.239 756.307 416.585
3 0 67.1985 13.7503 924 161.672 754.751 415.857
4 0 71.1803 13.6555 972 163.301 753.988 415.477
5 0 72.1269 14.0863 1016 158.788 753.769 415.108
6 0 74.1771 14.2227 1055 162.986 753.602 414.921
7 0 78.2266 13.8572 1084 154.115 753.597 414.147
8 0 82.1625 13.6559 1122 164.314 753.079 413.069
9 0 83.2694 14.1469 1178 163.412 754.174 411.847
10 0 87.2033 14.0018 1221 164.572 754.704 412.321
11 0 90.1641 14.1963 1280 158.491 754.798 410.791
12 0 93.1502 14.2351 1326 158.782 755.727 409.758
13 0 97.212 13.99 1360 168.015 755.9 409.318
14 1 52.2376 12.692 663 173.682 757.056 431.685
15 0 54.1225 13.2662 718 172.723 758.155 431.042
16 0 53.0598 14.38 763 175.904 759.069 431.307
17 0 57.0914 13.6448 779 173.398 759.399 431.614
18 0 59.0991 14.2303 841 172.847 760.302 431.644
19 0 60.1842 14.007 843 176.527 760.72 430.976
20 0 63.0279 14.1842 894 162.522 761.337 431.056
21 0 65.0676 14.216 925 175.238 761.853 431.788
22 0 68.0559 14.1501 963 170.538 762.49 431.913
23 0 70.0543 14.346 1005 167.015 763.088 433.038
24 0 72.1394 14.2918 1031 170.634 763.229 434.339
25 0 76.0761 14.3672 1093 169.375 763.611 434.859
26 0 78.1268 14.4381 1128 157.34 763.55 435.066
27 0 80.2106 14.4993 1163 173.601 763.321 436.113
28 0 83.0644 14.4587 1201 171.493 763.437 436.419
29 0 87.084 14.4573 1259 176.222 763.48 436.649
30 0 90.1624 14.4295 1301 170.669 762.998 438.173
31 0 92.1643 14.4308 1330 164.495 762.68 439.783
32 0 96.2504 14.3895 1385 163.814 762.291 441.978
33 1 49.0811 12.4692 612 176.683 761.011 468.538
34 0 50.0713 12.5821 630 170.835 760.908 470.898
35 0 52.0535 12.9674 675 170.347 760.415 472.053
36 0 53.1008 13.2013 701 167.137 759.856 473.867
37 0 55.1449 13.4192 740 167.458 759.393 475.961
38 0 56.0975 13.4052 752 173.987 758.73 477.432
39 0 59.0963 13.6726 808 170.119 758.369 479.8
40 0 61.0695 13.2308 808 167.165 757.917 481.545
41 0 63.0265 13.4864 850 168.364 757.682 483.356
42 0 64.0597 13.6904 877 159.495 757.416 485.339
43 0 67.0546 13.3772 897 171.298 757.049 487.989
44 0 68.079 13.7487 936 170.548 757.177 491.405
45 0 71.0666 13.6914 973 172.749 757.136 489.723
46 0 72.2747 13.4902 975 157.432 757.813 489.023
47 0 76.2065 13.3584 1018 171.185 757.802 487.531
48 0 78.2513 13.0733 1023 173.976 756.722 486.712
49 0 81.1914 13.4866 1095 172.776 757.103 484.789
50 0 83.2122 13.2433 1102 165.626 757.375 484.239
51 0 87.2592 13.374 1167 165.103 757.059 483.677
52 1 43.0971 11.7409 506 155.706 756.913 504.542
53 0 43.1306 12.0796 521 160.885 757.098 504.359
54 0 47.125 12.0955 570 160.258 757.274 502.746
55 0 48.1477 11.9632 576 155.833 758.148 503.63
56 0 49.1621 12.7334 626 153.746 758.157 502.422
57 0 52.0617 12.3892 645 151.384 758.442 500.642
58 0 52.1239 12.7005 662 151.526 759.048 500.251
59 0 55.0919 12.2341 674 147.745 759.378 498.69
60 0 55.0747 12.6919 699 151.727 759.956 497.19
61 0 59.1679 12.5068 740 153.873 760.378 495.718
62 0 60.1186 12.7581 767 148.449 760.408 496.176
63 0 63.1313 12.4661 787 153.116 760.271 495.501
64 0 62.2112 13.1005 815 147.627 760.665 493.805
65 0 64.2966 13.0489 839 147.453 760.573 494.031
66 0 68.2889 12.3593 844 155.485 760.842 492.423
67 0 71.3225 12.6608 903 149.907 760.97 490.085
68 0 74.1744 12.7403 945 150.62 760.67 489.124
69 0 76.2149 12.491 952 145.974 760.581 488.125
70 0 79.1888 12.7922 1013 151.694 760.287 486.417
71 0 82.2382 12.6948 1044 148.627 760.333 484.38
72 0 85.255 12.7265 1085 150.416 760.211 482.868
73 0 86.1125 12.7972 1102 151.408 760.397 482.152
74 1 46.0773 10.8296 499 150.874 760.591 502.565
75 0 46.1346 11.8349 546 156.121 761.227 502.275
76 0 50.1891 11.7356 589 147.306 761.088 500.221
77 0 51.0977 12.1336 620 157.103 760.203 499.608
78 0 53.1265 12.6491 672 155.97 760.869 498.65
79 0 54.0477 12.4705 674 162.338 760.169 497.803
80 0 57.0801 12.4387 710 152.675 759.89 496.227
81 0 57.1144 12.7463 728 160.574 760.121 494.992
82 0 61.1707 12.5223 766 158.924 759.055 493.877
83 0 63.1631 12.7448 805 158.712 759.763 493.391
84 0 65.1852 12.8557 838 157.247 759.648 492.432
85 0 65.1675 13.3195 868 162.023 759.6 491.914
86 0 69.2526 13.3136 922 169.444 759.269 489.713
87 0 71.201 13.2582 944 164.235 759.006 488.347
88 0 74.1824 13.1433 975 167.854 758.79 487.121
89 0 76.1418 12.9495 986 167.182 758.364 485.634
90 0 79.3316 13.1221 1041 166.697 758.072 484.22
91 0 81.1854 13.2413 1075 165.45 758.567 483.461
92 0 83.2079 12.8233 1067 171.098 758.157 481.823
93 1 43.0934 11.6259 501 166.333 759.715 501.401
94 0 45.0214 11.8166 532 153.115 759.09 501.212
95 0 47.1456 12.1114 571 157.137 759.699 502.475
96 0 48.1248 12.3637 595 151.987 759.563 500.894
97 0 50.1231 12.6688 635 152.932 758.743 501.019
98 0 51.1738 12.7018 650 161.628 758.835 500.771
99 0 53.1078 12.8041 680 158.213 759.322 499.541
100 0 54.0678 12.7248 688 154.56 759.462 498.622
101 0 56.0401 13.187 739 156.44 759.208 498.468
102 0 56.0459 13.0607 732 85.75 758.411 498.098
103 0 59.1619 13.0658 773 150.602 758.84 496.825
104 0 60.0874 13.1642 791 149.569 759.377 496.029
105 0 60.0395 13.7243 824 150.188 759.55 494.363
106 0 64.1043 13.322 854 154.367 759.465 494.749
107 0 66.0838 13.3316 881 154.775 759.488 493.108
108 0 67.0729 13.3884 898 157.147 759.615 492.107
109 0 71.1654 13.1946 939 160.177 759.437 491.014
110 0 73.1607 13.5865 994 150.875 759.582 488.645
111 0 76.2865 13.4493 1026 159.696 758.945 487.614
112 0 79.1721 13.3759 1059 157.218 758.599 486.175
113 0 82.1679 13.6793 1124 155.838 759.067 484.862
114 0 84.114 13.553 1140 157.919 758.787 483.837
115 0 85.0875 13.9151 1184 159.181 759.037 482.284
116 0 90.1522 13.3774 1206 155.945 758.692 480.803
117 1 44.0668 11.1422 491 167.648 758.872 504.12
118 0 43.1252 12.6376 545 159.679 758.873 504.149
119 0 46.1187 12.4028 572 165.621 758.35 503.712
120 0 47.0577 12.559 591 161.526 758.343 502.386
121 0 49.0885 12.671 622 164.934 758.966 501.159
122 0 49.0613 12.6576 621 160.116 759.992 500.667
123 0 51.0218 12.8181 654 157.557 759.095 499.739
124 0 52.0785 12.9612 675 163.439 759.689 499.351
125 0 53.0941 13.0711 694 172.138 760.186 498.961
126 0 56.0771 12.8038 718 171.51 761.181 497.357
127 0 58.0972 13.3913 778 168.125 760.276 495.883
128 0 58.0914 12.8935 749 169.192 759.928 495.526
129 0 60.0656 13.685 822 171.945 760.37 494.582
130 0 63.0907 13.2032 833 166.352 760.625 493.633
131 0 63.0618 13.8594 874 174.286 760.751 492.531
132 0 67.0889 13.415 900 175.988 761.438 491.967
133 0 69.0624 13.4806 931 166.074 760.811 489.77
134 0 70.0801 13.8698 972 174.312 760.71 489.331
135 0 73.1038 13.5697 992 173.045 761 487.752
136 0 75.1045 13.7142 1030 171.908 761.406 486.565
137 0 78.086 13.3315 1041 169.84 760.971 485.793
138 0 81.0862 13.6151 1104 179.684 761.299 484.422
139 0 82.0309 13.7875 1131 175.088 761.714 482.735
140 0 85.0915 13.7734 1172 165.313 761.874 481.674
141 0 88.1228 14.0372 1237 174.798 762.22 480.148
142 0 92.1189 13.6454 1257 167.603 762.199 479.204
143 0 94.1845 13.7815 1298 174.467 762.594 478.509
144 0 97.1138 13.7777 1338 175.049 762.391 476.034
145 0 101.133 13.5069 1366 163.917 762.275 473.522
146 0 104.225 13.845 1443 170.116 763.317 470.985
147 1 55.0342 12.6285 695 174.17 763.563 495.38
148 0 56.0759 12.7506 715 163.497 763.382 493.926
149 0 58.2408 12.5513 731 178.324 763.486 493.881
150 0 60.262 12.8771 776 175.188 763.715 492.545
151 0 61.2369 13.015 797 172.927 763.906 491.491
152 0 64.1518 12.9692 832 170.339 764.688 490.185
153 0 66.1361 13.0337 862 167.773 764.879 489.452
154 0 68.111 12.9201 880 170.131 765.044 488.069
155 0 71.104 13.417 954 172.865 765.722 486.462
156 0 71.1296 13.4121 954 172.485 765.92 485.708
157 0 75.3434 13.2991 1002 169.546 765.75 483.919
158 0 77.1778 13.0737 1009 171.161 766.397 482.647
159 0 80.1446 13.2261 1060 175.156 765.648 480.67
160 0 83.1967 13.3659 1112 172.723 765.458 479.77
161 0 85.1903 13.5931 1158 173.522 764.969 477.908
162 0 89.314 13.0663 1167 174.167 764.961 476.584
163 0 90.1804 13.351 1204 175.186 765.363 474.915
164 0 94.2067 13.3536 1258 173.991 765.448 473.045
165 0 98.1367 13.2163 1297 170.378 765.248 470.917
166 0 101.165 13.3347 1349 170.16 765.497 468.719
167 1 55.0845 11.9634 659 169.646 766.493 490.997
168 0 57.2224 12.3029 704 163.227 767.335 490.263
169 0 59.1133 12.5014 739 168.032 767.365 489.03
170 0 61.0932 12.571 768 169.91 767.335 487.467
171 0 63.0523 12.672 799 170.387 767.03 486.824
172 0 65.1461 12.6485 824 168.322 767.368 485.819
173 0 67.2084 12.7514 857 169.925 766.956 486.151
174 0 69.1163 13.0505 902 170.825 766.724 484.724
175 0 70.0904 12.8548 901 166.622 767.062 482.036
176 0 74.1311 12.3835 918 165.999 766.584 481.019
177 0 76.1796 12.7856 974 161.963 766.467 480.177
178 0 80.2411 12.9983 1043 166.416 767.138 477.8
179 0 80.2529 13.3827 1074 166.432 766.57 476.143
180 0 85.2004 13.2042 1125 167.899 767.029 473.984
181 0 87.2125 13.0715 1140 169.315 767.556 472.648
182 1 45.1197 11.0373 498 161.327 768.361 494.618
183 0 46.0501 11.5309 531 159.365 767.196 493.328
184 0 48.0221 11.7654 565 160.658 768.149 492.274
185 0 51.026 11.7587 600 158.993 768.908 491.315
186 0 51.0173 11.9567 610 160.38 767.869 491.32
187 0 52.1226 12.0293 627 163.912 767.608 490.606
188 0 54.1457 12.3001 666 163.312 766.477 489.488
189 0 56.1936 11.9053 669 161.616 765.526 489.058
190 0 57.1344 12.1468 694 161.461 765.715 487.87
191 0 59.1348 12.2094 722 154.835 765.708 487.454
192 0 60.2122 12.1736 733 161.181 765.533 486.569
193 0 62.2031 12.3949 771 164.567 764.918 485.355
194 0 65.197 12.2858 801 166.252 765.019 484.559
195 0 67.0795 12.3286 827 166.47 764.865 483.077
196 0 68.2362 12.574 858 163.767 765.167 482.958
197 0 71.0627 12.8478 913 164.514 765.123 481.781
198 0 73.0765 12.2474 895 166.035 764.832 481.208
199 0 74.1518 12.9599 961 154.1 764.85 479.121
200 0 78.2394 12.9858 1016 161.762 764.823 478.125
201 0 80.1796 12.4471 998 169.154 764.951 477.371
202 0 83.1687 12.6009 1048 165.042 764.576 475.63
203 0 85.1545 12.9881 1106 157.222 764.718 474.159
204 0 88.227 12.7059 1121 164.74 764.884 473.772
205 0 92.1456 12.7733 1177 159.635 764.701 471.716
206 1 47.0177 10.847 510 162.949 765.065 494.818
207 0 49.0765 11.4515 562 160.02 764.831 493.984
208 0 49.0748 11.7779 578 149.818 764.49 492.616
209 0 51.0959 12.0558 616 150.925 764.567 491.247
210 0 53.0847 12.2634 651 160.479 764.82 490.975
211 0 53.2008 12.4622 663 157.991 764.359 490.744
212 0 55.1053 12.3944 683 167.511 764.211 489.767
213 0 56.0168 12.6569 709 162.74 763.872 489.848
214 0 57.1689 12.5768 719 165.517 763.515 489.733
215 0 60.1284 12.7061 764 163.826 763.98 489.012
216 0 60.2524 12.514 754 156.818 763.537 488.739
217 0 64.1246 12.6161 809 166.554 763.701 487.15
218 0 65.1314 12.636 823 166.807 764.038 486.416
219 0 66.1228 12.7944 846 168.388 762.849 485.446
220 0 70.1867 12.595 884 166.831 763.255 484.097
221 0 73.1353 12.6068 922 168.746 763.177 483.58
222 0 75.1557 12.8533 966 165.528 763.444 481.441
223 0 76.1212 12.953 986 159.715 763.172 480.365
224 0 80.1204 12.6185 1011 171.317 763.437 479.324
225 1 42.0536 10.6531 448 160.636 763.779 498.882
226 0 42.0536 10.6531 448 166.54 763.779 498.882
227 0 44.0868 11.3866 502 158.757 762.958 498.092
228 0 43.1008 12.0183 518 159.869 763.232 497.243
229 0 43.1008 12.0183 518 164.566 763.232 497.243
230 0 47.1253 12.1803 574 160.394 763.239 496.007
231 0 49.1196 12.378 608 161.266 762.655 494.51
232 0 50.0695 12.1231 607 167.04 762.867 495.124
233 0 52.0916 12.286 640 164.883 762.842 495.117
234 0 53.1393 12.1003 643 164.019 763.017 494.17
235 0 52.2119 12.8898 673 165.262 763.184 492.996
236 0 56.1673 12.3381 693 157.857 763.31 491.889
237 0 57.1652 12.6301 722 162.281 763.317 491.427
238 0 58.1047 12.9594 753 165.027 763.105 490.452
239 0 60.1253 12.8232 771 161.332 763.726 490.105
240 0 61.243 12.9158 791 160.489 763.617 488.613
241 0 64.1494 12.8294 823 165.518 763.503 487.575
242 0 65.22 12.9408 844 160.594 763.097 485.947
243 0 69.2403 12.6516 876 159.745 763.776 485.016
244 0 69.3258 12.9677 899 157.354 763.745 483.77
245 0 73.2569 12.8042 938 162.736 763.336 482.34
246 0 75.3583 12.5401 945 166.007 763.274 482.012
247 0 77.2257 12.7289 983 163.963 764.116 480.665
248 0 79.462 12.572 999 156.678 763.949 479.208
249 1 40.0829 10.9024 437 164.103 764.146 498.986
250 0 41.0389 11.5988 476 158.439 763.855 498.83
251 0 43.2633 11.8345 512 162.047 765.002 498.234
252 0 44.1012 11.9951 529 161.478 764.911 497.074
253 0 45.1636 12.0451 544 159.829 764.967 496.757
254 0 46.1351 12.1816 562 163.505 765.171 495.694
255 0 48.1171 12.1786 586 153.638 764.669 494.951
256 0 49.1167 11.8697 583 160.091 764.955 494.432
257 0 49.1209 12.5201 615 160.424 764.831 493.086
258 0 50.0778 12.5005 626 157.842 765.174 493.395
259 0 53.1174 12.6136 670 165.834 764.179 492.299
260 0 53.0909 13.1473 698 162.824 765.001 491.195
261 0 54.1403 12.8924 698 161.828 765.546 490.746
262 0 57.102 12.574 718 155.826 765.599 490.299
263 0 59.1212 12.5505 742 166.964 766.078 489.164
264 0 60.1133 12.6262 759 164.329 766.323 488.183
265 0 63.1242 12.7685 806 160.648 766.968 487.04
266 0 65.1876 12.6865 827 161.283 766.73 485.848
267 0 68.1889 12.7147 867 160.112 765.863 484.566
268 0 69.1095 12.9939 898 153.643 766.431 483.562
269 0 72.2088 12.9209 933 160.156 766.55 481.907
270 0 75.1406 12.5897 946 153.444 766.956 480.689
271 1 37.0089 11.1595 413 161.615 766.554 498.741
272 0 39.0719 11.2869 441 153.277 767.322 498.127
273 0 39.2319 11.8016 463 153.644 767.523 498.065
274 0 41.192 11.847 488 144.512 767.666 496.881
275 0 43.0897 11.4877 495 155.303 766.921 496.101
276 0 44.1989 11.9234 527 149.565 766.577 495.869
277 0 44.1502 11.8686 524 155.803 766.994 495.187
278 0 46.2854 11.9908 555 157.086 767.458 494.22
279 0 48.1683 12.1242 584 156.986 767.671 493.767
280 0 47.108 12.8004 603 155.113 767.657 493.018
281 0 51.1192 12.0894 618 161.07 767.528 492.296
282 0 52.1561 12.3092 642 157.229 767.467 491.718
283 0 54.2505 12.092 656 162.319 767.695 490.756
284 0 55.104 12.667 698 163.258 767.957 489.94
285 0 55.1103 12.7562 703 162.256 768.043 489.031
286 0 59.2116 12.3624 732 162.996 767.742 488.619
287 0 62.2207 12.0539 750 162.144 767.596 487.383
288 0 63.1646 12.6495 799 164.67 767.597 486.692
289 0 65.1467 12.7558 831 161.632 767.389 485.367
290 0 66.241 13.0886 867 155.916 766.867 483.97
291 0 69.1849 12.8063 886 160.782 766.901 483.316
292 0 72.0757 12.7921 922 164.03 766.614 481.358
293 0 73.0557 12.7163 929 166.022 766.642 480.287
294 0 78.0688 12.4762 974 163.728 767.122 479.271
295 0 81.2295 12.4955 1015 155.612 766.878 477.786
296 0 84.1349 12.4918 1051 158.799 766.52 476.5
297 0 86.2348 12.6283 1089 163.512 766.432 474.477
298 1 45.1155 11.8141 533 163.377 767.184 494.964
299 0 46.1234 11.7728 543 159.902 766.808 494.396
300 0 47.1378 11.3285 534 152.193 766.846 493.579
301 0 49.2062 11.6245 572 156.694 767.044 492.766
302 0 51.2055 11.6198 595 162.222 767.084 492.489
303 0 52.2091 11.8753 620 154.839 767.174 491.308
304 0 55.1441 11.7873 650 155.774 766.622 489.695
305 0 55.2104 11.8999 657 156.416 766.686 489.093
306 0 56.2356 12.0209 676 153.876 766.49 488.16
307 0 58.1725 11.7237 682 154.93 766.085 487.883
308 0 60.2267 11.6892 704 149.401 765.746 487.02
309 0 63.2066 11.5178 728 153.652 765.729 486.298
310 0 66.2258 11.5514 765 151.106 765.522 485.578
311 0 68.1667 11.3692 775 151.345 765.617 483.73
312 0 70.3045 10.9381 769 147.493 765.211 483.472
313 0 73.2557 11.4394 838 147.888 765.582 481.915
314 0 74.2378 11.3015 839 151.856 765.303 481.545
315 0 78.2528 11.8079 924 150.206 764.378 479.997
316 1 40.1902 10.4006 418 151.153 765.739 498.156
317 0 40.1814 10.6517 428 149.713 765.091 498.145
318 0 43.1117 10.554 455 138.848 765.591 496.389
319 0 44.0221 11.1762 492 143.652 765.228 496.24
320 0 43.0411 11.8491 510 142.857 765.884 495.784
321 0 46.0442 11.489 529 141.647 766.214 495.45
322 0 48.1304 13.2349 637 130.367 766.385 493.088
323 0 49.0806 11.3283 556 140.888 765.804 494.128
324 0 50.0425 11.9499 598 145.885 765.589 492.844
325 0 51.1076 11.8965 608 134.495 765.911 491.656
326 0 53.0665 12.0792 641 142.989 765.334 491.331
327 0 55.0835 11.8003 650 144.926 765.512 491.543
328 0 56.0524 12.1672 682 145.519 765.239 490.4
329 0 56.1603 12.3219 692 149.747 764.672 489.877
330 0 59.0442 12.1773 719 145.242 764.733 488.822
331 0 61.0567 12.038 735 129.21 764.476 487.531
332 0 62.1697 12.4015 771 145.051 764.333 486.791
333 0 65.0696 12.2945 800 140.242 763.85 485.482
334 0 67.0761 12.4187 833 138.164 763.984 484.295
335 0 70.0778 12.4291 871 145.68 764.054 483.162
336 0 72.1235 11.9379 861 140.6 764.437 482.024
337 0 74.0935 12.4572 923 143.579 764.651 479.822
338 0 76.2253 12.1876 929 143.647 764.151 479.276
339 1 39.0856 9.54315 373 147.273 765.381 498.539
340 0 39.0969 10.9727 429 149.492 764.767 498.31
341 0 42.0897 10.1212 426 153.176 764.587 497.845
342 0 43.0177 11.5766 498 140.906 764.661 497.566
343 0 44.1425 11.8027 521 150.695 763.593 497.372
344 0 46.1533 11.3751 525 147.322 761.888 497.107
345 0 46.2847 11.9262 552 141.332 761.777 496.687
346 0 48.1328 11.676 562 142.304 762.432 496.274
347 0 48.1369 12.0282 579 146.872 762.845 496.159
348 0 49.0804 12.3675 607 147.832 763.392 495.076
349 0 51.132 12.3015 629 152.086 762.963 494.169
350 0 52.1119 12.5883 656 152.773 763.345 493.515
351 0 54.1656 12.4987 677 146.258 763.194 493.88
352 0 55.1861 12.6844 700 152.314 762.923 492.949
353 0 59.1556 12.3403 730 155.793 763.099 491.719
354 0 58.1143 13.026 757 157.217 762.97 490.841
355 0 61.1183 12.5003 764 156.232 763.601 490.614
356 0 63.2223 12.3216 779 156.488 763.223 489.755
357 0 65.1316 12.6206 822 155.734 763.245 488.577
358 0 67.1538 12.4937 839 162.216 763.319 487.061
359 0 71.1223 12.9355 920 148.322 762.938 485.561
360 0 70.1445 13.2868 932 156.519 763.351 483.406
361 0 73.1975 12.9376 947 156.291 763.129 483.827
362 0 76.1411 12.6738 965 154.649 763.418 483.055
363 0 76.1895 13.3089 1014 159.375 763.766 481.918
364 0 81.0793 12.8146 1039 158.579 763.749 480.816
365 0 85.0913 12.9626 1103 158.103 762.95 478.735
366 1 43.0906 11.1857 482 157.921 762.508 497.869
367 0 43.0077 11.7886 507 154.945 762.592 498.156
368 0 45.18 11.9743 541 163.719 764.192 497.569
369 0 47.1565 12.3419 582 156.418 764.512 497.113
370 0 49.1334 11.9267 586 157.526 764.114 496.502
371 0 48.1686 12.477 601 163.201 763.822 495.18
372 0 49.2039 12.4584 613 156.905 764.165 494.997
373 0 52.2022 12.2792 641 156.685 764.298 494.496
374 0 54.1591 12.3894 671 158.431 763.931 493.547
375 0 57.1728 12.5759 719 120.388 764.579 492.398
376 0 57.2149 12.3045 704 157.849 764.837 491.786
377 0 58.2548 12.6341 736 156.478 764.588 490.762
378 0 63.2861 12.2144 773 159.894 764.814 488.753
379 0 64.1462 12.1909 782 156.123 764.607 487.942
380 0 67.1715 12.2225 821 155.698 765.354 486.743
381 0 68.1944 12.4204 847 157.541 764.911 484.922
382 0 71.1636 12.2956 875 159.151 765.146 484.247
383 0 73.1898 12.6794 928 151.697 765.065 483.332
384 0 76.242 12.6571 965 162.453 765.038 481.87
385 0 76.2495 12.6952 968 152.581 765.135 480.325
386 0 80.3765 12.6405 1016 151.418 764.52 478.298
387 0 83.2241 12.8448 1069 152.703 764.327 477.49
388 0 87.3489 12.513 1093 153.349 764.854 476.27
389 0 89.1625 12.4716 1112 157.313 765.138 474.819
390 1 45.2133 10.7933 488 155.416 765.504 496.588
391 0 46.1155 11.4061 526 148.274 764.688 495.544
392 0 46.1986 11.7536 543 151.722 765.241 494.847
393 0 48.1607 11.6485 561 147.677 764.822 494.301
394 0 50.1173 11.8323 593 143.965 765.32 493.332
395 0 50.1572 12.0621 605 147.749 764.945 491.911
396 0 52.1249 12.0096 626 143.22 765.789 491.869
397 0 55.1172 12.0471 664 143.75 765.839 490.739
398 0 56.2925 11.8133 665 146.606 765.389 489.916
399 0 58.209 11.7508 684 145.028 765.503 488.89
400 0 59.0096 11.9472 705 145.159 764.979 487.691
401 0 61.2139 12.1704 745 142.486 764.968 487.455
402 0 62.0769 12.5328 778 133.577 764.28 486.037
403 0 65.1817 11.9359 778 138.314 764.386 485.801
404 0 66.2736 12.3126 816 143.529 764.428 484.803
405 0 69.0842 12.2749 848 145.721 764.285 483.494
406 0 73.2192 12.3192 902 144.063 765.082 482.258
407 0 74.3047 12.1527 903 146.714 764.709 481.002
408 0 78.1854 12.4192 971 148.977 764.573 478.123
409 0 82.2462 12.2073 1004 146.047 765.017 478.025
410 0 85.2369 12.1778 1038 143.287 764.453 476.043
411 1 46.0622 10.3121 475 148.564 764.429 495.817
412 0 49.059 10.5383 517 150.267 764.112 494.246
413 0 50.1109 10.9358 548 146.883 764.15 493.863
414 0 52.115 11.4363 596 146.054 763.879 492.602
415 0 53.1052 11.9574 635 152.902 763.89 491.754
416 0 55.0562 11.8969 655 150.043 764.202 490.669
417 0 58.0843 11.7071 680 151.724 764.231 490.738
418 0 60.0949 11.798 709 151.454 764.382 489.305
419 0 62.0524 12.2638 761 152.895 764.737 488.112
420 0 62.1678 11.9998 746 151.82 764.307 488.095
421 0 66.0913 11.9229 788 150.185 764.529 487.237
422 0 68.1511 12.4136 846 155.039 764.228 486.139
423 0 71.086 12.3934 881 155.79 764.06 484.821
424 0 72.1107 12.4392 897 150.193 764.265 483.71
425 0 77.4366 12.0098 930 152.785 763.957 481.432
426 0 78.4277 12.3681 970 156.942 763.29 479.861
427 1 41.2483 10.4489 431 156.213 762.979 499.218
428 0 40.1335 11.1129 446 151.262 763.321 499.632
429 0 42.1257 10.9434 461 154.421 762.922 498.594
430 0 43.1043 11.4838 495 145.242 764.309 497.79
431 0 45.2505 11.5358 522 151.511 763.073 496.977
432 0 46.3022 11.5977 537 146.061 763.007 496.801
433 0 48.2004 10.9335 527 155.865 762.658 496.535
434 0 48.2126 11.6567 562 144.721 762.158 494.29
435 0 50.203 11.1348 559 153.927 761.989 494.249
436 0 51.3796 11.9113 612 152.99 762.779 493.016
437 0 54.3659 11.7537 639 150.876 762.756 492.85
438 0 56.2947 11.7595 662 150.517 762.56 491.678
439 0 57.2939 12.0257 689 147.482 762.398 490.882
440 0 59.2956 12.0414 714 144.59 762.246 489.524
441 0 60.211 12.0244 724 150.849 762.077 488.497
442 0 61.4002 11.9218 732 149.865 762.059 488.061
443 0 63.2379 12.4767 789 145.607 762.281 486.289
444 0 66.2886 12.5059 829 148.937 762.269 485.867
445 0 68.2686 12.07 824 142.39 762.132 485.655
446 0 69.2819 12.5574 870 147.986 762.02 484.231
447 0 72.2899 12.436 899 148.259 761.911 483.068
448 0 72.4629 12.6547 917 156.792 762.303 482.241
449 0 76.379 12.7784 976 156.908 762.344 481.152
450 0 79.5626 12.3802 985 153.516 762.421 479.714
451 0 80.5408 12.6644 1020 155.937 762.287 479.262
452 0 84.4695 12.4542 1052 154.816 762.218 476.484
453 0 87.4923 12.5954 1102 157.399 761.45 474.398
454 0 90.4073 13.0299 1178 148.253 761.546 472.57
455 0 92.4456 12.6128 1166 156.531 761.76 474.075
456 0 95.515 12.888 1231 154.281 761.957 471.927
457 0 97.4671 13.1839 1285 160.416 762.25 469.127
458 1 53.3998 11.1236 594 155.138 762.599 492.742
459 0 52.2916 11.7992 617 157.663 762.643 492.827
460 0 56.2582 11.9627 673 152.111 762.471 492.342
461 0 58.1071 12.3049 715 156.144 762.276 491.848
462 0 60.2099 12.39 746 152.615 762.995 491.15
463 0 62.3122 12.1003 754 152.072 762.538 489.769
464 0 63.411 12.553 796 154.559 762.739 489.796
465 0 64.3804 12.7523 821 158.682 762.87 488.39
466 0 67.2359 12.7462 857 158.506 762.958 486.867
467 0 70.2391 12.8988 906 160.095 762.976 485.845
468 0 71.4056 12.9402 924 152.411 763.221 485.317
469 0 71.4057 13.3183 951 158.878 763.335 483.328
470 0 76.6211 12.738 976 158.925 763.62 481.665
471 0 76.3858 13.1569 1005 155.783 763.741 480.482
472 0 79.333 12.9328 1026 150.649 763.879 481.614
473 0 80.3547 13.1168 1054 157.792 763.707 479.25
474 0 83.4345 13.184 1100 159.01 764.329 477.532
475 0 86.3152 13.3928 1156 158.164 764.295 475.375
476 0 88.5404 13.1014 1160 159.099 764.297 475.149
477 0 90.3102 13.8412 1250 152.031 764.339 472.425
478 0 93.2882 13.5601 1265 155.837 764.59 471.798
479 0 95.3258 13.5116 1288 156.047 764.713 470.146
480 0 101.189 14.0233 1419 149.253 764.607 467.198
481 0 102.257 13.6225 1393 155.304 764.375 466.032
482 0 105.149 13.5427 1424 159.138 764.654 464.949
483 0 108.271 13.5309 1465 157.826 764.733 463.168
484 0 111.147 13.8915 1544 156.185 764.821 460.062
485 0 115.178 13.6832 1576 152.254 764.95 457.769
486 0 119.134 13.573 1617 158.366 764.847 457.526
487 0 120.221 14.0658 1691 159.967 764.971 456.746
488 0 124.227 13.8536 1721 160.662 764.852 454.367
489 0 129.391 13.9654 1807 156.308 765.261 452.872
490 0 131.245 13.8824 1822 155.861 765.093 450.464
491 0 133.265 14.3323 1910 159.007 765.397 448.101
492 0 139.301 13.9339 1941 150.463 766.017 444.967
493 0 143.288 14.1463 2027 153.885 766.379 444.007
494 1 67.1215 12.2613 823 159.45 765.968 481.431
495 0 68.2062 12.8434 876 144.308 766.487 480.136
496 0 72.197 12.6598 914 152.941 766.879 477.604
497 0 74.1199 13.006 964 151.951 766.746 476.879
498 0 78.0816 12.5638 981 149.948 767.019 475.798
499 0 80.2011 12.9175 1036 157.288 767.228 474.344
500 0 84.0563 12.8723 1082 149.014 766.668 472.54
501 0 86.173 13.0203 1122 156.882 766.478 471.909
502 0 90.104 13.1182 1182 154.694 766.175 469.947
503 0 90.1974 13.6811 1234 144.81 765.517 468.07
504 0 94.0648 13.799 1298 151.58 765.539 466.22
505 0 98.0622 13.0733 1282 150.128 765.626 464.504
506 0 101.122 13.4194 1357 128.045 766.399 463.014
507 0 107.141 13.3562 1431 154.562 766.835 461.401
508 0 107.316 13.8284 1484 143.806 766.925 459.632
509 0 113.295 13.787 1562 154.03 766.431 457.925
510 1 59.1219 11.3663 672 150.589 767.565 486.116
511 0 62.065 12.1485 754 152.7 766.342 484.359
512 0 63.1025 12.4084 783 156.879 766.653 482.787
513 0 67.0618 12.6301 847 160.547 766.534 482.946
514 0 69.1465 12.3506 854 163.488 765.865 481.356
515 0 71.12 12.6828 902 159.213 766.092 480.289
516 0 73.0917 12.7237 930 161.133 765.546 478.595
517 0 76.1235 12.7424 970 164.467 765.213 477.323
518 0 78.1181 12.9291 1010 161.73 765.175 477.167
519 0 81.3002 12.6322 1027 162.646 764.648 474.993
520 0 84.1104 12.5312 1054 166.166 764.679 474.079
521 0 87.2886 12.6362 1103 152.736 764.463 471.792
522 0 88.2423 12.7717 1127 162.492 763.766 470.256
523 0 92.2085 12.7646 1177 164.309 763.896 469.387
524 0 95.1278 12.541 1193 162.033 763.82 467.583
525 1 49.1255 11.4604 563 156.684 763.661 489.083
526 0 52.1465 11.8129 616 154.906 763.497 488.591
527 0 54.137 11.8773 643 151.722 764.106 489.286
528 0 55.1089 12.194 672 152.668 764.213 488.851
529 0 57.2389 12.0198 688 153.359 764.249 488.487
530 0 60.1811 11.914 717 153.6 764.127 487.57
531 0 61.2342 11.7255 718 150.943 764.386 486.798
532 0 61.1106 12.5019 764 152.42 764.215 486.219
533 0 63.1495 12.7159 803 153.38 764.979 485.401
534 0 65.0911 12.5363 816 153.085 764.485 484.396
535 0 67.093 12.4007 832 154.983 764.744 483.53
536 0 68.2329 12.5892 859 154.569 764.562 482.44
537 0 72.0833 12.7075 916 156.931 764.705 481.605
538 0 73.1417 12.8928 943 160.161 764.283 481.356
539 0 74.0772 13.2969 985 155.889 764.259 479.115
540 0 79.0945 12.8454 1016 159.222 764.245 478.586
541 0 79.1401 12.7369 1008 159.84 763.955 477.808
542 0 83.0992 13.177 1095 158.617 763.452 476.05
543 0 86.0721 12.9775 1117 160.974 763.788 475.231
544 0 90.1252 13.1928 1189 163.723 763.761 473.346
545 0 92.353 12.907 1192 160.982 763.741 471.524
546 1 51.0687 11.7685 601 156.118 763.902 491.987
547 0 53.1211 12.368 657 150.775 763.209 491.064
548 0 55.2983 12.3874 685 158.845 763.788 490.355
549 0 57.1947 13.1131 750 157.661 763.415 488.543
550 0 58.1283 12.9885 755 154.486 764.056 487.808
551 0 60.154 13.0166 783 155.946 764.252 487.691
552 0 61.2887 13.1346 805 159.661 763.283 486.035
553 0 65.1983 12.5924 821 158.13 763.11 485.447
554 0 65.1816 13.286 866 155.62 763.852 484.15
555 0 67.1331 13.5552 910 163.138 763.858 483.54
556 0 70.1677 13.197 926 155.871 763.437 483.064
557 0 72.356 13.7238 993 161.995 763.14 481.67
558 0 74.267 13.8554 1029 162.987 763.605 480.762
559 0 76.3691 13.5526 1035 161.459 763.743 479.352
560 0 79.2724 13.359 1059 165.231 763.351 478.872
561 0 81.3089 13.9345 1133 163.237 762.884 476.769
562 0 84.2997 13.7011 1155 164.549 762.609 476.23
563 0 88.2723 13.413 1184 161.319 762.396 473.54
564 0 90.2253 13.5771 1225 163.149 762.256 473.09
565 0 95.0935 13.492 1283 164.443 762.482 470.237
566 1 48.0525 11.8204 568 165.563 762.581 494.312
567 0 50.0496 11.8682 594 160.404 761.508 492.939
568 0 50.1752 12.6158 633 163.395 762.308 493.66
569 0 51.2801 12.617 647 158.386 762.365 493.372
570 0 53.2438 12.8278 683 164.697 763.331 492.603
571 0 56.1257 12.7571 716 160.468 763.325 492.399
572 0 56.1588 12.7674 717 160.225 763.29 491.276
573 0 56.1654 13.1398 738 158.416 763.691 490.492
574 0 58.1423 13.0886 761 158.443 763.422 489.566
575 0 62.1679 12.7879 795 162.01 763.147 488.343
576 0 64.1567 12.8747 826 153.801 763.148 487.632
577 0 66.0921 12.9819 858 162.375 763.502 486.907
578 0 68.1944 12.7137 867 163.802 763.262 485.918
579 0 69.1112 12.8778 890 162.367 763.391 483.925
580 0 72.1161 12.8681 928 159.997 763.498 482.518
581 0 74.1264 12.9374 959 169.413 763.397 482.725
582 0 76.0943 12.7342 969 158.023 763.034 481.741
583 0 78.111 13.1224 1025 163.204 763.74 479.799
584 0 79.1075 13.0708 1034 163.929 763.64 478.975
585 0 81.1677 12.7391 1034 158.024 764.132 479.023
586 0 84.1599 12.607 1061 168.676 763.843 476.685
587 0 87.1787 13.0307 1136 156.382 764.048 473.985
588 0 90.1622 13.021 1174 157.839 763.594 472.034
589 0 95.1839 12.8698 1225 161.166 763.719 470.385
590 1 46.0629 11.1586 514 156.375 764.698 494.267
591 0 46.0281 11.7971 543 154.317 764.726 493.076
592 0 48.1364 11.966 576 154.641 764.26 492.46
593 0 50.1406 12.1458 609 158.836 764.128 491.872
594 0 53.2179 11.8569 631 156.477 764.13 490.702
595 0 52.1463 12.5992 657 158.072 763.939 490.365
596 0 55.23 12.0768 667 152.399 763.789 490.079
597 0 58.2743 12.2009 711 157.613 764.336 489.037
598 0 59.2405 12.3395 731 155.902 764.019 488.367
599 0 61.1973 12.2391 749 159.405 764.271 487.298
600 0 62.2464 12.4505 775 158.289 764.635 486.843
601 0 66.1718 12.2106 808 157.017 764.811 485.17
602 0 66.139 12.7308 842 159.057 764.771 484.088
603 0 70.1058 12.2387 858 164.291 764.528 483.777
604 0 71.0669 12.9174 918 160.156 764.656 480.913
605 0 75.201 12.8057 963 164.858 765.389 480.341
606 0 78.0655 12.4511 972 161.063 766.76 479.237
607 0 79.0998 12.5917 996 161.834 766.358 478.517
608 0 82.0915 12.145 997 161.796 765.709 478.249
609 0 84.1567 12.5361 1055 163.089 766.188 474.355
610 1 47.1777 11.0645 522 156.061 764.759 493.358
611 0 48.0828 11.397 548 153.609 765.277 491.682
612 0 48.0549 12.0071 577 158.789 765.22 491.965
613 0 52.0845 11.3853 593 157.074 765.563 491.067
614 0 53.0774 12.2086 648 153.287 765.664 489.299
615 0 55.2465 11.7835 651 155.988 766.823 488.817
616 0 56.1843 11.8538 666 153.491 766.476 488.242
617 0 57.22 11.6568 667 153.625 766.216 487.831
618 0 58.1618 12.2589 713 149.383 766.61 486.599
619 0 61.2631 11.9485 732 156.23 766.745 485.581
620 0 63.203 12.2146 772 156.1 766.661 484.604
621 0 66.1761 12.1041 801 154.834 766.051 483.512
622 0 68.2288 12.2236 834 154.158 765.476 482.357
623 0 71.1719 12.0694 859 154.834 765.729 481.737
624 0 73.131 12.4571 911 156.293 765.085 480.135
625 0 75.1563 12.5339 942 157.325 765.654 479.025
626 0 78.1931 12.84 1004 153.752 765.796 476.699
627 0 81.2149 12.5962 1023 159.232 765.996 476.273
628 0 83.2969 12.9417 1078 157.535 766.481 474.17
629 1 44.1516 10.2827 454 159.308 766.965 495.183
630 0 44.1387 11.3053 499 154.627 766.99 493.471
631 0 46.0213 11.386 524 140.716 767.393 492.823
632 0 47.054 12.0925 569 155.17 767.012 492.675
633 0 49.0412 12.1938 598 155.455 767 492.338
634 0 51.1388 12.0065 614 156.59 766.448 490.726
635 0 52.1616 12.2696 640 159.864 766.492 490.041
636 0 53.1336 12.3651 657 156.788 766.189 488.661
637 0 55.0971 12.1241 668 159.491 765.853 489.581
638 0 56.2024 12.2771 690 160.165 764.312 488.536
639 0 58.1783 12.2898 715 162.727 764.799 487.943
640 0 60.1533 12.518 753 167.126 764.571 487.539
641 0 61.2623 12.7321 780 167.876 764.622 486.826
642 0 62.1368 12.3437 767 170.039 764.604 486.645
643 0 64.0967 12.8712 825 166.047 764.057 485.168
644 0 66.1632 12.6657 838 163.07 765.234 484.932
645 0 68.2137 12.6954 866 157.308 765.629 483.895
646 0 70.0636 12.9739 909 167.073 765.838 482.454
647 0 71.1329 13.1585 936 169.707 766.177 481.793
648 0 75.0362 13.1936 990 166.493 765.707 480.126
649 0 75.1256 13.1779 990 162.024 765.266 478.739
650 0 80.3329 12.8839 1035 165.705 764.648 477.678
651 0 81.1784 12.8975 1047 160.904 764.498 476.826
652 0 86.1831 12.5663 1083 171.334 764.151 475.976
653 0 87.2072 12.9462 1129 160.934 763.3 473.876
654 0 91.2537 12.8543 1173 163.575 763.779 471.637
655 1 51.0547 10.9295 558 163.697 762.937 492.145
656 0 53.0981 11.7518 624 158.271 763.792 491.896
657 0 54.147 12.0598 653 153.4 764.478 490.844
658 0 56.0875 11.7852 661 157.923 764.289 490.089
659 0 57.1896 12.5897 720 156.201 764.374 489.743
660 0 60.2845 12.0097 724 154.211 764.858 488.936
661 0 62.2258 11.8279 736 157.291 764.662 487.982
662 0 62.2551 12.6255 786 157.935 764.16 487.427
663 0 64.1722 12.6379 811 160.349 764.44 486.074
664 0 68.1478 12.2821 837 155.656 764.232 484.547
665 0 71.1216 12.5419 892 152.659 763.704 482.34
666 0 73.0456 12.0199 878 159.654 764.166 481.544
667 0 74.0686 12.5424 929 148.75 763.598 479.364
668 0 78.0839 12.4097 969 154.769 763.363 478.236
669 0 80.1906 12.3581 991 150.32 762.935 477.578
670 0 83.2648 12.4182 1034 157.33 763.191 475.88
671 0 85.1249 12.8399 1093 151.715 763.238 474.49
672 1 46.059 10.6385 490 156.639 763.443 494.908
673 0 47.0731 10.728 505 154.162 763.398 494.897
674 0 48.0768 11.7312 564 148.716 764.287 493.427
675 0 51.0386 11.6579 595 147.691 764.415 492.649
676 0 53.0291 11.654 618 152.972 764.032 492.348
677 0 52.0731 12.4248 647 155.83 763.706 492.587
678 0 53.0346 12.1619 645 151.758 762.795 491.715
679 0 56.0377 12.1347 680 151.725 764.343 490.772
680 0 59.1542 12.104 716 156.73 764.117 490.152
681 0 56.0529 12.5952 706 150.891 764.037 489.323
682 0 60.0737 12.5513 754 152.771 764.424 489.154
683 0 60.1057 12.6777 762 154.098 763.772 488.344
684 0 62.1204 12.4436 773 154.477 763.486 487.309
685 0 65.2017 12.4997 815 156.758 764.191 486.409
686 0 67.1376 12.6755 851 155.497 763.745 485.938
687 0 68.0959 12.7467 868 153.983 763.847 484.871
688 0 71.126 12.8364 913 156.595 763.457 483.45
689 0 73.1674 12.9019 944 153.343 762.796 483.012
690 0 76.1403 12.3194 938 154.503 762.265 482.268
691 0 78.2001 12.7749 999 155.886 762.621 480.132
692 1 41.0674 10.5193 432 158.581 763.266 499.822
693 0 43.1577 10.7513 464 156.032 763.472 498.782
694 0 44.1969 11.0415 488 151.221 762.789 498.328
695 0 47.1635 11.5555 545 148.446 762.789 497.02
696 0 47.1811 11.6784 551 155.835 762.387 496.697
697 0 47.1715 12.1048 571 154.487 762.806 496.336
698 0 50.1654 12.1 607 150.982 762.496 495.01
699 0 51.1588 12.1387 621 150.911 763.23 494.528
700 0 53.1155 11.7856 626 156.31 763.398 494.331
701 0 54.2216 12.0432 653 155.703 763.346 493.796
702 0 55.1113 12.2298 674 151.515 763.513 492.672
703 0 58.2354 11.8828 692 153.935 762.942 493.214
704 0 59.1608 12.2547 725 156.457 763.597 493.091
705 0 59.3186 12.1378 720 149.729 763.379 491.915
706 0 60.1791 12.8284 772 153.876 763.74 491.052
707 0 62.1999 12.3634 769 153.364 763.481 491.092
708 0 63.172 12.4422 786 144.729 763.482 489.856
709 0 66.0937 12.7546 843 147.241 763.414 488.875
710 0 68.1676 12.6453 862 149.282 763.357 487.328
711 0 70.2148 12.9033 906 154.344 763.436 486.65
712 0 73.0994 12.5582 918 161.164 762.925 485.252
713 0 75.1539 12.9201 971 162.884 762.834 484.118
714 0 78.1452 12.7711 998 152.598 762.778 482.42
715 0 80.1735 12.8596 1031 157.813 762.862 482.176
716 0 82.1706 12.5592 1032 158.558 763.478 481.448
717 0 86.085 12.8478 1106 160.641 762.855 478.543
718 0 89.1601 13.0327 1162 156.524 762.192 478.089
719 1 46.0625 11.9186 549 157.301 760.532 499.04
720 0 49.0942 12.3232 605 162.051 761.073 498.61
721 0 49.0633 12.4737 612 153.946 761.925 497.608
722 0 52.1139 12.2424 638 163.527 762.487 498.32
723 0 54.3335 12.2024 663 168.719 762.763 496.329
724 0 54.1831 12.2917 666 169.227 762.748 495.515
725 0 55.18 12.7945 706 169.751 762.996 494.207
726 0 56.2131 12.6305 710 167.289 762.459 494.082
727 0 58.1531 12.5875 732 165.809 762.551 493.234
728 0 60.116 12.4426 748 170.045 763.578 492.424
729 0 62.1518 12.8234 797 165.878 763.616 491.536
730 0 63.159 12.7614 806 171.727 763.976 491.134
731 0 66.0608 12.7912 845 163.309 763.251 489.243
732 0 70.313 12.359 869 162.349 762.84 487.804
733 0 71.1402 13.0728 930 169.926 763.874 487.13
734 0 74.2209 12.4493 924 167.155 763.662 485.558
735 0 76.2569 12.7202 970 165.366 763.318 483.676
736 0 79.2919 13.0657 1036 162.381 763.266 482.116
737 0 81.2179 12.9651 1053 167.052 763.548 480.046
738 0 82.3126 13.1329 1081 170.016 763.317 478.957
739 0 86.2238 12.7923 1103 169.674 763.37 476.87
740 0 89.2622 12.8386 1146 163.468 763.377 475.409
741 0 92.2772 12.8742 1188 163.277 763.598 473.104
742 0 96.232 12.7712 1229 162.215 763.562 470.652
743 0 100.32 12.809 1285 168.342 763.921 470.089
744 1 50.0308 11.6328 582 162.902 763.622 493.701
745 0 51.1529 12.3747 633 164.1 765.005 493.322
746 0 54.0639 12.5962 681 166.699 765.191 491.872
747 0 54.0648 12.7625 690 171.109 764.835 491.849
748 0 57.1113 12.5019 714 157.776 764.819 489.973
749 0 60.1036 12.4285 747 168.49 765.033 488.894
750 0 61.0729 12.8044 782 161.596 765.207 487.666
751 0 62.0851 12.8855 800 158.285 765.22 487.018
752 0 65.1741 12.8732 839 162.493 765.266 485.511
753 0 67.1033 12.4882 838 164.908 765.548 484.678
754 0 69.1707 12.8089 886 162.454 765.438 483.603
755 0 72.1003 12.5797 907 162.315 765.546 482.312
756 0 74.1473 12.7719 947 158.993 765.029 479.734
757 0 75.2488 12.8507 967 162.947 765.786 479.343
758 0 79.2166 12.6615 1003 165.383 766.205 477.562
759 0 82.4684 12.3805 1021 158.994 765.648 476.204
760 0 83.2367 12.8069 1066 162.382 766.206 474.696
761 0 87.2269 12.6337 1102 148.187 765.807 473.676
762 0 88.2941 12.9793 1146 151.178 765.438 471.4
763 0 93.232 12.5922 1174 158.377 765.865 471.057
764 0 95.4215 12.9635 1237 159.167 765.838 468.084
765 1 52.2189 10.6475 556 156.845 765.912 490.665
766 0 52.1872 11.3055 590 154.124 765.876 490.459
767 0 55.2609 11.2738 623 156.663 766.294 488.538
768 0 58.1147 11.4601 666 150.45 766.284 486.995
769 0 58.1307 12.2655 713 152.839 766.508 486.084
770 0 61.1679 12.2123 747 151.818 766.585 485.479
771 0 63.1214 12.1512 767 142.93 766.459 484.01
772 0 65.0524 12.4669 811 151.635 767.08 483.091
773 0 66.1193 12.4623 824 145.279 767.194 482.159
774 0 68.055 12.4605 848 151.126 767.176 480.843
775 0 68.1169 12.3905 844 158.336 767.177 480.738
776 0 72.192 12.5499 906 155.098 766.677 478.961
777 0 75.3478 12.5153 943 158.069 767.077 478.417
778 0 76.1856 12.7714 973 151.815 766.867 477.571
779 0 80.1932 12.5946 1010 162.047 766.775 475.473
780 0 83.0531 12.486 1037 162.58 766.424 474.378
781 0 84.1401 12.9189 1087 154.927 765.83 472.766
782 0 87.1011 12.6979 1106 163.466 766.489 471.865
783 0 90.1271 12.5933 1135 165.84 765.625 471.121
784 0 94.0902 12.7006 1195 163.151 765.236 469.321
785 0 95.0989 12.9549 1232 153.019 765.571 467.939
786 0 97.0995 13.1618 1278 161.195 765.308 466.747
787 0 102.101 12.5855 1285 162.491 765.086 465.575
788 0 105.248 12.7414 1341 163.632 764.454 463.981
789 0 106.21 13.2002 1402 164.747 764.215 462.019
790 0 109.127 13.1132 1431 161.573 763.762 460.27
791 1 57.0981 11.2788 644 162.567 764.203 487.329
792 0 58.0819 11.9659 695 159.673 765.037 486.724
793 0 59.0792 11.9839 708 154.195 764.989 487.767
794 0 61.0401 12.0904 738 152.633 765.408 486.48
795 0 62.1261 12.5229 778 154.06 765.87 486.549
796 0 64.0724 12.1893 781 155.023 765.648 486.073
797 0 66.1031 11.6787 772 149.036 765.193 485.139
798 0 68.1405 11.9019 811 151.529 765.228 483.2
799 0 70.1888 12.0959 849 153.298 765.441 482.28
800 0 72.2768 11.9679 865 156.341 765.718 481.88
801 0 75.2583 12.384 932 154.176 765.391 480.412
802 0 76.2807 12.2574 935 151.002 765.743 479.364
803 0 80.2595 12.0733 969 152.955 766.48 478.636
804 0 81.1647 12.604 1023 145.768 765.947 476.224
805 0 86.2224 12.5721 1084 152.426 766.113 475.558
806 0 87.1409 12.7724 1113 151.684 765.685 473.742
807 0 90.1494 12.5902 1135 152.963 765.211 471.471
808 0 93.1407 12.3791 1153 155.33 765.111 470.512
809 0 95.2042 12.9616 1234 157.05 764.921 467.652
810 0 99.1781 13.1077 1300 157.303 765.345 465.767
811 0 102.175 12.6058 1288 154.575 765.502 464.633
812 0 106.202 12.7775 1357 156.923 766.413 462.513
813 0 110.417 12.8422 1418 156.574 765.852 460.487
814 0 112.364 12.7443 1432 157.184 766.226 457.865
815 0 115.425 12.8742 1486 156.52 766.671 457.286
816 0 120.35 12.8791 1550 156.107 766.629 455.146
817 0 122.21 13.1904 1612 144.079 766.547 452.359
818 1 64.084 11.641 746 154.847 766.241 481.887
819 0 68.084 11.6914 796 153.818 766.455 480.796
820 0 72.1789 11.9703 864 156.664 766.655 478.101
821 0 73.0938 11.8204 864 147.766 766.304 477.617
822 0 76.064 12.2134 929 159.228 766.988 476.774
823 0 79.1316 12.0811 956 156.577 766.789 474.446
824 0 82.1302 12.395 1018 155.87 766.902 472.884
825 0 84.1086 12.6741 1066 151.739 766.674 471.417
826 0 87.1182 12.6151 1099 153.412 766.858 469.793
827 0 90.0934 12.6535 1140 147.398 766.304 467.885
828 0 94.1491 12.7457 1200 130.828 767.012 465.93
829 0 98.2299 12.4504 1223 128.258 766.918 463.679
830 0 100.195 12.296 1232 129.143 768.261 461.627
831 0 102.177 12.8894 1317 124.251 768.39 460.148
832 0 108.261 12.6176 1366 131.776 768.279 459.765
833 0 112.312 12.8659 1445 129.43 768.959 456.041
834 1 58.198 10.8423 631 153.168 768.678 484.686
835 0 60.1144 11.1787 672 152.912 767.685 483.554
836 0 63.0843 11.6828 737 154.028 768.354 482.387
837 0 64.2848 12.0868 777 150.363 767.767 482.362
838 0 66.1556 12.002 794 151.817 767.19 481.916
839 0 67.128 11.9175 800 149.058 767.012 481.185
840 0 70.1984 11.8806 834 144.282 767.694 480.101
841 0 71.1602 11.3547 808 147.484 768.235 479.307
842 0 74.1518 11.5574 857 150.755 767.889 477.781
843 0 77.134 11.2661 869 150.171 768.26 476.44
844 0 80.2303 11.3548 911 144.825 768.778 474.299
845 0 82.1248 11.3729 934 141.465 768.623 472.585
846 0 84.1133 11.2586 947 142.889 767.559 472.086
847 0 87.1378 11.4072 994 139.253 767.629 470.599
848 0 89.1694 11.7753 1050 140.981 767.726 468.817
849 0 95.2243 13.505 1286 129.951 767.501 464.223
850 1 49.035 9.2791 455 139.745 767.576 489.229
851 0 52.1026 9.23179 481 145.127 767.428 489.459
852 0 51.0975 9.37423 479 141.534 767.532 489.812
853 0 53.1309 9.80598 521 131.587 768.829 488.213
854 0 54.1427 10.2322 554 140.727 767.702 487.366
855 0 55.1659 10.4594 577 140.615 767.362 486.752
856 0 57.0919 11.2976 645 133.329 767.318 485.597
857 0 60.0305 11.111 667 135.798 769.117 484.922
858 0 61.0133 11.2926 689 137.142 768.84 484.157
859 0 62.1796 11.7402 730 134.97 768.168 483.34
860 0 64.0323 11.6347 745 142.034 768.244 482.383
861 0 66.1489 11.6858 773 137.577 768.219 481.625
862 0 67.0334 11.6808 783 137.208 767.936 480.678
863 0 69.0431 11.7897 814 141.931 768.103 479.762
864 0 73.0627 11.4285 835 134.681 769.292 477.778
865 0 74.0743 11.448 848 142.008 768.533 476.517
866 0 77.1411 11.5762 893 135.613 767.552 475.415
867 0 79.1101 11.958 946 138.144 767.166 473.795
868 0 82.123 11.9577 982 141.886 766.739 473.135
869 0 83.1121 11.7672 978 136.344 766.721 472.344
870 0 87.0506 12.062 1050 138.98 766.479 470.548
871 0 91.2097 12.104 1104 147.047 765.784 468.947
872 0 94.2304 12.427 1171 149.732 766.288 467.953
873 0 99.1777 12.0995 1200 149.062 766.249 467.303
874 0 101.262 12.2258 1238 146.947 766.726 465.282
875 0 106.291 13.416 1426 140.38 766.512 461.285
876 1 56.0913 10.7682 604 151.737 765.924 488.187
877 0 58.17 11.0022 640 149.08 765.258 487.92
878 0 59.1099 11.8931 703 145.158 765.75 486.7
879 0 63.0739 12.3982 782 148.023 768.041 485.528
880 0 64.077 12.1104 776 152.227 768.396 485.964
881 0 67.0954 12.8325 861 149.545 768.742 484.102
882 0 67.1316 13.049 876 147.839 768.804 484.062
883 0 69.1348 12.2659 848 155.325 769.077 484.423
884 0 70.0795 12.7855 896 151.419 768.624 482.571
885 0 72.1548 12.7088 917 156.754 768.555 481.123
886 0 75.0784 12.4803 937 148.538 768.653 480.301
887 0 78.279 13.4391 1052 152.857 768.83 477.817
888 0 80.3237 12.6115 1013 154.435 768.681 477.576
889 0 83.2856 12.8474 1070 158.201 766.856 476.608
890 0 85.1588 12.7761 1088 164.919 767.054 475.185
891 0 86.2371 13.0802 1128 162.331 767.033 473.751
892 0 91.2884 12.9699 1184 150.106 767.234 472.128
893 0 94.2129 12.7583 1202 157.223 766.889 470.914
894 0 96.1988 12.2871 1182 153.418 767.304 470.077
895 1 49.1411 11.4365 562 151.598 768.553 492.416
896 0 51.23 12.0242 616 150.234 768.032 491.427
897 0 54.2752 11.8102 641 145.148 768.707 490.822
898 0 54.2064 12.5078 678 151.025 768.164 489.326
899 0 56.3054 11.9704 674 144.875 767.783 488.669
900 0 58.1573 11.7956 686 150.276 767.621 487.968
901 0 62.232 13.6586 850 139.438 767.7 485.291
902 0 62.2176 13.501 840 136.33 767.582 483.707
903 0 63.1174 12.3579 780 141.882 767.242 484.213
904 0 63.149 12.8427 811 145.891 767.18 484.08
905 0 65.1595 13.0756 852 144.585 767.4 482.604
906 0 72.2015 14.2656 1030 134.856 767.601 479.61
907 0 71.1711 13.5448 964 143.684 767.338 479.568
908 0 72.2058 13.1568 950 152.663 767.643 480.461
909 0 74.0952 12.6999 941 149.944 767.646 478.753
910 0 76.0978 13.2461 1008 151.959 768.212 477.657
911 0 81.3269 12.5297 1019 148.466 767.442 476.133
912 0 84.1936 13.2908 1119 146.679 767.601 474.401
913 0 87.1186 13.1201 1143 149.256 766.943 472.325
914 0 90.2103 12.4709 1125 150.461 767.099 471.842
915 0 96.1944 14.8242 1426 133.367 767.421 467.142
916 1 49.1352 10.9494 538 155.126 767.651 492.448
917 0 49.1475 11.3536 558 162.251 767.744 492.326
918 0 49.1642 11.7565 578 156.157 767.261 490.443
919 0 54.1612 11.7981 639 151.016 767.759 489.986
920 0 56.1393 12.8787 723 146.851 767.895 488.519
921 0 56.1306 11.8474 665 155.11 767.94 489.006
922 0 58.2149 12.1447 707 151.777 767.864 487.67
923 0 61.1788 12.2428 749 151.124 767.988 488.123
924 0 61.0805 12.3607 755 149.972 768.441 486.075
925 0 63.1201 12.4841 788 158.726 767.66 485.197
926 0 65.1746 12.9498 844 159.492 767.589 485.083
927 0 67.2394 12.9983 874 154.918 767.705 483.068
928 0 69.1162 12.79 884 159.209 768.089 482.653
929 0 71.1293 12.7092 904 153.613 767.782 480.71
930 0 72.2318 13.0552 943 156.383 768.135 479.372
931 0 76.1432 13.12 999 155.544 768.587 477.73
932 0 79.1778 13.135 1040 156.672 768.553 476.367
933 0 81.4023 12.9849 1057 158.554 768.369 475.495
934 0 83.2262 13.0728 1088 146.842 768.79 474.529
935 0 88.1936 12.9828 1145 155.158 768.708 472.776
936 0 90.3165 12.6998 1147 120.282 768.818 470.817
937 0 93.2616 12.9957 1212 156.12 767.916 468.477
938 1 47.1985 10.869 513 158.164 767.867 492.425
939 0 48.0937 11.3944 548 159.92 768.673 491.266
940 0 50.0851 11.9397 598 153.604 768.722 490.314
941 0 51.1583 11.4546 586 155.406 768.606 490.334
942 0 53.223 11.837 630 154.032 768.581 489.806
943 0 54.1711 11.999 650 149.291 768.717 489.703
944 0 55.1656 11.9458 659 148.564 768.838 488.516
945 0 56.0933 12.4079 696 155.619 768.881 487.48
946 0 60.271 12.1286 731 152.096 768.171 486.166
947 0 62.1216 12.3468 767 146.957 768.145 484.312
948 0 64.2742 12.2755 789 153.141 768.047 483.309
949 0 66.099 11.9215 788 153.051 768.666 483.321
950 0 67.3051 12.5399 844 155.058 768.359 480.864
951 0 70.0779 12.2578 859 152 768.469 479.966
952 0 73.1232 12.349 903 151.836 768.607 479.017
953 0 73.1201 12.6367 924 151.962 769.299 477.499
954 0 77.1381 12.9378 998 148.627 768.387 476.68
955 0 79.04 12.9175 1021 150.591 768.788 476.291
956 0 83.0653 12.5444 1042 155.688 769.107 475.137
957 0 84.1147 12.8753 1083 153.055 769.655 473.843
958 0 87.1616 12.9759 1131 152.306 769.752 472.158
959 1 46.039 10.8169 498 155.309 769.918 492.301
960 0 49.1037 10.936 537 157.872 769.885 491.752
961 0 49.059 11.5575 567 150.603 770.044 491.005
962 0 53.1751 11.4339 608 147.429 769.155 490.178
963 0 53.0956 12.6564 672 149.927 769.33 489.396
964 0 54.0721 12.2984 665 148.445 769.057 488.477
965 0 56.1605 13.0341 732 153.014 769.492 487.899
966 0 57.1867 12.7302 728 152.771 769.26 486.54
967 0 59.1693 12.7093 752 151.82 769.044 486.477
968 0 61.081 13.4248 820 149.043 768.461 485.004
969 0 63.0599 12.9401 816 151.9 768.809 485.097
970 0 64.1075 12.869 825 154.646 768.424 484.345
971 0 66.3334 12.9045 856 155.325 768.905 483.53
972 0 68.2059 12.7555 870 153.101 769.432 482.414
973 0 70.1425 12.831 900 159.359 769.074 480.616
974 0 72.1182 13.0619 942 155.966 769.333 480.184
975 0 74.0748 13.3109 986 161.08 769.676 479.016
976 0 76.1247 13.491 1027 162.264 769.779 477.991
977 0 79.1079 13.0581 1033 160.543 769.56 477.46
978 0 81.1361 13.2863 1078 162.842 769.196 476.577
979 0 84.2258 13.0364 1098 160.857 768.412 474.922
980 0 87.1642 13.1132 1143 162.893 768.991 473.269
981 0 89.2835 12.8131 1144 160.591 769.356 472.101
982 0 93.0808 13.1928 1228 166.902 769.037 470.23
983 1 48.1455 11.5899 558 165.844 769.5 493.077
984 0 50.0611 12.0453 603 159.68 769.323 491.716
985 0 50.0681 11.5443 578 158.116 768.794 490.92
986 0 52.0887 12.2099 636 164.569 768.879 490.583
987 0 53.1203 12.594 669 160 768.822 490.291
988 0 55.1162 12.5734 693 163.618 769.906 488.227
989 0 57.1219 12.4646 712 156.396 768.492 487.687
990 0 59.1297 11.8891 703 155.373 768.616 486.969
991 0 60.1534 12.7341 766 162.85 768.24 485.266
992 0 63.0917 12.8543 811 162.143 768.046 484.026
993 0 64.1005 12.9016 827 144.481 768.216 483.451
994 0 66.0984 12.7688 844 167.719 768.102 483.487
995 0 69.138 13.1187 907 161.23 768.496 481.877
996 0 71.0962 12.8558 914 158.801 768.035 479.989
997 0 73.1724 12.86 941 168.101 768.089 479.971
998 0 75.2445 13.0375 981 168.373 768.328 478.662
999 0 77.2305 13.2072 1020 166.248 768.17 478.416
1000 0 80.2722 13.1428 1055 162.649 768.189 476.486
1001 0 83.3789 12.9409 1079 168.022 767.927 475.077
1002 0 86.275 12.889 1112 164.888 767.635 473.546
1003 0 87.2629 12.915 1127 152.489 767.378 472.198
1004 0 91.403 13.0083 1189 159.737 767.981 470.681
1005 1 47.3247 11.326 536 160.485 767.677 492.049
1006 0 48.0602 12.0058 577 157.769 769.217 491.763
1007 0 51.0461 11.9108 608 152.472 768.791 491.286
1008 0 50.0221 12.3545 618 151.516 769.129 490.84
1009 0 53.1148 11.8987 632 153.304 769.043 490.557
1010 0 54.0513 11.9701 647 153.886 769.073 489.998
1011 0 56.1549 12.0381 676 154.868 768.954 488.851
1012 0 56.1493 12.2352 687 156.639 769.202 487.597
1013 0 59.1649 12.0849 715 150.642 769.961 487.408
1014 0 59.2382 12.4413 737 142.847 769.457 485.845
1015 0 62.2012 12.4596 775 150.985 770.148 485.147
1016 0 62.128 12.4099 771 146.543 770.265 483.532
1017 0 64.172 12.7782 820 149.591 769.366 482.337
1018 0 65.1379 12.6501 824 144.576 770.072 481.917
1019 0 70.1175 12.365 867 27.9112 770.383 480.539
1020 0 72.1736 12.3868 894 139.408 770.311 478.957
1021 0 74.2989 12.342 917 144.863 769.876 476.698
1022 0 76.1462 12.1871 928 146.3 769.074 475.819
1023 0 79.1211 12.4872 988 148.745 769.767 475.385
1024 0 79.1211 12.4872 988 154.629 770.767 475.385
1025 1 43.0649 10.3797 447 147.866 769.864 492.582
1026 0 44.0223 10.2902 453 145.768 769.713 492.479
1027 0 45.0247 10.3721 467 144.045 768.572 491.621
1028 0 48.0291 10.9725 527 143.579 768.721 490.45
1029 0 49.1158 11.0148 541 139.669 768.571 488.743
1030 0 50.1441 11.8259 593 133.093 768.791 488.094
1031 0 52.1265 11.4721 598 146.761 769.069 487.59
1032 0 52.1181 11.8961 620 145.387 769.082 487.429
1033 0 54.0757 12.3161 666 139.694 768.814 485.785
1034 0 56.0771 12.358 693 145.216 769.512 484.828
1035 0 57.025 12.5208 714 139.395 769.441 484.503
1036 0 60.0609 12.7038 763 149.476 768.668 483.967
1037 0 61.2083 12.6617 775 147.978 769.29 483.301
1038 0 63.1188 12.722 803 149.74 768.747 481.827
1039 0 65.2199 12.7415 831 148.013 768.363 481.471
1040 0 67.2623 12.8006 861 148.381 768.249 480.235
1041 0 69.372 12.8726 893 153.016 768.559 479.242
1042 0 71.3061 12.7478 909 156.52 768.518 478.172
1043 0 73.2251 13.0693 957 143.894 768.652 477.229
1044 0 76.2644 13.2041 1007 156.479 768.507 476.14
1045 0 78.3443 13.3258 1044 156.904 768.578 474.286
1046 0 81.2441 12.9856 1055 160.795 768.544 473.426
1047 0 84.2223 13.2032 1112 155.704 768.189 471.325
1048 1 46.3457 11.2632 522 162.944 768.339 490.638
1049 0 48.1161 11.784 567 157.774 768.242 490.504
1050 0 51.1898 11.643 596 159.062 768.495 489.956
1051 0 52.1909 12.0136 627 153.978 768.284 489.469
1052 0 51.193 12.2087 625 159.701 770.325 489.686
1053 0 53.1852 12.2779 653 154.165 769.697 487.443
1054 0 55.1811 12.1418 670 155.37 768.416 486.234
1055 0 56.1816 12.3706 695 154.18 768.083 485.18
1056 0 58.1643 12.2928 715 157.884 768.455 485.077
1057 0 58.2217 12.8818 750 147.831 767.913 483.385
1058 0 63.1117 12.5809 794 156.011 767.893 482.506
1059 0 63.3248 12.8702 815 152.205 767.388 482.148
1060 0 66.1651 12.9222 855 153.077 768.088 481.172
1061 0 69.2202 12.9442 896 156.905 768.911 480.241
1062 0 70.1885 12.6944 891 156.019 767.198 478.881
1063 0 73.1103 12.7752 934 156.344 768.226 477.914
1064 0 75.1151 12.7005 954 157.465 767.355 477.094
1065 0 78.2709 12.6356 989 159.059 767.256 475.874
1066 0 81.1639 12.715 1032 160.998 767.006 474.177
1067 0 84.2219 13.0607 1100 160.575 766.915 471.965
1068 0 87.241 12.9641 1131 163.34 766.928 470.788
1069 1 46.2007 11.3635 525 158.158 767.838 492.143
1070 0 48.1425 11.549 556 155.799 768.201 490.901
1071 0 48.0251 11.8688 570 156.449 767.668 490.065
1072 0 50.0462 11.7891 590 152.903 767.688 489.785
1073 0 51.0642 12.4549 636 149.94 768.075 489.042
1074 0 50.1515 12.5221 628 154.175 767.686 488.502
1075 0 53.0905 12.4693 662 150.228 767.861 487.674
1076 0 56.0433 12.1335 680 154.226 767.953 486.8
1077 0 55.0438 12.7535 702 153.638 767.949 486.426
1078 0 56.0577 13.1115 735 150.513 768.136 485.218
1079 0 59.0549 12.8186 757 150.215 768.914 485.09
1080 0 60.0265 12.8443 771 152.698 768.39 484.271
1081 0 61.1038 12.7979 782 153.662 768.509 483.04
1082 0 64.0307 12.8844 825 153.68 768.432 481.692
1083 0 67.1833 12.9645 871 152.676 768.243 480.684
1084 0 69.122 12.9481 895 154.416 768.332 479.366
1085 0 73.0781 12.7535 932 151.487 767.157 478.009
1086 0 73.0917 12.9974 950 145.969 767.842 477.129
1087 0 77.0775 13.1945 1017 151.014 767.765 475.919
1088 0 79.0768 13.0633 1033 154.645 768.47 474.681
1089 0 82.0549 13.2594 1088 153.153 768.425 472.817
1090 0 86.0745 12.9423 1114 158.854 768.211 472.346
1091 0 89.1036 13.1532 1172 154.92 768.28 470.211
1092 1 46.0433 10.729 494 159.051 768.638 491.267
1093 0 48.0457 11.156 536 155.815 768.638 491.123
1094 0 49.05 12.0897 593 143.951 768.314 490.369
1095 0 50.2353 11.8443 595 151.758 769.109 490.061
1096 0 53.2692 11.8267 630 151.635 769.049 489.192
1097 0 53.2207 12.42 661 153.18 768.909 488.927
1098 0 53.2439 12.8653 685 152.152 768.793 487.269
1099 0 56.1453 12.4677 700 154.489 769.261 487.283
1100 0 59.1673 12.1858 721 161.227 769.258 486.207
1101 0 61.1872 12.3719 757 158.417 768.209 485.132
1102 0 62.1983 12.8621 800 152.736 768.799 483.014
1103 0 64.1944 12.6958 815 157.037 768.331 482.629
1104 0 67.1871 12.3238 828 159.691 768.085 481.685
1105 0 68.2102 12.8133 874 158.069 767.769 480.525
1106 0 71.306 12.9442 923 156.602 767.71 479.483
1107 0 74.2039 12.3983 920 166.374 767.912 478.773
1108 0 75.1462 12.8017 962 154.797 767.767 477.431
1109 0 78.3054 12.5789 985 159.177 768.538 476.383
1110 0 81.4052 12.7142 1035 159.293 768.888 474.598
1111 1 45.2741 10.8892 493 162.927 769.406 492.357
1112 0 45.2662 11.2225 508 155.837 769.146 492.423
1113 0 49.3202 11.3544 560 160.418 769.196 491.214
1114 0 49.228 11.5991 571 158.361 768.984 490.82
1115 0 50.2359 11.9237 599 158.544 769.04 489.401
1116 0 53.1357 11.3295 602 152.463 768.663 488.816
1117 0 55.2141 11.7724 650 149.535 768.506 487.389
1118 0 56.1722 11.803 663 151.262 767.965 486.869
1119 0 58.2427 12.0702 703 155.549 768.626 485.485
1120 0 59.2162 11.8886 704 149.392 768.097 484.842
1121 0 61.2066 12.2046 747 153.888 768.076 483.938
1122 0 63.1369 12.4333 785 150.827 767.885 483.647
1123 0 66.1124 11.9645 791 152.728 768.034 482.288
1124 0 67.1888 12.3532 830 140.781 767.969 480.963
1125 0 69.1572 12.2908 850 156.018 768.165 480.008
1126 0 73.1502 12.0437 881 153.561 767.464 478.982
1127 0 75.1166 11.7551 883 153.506 767.419 478.294
1128 0 77.0723 12.4169 957 149.137 767.658 477.055
1129 0 80.0308 12.0828 967 156.904 768.261 475.595
1130 1 43.0325 10.829 466 158.208 767.811 494.099
1131 0 46.0292 10.6671 491 156.699 768.132 492.727
1132 0 44.2701 11.2491 498 155.645 768.373 493.233
1133 0 46.2326 11.0744 512 155.805 767.998 492.768
1134 0 46.1484 11.6147 536 153.894 768.698 492.252
1135 0 48.2268 11.3422 547 153.625 767.971 492.015
1136 0 51.2161 11.2855 578 152.891 767.806 490.04
1137 0 51.2347 11.2814 578 153.934 768.074 490.476
1138 0 53.2795 11.2801 601 161.478 768.015 488.862
1139 0 54.2374 11.2837 612 157.075 768.065 488.654
1140 0 57.3275 11.1465 639 161.822 767.275 487.948
1141 0 59.2124 11.5854 686 156.032 767.434 486.085
1142 0 61.2581 11.5577 708 153.979 767.075 484.942
1143 0 63.2622 12.0925 765 159.75 767.105 483.396
1144 0 65.3559 11.7969 771 165.262 767.305 483.075
1145 0 66.1531 12.335 816 161.634 766.983 481.729
1146 0 69.1753 12.172 842 143.754 767.179 480.757
1147 0 70.2276 12.0181 844 165.968 767.186 480.577
1148 0 72.1107 12.1896 879 156.456 766.528 479.757
1149 0 74.1724 12.8215 951 165.918 766.658 478.21
1150 0 76.1578 12.4741 950 158.411 766.868 476.874
1151 0 78.3973 12.6152 989 157.1 766.001 475.594
1152 0 81.2921 12.4858 1015 160.4 767.11 474.444
1153 0 82.5232 12.6995 1048 160.144 766.918 473.723
1154 0 84.4259 12.4962 1055 167.29 767.664 471.329
1155 0 86.5677 12.5335 1085 158.657 766.901 470.977
1156 0 90.2912 12.504 1129 164.161 766.677 470.369
1157 0 91.218 12.5743 1147 163.894 765.287 469.379
1158 0 95.0922 12.7455 1212 169.778 766.021 467.909
1159 1 50.0641 11.4054 571 164.858 766.363 491.457
1160 0 50.1972 11.913 598 158.438 768.008 489.93
1161 0 51.1599 11.8452 606 151.997 769.122 488.421
1162 0 54.2579 11.7402 637 165.826 767.78 488.151
1163 0 55.1053 11.7775 649 150.934 767.267 488.063
1164 0 56.2304 12.022 676 162.519 767.234 487.297
1165 0 58.2291 12.5195 729 156.968 767 485.669
1166 0 59.1356 12.1923 721 155.764 766.996 485.433
1167 0 62.1713 12.6103 784 156.19 767.278 484.083
1168 0 62.1912 12.6224 785 163.361 767.936 484.317
1169 0 64.1817 12.5737 807 163.343 767.983 482.964
1170 0 67.1152 12.6648 850 157.915 767.816 481.833
1171 0 69.0741 12.5662 868 163.066 768.251 480.611
1172 0 72.0488 12.2695 884 151.786 768.199 480.192
1173 0 71.0653 12.9599 921 158.775 767.959 479.333
1174 0 74.1654 12.3777 918 162.459 767.826 478.529
1175 0 75.0692 12.988 975 157.344 767.628 477.676
1176 0 79.1504 12.8363 1016 166.543 768.039 476.471
1177 0 79.073 13.1145 1037 167.514 767.458 475.452
1178 0 83.1403 13.1344 1092 167.007 767.862 474.321
1179 0 85.0952 13.1265 1117 164.601 767.977 473.749
1180 0 87.0596 13.1749 1147 165.715 768.415 471.861
1181 0 91.2074 13.0691 1192 167.942 768.748 470.958
1182 0 95.2224 15.1015 1438 152.894 768.832 466.823
1183 0 98.0998 14.261 1399 161.743 768.085 466.104
1184 0 99.2955 13.3037 1321 166.031 768.179 466.796
1185 0 101.153 13.7316 1389 168.156 767.986 464.926
1186 1 54.0535 11.3591 614 160.166 767.793 489.515
1187 0 55.0442 12.6081 694 166.823 768.147 488.284
1188 0 57.1425 12.8451 734 165.285 768.341 487.183
1189 0 58.1264 12.6276 734 164.995 768.353 487.071
1190 0 60.1298 12.9719 780 164.901 768.241 485.983
1191 0 62.1702 13.0288 810 164.564 768.69 485.906
1192 0 62.1324 13.3747 831 165.177 768.86 484.72
1193 0 66.0975 13.1775 871 164.278 769.428 483.165
1194 0 129.369 11.873 1536 43.166 768.552 447.1
1195 1 70.2137 13.1028 920 154.416 768.586 480.396
1196 0 72.2119 13.0588 943 157.713 768.629 479.998
1197 0 74.1591 13.2957 986 164.674 768.708 478.997
1198 0 77.1099 12.9944 1002 165.786 768.173 478.176
1199 0 79.1654 13.1244 1039 156.959 768.016 475.835
1200 0 81.0594 13.4222 1088 159.103 768.926 474.468
1201 0 84.0669 13.2157 1111 164.554 769.15 473.662
1202 0 87.1893 13.1209 1144 159.351 769.236 472.303
1203 0 90.1392 13.2462 1194 167.13 768.982 470.938
1204 0 92.206 13.4481 1240 167.528 768.506 469.137
1205 0 94.1354 13.2044 1243 167.153 768.492 468.575
1206 0 96.1319 13.6791 1315 165.638 768.577 466.546
1207 0 98.2199 13.6632 1342 158.908 768.384 464.966
1208 0 102.149 13.3824 1367 158.291 768.644 463.436
1209 0 106.279 13.6716 1453 166.891 768.849 461.564
1210 0 110.278 13.466 1485 165.018 769.386 459.997
1211 1 59.0572 11.7683 695 169.763 769.345 484.866
1212 0 59.1144 12.8903 762 171.382 768.423 484.332
1213 0 64.087 13.9654 895 157.38 768.225 482.275
1214 0 65.0799 12.8611 837 164.591 767.834 482.065
1215 0 66.0692 12.8804 851 167.411 768.482 482.052
1216 0 68.0514 13.5486 922 160.295 768.287 480.989
1217 0 72.1035 12.7594 920 164.95 768.655 479.684
1218 0 73.0523 12.9086 943 162.556 768.684 478.867
1219 0 76.0636 13.0417 992 164.362 768.539 477.156
1220 0 76.0778 13.5914 1034 171.945 768.191 475.996
1221 0 80.2579 13.2448 1063 162.665 768.881 474.18
1222 0 83.1014 13.4173 1115 164.436 768.883 473.421
1223 0 86.1226 13.2486 1141 166.479 768.789 471.967
1224 0 89.3095 13.4028 1197 168.225 769.273 470.615
1225 0 91.1686 15.1149 1378 156.68 768.911 467.132
1226 0 94.2456 13.6134 1283 167.165 769.094 467.097
1227 0 97.264 13.2629 1290 167.982 769.485 465.575
1228 0 101.249 13.6594 1383 166.514 768.879 464.112
1229 0 104.288 13.4148 1399 165.588 769.851 461.986
1230 0 107.401 13.5566 1456 167.961 769.935 460.459
1231 1 61.1939 11.8312 724 154.46 770.711 484.76
1232 0 63.156 12.2237 772 163.944 770.79 483.07
1233 0 64.1886 13.0553 838 159.377 769.496 482.297
1234 0 64.2147 13.05 838 160.567 769.768 481.279
1235 0 69.1586 12.8834 891 156.687 770.222 479.524
1236 0 71.2439 13.0116 927 163.436 769.806 478.945
1237 0 73.1488 12.9189 945 163.011 769.968 476.951
1238 0 76.2249 13.0272 993 165.484 769.731 476.179
1239 0 77.1562 12.9867 1002 156.51 770.028 475.179
1240 0 79.3121 13.1506 1043 167.712 770.076 473.456
1241 0 82.3737 13.2445 1091 162.548 769.829 471.516
1242 0 84.2609 13.4226 1131 164.806 769.833 470.133
1243 0 87.3269 13.1575 1149 168.771 770.884 469.011
1244 0 89.3153 13.3908 1196 160.479 769.349 467.514
1245 0 93.4428 13.5377 1265 167.029 768.879 466.181
1246 0 98.3806 13.2851 1307 166.64 769.558 464.494
1247 0 100.3 13.6391 1368 168.137 769.7 462.05
1248 0 104.456 12.9529 1353 167.926 769.619 462.149
1249 1 51.3268 12.1379 623 168.483 769.981 486.97
1250 0 54.1813 12.1813 660 157.28 769.562 485.986
1251 0 57.214 12.4096 710 158 769.863 485.007
1252 0 56.2714 12.7063 715 156.248 770.127 483.979
1253 0 59.1156 12.8562 760 164.521 770.142 483.782
1254 0 60.2497 13.1287 791 158.001 769.96 482.917
1255 0 62.226 12.9849 808 162.531 771.353 481.48
1256 0 64.314 12.9676 834 161.998 771.637 480.023
1257 0 66.418 12.7676 848 166.137 771.055 480.329
1258 0 67.3273 13.4418 905 162.379 771.109 478.665
1259 0 69.3181 13.3876 928 170.323 770.111 477.963
1260 0 71.1455 13.114 933 168.484 770.414 477.204
1261 0 73.2489 13.461 986 167.863 770.212 474.991
1262 0 76.4905 13.5572 1037 169.591 770.126 474.945
1263 0 78.3518 13.5415 1061 166.688 770.409 474.208
1264 0 81.3643 13.4088 1091 166.046 770.493 472.731
1265 0 82.2304 13.7662 1132 158.412 769.929 471.156
1266 0 85.3497 13.5326 1155 173.299 770.609 469.901
1267 0 87.395 13.788 1205 169.939 769.655 468.062
1268 0 89.4977 13.5199 1210 172.186 770.15 466.569
1269 0 96.3612 13.2937 1281 162.461 770.611 465.247
1270 1 49.2254 11.7622 579 171.003 770.143 486.905
1271 0 51.1467 12.2002 624 166.553 771.26 486.397
1272 0 53.1867 12.2399 651 159.47 771.08 485.601
1273 0 54.1124 12.086 654 168.98 771.087 485.361
1274 0 55.0881 12.7614 703 166.687 771.155 483.923
1275 0 56.1872 12.9389 727 163.072 770.564 482.312
1276 0 60.147 12.3032 740 164.432 770.655 481.595
1277 0 62.0502 12.4899 775 165.526 770.524 480.921
1278 0 64.1361 12.7073 815 160.872 770.281 479.823
1279 0 65.1637 12.8599 838 162.996 770.265 478.543
1280 0 68.2301 12.6484 863 159.561 770.293 477.939
1281 0 70.119 13.2061 926 160.504 770.254 475.971
1282 0 73.4766 12.6163 927 159.211 769.994 475.552
1283 0 75.1959 12.7401 958 167.324 769.937 473.897
1284 0 77.1962 12.967 1001 165.078 769.603 472.05
1285 0 79.1953 13.2331 1048 162.06 769.687 470.28
1286 0 84.2356 12.7499 1074 157.909 769.834 469.291
1287 0 85.4232 12.6546 1081 167.52 769.564 468.413
1288 0 90.2152 12.8803 1162 160.577 769.345 466.017
1289 0 94.2446 13.0299 1228 164.225 770.234 464.215
1290 0 99.3099 14.7518 1465 145.671 770.509 460.505
1291 1 48.1274 11.5942 558 162.676 769.505 485.545
1292 0 51.14 11.6934 598 154.895 769.589 483.747
1293 0 53.1281 12.5169 665 160.707 769.588 484.408
1294 0 53.1323 12.6853 674 149.988 769.672 484.858
1295 0 55.2264 12.9105 713 153.31 769.616 484.408
1296 0 57.1594 12.8063 732 156.98 769.817 483.275
1297 0 58.2822 13.04 760 158.272 769.886 482.27
1298 0 60.1613 13.0981 788 160.189 769.798 481.78
1299 0 62.1966 12.6052 784 152.247 769.753 481.332
1300 0 64.1491 12.8607 825 159.924 769.915 480.724
1301 0 66.1236 13.1421 869 156.84 770.846 478.422
1302 0 67.2552 13.2183 889 163.264 772.087 476.606
1303 0 71.1954 12.557 894 156.28 771.266 475.879
1304 0 73.0998 12.4898 913 161.852 770.858 475.51
1305 0 74.1651 13.2947 986 158.753 770.562 473.662
1306 0 79.1259 12.954 1025 161.948 770.629 472.767
1307 0 81.1191 13.0056 1055 158.44 770.624 471.671
1308 0 84.1619 12.8443 1081 161.581 770.949 470.023
1309 0 88.1586 13.0447 1150 151.692 769.73 467.739
1310 1 44.096 11.0441 487 155.852 769.756 489.602
1311 0 44.0883 11.6584 514 158.424 769.368 488.714
1312 0 46.2698 11.9084 551 156.319 771.18 487.211
1313 0 48.297 12.3817 598 148.692 770.378 486.033
1314 0 51.2333 12.1405 622 141.153 770.76 484.404
1315 0 51.256 11.7255 601 151.383 771.095 485.275
1316 0 53.1684 11.8868 632 153.543 771.065 484.233
1317 0 54.1575 12.3529 669 153.185 771.024 483.625
1318 0 55.2448 12.6166 697 148.783 771.073 483.067
1319 0 58.1663 12.086 703 151.959 771.306 482.242
1320 0 60.3882 12.3037 743 164.408 771.832 482.23
1321 0 62.1821 12.19 758 156.111 771.398 480.699
1322 0 64.1462 12.4403 798 151.724 771.425 478.553
1323 0 66.253 12.4221 823 154.429 771.413 478.146
1324 0 68.1751 12.3652 843 163.795 771.867 476.981
1325 0 71.1288 12.5547 893 152.742 770.54 474.275
1326 0 74.1527 12.5552 931 154.533 770.499 473.958
1327 0 76.1305 12.2553 933 154.262 770.706 473.179
1328 0 79.1434 12.0288 952 153.443 770.875 472.567
1329 0 81.1371 12.3864 1005 156.094 770.373 470.813
1330 0 85.2111 12.0172 1024 156.883 770.36 468.932
1331 0 87.2035 12.4307 1084 155.79 770.337 467.203
1332 0 89.2408 12.4158 1108 158.245 770.736 465.341
1333 0 95.2333 14.1862 1351 143.722 770.484 461.728
1334 1 49.3356 10.5198 519 144.983 769.638 486.326
1335 0 51.3416 11.3943 585 145.075 769.526 485.417
1336 0 52.398 11.8325 620 145.31 769.766 484.173
1337 0 56.3162 13.6373 768 139.917 770.272 481.839
1338 0 56.4201 12.5487 708 142.504 769.996 482.056
1339 0 57.3338 11.7208 672 144.567 770.241 481.933
1340 0 58.4693 12.1089 708 153.388 770.278 481.444
1341 0 59.4081 12.3047 731 153.569 770.473 480.372
1342 0 63.6546 11.421 727 157.649 770.325 480.113
1343 0 62.2678 12.7514 794 152.319 769.768 478.796
1344 0 65.2978 12.6804 828 150.61 770.477 478.175
1345 0 66.2749 12.5236 830 159.959 770.313 476.807
1346 0 67.2456 12.2982 827 156.07 770.213 476.827
1347 0 70.2803 12.2367 860 155.758 770.203 476.388
1348 0 72.3585 12.4934 904 157.069 770.685 474.65
1349 0 74.3006 12.4898 928 164.376 770.415 474.182
1350 0 76.4331 12.6385 966 165.335 770.517 472.799
1351 0 80.3818 12.3784 995 163.148 770.41 471.729
1352 0 84.462 13.3551 1128 152.952 769.916 468.16
1353 0 83.4365 12.7762 1066 163.992 769.733 468.931
1354 0 88.3737 12.4924 1104 170.389 769.92 467.793
1355 0 91.4006 12.5929 1151 169.48 770.13 466.361
1356 1 47.2899 11.7784 557 159.63 769.637 487.551
1357 0 47.3073 12.1969 577 166.778 769.756 487.51
1358 0 51.2242 14.0559 720 152.954 770.457 484.932
1359 0 53.2427 13.7671 733 152.288 770.647 484.355
1360 0 54.0858 12.9424 700 154.959 770.621 483.996
1361 0 59.1755 14.6851 869 146.251 769.86 480.756
1362 0 60.1496 15.1954 914 141.418 771.746 479.241
1363 0 60.1764 14.5572 876 149.588 772.169 478.812
1364 0 61.1044 14.5489 889 150.577 771.441 479.898
1365 0 63.1393 13.9216 879 159.418 770.876 478.951
1366 0 61.0606 13.5767 829 165.671 770.794 479.32
1367 0 62.1747 12.8348 798 160.321 770.414 479.18
1368 0 65.1913 12.7011 828 163.595 770.469 478.058
1369 0 67.1671 12.8337 862 158.485 770.827 477.51
1370 0 70.1751 12.8108 899 164.237 770.523 475.714
1371 0 72.0961 13.052 941 167.371 771.131 474.332
1372 0 75.1207 12.633 949 161.001 771.362 473.655
1373 0 77.1175 13.0061 1003 164.487 771.79 472.547
1374 0 81.2241 12.644 1027 164.642 771.594 471.242
1375 0 84.1221 12.5888 1059 165.342 771.694 470.79
1376 0 87.1278 12.9235 1126 166.769 772.511 468.785
1377 1 44.0207 11.4037 502 173.847 771.673 489.02
1378 0 46.0557 11.4861 529 161.775 771.595 487.56
1379 0 47.1802 12.0601 569 167.125 771.573 488.162
1380 0 48.1678 11.9582 576 168.557 770.42 487.905
1381 0 49.1342 12.5778 618 161.408 771.071 486.718
1382 0 52.178 12.2082 637 164.137 771.212 485.182
1383 0 52.1764 12.5344 654 169.223 771.581 486.252
1384 0 53.2673 12.7095 677 157.142 771.427 485.198
1385 0 55.2545 12.4877 690 159.072 771.457 484.741
1386 0 56.2442 13.0147 732 161.88 771.428 483.393
1387 0 58.204 12.5936 733 165.992 771.427 482.371
1388 0 59.2282 12.8317 760 164.92 771.422 483.058
1389 0 60.1563 13.1325 790 165.497 771.085 482.77
1390 0 63.1837 12.7565 806 163.495 771.522 481.933
1391 0 64.1679 12.8725 826 155.489 771.469 480.563
1392 0 67.1587 12.8055 860 158.867 771.66 479.78
1393 0 67.1863 13.2765 892 165.368 771.484 479.027
1394 0 70.1233 13.1625 923 164.436 771.176 478.717
1395 0 72.0977 12.9546 934 161.728 772.054 477.345
1396 0 73.1105 13.336 975 165.325 771.976 476.423
1397 0 75.1753 13.2224 994 161.436 771.675 475.375
1398 0 78.2213 13.3468 1044 157.64 771.913 474.755
1399 0 82.1587 12.9384 1063 165.147 771.868 473.499
1400 0 83.2069 13.3763 1113 162.141 771.821 471.465
1401 0 87.2393 13.2853 1159 154.355 771.078 470.72
1402 0 92.1333 13.958 1286 152.441 770.861 464.285
1403 0 92.2169 13.1646 1214 159.501 771.228 465.696
1404 0 96.482 13.3496 1288 162.075 770.246 463.974
1405 0 99.3018 13.2425 1315 152.329 770.283 461.932
1406 0 102.253 13.1927 1349 162.847 770.617 458.973
1407 1 52.139 11.8721 619 163.943 770.493 485.026
1408 0 53.0165 12.2603 650 161.357 770.266 484.432
1409 0 56.0479 12.186 683 163.836 769.703 483.88
1410 0 58.0709 12.1575 706 159.394 769.045 483.929
1411 0 56.1346 12.7551 716 161.595 768.837 482.906
1412 0 58.0947 13.1337 763 159.626 768.769 482.339
1413 0 61.1253 13.1533 804 164.267 770.812 482.578
1414 0 64.0718 12.923 828 162.987 770.298 481.703
1415 0 65.0711 13.2932 865 159.928 769.899 480.265
1416 0 68.0302 13.3617 909 165.545 769.458 479.034
1417 0 69.0435 13.3394 921 158.87 770.13 476.721
1418 0 73.0392 13.171 962 152.614 770.137 476.454
1419 0 75.1997 13.5373 1018 160.096 769.359 477.906
1420 0 78.2843 13.1061 1026 164.985 769.101 477.008
1421 0 81.4657 13.1221 1069 168.236 769.471 476.161
1422 0 83.3104 13.2997 1108 166.081 769.314 475.072
1423 0 85.2492 13.701 1168 166.975 769.522 473.155
1424 0 89.5512 13.7687 1233 161.663 769.496 471.827
1425 0 92.2606 13.8304 1276 162.354 769.322 469.712
1426 0 95.1894 13.5099 1286 158.533 769.185 469.31
1427 0 98.2316 13.3765 1314 158.615 769.212 467.749
1428 1 51.0741 11.7868 602 166.136 769.138 491.377
1429 0 53.1936 12.6895 675 160.938 768.819 490.101
1430 0 56.0325 12.6177 707 164.233 769.697 482.286
1431 0 57.1736 13.1004 749 160.862 769.307 480.634
1432 0 59.0492 12.8368 758 160.067 768.876 477.716
1433 0 60.0841 13.2481 796 166.724 768.412 478.974
1434 0 61.12 13.1217 802 164.398 768.138 480.953
1435 0 64.0317 12.9467 829 165.853 767.958 482.15
1436 0 66.0847 13.3314 881 160.585 768.1 484.547
1437 0 70.1165 12.9927 911 165.605 768.339 483.515
1438 0 71.1249 13.2865 945 160.673 768.058 482.694
1439 0 74.2457 13.4284 997 165.504 767.81 481.052
1440 0 75.206 13.5229 1017 162.233 768.032 479.447
1441 0 76.1202 13.3867 1019 159.322 767.143 478.562
1442 0 79.103 13.8048 1092 162.455 767.915 477.174
1443 0 84.2115 13.2286 1114 163.345 766.679 476.504
1444 0 86.2101 13.5599 1169 161.707 766.964 475.034
1445 0 89.1331 13.362 1191 165.206 767.738 473.512
1446 0 91.2056 13.5518 1236 163.392 767.769 471.736
1447 0 95.2148 13.2647 1263 168.116 767.816 471.1
1448 1 50.0881 12.0388 603 165.763 768.312 492.741
1449 0 52.0793 12.385 645 160.888 768.414 491.454
1450 0 54.0791 12.6297 683 168.253 767.817 490.136
1451 0 54.0351 12.6769 685 165.577 767.442 489.62
1452 0 56.1318 12.5597 705 155.569 767.062 487.749
1453 0 59.0823 12.7957 756 169.751 766.98 486.411
1454 0 60.3098 12.7343 768 167.111 767.871 485.876
1455 0 61.1566 12.885 788 163.699 767.274 484.731
1456 0 65.115 12.9617 844 161.764 766.93 483.312
1457 0 66.1046 12.9492 856 161.125 767.56 481.958
1458 0 69.1037 13.1686 910 160.446 767.74 481.382
1459 0 71.1775 12.9676 923 166.488 768.014 479.535
1460 0 73.1214 13.3887 979 167.28 767.906 479.251
1461 0 77.1109 12.9683 1000 167.775 768.043 477.526
1462 0 80.0912 13.11 1050 166.978 768.553 476.725
1463 0 80.1157 13.4056 1074 161.657 768.378 474.508
1464 0 84.1502 13.4521 1132 170.983 769.374 474.162
1465 0 87.1524 13.4018 1168 164.969 768.519 471.776
1466 0 90.1162 13.305 1199 163.567 768.568 469.621
1467 1 49.0393 11.4194 560 163.221 768.791 489.761
1468 0 51.076 11.8842 607 168.992 769.236 488.718
1469 0 53.2706 11.9766 638 160.524 770.263 488.663
1470 0 54.2166 12.5238 679 171.303 770.42 487.716
1471 0 55.2155 12.7319 703 163.66 770.862 486.522
1472 0 56.331 12.9059 727 156.091 769.854 486.221
1473 0 60.3352 12.6129 761 162.478 771.034 485.116
1474 0 60.2238 13.1177 790 152.528 770.615 484.054
1475 0 64.2207 12.784 821 167.823 770.784 482.944
1476 0 65.1667 13.4578 877 162.987 771.252 480.877
1477 0 67.2516 13.3082 895 167.978 771.725 480.905
1478 0 68.3055 13.5275 924 162.824 771.338 478.942
1479 0 71.238 13.1812 939 160.933 771.478 478.032
1480 0 73.2121 13.3994 981 156.424 771.788 477.718
1481 0 77.2075 13.1723 1017 165.598 771.999 476.835
1482 0 80.2894 12.8784 1034 155.474 771.903 475.132
1483 0 82.0969 13.1674 1081 158.314 771.984 473.144
1484 0 84.2736 13.2663 1118 158.13 771.733 472.301
1485 0 86.1975 13.5271 1166 163.816 771.584 471.397
1486 0 88.3035 13.5329 1195 162.628 771.654 469.211
1487 0 92.0961 13.3013 1225 162.346 771.543 467.604
1488 0 94.2463 13.8891 1309 159.141 771.306 466.843
1489 0 96.0667 13.9799 1343 157.955 770.858 464.532
1490 0 100.164 14.007 1403 151.51 771.358 462.033
1491 0 103.087 13.9494 1438 159.487 770.816 461.225
1492 0 106.076 13.6601 1449 161.504 771.172 460.008
1493 0 110.205 13.9286 1535 154.3 771.61 457.646
1494 1 57.0441 11.4824 655 158.689 770.786 484.927
1495 0 59.1081 11.9611 707 158.276 769.996 483.127
1496 0 60.0361 12.2759 737 155.212 770.669 483.465
1497 0 62.1589 12.5324 779 157.435 770.044 483.258
1498 0 64.1959 13.0382 837 158.153 770.22 481.693
1499 0 66.1267 12.9146 854 159.159 770.016 480.819
1500 0 68.1269 12.9317 881 158.656 770.138 480.984
1501 0 70.1673 13.0118 913 159.774 769.683 480.001
1502 0 71.2392 12.9002 919 160.479 769.911 479.601
1503 0 74.137 12.9085 957 163.63 769.856 477.868
1504 0 77.1904 12.9679 1001 164.704 770.487 477.562
1505 0 79.0669 12.8625 1017 164.75 770.35 476.436
1506 0 81.1515 13.1482 1067 163.896 770.455 476.099
1507 0 83.2552 13.4766 1122 158.214 770.302 473.848
1508 0 86.1368 13.1883 1136 160.397 770.49 473.035
1509 0 90.2114 13.2799 1198 168.968 770.513 471.353
1510 0 91.195 13.356 1218 169.004 770.167 470.966
1511 0 95.1925 13.4044 1276 164.902 770.17 469.208
1512 0 98.1478 13.4287 1318 160.205 769.521 468.008
1513 0 101.214 13.5949 1376 162.735 769.791 468.274
1514 0 104.336 13.5236 1411 161.795 769.797 466.05
1515 1 59.0698 11.8504 700 165.374 768.571 488.876
1516 0 59.0992 12.6398 747 161.461 769.122 487.818
1517 0 61.1519 13.1476 804 159.433 767.848 485.525
1518 0 63.1686 13.1711 832 157.312 768.452 484.57
1519 0 66.2187 12.8664 852 157.081 767.939 484.878
1520 0 68.1819 12.9653 884 153.572 766.983 483.032
1521 0 69.2354 13.0136 901 160.674 767.68 480.969
1522 0 73.1988 12.9374 947 157.864 767.604 479.533
1523 0 76.2969 13.1067 1000 158.292 767.568 477.933
1524 0 76.4618 13.7193 1049 160.972 768.094 476.936
1525 0 81.3191 13.1211 1067 163.659 767.604 475.245
1526 0 82.4684 13.1202 1082 156.591 766.735 474.262
1527 0 83.3616 13.1715 1098 157.08 767.119 473.012
1528 0 89.5745 13.0283 1167 155.165 767.991 470.547
1529 0 90.4242 13.2265 1196 159.013 767.263 471.114
1530 0 92.5152 13.3275 1233 153.874 767.839 467.84
1531 1 47.3624 12.3093 583 156.113 767.642 490.149
1532 0 50.2578 12.3364 620 160.715 767.692 488.782
1533 0 51.2468 12.5471 643 147.449 767.471 488.924
1534 0 52.1823 12.5138 653 152.452 767.233 488.867
1535 0 52.3613 12.5474 657 155.429 766.874 488.198
1536 0 56.4043 12.9245 729 151.639 766.449 486.914
1537 0 56.1813 12.9759 729 153.975 766.796 485.461
1538 0 59.5114 13.174 784 154.083 767.312 483.839
1539 0 60.4711 12.9318 782 151.526 767.653 482.858
1540 0 61.4259 13.4634 827 152.076 767.191 482.297
1541 0 63.3191 13.661 865 146.906 767.909 481.071
1542 0 66.5269 13.1826 877 153.648 767.935 480.397
1543 0 69.8013 13.2519 925 155.717 767.692 479.077
1544 0 70.5702 13.5043 953 153.359 768.136 476.884
1545 0 74.6336 12.9298 965 160.921 768.106 477.205
1546 0 77.5461 12.9342 1003 154.649 768.743 475.584
1547 0 79.4239 13.6609 1085 154.572 768.468 474.409
1548 0 82.5119 13.3799 1104 161.056 768.644 473.414
1549 0 85.6482 13.6138 1166 160.044 768.839 471.224
1550 0 87.3304 13.6035 1188 159.076 768.557 470.189
1551 0 90.4221 13.7688 1245 158.924 768.964 468.237
1552 0 93.3993 13.6725 1277 160.706 768.247 466.999
1553 1 47.4693 11.5864 550 165.24 768.155 489.604
1554 0 47.1948 12.459 588 164.772 768.347 489.017
1555 0 51.2372 12.647 648 166.665 768.883 488.256
1556 0 51.1027 12.876 658 163.816 768.28 487.742
1557 0 52.1583 12.788 667 163.882 767.859 487.037
1558 0 55.4954 12.956 719 165.51 768.695 485.21
1559 0 56.1786 12.6205 709 172.362 768.849 484.822
1560 0 58.4753 12.8772 753 170.521 769.533 483.71
1561 0 60.4125 13.3582 807 107.301 769.658 481.333
1562 0 62.3158 13.5439 844 174.981 768.96 481.364
1563 0 64.3095 13.1396 845 172.266 769.717 480.334
1564 0 67.4618 13.2964 897 169.262 769.692 479.003
1565 0 67.4645 13.5627 915 176.405 769.872 477.134
1566 0 71.7796 13.1653 945 174.478 769.937 476.903
1567 0 72.4986 13.5451 982 168.932 770.235 476.356
1568 0 75.6251 13.6198 1030 172.56 769.835 475.116
1569 0 77.3729 13.5319 1047 172.934 769.805 473.402
1570 0 82.6068 13.074 1080 165.144 769.591 471.888
1571 0 82.7033 13.3489 1104 165.863 769.867 470.312
1572 0 85.4192 13.5684 1159 171.174 769.958 468.833
1573 0 88.3908 13.7684 1217 168.254 769.695 466.37
1574 0 90.3331 13.7159 1239 166.738 769.643 465.542
1575 0 94.4456 13.6587 1290 167.728 769.809 463.895
1576 1 49.2993 12.0286 593 163.017 769.405 485.437
1577 0 51.2837 12.6356 648 162.716 769.682 484.789
1578 0 54.4077 12.535 682 162.777 769.743 484.006
1579 0 52.0534 12.6216 657 163.508 769.251 483.132
1580 0 55.1875 13.2276 730 168.984 769.271 481.719
1581 0 55.1881 13.4993 745 165.795 769.458 481.862
1582 0 58.3238 13.2022 770 164.2 769.743 479.942
1583 0 60.2481 13.0792 788 168.458 769.966 479.575
1584 0 62.4313 13.4228 838 162.124 770.259 478.195
1585 0 65.2154 13.1411 857 163.569 770.677 477.847
1586 0 68.1682 13.3493 910 168.226 770.673 476.927
1587 0 69.181 13.5297 936 169.443 770.593 474.654
1588 0 72.3161 13.7314 993 167.597 770.355 473.157
1589 0 74.2395 13.7258 1019 165.79 770.471 472.415
1590 0 77.1955 13.7314 1060 174.324 770.3 471.981
1591 0 79.3397 13.6502 1083 166.735 770.572 470.499
1592 0 81.379 13.8856 1130 172.829 770.416 469.836
1593 0 84.2964 13.9389 1175 174.656 770.377 468.713
1594 0 87.1806 13.9939 1220 171.686 770.931 466.83
1595 0 89.3991 13.9599 1248 169.028 770.025 465.862
1596 0 92.3596 14.162 1308 169.103 769.782 464.372
1597 0 95.4445 14.071 1343 172.171 769.401 463.164
1598 0 99.4876 14.4139 1434 166.169 768.755 461.587
1599 0 103.299 15.5181 1603 153.491 770.424 459.628
1600 0 105.372 14.2543 1502 169.525 770.158 460.164
1601 1 55.4284 12.0516 668 170.891 770.437 484.969
1602 0 56.6651 13.1651 746 170.788 770.072 483.516
1603 0 58.4199 13.2832 776 170.594 770.206 482.994
1604 0 61.5644 13.2869 818 170.394 770.078 481.027
1605 0 63.3707 13.3974 849 169.664 770.192 480.203
1606 0 64.4986 13.4732 869 165.621 770.243 479.716
1607 0 68.407 13.3466 913 174.472 769.85 478.291
1608 0 71.4452 13.2269 945 168.914 769.78 476.749
1609 0 74.5672 13.3705 997 164.955 769.384 475.051
1610 0 77.5916 13.3004 1032 167.181 769.637 474.851
1611 0 78.5642 13.6831 1075 168.422 769.93 472.707
1612 0 82.7148 13.5042 1117 175.039 769.198 471.978
1613 0 85.3053 13.8444 1181 174.023 768.529 469.949
1614 0 88.5252 13.7814 1220 174.28 768.672 467.813
1615 0 91.6863 13.7752 1263 170.203 768.072 467.462
1616 0 96.3776 13.5716 1308 164.96 768.199 464.971
1617 0 98.4554 13.6509 1344 170.112 768.295 463.281
1618 0 103.418 13.8178 1429 176.039 768.411 461.515
1619 1 51.5478 11.8143 609 167.938 767.011 486.709
1620 0 53.3237 12.546 669 168.407 766.765 486.35
1621 0 55.3214 12.1834 674 165.99 767.012 486.073
1622 0 56.3223 12.6948 715 167.151 767.154 485.091
1623 0 58.3019 12.5553 732 159.108 767.112 484.52
1624 0 60.3506 12.8913 778 155.063 767.88 483.337
1625 0 63.5197 12.4843 793 162.919 767.932 482.164
1626 0 65.4623 12.8929 844 160.379 767.736 480.769
1627 0 68.5997 13.1633 903 158.136 767.489 479.854
1628 0 68.5593 13.2003 905 169.372 767.287 478.967
1629 0 72.4663 12.9578 939 159.725 767.39 477.603
1630 0 72.3989 13.2599 960 159.404 766.875 476.712
1631 0 76.5078 12.8353 982 149.36 766.632 475.565
1632 0 79.5466 13.0867 1041 161.887 767.069 474.371
1633 0 81.3686 13.064 1063 166.647 767.628 473.983
1634 0 85.4047 12.9735 1108 157.531 767.364 471.852
1635 0 86.2523 12.9968 1121 161.731 766.531 471.097
1636 1 44.162 11.5258 509 162.173 766.77 491.45
1637 0 45.3096 12.2049 553 153.841 766.421 491.208
1638 0 49.3413 11.8359 584 158.26 766.375 489.495
1639 0 48.3407 12.7222 615 153.202 766.507 489.493
1640 0 51.2814 12.4217 637 158.942 767.035 490.339
1641 0 52.0586 12.582 655 161.956 767.522 488.869
1642 0 53.2305 12.8498 684 158.382 768.126 487.683
1643 0 56.238 12.7849 719 159.771 767.914 486.225
1644 0 57.3856 12.8604 738 161.911 767.966 486.107
1645 0 58.3142 12.8785 751 161.298 767.611 485.124
1646 0 60.3052 12.9508 781 165.128 767.297 484.709
1647 0 62.3362 13.0101 811 162.522 766.869 484.02
1648 0 64.2595 12.7608 820 167.426 768.395 482.102
1649 0 66.2242 12.9107 855 167.454 767.323 481.738
1650 0 68.2884 13.5308 924 162.699 767.827 479.598
1651 0 71.3324 13.1497 938 158.914 768.151 479.01
1652 0 73.3416 13.2803 974 165.265 768.711 478.079
1653 0 76.3887 13.2611 1013 159.313 767.636 476.364
1654 0 80.3563 13.1539 1057 161.224 767.781 474.734
1655 0 82.2618 13.4206 1104 151.434 767.764 473.041
1656 0 85.2587 14.0396 1197 157.878 767.668 470.56
1657 1 42.02 12.1371 510 163.155 767.914 492.473
1658 0 43.0152 12.1817 524 157.013 767.96 491.708
1659 0 45.048 12.2092 550 157.525 767.856 491.356
1660 0 45.024 12.5266 564 160.644 767.911 490.571
1661 0 46.0379 12.7721 588 157.026 768.262 488.813
1662 0 49.0695 12.6148 619 156.976 768.288 487.656
1663 0 51.0694 13.2173 675 155.505 768.804 486.367
1664 0 52.0558 12.8132 667 158.469 768.648 486.771
1665 0 52.2915 13.5204 707 164.687 768.632 485.908
1666 0 52.0975 13.6667 712 166.438 769.899 485.337
1667 0 56.1364 13.1644 739 164.723 769.679 484.387
1668 0 58.306 13.1204 765 164.782 769.741 482.673
1669 0 58.1411 13.6392 793 163.039 770.396 482.368
1670 0 60.2529 13.5595 817 168.233 770.226 481.442
1671 0 61.2622 13.6626 837 159.886 770.514 479.993
1672 0 64.2666 13.584 873 161.249 769.44 479.166
1673 0 66.3572 13.9698 927 167.416 770.389 478.725
1674 0 69.2715 13.5698 940 165.182 770.184 477.469
1675 0 71.349 13.6652 975 166.362 769.632 476.341
1676 0 73.5847 13.8752 1021 166.618 770.735 474.812
1677 0 76.31 13.5893 1037 161.224 771.262 473.708
1678 0 79.4702 13.7284 1091 169.12 770.871 472.868
1679 0 81.3176 13.7855 1121 159.025 771.218 471.215
1680 0 85.5385 13.7599 1177 156.566 770.523 469.865
1681 0 90.4504 14.7374 1333 158.885 770.712 466.067
1682 0 90.4292 14.5418 1315 167.516 770.721 465.839
1683 0 93.4427 13.5056 1262 167.273 771.073 465.954
1684 1 46.2477 12.3249 570 168.837 770.479 488.707
1685 0 47.4032 12.5941 597 167.089 770.343 488.516
1686 0 48.261 12.6189 609 170.58 770.7 489.044
1687 0 49.2808 12.4592 614 161.275 770.826 487.725
1688 0 50.622 13.0576 661 171.13 770.732 485.956
1689 0 52.7023 13.358 704 169.233 770.616 485.555
1690 0 54.4336 12.7679 695 161.174 770.354 485.784
1691 0 56.3273 13.1198 739 166.455 770.566 485.249
1692 0 58.3759 13.1219 766 163.487 770.466 484.702
1693 0 59.6207 13.4517 802 166.562 770.576 484.959
1694 0 62.6685 13.0847 820 161.551 770.493 484.029
1695 0 63.4736 13.4229 852 162.986 770.106 483.522
1696 0 65.3624 13.6317 891 160.03 770.333 482.857
1697 0 67.5655 13.6904 925 164.8 769.562 482.095
1698 0 69.5612 13.1108 912 166.073 769.266 481.462
1699 0 73.5313 13.6132 1001 166.075 769.49 477.782
1700 0 76.7233 13.2945 1020 164.263 769.907 478.814
1701 0 78.4696 13.1643 1033 160.129 769.685 477.574
1702 0 81.3171 13.269 1079 164.737 769.959 475.339
1703 0 84.3333 13.4704 1136 164.754 769.832 474.664
1704 0 87.3333 13.8893 1213 157.698 769.923 472.21
1705 1 43.0839 11.9534 515 160.27 769.526 492.825
1706 0 47.2271 11.8152 558 160.491 770.07 494.106
1707 0 47.2403 12.5105 591 165.797 769.555 492.814
1708 0 49.1428 12.6366 621 154.221 769.531 491.512
1709 0 50.2533 12.4967 628 157.102 769.116 490.438
1710 0 51.2545 12.8184 657 157.417 768.294 490.304
1711 0 53.3124 12.7175 678 157.808 767.86 489.428
1712 0 55.2335 13.0356 720 158.997 768.951 487.799
1713 0 57.4668 13.1728 757 157.221 769.639 487.497
1714 0 59.2959 13.1544 780 154.535 769.597 487.586
1715 0 61.4306 13.1042 805 163.042 769.868 486.152
1716 0 63.3243 12.8545 814 157.532 768.95 485.421
1717 0 63.3974 13.1236 832 161.566 769.019 484.355
1718 0 66.3251 12.8911 855 156.02 768.818 482.897
1719 0 68.3487 13.2994 909 163.981 768.395 482.479
1720 0 69.2413 13.3158 922 161.974 768.214 481.611
1721 0 73.2173 12.8658 942 150.712 768.49 480.832
1722 0 74.2895 12.909 959 159.937 768.375 480.952
1723 0 77.3345 13.3834 1035 159.284 767.402 479.06
1724 0 81.3628 12.77 1039 159.383 768.055 478.107
1725 0 81.2217 13.1246 1066 151.234 767.611 476.526
1726 0 84.3631 13.1693 1111 159.192 768.194 475.708
1727 1 44.2307 11.0783 490 156.353 767.724 496.339
1728 0 45.1671 11.7121 529 142.618 768.098 495.456
1729 0 47.1732 11.4896 542 152.856 768.059 494.172
1730 0 49.2942 11.4009 562 154.107 767.528 494.132
1731 0 50.3224 11.6847 588 152.776 767.83 492.808
1732 0 52.3066 11.5282 603 152.239 767.464 491.504
1733 0 55.3874 11.7355 650 152.306 767.62 491.591
1734 0 55.2775 11.7046 647 152.941 767.009 491.068
1735 0 55.3394 11.7096 648 155.144 766.705 490.89
1736 0 58.212 11.4066 664 147.616 767.038 489.998
1737 0 59.1854 11.6414 689 160.094 767.335 489.824
1738 0 62.2815 11.5604 720 153.062 766.846 488.117
1739 0 65.1572 11.8943 775 144.374 767.045 486.834
1740 0 67.3086 11.8558 798 150.148 767.573 484.584
1741 0 68.2077 11.7289 800 147.496 766.302 483.706
1742 0 69.2961 11.8333 820 148.388 765.717 482.516
1743 0 71.212 11.9783 853 151.334 766.302 481.855
1744 0 74.3399 11.8913 884 149.413 767.32 481.783
1745 0 78.3634 12.2506 960 149.727 766.571 480.393
1746 0 80.4835 12.0397 969 144.277 766.199 478.915
1747 0 83.3069 12.1118 1009 141.905 766.183 477.193
1748 0 86.3912 12.3161 1064 151.508 766.193 475.039
1749 0 90.2776 11.7748 1063 144.48 766.442 474.137
1750 1 45.1469 10.0782 455 141.275 767.209 495.82
1751 0 47.193 10.4041 491 149.444 767.2 494.747
1752 0 48.1345 10.6576 513 140.275 768.357 494.119
1753 0 51.0247 11.3866 581 141.207 768.026 493.387
1754 0 53.0885 11.3019 600 138.758 768.492 491.548
1755 0 55.0834 11.5643 637 140.223 768.688 489.747
1756 0 54.018 11.9219 644 147.849 768.297 490.056
1757 0 57.0692 11.4072 651 147.25 767.326 489.859
1758 0 58.0276 11.7358 681 144.405 767.749 488.584
1759 0 61.0629 11.8894 726 138.138 768.394 487.202
1760 0 62.0704 11.9219 740 143.353 769.189 486.839
1761 0 62.0842 12.6119 783 145.545 769.054 486.563
1762 0 64.0682 12.393 794 150.547 768.81 485.621
1763 0 67.0713 12.2556 822 145.198 768.129 484.265
1764 0 68.0727 11.7668 801 144.906 767.618 482.674
1765 0 72.0707 12.1825 878 147.051 768.238 481.662
1766 0 73.0942 12.1213 886 144.198 768.014 480.247
1767 0 75.217 12.0053 903 148.671 768.384 479.618
1768 0 77.2245 12.3018 950 145.054 768.771 477.714
1769 0 79.2301 12.2681 972 150.449 768.582 477.167
1770 1 42.1627 9.77168 412 149.209 768.75 496.129
1771 0 43.1654 9.82268 424 143.083 769.075 495.884
1772 0 45.2109 9.95335 450 145.087 769.787 494.433
1773 0 47.2743 10.8516 513 146.862 769.743 494.172
1774 0 48.3585 11.1666 540 140.587 769.763 493.537
1775 0 50.2104 11.4717 576 141.167 768.95 490.974
1776 0 52.2554 11.4438 598 143.01 768.957 490.528
1777 0 54.2024 11.6785 633 138.885 769.234 489.333
1778 0 56.1861 11.6221 653 147.415 769.32 488.697
1779 0 56.1599 12.0727 678 137.717 768.752 488.156
1780 0 58.0735 12.0193 698 141.526 769.01 486.679
1781 0 61.1056 11.8974 727 151.886 769.571 485.111
1782 0 62.1571 12.034 748 149.111 769.437 485.167
1783 0 66.1764 11.8471 784 145.341 769.309 484.761
1784 0 66.1494 12.8195 848 145.644 769.853 482.534
1785 0 68.1903 12.993 886 144.19 770.13 481.387
1786 0 72.2557 12.0959 874 145.386 770.392 480.825
1787 0 71.1461 12.5657 894 136.639 770.374 479.546
1788 0 74.4308 12.871 958 144.416 770.414 477.543
1789 0 77.2088 12.8224 990 146.226 769.986 476.466
1790 0 79.2729 12.6903 1006 143.177 770.161 474.41
1791 0 81.2428 13.1827 1071 145.716 770.24 474.19
1792 0 83.3413 13.1747 1098 146.307 769.6 473.918
1793 0 84.4045 13.4116 1132 146.086 770.017 472.206
1794 0 88.3608 13.3657 1181 152.612 770.185 469.698
1795 0 89.3513 13.8666 1239 158.143 770.119 469.421
1796 0 90.3743 13.8978 1256 154.898 769.779 469.099
1797 0 94.6132 14.2475 1348 155.455 769.74 466.829
1798 0 102.378 16.1655 1655 152.051 770.176 463.489
1799 0 102.356 15.5731 1594 151.996 770.329 462.172
1800 0 103.344 14.8437 1534 159.319 770.598 462.769
1801 0 105.178 14.1665 1490 163.212 770.109 462.706
1802 0 109.357 14.2652 1560 166.203 769.995 462.184
1803 1 55.102 11.5422 636 156.088 769.456 488.569
1804 0 58.0921 12.0154 698 153.083 769.908 487.656
1805 0 58.1315 13.1426 764 164.74 769.037 487.216
1806 0 62.1209 12.6689 787 164.855 768.731 486.806
1807 0 63.0661 12.8912 813 164.33 769.458 486.156
1808 0 66.0936 12.9967 859 164.502 768.957 484.154
1809 0 68.079 13.3081 906 164.418 769.585 482.642
1810 0 70.1198 13.3201 934 162.044 769.147 481.833
1811 0 74.0596 13.2461 981 163.064 768.813 480.679
1812 0 77.1631 12.9466 999 159.235 768.827 479.65
1813 0 79.1285 13.219 1046 159.959 768.877 477.822
1814 0 82.2237 13.1592 1082 158.042 768.575 475.558
1815 0 85.2231 12.9425 1103 152.233 769.102 474.686
1816 0 87.2135 13.2892 1159 157.8 768.941 474.017
1817 0 92.1855 13.1474 1212 154.686 768.548 472.007
1818 0 93.2189 13.3342 1243 160.269 767.83 470.613
1819 1 52.0576 11.8907 619 153.792 767.63 490.742
1820 0 54.2513 11.7416 637 151.699 767.62 491.617
1821 0 54.1724 12.5341 679 154.193 767.582 490.001
1822 0 54.2462 12.8857 699 147.997 768.283 488.598
1823 0 57.3069 12.372 709 152.049 768.189 487.839
1824 0 59.1511 12.3413 730 149.929 767.075 488.107
1825 0 61.236 12.1497 744 153.457 767.14 486.895
1826 0 63.2925 12.6239 799 147.842 767.442 485.325
1827 0 65.1045 12.0729 786 148.07 767.85 483.761
1828 0 65.1273 12.4525 811 143.016 767.661 484.184
1829 0 67.0791 12.8803 864 139.503 768.116 483.319
1830 0 70.0978 12.7679 895 135.941 767.793 480.981
1831 0 73.0858 12.7111 929 142.249 767.756 481.032
1832 0 75.2113 12.5646 945 147.499 766.737 479.666
1833 0 76.3076 12.5938 961 141.255 766.784 478.842
1834 0 80.4077 12.6232 1015 141.304 766.138 477.347
1835 0 82.284 12.8214 1055 139.427 766.267 476.801
1836 0 84.1234 12.3509 1039 138.014 766.233 475.523
1837 0 85.1703 12.6805 1080 142.011 765.539 474.252
1838 0 89.407 12.6724 1133 145.462 765.988 472.834
1839 0 93.3057 13.1396 1226 140.591 765.833 469.161
1840 0 96.1701 12.4363 1196 137.755 765.941 469.115
1841 0 98.2037 12.6268 1240 141.062 765.876 468.727
1842 0 99.2185 12.7295 1263 143.292 765.426 467.634
1843 0 102.373 12.8257 1313 139.704 765.889 465.958
1844 0 107.155 12.5799 1348 141.058 766.156 465.097
1845 0 109.193 13.1144 1432 138.804 765.826 462.966
1846 1 62.0613 9.99012 620 143.631 765.585 488.102
1847 0 65.0964 10.5843 689 139.126 765.045 486.434
1848 0 67.0817 11.3742 763 146.642 765.139 483.809
1849 0 71.0727 12.1847 866 138.655 766.607 483.053
1850 0 73.1458 12.769 934 145.865 766.041 482.489
1851 0 75.1535 12.2682 922 148.075 766.428 481.42
1852 0 78.1775 12.3949 969 149.262 766.551 479.935
1853 0 80.0915 12.673 1015 147.465 766.229 478.686
1854 0 83.2444 12.8898 1073 150.073 766.124 477.759
1855 0 86.1046 12.5429 1080 149.992 766.569 476.219
1856 0 89.2402 13.021 1162 154.947 765.562 474.528
1857 0 92.2853 13.0573 1205 155.005 765.963 472.853
1858 0 95.251 13.0812 1246 157.842 765.339 471.349
1859 0 100.309 13.1494 1319 158.426 765.421 468.54
1860 0 103.325 13.7333 1419 156.016 765.796 465.469
1861 0 106.347 13.4653 1432 158.479 765.768 465.18
1862 0 109.388 13.4933 1476 161.881 765.919 462.171
1863 1 59.2426 11.7989 699 159.837 766.309 488.552
1864 0 61.0562 12.2019 745 157.44 766.191 489.65
1865 0 62.0755 12.3559 767 154.439 765.382 488.218
1866 0 64.1841 12.7602 819 166.516 765.049 486.107
1867 0 65.182 12.7949 834 162.896 766.241 484.265
1868 0 69.1491 12.8707 890 126.869 765.138 483.135
1869 0 69.1717 13.0545 903 161.379 765.445 480.653
1870 0 73.2826 13.0863 959 153.93 765.596 480.04
1871 0 75.1846 13.1011 985 157.706 765.955 477.51
1872 0 77.1252 12.927 997 147.734 765.776 476.597
1873 0 81.0764 12.8151 1039 153.098 766.504 474.849
1874 0 83.1163 12.8976 1072 158.931 766.668 473.741
1875 0 85.249 12.9151 1101 158.169 766.581 471.92
1876 0 89.2121 13.1597 1174 160.757 766.911 471.032
1877 0 91.1276 13.0806 1192 159.244 766.604 469.047
1878 0 95.1675 12.9666 1234 157.746 767.247 466.907
1879 0 97.0753 13.0311 1265 162.8 767.036 466.294
1880 0 101.205 13.2305 1339 164.018 768.1 466.948
1881 0 104.416 13.2163 1380 159.855 768.612 464.562
1882 1 52.289 11.9337 624 145.006 768.292 490.495
1883 0 54.1392 12.1539 658 160.623 768.398 490.131
1884 0 54.2901 12.0832 656 153.566 767.814 489.755
1885 0 57.2604 12.155 696 158.921 768.397 487.864
1886 0 58.1246 12.3012 715 159.215 769.717 487.203
1887 0 60.1003 12.2462 736 158.726 770.428 485.681
1888 0 63.1209 12.3731 781 154.927 770.05 484.48
1889 0 66.0871 12.4684 824 153.988 770.252 482.684
1890 0 68.2437 12.7924 873 158.087 769.908 481.527
1891 0 68.1198 12.8597 876 160.154 769.799 480.341
1892 0 70.0983 12.939 907 160.655 770.087 479.585
1893 0 71.0579 12.9331 919 159.842 769.93 479.028
1894 0 75.1519 12.8673 967 160.422 770.815 478.387
1895 0 75.1536 13.3327 1002 157.883 770.895 477.184
1896 0 78.0883 12.8572 1004 154.745 770.621 476.949
1897 0 81.1267 13.1769 1069 160.643 770.375 475.339
1898 0 84.239 13.0581 1100 166.313 770.945 473.872
1899 0 84.1312 13.4908 1135 163.617 769.715 472.811
1900 0 88.1494 13.2729 1170 165.591 769.504 470.058
1901 0 92.1487 13.1744 1214 157.188 770.373 468.747
1902 0 95.128 13.2243 1258 176.045 769.635 468.791
1903 0 98.2302 13.1324 1290 169.688 770.091 466.164
1904 0 102.21 13.2571 1355 174.639 769.399 464.831
1905 0 105.103 13.2346 1391 170.221 769.436 462.611
1906 1 54.2559 11.9803 650 165.946 768.874 488.765
1907 0 56.0241 12.5125 701 164.785 769.803 488.051
1908 0 57.1065 12.4154 709 167.944 769.326 487.612
1909 0 58.0331 12.6652 735 156.156 769.608 486.21
1910 0 61.0448 12.5318 765 169.157 769.312 485.387
1911 0 63.0219 12.7257 802 160.456 769.257 485.681
1912 0 66.0352 12.6145 833 160.759 769.785 483.999
1913 0 67.0609 12.7645 856 161.688 769.71 483.266
1914 0 70.0631 13.0454 914 165.332 769.635 481.117
1915 0 72.0641 12.9607 934 163.747 769.153 480.804
1916 0 75.1155 12.8069 962 171.832 768.923 478.989
1917 0 76.1389 13.2915 1012 169.097 768.35 479.102
1918 0 78.1544 13.0895 1023 170.594 769.286 478.431
1919 0 81.1305 13.3735 1085 170.92 768.915 475.829
1920 0 85.1233 13.5098 1150 169.048 768.747 474.223
1921 0 87.1308 13.6691 1191 167.002 769.175 472.673
1922 0 90.1584 13.3099 1200 166.962 768.555 471.772
1923 0 92.1216 13.5039 1244 162.489 767.029 470.488
1924 0 95.139 13.7693 1310 164.665 767.837 468.768
1925 1 48.1216 11.5748 557 159.517 767.817 492.939
1926 0 49.0298 12.0335 590 166.298 767.237 492.486
1927 0 51.1774 12.3883 634 166.653 768.632 492.394
1928 0 50.1198 12.6896 636 166.171 769.186 491.789
1929 0 53.1119 12.3889 658 158.47 768.761 490.903
1930 0 55.1752 12.7412 703 159.155 766.629 489.525
1931 0 56.1487 12.645 710 163.911 767.363 488.88
1932 0 58.1931 13.06 760 161.139 767.451 487.926
1933 0 58.2284 13.2238 770 160.947 768.523 487.862
1934 0 62.1946 12.5734 782 168.249 768.396 487.725
1935 0 62.1892 13.3142 828 162.657 768.554 486.268
1936 0 65.1831 13.1783 859 164.085 768.506 485.534
1937 0 66.1218 13.1727 871 161.999 767.763 485.39
1938 0 67.1485 13.2989 893 160.02 766.992 483.868
1939 0 70.0583 13.6601 957 160.067 767.084 483.037
1940 0 73.1266 13.3467 976 159.122 767.516 481.993
1941 0 76.224 13.2898 1013 152.67 767.682 480.338
1942 0 77.254 13.4103 1036 151.466 767.545 478.893
1943 0 81.1638 12.9491 1051 160.217 767.3 477.737
1944 0 82.2153 13.3673 1099 160.001 767.502 476.393
1945 1 45.1454 11.3411 512 153.178 768.064 495.711
1946 0 46.0386 11.7945 543 155.692 766.549 495.827
1947 0 48.2496 12.311 594 147.465 765.823 493.753
1948 0 47.0915 12.8261 604 155.086 765.864 494.278
1949 0 50.0258 12.3936 620 150.148 765.708 493.032
1950 0 50.1178 12.9695 650 148.92 766.048 492.622
1951 0 53.0569 12.5149 664 151.681 765.889 491.676
1952 0 55.1697 12.525 691 148.818 766.026 490.3
1953 0 56.0538 12.5772 705 145.36 765.96 490.077
1954 0 59.1202 12.8213 758 154.653 766.579 489.355
1955 0 62.0958 12.8028 795 151.482 766.357 487.913
1956 0 63.0999 12.916 815 148.64 766.934 486.777
1957 0 63.1514 13.2064 834 146.686 766.46 486.251
1958 0 66.1691 12.997 860 151.344 766.82 485.786
1959 0 68.0988 13.0252 887 149.246 766.534 484.083
1960 0 71.2326 13.112 934 151.706 766.633 483.315
1961 0 74.1661 12.9439 960 155.448 767.335 481.591
1962 0 77.2623 13.0335 1007 153.441 767.825 480.256
1963 0 79.2613 13.1464 1042 149.217 768.109 478.295
1964 1 44.1646 10.9364 483 156.499 767.843 497.718
1965 0 45.1835 11.1766 505 156.646 766.96 496.349
1966 0 46.0881 11.8035 544 152.281 766.838 494.827
1967 0 49.0941 11.8548 582 148.306 767.263 494.048
1968 0 51.1426 11.8688 607 148.392 767.684 492.799
1969 0 52.1646 12.058 629 151.232 766.984 492.091
1970 0 54.1985 12.4911 677 144.419 767.226 490.598
1971 0 56.1084 12.2263 686 151.566 767.426 489.984
1972 0 57.2634 12.4163 711 151.166 766.769 488.8
1973 0 59.1232 12.2456 724 151.362 766.087 488.186
1974 0 61.1921 12.3709 757 148.667 766.166 486.505
1975 0 60.2538 12.298 741 150.594 766.776 485.667
1976 0 63.2453 12.7757 808 151.897 766.739 484.55
1977 0 65.1795 12.9489 844 138.744 767.339 483.278
1978 0 65.1507 13.3537 870 151.115 768.039 482.076
1979 0 70.2851 12.9188 908 147.85 767.907 480.822
1980 0 72.1623 13.1093 946 151.064 768.367 479.975
1981 0 74.3211 12.9573 963 151.441 767.848 477.585
1982 0 75.2592 13.7126 1032 150.912 767.869 476.824
1983 0 79.2472 13.3128 1055 154.827 767.459 477.118
1984 0 82.4636 13.2665 1094 153.523 768.478 474.488
1985 0 84.3748 13.3808 1129 155.167 768.74 473.384
1986 0 86.2659 13.5395 1168 155.961 768.257 471.42
1987 0 90.3377 13.7373 1241 157.628 768.588 468.752
1988 0 93.1806 13.4899 1257 150.822 769.713 468.007
1989 0 97.4682 13.9635 1361 155.569 769.488 465.394
1990 0 102.47 13.8089 1415 165.095 769.766 463.245
1991 0 104.483 13.7343 1435 164.665 770.698 462.801
1992 0 107.335 13.7792 1479 166.251 770.375 461.425
1993 1 58.2595 11.4316 666 164.191 769.727 487.18
1994 0 61.0525 12.0552 736 162.654 770.554 485.72
1995 0 61.2246 12.446 762 154.718 770.377 483.648
1996 0 64.16 12.5468 805 159.805 770.605 482.764
1997 0 64.1027 12.636 810 164.998 770.333 482.125
1998 0 68.2038 12.2134 833 162.359 770.403 481.257
1999 0 70.2453 12.5133 879 161.21 771.336 480.395
2000 0 73.3654 12.6218 926 158.382 770.559 479.807
2001 0 74.3313 12.4847 928 159.139 770.402 478.353
2002 0 77.3756 12.5879 974 161.112 770.501 475.243
2003 0 79.6142 12.548 999 154.697 770.584 473.32
2004 0 82.4723 12.489 1030 157.537 770.061 471.283
2005 0 84.5194 12.6598 1070 158.907 769.446 471.547
2006 0 86.5063 12.8546 1112 163.146 769.695 468.478
2007 0 90.3975 12.5999 1139 159.922 769.676 467.875
2008 0 92.3677 12.5152 1156 158.025 768.855 466.657
2009 0 97.256 12.8218 1247 157.423 769.139 464.464
2010 1 52.1402 11.3924 594 165.537 770.136 486.116
2011 0 55.1043 11.6688 643 158.187 770.544 486.986
2012 0 56.0491 12.1679 682 158.003 770.393 487.774
2013 0 57.0807 12.2809 701 162.963 769.464 486.589
2014 0 58.1421 12.607 733 164.984 768.666 485.465
2015 0 62.1424 12.0691 750 160.332 768.789 484.193
2016 0 64.0863 12.2023 782 158.887 768.959 484.237
2017 0 65.1189 12.5616 818 160.737 769.506 483.666
2018 0 68.1232 12.3453 841 161.809 769.516 483.001
2019 0 68.1968 12.5959 859 163.013 768.405 482.338
2020 0 71.156 12.9574 922 165.016 768.243 481.43
2021 0 73.1558 12.7536 933 172.711 768.387 479.219
2022 0 73.1655 12.9706 949 165.636 769.367 478.757
2023 0 76.1825 13.2708 1011 161.683 768.897 477.318
2024 0 80.1821 13.407 1075 171.616 768.616 476.29
2025 0 81.2421 13.4413 1092 159.684 768.72 474.832
2026 0 84.2038 13.3011 1120 167.314 768.363 473.525
2027 0 86.1993 13.55 1168 164.636 769.546 470.712
2028 0 88.2403 13.6446 1204 166.084 769.261 469.248
2029 0 90.3237 13.9166 1257 168.598 768.554 467.861
2030 0 94.2531 13.8881 1309 167.445 767.427 465.469
2031 0 96.2627 13.7333 1322 165.046 768.272 464.344
2032 0 100.408 13.8435 1390 165.832 767.794 463.265
2033 0 102.268 13.7482 1406 156.817 767.814 461.095
2034 0 105.246 13.6062 1432 160.27 768.086 460.175
2035 0 109.298 13.6142 1488 165.251 767.843 459.748
2036 1 60.0905 11.7489 706 160.571 767.15 483.847
2037 0 62.1577 11.7926 733 162.397 766.146 483.629
2038 0 65.1447 12.9865 846 153.582 767.099 484.148
2039 0 67.1083 12.1296 814 164.201 767.187 483.827
2040 0 68.2108 12.6666 864 163 767.375 483.008
2041 0 71.2476 12.5618 895 163.227 766.675 481.834
2042 0 72.1781 12.8848 930 165.523 766.582 480.678
2043 0 74.2291 12.8117 951 167.093 766.142 480.532
2044 0 77.1075 13.1245 1012 158.867 766.771 478.784
2045 0 80.2013 12.9674 1040 163.141 767.359 478.049
2046 0 82.2188 13.1114 1078 160.606 767.717 476.24
2047 0 84.2055 12.8376 1081 152.005 767.438 474.453
2048 0 85.1802 13.0429 1111 157.558 767.259 474.124
2049 0 87.2697 13.1775 1150 158.514 766.645 473.703
2050 0 90.3399 12.9622 1171 157.923 767.412 471.113
2051 0 94.3319 13.3571 1260 156.887 767.839 468.633
2052 0 95.2773 13.5499 1291 162.057 767.511 467.504
2053 0 102.377 15.2085 1557 146.249 767.241 462.689
2054 0 103.278 13.7203 1417 154.664 767.437 464.078
2055 0 106.362 12.8523 1367 154.159 766.67 463.045
2056 0 109.221 12.5159 1367 155.613 767.157 461.618
2057 1 57.1234 10.6961 611 149.664 768.119 487.853
2058 0 60.1902 11.2809 679 149.427 766.817 485.619
2059 0 62.09 12.6752 787 147.446 767.299 486.919
2060 0 62.109 12.2527 761 146.497 766.753 485.982
2061 0 66.117 12.3569 817 146.666 767.623 485.294
2062 0 69.1645 12.6221 873 147.06 767.766 482.932
2063 0 70.1292 12.0349 844 143.297 766.877 482.305
2064 0 74.2119 12.1813 904 146.397 767.261 480.997
2065 0 75.2408 12.1078 911 142.537 766.974 479.654
2066 0 79.2577 12.3143 976 146.355 766.455 477.378
2067 0 81.2538 12.1963 991 136.647 766.411 474.745
2068 0 84.3365 12.1537 1025 142.595 766.925 473.484
2069 1 42.1819 9.38791 396 137.674 767.674 494.773
2070 0 45.1322 9.26168 418 134.184 767.16 493.51
2071 0 46.1485 9.88114 456 142.3 767.579 491.796
2072 0 49.0756 9.96421 489 136.93 768.485 491.728
2073 0 49.0453 10.7859 529 133.412 767.306 489.378
2074 0 52.0903 11.4033 594 131.598 767.561 488.508
2075 0 54.2678 11.259 611 136.088 767.525 487.686
2076 0 55.0442 11.4998 633 136.524 767.684 488.199
2077 0 55.108 12.1217 668 133.446 768.272 487.572
2078 0 57.0519 11.8839 678 134.687 767.341 486.76
2079 0 57.3297 11.7042 671 132.404 767.355 486.009
2080 0 61.1102 11.7329 717 134.264 767.626 484.907
2081 0 62.1073 12.2208 759 127.991 768.266 483.738
2082 0 65.0763 12.3701 805 133.986 768.38 482.954
2083 0 66.1242 12.2799 812 128.314 768.313 480.844
2084 0 69.1541 12.5661 869 139.549 768.316 480.063
2085 0 71.2754 12.4727 889 135.983 768.11 479.082
2086 0 73.0638 12.8244 937 128.165 769.074 478.326
2087 0 75.0622 12.4297 933 135.77 769.085 476.715
2088 0 78.0499 12.6714 989 136.596 769.22 476.113
2089 0 81.0794 12.4076 1006 140.991 769.915 474.182
2090 0 84.1821 12.6511 1065 139.742 770.112 472.801
2091 0 87.2061 13.2445 1155 135.966 769.291 469.795
2092 1 46.1379 9.92675 458 148.151 770.249 491.937
2093 0 47.0488 10.7548 506 142.98 770.753 490.5
2094 0 50.0781 10.5835 530 142.994 769.862 489.304
2095 0 52.016 10.8236 563 143.467 768.886 490.192
2096 0 53.1638 11.4175 607 136.707 768.193 487.372
2097 0 54.1917 11.4962 623 135.896 768.327 486.231
2098 0 56.1971 12.1359 682 138.955 769.299 485.743
2099 0 57.112 12.2216 698 131.46 769.719 484.105
2100 0 60.1994 12.143 731 139.963 769.156 483.627
2101 0 62.0995 12.0774 750 140.063 769.309 482.843
2102 0 66.1311 11.9611 791 144.831 769.21 481.554
2103 0 65.1144 12.3321 803 147.086 769.427 481.283
2104 0 67.0782 12.5227 840 142.94 769.923 480.044
2105 0 69.1908 12.5306 867 140.168 770.097 479.852
2106 0 71.3232 12.4644 889 145.316 770.524 478.351
2107 0 75.1513 12.548 943 147.326 770.323 477.01
2108 0 78.2024 12.148 950 146.626 770.056 475.9
2109 0 80.2206 12.4906 1002 144.805 769.773 473.683
2110 0 81.1534 12.5688 1020 141.983 769.814 472.418
2111 0 85.1305 12.3457 1051 136.46 770.157 471.325
2112 0 88.0703 12.3538 1088 147.461 770.262 470.171
2113 0 90.1065 12.1745 1097 139.802 769.702 469.283
2114 0 94.1012 12.5291 1179 152.862 770.135 467.268
2115 0 97.1377 12.786 1242 144.403 770.382 466.355
2116 1 55.1287 10.7929 595 154.227 771.113 486.182
2117 0 56.1285 11.0461 620 150.856 771.005 487.156
2118 0 59.0925 11.0166 651 148.8 771.28 484.971
2119 0 60.2151 11.8077 711 144.665 771.045 483.262
2120 0 63.1066 12.0748 762 149.71 771.139 482.479
2121 0 63.2987 12.054 763 147.713 770.954 482.342
2122 0 66.1541 11.6848 773 154.169 770.977 481.344
2123 0 68.1828 11.9825 817 146.424 770.338 478.842
2124 0 71.2645 11.759 838 145.358 771.531 478.192
2125 0 72.1871 11.9827 865 135.853 771.354 475.449
2126 0 75.1509 11.9759 900 140.784 771.457 474.274
2127 0 78.2226 12.0042 939 151.545 771.36 473.255
2128 0 80.2373 12.0393 966 145.53 770.902 472.7
2129 0 83.3472 12.13 1011 146.063 771.25 470.959
2130 0 85.1736 12.4217 1058 144.729 771.369 470.394
2131 0 88.1855 12.3263 1087 151.937 771.786 469.908
2132 0 91.2341 12.2761 1120 146.637 771.651 468.484
2133 0 94.1953 12.3573 1164 148.226 771.492 466.648
2134 1 49.1893 10.3478 509 154.992 772.273 489.045
2135 0 51.1091 10.4678 535 149.942 771.802 488.957
2136 0 53.0928 11.1315 591 151.437 771.707 487.088
2137 0 53.0731 12.3038 653 155.239 770.354 486.991
2138 0 56.2684 11.6584 656 156.483 770.14 486.134
2139 0 59.2107 11.4169 676 149.901 770.253 485.426
2140 0 61.2999 11.7129 718 155.008 769.808 483.986
2141 0 61.1828 11.8497 725 152.488 769.666 483.539
2142 0 63.2889 11.8504 750 159.689 769.727 480.172
2143 0 65.4045 11.8799 777 157.995 770.019 481.165
2144 0 65.2266 12.4489 812 163.505 770.081 482.688
2145 0 68.2718 12.3624 844 157.13 770.386 479.078
2146 0 71.1958 12.4586 887 157.072 770.324 481.187
2147 1 74.2924 13.1104 974 156.441 769.721 470.746
2148 0 76.2774 12.6643 966 159.352 769.061 471.893
2149 0 78.1698 12.6136 986 162.554 769.774 475.332
2150 0 80.2323 12.8128 1028 157.379 769.107 475.427
2151 0 83.214 12.9546 1078 156.799 769.122 474.174
2152 0 86.2717 13.0981 1130 164.772 768.064 473.493
2153 0 89.3837 13.3805 1196 152.938 768.15 471.212
2154 0 93.2773 13.3259 1243 161.202 768.001 469.147
2155 0 96.3807 12.8864 1242 158.359 767.169 468.072
2156 1 49.2338 12.0852 595 157.39 767.533 491.361
2157 0 52.3286 12.2304 640 161.223 768.57 489.838
2158 0 55.4021 12.5086 693 154.912 768.811 487.937
2159 0 56.2595 12.3179 693 161.749 769.548 488
2160 0 58.1266 12.1459 706 163.354 769.227 487.354
2161 0 59.2136 12.3958 734 162.824 768.628 488.714
2162 0 61.1868 12.7478 780 159.881 769.99 486.953
2163 0 63.1912 13.024 823 155.18 769.264 485.181
2164 0 64.2607 13.3207 856 161.308 769.018 483.629
2165 0 65.2904 13.3404 871 159.633 768.162 485.804
2166 0 69.3489 13.0788 907 159.613 768.58 483.391
2167 0 71.222 13.5071 962 166.143 768.501 481.225
2168 0 71.2344 13.8978 990 168.588 768.924 480.856
2169 0 74.3035 13.1488 977 165.867 768.089 480.08
2170 0 77.2896 13.4947 1043 165.466 768.449 479.167
2171 0 79.2858 13.4576 1067 164.739 769.242 477.416
2172 0 81.1893 13.5855 1103 159.527 769.332 476.559
2173 0 83.2196 13.4343 1118 162.941 768.633 475.416
2174 0 85.1941 13.5573 1155 166.223 767.941 475.175
2175 0 88.3298 13.6987 1210 166.064 768.208 473.618
2176 0 93.2646 13.7029 1278 167.603 767.887 472.111
2177 0 98.1728 16.3283 1603 157.284 767.839 467.053
2178 0 99.3679 15.0954 1500 162.771 768.507 467.163
2179 0 101.309 14.204 1439 161.603 768.12 468.435
2180 0 102.268 13.8069 1412 168.025 767.266 467.2
2181 0 106.338 13.457 1431 161.033 767.073 465.959
2182 0 109.247 13.712 1498 164.742 766.858 463.58
2183 0 112.29 13.8837 1559 164.443 767.416 462.854
2184 1 61.1618 11.4287 699 158.352 768.421 488.83
2185 0 61.0956 12.0958 739 162.378 768.848 488.419
2186 0 64.1956 12.7267 817 161.524 769.176 486.756
2187 0 65.0895 12.9207 841 161.392 768.279 486.554
2188 0 67.084 12.6558 849 160.716 768.298 486.882
2189 0 70.1056 12.2672 860 160.31 768.112 485.047
2190 0 71.109 13.0504 928 149.475 768.559 483.481
2191 0 74.1032 13.1573 975 159.608 768.385 481.929
2192 0 76.098 12.5628 956 162.911 768.197 480.675
2193 0 78.1288 12.7738 998 160.645 768.542 479.051
2194 0 81.1541 12.8521 1043 157.706 769.366 477.997
2195 0 83.1236 12.9205 1074 151.553 769.198 476.67
2196 0 86.2147 13.0952 1129 156.406 767.711 474.479
2197 0 88.2045 13.0152 1148 158.612 768.537 473.101
2198 0 92.3295 13.5818 1254 146.152 768.264 470.59
2199 0 94.1254 13.3758 1259 152.022 768.772 469.644
2200 0 96.2568 13.1004 1261 155.056 768.14 467.502
2201 0 100.194 12.8949 1292 151.988 767.539 465.497
2202 0 103.278 12.994 1342 153.98 768.233 463.115
2203 0 104.234 13.2202 1378 144.667 768.004 461.806
2204 1 58.1615 11.0038 640 148.938 767.992 486.591
2205 0 61.2334 11.7256 718 152.526 768.259 486.394
2206 0 60.2522 12.2651 739 146.503 767.885 485.217
2207 0 64.0312 12.4158 795 144.509 769.301 485.067
2208 0 67.0411 12.2313 820 141.71 768.634 483.448
2209 0 70.1016 12.1538 852 140.96 768.908 482.431
2210 0 71.0758 12.4515 885 141.292 769.13 481.441
2211 0 72.135 12.5321 904 143.72 769.825 479.888
2212 0 74.1826 12.6849 941 142.473 770.135 478.584
2213 0 79.3094 12.6845 1006 146.884 769.664 478.152
2214 0 80.151 12.8507 1030 144.541 770.341 476.526
2215 0 81.1816 13.2173 1073 144.353 769.861 475.39
2216 0 83.1413 12.8937 1072 144.141 771.034 474.902
2217 0 86.255 13.0079 1122 155.256 770.879 471.844
2218 0 90.2989 12.813 1157 146.97 771.136 471.456
2219 0 92.2132 13.2302 1220 151.502 770.348 470.381
2220 0 96.2651 13.4005 1290 153.367 770.99 468.374
2221 0 99.3279 13.2893 1320 155.005 771.36 466.602
2222 0 101.251 13.1455 1331 154.639 771.546 465.701
2223 0 103.203 13.769 1421 156.628 772.125 464.381
2224 0 108.234 13.0365 1411 156.689 772.18 462.505
2225 1 58.1659 11.364 661 149.163 772.017 487.215
2226 0 62.1799 12.1422 755 150.53 771.889 486.322
2227 0 64.2267 12.0822 776 156.04 772.601 484.664
2228 0 65.1859 12.518 816 156.714 772.433 482.678
2229 0 67.1605 12.4329 835 157.072 772.563 482.116
2230 0 69.1786 13.0098 900 157.904 772.227 481.834
2231 0 71.1469 13.0996 932 165.448 772.367 480.54
2232 0 73.106 13.1863 964 167.404 772.487 480.152
2233 0 74.1669 13.3887 993 164.311 771.577 477.963
2234 0 76.086 13.5242 1029 157.88 772.097 477.048
2235 0 80.0938 13.2719 1063 163.983 772.171 476.534
2236 0 82.1557 13.5109 1110 165.323 771.601 474.797
2237 0 85.2758 13.9547 1190 168.215 771.304 473.919
2238 0 87.2143 13.8509 1208 164.39 771.895 472.195
2239 0 90.1335 13.7352 1238 159.586 772.224 471.438
2240 0 92.1684 13.7791 1270 162.694 772.194 470.44
2241 0 96.3643 14.8707 1433 168.38 771.83 468.052
2242 0 100.263 13.5444 1358 156.622 771.872 467.177
2243 0 103.161 13.8715 1431 168.673 771.969 464.74
2244 0 107.338 14.1423 1518 158.888 772.026 462.488
2245 1 55.1801 12.1058 668 161.936 771.783 489.587
2246 0 56.1209 12.6869 712 157.299 771.296 488.316
2247 0 57.2232 13.1066 750 154.895 771.867 488.372
2248 0 58.2081 13.4861 785 160.768 771.769 487.451
2249 0 61.2515 13.2078 809 166.24 771.078 486.213
2250 0 62.2139 13.2286 823 157.663 771.248 484.295
2251 0 65.2736 13.6809 893 157.277 770.574 482.131
2252 0 66.1507 13.8018 913 158.021 771.371 482.268
2253 0 68.3554 13.7224 938 159.344 771.409 481.506
2254 0 71.2738 13.6937 976 162.127 771.029 481.201
2255 0 73.1583 13.423 982 158.646 770.816 480.357
2256 0 75.2832 13.7215 1033 152.496 770.604 478.531
2257 0 76.3465 14.0019 1069 156.094 770.752 477.949
2258 0 78.3258 14.1971 1112 155.146 770.884 477.123
2259 0 82.3958 14.1998 1170 160.133 770.238 475.708
2260 0 85.4682 13.8063 1180 157.486 770.596 474.912
2261 0 87.2455 14.1555 1235 162.95 769.855 472.853
2262 0 90.2513 13.6619 1233 154.754 769.159 471.071
2263 0 95.4033 15.555 1484 144.378 769.115 466.396
2264 0 97.3509 14.4631 1408 153.229 768.825 466.974
2265 1 51.2747 12.2088 626 162.7 769.538 491.791
2266 0 53.2377 12.8856 686 154.2 769.144 489.01
2267 0 57.2256 12.6691 725 151.458 769.251 488.684
2268 0 58.3471 12.9398 755 154.779 770.057 487.804
2269 0 58.5119 13.211 773 155.074 769.299 487.115
2270 0 62.4157 13.3781 835 151.842 769.378 485.668
2271 0 64.3774 13.2966 856 146.651 769.107 484.766
2272 0 65.3997 13.8227 904 148.581 769.049 482.854
2273 0 68.2964 13.6757 934 151.781 768.94 481.908
2274 0 70.5053 13.4458 948 155.482 768.361 480.586
2275 0 73.2796 13.5372 992 147.093 767.749 479.15
2276 0 76.261 13.598 1037 159.39 767.662 478.291
2277 0 78.2943 13.6153 1066 154.002 767.616 477.326
2278 0 80.2991 14.0101 1125 155.025 768.06 475.903
2279 0 84.4058 13.7194 1158 150.932 767.42 474.481
2280 0 87.1557 13.6078 1186 158.489 767.277 473.857
2281 0 90.2195 13.6113 1228 149.822 767.963 472.716
2282 0 94.1924 13.4193 1264 157.708 768.267 471.762
2283 1 51.2261 11.1272 570 146.632 767.433 491.646
2284 0 53.3179 12.1348 647 150.053 767.09 491.131
2285 0 53.0717 11.833 628 156.169 768.58 490.984
2286 0 55.0797 12.146 669 158.018 768.329 490.723
2287 0 55.1112 12.375 682 155.258 768.597 490.28
2288 0 59.1274 12.0418 712 160.354 767.994 489.288
2289 0 61.057 12.3164 752 157.884 768.731 487.229
2290 0 62.1006 12.4314 772 153.541 768.644 486.096
2291 0 66.2477 12.7703 846 158.728 768.197 484.183
2292 0 68.1672 12.9094 880 157.301 768.019 483.733
2293 0 70.3734 12.4053 873 156.436 768.477 482.018
2294 0 72.3595 12.3273 892 164.04 768.687 481.702
2295 0 74.3317 12.4039 922 165.458 768.569 480.413
2296 0 77.5791 12.6967 985 163.88 768.271 477.602
2297 0 80.6489 12.4986 1008 160.054 767.773 476.764
2298 0 82.4452 12.7721 1053 160.854 768.141 473.939
2299 0 86.4894 12.4408 1076 160.549 767.931 474.033
2300 0 88.3404 12.8707 1137 162.986 768.047 471.899
2301 0 91.3898 12.5616 1148 158.31 768.16 469.902
2302 0 93.3848 12.8929 1204 160.947 768.129 468.422
2303 0 98.3089 12.5116 1230 160.546 768.228 466.709
2304 1 53.1401 11.8931 632 161.584 768.688 488.638
2305 0 55.2099 12.1898 673 150.453 768.523 486.204
2306 0 57.0654 12.0563 688 157.225 768.702 486.022
2307 0 60.1691 11.8666 714 158.595 768.588 485.605
2308 0 61.2407 12.7366 780 159.194 769.109 483.532
2309 0 62.1515 12.3247 766 152.913 769.138 484.093
2310 0 64.2811 12.5542 807 159.074 769.175 482.027
2311 0 66.2026 12.2503 811 150.916 768.715 481.766
2312 0 68.2306 12.9268 882 158.82 768.969 479.954
2313 0 70.2364 12.9562 910 157.843 769.034 478.949
2314 0 73.1727 12.409 908 152.273 769.457 477.215
2315 0 76.2964 12.5301 956 153.816 769.601 474.999
2316 0 76.1932 13.1508 1002 149.313 769.835 474.135
2317 0 80.2411 13.0856 1050 156.071 769.794 472.611
2318 0 84.3318 13.103 1105 154.439 770.223 470.575
2319 0 85.1637 13.022 1109 159.238 770.59 470.844
2320 0 89.2603 13.1189 1171 155.804 770.365 468.956
2321 0 92.134 13.0136 1199 156.283 770.205 466.999
2322 0 93.1704 13.3519 1244 159.673 770.757 464.728
2323 1 54.1892 11.6444 631 149.545 771.147 485.895
2324 0 56.1045 11.9242 669 156.96 771.785 483.927
2325 0 58.1378 12.1092 704 155.239 771.922 484.031
2326 0 57.0609 12.4954 713 157.576 771.979 484.177
2327 0 61.0843 12.2126 746 152.326 771.367 482.394
2328 0 63.0637 12.5904 794 154.568 771.111 480.596
2329 0 65.0477 12.3448 803 154.224 771.268 479.699
2330 0 67.0471 12.6329 847 149.497 772.015 479.282
2331 0 69.0936 12.6206 872 146.888 771.97 477.343
2332 0 72.1492 12.7929 923 151.738 772.892 476.983
2333 0 73.0337 13.2541 968 152.413 772.504 474.648
2334 0 75.2293 12.8142 964 155.907 772.293 474.324
2335 0 78.1944 12.6352 988 149.155 771.827 472.825
2336 0 80.0834 12.949 1037 152.124 771.932 471.603
2337 0 85.1946 13.1464 1120 146.538 771.884 469.051
2338 0 86.1824 13.2974 1146 151.487 771.951 465.712
2339 0 89.2074 12.9137 1152 153.928 771.792 467.273
2340 0 94.2392 14.1342 1332 134.964 772.163 462.628
2341 0 95.3189 12.9985 1239 150.965 772.21 463.346
2342 0 100.202 12.6045 1263 148.435 772.306 461.736
2343 0 102.239 13.0479 1334 153.35 772.569 459.453
2344 1 56.4055 10.8145 610 149.015 772.602 482.975
2345 0 58.1646 11.5018 669 147.667 772.963 483.272
2346 0 60.3953 12.087 730 152.833 772.992 479.425
2347 0 61.1457 12.0695 738 149.336 772.864 482.245
2348 0 63.1953 12.311 778 146.303 772.893 481.278
2349 0 65.1527 12.3402 804 148.545 772.364 481.04
2350 0 67.1682 12.3124 827 150.197 771.729 480.432
2351 0 69.1846 12.8063 886 154.971 771.731 478.874
2352 0 72.0846 12.9431 933 154.364 771.877 477.733
2353 0 74.1546 12.5414 930 152.004 771.811 477.872
2354 0 74.136 12.8143 950 155.298 770.706 475.681
2355 0 77.3215 12.8813 996 157.85 771.212 475.108
2356 0 80.309 13.1866 1059 156.094 770.259 471.405
2357 0 83.2583 12.8636 1071 165.734 770.289 471.896
2358 0 85.2621 13.0421 1112 161.648 770.861 470.123
2359 0 87.3972 13.0439 1140 161.211 770.915 470.002
2360 0 92.2792 14.1527 1306 156.647 770.182 465.9
2361 0 97.4104 15.4809 1508 146.975 770.042 462.708
2362 0 97.3218 13.0392 1269 154.954 769.935 464.525
2363 0 99.2355 13.211 1311 165.728 769.973 463.553
2364 0 103.274 13.2463 1368 163.832 769.085 461.87
2365 1 55.1225 11.4472 631 157.735 769.677 485.187
2366 0 56.3013 12.4864 703 162.632 770.448 484.137
2367 0 59.1792 12.9606 767 164.613 770.465 484.05
2368 0 60.1525 13.0335 784 159.213 769.76 485.189
2369 0 62.1518 12.7591 793 157.274 769.672 485.429
2370 0 64.1446 12.768 819 161.872 769.602 484.541
2371 0 67.1468 12.8822 865 156.797 770.074 483.141
2372 0 70.1882 13.1504 923 161.961 769.909 480.808
2373 0 72.163 13.2478 956 157.056 769.942 480.271
2374 0 73.1518 13.1918 965 165.005 769.737 480.148
2375 0 75.1129 13.3399 1002 165.078 770.086 479.381
2376 0 78.1083 13.6221 1064 161.408 769.898 478.529
2377 0 80.1954 13.5669 1088 165.544 769.018 477.416
2378 0 83.2011 13.6056 1132 169.587 768.715 476.565
2379 0 86.1744 13.5191 1165 161.34 769.411 474.532
2380 0 86.253 13.7503 1186 163.673 769.193 473.511
2381 0 90.1634 13.6974 1235 162.917 769.545 472.22
2382 0 91.1928 13.7072 1250 164.755 769.806 470.807
2383 0 94.1987 14.0235 1321 154.807 769.678 469.55
2384 0 98.1059 14.0359 1377 160.261 769.686 467.797
2385 0 102.145 13.8627 1416 166.956 769.93 467.513
2386 0 104.197 13.8392 1442 168.82 769.666 466.529
2387 1 56.1769 11.8732 667 165.352 769.837 491.127
2388 0 58.2304 12.3132 717 161.722 769.914 489.647
2389 0 61.2461 12.7518 781 156.864 769.831 488.625
2390 0 61.1798 12.8964 789 163.053 769.176 487.408
2391 0 63.1814 12.9627 819 161.634 769.23 486.22
2392 0 65.1887 13.1004 854 166.056 769.23 486.279
2393 0 70.1513 13.0432 915 164.123 768.743 484.733
2394 0 69.1655 13.3593 924 156.094 769.111 483.272
2395 0 73.0995 12.7908 935 149.077 769.246 481.304
2396 0 75.1415 13.255 996 151.347 769.055 480.57
2397 0 79.1544 14.1496 1120 146.729 769.038 477.579
2398 0 80.1462 13.3256 1068 159.271 768.705 478.564
2399 0 82.0847 13.145 1079 152.746 769.177 476.442
2400 0 86.1205 13.3302 1148 158.108 769.297 473.539
2401 0 89.1709 13.2106 1178 154.934 769.794 472.524
2402 0 92.2332 14.0947 1300 147.719 768.688 468.989
2403 0 98.0885 15.8021 1550 142.97 770.057 464.972
2404 0 99.1218 14.235 1411 150.546 769.67 464.295
2405 1 54.064 11.1719 604 150.629 769.06 487.836
2406 0 56.1091 11.6915 656 153.811 770.035 486.035
2407 0 58.1316 11.5944 674 146.407 769.157 484.361
2408 0 59.1494 12.7643 755 142.616 769.099 484.793
2409 0 61.2356 12.656 775 142.754 769.498 484.246
2410 0 64.1167 12.7268 816 142.528 768.338 482.902
2411 0 66.2428 12.3032 815 141.648 769.648 482.719
2412 0 66.219 12.5493 831 150.434 769.987 481.202
2413 0 69.1218 12.4997 864 146.543 770.387 480.779
2414 0 72.1097 12.6335 911 144.998 769.811 479.497
2415 0 74.273 12.3059 914 144.984 769.935 478.028
2416 0 76.1634 12.7752 973 145.006 770.113 476.211
2417 0 79.2545 12.6176 1000 145.07 770.034 472.086
2418 0 81.2219 12.6074 1024 146.949 770.152 473.64
2419 0 82.2258 12.9035 1061 143.825 769.972 472.734
2420 0 87.3679 13.1398 1148 148.45 770.1 470.083
2421 0 88.3906 13.2706 1173 149.015 770.46 469.88
2422 1 49.1747 11.3066 556 149.996 770.635 490.496
2423 0 50.2346 11.5259 579 147.686 771.195 489.073
2424 0 51.2567 12.2325 627 145.971 771.231 487.876
2425 0 54.1697 12.147 658 152.383 771.188 487.249
2426 0 55.1534 12.4018 684 149.098 771.475 487.026
2427 0 57.2342 12.5799 720 154.494 771.783 486.011
2428 0 58.0739 12.6907 737 151.046 771.55 485.746
2429 0 62.166 12.6114 784 151.717 772.189 484.638
2430 0 63.1377 12.4648 787 155.027 772.489 483.933
2431 0 64.1675 13.0284 836 159.248 772.528 482.961
2432 0 67.114 13.1418 882 155.689 772.035 481.38
2433 0 67.1028 12.8758 864 155.53 771.449 480.682
2434 0 72.1628 13.0954 945 163.63 771.285 479.433
2435 0 73.135 13.1948 965 156.473 770.64 478.623
2436 0 75.1603 13.3714 1005 162.88 771.303 476.414
2437 0 78.1964 13.0952 1024 160.441 771.06 476.135
2438 0 81.2722 13.5471 1101 167.949 771.489 474.916
2439 0 84.235 13.4742 1135 166.027 771.845 473.011
2440 0 86.2324 13.5216 1166 171.431 771.093 471.633
2441 0 90.1873 13.5274 1220 165.879 771.019 470.809
2442 0 96.2651 14.3977 1386 162.002 771.514 465.631
2443 1 50.4206 12.3561 623 160.453 771.827 488.202
2444 0 54.1934 12.0125 651 169.519 771.576 487.657
2445 0 55.2005 12.8622 710 163.696 771.763 487.089
2446 0 57.1205 12.7625 729 165.519 771.436 486.473
2447 0 59.0345 12.6197 745 166.172 771.307 486.132
2448 0 60.1418 12.4539 749 163.905 771.566 485.266
2449 0 62.0826 12.3545 767 170.181 771.087 484.898
2450 0 65.1054 12.6257 822 168.33 770.591 483.753
2451 0 67.2594 12.6971 854 164.063 771.381 482.644
2452 0 68.2682 12.8757 879 166.87 771.028 480.989
2453 0 70.3059 12.7159 894 165.147 771.263 479.851
2454 0 73.1247 12.9368 946 170.557 770.778 479.181
2455 0 75.269 13.0864 985 162.41 771.072 478.391
2456 0 77.2206 13.0406 1007 166.708 771.648 476.422
2457 0 79.1656 13.2886 1052 163.037 771.184 476.069
2458 0 80.2489 13.3211 1069 77.6099 770.472 474.84
2459 0 84.2455 12.701 1070 164.064 770.395 475.146
2460 0 85.2703 13.123 1119 159.142 770.584 472.698
2461 0 87.273 13.5322 1181 166.714 770.149 471.092
2462 0 92.2571 13.354 1232 166.452 770.273 469.751
2463 0 94.2709 13.6734 1289 163.337 769.725 467.728
2464 0 100.184 14.733 1476 157.641 770.071 465.327
2465 0 101.197 13.2514 1341 158.901 769.906 465.037
2466 0 104.14 13.5971 1416 166.563 770.069 462.835
2467 0 108.272 13.2814 1438 156.026 770.19 462.168
2468 0 112.23 13.2941 1492 167.054 769.851 460.043
2469 0 115.25 13.7354 1583 160.014 770.015 458.797
2470 1 66.1459 12.034 796 160.725 770.386 484.005
2471 0 68.1421 12.518 853 158.292 769.987 482.253
2472 0 71.108 11.7708 837 158.705 770.141 482.999
2473 0 73.102 12.0653 882 161.841 770.137 481.043
2474 0 77.1312 12.0703 931 158.631 770.249 479.548
2475 0 77.1639 12.5318 967 157.722 769.615 477.782
2476 0 81.2039 12.13 985 157.503 768.979 476.68
2477 0 85.3005 12.497 1066 150.012 768.701 474.868
2478 0 87.2309 12.7822 1115 147.542 768.974 472.967
2479 0 87.4126 12.6412 1105 153.657 769.181 472.447
2480 0 88.3354 12.9393 1143 155.484 769.175 469.822
2481 0 93.3301 12.3647 1154 149.087 769.68 468.362
2482 0 97.3807 12.333 1201 151.653 769.48 468.048
2483 0 98.6857 12.403 1224 156.617 769.801 467.616
2484 0 102.473 12.6765 1299 160.427 770.184 465.376
2485 0 105.686 12.4519 1316 155.536 770.375 463.163
2486 0 108.508 12.4139 1347 145.356 769.775 460.849
2487 0 111.488 12.9341 1442 156.856 770.053 460.499
2488 0 115.575 12.5027 1445 156.195 770.725 460.442
2489 1 65.2596 11.4926 750 154.217 770.58 485.453
2490 0 66.1933 11.6477 771 150.827 770.562 485.004
2491 0 68.386 11.5228 788 156.336 769.763 484.364
2492 0 69.3124 11.9459 828 151.592 769.345 484.278
2493 0 73.5128 11.6986 860 153.976 769.08 480.938
2494 0 74.657 12.4704 931 155.026 769.383 476.22
2495 0 76.6189 12.4512 954 155.561 768.919 475.225
2496 0 77.7213 12.4676 969 151.224 769.303 475.723
2497 0 80.468 12.6883 1021 154.253 769.307 473.567
2498 0 81.6088 12.9153 1054 150.019 768.722 471.673
2499 0 84.5598 13.044 1103 149.822 769.486 470.799
2500 0 88.5288 13.4307 1189 148.129 769.352 468.761
2501 0 91.6984 13.3263 1222 150.461 769.401 467.772
2502 0 93.5601 12.687 1187 156.537 769.454 466.35
2503 0 95.67 12.9612 1240 160.84 769.085 464.791
2504 0 99.3399 12.8146 1273 146.255 769.09 462.576
2505 0 103.395 12.6988 1313 152.637 769.062 461.825
2506 0 106.558 13.0633 1392 154.218 769.138 459.56
2507 0 110.349 13.3305 1471 146.395 769.815 457.482
2508 0 113.403 12.8921 1462 149.602 769.92 458.252
2509 1 62.4142 11.3436 708 152.559 770.321 485.304
2510 0 64.2258 11.3194 727 150.609 770.747 483.7
2511 0 65.2379 12.1249 791 142.891 770.335 480.075
2512 0 67.4012 11.8692 800 146.254 770.132 479.564
2513 0 69.5011 12.302 855 148.104 770.753 479.158
2514 0 71.271 12.3893 883 150.119 770.562 478.928
2515 0 73.3929 12.4535 914 146.14 769.957 477.55
2516 0 75.4092 12.5051 943 150.948 770.933 476.869
2517 0 79.4846 12.3672 983 152.291 771.319 475.786
2518 0 79.5667 13.209 1051 142.045 770.634 472.361
2519 0 84.5278 12.209 1032 153.939 770.797 473.889
2520 0 88.4538 14.3125 1266 134.946 770.621 468.021
2521 0 89.5241 15.1914 1360 130.69 770.906 465.622
2522 0 92.254 14.536 1341 140.681 770.995 465.984
2523 0 94.2681 13.748 1296 146.467 771.639 466.688
2524 0 97.3304 12.9661 1262 149.759 771.444 465.115
2525 0 101.329 13.1749 1335 109.365 771.834 464.288
2526 1 54.0875 11.0931 600 155.66 771.195 484.282
2527 0 56.2453 11.1298 626 146.569 772.235 484.784
2528 0 57.1591 11.7217 670 149.045 772.44 484.8
2529 0 59.1758 11.6264 688 143.874 772.344 483.017
2530 0 61.1601 11.4781 702 151.711 772.098 482.442
2531 0 61.123 12.1231 741 151.351 771.775 482.223
2532 0 64.0821 11.5009 737 152.904 771.917 481.068
2533 0 65.0747 11.8479 771 156.023 772.136 479.721
2534 0 66.1263 12.34 816 145.04 772.278 478.344
2535 0 68.2401 12.6465 863 157.679 772.235 478.393
2536 0 70.167 12.5558 881 162.238 772.333 478.303
2537 0 73.1359 12.634 924 156.891 772.129 476.91
2538 0 74.1504 13.1085 972 162.215 771.841 475.907
2539 0 77.2202 12.8205 990 169.031 772.025 474.804
2540 0 79.1945 13.8015 1093 162.995 772.461 475.437
2541 0 80.1143 13.4558 1078 170.069 772.593 473.519
2542 0 83.2745 13.4015 1116 168.212 772.861 473.788
2543 0 85.1422 13.5655 1155 165.729 772.83 471.154
2544 0 89.1066 13.871 1236 167.269 772.663 469.985
2545 0 92.2226 13.706 1264 169.997 772.828 468.247
2546 0 96.3296 14.1493 1363 161.994 772.549 462.566
2547 0 99.3588 13.8991 1381 158.678 772.745 464.546
2548 0 100.219 13.8197 1385 168.63 773.035 462.764
2549 0 105.34 13.8314 1457 161.175 773.135 460.079
2550 0 107.407 13.8911 1492 162.562 773.448 458.92
2551 0 110.498 13.9641 1543 160.889 773.459 456.032
2552 1 58.298 12.4361 725 170.873 773.65 483.319
2553 0 58.0822 13.0505 758 170.302 773.174 481.566
2554 0 61.143 13.035 797 168.755 772.902 480.834
2555 0 63.1194 13.1338 829 163.435 773.31 479.637
2556 0 67.0348 13.6049 912 157.482 772.304 479.185
2557 0 67.0741 13.4329 901 157.844 772.667 478.671
2558 0 67.0467 13.3042 892 152.873 772.864 479.409
2559 0 71.04 13.4009 952 155.682 772.401 477.609
2560 0 74.0705 13.4736 998 154.872 772.913 476.907
2561 0 76.059 13.4501 1023 166.671 772.366 476.111
2562 0 78.0913 13.7275 1072 167.103 771.897 474.309
2563 0 79.163 13.5796 1075 166.037 772.356 473.928
2564 0 82.0722 13.6831 1123 166.915 772.551 473.4
2565 0 84.2063 13.4432 1132 169.865 772.337 471.017
2566 0 87.2045 13.5199 1179 170.962 772.675 469.79
2567 0 91.1764 14.4665 1319 165.042 772.549 467.419
2568 0 91.18 14.0711 1283 162.594 771.966 467.34
2569 0 98.2321 15.8706 1559 148.666 771.999 463.558
2570 0 102.241 17.1556 1754 143.671 771.511 458.657
2571 0 102.211 15.6833 1603 151.969 771.735 460.074
2572 0 105.396 13.843 1459 158.989 771.73 460.786
2573 0 108.193 13.9935 1514 149.782 771.567 458.766
2574 0 110.262 13.7853 1520 154.9 771.83 457.199
2575 0 117.245 13.7916 1617 157.008 771.719 455.374
2576 0 119.241 14.1981 1693 154.445 772.073 452.346
2577 0 125.274 14.0492 1760 148.98 772.382 449.977
2578 1 69.0375 11.6893 807 158.285 771.836 479.758
2579 0 70.118 12.4077 870 157.984 771.492 478.682
2580 0 74.0721 12.4608 923 150.235 771.688 478.01
2581 0 76.0544 12.8066 974 153.054 772.077 476.588
2582 0 76.0792 13.2099 1005 153.103 771.789 475.361
2583 0 80.0557 13.0909 1048 153.297 771.065 474.138
2584 0 82.1399 13.4283 1103 152.788 772.486 472.239
2585 0 83.0791 13.4811 1120 151.955 772.396 471.881
2586 0 87.0878 13.1477 1145 154.03 772.002 471.052
2587 0 89.1504 13.4941 1203 151.983 771.65 469.262
2588 0 92.1115 13.4185 1236 147.543 771.447 467.721
2589 0 96.1296 13.1281 1262 152.151 771.276 465.273
2590 0 99.1096 13.4094 1329 145.525 771.114 464.749
2591 0 101.208 13.329 1349 149.295 771.355 464.028
2592 0 105.135 13.6966 1440 155.817 771.518 463.489
2593 0 109.127 13.4981 1473 145.667 771.37 461.01
2594 0 112.151 13.6779 1534 153.396 770.915 460.002
2595 1 62.09 11.886 738 152.366 771.751 484.476
2596 0 64.0989 12.4027 795 152.086 771.174 482.974
2597 0 67.0919 12.6841 851 145.539 771.905 481.301
2598 0 70.1682 13.0116 913 150.95 771.991 481.698
2599 0 70.0938 13.111 919 159.665 771.572 481.485
2600 0 74.0749 13.6483 1011 154.512 771.737 479.058
2601 0 76.0559 13.3586 1016 160.113 771.308 478.153
2602 0 78.0798 13.4862 1053 156.194 771.301 477.462
2603 0 81.1162 13.6224 1105 161.027 771.354 476.744
2604 0 84.1244 13.6821 1151 158.64 771.137 475.694
2605 0 86.2328 13.4635 1161 159.828 771.131 474.461
2606 0 88.2005 13.9908 1234 165.701 771.261 472.782
2607 0 91.0898 13.8435 1261 159.33 771.836 470.96
2608 0 94.0915 13.9758 1315 161.637 771.263 470.737
2609 0 96.0836 13.8421 1330 167.156 770.858 468.687
2610 0 100.103 13.9856 1400 169.546 771.024 467.516
2611 0 104.168 14.7454 1536 158.161 771.479 463.989
2612 0 107.078 13.9805 1497 166.381 771.148 463.437
2613 0 110.207 13.9193 1534 163.69 770.937 461.587
2614 0 113.285 13.9825 1584 172.424 770.706 460.541
2615 0 117.224 14.0926 1652 168.424 771.054 458.822
2616 0 121.2 14.2079 1722 166.142 771.324 456.501
2617 1 69.0905 12.7514 881 166.051 770.551 482.553
2618 0 71.0743 13.2678 943 157.747 770.345 481.39
2619 0 74.0413 12.8712 953 161.891 770.792 481.409
2620 0 76.1752 13.1408 1001 166.342 771.333 479.893
2621 0 78.0518 13.3757 1044 162.309 770.914 478.767
2622 0 80.1956 13.5419 1086 161.121 770.829 476.782
2623 0 82.0622 13.6482 1120 164.246 770.965 475.382
2624 0 85.164 13.4799 1148 161.118 770.045 473.884
2625 0 88.1196 13.5725 1196 165.194 770.252 472.855
2626 0 88.1724 13.3602 1178 152.497 769.946 472.143
2627 0 93.1362 13.4749 1255 159.398 770.093 470.267
2628 0 97.1197 13.5503 1316 155.676 770.171 469.407
2629 0 101.256 15.12 1531 147.583 769.999 464.894
2630 0 102.269 13.5134 1382 156.635 768.868 465.536
2631 0 104.184 13.5337 1410 157.854 769.827 464.252
2632 0 109.198 14.1577 1546 157.723 769.743 462.701
2633 0 113.123 13.808 1562 147.045 769.692 460.766
2634 0 117.13 13.771 1613 156.309 769.415 459.626
2635 0 121.223 13.6442 1654 149.192 770.247 458.41
2636 0 125.19 13.6272 1706 149.882 770.387 454.904
2637 1 70.1864 12.1106 850 153.282 769.646 482.119
2638 0 74.1804 12.7797 948 153.901 769.915 480.578
2639 0 76.059 13.529 1029 161.711 770.157 479.75
2640 0 80.0912 13.0227 1043 157.164 769.637 478.826
2641 0 81.1112 13.6109 1104 152.639 769.322 477.071
2642 0 84.1505 13.3095 1120 158.258 769.629 476.003
2643 0 86.1063 13.4717 1160 159.555 769.316 475.143
2644 0 90.0324 13.2508 1193 155.284 769.928 473.776
2645 0 94.1389 13.6182 1282 158.735 769.997 472.223
2646 0 97.0959 13.7905 1339 155.189 768.574 469.278
2647 0 99.1475 13.6968 1358 161.993 769.492 469.539
2648 0 102.117 14.3659 1467 158.434 770.119 467.042
2649 0 106.17 13.8174 1467 151.795 769.844 463.963
2650 0 109.178 13.8214 1509 157.294 769.512 464.345
2651 0 111.332 13.9313 1551 164.284 770.261 464
2652 0 115.239 13.6499 1573 155.434 770.687 460.327
2653 1 62.0832 11.7906 732 159.996 770.316 487.111
2654 0 64.1046 12.776 819 161.998 770.267 485.871
2655 0 68.0418 12.4041 844 161.595 770.745 486.267
2656 0 69.0692 12.7843 883 156.238 770.135 484.928
2657 0 71.0999 12.9677 922 157.202 770.813 483.81
2658 0 74.0287 13.2516 981 162.853 770.707 482.465
2659 0 76.1111 13.1387 1000 157.982 770.851 482.414
2660 0 78.0704 13.1548 1027 169.193 770.461 480.468
2661 0 82.1552 13.158 1081 158.003 770.716 478.289
2662 0 84.0963 13.0802 1100 166.27 771.088 477.891
2663 0 86.0677 13.3383 1148 163.76 771.205 476.756
2664 0 89.1396 13.4733 1201 164.764 769.751 475.545
2665 0 91.3395 13.9261 1272 156.167 769.991 474.133
2666 0 95.2041 13.5078 1286 161.863 770.027 472.76
2667 0 99.2362 13.5334 1343 163.593 769.858 471.349
2668 1 54.0945 11.979 648 165.113 769.289 494.002
2669 0 57.147 12.6691 724 159.102 769.517 489.349
2670 0 58.2032 12.6969 739 160.911 769.51 488.863
2671 0 60.1013 12.9115 776 161.241 769.545 490.286
2672 0 62.1146 12.7345 791 159.941 769.191 489.607
2673 0 63.1352 13.3523 843 155.577 769.517 488.992
2674 0 64.1303 13.036 836 155.31 769.62 488.091
2675 0 67.0865 13.0578 876 162.411 769.937 487.6
2676 0 67.1412 13.7918 926 161.315 770.127 486.879
2677 0 71.18 13.234 942 159.381 770.501 485.3
2678 0 72.1765 13.1345 948 156.767 769.932 484.789
2679 0 76.1442 14.9322 1137 150.985 769.233 481.656
2680 0 77.1307 13.3928 1033 154.004 769.768 481.932
2681 0 79.1122 13.0574 1033 158.201 769.809 481.832
2682 0 81.1205 13.2396 1074 155.885 769.668 480.337
2683 0 84.1007 13.4363 1130 151.417 770.044 479.162
2684 0 88.0831 13.6008 1198 154.584 770.134 477.168
2685 0 92.0622 14.4142 1327 148.852 769.863 473.95
2686 0 97.1684 15.6738 1523 149.479 768.842 472.213
2687 1 53.0455 12.1971 647 163.903 767.862 493.866
2688 0 54.0506 13.1173 709 153.083 768.804 493.646
2689 0 56.0309 12.9036 723 164.656 769.177 493.101
2690 0 58.065 13.8638 805 151.927 769.683 491.436
2691 0 59.1408 13.0874 774 159.562 769.251 490.888
2692 0 60.0482 13.5724 815 166.671 769.701 490.341
2693 0 61.1054 13.8449 846 161.55 769.827 489.442
2694 0 63.044 13.9744 881 161.047 769.228 487.884
2695 0 66.0209 13.632 900 167.177 769.511 487.787
2696 0 69.1824 14.0498 972 164.843 769.757 487.028
2697 0 70.1964 14.2885 1003 160.335 769.918 485.103
2698 0 74.1224 14.0848 1044 168.302 770.634 484.191
2699 0 76.2241 14.195 1082 165.922 770.669 483.911
2700 0 77.128 14.4695 1116 167.129 770.325 481.698
2701 0 80.2539 14.2548 1144 156.88 770.74 480.746
2702 0 81.1831 14.806 1202 166.186 770.751 479.743
2703 0 85.1734 14.946 1273 163.231 770.48 478.163
2704 0 87.1771 14.9925 1307 166.539 770.851 476.503
2705 0 93.3725 15.8184 1477 159.816 770.703 472.964
2706 0 92.192 15.0447 1387 160.364 770.208 473.035
2707 0 97.1772 15.2711 1484 163.812 770.167 470.896
2708 0 103.177 16.6316 1716 149.09 770.794 468.214
2709 0 102.247 14.4454 1477 165.798 770.414 468.791
2710 0 106.366 14.6194 1555 166.865 770.247 467.36
2711 1 58.1071 12.9072 750 169.632 770.015 491.693
2712 0 59.061 13.4776 796 172.415 770.068 490.261
2713 0 61.0819 13.8339 845 168.645 769.349 488.961
2714 0 63.0781 13.8241 872 172.751 768.939 488.925
2715 0 64.0724 13.8593 888 165.83 769.209 487.214
2716 0 67.1408 13.8068 927 169.401 769.259 485.987
2717 0 70.1434 13.7148 962 170.501 769.736 485.73
2718 0 70.0395 14.606 1023 164.396 769.982 483.83
2719 0 74.1448 14.1075 1046 44.0249 770.543 482.812
2720 0 77.1545 14.2442 1099 173.135 769.845 480.51
2721 0 79.1212 13.9027 1100 167.134 769.661 479.647
2722 0 83.087 14.3825 1195 163.758 769.346 478.187
2723 0 83.1177 14.2328 1183 171.581 769.238 476.857
2724 0 88.1853 14.2881 1260 170.131 769.172 475.275
2725 0 91.1154 14.6737 1337 165.996 769.058 473.711
2726 0 93.214 14.3112 1334 170.011 769.507 472.857
2727 0 96.1166 14.2119 1366 167.531 769.325 472.314
2728 0 99.2426 14.4898 1438 167.476 769.086 469.481
2729 0 102.139 14.2845 1459 171.646 769.222 469.352
2730 0 106.174 14.1278 1500 170.529 769.213 467.405
2731 0 106.291 14.5638 1548 166.04 769.386 464.847
2732 0 112.318 14.3521 1612 168.955 769.954 461.879
2733 0 115.272 14.1231 1628 164.638 769.931 460.958
2734 1 66.2348 13.3163 882 168.035 770.135 484.576
2735 0 68.164 13.4529 917 164.766 770.217 483.73
2736 0 69.4168 13.8727 963 166.993 769.526 482.684
2737 0 73.3107 13.6951 1004 172.395 769.345 481.564
2738 0 75.3874 13.6893 1032 169.115 769.059 480.238
2739 0 79.1914 13.4989 1069 169.12 769.289 478.473
2740 0 82.2475 13.6418 1122 164.296 769.06 477.434
2741 0 84.2913 13.5483 1142 163.222 769.162 475.743
2742 0 86.4978 13.8847 1201 162.312 769.35 474.246
2743 0 90.3129 13.3979 1210 166.206 769.041 472.492
2744 0 97.3145 16.236 1580 157.377 768.947 467.311
2745 0 98.443 15.1966 1496 160.856 768.924 466.564
2746 0 100.493 14.817 1489 163.777 768.874 464.533
2747 0 106.394 14.8504 1580 162.027 769.152 463.453
2748 0 109.433 13.6796 1497 167.426 769.134 463.237
2749 0 111.612 13.6365 1522 164.904 769.037 461.92
2750 1 55.2885 12.8598 711 162.639 768.557 489.588
2751 0 59.2221 12.8162 759 163.755 769.265 489.501
2752 0 59.1128 13.1782 779 161.597 769.68 488.454
2753 0 62.2424 12.853 800 159.374 769.365 487.346
2754 0 64.2276 13.0006 835 158.753 769.08 487.286
2755 0 65.238 13.2745 866 160.843 769.003 486.025
2756 0 69.4221 13.2955 923 164.794 769.237 484.546
2757 0 72.4133 14.0996 1021 156.857 769.145 481.877
2758 0 73.3397 13.7306 1007 163.143 769.353 480.729
2759 0 75.4481 13.8771 1047 162.89 769.038 479.332
2760 0 77.2999 13.6481 1055 164.142 768.682 478.122
2761 0 80.3797 13.4113 1078 163.955 769.111 476.861
2762 0 83.3556 13.5804 1132 169.427 769.183 474.818
2763 0 86.4244 13.3874 1157 160.373 768.967 473.587
2764 0 89.255 13.4782 1203 156.821 768.968 473.14
2765 0 91.3523 13.8365 1264 158.363 768.623 472.41
2766 0 95.2682 13.7087 1306 167.093 769.053 471.109
2767 0 99.2514 13.4809 1338 157.623 768.91 469.184
2768 0 102.247 13.5456 1385 160.725 769.467 467.775
2769 1 55.0387 12.5185 689 165.094 769.096 491.244
2770 0 57.1354 12.9692 741 167.796 768.873 490.355
2771 0 59.1383 13.0372 771 168.283 770.283 489.892
2772 0 60.1301 13.1382 790 166.827 770.362 489.357
2773 0 61.0818 13.7684 841 161.697 770.064 487.314
2774 0 65.214 13.5554 884 162.707 770.224 486
2775 0 66.1263 13.1869 872 154.461 769.83 483.97
2776 0 67.1146 13.991 939 160.613 770.444 482.867
2777 0 70.1728 13.8943 975 153.339 770.027 481.367
2778 0 74.2037 13.5169 1003 152.388 770.198 479.896
2779 0 76.2283 13.5383 1032 156.083 769.863 478.435
2780 0 79.2108 13.4956 1069 157.474 769.951 476.83
2781 0 80.2316 13.5857 1090 153.311 770.572 476.025
2782 0 80.2316 13.5857 1090 158.41 771.572 476.025
2783 0 86.1356 13.6065 1172 160.005 770.48 473.627
2784 0 90.1887 13.8709 1251 157.468 771.205 471.75
2785 0 93.1605 13.8256 1288 161.379 771.005 470.075
2786 0 98.2218 15.7704 1549 150.678 771.463 465.845
2787 0 102.099 15.2499 1557 152.044 771.547 462.735
2788 0 105.334 14.4968 1527 161.144 771.437 463.667
2789 0 108.15 13.842 1497 165.082 771.025 458.752
2790 1 59.0618 13.1049 774 167.74 770.357 486.103
2791 0 62.0739 12.9201 802 159.135 770.551 484.915
2792 0 63.0366 13.4684 849 166.15 770.777 484.064
2793 0 64.0976 13.4794 864 165.075 770.6 483.024
2794 0 68.0937 13.129 894 163.201 770.701 481.782
2795 0 69.0741 13.348 922 162.024 772.216 481.174
2796 0 71.0871 13.1388 934 160.406 771.848 480.378
2797 0 74.0909 13.146 974 164.812 771.953 480.066
2798 0 74.1463 13.5408 1004 167.747 772.014 478.795
2799 0 77.0719 13.3382 1028 162.667 772.037 477.611
2800 0 79.1458 13.3425 1056 164.818 771.943 476.884
2801 0 82.0659 13.3551 1096 165.537 772.142 475.339
2802 0 84.1247 13.2779 1117 169.204 772.552 474.006
2803 0 86.1301 13.5144 1164 166.556 772.564 473.245
2804 0 89.1004 13.7373 1224 160.261 772.183 472.179
2805 0 91.1601 13.3392 1216 158.672 772.412 471.155
2806 0 94.1001 13.5813 1278 161.367 772.492 469.39
2807 0 97.1761 14.0878 1369 163.894 772.816 466.022
2808 0 101.076 14.0983 1425 161.02 773.02 464.054
2809 0 103.154 14.0858 1453 160.438 772.448 463.295
2810 0 109.094 14.4737 1579 155.284 773.12 461.436
2811 0 111.218 14.2063 1580 154.37 772.559 459.749
2812 1 63.1009 12.6306 797 161.773 772.504 484.567
2813 0 66.059 13.3971 885 159.478 772.628 483.692
2814 0 67.0679 13.2999 892 161.225 772.719 482.646
2815 0 71.0775 13.1124 932 163.431 772.823 481.623
2816 0 72.0986 13.5093 974 158.496 772.703 480.494
2817 0 76.0848 13.485 1026 161.866 772.69 477.985
2818 0 78.0642 13.7451 1073 160.068 773.296 476.804
2819 0 78.0712 14.3331 1119 162.325 773.198 475.698
2820 0 82.0768 13.5727 1114 165.542 772.793 475.115
2821 0 86.125 13.9681 1203 162.325 772.976 473.942
2822 0 87.1644 14.444 1259 159.77 773.044 472.4
2823 0 91.0912 14.2056 1294 160.362 772.668 471.009
2824 0 92.1504 14.4004 1327 173.646 772.415 470.284
2825 0 96.2513 14.4102 1387 166.898 772.555 469.473
2826 0 97.2632 14.4145 1402 170.26 772.375 467.428
2827 0 101.33 14.3294 1452 163.242 772.646 465.306
2828 0 105.317 15.4676 1629 165.716 772.409 462.278
2829 0 106.193 14.6431 1555 165.41 771.902 462.293
2830 0 111.186 14.4083 1602 164.204 770.911 462.483
2831 0 115.176 14.8121 1706 168.863 771.193 459.334
2832 0 119.286 14.2682 1702 169.021 770.999 459.037
2833 1 64.0739 14.218 911 162.969 769.967 485.336
2834 0 67.1159 14.0652 944 170.37 770.211 482.271
2835 0 69.1656 14.2123 983 167.777 769.989 481.284
2836 0 73.1908 13.7995 1010 170.4 769.86 479.924
2837 0 76.1735 14.4801 1103 172.872 769.949 478.356
2838 0 76.1375 14.6314 1114 171.367 769.843 478.196
2839 0 80.3102 14.3319 1151 166.263 769.657 477.257
2840 0 82.2106 14.4507 1188 163.683 770.125 475.393
2841 0 86.2159 14.3593 1238 172.276 770.826 474.23
2842 0 88.14 14.3295 1263 172.936 769.325 471.672
2843 0 91.1653 14.6218 1333 169.44 770.698 471.508
2844 0 94.1767 14.4728 1363 171.781 770.354 468.949
2845 0 98.267 15.0305 1477 170.301 770.458 466.452
2846 0 102.222 14.7619 1509 170.52 770.015 465.016
2847 0 104.265 14.6549 1528 164.55 769.853 464.673
2848 0 107.141 15.1296 1621 170.755 770.398 462.54
2849 0 111.142 14.9359 1660 167.513 770.848 460.578
2850 0 115.371 14.8565 1714 166.331 770.601 460.722
2851 1 59.1861 14.1418 837 167.054 770.591 486.233
2852 0 63.1783 14.1979 897 165.728 770.185 483.649
2853 0 64.0637 14.7041 942 163.863 770.082 483.79
2854 0 69.1591 14.257 986 166.23 770.103 482.729
2855 0 70.0606 14.4304 1011 151.539 770.578 481.964
2856 0 73.1584 14.5711 1066 163.683 769.885 481.182
2857 0 75.2129 14.665 1103 170.26 769.912 479.056
2858 0 78.1225 14.6821 1147 166.694 770.37 478.242
2859 0 80.4312 15.0439 1210 168.333 770.336 477.281
2860 0 83.3 14.6459 1220 163.404 771.237 475.422
2861 0 86.1906 15.1409 1305 169.283 770.919 473.969
2862 0 88.187 15.2744 1347 161.546 770.811 472.022
2863 0 92.1575 14.9418 1377 167.307 771.111 471.861
2864 0 94.3055 15.0999 1424 170.198 772.237 471.194
2865 0 96.0973 15.0889 1450 166.717 771.065 469.314
2866 0 99.3018 14.8839 1478 170.719 771.302 468.273
2867 0 104.143 14.8258 1544 166.679 770.836 466.494
2868 0 106.269 14.9715 1591 159.266 770.897 464.808
2869 0 111.374 14.7162 1639 171.963 771.007 463.097
2870 0 116.215 14.8088 1721 167.531 770.619 458.776
2871 1 64.1517 14.5748 935 168.245 770.443 485.154
2872 0 65.1148 14.6203 952 166.242 770.717 482.541
2873 0 68.156 14.6869 1001 175.727 770.494 482.166
2874 0 72.1761 14.7556 1065 164.395 770.562 480.757
2875 0 74.2154 14.8083 1099 168.163 770.476 479.231
2876 0 79.241 14.5379 1152 169.536 770.756 477.769
2877 0 79.1832 14.8137 1173 173.455 770.929 476.38
2878 0 83.129 15.097 1255 167.642 771.076 474.429
2879 0 86.2505 15.0608 1299 165.475 771.449 472.626
2880 0 91.1668 15.0164 1369 168.691 770.806 471.183
2881 0 94.258 15.2772 1440 171.96 770.998 469.682
2882 0 97.1949 14.9082 1449 172.585 770.889 469.277
2883 0 100.212 14.7587 1479 172.189 770.778 467.306
2884 0 103.189 14.8853 1536 174.149 770.612 465.65
2885 0 107.067 14.8878 1594 165.194 770.938 462.896
2886 0 112.228 14.9696 1680 165.996 770.916 459.94
2887 1 62.1948 13.8275 860 175.9 771.079 484.056
2888 0 63.0546 14.9077 940 166.472 770.653 483.908
2889 0 66.1705 14.8102 980 168.783 771.02 482.352
2890 0 69.1387 14.8687 1028 164.593 770.6 480.83
2891 0 72.2623 14.2536 1030 173.843 770.445 480.003
2892 0 73.3194 14.8801 1091 162.703 770.804 478.499
2893 0 76.2262 14.7587 1125 169.591 770.508 477.448
2894 0 79.3085 14.803 1174 156.085 770.508 475.144
2895 0 83.4138 14.8057 1235 177.17 770.573 473.874
2896 0 85.1131 14.8391 1263 172.203 771.064 473.223
2897 0 89.4273 15.1184 1352 173.892 770.572 471.328
2898 0 92.2944 14.8763 1373 169.055 770.766 471.278
2899 0 94.214 15.0827 1421 164.916 770.94 469.825
2900 0 96.2341 15.0986 1453 171.931 770.912 468.866
2901 0 101.138 16.4924 1668 162.714 770.993 464.606
2902 0 104.222 15.1215 1576 170.706 771.118 465.234
2903 0 108.206 15.2025 1645 169.612 771.239 463.95
2904 0 109.409 15.0444 1646 172.043 771.432 462.33
2905 0 115.201 15.0172 1730 175.54 771.283 459.681
2906 0 119.2 15.193 1811 163.724 771.508 457.91
2907 0 124.256 14.8243 1842 175.465 771.471 456.608
2908 1 66.1148 14.5202 960 169.67 771.927 483.273
2909 0 69.2404 14.7168 1019 168.851 772.058 481.485
2910 0 70.1634 14.9508 1049 174.647 772.287 481.555
2911 0 76.1581 14.3911 1096 172.317 772.154 479.031
2912 0 77.2893 14.7886 1143 170.861 772.2 477.707
2913 0 78.0522 14.7209 1149 167.983 772.363 476.791
2914 0 81.1099 15.6208 1267 172.444 772.687 476.234
2915 0 82.149 15.1189 1242 159.303 772.564 474.836
2916 0 86.1523 15.2869 1317 168.743 772.561 473.319
2917 0 89.1117 15.071 1343 173.001 772.27 471.801
2918 0 90.0801 15.3086 1379 172.714 771.336 470.505
2919 0 92.2187 15.3548 1416 169.649 772.468 468.86
2920 0 95.1 15.2156 1447 170.162 772.33 467.063
2921 0 100.179 15.2428 1527 166.214 771.984 465.528
2922 0 102.137 15.3127 1564 172.955 772.084 464.822
2923 0 105.148 15.4735 1627 173.968 771.884 463.039
2924 0 109.133 15.3391 1674 171.798 772.229 462.336
2925 0 113.108 15.0122 1698 171.149 771.53 461.408
2926 1 63.0964 13.9786 882 177.368 771.776 484.887
2927 0 66.1198 14.2166 940 174.811 771.567 483.733
2928 0 68.1028 13.8908 946 173.091 772.267 482.225
2929 0 70.0908 14.4955 1016 166.642 771.571 481.48
2930 0 72.1534 14.3167 1033 173.304 771.014 480.209
2931 0 74.1734 14.7088 1091 166.92 771.782 478.94
2932 0 77.072 14.4929 1117 172.725 772.453 477.857
2933 0 81.1928 14.5703 1183 172.316 772.652 476.142
2934 0 81.0998 15.1418 1228 169.585 772.802 475.198
2935 0 85.0855 14.6911 1250 168.532 771.606 475.549
2936 0 88.2053 14.2168 1254 162.65 771.644 474.167
2937 0 90.1584 14.7629 1331 166.591 772.474 472.155
2938 0 93.1236 14.8834 1386 163.587 772.799 471.931
2939 0 97.2765 14.7826 1438 169.105 772.869 468.615
2940 0 100.181 14.5737 1460 166.379 771.945 466.96
2941 0 102.179 14.7878 1511 154.569 772.261 466.522
2942 0 107.224 14.7634 1583 160.205 772.533 465.171
2943 1 53.0894 13.8634 736 168.689 772.2 489.871
2944 0 57.1523 13.8752 793 170.24 771.428 488.651
2945 0 58.2106 14.5678 848 168.364 771.987 488.022
2946 0 60.2082 15.0146 904 166.884 771.906 487.379
2947 0 62.3554 14.9787 934 171.702 771.558 484.837
2948 0 65.242 14.7298 961 166.134 771.693 483.058
2949 0 68.1676 15.1685 1034 163.014 771.977 481.766
2950 0 70.1988 15.2139 1068 166.018 771.779 480.615
2951 0 70.1971 15.6844 1101 162.475 771.556 479.875
2952 0 74.19 15.1773 1126 163.422 771.028 479.578
2953 0 77.0883 15.2033 1172 168.686 771.299 479.435
2954 0 79.2063 14.9988 1188 164.121 771.27 478.543
2955 0 80.1393 15.2235 1220 168.784 771.179 478.047
2956 0 83.2198 15.393 1281 162.308 771.222 476.643
2957 0 86.2348 15.4462 1332 172.552 771.229 475.658
2958 0 88.2731 15.3614 1356 170.367 771.176 474.775
2959 0 91.2068 15.4813 1412 166.111 771.342 474.23
2960 0 93.4524 15.7085 1468 171.219 771.183 474.142
2961 0 97.3041 15.467 1505 166.007 771.104 470.854
2962 0 100.243 15.6021 1564 168.07 771.063 468.954
2963 0 105.266 15.5701 1639 168.511 770.56 467.295
2964 0 107.146 15.7729 1690 165.061 770.095 465.316
2965 1 59.1018 14.2974 845 173.433 770.041 488.675
2966 0 62.1876 14.5849 907 164.151 769.583 487.954
2967 0 63.3537 14.9952 950 172.94 770.034 488.107
2968 0 65.3128 15.3416 1002 169.318 770.121 486.67
2969 0 67.4928 15.1423 1022 161.639 769.682 485.501
2970 0 69.1623 15.7745 1091 171.234 770.162 484.289
2971 0 72.514 15.1143 1096 167.128 770.068 483.104
2972 0 73.333 15.6137 1145 176.376 770.044 482.753
2973 0 74.3116 15.6772 1165 165.427 769.318 481.655
2974 0 81.4076 15.2443 1241 166.031 769.587 480.164
2975 0 82.2281 15.6273 1285 168.854 768.993 478.648
2976 0 85.2838 15.4777 1320 170.896 769.439 478.457
2977 0 88.3205 15.0814 1332 161.023 769.189 476.24
2978 0 91.2152 15.5895 1422 157.451 768.963 475.143
2979 0 95.3148 15.8213 1508 165.973 768.726 472.979
2980 0 99.514 17.274 1719 157.529 768.879 469.385
2981 0 104.336 17.7695 1854 149.773 769.132 466.607
2982 0 104.28 15.9667 1665 167.657 768.557 468.502
2983 0 110.322 16.9957 1875 155.228 768.943 465.249
2984 0 113.376 15.6207 1771 161.726 768.741 463.352
2985 0 118.396 15.4904 1834 162.22 768.69 461.696
2986 0 123.402 15.6724 1934 165.975 768.543 458.376
2987 1 66.2963 14.3447 951 170.734 769.25 485.261
2988 0 68.376 14.7713 1010 170.162 769.506 484.238
2989 0 71.261 15.0854 1075 167.267 769.595 483.166
2990 0 74.2847 14.781 1098 167.915 769.91 482.619
2991 0 75.2833 14.8639 1119 163.326 769.467 482.053
2992 0 80.4226 14.4735 1164 170.579 769.298 480.136
2993 0 82.1656 14.8724 1222 166.821 769.96 478.062
2994 0 83.2099 14.9261 1242 172.998 770.222 476.485
2995 0 88.2678 14.9205 1317 166.768 769.698 474.499
2996 0 90.1591 15.2175 1372 172.146 769.511 473.782
2997 0 94.3511 14.817 1398 171.018 769.59 472.867
2998 0 96.134 14.8959 1432 164.155 769.281 472.169
2999 0 99.1551 15.3497 1522 164.897 769.308 468.869
3000 0 104.17 15.1579 1579 167.46 769.718 467.06
3001 0 106.229 14.9771 1591 173.48 769.371 465.34
3002 0 111.215 15.4656 1720 163.801 769.788 462.278
3003 0 114.077 15.1477 1728 167.772 769.674 460.029
3004 0 119.142 15.0828 1797 166.634 768.922 456.579
3005 0 122.129 15.2216 1859 169.347 769.014 455.54
3006 0 127.183 14.7111 1871 158.855 769.192 453.842
3007 0 131.126 15.5652 2041 164.214 769.645 450.462
3008 0 135.246 15.091 2041 164.03 769.748 448.04
3009 0 140.111 15.188 2128 166.291 769.714 446.098
3010 0 143.332 15.356 2201 165.165 770.02 444.68
3011 0 150.265 15.2664 2294 159.675 770.582 441.373
3012 0 155.356 15.0493 2338 164.793 770.846 438.706
3013 0 160.191 15.1632 2429 162.869 771.228 435.161
3014 0 164.197 14.982 2460 156.855 771.122 432.387
3015 0 172.166 15.0204 2586 163.148 771.384 428.81
3016 1 80.1188 12.3567 990 160.219 770.97 474.027
3017 0 81.1234 12.857 1043 153.529 771.747 472.083
3018 0 84.0631 13.1806 1108 161.985 771.651 471.187
3019 0 86.1352 13.1421 1132 154.936 771.908 470.897
3020 0 91.0759 13.2637 1208 152.432 772.087 468.008
3021 0 92.1273 13.2751 1223 160.128 771.877 466.756
3022 0 96.1092 12.8916 1239 154.425 772.06 464.925
3023 0 100.095 12.9177 1293 161.607 771.585 463.852
3024 0 102.197 12.926 1321 151.916 771.213 461.061
3025 0 106.12 12.8251 1361 156.367 771.292 459.144
3026 0 109.211 12.8925 1408 152.266 771.081 458.305
3027 0 112.163 12.8117 1437 153.832 771.18 455.756
3028 0 116.303 13.1295 1527 150.872 771.208 452.819
3029 0 121.179 13.0386 1580 159.913 771.185 451.197
3030 0 123.133 12.9697 1597 156.57 771.261 449.083
3031 0 127.178 13.2255 1682 157.969 771.897 448.599
3032 0 131.289 13.2913 1745 157.115 772.83 445.293
3033 0 134.131 13.4421 1803 159.581 773.104 442.656
3034 0 138.282 13.4797 1864 160.546 772.698 440.767
3035 0 141.184 13.4009 1892 158.058 772.255 438.832
3036 0 146.208 13.5971 1988 158.787 772.395 437.778
3037 0 150.204 13.5949 2042 161.874 772.629 435.579
3038 0 154.356 13.6632 2109 155.871 772.39 432.296
3039 0 160.165 14.0231 2246 153.174 772.357 428.599
3040 0 166.119 13.8154 2295 157.482 772.558 425.556
3041 0 171.204 13.9658 2391 158.358 772.81 421.959
3042 0 177.24 14.1842 2514 154.462 772.879 418.899
3043 0 182.266 14.0838 2567 151.663 773.526 415.923
3044 0 190.326 14.2493 2712 157.162 773.553 413.544
3045 0 195.386 14.2538 2785 156.691 773.45 410.478
3046 0 201.448 14.4454 2910 154.303 773.819 404.644
3047 1 35.2152 9.34254 329 122.316 774.319 493.918
3048 0 36.2479 9.35227 339 127.242 774.708 494.177
3049 0 38.2825 9.4299 361 124.213 774.476 495.028
3050 0 36.3256 9.58002 348 133.322 773.764 494.167
3051 0 38.2842 9.61233 368 130.367 773.334 493.943
3052 0 40.2117 9.47484 381 133.785 773.858 494.016
3053 0 38.2336 10.3312 395 135.603 773.628 494.185
3054 0 39.3218 10.4268 410 134.168 774.29 493.868
3055 0 40.3053 10.4949 423 141.182 773.418 494.05
3056 0 41.1949 10.5838 436 138.8 774.002 494.099
3057 0 42.2226 10.6815 451 142.929 774.151 493.118
3058 0 42.1996 10.3556 437 140.389 774.343 492.824
3059 0 42.2485 10.6749 451 138.656 774.027 493.843
3060 0 41.1805 11.0003 453 145.422 774.113 493.938
3061 0 42.1709 11.0977 468 149.096 773.868 494.624
3062 0 44.2023 10.8592 480 153.483 773.508 494.544
3063 0 43.1061 11.3905 491 147.825 773.426 494.196
3064 0 43.1445 11.1949 483 156.673 773.538 494.327
3065 0 46.2658 10.9152 505 158.05 773.089 494.103
3066 0 45.1552 11.0729 500 160.428 772.97 494.122
3067 0 44.2316 11.598 513 154.444 772.838 492.961
3068 0 44.1569 11.5724 511 160.599 772.206 493.231
3069 0 45.1934 11.3512 513 161.347 772.52 493.63
3070 0 46.1937 11.1271 514 161.679 772.492 494.607
3071 0 44.0679 11.3461 500 167.624 772.074 494.916
3072 0 45.2348 11.385 515 161.781 772.602 494.357
3073 0 45.1972 11.837 535 165.69 772.284 493.882
3074 0 46.1167 11.7528 542 166.74 772.851 493.919
3075 0 46.2933 11.924 552 162.502 772.929 493.4
3076 0 46.1101 11.6243 536 160.056 772.715 494.244
3077 0 46.1668 12.0866 558 164.009 772.134 493.787
3078 0 47.123 11.7565 554 166.991 772.034 494.11
3079 0 46.0923 11.6722 538 161.576 771.374 494.442
3080 0 44.2313 12.0277 532 164.519 771.605 495.414
3081 0 47.0816 11.958 563 171.709 771.114 493.901
3082 0 45.1239 11.8119 533 164.371 771.169 494.353
3083 0 46.1038 11.8862 548 167.122 771.199 495.004
3084 0 48.0809 11.8966 572 160.981 771.378 493.278
3085 0 47.1364 11.5198 543 163.249 771.25 493.742
3086 0 47.2171 11.7542 555 169.218 770.991 493.56
3087 0 47.1777 11.6157 548 165.363 771.254 493.327
3088 0 48.2366 11.6302 561 165.447 770.766 494.155
3089 0 43.1102 11.5054 496 168.49 771.101 495.427
3090 0 49.1446 11.3746 559 163.53 771.03 493.989
3091 0 48.1488 11.506 554 159.773 770.762 493.832
3092 0 48.2579 11.3971 550 159.758 770.935 494.104
3093 0 48.1264 11.9477 575 159.642 770.318 494.254
3094 0 48.1147 12.0961 582 155.897 771.125 493.931
3095 0 48.1268 11.719 564 163.97 770.243 494.679
3096 0 49.2011 11.4428 563 56.3499 769.877 494.055
3097 0 47.226 12.0696 570 165.614 770.4 494.772
3098 0 49.2448 11.6967 576 166.099 770.262 494.477
3099 0 48.2085 11.9481 576 168.226 770.851 494.96
3100 0 49.2273 11.7821 580 167.29 771.222 493.707
3101 0 48.1456 12.2545 590 166.981 771.086 492.48
3102 0 49.1816 11.9963 590 164.959 771.125 493.868
3103 0 49.1407 11.7418 577 154.877 771.154 492.484
3104 0 50.188 12.0746 606 166.261 771.394 493.488
3105 0 49.2858 12.3971 611 162.38 771.642 493.987
3106 0 49.0723 12.125 595 153.034 771.711 492.842
3107 0 48.1888 12.783 616 142.284 771.192 492.411
3108 0 50.1784 12.0171 603 169.141 771.544 492.463
3109 0 51.1638 11.688 598 168.682 770.07 491.462
3110 0 50.0972 12.336 618 168.406 770.892 491.314
3111 0 51.112 12.3259 630 164.878 771.47 491.062
3112 0 51.1295 12.2239 625 168.573 771.085 491.162
3113 0 51.1537 12.4918 639 164.612 771.347 490.462
3114 0 52.2186 12.2562 640 165.438 771.684 491.98
3115 0 51.1304 12.3606 632 174.342 771.5 491.612
3116 0 50.208 12.3287 619 166.507 770.843 490.801
3117 0 51.1073 12.5422 641 164.204 770.534 490.591
3118 0 51.3732 12.5941 647 157.845 771.011 490.414
3119 0 51.1232 12.421 635 162.717 770.759 489.024
3120 0 51.1708 12.214 625 171.75 770.522 489.632
3121 0 52.1424 13.1179 684 160.374 770.949 489.699
3122 0 50.1277 12.4682 625 170.197 771.229 489.123
3123 0 51.2245 12.8845 660 169.142 770.845 487.194
3124 0 51.3809 12.8452 660 163.947 770.897 488.303
3125 0 51.4149 12.6228 649 154.082 771.419 488.582
3126 0 51.4002 13.1517 676 168.436 770.967 488.541
3127 0 51.3789 13.3323 685 161.924 771.104 488.489
3128 0 50.2975 13.3804 673 162.306 771.062 487.776
3129 0 51.2756 12.9496 664 165.596 771.625 487.876
3130 0 52.4579 12.6006 661 165.463 771.897 488.115
3131 0 52.3615 12.5474 657 156.416 772.128 487.939
3132 0 53.3916 12.6237 674 164.788 772.079 489.571
3133 0 51.4017 12.665 651 161.833 771.963 489.131
3134 0 51.2575 12.9737 665 167.926 772.507 489.268
3135 0 52.2783 12.4717 652 161.399 772.032 488.27
3136 0 52.3338 12.8406 672 166.376 772.702 488.917
3137 0 51.3607 12.8892 662 159.242 772.615 487.967
3138 0 52.3056 12.6755 663 165.268 772.964 487.713
3139 0 52.2988 12.5815 658 164.868 772.998 487.129
3140 0 52.2575 12.5915 658 152.191 773.301 487.305
3141 0 53.3264 12.8454 685 166.547 773.123 487.047
3142 0 54.3352 12.6253 686 165.102 773.414 487.773
3143 0 52.2454 12.5944 658 163.901 773.28 487.515
3144 0 52.2955 12.9265 676 168.231 773.72 487.626
3145 0 52.203 12.3364 644 168.713 773.242 488.534
3146 0 52.2824 12.9298 676 170.442 773.709 488.402
3147 0 53.3303 12.6195 673 164.125 773.153 488.15
3148 0 53.2623 13.0111 693 154.701 772.736 486.822
3149 0 51.4785 12.9957 669 161.91 771.922 486.441
3150 0 53.2741 13.2147 704 161.3 772.744 486.713
3151 0 53.1693 13.0526 694 166.651 772.182 488.548
3152 0 53.3963 12.7912 683 160.706 772.732 487.575
3153 0 51.3185 13.1726 676 166.405 772.33 486.852
3154 0 52.1931 13.6225 711 161.65 772.39 487.325
3155 0 54.1726 13.1247 711 165.083 772.176 487.57
3156 0 52.3814 12.9626 679 160.194 772.268 489.558
3157 0 52.3084 12.866 673 160.311 771.963 489.204
3158 0 53.2877 13.3239 710 162.375 772.641 489.266
3159 0 51.2761 13.4956 692 168.772 772.4 488.897
3160 0 53.4232 12.9719 693 165.266 772.384 489.271
3161 0 51.2126 13.5318 693 159.909 772.541 488.836
