time division length width area intensity CMx CMy
0 0 52.0679 11.8883 619 63.1292 48.1325 503.494
1 0 55.0556 11.8426 652 62.6166 48.638 503.609
2 0 57.0437 11.5175 657 63.2435 48.4201 503.834
3 0 59.0565 13.9358 823 59.7947 48.791 503.429
4 0 60.0916 11.7321 705 63.1943 49.0128 503.009
5 0 59.0273 12.8923 761 62.2773 48.3614 502.602
6 0 64.1163 14.8948 955 57.7696 47.7592 504.846
7 0 63.1011 12.789 807 62.0161 47.1165 502.99
8 0 67.0231 13.0552 875 60.9349 46.5646 502.155
9 0 66.1626 11.6682 772 64.2733 47.6801 500.146
10 0 68.0672 11.5768 788 64.0964 48.1409 500.147
11 0 71.0958 13.517 961 60.7294 47.1717 499.251
12 0 74.0556 12.6932 940 61.9362 47.5915 498.69
13 0 74.0921 12.3765 917 63.0371 47.2497 496.904
14 1 38.0208 10.994 418 63.433 47.4187 515.079
15 0 41.0222 11.506 472 62.5 46.714 513.199
16 0 43.0213 12.2962 529 61.4707 47.1853 514.319
17 0 41.0224 11.5303 473 64.0507 47.3002 513.378
18 0 43.0719 12.2586 528 63.2462 46.9773 512.271
19 0 46.0238 12.7977 589 61.326 48.2496 513.107
20 0 46.0502 13.3984 617 61.6272 47.269 511.848
21 0 46.0258 12.6885 584 63.774 46.5497 509.599
22 0 48.0164 10.8713 522 65.9636 46.8525 510.818
23 0 50.0573 13.0051 651 62.7127 47.3333 509.677
24 0 52.0585 13.6577 711 61.6203 47.3094 510.305
25 0 53.0961 13.6357 724 63.0304 47.1561 508.862
26 0 56.0494 13.9877 784 62.0089 47.3316 507.624
27 0 57.0525 12.2694 700 64.9529 47.7043 506.297
28 0 55.053 12.4062 683 66.0205 46.8448 506.256
29 0 58.0119 13.5317 785 64.4064 47.349 504.609
30 0 59.0669 13.4593 795 63.7195 47.9686 506.693
31 0 59.0624 12.2074 721 66.6006 47.8308 505.205
32 0 61.0316 11.5514 705 66.8028 48.3007 505.776
33 0 62.1059 13.4126 833 65.3974 47.2509 500.87
34 0 66.1574 14.3295 948 63.5897 48.0032 500.189
35 0 66.0627 14.2138 939 64.246 48.2034 499.694
36 0 69.129 13.511 934 64.7452 48.2516 499.396
37 0 71.1197 13.1187 933 64.4737 47.7063 501.469
38 0 73.0826 12.9306 945 65.1101 47.6646 500.239
39 0 73.1014 12.3117 900 66.5644 48.2189 497.971
40 0 76.0837 12.6045 959 65.6611 48.5349 498.521
41 0 79.0452 12.8408 1015 65.3931 48.6 497.543
42 0 82.0883 12.2551 1006 66.9523 48.5606 494.737
43 0 83.0454 12.5353 1041 67.4371 48.8021 495.032
44 0 85.1485 13.682 1165 66.0884 48.5751 490.836
45 0 86.2331 12.0371 1038 68.3507 47.9383 491.976
46 1 47.0614 12.643 595 65.1361 49.2252 510.731
47 0 48.0441 12.7799 614 65.9788 49.2427 510.607
48 0 47.0195 12.1226 570 67.6368 49.0175 510.846
49 0 50.0327 11.4325 572 69.0839 49.1364 509.586
50 0 49.0319 10.1159 496 71.3387 49.2077 510.603
51 0 56.0734 11.6633 654 68.656 49.156 507.552
52 0 55.0577 11.7513 647 68.6538 49.1221 508.309
53 0 55.0503 12.3887 682 68.3959 49.7155 506.57
54 0 58.0964 13.0473 758 67.9617 49.6847 504.574
55 0 61.1204 12.0582 737 68.1452 48.9946 505.516
56 0 62.0325 13.1866 818 66.8985 49.4951 505.644
57 0 63.0975 11.8071 745 69.7409 49.4523 503.019
58 0 66.0624 13.4872 891 67.2189 50.1358 501.259
59 0 66.0677 11.579 765 70.7242 49.4431 498.895
60 0 68.1035 12.0258 819 70.4542 49.3162 498.114
61 0 71.1157 11.7977 839 70.9309 48.969 497.225
62 0 74.0606 12.3413 914 70.2845 49.5427 496.755
63 0 74.0672 11.5436 855 71.8257 48.9778 495.139
64 0 79.0937 13.2627 1049 69.0448 49.0591 495.46
65 0 81.039 12.0559 977 71.5916 49.0819 494.27
66 0 82.05 11.9074 977 73.1996 49.4893 492.048
67 0 83.0744 10.4846 871 75.9667 49.3077 491.548
68 0 90.096 12.742 1148 72.615 49.5497 490.71
69 0 88.123 11.4953 1013 75.3425 49.0711 488.676
70 0 92.1737 13.1925 1216 73.5666 49.5502 486.773
71 0 93.1339 13.2927 1238 73.5501 49.1502 488.163
72 0 96.0951 12.6749 1218 74.5969 49.032 487.042
73 1 50.0209 10.5556 528 75.0246 48.8788 508.869
74 0 52.0645 10.8519 565 75.4106 49.246 504.782
75 0 52.0258 11.4751 597 74.2998 48.5645 507.296
76 0 55.0488 11.953 658 74.8754 49.0182 503.616
77 0 58.0549 13.1255 762 72.4633 49.0052 505.289
78 0 60.0977 12.513 752 73.3923 48.0253 503.745
79 0 62.1068 11.6895 726 73.9986 49.2135 504.266
80 0 65.0314 12.8553 836 72.6017 49.6364 502.112
81 0 64.1053 12.3079 789 74.7288 49.2294 501.455
82 0 66.0633 11.5344 762 75.8176 49.9751 500.971
83 0 70.0883 12.0277 843 75.1483 50.0036 499.018
84 0 71.0404 13.1052 931 74.754 50.0215 496.773
85 0 74.0879 11.7968 874 75.9085 49.0217 497.978
86 0 78.0805 13.4989 1054 73.0275 49.1708 496.953
87 0 76.1057 11.3132 861 77.446 49.2207 496.213
88 0 80.1935 12.819 1028 74.8035 49.0195 494.115
89 1 40.0621 11.1078 445 74.6247 50.2292 511.978
90 0 42.0294 10.7782 453 75.3157 50.457 512.002
91 0 43.0339 11.8279 509 73.9902 50.3536 512.092
92 0 46.0124 12.5618 578 71.9446 50.2872 511.55
93 0 44.0726 11.2315 495 76.0101 50.3697 511.481
94 0 47.0228 11.0372 519 76.0713 50.4817 509.116
95 0 47.0557 11.2207 528 75.6913 50.1439 509.515
96 0 48.0331 10.0972 485 76.6 49.5381 511.396
97 0 49.0818 10.4723 514 76.7023 50.2938 510.066
98 0 51.0896 12.116 619 74.3102 49.5961 508.496
99 0 53.06 12.1937 647 74.2195 50.1345 507.376
100 0 54.0387 12.0839 653 73.124 49.83 508.276
101 0 55.0628 12.7854 704 73.125 49.5312 505.578
102 0 57.0882 12.2092 697 73.8379 49.6471 504.168
103 0 59.0295 12.4006 732 73.776 50.3361 505.038
104 0 59.0294 11.8585 700 75.9157 50.1471 501.801
105 0 62.0363 12.5249 777 75.094 49.3526 499.418
106 0 65.0441 13.1449 855 73.531 50.2421 501.415
107 0 64.0554 12.4267 796 74.5289 49.1972 501.838
108 0 66.043 12.1436 802 76.495 48.7905 498.42
109 0 69.1285 12.5997 871 75.4971 49.6223 497.75
110 0 72.2075 12.1456 877 76.3535 49.0296 497.506
111 0 73.041 12.8969 942 76.8747 49.483 493.522
112 0 76.0329 11.6529 886 78.4492 50.1321 496.35
113 0 79.0812 12.8096 1013 76.2853 49.5301 495.711
114 0 81.125 11.5131 934 79.2762 49.5803 492.35
115 0 82.097 11.3646 933 80.224 49.4191 491.824
116 0 86.0744 12.0593 1038 79.526 50.3035 491.654
117 1 45.0653 11.3391 511 78.1018 50.0998 510.554
118 0 49.1908 12.299 605 75.1769 49.9058 509.612
119 0 51.0531 11.1453 569 77.5448 50.4025 508.798
120 0 51.0414 10.9715 560 78.6768 49.7357 507.904
121 0 51.021 13.4846 688 74.7485 49.9564 506.196
122 0 54.0694 11.9661 647 77.0371 50.5363 505.603
123 0 53.072 10.6082 563 79.8011 49.9201 504.544
124 0 56.0563 11.5598 648 76.9506 50.0031 505.008
125 0 58.0523 12.5576 729 75.8903 49.8162 503.811
126 0 59.1006 12.5041 739 76.9594 49.8796 500.081
127 0 62.0534 12.9243 802 75.0711 49.6446 501.501
128 0 63.0702 13.8417 873 72.9061 49.8351 502.234
129 0 65.1586 12.5693 819 75.8474 49.0598 499.608
130 0 68.1847 11.7475 801 77.6517 48.7416 497.788
131 0 70.0832 11.9144 835 76.7713 48.6108 499.95
132 0 71.1501 12.818 912 76.0537 49.0592 496.98
133 0 74.1139 11.6038 860 78.1907 49.3837 495.495
134 0 73.1156 11.8853 869 78.6421 48.786 494.968
135 0 78.1198 12.8137 1001 77.1479 49.6773 493.104
136 0 81.1799 11.2343 912 78.614 50.4178 495.086
137 0 84.2312 11.4091 961 79.0583 50.1935 492.272
138 0 85.1539 12.1662 1036 78.7539 49.9672 491.184
139 0 87.1161 11.4215 995 80.5497 49.3397 489.328
140 0 91.1718 12.5148 1141 78.5933 49.0798 491.09
141 0 93.2407 12.4731 1163 79.6432 49.5795 488.447
142 1 51.1656 12.098 619 78.7367 49.643 506.89
143 0 52.1047 12.7436 664 77.2214 50.2078 506.89
144 0 53.0588 12.0244 638 79.2586 50.4812 505.845
145 0 53.0404 12.4056 658 79.655 50.3723 503.936
146 0 56.1011 10.9623 615 80.5447 50.2715 505.216
147 0 59.043 11.3138 668 80.2425 49.482 504.269
148 0 60.0843 12.0331 723 78.9419 48.9322 503.992
149 0 61.0247 13.3716 816 77.2426 48.9167 501.505
150 0 62.099 10.7892 670 80.8224 49.1104 503.31
151 0 65.1955 12.4702 813 79.369 49.5338 499.216
152 0 67.0804 12.4925 838 78.352 49.4511 500.402
153 0 68.108 12.8179 873 78.5808 49.307 499.225
154 0 70.0866 11.7854 826 80.5884 49.023 499.472
155 0 72.0455 12.4505 897 79.9498 50.0992 497.882
156 0 75.0484 13.5113 1014 79.2525 50.2308 495.519
157 0 76.1013 11.4453 871 81.7015 50.1286 494.673
158 0 79.0597 10.2201 808 82.1089 49.7661 496.408
159 0 83.1284 12.4506 1035 79.8995 49.0348 492.276
160 1 43.0759 11.0038 474 78.7152 48.8671 513.555
161 0 44.1244 10.765 475 81.2463 48.8842 510.907
162 0 46.0705 11.8297 545 80.4275 49.0807 509.332
163 0 46.0455 11.5538 532 80.4004 49.985 509.93
164 0 48.1136 11.9509 575 79.7339 50.0365 509.91
165 0 50.1121 13.1705 660 77.6773 49.5545 506.982
166 0 51.1463 11.8875 608 80.4013 49.9408 505.536
167 0 54.1347 12.5982 682 77.912 49.4604 505.545
168 0 54.1122 12.2893 665 78.988 49.6165 505.678
169 0 57.027 12.082 689 78.6763 49.8316 503.38
170 0 57.0612 12.6881 724 79.047 49.8218 502.142
171 0 59.1218 12.0937 715 79.5762 49.5566 501.151
172 0 62.0637 12.7933 794 77.0642 49.9673 502.028
173 0 64.0535 12.552 804 78.5187 50.5697 500.303
174 0 67.0764 13.4324 901 75.9811 50.0755 499.999
175 0 69.1158 12.3127 851 78.0165 50.3666 498.575
176 0 70.095 12.5116 877 78.0182 50.1539 497.023
177 0 72.0679 13.6399 983 76.6348 49.1892 495.927
178 1 37.0361 11.1513 413 76.2155 49.4649 513.971
179 0 37.0737 10.7624 399 78.3183 49.6115 511.471
180 0 37.0296 11.6933 433 77.9908 48.8453 511.573
181 0 41.0418 12.3776 508 74.4902 48.1378 512.917
182 0 42.0581 12.0072 505 74.4277 48.202 513.15
183 0 41.0846 12.243 503 76.2445 48.5388 512.175
184 0 43.0511 11.8696 511 76.9628 47.7691 511.139
185 0 44.098 11.8599 523 77.2677 48.3671 511.178
186 0 47.0873 11.5955 546 76.6209 48.0916 511.038
187 0 45.0691 11.5378 520 78.5962 48.1154 510.181
188 0 48.0215 12.0155 577 76.0555 47.0173 509.274
189 0 50.0554 12.1066 606 76.1584 46.4604 508.409
190 0 51.0745 12.5307 640 75.8812 46.3984 507.062
191 0 52.0837 12.0767 629 76.5707 45.461 507.884
192 0 54.145 12.5958 682 74.6818 45.8798 507.387
193 0 53.16 12.1708 647 76.8145 45.7975 506.787
194 0 55.1486 11.3512 626 77.7412 45.8562 506.623
195 0 58.1046 13.252 770 73.9468 45.8325 507.278
196 0 61.1318 12.7757 781 74.3239 46.4289 507.294
197 0 63.0382 13.706 864 72.6273 45.353 506.267
198 0 62.0824 12.5156 777 76.8121 45.3127 504.366
199 0 65.1098 12.3637 805 77.005 45.2224 502.848
200 0 69.2369 13.4466 931 74.2481 45.5349 502.373
201 0 68.1149 11.4953 783 78.7267 44.894 501.332
202 0 73.0937 13.5306 989 74.3064 45.2386 500.07
203 0 76.2105 12.2949 937 76.4205 45.7353 499.945
204 0 79.1707 13.8309 1095 73.6329 45.4584 499.493
205 1 39.0977 10.0517 393 77.7888 44.8372 516.982
206 0 43.0282 11.016 474 74.9494 45.7004 517.833
207 0 40.0537 12.7079 509 75.277 44.776 515.639
208 0 43.0638 11.0998 478 76.0377 44.3264 516.4
209 0 46.1573 12.1324 560 74.5643 45.1464 515.48
210 0 46.1259 12.5092 577 74.2028 45.1231 515.367
211 0 48.1184 12.3861 596 73.4581 44.9832 515.292
212 0 50.1491 13.1408 659 71.8058 44.8725 514.094
213 0 49.0573 11.6191 570 74.8684 44.2421 513.479
214 0 52.2137 12.1999 637 73.6028 43.4144 513.152
215 0 51.1942 10.7043 548 76.8303 43.7354 511.726
216 0 54.1896 12.7515 691 72.6541 43.9349 512.13
217 0 57.0666 11.7932 673 73.575 43.1278 509.814
218 0 59.2171 13.3238 789 71.6084 43.0786 506.351
219 0 60.1257 10.5945 637 74.8917 43.584 508.338
220 0 61.1715 13.2905 813 71.4465 43.5092 503.755
221 0 64.1335 12.7391 817 71.9657 43.8152 503.195
222 0 66.094 11.8922 786 72.4377 43.6489 504.87
223 0 70.21 12.7332 894 71.0794 43.3233 503.121
224 0 72.1252 13.4211 968 70.0599 43.7655 498.513
225 0 73.211 12.9215 946 70.9926 44.0592 498.14
226 0 75.2326 13.106 986 70.4706 43.7525 495.943
227 0 76.1061 12.4563 948 71.6835 43.7848 495.345
228 0 81.0576 12.1765 987 71.0486 42.9726 495.073
229 0 83.201 12.9446 1077 70.0204 42.61 493.106
230 0 85.226 12.3084 1049 71.0667 42.8189 491.561
231 1 44.0607 11.0302 486 70.821 43.5267 512.198
232 0 44.2311 10.3547 458 72.4913 43.2882 511.218
233 0 47.1331 11.4145 538 70.1989 43.816 509.638
234 0 48.1053 12.6805 610 68.8016 43.1836 508.311
235 0 50.1158 11.7528 589 69.8913 43.3786 507.311
236 0 53.2764 12.1254 646 68.1796 43.4768 506.317
237 0 55.0546 11.643 641 68.1388 43.9813 506.457
238 0 54.1348 11.5637 626 69.9968 43.508 503.216
239 0 56.0634 11.5583 648 68.5679 43.0818 504.926
240 0 59.0869 12.727 752 66.9521 43.8165 502.09
241 0 60.0865 10.9675 659 68.6434 44.041 501.657
242 0 62.0378 13.2661 823 65.3305 44.678 501.241
243 0 65.0717 12.248 797 65.8143 43.1769 499.02
244 0 68.0568 12.0928 823 65.6015 43.3183 497.654
245 0 70.0266 13.6805 958 63.4916 43.7996 495.119
246 0 72.0674 11.4615 826 65.9031 43.3027 498.084
247 0 73.0831 12.1916 891 64.9966 43.8182 495.034
248 0 74.2381 11.6652 866 65.2691 43.2321 494.236
249 0 77.1896 11.1544 861 65.5726 43.7515 493.951
250 0 82.2083 11.7506 966 64.2981 43.764 493.923
251 0 84.109 12.3173 1036 63.7066 44.5222 492.735
252 0 87.1486 12.7713 1113 63.1788 43.8706 488.766
253 0 91.1138 11.7875 1074 64.3482 44.1387 488.893
254 1 47.0851 10.0456 473 63.7738 44.7526 509.818
255 0 50.0304 10.4736 524 63.1889 44.7061 508.792
256 0 51.1176 10.6617 545 63.6862 44.2752 508.846
257 0 54.1107 11.6613 631 62.1965 44.6862 507.176
258 0 54.0395 11.325 612 62.7729 43.9395 508.556
259 0 57.1059 11.3298 647 61.7372 43.7141 507.892
260 0 58.0655 10.6776 620 62.9952 44.1484 506.427
261 0 59.1169 11.4688 678 61.9454 43.7655 504.739
262 0 61.0984 10.9823 671 62.1759 43.5708 505.095
263 0 61.1755 12.1944 746 60.7882 43.8995 501.295
264 0 64.2798 11.7766 757 60.8468 44.2259 503.055
265 0 66.3716 12.204 810 61.0654 43.9 500.088
266 0 68.2897 11.173 763 62.0511 43.8008 500.602
267 0 72.1417 12.1428 876 60.6153 44.274 500.674
268 0 76.1287 12.9386 985 59.1838 44.2426 501.34
269 0 76.1901 13.1251 1000 59.547 44.103 500.403
270 0 76.2241 10.7446 819 62.9182 44.022 498.137
271 0 81.212 12.6582 1028 60.6644 44.2033 496.105
272 1 42.0741 11.3609 478 61.136 44.2552 513.253
273 0 44.0673 11.7094 516 59.6938 43.2849 517.647
274 0 47.0726 10.8556 511 61.2583 43.9432 515.299
275 0 46.0408 11.0988 511 61.2035 43.5479 514.841
276 0 49.0627 10.7414 527 61.0645 43.7324 515.843
277 0 48.0713 11.0253 530 61.8698 43.066 514.113
278 0 49.0414 9.6857 475 63.4 43.9074 514.84
279 0 50.0414 9.01253 451 64.286 42.5876 514.882
280 0 54.0497 11.0639 598 62.291 42.0184 512.604
281 0 55.1756 12.2699 677 60.644 42.808 510.725
282 0 54.0604 10.9322 591 63.6396 42.8274 510.45
283 0 57.0707 10.9864 627 62.1435 42.7448 511.123
284 0 59.083 11.8985 703 60.9161 42.2461 509.42
285 0 62.0951 11.1764 694 61.5562 41.83 507.28
286 0 63.1026 10.3799 655 62.574 42.2855 506.794
287 0 65.1195 12.884 839 59.4172 42.6114 506.411
288 0 65.1167 11.1339 725 62.1545 42.5517 501.674
289 0 69.1126 10.8229 748 61.4184 42.488 503.537
290 1 35.0261 9.42155 330 59.8788 42.9879 518.836
291 0 34.0665 10.0686 343 59.965 43.1458 518.665
292 0 38.021 9.91557 377 58.8647 43.1883 520.297
293 0 38.0221 10.5465 401 58.7955 43.581 518.491
294 0 39.0139 11.6625 455 57.8264 43.2 517.101
295 0 40.0754 9.30745 373 59.5845 44.5094 518.804
296 0 40.0641 10.6829 428 59.2009 43.7897 516.568
297 0 42.1069 10.0221 422 60.9645 41.8531 515.896
298 0 45.1333 10.3471 467 60.9101 41.4069 513.161
299 0 47.1261 11.0979 523 59.0803 41.4761 514.673
300 0 48.1371 12.2359 589 58.1579 41.837 512.593
301 0 49.1138 10.9134 536 59.4907 41.666 512.172
302 0 49.0998 11.2424 552 59.6341 41.3007 511.214
303 0 51.1949 11.0363 565 60.1044 41.3381 508.988
304 0 51.1571 9.91065 507 61.2978 41.6489 510.937
305 0 53.2922 10.9022 581 60.0723 41.3287 508.657
306 0 56.3632 11.7453 662 58.9758 41.9668 507.405
307 0 57.1159 10.1898 582 60.3402 41.6203 507.746
308 0 57.1784 10.9132 624 60.0946 41.2772 506.106
309 0 59.137 11.6171 687 59.3348 41.9505 504.045
310 0 63.1369 11.3563 717 59.145 41.9861 503.845
311 0 63.1156 10.7264 677 60.5318 41.5037 503.496
312 0 65.1778 12.7191 829 58.1556 42.2147 502.372
313 0 67.2722 11.6244 782 59.298 42.3696 501.29
314 0 67.1789 10.1967 685 61.1197 41.8423 500.701
315 0 71.1679 9.41436 670 60.4119 41.6 502.125
316 0 74.1283 11.9253 884 58.5396 41.4943 497.058
317 0 75.2731 11.5181 867 59.1696 41.9896 498.01
318 0 77.2822 10.0541 777 60.8842 41.7362 491.353
319 0 79.0746 11.0149 871 59.6383 41.8565 494.806
320 1 44.0262 10.4029 458 57.9803 42.4694 512.616
321 0 44.1377 9.71958 429 58.9487 43.289 512.734
322 0 46.0519 8.66413 399 60.5163 43.589 511.922
323 0 45.0656 9.58603 432 58.7917 43.4051 513.373
324 0 48.0207 10.912 524 58.4313 43.0344 510.208
325 0 50.0104 10.9977 550 57.7582 42.6218 509.647
326 0 50.0427 11.4103 571 57.9965 42.4904 508.97
327 0 53.1544 12.0216 639 57.446 41.2707 506.225
328 0 55.163 10.7862 595 58.558 41.6252 508.728
329 0 58.0282 12.425 721 56.6436 42.405 507.044
330 0 57.0604 10.1471 579 59.7323 41.6822 505.713
331 0 60.089 10.6675 641 58.61 41.7114 504.76
332 0 60.1879 10.7497 647 58.6553 41.3338 504.093
333 0 62.1348 9.81737 610 59.9836 42.5525 502.634
334 0 64.1508 10.2103 655 59.5405 40.9115 499.482
335 0 68.2401 11.9138 813 57.1451 40.984 499.921
336 0 71.1727 11.17 795 58.0679 40.8579 497.409
337 0 73.0895 11.8074 863 56.9768 41.5423 498.838
338 0 72.0952 10.611 765 59.1882 41.6601 494.929
339 0 75.2692 10.8145 814 58.5037 41.5848 494.541
340 0 79.1073 10.8334 857 59.0093 42.0152 493.035
341 0 80.1933 11.809 947 57.8321 41.51 490.691
342 0 84.2922 11.1161 937 58.4589 41.1878 490.719
343 1 42.0518 10.4871 441 56.8753 41.2313 512.361
344 0 44.0124 10.747 473 55.6342 41.0719 511.717
345 0 46.0644 11.5925 534 55.882 42.2678 508.918
346 0 48.0247 10.682 513 56.0624 41.2398 512.082
347 0 48.1197 10.1206 487 59.0164 42.2526 508.004
348 0 49.0991 11.7517 577 56.2322 41.9723 509.506
349 0 51.2392 11.378 583 57.2178 42.1355 507.209
350 0 54.065 11.6526 630 56.7302 42.0667 505.124
351 0 53.0306 10.2205 542 59.0683 42.2694 504.138
352 0 57.1812 10.3531 592 57.2568 42.027 506.917
353 0 58.1065 11.5478 671 57.4173 42.1818 502.462
354 0 60.117 11.644 700 56.9386 42.1814 503.084
355 0 60.0941 11.2157 674 57.2908 41.4911 502.28
356 0 64.0598 11.7546 753 56.4236 41.6985 498.575
357 0 64.1253 10.8693 697 57.5725 42.1191 497.977
358 0 68.1087 11.7019 797 56.5822 42.6437 500.241
359 0 69.1942 10.8246 749 57.8798 42.4593 496.25
360 0 70.0456 11.5639 810 57.2543 42.8494 495.199
361 0 74.1264 13.0723 969 54.9876 42.6471 493.817
362 0 76.1625 11.5017 876 56.7603 41.976 494.798
363 0 79.1462 12.4074 982 55.6049 42.3605 491.821
364 0 79.0943 9.4065 744 59.6331 42.3871 491.462
365 0 84.1524 14.2123 1196 53.7634 41.8562 489.63
366 0 85.1371 10.395 885 58.5322 42.5887 489.346
367 1 43.0213 11.1805 481 57.1622 42.6383 507.996
368 0 43.0259 10.0172 431 57.1206 42.3944 511.116
369 0 46.037 10.6871 492 57.7317 42.2236 507.998
370 0 46.1812 10.3722 479 58.3612 41.5866 508.449
371 0 46.0169 9.04017 416 59.9591 41.6923 508.666
372 0 50.0371 12.8704 644 55.618 41.5093 505.835
373 0 51.0302 11.1503 569 57.8805 42.3251 506.578
374 0 53.0738 11.1166 590 57.6915 43.0746 505.475
375 0 53.079 10.5315 559 59.0054 42.8945 505.846
376 0 55.0928 11.9253 657 57.1826 42.6469 505.486
377 0 59.0732 12.6961 750 56.5147 43.08 503.227
378 0 57.0558 11.6027 662 58.432 42.6873 501.79
379 0 57.0703 10.7587 614 60.1466 42.4463 501.834
380 0 61.0736 11.4452 699 58.2861 42.6209 500.402
381 0 61.0839 9.64247 589 61.0594 41.9321 499.62
382 0 63.0701 12.5258 790 57.681 41.6962 499.49
383 0 64.0802 11.4856 736 59.0299 42.0734 499.065
384 0 66.0423 11.5986 766 58.7689 42.5953 498.803
385 0 70.1492 13.0579 916 56.9203 42.6681 500.265
386 0 69.1111 11.6335 804 59.6244 41.9415 497.144
387 0 72.1178 11.4535 826 59.4443 41.6453 495.742
388 0 74.0792 11.6362 862 59.5568 42.3051 495.068
389 0 79.0535 12.6497 1000 57.906 41.841 492.83
390 0 82.1348 12.6865 1042 57.691 41.9386 493.394
391 0 85.1557 12.6239 1075 58.3377 41.9312 489.861
392 0 86.1925 12.4141 1070 58.7776 41.6178 491.236
393 1 43.0265 10.4354 449 60.0445 42.4633 508.958
394 0 49.0469 10.9895 539 57.9518 42.6456 510.679
395 0 49.0658 9.78278 480 60.0604 42.325 509.156
396 0 48.057 10.217 491 60.5499 42.7556 507.908
397 0 51.0362 10.4044 531 60.4953 43.1299 506.456
398 0 52.0391 11.6835 608 59.176 42.8684 506.737
399 0 54.0937 12.4599 674 58.4733 42.4703 508.438
400 0 57.039 12.0619 688 58.5698 42.7747 505.926
401 0 56.0319 10.726 601 61.0416 43.0765 505.822
402 0 58.0957 11.963 695 60.5165 43.305 502.435
403 0 60.1065 12.5278 753 59.1567 42.9044 502.349
404 0 61.0589 12.2341 747 59.9665 42.2677 501.625
405 0 64.1544 13.2649 851 58.2691 41.8637 502.005
406 0 65.0408 12.7459 829 59.731 42.3269 499.046
407 0 65.079 11.4784 747 61.921 43.087 500.166
408 0 70.0693 12.8444 900 59.4856 42.7878 499.971
409 0 69.0648 12.7851 883 60.6897 42.6614 498.137
410 0 72.0384 12.299 886 61.8815 42.7404 495.102
411 0 74.1438 10.7359 796 63.7111 42.5101 496.662
412 0 79.1396 14.367 1137 59.2436 42.2902 494.349
413 0 79.0273 12.5653 993 61.6244 42.3082 494.567
414 0 82.0448 12.5176 1027 61.85 42.519 494.921
415 0 84.1009 12.5326 1054 62.9336 42.1357 492.306
416 1 43.0427 10.0598 433 64.4273 42.4388 510.245
417 0 47.0991 10.1488 478 63.9874 42.364 509.912
418 0 47.0525 10.9665 516 64.5795 42.1202 508.707
419 0 51.0819 10.9824 561 63.7772 42.7879 509.141
420 0 48.0339 11.7001 562 64.9911 42.4288 506.407
421 0 53.0195 12.486 662 63.0287 42.7523 507.73
422 0 54.1412 12.1349 657 64.2268 42.4901 507.791
423 0 55.0474 11.4629 631 65.1664 42.3106 506.648
424 0 57.0205 12.0483 687 64.4498 42.2285 507.263
425 0 59.1471 13.2044 781 63.0602 41.8912 505.599
426 0 60.1398 11.9222 717 65.1004 42.1785 504.755
427 0 62.0612 11.682 725 66.0759 41.8441 502.804
428 0 64.0491 11.6785 748 66.758 42.008 502.555
429 0 66.0498 13.6412 901 64.1743 42.4517 500.242
430 0 68.0969 12.0564 821 65.9233 42.5603 500.856
431 0 70.1538 12.7577 895 64.9106 42.3363 500.156
432 0 74.0797 14.6194 1083 62.0997 42.7258 500.796
433 0 75.1659 12.4525 936 66.1624 41.7532 496.732
434 0 77.0663 11.8729 915 67.0809 41.6754 495.143
435 0 81.0809 12.9747 1052 65.5837 41.6378 494.037
436 1 43.0517 10.4758 451 67.3348 42.7228 513.271
437 0 45.0326 11.8581 534 65.6236 42.7659 511.425
438 0 49.0846 11.5719 568 66.3292 42.9842 510.917
439 0 48.0492 11.9461 574 67.8763 42.4983 508.821
440 0 49.1061 11.2002 550 68.1509 42.66 510.271
441 0 52.106 12.9352 674 65.6424 42.2107 509.022
442 0 53.0787 11.2098 595 68.1412 41.8975 508.861
443 0 54.223 12.799 694 67.085 42.0086 504.718
444 0 55.1288 11.8269 652 68.7469 42.0613 506.087
445 0 58.0575 14.0034 813 65.6531 41.8991 503.705
446 0 58.0405 12.095 702 68.4587 42.0399 503.332
447 0 61.0686 13.231 808 66.3787 41.7933 502.222
448 0 62.1086 12.3815 769 67.7932 41.0702 500.575
449 0 64.1262 13.0056 834 66.7026 41.9113 501.028
450 0 68.1248 12.712 866 66.2644 42.4099 499.487
451 0 66.0951 12.4064 820 68.1073 41.8854 497.93
452 0 69.0745 12.3635 854 68.1241 41.9649 496.208
453 0 74.0808 12.8103 949 66.7482 41.8588 497.011
454 0 75.0801 12.6132 947 67.3442 42.4372 494.776
455 0 77.0776 12.7923 986 66.9422 42.0345 494.895
456 0 79.1532 11.9389 945 68.6222 42.6751 495.254
457 0 83.0544 12.5942 1046 67.066 41.8184 494.575
458 0 83.0534 11.1615 927 70.6149 42.6375 490.578
459 0 89.0831 12.146 1082 68.5397 42.3752 488.751
460 1 46.0958 9.00299 415 69.8627 42.412 512.795
461 0 49.0762 11.0848 544 68.6121 42.8768 509.483
462 0 51.1114 11.2108 573 68.3386 42.9058 509.874
463 0 53.0279 11.6542 618 67.0469 42.6246 510.806
464 0 53.0735 11.9457 634 69.2192 42.7681 506.702
465 0 55.0602 12.9495 713 67.0491 42.5764 506.41
466 0 56.0314 12.8499 720 68.0778 42.4583 502.811
467 0 58.0765 12.1219 704 68.2216 42.6065 505.338
468 0 61.1141 11.9449 730 68.5548 41.7301 503.019
469 0 60.241 12.9148 778 68.045 42.0488 503.578
470 0 64.1001 12.6053 808 67.3205 42.1176 503.371
471 0 67.2363 11.5116 774 69.1344 41.9096 501.353
472 0 68.1618 12.2796 837 68.4946 41.6786 499.64
473 0 68.1407 11.7698 802 69.7257 42.303 497.074
474 0 70.0625 12.2034 855 69.4772 42.8503 496.248
475 0 73.0487 12.17 889 69.378 41.7604 495.865
476 0 76.1102 12.1928 928 69.5075 41.4278 495.478
477 0 81.109 13.2908 1078 67.3089 41.3896 493.051
478 0 82.0878 12.9252 1061 68.2356 41.0047 493.45
479 0 83.1193 11.3211 941 71.1382 41.3401 490.25
480 1 41.0175 8.99615 369 71.3821 41.3117 510.396
481 0 41.0621 8.49933 349 72.851 40.9943 511.447
482 0 45.0214 10.8837 490 68.7694 41.1898 510.627
483 0 45.0183 9.92929 447 70.5257 42.2081 508.063
484 0 44.0225 10.3129 454 71.0286 42.2093 505.736
485 0 45.1413 8.37371 378 73.5635 41.2778 503.471
486 0 48.0985 11.1022 534 70.7584 41.6386 504.532
487 0 48.04 9.28393 446 73.5538 42.0471 504.424
488 0 49.1046 9.08265 446 72.8386 41.787 501.096
489 0 51.1189 7.7662 397 73.9647 41.8161 499.579
490 0 50.0942 8.04485 403 73.3474 41.2159 496.333
491 1 61.1016 11.2599 688 74.6628 41.6497 439.765
492 0 63.0578 10.6252 670 74.9209 41.3 436.079
493 0 62.0249 10.3346 641 75.5055 41.025 437.847
494 0 66.1197 11.0557 731 73.7086 41.368 431.345
495 0 70.0746 9.93227 696 74.6307 41.3635 428.967
496 0 74.1347 9.5232 706 74.4476 40.7195 425.738
497 0 74.0935 11.337 840 72.3929 40.4869 423.906
498 1 110.263 8.8334 974 74.9579 41.1201 438.503
499 0 107.141 5.51611 591 78.0186 40.5008 448.337
500 1 2 3 6 61.8333 39.6667 450.833
501 1 43.0194 7.64771 329 74.6778 40.2006 470.742
502 0 47.0241 9.08045 427 73.0445 40.5761 467.066
503 0 43.0459 10.6863 460 67.2152 41.6413 511.854
504 0 44.0467 10.8067 476 66.6534 42.1092 511.632
505 0 46.0616 10.9419 504 66.506 42.0774 510.395
506 0 46.0407 9.86084 454 68.4339 41.815 509.531
507 0 48.0503 11.4047 548 67.4015 40.1898 506.96
508 0 51.088 11.1768 571 67.0228 40.275 509.214
509 0 50.0943 10.4204 522 67.9847 40.569 509.795
510 0 53.1286 11.5004 611 66.527 40.3224 504.638
511 0 55.071 11.694 644 66.5388 40.3121 505.432
512 0 57.0778 11.7384 670 65.5642 40.2776 506.197
513 0 58.1157 11.5976 674 65.6528 40.7834 506.684
514 0 59.1037 10.913 645 67.2806 40.6233 504.169
515 0 62.0628 11.6173 721 65.1442 40.8863 504.72
516 0 63.048 11.182 705 66.3021 41.3574 502.735
517 0 67.1676 12.8633 864 62.9803 41.125 503.25
518 0 69.1295 12.6429 874 63.8673 41.5526 500.273
519 0 70.2123 14.0431 986 60.9331 40.5852 502.362
520 0 75.1469 14.638 1100 60.4327 40.2609 497.441
521 0 74.2595 12.2005 906 63.9272 41.1479 497.55
522 0 77.1006 12.2308 943 63.8823 40.8314 496.071
523 0 80.0894 11.2624 902 65.408 40.5078 494.972
524 0 83.0867 11.7107 973 64.4399 41.3011 495.144
525 0 87.2792 12.8209 1119 62.7775 40.9169 492.645
526 0 88.2075 12.9808 1145 63.8891 40.6987 487.859
527 0 90.2289 12.2688 1107 64.8564 40.2818 489.834
528 1 46.0816 11.892 548 63.4781 41.0785 512.272
529 0 47.1083 11.845 558 63.9032 41.0448 510.22
530 0 47.1872 10.6597 503 66.7058 41.5169 511.346
531 0 49.0553 10.743 527 66.5806 40.7192 510.514
532 0 50.0644 12.3841 620 64.9823 41.2161 509.418
533 0 52.1798 12.1311 633 64.7346 41.5276 510.52
534 0 52.0966 11.3443 591 67.1184 40.8088 507.041
535 0 53.1057 11.9949 637 66.5856 41.1538 505.84
536 0 54.019 11.57 625 67.3072 41.0384 505.656
537 0 55.2211 11.8071 652 66.9049 40.9156 504.675
538 0 58.066 11.9003 691 66.3517 41.1997 503.033
539 0 60.1361 11.2578 677 66.9719 40.9867 506.446
540 0 64.1778 11.5616 742 66.5728 41.5418 501.187
541 0 64.2137 12.0846 776 66.509 41.1662 501.21
542 0 66.0562 12.4137 820 66.05 41.0134 499.265
543 0 68.0303 12.7002 864 65.8403 41.7419 497.619
544 0 70.0487 11.492 805 67.4075 41.5627 498.955
545 0 73.0795 11.4122 834 67.2506 41.1655 496.878
546 0 77.1035 12.3859 955 66.0188 40.712 496.688
547 0 79.2076 12.8397 1017 65.4317 40.8928 495.153
548 0 84.1194 13.3501 1123 64.3348 40.3161 493.71
549 0 82.1079 11.3996 936 67.8707 40.1325 493.722
550 1 44.0068 10.612 467 66.7602 39.9936 512.852
551 0 45.0136 12.9516 583 64.7581 40.3877 511.298
552 0 47.0824 11.6392 548 67.0164 39.8449 511.102
553 0 48.0168 11.8708 570 66.7526 40.3035 510.746
554 0 49.0085 12.2836 602 66.9452 40.8272 508.309
555 0 52.1164 12.7599 665 66.4 40.4782 506.985
556 0 54.0533 12.0067 649 66.5054 41.3174 507.214
557 0 55.0349 11.8652 653 66.8913 41.2511 506.643
558 0 57.0499 12.2524 699 65.9728 41.0458 507.302
559 0 56.0422 12.5084 701 66.6191 40.3652 503.693
560 0 61.0487 12.2361 747 65.925 40.7108 504.408
561 0 62.0559 11.5058 714 67.2185 40.6821 503.948
562 0 62.0519 11.9577 742 66.9946 40.6429 502.282
563 0 66.0869 12.1809 805 66.6149 40.8807 499.8
564 0 65.0352 11.8397 770 67.9818 41.1338 498.582
565 0 68.0976 11.6891 796 67.4925 40.8995 499.955
566 0 71.0849 13.8567 985 64.6112 40.8772 495.595
567 0 75.0689 12.8815 967 64.6515 40.515 498.897
568 0 77.1006 13.2295 1020 65 40.6039 496.366
569 0 78.046 12.5311 978 66.4172 40.6094 494.963
570 0 82.0957 11.7911 968 66.6105 40.3709 495.74
571 0 84.1783 12.2359 1030 66.2223 40.1515 492.017
572 1 45.1198 10.594 478 66.249 41.6444 511.885
573 0 45.0404 10.0576 453 67.3223 41.0728 512.23
574 0 47.0404 9.7363 458 66.4563 41.1026 513.594
575 0 51.053 11.9288 609 65.0082 40.8949 511.419
576 0 50.1259 10.8926 546 67.2344 41.1154 508.489
577 0 51.0631 12.0243 614 64.7606 40.4691 509.015
578 0 55.0823 12.8172 706 63.6643 40.4037 507.585
579 0 53.0667 13.1909 700 64.5886 40.6357 506.473
580 0 57.0586 11.6897 667 65.8876 41.6642 507.864
581 0 58.0542 12.1783 707 66.2461 42.1089 504.103
582 0 61.0468 11.1881 683 66.2577 42.5095 506.018
583 0 64.1674 11.1271 714 65.6877 41.598 504.917
584 0 62.0983 12.3836 769 65.7659 41.6216 501.817
585 0 66.0456 12.2188 807 65.197 41.4349 502.069
586 0 67.1024 12.5182 840 65.669 41.7524 501.38
587 0 69.1239 12.8899 891 66.0045 42.1223 498.015
588 0 71.0798 12.296 874 66.6773 41.4828 497.038
589 0 73.1284 12.2798 898 66.794 41.7572 496.818
590 0 73.0869 11.4932 840 68.3333 42.2226 496.075
591 0 77.0853 12.1943 940 67.6957 42.5106 494.391
592 0 79.1644 12.7456 1009 67.0337 42.0198 492.702
593 0 82.1764 13.0573 1073 66.1156 41.3933 492.922
594 0 83.0713 11.3156 940 68.7074 41.4096 493.331
595 0 87.0955 11.6654 1016 68.3327 41.5285 490.487
596 0 87.0976 12.2506 1067 68.4864 41.2746 486.477
597 1 47.0453 10.8619 511 68.5284 41.7182 507.554
598 0 46.0286 8.99441 414 70.0797 41.558 511.457
599 0 47.0941 9.2793 437 71.8673 41.6362 506.657
600 0 50.0455 9.85104 493 69.9675 42.1846 510.114
601 0 52.0748 11.6563 607 67.2834 41.6903 507.384
602 0 53.0421 11.3872 604 69.2086 41.9437 508.127
603 0 56.0249 11.6734 654 67.9939 42.0015 508.768
604 0 55.0226 10.9955 605 70.6529 41.7901 505.336
605 0 61.0461 13.2523 809 66.2002 41.6366 504.101
606 0 60.0725 11.5527 694 69.3314 42.8357 503.176
607 0 63.0974 12.0449 760 68.2711 42.5211 504.309
608 0 64.0523 12.2556 785 67.8815 42.4433 503.167
609 0 66.0703 11.8964 786 68.0433 42.6628 502.206
610 0 68.0785 13.7195 934 66.0086 42.5096 497.926
611 0 72.1353 13.0033 938 65.967 42.2644 497.261
612 0 71.1096 12.2628 872 68.2007 41.8119 494.734
613 0 75.1012 13.6349 1024 65.4912 41.7725 496.37
614 0 77.0741 12.8967 994 66.6278 41.9296 494.896
615 0 80.1371 12.3913 993 67.7069 42.4572 492.677
616 0 82.1249 12.3836 1017 68.0777 42.1308 491.009
617 0 86.1258 13.1668 1134 66.0758 42.3589 492.588
618 0 88.0984 12.3725 1090 67.1624 41.7183 490.627
619 0 91.1686 12.4714 1137 67.1486 41.5884 488.261
620 0 93.1496 14.2674 1329 64.8051 41.6012 487.576
621 0 96.0654 13.0328 1252 67.0823 41.3994 485.158
622 0 101.202 12.5195 1267 67.105 41.5817 482.446
623 0 102.179 12.4683 1274 67.4749 41.3697 484.006
624 1 57.0294 11.7133 668 65.997 41.9551 505.955
625 0 58.074 10.28 597 68.3869 41.7621 505.33
626 0 60.1184 11.2278 675 66.677 41.5452 506.265
627 0 63.1832 12.9307 817 64.6854 40.8874 503.084
628 0 65.0952 13.2575 863 64.4229 40.5689 500.037
629 0 67.0649 11.4814 770 66.2922 41.8779 501.052
630 0 70.0777 13.6277 955 63.2628 41.0848 500.822
631 0 69.1669 12.9975 899 64.6418 41.2759 498.293
632 0 75.1691 13.0772 983 62.9379 41.7803 498.482
633 0 77.1642 12.8298 990 63.9091 41.3717 495.451
634 0 79.1337 13.2434 1048 63.4924 40.8931 495.572
635 0 82.2149 12.966 1066 63.6557 41.6829 495.386
636 0 80.16 10.8782 872 67.281 41.6892 488.416
637 0 86.1075 11.4276 984 65.377 41.8659 492.493
638 0 91.2254 11.9484 1090 64.4706 41.9211 489.117
639 0 92.1735 11.218 1034 65.7041 41.675 486.471
640 0 98.2044 13.645 1340 62.153 41.8276 484.296
641 1 50.0191 11.4756 574 64.3415 43.2561 507.571
642 0 51.1715 11.6862 598 63.7759 42.2207 506.617
643 0 52.0371 10.4349 543 66.7109 41.9797 505.256
644 0 55.111 10.2702 566 65.7014 41.0601 506.671
645 0 58.0785 12.6897 737 61.8955 41.4885 505.501
646 0 59.0246 12.1983 720 62.9903 41.8097 503.012
647 0 61.0794 11.7879 720 63.5903 42.0875 502.7
648 0 62.1387 11.6353 723 63.8064 41.8811 499.812
649 0 65.0943 10.3696 675 64.9259 41.6341 500.787
650 0 68.0971 12.8199 873 61.2658 41.5808 500.246
651 0 70.1084 11.6391 816 62.9461 42.1324 499.044
652 0 74.1242 13.1266 973 60.4481 42.3875 498.26
653 0 74.0833 12.2295 906 61.8366 41.6148 494.72
654 0 77.1126 12.6828 978 60.9489 40.7812 492.981
655 0 80.0906 12.6856 1016 59.9094 41.6772 495.629
656 0 82.2388 12.7434 1048 60.4914 41.7032 490.7
657 0 85.2857 11.7018 998 61.6473 41.7184 487.793
658 0 88.0793 11.2512 991 62.2008 41.781 486.551
659 0 92.1303 12.5909 1160 60.3138 41.7595 490.891
660 0 96.2671 12.777 1230 60.8976 42.035 485.589
661 1 50.0526 10.9884 550 60.8164 41.8291 511.478
662 0 53.0813 10.6817 567 61.5591 41.3545 508.829
663 0 54.0865 11.3337 613 60.2447 41.8777 509.887
664 0 56.0457 11.0446 619 61.4281 40.9693 507.858
665 0 57.1317 12.0599 689 59.7823 41.5065 505.795
666 0 56.0915 11.9448 670 61.594 41.6881 501.637
667 0 61.0736 12.0838 738 60.6436 41.2846 505.286
668 0 65.0921 12.659 824 59.6299 42.5267 502.947
669 0 66.2739 12.7803 847 59.0921 41.6234 502.307
670 0 65.1013 11.0597 720 61.7875 41.9972 501.56
671 0 68.2033 12.3308 841 59.8859 42.962 499.2
672 0 71.1671 12.0702 859 60.4959 42.3411 499.488
673 0 76.1096 13.8879 1057 57.7692 43.1097 496.602
674 0 76.229 12.1476 926 59.9168 42.067 495.77
675 0 79.1356 11.8404 937 60.1227 42.4674 491.591
676 0 82.0684 15.0119 1232 56.6104 42.6404 492.706
677 0 85.1339 13.238 1127 58.3123 42.583 491.928
678 0 89.0881 12.0218 1071 59.3548 42.859 493.727
679 0 92.1801 12.66 1167 59.2005 42.5878 487.007
680 0 93.1112 11.932 1111 59.7255 42.5266 490.212
681 1 49.1031 10.0197 492 61.2785 43.5244 510.293
682 0 48.0527 12.5695 604 57.6076 43.2417 511.854
683 0 49.0565 10.9873 539 61.2226 43.1354 508.386
684 0 55.0337 13.7916 759 56.6166 43.4414 506.644
685 0 54.1759 10.0414 544 61.5699 42.6673 507.066
686 0 55.2425 11.7482 649 59.5439 41.5562 506.983
687 0 57.1203 10.8543 620 61.35 42.0032 502.781
688 0 60.0478 11.5241 692 60.2803 42.0679 503.406
689 0 63.271 12.5966 797 58.5471 41.8896 503.129
690 0 63.3046 12.0054 760 59.7553 42.2197 499.345
691 0 65.1159 12.5929 820 59.1366 42.8817 500.216
692 0 66.0879 12.1808 805 59.077 42.4348 502.017
693 0 68.1338 12.2993 838 59.1683 42.1396 499.655
694 0 69.0907 10.5369 728 60.6786 41.1552 500.962
695 0 74.083 12.729 943 57.8876 41.3319 494.971
696 0 75.1114 12.9008 969 57.7637 41.3065 497.514
697 0 78.1289 11.673 912 59.1283 41.909 495.438
698 0 80.0789 12.0256 963 59.1246 42.0384 493.403
699 0 84.0616 13.9778 1175 56.5915 41.7123 494.699
700 0 86.0738 14.4411 1243 56.0925 41.9445 494.651
701 0 88.1442 10.8232 954 60.5964 41.6394 492.531
702 1 45.0775 10.848 489 59.2004 41.683 513.589
703 0 46.0708 11.1567 514 59.5156 41.8113 512
704 0 49.0966 9.95995 489 60.8875 42.4888 510.534
705 0 50.0671 11.0052 551 60.7132 41.6824 508.201
706 0 52.094 11.4217 595 60.8437 41.7092 508.655
707 0 52.1418 10.0687 525 62.2514 41.2552 509.28
708 0 54.2328 12.557 681 59.8502 41.8664 507.922
709 0 56.2711 11.107 625 60.6128 42.2576 507.832
710 0 57.1023 11.4006 651 61.0307 41.0676 504.962
711 0 58.1123 11.7359 682 61.6188 41.7229 504.221
712 0 61.107 11.8644 725 61.5034 41.0648 501.236
713 0 63.0808 13.237 835 59.4072 40.9725 502.853
714 0 64.1079 13.8361 887 58.982 40.9391 501.131
715 0 66.0985 12.5419 829 59.9385 41.3595 504.089
716 0 68.1851 11.8501 808 61.0545 41.3973 502.344
717 0 68.122 12.1987 831 61.1468 41.6992 498.933
718 0 72.2025 11.4816 829 61.1423 42.1351 500.712
719 0 76.1755 14.9917 1142 57.1489 41.9396 496.664
720 0 78.2171 12.8233 1003 59.9182 41.7827 494.713
721 0 79.1977 14.2555 1129 58.7591 41.4057 492.74
722 0 83.1878 12.5259 1042 60.2073 41.3484 491.478
723 0 88.1601 13.8271 1219 58.4922 40.4356 492.678
724 0 89.1123 11.8278 1054 61.3586 41.5209 491.071
725 0 93.2383 14.6828 1369 57.9737 41.4346 490.703
726 1 50.106 12.0544 604 60.0877 41.4735 513.121
727 0 49.1299 10.9302 537 62.5382 42.0354 512.197
728 0 49.0805 12.4489 611 61.3846 41.7234 510.676
729 0 54.2668 12.4201 674 60.9169 41.5237 508.893
730 0 55.0678 12.8932 710 60.8831 41.1254 509.61
731 0 58.1002 12.3924 720 61.1389 40.8764 508.733
732 0 57.1617 12.3859 708 62.5381 40.7542 506.288
733 0 59.1478 12.5279 741 62.722 40.4291 506.981
734 0 62.2845 13.1815 821 61.0901 40.324 504.566
735 0 62.2155 12.1513 756 62.5463 41.4775 504.522
736 0 63.1016 12.1867 769 62.5761 41.4915 501.927
737 0 67.1761 12.8171 861 60.5319 41.4193 503.659
738 0 69.0748 13.2755 917 60.2072 41.7535 502.214
739 0 70.1273 12.4773 875 61.1691 41.6297 502.57
740 0 74.0943 13.8337 1025 59.3463 41.6898 500.439
741 0 76.1968 14.3051 1090 58.4716 41.2367 498.893
742 0 76.2209 12.8049 976 60.9273 41.2643 497.599
743 0 80.1711 15.2175 1220 57.9189 40.5943 494.952
744 0 81.2125 12.572 1021 61.4006 40.3497 493.176
745 0 83.1168 12.5606 1044 61.159 40.0134 496.514
746 0 85.1655 12.3877 1055 61.6427 40.2398 494.286
747 0 89.2122 11.6016 1035 62.2406 41.1691 494.247
748 1 47.1211 11.9692 564 62.2624 41.6578 511.188
749 0 48.0577 11.9856 576 62.2222 41.6684 511.273
750 0 52.1343 13.0432 680 60.6515 41.5632 511.082
751 0 52.1391 12.3324 643 61.3997 40.832 510.848
752 0 53.2421 12.7906 681 61.9427 40.7386 508.67
753 0 53.1322 12.8171 681 62.4317 41.1953 507.113
754 0 53.0809 12.0382 639 64.0689 41.6213 506.895
755 0 57.173 13.6428 780 61.6192 41.1346 506.444
756 0 60.0873 12.9978 781 62.1332 41.2023 504.936
757 0 60.1136 11.9773 720 63.5903 41.4944 504.467
758 0 63.1087 12.7241 803 62.3674 41.4919 505.081
759 0 64.0554 12.9263 828 62.3043 40.3514 504.211
760 0 66.0759 12.2889 812 63.1305 40.67 501.722
761 0 70.0629 13.8304 969 60.9928 40.5521 500.591
762 0 69.0516 11.6 801 63.8764 41.1361 501.685
763 0 75.2903 12.7639 961 63.0801 41.5005 498.247
764 0 74.0851 13.9704 1035 61.8966 41.0986 498.078
765 0 77.1137 14.4851 1117 61.6544 40.7628 497.543
766 0 78.2513 13.5461 1060 63.1453 40.7755 494.484
767 0 81.167 12.2217 992 64.2692 41.1149 493.842
768 0 84.1955 13.433 1131 63.168 41.2007 493.772
769 1 46.1484 12.5031 577 63.1317 41.4454 510.735
770 0 48.1241 13.2782 639 61.7011 41.3959 512.274
771 0 47.1218 12.3085 580 64.6293 41.7069 509.722
772 0 49.1248 11.827 581 65.074 42.0981 511.697
773 0 50.1168 12.5507 629 64.3625 40.6328 510.437
774 0 51.0583 11.242 574 66.6237 41.1951 508.343
775 0 53.1734 12.8636 684 64.7515 41.2544 508.132
776 0 55.0909 12.8878 710 63.669 40.8521 509.797
777 0 55.0937 12.2519 675 65.3422 40.8652 507.332
778 0 60.1559 12.2515 737 64.2374 41.7015 507.849
779 0 61.0298 13.4688 822 63.7117 41.8674 504.87
780 0 64.1544 14.091 904 62.4613 41.8772 504.383
781 0 66.0718 12.4259 821 63.9184 40.6273 504.152
782 0 67.0735 14.7152 987 61.4914 41.2411 504.283
783 0 66.1294 13.1711 871 63.6602 41.3881 502.892
784 0 70.081 12.1716 853 64.4443 40.8992 501.706
785 0 73.1119 14.6761 1073 61.2293 41.1966 500.598
786 0 76.05 13.0572 993 62.5448 41.6304 498.233
787 0 78.1172 13.1853 1030 62.6117 41.3971 496.501
788 0 80.1326 13.0658 1047 62.447 40.7918 496.097
789 0 81.1213 12.6477 1026 63.4922 41.4503 494.887
790 0 83.2179 12.8698 1071 63.8263 40.6573 494.843
791 1 43.1627 8.85024 382 67.0838 40.3822 515.529
792 0 42.0868 12.593 530 64.0434 40.3 513.9
793 0 47.0633 13.3225 627 63.0367 41.2584 511.646
794 0 49.0618 12.4944 613 63.9021 41.522 511.067
795 0 50.1046 13.0727 655 63.0626 41.5603 510.44
796 0 51.3543 13.9034 714 62.9846 41.7003 509.92
797 0 52.0973 13.5708 707 63.6789 41.546 507.649
798 0 53.1094 12.7661 678 64.6283 41.4071 508.117
799 0 54.0714 12.3355 667 65.1619 41.2849 508.775
800 0 59.2452 13.0475 773 64.0362 41.74 506.296
801 0 60.0758 13.3664 803 63.8331 41.6949 505.031
802 0 61.0387 13.4996 824 64.716 41.7682 503.725
803 0 62.0965 13.3341 828 65.0688 41.5314 503.042
804 0 67.0197 13.6527 915 64.3115 42.1683 503.118
805 0 70.3759 13.6979 964 63.6753 41.8496 502.76
806 0 73.0334 14.8973 1088 62.7904 41.9035 500.547
807 0 74.082 14.403 1067 63.3646 41.1153 500.724
808 0 77.0813 13.8425 1067 64.269 40.8351 500.187
809 0 78.094 14.7515 1152 63.3924 40.6684 500.089
810 0 82.1056 14.5544 1195 63.7347 41.1908 496.793
811 0 85.2009 14.2135 1211 64.4608 41.1222 492.817
812 0 88.0908 15.0072 1322 63.7799 41.3109 493.305
813 0 91.2043 14.4949 1322 64.7179 42.4009 492.375
814 1 47.0536 11.54 543 66.3904 41.6998 515.495
815 0 50.2588 13.9677 702 64.6325 41.4373 512.507
816 0 49.2484 11.4115 562 68.4804 41.637 512.116
817 0 52.2054 14.0982 736 65.7106 41.9728 511.088
818 0 53.2741 13.1208 699 66.8684 41.9113 510.884
819 0 55.1029 12.4494 686 68.016 41.4621 511.141
820 0 56.0795 14.6043 819 65.4908 41.5763 510.009
821 0 59.0796 13.1348 776 67.2539 41.7745 507.503
822 0 60.0578 13.5203 812 66.2562 40.8251 507.639
823 0 62.1253 12.9738 806 67.0931 41.8263 505.614
824 0 64.1915 13.6934 879 65.4539 40.5575 505.487
825 0 66.1658 14.2521 943 65.1113 40.5376 503.313
826 0 68.118 13.227 901 66.0499 40.9534 503.557
827 0 70.0739 14.4134 1010 64.5812 40.9782 503.269
828 0 72.1241 13.4768 972 65.7428 41.3498 501.562
829 0 77.0619 14.1185 1088 64.6903 41.3741 499.219
830 0 78.3602 12.2256 958 67.1628 41.4676 498.91
831 0 80.1423 13.189 1057 66.5695 41.2961 497.105
832 0 85.0758 12.9532 1102 66.3258 40.892 494.813
833 0 85.182 13.6766 1165 66.2 41.2446 491.955
834 0 88.1279 13.9003 1225 66.0196 41.7029 491.969
835 0 91.121 13.6522 1244 65.8738 40.7605 491.947
836 0 93.1225 12.9829 1209 67.7676 40.7097 488.728
837 1 49.1584 14.2193 699 64.3662 41.2818 513.166
838 0 50.0553 12.5062 626 67.7572 41.385 510.912
839 0 52.2138 12.3339 644 67.7345 41.0078 511.988
840 0 53.1217 12.7067 675 67.523 40.7481 510.625
841 0 54.1417 12.7074 688 68.3401 40.8532 507.51
842 0 58.35 12.7164 742 67.3032 41.2655 508.481
843 0 58.112 11.495 668 68.7575 41.6168 508.352
844 0 60.1208 13.4729 810 66.7259 41.8753 505.737
845 0 64.1411 12.3166 790 66.8975 41.9329 506.332
846 0 66.4169 13.6411 906 65.5541 41.6236 504.631
847 0 68.0796 12.5735 856 66.9544 41.1285 502.563
848 0 69.2549 13.7319 951 65.9411 41.1409 501.15
849 0 70.1832 13.9635 980 65.9704 41.25 500.232
850 0 73.0794 14.8195 1083 64.4423 41.0591 499.336
851 0 77.2413 12.3768 956 67.0805 41.4299 499.477
852 0 78.1127 12.5844 983 67.5158 41.6419 498.346
853 0 80.0529 11.9296 955 68.1131 42.0042 498.44
854 1 43.2526 10.8201 468 67.5684 42.0876 516.06
855 0 44.0868 11.4774 506 67.0237 41.6601 514.553
856 0 44.1948 11.9471 528 68.1364 41.0833 510.712
857 0 46.0503 12.7687 588 65.8912 41.216 513.473
858 0 49.1027 12.7488 626 65.131 41.7236 513.219
859 0 50.0711 11.8631 594 67.3283 41.3973 510.365
860 0 51.1121 11.1519 570 68.9807 41.3895 508.86
861 0 53.2058 12.7994 681 67.6373 40.6696 509.794
862 0 54.1903 12.29 666 69.3228 41.9054 506.222
863 0 56.1541 12.1986 685 68.635 42.2759 506.143
864 0 57.142 12.1277 693 68.6825 41.3766 504.999
865 0 60.233 12.0366 725 67.7903 41.1214 506.628
866 0 62.1184 11.1239 691 69.0405 41.0825 505.557
867 0 64.091 12.7475 817 66.2815 41.3195 505.567
868 0 65.1447 11.7738 767 68.3103 41.3012 500.034
869 0 69.1079 11.605 802 68.419 41.2456 499.012
870 0 72.2617 12.0811 873 67.5624 41.2818 500.515
871 0 75.1882 13.0207 979 66.0276 40.2972 500.23
872 0 76.4564 13.3148 1018 65.4912 40.4902 498.404
873 0 79.1569 12.1152 959 67.2471 40.4046 496.74
874 0 80.1251 12.7925 1025 67.078 40.198 496.072
875 0 84.1129 12.4119 1044 66.818 40.9904 495.479
876 0 88.1225 13.8444 1220 65.2172 40.4721 492.822
877 1 48.1214 11.5749 557 65.9874 41.0341 513.422
878 0 48.0819 12.7699 614 64.6352 41.2818 513.669
879 0 50.1761 12.4362 624 65.7821 40.899 511.617
880 0 52.0246 13.0131 677 64.5583 41.0177 512.055
881 0 54.0822 12.7399 689 65.4761 40.9898 508.951
882 0 54.0593 13.5222 731 64.7661 40.933 508.349
883 0 58.224 12.7439 742 64.783 41.248 509.342
884 0 57.0419 12.8677 734 65.8324 40.5681 508.422
885 0 59.0528 11.7522 694 66.6326 40.7939 506.349
886 0 62.0828 14.0296 871 63.7153 41.2698 506.199
887 0 62.1063 13.3481 829 64.7913 40.889 506.033
888 0 65.041 13.3301 867 64.4983 40.7543 503.376
889 0 68.0504 12.2115 831 65.3165 41.3225 503.676
890 0 70.0778 13.6991 960 63.5948 40.9354 501.519
891 0 71.0514 12.1461 863 65.6199 41.6153 499.959
892 0 72.0741 12.3484 890 65.9494 41.4629 497.838
893 0 76.1569 13.5904 1035 63.9546 40.601 498.585
894 0 79.0693 12.2804 971 65.6993 41.2688 496.585
895 0 84.0533 14.0149 1178 62.719 41.1426 497.636
896 0 85.0556 12.6035 1072 64.9963 40.8554 493.797
897 0 86.2179 12.19 1051 65.9924 41.6613 493.689
898 1 45.0738 13.2006 595 63.8286 41.7311 513.973
899 0 46.0711 12.5241 577 64.7504 41.0364 513.797
900 0 48.041 13.093 629 63.3911 41.814 514.798
901 0 50.0585 12.3655 619 64.3877 41.4863 513.258
902 0 52.147 13.8838 724 62.1506 41.5815 511.707
903 0 50.1452 12.7829 641 65.1685 41.2106 510.797
904 0 54.0977 13.9562 755 63.1444 41.2384 509.732
905 0 56.1099 12.4933 701 64.4793 40.9971 509.867
906 0 57.0879 14.2062 811 62.9273 41.6572 507.735
907 0 57.0427 12.1488 693 65.3564 41.9971 503.743
908 0 59.144 12.2075 722 65.0443 42.0111 503.319
909 0 57.0851 11.369 649 67.5378 43.094 502.892
910 0 63.1055 12.3603 780 65.8115 43.1538 505.677
911 0 66.127 10.994 727 66.6107 43.26 505.061
912 0 66.2411 12.5149 829 65.158 42.8251 506.619
913 0 68.1278 12.1096 825 66.1103 43.6158 504.088
914 0 70.1111 12.3803 868 65.8525 42.5023 503.035
915 0 74.0914 11.9582 886 66.0181 42.4018 502.615
916 1 156.158 14.0242 2190 65.9621 41.7306 462.6
917 0 156.312 11.074 1731 69.7805 41.8411 461.508
918 0 165.25 13.3919 2213 67.0868 41.3556 458.565
919 0 168.255 12.2255 2057 68.4648 41.6825 460.294
920 1 86.0669 13.1642 1133 66.4678 42.1915 496.216
921 0 88.0622 12.5934 1109 67.5546 41.6285 497.179
922 1 45.065 12.7593 575 66.9235 41.3496 513.59
923 0 47.0663 11.3882 536 67.5541 41.3451 514.815
924 0 47.0855 11.0862 522 68.7165 41.5038 513.163
925 0 49.0804 13.3862 657 66.7489 41.035 511.826
926 0 51.0464 11.9499 610 67.7197 41.3934 513.995
927 0 52.1786 12.9747 677 67.4594 40.9838 512.056
928 0 56.0291 12.7255 713 68.3534 41.4937 510.153
929 0 58.1203 12.8699 748 67.5013 41.0548 511.131
930 0 59.0909 12.76 754 68.9814 40.7931 509.133
931 0 61.0659 13.7392 839 68.4291 41.1323 507.05
932 0 63.1048 12.1861 769 70.5787 40.9142 507.036
933 0 66.064 11.4132 754 71.9748 41.3859 506.125
934 0 67.1185 12.4407 835 71.4072 41.788 504.127
935 0 71.0436 13.7521 977 69.2856 41.7042 503.098
936 0 71.0886 12.407 882 72.1803 41.6054 501.944
937 0 74.1314 11.8978 882 72.6723 41.5839 500.259
938 0 77.125 13.3031 1026 70.6998 41.6033 500.895
939 1 41.3731 12.3994 513 69.9337 41.9376 516.047
940 0 40.054 12.1086 485 72.732 41.1485 516.171
941 0 42.0481 13.1041 551 71.5826 40.7786 514.51
942 0 43.1869 12.1101 523 71.8126 41.3671 516.675
943 0 47.0571 11.4967 541 73.0721 41.366 513.884
944 0 46.0298 11.1232 512 74.2109 41.3574 512.826
945 0 47.0663 12.1106 570 72.7789 42.486 512.998
946 0 50.03 12.6124 631 71.2139 42.0301 513.628
947 0 51.0505 12.6737 647 71.5209 41.8331 511.655
948 0 54.1985 13.2107 716 70.4246 41.8059 511.378
949 0 54.1772 11.9792 649 72.7889 42.5855 509.39
950 0 57.0945 12.383 707 71.2023 42.4017 509.175
951 0 58.0733 12.9319 751 71.008 41.9907 506.052
952 0 61.0548 12.5789 768 71.0508 42.0664 506.934
953 0 64.1005 12.5116 802 69.9451 41.9364 506.373
954 0 66.0345 12.7812 844 69.987 41.7915 504.808
955 0 66.1169 12.0393 796 71.5415 41.1193 502.894
956 0 70.2194 14.2838 1003 68.4098 41.4606 501.454
957 0 73.1536 13.5332 990 69.4596 41.8051 500.766
958 0 75.1171 13.3924 1006 69.4463 41.7525 498.959
959 0 78.152 13.6401 1066 68.7308 41.424 499.319
960 1 39.0254 12.2741 479 70.6806 41.9457 518.547
961 0 42.0589 13.0531 549 70.1858 41.8689 515.614
962 0 43.0293 12.7587 549 71.153 42.7013 514.896
963 0 42.1402 11.5092 485 72.7155 42.1835 516.435
964 0 44.0851 12.4759 550 72.7109 42.8382 512.185
965 0 47.0553 13.3673 629 70.7965 41.4245 511.154
966 0 49.0284 13.8083 677 69.5613 41.6484 511.371
967 0 48.052 14.0681 676 70.1612 41.3062 509.993
968 0 51.0386 13.9502 712 69.2725 41.7654 510.788
969 0 54.2597 13.4907 732 69.7746 42.7391 509.684
970 0 52.0942 13.3028 693 70.8124 41.4012 508.646
971 0 56.1381 13.6805 768 69.2161 42.0638 507.647
972 0 58.0383 15.283 887 66.9515 42.5716 508.477
973 0 60.1876 14.2222 856 68.1507 42.0829 505.3
974 0 62.143 14.708 914 66.9683 41.3818 506.101
975 0 61.0987 12.668 774 70.8333 42.031 503.022
976 0 64.123 13.3961 859 69.5832 41.6042 503.147
977 0 67.2072 12.3499 830 69.9542 41.6398 504.512
978 0 67.0664 13.8669 930 68.8645 42.1731 502.682
979 0 72.1689 13.5931 981 69.0336 42.5759 500.104
980 0 72.2368 12.2791 887 71.0417 42.2683 498.495
981 0 77.1089 13.682 1055 69.3043 41.8209 496.059
982 0 80.1945 14.0533 1127 68.7347 42.4579 495.477
983 0 82.3461 13.5647 1117 69.5336 41.8075 497.02
984 1 41.0811 11.1487 458 72.7882 42.0524 515.699
985 0 44.2073 13.6177 602 68.6827 42.8904 516.595
986 0 46.3228 12.672 587 70.184 42.983 515.133
987 0 47.1426 13.9577 658 70.0836 43.0608 513.837
988 0 48.3158 13.329 644 71.6925 42.5885 511.795
989 0 50.1875 13.7285 689 70.5472 42.3512 511.985
990 0 52.2728 14.6539 766 69.8159 41.8629 511.598
991 0 54.2488 14.8943 808 68.8725 41.6126 511.407
992 0 55.0921 15.3561 846 68.7707 42.6749 510.89
993 0 56.1655 14.03 788 71.2424 42.1421 509.075
994 0 61.1149 14.1864 867 70.2468 42.6782 508.684
995 0 60.0999 14.4426 868 70.8664 42.8007 508.241
996 0 63.0678 13.985 882 71.7472 42.7732 506.654
997 0 65.1205 14.834 966 70.0766 42.6936 506.737
998 0 69.1934 14.1343 978 70.6697 42.1339 506.146
999 0 71.2315 15.2039 1083 69.8273 42.5088 505.479
1000 0 71.1593 13.9124 990 72.2232 41.7091 504.634
1001 0 74.1803 14.1547 1050 71.8876 41.9514 501.291
1002 0 78.1979 15.1411 1184 69.9992 42.663 502.682
1003 0 79.3164 14.978 1188 70.4032 42.3788 502.628
1004 0 80.1549 13.8607 1111 73.6031 42.2232 497.575
1005 0 83.1675 13.6712 1137 73.7748 42.1108 497.823
1006 0 86.0959 14.2167 1224 73.6814 41.2745 495.36
1007 1 48.1164 13.2387 637 73.303 41.6107 516.794
1008 0 49.091 13.8722 681 73.7518 42.0352 514.511
1009 0 49.0681 12.6967 623 75.0626 41.8299 516.021
1010 0 52.2052 13.5427 707 74.0141 41.8472 514.006
1011 0 54.1415 14.5175 786 73.0674 42.3448 511.962
1012 0 56.0769 14.8189 831 73.1661 42.5379 510.643
1013 0 58.2589 13.3199 776 74.7126 41.5219 510.599
1014 0 58.0939 13.6848 795 74.8767 41.1925 510.35
1015 0 61.0827 14.4558 883 73.1733 41.889 509.877
1016 0 63.073 14.5546 918 72.6057 41.7081 508.461
1017 0 66.178 14.9294 988 71.5557 41.503 510.412
1018 0 67.1174 15.525 1042 72.4674 42.1775 505.773
1019 0 70.2287 14.9654 1051 72.6603 42.5109 505.147
1020 0 74.1027 15.7889 1170 70.7752 41.9479 505.854
1021 0 75.0778 14.3984 1081 73.8797 41.9241 504.397
1022 0 76.0623 13.7124 1043 75.5484 41.0058 502.614
1023 0 79.0899 14.3002 1131 75.6631 41.298 499.642
1024 0 82.0806 14.0472 1153 75.1474 41.5759 500.107
1025 0 87.0564 14.6227 1273 73.8028 41.4077 498.55
1026 0 90.3163 14.2278 1285 74.035 41.0163 497.267
1027 0 91.0841 15.4692 1409 73.406 41.0341 495.639
1028 1 46.0492 12.921 595 74.7597 41.3076 518.923
1029 0 47.0304 12.0773 568 77.0423 39.9736 517.664
1030 0 50.097 14.2124 712 73.6096 39.8006 516.494
1031 0 50.131 14.6815 736 74.8927 40.2378 514.67
1032 0 52.0521 16.1569 841 72.6504 40.4709 513.51
1033 0 52.0554 12.8709 670 77.4239 40.2388 513.346
1034 0 56.0956 14.8853 835 73.024 40.5413 513.968
1035 0 56.1739 12.7105 714 76.1008 40.7843 512.483
1036 0 58.1092 13.6467 793 75.4174 39.8398 509.921
1037 0 59.155 13.6421 807 75.1549 40.2615 510.86
1038 0 65.0499 15.3421 998 71.3026 40.3096 508.923
1039 0 65.1234 14.6338 953 72.7314 39.6569 508.526
1040 0 69.1108 15.4969 1071 70.9561 39.4398 505.9
1041 0 69.1566 14.7636 1021 72.0784 39.3359 507.487
1042 0 71.0281 14.1353 1004 73.7301 40.0269 503.424
1043 0 76.1308 14.6853 1118 71.3327 39.975 504.055
1044 0 78.1094 16.4897 1288 69.677 40.3082 501.069
1045 0 80.2253 15.2695 1225 70.9322 39.462 499.876
1046 0 81.177 13.3043 1080 74.0843 39.7778 498.694
1047 1 43.0373 12.617 543 74.0479 39.6593 517.635
1048 0 47.0643 13.3435 628 72.7611 39.4315 515.702
1049 0 47.0407 15.2846 719 70.8567 40.1113 515.352
1050 0 49.1072 13.2771 652 73.434 39.9923 515.037
1051 0 49.1258 13.6588 671 72.7422 39.5171 515.222
1052 0 53.061 15.0582 799 69.5782 39.7897 514.81
1053 0 53.0793 14.3559 762 71.6391 39.1929 512.634
1054 0 57.0649 13.1079 748 72.7273 39.5789 512.488
1055 0 57.0777 14.1211 806 71.7146 39.5074 510.041
1056 0 60.0651 15.4998 931 69.1472 39.9076 510.822
1057 0 60.1987 15.0834 908 69.6322 39.8756 510.392
1058 0 64.0442 15.3175 981 69.0928 39.5821 507.227
1059 0 66.1123 14.6115 966 69.7433 39.5331 506.582
1060 0 71.2608 14.468 1031 68.6887 40.0708 507.621
1061 0 70.1257 13.5186 948 71.4747 39.6213 504.35
1062 0 74.1671 15.128 1122 69.008 39.4501 504.282
1063 0 77.2041 15.0769 1164 68.3076 39.3686 505.359
1064 0 79.1145 14.7129 1164 69.1967 40.0395 504.158
1065 0 82.2311 15.5294 1277 68.6672 40.1175 501.319
1066 0 83.1974 13.9427 1160 70.575 40.3371 503.347
1067 0 86.1487 14.7303 1269 69.9764 40.431 500.533
1068 0 89.2911 11.9385 1066 72.8396 40.3002 500.032
1069 1 46.3352 13.4671 624 69.4054 40.6779 520.827
1070 0 47.1359 11.1168 524 73.5744 40.2939 519.074
1071 0 51.25 13.9317 714 68.1218 39.9608 518.238
1072 0 50.12 15.004 752 69.5386 40.2899 515.642
1073 0 52.0971 13.0142 678 70.146 40.3378 518.373
1074 0 53.0463 12.8944 684 71.8041 40.3889 514.576
1075 0 54.2427 13.4765 731 70.0711 40.554 515.636
1076 0 56.2434 12.4637 701 72.1512 40.5563 512.686
1077 0 58.4365 12.4237 726 71.7837 40.2052 512.978
1078 0 62.1582 14.8331 922 68.1584 39.7256 510.039
1079 0 63.1368 16.4247 1037 67.1398 40.3925 510.059
1080 0 67.1251 14.2421 956 69.6967 40.5251 508.181
1081 0 68.0545 13.7978 939 70.6997 39.6454 509.25
1082 0 69.1984 13.8443 958 70.7203 40.5511 507.068
1083 0 73.2699 13.1978 967 72.1655 40.8635 505.641
1084 0 75.0348 14.6465 1099 70.596 40.7389 503.771
1085 0 76.2743 13.8054 1053 71.7018 41.2251 503.173
1086 0 80.0995 16.0176 1283 68.8737 40.643 501.565
1087 0 83.1201 13.9437 1159 70.679 40.352 501.668
1088 0 85.429 14.1521 1209 71.2117 40.3681 500.059
1089 1 48.1182 11.9913 577 72.2964 40.7366 518.101
1090 0 49.1421 13.0438 641 72.7504 40.3089 517.256
1091 0 50.1654 13.8741 696 71.773 40.3032 516.184
1092 0 52.1532 11.7538 613 74.3214 40.491 516.837
1093 0 52.0558 15.2337 793 70.3758 39.8991 514.484
1094 0 53.2091 13.3248 709 73.3583 41.33 513.733
1095 0 54.0707 13.7043 741 71.8677 41.444 515.211
1096 0 57.0646 14.212 811 71.5142 41.6017 510.386
1097 0 61.1187 13.6129 832 71.5625 41.0012 509.942
1098 0 61.0603 14.674 896 70.404 40.6183 510.14
1099 0 63.0911 12.9178 815 71.6724 40.692 509.28
1100 0 65.1059 15.1753 988 69.17 40.7844 506.127
1101 0 66.2122 14.5744 965 69.7782 41.0259 506.906
1102 0 70.12 15.0171 1053 69.2574 41.321 504.691
1103 0 71.2362 13.4061 955 70.8712 41.0859 505.902
1104 0 73.1775 13.1188 960 71.2198 40.676 505.489
1105 0 77.2531 14.9897 1158 68.5613 41.114 502.434
1106 0 79.1625 15.285 1210 68.5545 41.0975 500.648
1107 0 81.2176 15.1568 1231 67.9773 41.2933 502.308
1108 0 83.1636 13.1307 1092 71.2802 41.0678 499.747
1109 0 86.1493 14.9276 1286 69.4347 41.0171 497.402
1110 0 87.2098 15.2391 1329 68.9631 41.6877 498.6
1111 0 90.0762 14.3656 1294 70.7241 41.1662 496.126
1112 0 93.4015 13.8863 1297 71.5389 41.4981 494.126
1113 0 96.2759 13.7418 1323 71.0801 42.0038 494.487
1114 1 49.1653 13.4648 662 71.2341 41.6284 514.805
1115 0 50.0518 14.1453 708 70.2712 41.1483 516.025
1116 0 51.2596 12.9732 665 72.8647 41.7248 511.874
1117 0 54.1653 15.1942 823 69.4593 41.4593 512.419
1118 0 56.0815 12.3213 691 72.932 41.4602 512.379
1119 0 57.2271 13.6124 779 72.1361 40.8935 510.905
1120 0 61.2281 14.1438 866 71.2714 41.0115 508.905
1121 0 62.1986 15.354 955 70.1183 41.5393 506.241
1122 0 62.1737 12.7385 792 74.5303 41.3207 508.088
1123 0 66.0428 13.5367 894 73.7931 41.5928 506.617
1124 0 67.1703 14.8875 1000 72.261 41.966 507.091
1125 0 71.1643 13.251 943 74.2534 42.0848 504.345
1126 0 73.1395 14.6569 1072 72.6856 42.416 503.912
1127 0 76.1421 14.7881 1126 72.9014 41.8472 503.473
1128 0 77.2889 12.8867 996 76.1888 41.497 502.894
1129 0 80.1399 14.899 1194 74.5134 41.84 500.075
1130 0 82.0996 12.9964 1067 77.9025 41.5998 499.841
1131 0 83.4106 14.1229 1178 77.2419 41.2886 498.083
1132 0 86.1664 15.0058 1293 75.9466 41.1315 495.637
1133 0 89.3041 13.818 1234 77.1345 40.3833 496.649
1134 0 92.217 13.0887 1207 78.6479 41.5236 495.268
1135 1 50.2331 13.298 668 78.3623 41.9805 513.567
1136 0 55.0329 13.8463 762 75.4501 41.8136 514.44
1137 0 56.1177 13.347 749 76.8665 41.2724 512.109
1138 0 55.3189 14.1001 780 77.5538 40.9897 509.894
1139 0 59.1906 14.0732 833 76.2329 41.2497 510.121
1140 0 61.032 12.731 777 78.6538 41.2883 510.447
1141 0 61.1508 13.4422 822 77.9866 41.6545 509.751
1142 0 62.3784 13.2899 829 77.9903 41.7563 509.895
1143 0 66.1888 13.0989 867 78.5467 41.5167 505.413
1144 0 67.2658 12.9189 869 78.6502 41.0886 505.09
1145 0 71.1498 14.5327 1034 75.8017 41.0619 505.299
1146 0 74.1569 14.4019 1068 76.1124 41.411 503.348
1147 0 75.237 13.504 1016 76.9882 41.4665 503.635
1148 0 76.22 13.7365 1047 77.6915 40.9054 501.987
1149 0 81.113 13.475 1093 77.7054 41.2205 502.423
1150 0 80.1416 11.9414 957 81.4274 41.0428 498.059
1151 0 85.0873 14.2207 1210 78.6744 41.1149 494.72
1152 0 86.1322 13.816 1190 78.5218 41.2538 495.25
1153 0 89.0714 13.7193 1222 79.2692 40.8756 493.258
1154 0 94.2949 14.0411 1324 77.8384 40.5 493.207
1155 0 94.1416 14.4676 1362 77.6608 41.0154 491.938
1156 0 99.2331 13.2516 1315 79.2943 40.8639 489.856
1157 0 101.137 13.3285 1348 79.2626 40.7411 489.365
1158 0 104.199 12.9079 1345 79.5502 40.6617 486.378
1159 1 57.2023 13.1813 754 75.5809 41.2586 510.698
1160 0 58.1043 12.3227 716 78.2444 41.4344 509.282
1161 0 57.12 12.6576 723 78.0152 41.1231 510.519
1162 0 60.1809 11.7811 709 80.2087 40.5882 507.358
1163 0 63.0569 13.6226 859 76.5285 40.7043 506.751
1164 0 64.1502 12.8137 822 77.9027 41.1813 505.95
1165 0 66.1098 12.449 823 78.8141 40.7096 506.057
1166 0 70.0585 12.7465 893 78.28 41.3975 501.873
1167 0 71.075 13.3239 947 76.32 41.5829 503.621
1168 0 73.1014 13.5155 988 76.9291 41.3573 501.479
1169 0 75.237 12.9458 974 77.5708 41.3511 498.864
1170 0 76.0728 13.0533 993 77.4814 41.5347 499.158
1171 0 79.0826 12.5944 996 78.0803 40.9789 496.301
1172 0 84.1303 12.8372 1080 76.1519 40.8278 497.894
1173 0 84.1194 12.9816 1092 76.793 41.1886 495.122
1174 0 87.1734 12.5956 1098 76.8871 41.9627 494.287
1175 0 91.2091 13.0798 1193 75.565 41.4552 490.747
1176 0 94.2007 13.1634 1240 75.1282 41.4024 490.084
1177 0 97.1233 14.1264 1372 74.0277 42.2391 487.243
1178 1 49.0488 12.457 611 75.7234 42.6907 510.849
1179 0 50.1092 12.6324 633 76.6951 41.9084 508.324
1180 0 52.0414 13.6046 708 74.8305 41.6144 508.304
1181 0 54.0768 14.276 772 73.5777 41.1645 508.882
1182 0 55.0557 13.0232 717 75.8326 40.9707 507.102
1183 0 56.0475 12.3467 692 76.4509 41.1532 507.111
1184 0 57.0443 10.9213 623 78.6083 41.9695 505.274
1185 0 63.0585 13.2893 838 73.3926 41.6754 506.704
1186 0 65.1609 14.0729 917 72.0294 40.8975 506.003
1187 0 68.098 13.3484 909 72.3377 40.7481 504.85
1188 0 69.157 13.9827 967 72.4178 41.1262 501.06
1189 0 70.1436 13.0304 914 74.0547 40.7024 501.444
1190 0 73.0779 13.9167 1017 72.1829 41.7178 502.696
1191 0 76.2148 13.4882 1028 73.3589 41.2928 498.843
1192 0 77.0838 15.2302 1174 71.0988 41.1278 499.625
1193 0 79.0588 13.3319 1054 74.4374 41.686 496.311
1194 0 82.1212 13.4435 1104 74.2346 42.1105 495.198
1195 0 84.0655 15.1786 1276 72.0729 41.442 493.022
1196 0 88.0774 14.0331 1236 73.4126 42.2136 492.486
1197 0 90.3253 13.1857 1191 74.8774 41.8539 488.143
1198 0 93.1586 13.9762 1302 73.7312 41.5008 489.091
1199 0 94.1714 12.5622 1183 75.8766 41.257 487.523
1200 0 98.0591 12.0539 1182 76.5364 41.8528 484.412
1201 0 100.072 12.3911 1240 76.2379 42.2121 485.602
1202 1 48.0353 12.1577 584 75.3733 41.7243 509.134
1203 0 49.0252 13.0341 639 75.1017 41.5227 507.764
1204 0 53.0713 11.5505 613 76.5432 41.7096 506.065
1205 0 53.0472 11.9705 635 76.1591 42.1638 504.995
1206 0 55.0224 11.4681 631 76.5864 41.7353 504.967
1207 0 57.0352 10.8003 616 77.6981 41.5081 501.495
1208 0 57.041 10.9395 624 77.5817 42.1795 499.163
1209 0 59.0294 12.5023 738 75.1409 42.0176 500.106
1210 0 56.0194 9.76448 547 79.6399 42.0311 499.404
1211 0 63.07 11.4318 721 76.9626 41.2233 496.516
1212 0 57.1564 10.6375 608 82.6579 41.3372 497.975
1213 0 60.0819 12.7992 769 81.5735 41.7958 500.771
1214 0 61.0898 11.344 693 84.8846 42.5483 500.257
1215 0 61.1705 10.953 670 86.4657 42.1537 501.404
1216 0 60.3579 12.4922 754 85.439 41.8355 503.659
1217 0 58.7209 11.9378 701 87.8573 41.3866 505.892
1218 0 66.0303 12.4791 824 86.2985 41.7148 505.198
1219 0 69.7431 15.4281 1076 81.2128 41.4972 507.563
1220 0 71.6982 15.1747 1088 81.0855 41.2059 508.29
1221 0 71.2332 14.8105 1055 82.2351 40.8825 505.67
1222 0 69.5218 17.8074 1238 79.273 40.9241 504.406
1223 0 69.4348 15.1077 1049 84.8589 41.2336 507.904
1224 0 71.6412 17.2108 1233 80.9254 41.6853 508.814
1225 0 72.402 15.0963 1093 85.3166 42.1272 507.902
1226 0 77.3322 15.8666 1227 81.9984 42.0391 506.652
1227 0 82.3165 14.5657 1199 79.799 41.3611 505.918
1228 0 84.4173 14.6652 1238 80.6616 41.4733 504.494
1229 0 85.0806 14.3394 1220 81.8254 41.3975 503.35
1230 0 86.2757 14.0248 1210 82.0975 41.7496 503.893
1231 1 34.3112 13.9605 479 86.1858 42.0981 524.303
1232 0 35.1628 14.9021 524 84.7462 41.4294 526.302
1233 0 39.3124 15.3895 605 84.9421 41.5818 521.375
1234 0 41.1644 14.5271 598 85.6622 42.7876 522.674
1235 0 44.2004 15.5881 689 84.4514 42.0668 521.816
1236 0 46.2245 14.6892 679 87.0442 41.8085 519.135
1237 0 47.2353 14.7136 695 88.7482 42.3338 517.715
1238 0 53.3061 15.4204 822 85.4526 42.7226 516.144
1239 0 57.2306 16.4947 944 83.0434 41.9078 515.521
1240 0 61.5136 15.6551 963 84.8048 41.4372 511.685
1241 0 64.5718 16.4933 1065 83.8488 41.8357 512.157
1242 0 64.3648 15.3345 987 88.461 42.2736 510.441
1243 1 120.77 14.449 1745 81.847 41.8229 491.117
1244 0 122.545 13.2441 1623 84.5385 41.374 491.962
1245 0 124.986 13.5856 1698 84.9064 41.4346 489.068
1246 0 123.785 12.2794 1520 87.2651 41.8474 494.602
1247 0 124.891 13.2115 1650 86.4715 41.1697 493.532
1248 0 135.125 13.6614 1846 85.227 41.4339 486.894
1249 0 134.73 12.5807 1695 87.7156 42.0307 493.885
1250 0 133.436 11.5186 1537 90.5595 42.4138 495.251
1251 0 134.561 12.1878 1640 90.775 43.0134 493.11
1252 1 196.143 11.8128 2317 91.4018 42.8092 465.937
1253 0 198.224 12.8643 2550 90.8216 42.3373 460.451
1254 1 96.5169 17.686 1707 92.5981 42.5015 494.116
1255 0 100.506 17.0238 1711 93.2589 42.2572 494.995
1256 0 102.319 17.6018 1801 93.241 41.9289 493.095
1257 0 105.433 18.8081 1983 90.3918 41.6944 493.715
1258 0 108.33 18.6929 2025 90.6173 42.6686 491.379
1259 0 111.251 18.4269 2050 90.8717 42.141 487.527
1260 0 114.52 18.9138 2166 89.3892 42.3255 484.82
1261 0 112.247 15.8222 1776 95.8148 41.531 482.774
1262 0 112.338 14.314 1608 97.893 41.4422 477.189
1263 0 114.337 16.2502 1858 95.07 41.6765 479.064
1264 0 115.102 15.395 1772 96.4989 40.6975 481.646
1265 1 128.2 19.6568 2520 86.8409 40.8444 475.577
1266 0 131.284 19.3092 2535 87.43 41.5369 473.852
1267 0 135.364 20.8328 2820 84.827 42.2106 471.383
1268 0 137.408 20.29 2788 85.9207 42.2837 469.386
1269 0 134.109 18.7385 2513 90.8217 42.0478 470.662
1270 1 33.3511 13.133 438 58.3653 38.032 394.826
