time division length width area intensity CMx CMy
0 0 58.1143 12.6819 737 58.9254 581.149 500.195
1 0 58.0155 12.5311 727 59.282 581.521 501.473
2 0 61.1129 15.5123 948 54.9082 581.517 500.685
3 0 63.0633 13.5578 855 57.2866 581.447 499.684
4 0 62.0533 12.2475 760 59.75 581.35 496.087
5 0 66.0696 14.5453 961 55.7014 581.251 498.447
6 0 67.1563 14.2206 955 56.3445 580.058 497.373
7 0 70.1144 14.5334 1019 55.9107 579.993 495.416
8 0 72.0994 14.9516 1078 55.4703 579.503 494.225
9 0 73.1356 13.6869 1001 57.4126 580.486 493.289
10 1 34.032 9.57923 326 61.7515 581.206 513.491
11 0 39.0341 11.5028 449 59.1336 579.862 511.984
12 0 39.0518 12.0865 472 59.5403 580.606 510.79
13 0 40.0555 12.283 492 58.7846 580.36 511.823
14 0 43.0935 12.6701 546 58.3516 580.286 510.769
15 0 43.1046 13.1772 568 58.2289 579.706 510.394
16 0 44.0151 12.0868 532 59.6579 579.774 509.906
17 0 45.0715 13.9556 629 58.345 579.884 508.695
18 0 47.0257 11.6957 550 60.58 579.68 511.278
19 0 48.0456 12.4257 597 59.6784 580.956 511.201
20 0 51.039 13.9697 713 57.8962 580.058 510.06
21 0 51.0667 13.4334 686 59.121 579.117 507.821
22 0 51.0308 12.561 641 60.3073 579.558 509.608
23 0 53.0627 13.7196 728 59.3722 580.04 506.723
24 0 56.0931 14.369 806 58.4504 579.897 506.568
25 0 57.1413 12.6704 724 60.4226 579.786 507.688
26 0 59.1452 13.5429 801 59.4082 580.011 506.255
27 0 60.1452 13.7334 826 59.2337 580.171 506.521
28 0 62.1649 14.5741 906 59.1865 579.567 503.311
29 0 63.0948 12.9488 817 61.049 579.913 504.896
30 0 65.07 15.0453 979 59.4556 580.441 500.803
31 0 66.1544 13.3324 882 61.5578 580.361 501.116
32 0 69.0724 13.7826 952 60.8088 580.946 500
33 0 70.1202 12.9064 905 62.1635 579.842 497.52
34 0 74.2352 14.8851 1105 60.2317 580.448 495.49
35 0 76.0971 13.8507 1054 61.3349 580.715 497.667
36 0 78.0876 11.9609 934 63.6713 580.734 496.64
37 0 80.0871 14.1721 1135 61.859 580.364 492.382
38 1 38.0307 11.9903 456 62.5022 579.932 515.342
39 0 40.0939 12.2712 492 63.2358 580.699 513.817
40 0 41.0465 11.085 455 63.7956 580.76 514.593
41 0 43.0673 12.5385 540 63.2611 580.983 512.383
42 0 43.1033 12.064 520 64.3038 581.238 512.737
43 0 45.1609 12.6215 570 63.4474 581.379 513.237
44 0 47.1155 12.8832 607 63.0791 581.124 512.723
45 0 48.1121 12.7827 615 62.6114 580.299 513.135
46 0 47.1017 11.6132 547 65.9616 581.53 509.898
47 0 50.095 10.7596 539 66.0482 581.468 510.777
48 0 54.1214 14.1534 766 61.7324 581.192 507.436
49 0 54.1255 13.3024 720 63.8347 581.315 508.053
50 0 55.2245 13.2188 730 64.2712 581.571 507.468
51 0 56.1023 14.224 798 63.381 581.469 506.996
52 0 59.1103 11.8761 702 65.7735 581.677 506.499
53 0 61.0804 13.3758 817 64.4468 582.099 504.819
54 0 63.0707 13.033 822 65.2214 582.019 503.054
55 0 64.1119 12.5718 806 65.6849 581.391 503.56
56 0 64.0508 12.5213 802 67.0574 581.935 500.825
57 0 68.0692 12.928 880 66.492 581.933 500.502
58 0 70.0813 12.143 851 67.6557 582.515 499.454
59 0 71.1517 12.0447 857 67.9452 581.826 497.193
60 0 74.1003 13.7111 1016 66.4764 581.778 495.06
61 0 75.0672 11.8427 889 68.6322 581.466 497.199
62 1 38.0253 10.8086 411 67.7567 581.978 515.127
63 0 38.0602 12.4802 475 66.9705 581.282 511.796
64 0 41.0197 10.9947 451 68.3792 581.386 512.284
65 0 43.133 13.0295 562 65.3381 581.361 512.201
66 0 45.0717 12.2472 552 66.5489 581.819 511.683
67 0 45.0811 12.9766 585 66.3829 581.771 510.839
68 0 46.1805 13.0358 602 66.995 581.968 510.317
69 0 47.1028 12.1437 572 68.3392 581.633 508.878
70 0 47.0494 11.8386 557 69.289 581.962 509.269
71 0 49.1576 13.5279 665 67.1639 581.57 507.54
72 0 52.0355 12.1263 631 68.71 581.468 508.941
73 0 52.0392 11.2607 586 69.9386 581.043 508.312
74 0 57.0648 12.9151 737 67.5644 581.43 505.486
75 0 56.0384 12.8483 720 68.8028 580.774 504.994
76 0 58.049 13.368 776 67.8299 581.22 503.137
77 0 60.0706 12.0025 721 70.1886 581.315 502.478
78 0 61.1004 12.6349 772 69.035 580.337 503.258
79 0 64.0134 13.669 875 68.5291 581.399 499.002
80 0 67.0808 12.5967 845 69.8876 581.879 500.399
81 0 68.0618 13.3996 912 69.6985 581.55 497.284
82 1 34.115 11.8716 405 68.5432 582.091 516.24
83 0 37.0725 9.9265 368 70.5217 582.03 516.223
84 0 37.0533 10.7683 399 69.9774 582.196 516.556
85 0 37.1308 10.7727 400 70.81 581.255 516.432
86 0 38.0937 12.128 462 69.5606 581.628 514.818
87 0 38.1178 11.9629 456 70.8794 581.697 513.52
88 0 41.113 10.9455 450 71.5489 581.369 512.162
89 0 41.0396 11.1356 457 72.372 582.416 510.263
90 0 43.0249 12.5509 540 69.5444 582.506 512.32
91 0 44.0966 11.3614 501 72.1198 582.527 510.22
92 0 46.0847 12.2817 566 70.3993 582.431 509.629
93 0 47.0574 10.8591 511 72.6497 582.528 509.043
94 0 50.0904 11.0001 551 71.441 582.646 508.236
95 0 52.0433 11.9324 621 69.7424 582.464 509.061
96 0 54.0554 12.8387 694 67.5792 581.722 509.307
97 0 53.1289 11.8391 629 70.5676 582.558 507.79
98 0 55.0345 11.9743 659 70.4158 581.784 506.364
99 0 57.0828 13.0512 745 68.6738 582.564 505.124
100 0 57.0536 12.6548 722 69.1579 582.165 504.831
101 0 57.0623 10.9004 622 72.1334 581.722 504.151
102 0 62.0769 13.1289 815 68.5853 581.832 500.974
103 0 62.0804 11.0341 685 71.9197 582.561 500.077
104 0 65.1132 12.3017 801 69.6879 582.476 499.398
105 0 69.033 13.4139 926 67.9244 581.443 497.334
106 0 72.0781 13.6657 985 67.3807 582.436 496.671
107 0 73.1654 12.1232 887 69.4588 581.492 494.888
108 0 74.0675 11.9351 884 69.9344 580.886 494.888
109 0 75.0457 11.2598 845 71.3929 581.825 492.946
110 1 39.0346 10.2473 400 68.86 580.885 512.235
111 0 40.0084 11.8725 475 67.1832 581.472 511.206
112 0 41.0529 10.5474 433 69.4781 582.134 511.691
113 0 43.0854 10.6533 459 68.0174 581.536 511.118
114 0 44.1094 12.6957 560 66.1571 581.879 508.895
115 0 43.085 10.7694 464 69.7522 581.651 508.312
116 0 45.0273 10.9045 491 69.9878 582.558 508.041
117 0 47.1251 10.9284 515 68.7903 582.287 508.748
118 0 49.072 12.0028 589 67.708 582.104 506.212
119 0 47.0778 12.0439 567 68.903 582.628 504.603
120 0 49.0202 12.5254 614 67.2752 581.87 505.474
121 0 51.0977 12.0749 617 67.2512 582.138 505.131
122 0 54.085 11.371 615 68.0228 582.694 503.767
123 0 55.0915 11.7441 647 67.7929 582.176 500.841
124 0 56.0485 10.7764 604 68.6457 582.27 502.488
125 0 59.0928 12.2011 721 66.81 582.037 500.114
126 0 59.0416 11.4326 675 68.3689 582.286 496.818
127 0 62.1108 11.6244 722 67.7258 582.184 497.565
128 0 63.1073 11.2824 712 68.0772 582.323 498.173
129 0 68.08 11.7949 803 67.7509 581.661 494.354
130 0 68.1603 12.3239 840 66.8476 581.432 494.02
131 0 69.0657 12.0031 829 67.7805 581.199 493.14
132 0 72.1089 12.2731 885 67.1582 581.637 493.44
133 0 76.0452 13.3342 1014 65.9428 581.857 490.954
134 1 37.0677 9.60404 356 68.7556 581.247 510.632
135 0 35.0887 8.97724 315 70.8508 582.21 508.838
136 0 39.05 10.064 393 68.5674 582.753 509.125
137 0 42.0975 10.9745 462 66.5346 582.511 510.08
138 0 43.094 11.4401 493 66.9757 582.322 507.176
139 0 44.0873 11.9536 527 67.0361 581.461 505.869
140 0 46.0849 11.6958 539 66.6716 581.317 508.942
141 0 47.0585 11.6451 548 67.4051 581.86 506.61
142 0 47.0889 10.5757 498 69.0884 581.657 506.072
143 0 48.0094 11.3936 547 67.9452 582.274 504.786
144 0 50.0764 10.9433 548 68.8522 582.646 505.648
145 0 50.13 10.9515 549 69.1457 582.424 505.588
146 0 52.0554 11.9488 622 67.9711 582.473 503.399
147 0 54.0344 11.5852 626 68.4489 581.748 503.8
148 0 55.1502 10.2629 566 69.9329 581.314 503.613
149 0 57.0751 11.6688 666 68.2688 581.336 499.568
150 0 59.0942 12.4378 735 67.6 581.399 499.464
151 0 62.1624 12.033 748 67.4692 581.906 499.413
152 0 64.1252 12.5224 803 67.0498 581.714 497.524
153 0 68.1579 12.9699 884 66.5713 581.69 496.897
154 0 65.0704 10.8959 709 70.5839 581.355 496.859
155 0 68.2485 12.3519 843 68.4875 582.461 496.129
156 0 72.1135 11.7038 844 69.2903 582.609 496.656
157 1 34.1495 8.25781 282 70.6383 582.564 513.465
158 0 36.1503 9.84776 356 68.2388 582.247 513.784
159 0 37.0959 11.5646 429 66.3403 581.615 512.848
160 0 37.1336 10.368 385 68.6909 581.397 513.034
161 0 38.0504 10.3284 393 70.4275 581.483 510.982
162 0 40.0593 10.6592 427 69.6674 581.93 511.892
163 0 41.1784 11.2923 465 68.9398 582.677 509.105
164 0 43.0598 11.3563 489 68.4315 582.562 510.006
165 0 44.1362 11.5552 510 68.4608 582.212 508.806
166 0 44.1047 9.22804 407 71.6904 582.555 509.025
167 0 47.0896 11.51 542 68.8764 582.078 505.581
168 0 49.1073 10.1411 498 70.3735 582.307 506.022
169 0 50.0812 10.9223 547 69.0512 582.422 505.159
170 0 52.0858 11.961 623 68.1637 582.39 503.862
171 0 54.0471 11.1754 604 68.7748 582.093 503.631
172 0 56.1484 12.0395 676 67.5074 582.654 502.089
173 0 56.0599 11.0953 622 69.9887 583.066 501.137
174 0 58.1091 11.4956 668 68.4566 582.599 503.624
175 0 59.1311 11.6859 691 68.9175 582.954 499.347
176 0 62.1414 12.021 747 68.0643 582.731 499.319
177 0 63.0977 10.0004 631 70.5547 581.686 499.857
178 0 66.1093 10.6037 701 69.582 581.809 498.879
179 0 70.1162 11.809 828 67.5399 582.159 494.71
180 0 70.0958 11.3416 795 68.4692 581.067 496.781
181 0 72.1374 11.1731 806 68.7122 580.532 495.061
182 0 75.126 12.6321 949 67.0105 580.654 493.055
183 1 37.0795 10.1943 378 67.4497 580.349 513.54
184 0 41.1029 10.9968 452 66.4823 579.734 511.507
185 0 39.123 10.6331 416 66.9976 580.183 513.663
186 0 42.0137 10.4252 438 67.0959 580.043 512.459
187 0 41.0746 10.4687 430 68.2512 579.94 511.163
188 0 43.0723 10.0529 433 68.5935 578.732 510.194
189 0 45.1048 10.4645 472 68.1017 578.591 510.049
190 0 45.0497 10.3219 465 68.5097 578.454 510.505
191 0 48.1232 10.6186 511 68.1233 577.693 509.432
192 0 47.0912 11.5945 546 67.7656 577.943 508.315
193 0 49.1444 11.924 586 67.3038 578.108 507.449
194 0 50.0772 11.5821 580 66.9707 578.031 509.378
195 0 53.1139 12.8592 683 65.4876 578.053 508.168
196 0 54.1303 12.082 654 66.6835 578.641 508.489
197 0 55.1188 12.3733 682 65.9575 577.625 508.787
198 0 57.0954 11.0692 632 67.9699 577.587 507.718
199 0 59.15 12.6965 751 65.6392 577.638 506.389
200 0 59.1518 11.4282 676 67.6391 577.784 504.318
201 0 61.1101 11.1111 679 67.9293 577.215 506.393
202 0 66.1053 13.2818 878 64.4841 577.769 503.266
203 0 67.1206 11.3974 765 66.5843 577.997 506.323
204 0 69.122 11.458 792 67.6048 577.701 503.803
205 1 144.308 13.3534 1927 68.041 577.172 464.919
206 1 74.1715 12.3498 916 66.238 577.678 501.903
207 1 39.0184 10.1747 397 68.3879 576.32 517.239
208 0 40.0052 10.7986 432 67.6065 575.965 518.194
209 0 40.0572 10.1105 405 69.2864 576.602 517.662
210 0 44.0403 13.1016 577 63.9324 576.957 518.054
211 0 45.1224 12.8761 581 64.6437 577.284 516.348
212 0 44.1532 12.5246 553 65.3382 576.783 516.141
213 0 46.1652 11.0689 511 66.9667 576.235 515.376
214 0 47.0822 11.7666 554 66.8736 575.48 515.007
215 0 49.0777 12.5719 617 65.7342 575.898 514.065
216 0 48.1373 11.0309 531 68.6572 576.083 514.806
217 0 52.1472 12.4647 650 65.98 575.294 511.871
218 0 52.1892 12.4355 649 67.1649 575.24 509.86
219 0 54.1372 12.3021 666 66.1126 575.722 511.563
220 0 56.047 11.526 646 67.1037 575.796 509.644
221 0 57.1119 11.4512 654 67.1407 576.06 508.985
222 0 57.0916 11.0349 630 67.7778 575.881 508.283
223 0 59.105 10.862 642 68.3832 575.628 507.174
224 0 62.0748 12.0661 749 66.0093 576.13 503.358
225 0 65.1074 12.3181 802 65.5424 576.526 500.685
226 0 68.0846 12.367 842 64.9964 576.233 501.017
227 0 68.0926 12.0131 818 65.0073 576.356 502.866
228 0 68.1528 10.6379 725 67.7448 575.601 499.931
229 0 72.0802 12.4583 898 64.931 575.323 498.027
230 1 36.1 11.9668 432 63.0278 574.944 515.692
231 0 36.0146 10.107 364 65.6044 575.374 514.734
232 0 39.0143 10.3552 404 64.8589 575.131 514.921
233 0 39.1279 10.4018 407 65.1548 575.69 514.732
234 0 41.0253 11.627 477 63.8952 575.092 514.178
235 0 45.0188 10.4845 472 64.6589 575.451 513.002
236 0 45.0992 11.4636 517 64.3269 575.619 511.037
237 0 47.0322 11.928 561 63.6613 575.902 509.25
238 0 48.0844 11.7086 563 64 575.982 509.449
239 0 48.1235 11.1796 538 65.2472 575.457 508.195
240 0 51.035 11.0512 564 65.8617 576.213 507.406
241 0 52.1175 10.2653 535 66.314 576.49 507.308
242 0 53.0617 11.4207 606 65.3399 577.226 507.129
243 0 55.0598 11.4421 630 65.0635 575.684 503.822
244 0 56.061 11.7907 661 64.3797 575.98 504.157
245 0 58.0999 12.2375 711 64.2096 576.466 502.172
246 0 58.193 10.4824 610 66.4492 576.08 504.518
247 0 63.0631 11.8294 746 64.071 576.639 501.594
248 0 65.0784 12.3851 806 63.1166 576.082 500.636
249 0 68.0498 13.446 915 61.3825 576.599 500.701
250 0 66.1184 11.3433 750 65.268 576.665 499.587
251 0 69.0624 10.1937 704 65.767 577.348 500.713
252 0 71.0825 11.6344 827 64.3386 576.671 498.778
253 0 74.2 11.6712 866 64.0323 576.932 499.913
254 0 76.0739 11.8832 904 64.6007 577.546 496.314
255 0 80.1044 12.3214 987 63.1256 577.48 495.602
256 0 83.1325 13.1236 1091 62.5912 576.995 492.527
257 1 42.0355 8.65935 364 65.4011 577.269 513.931
258 0 43.0158 10.8797 468 62.4829 576.761 514.908
259 0 44.0085 10.4071 458 62.2096 576.38 515.934
260 0 47.0889 10.873 512 61.9531 576.738 513.746
261 0 48.0665 8.84191 425 64.9341 576.402 512.687
262 0 49.1233 11.3185 556 62.0414 576.171 512.174
263 0 49.0413 11.0111 540 62.7037 576.485 509.289
264 0 53.0853 11.9054 632 61.6155 577.019 507.949
265 0 55.094 11.6528 642 61.9735 576.522 509.335
266 0 55.0564 10.4257 574 63.1237 576.484 508.571
267 0 56.0654 12.1465 681 61.5448 577.038 508.257
268 0 59.0507 11.1091 656 62.1768 576.849 510.003
269 0 59.1028 11.3531 671 62.611 576.79 507.459
270 0 60.1043 11.6132 698 62.1805 576.648 507.788
271 0 61.0519 11.9898 732 62.2418 577.092 503.04
272 0 66.0793 11.7435 776 62.0876 576.896 503.549
273 0 67.0807 12.0452 808 60.8874 576.033 506.475
274 0 69.0816 10.5817 731 63.2695 576.747 504.263
275 0 72.1964 12.5214 904 60.3838 576.445 503.408
276 0 73.0648 12.0441 880 60.9659 576.619 502.673
277 0 75.0965 12.4906 938 60.8102 576.01 498.161
278 0 77.134 10.8901 840 62.6738 576.693 498.339
279 0 80.092 11.8738 951 61.6246 575.646 497.637
280 0 83.1497 13.4456 1118 59.7773 575.423 495.381
281 0 83.0444 11.0543 918 62.2582 575.966 497.353
282 0 89.061 12.4858 1112 60.9083 576.111 495.624
283 0 90.0938 11.488 1035 62.6386 575.814 492.165
284 0 92.1005 11.4223 1052 62.8479 575.481 490.532
285 1 47.0272 8.8672 417 63.5468 574.851 514.739
286 0 51.0874 10.1003 516 62.2539 575.13 513.653
287 0 50.033 9.094 455 64.6308 575.409 512.646
288 0 53.0559 12.2889 652 61.1549 575.107 510.828
289 0 53.0325 10.1824 540 64.1222 575.1 509.687
290 0 58.0988 11.3255 658 61.924 574.793 508.658
291 0 57.0948 11.9626 683 62.0498 575.006 506.212
292 0 59.0383 11.5688 683 62.7101 574.99 509.12
293 0 61.0719 12.9028 788 60.8426 575.387 506.104
294 0 63.0566 12.6236 796 61.6407 575.029 506.533
295 0 65.0451 13.1755 857 61.0128 576.236 503.319
296 0 67.0492 11.0814 743 63.6676 575.752 503.299
297 0 65.094 10.9073 710 64.5479 574.849 499.02
298 0 70.0875 10.6581 747 64.5315 574.759 501.36
299 0 71.1472 12.3547 879 63.1547 574.709 500.696
300 0 74.0659 11.1387 825 64.6836 575.116 500.042
301 0 77.0473 11.9667 922 64.1941 574.682 497.167
302 0 80.1492 12.0276 964 64.529 574.151 496.244
303 0 82.0558 11.7237 962 65.1518 574.367 494.131
304 0 86.0638 13.8037 1188 62.3636 574.548 492.894
305 0 89.061 12.4634 1110 63.9928 574.191 492.082
306 0 90.0805 12.722 1146 64.5846 574.766 491.673
307 1 46.0565 9.64033 444 67.1757 574.392 510.169
308 0 49.0586 12.2099 599 63.9316 574.15 510.925
309 0 51.0282 11.2095 572 65.4353 574.496 508.587
310 0 53.0227 13.0133 690 63.9362 574.603 507.699
311 0 55.0351 11.7743 648 65.7917 574.137 506.335
312 0 57.0363 13.5352 772 63.0972 574.986 505.94
313 0 57.0595 12.6535 722 64.8781 574.992 505.091
314 0 58.0894 11.9299 693 66.0144 574.452 505.058
315 0 61.0334 13.468 822 62.4684 574.022 506.136
316 0 63.1248 12.1664 768 64.9167 574.173 503.814
317 0 63.1008 10.4595 660 67.6439 574.621 503.223
318 0 62.1089 10.5138 653 68.124 574.39 501.023
319 0 67.0908 12.0732 810 65.5494 574.418 501.094
320 0 68.0921 12.0278 819 65.989 574.494 499.424
321 0 68.0595 9.74148 663 69.1373 575.189 498.309
322 0 71.0592 12.7922 909 65.7811 575.334 495.959
323 0 74.0534 11.3702 842 66.7755 575.467 497.766
324 0 76.1336 10.7311 817 68.4969 575.051 493.24
325 0 78.0412 10.2254 798 69.2318 574.821 494.203
326 0 81.1283 10.8593 881 68.5709 574.51 490.733
327 0 84.0888 11.357 955 68.2576 574.081 489.652
328 1 38.0436 8.5954 327 69.4618 574.083 511.275
329 0 41.0723 9.69022 398 68.6508 574.741 512.553
330 0 40.0273 9.96821 399 69.3233 574.496 511.388
331 0 43.0191 9.36794 403 69.3846 574.948 508.62
332 0 45.0474 10.4779 472 68.2903 574.392 509.479
333 0 46.0279 10.863 500 67.422 575.298 510.158
334 0 49.0198 11.1792 548 67.1697 574.068 509.785
335 0 47.0521 9.47886 446 69.6794 573.944 510.215
336 0 50.0474 10.6499 533 68.1445 573.992 506.606
337 0 50.0497 10.1699 509 68.4401 574.43 506.253
338 0 51.0206 9.95676 508 69.2342 574.612 505.313
339 0 52.0318 10.2245 532 69.0733 574.37 502.289
340 0 53.0619 9.47949 503 69.9702 574.845 503.509
341 0 54.0546 9.65689 522 69.9636 574.331 502.425
342 0 55.0222 10.0323 552 70.3098 573.986 500.893
343 0 56.0472 10.4376 585 69.9043 573.525 499.301
344 0 57.0221 9.68045 552 70.4728 573.246 496.409
345 0 59.0981 10.0003 591 70.2809 574.587 500.032
346 0 60.0575 7.79254 468 72.6816 574.143 495.951
347 0 64.0479 7.2602 465 72.9892 574.428 493.63
348 0 67.0294 8.66783 581 72.0723 574.243 496.296
349 0 69.0864 8.9598 619 72.0258 574.357 494.234
350 0 67.0409 5.62344 377 76.2361 574.66 488.674
351 0 68.0454 5.30528 361 77.5457 574.598 492.36
352 1 31.0131 5.93298 184 71.7663 574.206 506.554
353 0 34.0548 8.31013 283 70.7138 574.396 510.346
354 0 42.0229 9.70899 408 75.3064 574.782 470.613
355 0 51.0435 2.39012 122 81.1557 573.713 490.508
356 1 39.026 9.96771 389 69.1285 573.985 506.54
357 0 40.0086 8.17324 327 71.8318 574.318 508.119
358 0 41.041 6.96864 286 73.458 574.885 508.178
359 0 41.02 6.21648 255 73.1961 574.588 504.145
360 0 43.042 7.7831 335 72.2209 574.955 505.791
361 0 43.023 8.39085 361 71.4792 574.853 503.684
362 0 45.0531 6.90296 311 72.7653 574.476 504.489
363 0 47.0281 8.61188 405 71.3728 574.748 504.151
364 0 47.0226 8.44276 397 71.7128 574.861 501.4
365 0 49.1564 8.84931 435 70.908 574.294 501.434
366 0 55.0628 11.4052 628 67.5844 575.057 499.035
367 0 54.1497 8.14409 441 71.9637 575.347 495.512
368 0 53.1293 6.83239 363 72.854 575.193 492.182
369 0 59.0419 6.01268 355 74.1296 574.879 492.38
370 0 62.1159 7.69529 478 72.1339 574.592 495.891
371 0 64.1271 9.60593 616 70.0536 574.58 494.076
372 0 64.1124 7.1593 459 73.2244 574.194 491.068
373 0 64.076 6.16455 395 74.762 574.752 492.825
374 1 31.0116 6.12674 190 74.0316 575.421 510.363
375 0 29.0291 3.41038 99 77.7778 575.455 509.414
376 0 32.0556 5.55286 178 75.2528 575.23 509.41
377 0 35.0822 7.86723 276 72.5217 575.768 512.232
378 0 34.0413 8.4897 289 71.7716 575.163 509.066
379 0 35.0962 5.92657 208 74.3365 574.899 506.558
380 0 40.0537 8.76324 351 71.6211 575.251 507.672
381 0 41.0345 9.23612 379 71.1741 574.551 505.092
382 0 40.0248 7.8951 316 72.4209 574.282 504.206
383 0 39.0728 7.24288 283 72.5336 574.632 500.954
384 0 38.0192 6.70715 255 73.7098 575.753 500.98
385 0 45.043 9.81285 442 70.9344 575.769 504.649
386 0 45.0234 8.68436 391 71.3811 575.299 501.041
387 0 51.0448 9.48187 484 70.6901 575.072 502.221
388 0 52.0564 10.6615 555 69.7351 575.786 503.139
389 0 55.1132 9.0178 497 70.994 575.264 500.477
390 0 59.0764 12.6446 747 65.7497 575.269 503.288
391 0 61.0678 11.1679 682 67.8739 575.337 500.931
392 0 63.0575 10.4825 661 68.6339 575.017 500.942
393 0 65.1451 10.3768 676 68.7456 575.544 500.87
394 0 65.1096 10.3978 677 68.9055 575.684 501.276
395 0 69.1759 11.7237 811 67.1344 575.444 499.783
396 0 72.062 12.2533 883 66.5776 575.823 496.045
397 0 73.1448 11.2243 821 67.8526 576.119 494.951
398 0 74.0832 10.7717 798 68.6566 575.692 495.32
399 1 36.0393 8.40749 303 68.9307 575.957 515.931
400 0 37.0291 10.4782 388 65.9175 576.58 513.299
401 0 41.0309 11.3329 465 63.6409 576.69 514.628
402 0 41.0189 9.92226 407 66.2555 577.059 513.882
403 0 41.0827 9.80949 403 66.8908 576.62 512.916
404 0 45.0678 11.4938 518 64.2317 576.068 512.666
405 0 45.0285 11.7703 530 64.1868 575.383 511.587
406 0 47.0305 12.056 567 63.7072 576.09 510.624
407 0 48.0223 11.453 550 64.5836 576.629 511.018
408 0 48.0278 11.4101 548 65.4927 576.385 508.515
409 0 51.0926 11.4889 587 64.6014 576.307 508.102
410 0 53.0234 11.5798 614 64.0847 576.406 509.583
411 0 54.0715 10.9115 590 65.2492 576.07 509.095
412 0 54.0389 10.4184 563 66.1581 575.805 507.107
413 0 57.046 11.3417 647 64.4096 575.403 508.056
414 0 59.0178 11.9964 708 63.8093 575.233 507.412
415 0 61.0479 11.8759 725 63.7324 574.919 505.55
416 0 61.0438 10.7464 656 65.6921 575.163 503.718
417 0 63.0751 12.4455 785 63.1541 575.005 504.82
418 0 63.1085 10.6008 669 66.2765 574.792 504.022
419 0 68.0333 12.4057 844 63.2559 575.44 500.733
420 0 71.0898 11.5206 819 63.851 575.342 500.399
421 0 72.0648 11.3925 821 63.7406 575.521 501.669
422 0 74.1489 10.0473 745 65.8537 575.298 500.012
423 1 40.0507 11.86 475 62.3368 575.49 515.964
424 0 37.0933 9.40871 349 66.6418 575.295 516.158
425 0 42.1005 10.3087 434 65.0092 574.991 514.82
426 0 42.0243 10.1846 428 64.6986 575.089 515.764
427 0 43.0279 12.1084 521 63.1324 574.783 513.447
428 0 44.0463 11.1701 492 63.5915 574.974 516.159
429 0 46.0537 12.5723 579 61.9396 575.342 514.579
430 0 46.05 10.2063 470 65.6766 575.621 512.77
431 0 49.1194 12.1948 599 62.6528 575.346 510.653
432 0 50.0118 12.2371 612 63.3235 575.855 509.73
433 0 52.0821 12.9987 677 62.0561 574.27 509.913
434 0 54.0565 11.599 627 63.8373 574.3 508.576
435 0 55.1178 11.0309 608 64.597 574.286 506.548
436 0 56.0992 12.2283 686 63.5379 575.235 505.757
437 0 57.0679 10.4788 598 65.7023 575.082 505.37
438 0 58.0646 10.5916 615 65.7854 575.216 504.784
439 0 62.1508 12.4858 776 63.3003 574.782 503.973
440 0 63.097 10.8246 683 64.9356 574.968 502.966
441 0 65.0464 10.946 712 65.0562 574.833 503.195
442 0 67.1607 12.2989 826 63.2385 574.655 500.936
443 0 70.0989 10.6278 745 65.0081 574.785 499.844
444 0 73.1792 13.6241 997 61.6319 574.695 499.099
445 0 75.1074 11.2639 846 64.3794 574.682 498.232
446 0 77.1686 11.2999 872 64.43 574.784 493.837
447 0 79.1303 12.3467 977 63 574.713 493.718
448 0 81.0888 11.1483 904 64.9569 573.915 490.298
449 0 84.0786 12.7975 1076 63.2119 574.574 487.906
450 1 46.0438 11.337 522 62.5211 575.088 509.69
451 0 46.03 10.4714 482 64.1535 574.633 509.307
452 0 48.0883 9.37858 451 65.0222 574.545 510.288
453 0 49.0566 11.5173 565 63.2266 574.531 508.173
454 0 50.0668 10.2463 513 64.3684 575.088 509.986
455 0 52.0537 11.3344 590 62.6508 574.697 509.814
456 0 54.0458 12.5634 679 61.7761 575.296 507.377
457 0 56.068 10.9867 616 63.0373 574.471 505.698
458 0 54.0802 11.4275 618 63.3301 575.277 506.484
459 0 56.0273 11.1017 622 62.7572 575.235 504.942
460 0 61.0365 13.025 795 60.2377 574.912 504.514
461 0 62.0412 12.5562 779 61.1669 575.404 502.628
462 0 61.0398 10.8781 664 63.7696 575.449 503.068
463 0 64.1867 11.9028 764 62.0052 574.965 503.381
464 0 65.0916 11.9678 779 62.6662 575.4 501.719
465 0 68.126 12.8732 877 61.244 575.028 499.334
466 0 70.0977 11.6266 815 63.135 575.071 497.157
467 0 73.1839 13.0903 958 61.1211 575.118 498.467
468 0 73.0658 12.1397 887 62.6595 574.472 498.063
469 0 76.0721 11.3839 866 63.9457 574.721 494.722
470 0 79.1384 13.5332 1071 61.5957 574.864 493.462
471 0 83.1952 12.5007 1040 61.8577 574.679 497.316
472 0 83.1717 10.4242 867 65.5213 574.322 492.758
473 0 85.1568 10.2282 871 66.2021 575.102 491.959
474 0 88.0637 10.7763 949 66.1444 575.586 488.49
475 0 92.1499 12.2518 1129 64.2826 574.581 487.869
476 1 50.1068 10.2581 514 65.679 574.173 509.887
477 0 50.0841 10.123 507 67.0039 573.968 506.266
478 0 55.1065 12.3942 683 62.5622 573.742 508.852
479 0 54.0267 10.6984 578 65.2785 574.109 507.249
480 0 57.0613 11.6016 662 63.8308 573.524 503.752
481 0 58.0542 12.7122 738 62.5379 573.297 504.932
482 0 61.0519 13.1855 805 61.5938 573.47 504.619
483 0 60.0487 10.3416 621 65.2625 574.261 500.787
484 0 64.0474 12.4127 795 62.3761 574.438 500.623
485 0 65.0136 12.5205 814 62.1327 574.478 501.565
486 0 69.1024 11.7362 811 62.8385 574.647 501.009
487 0 71.0545 12.5678 893 61.589 575.214 500.916
488 0 70.2296 11.8326 831 63.0951 574.771 497.943
489 0 73.146 13.6713 1000 60.881 574.8 496.781
490 0 75.1105 11.4365 859 63.3073 574.173 498.137
491 0 77.0458 12.6418 974 62.2444 574.643 493.793
492 0 78.0712 11.1949 874 64.0641 574.456 490.691
493 0 83.2599 12.3229 1026 61.9708 574.14 492.222
494 0 81.1374 9.29288 754 65.805 574.528 489.476
495 0 87.1187 12.1443 1058 62.087 574.508 490.517
496 0 89.1527 13.662 1218 60.9236 574.107 487.066
497 0 92.0749 12.2726 1130 61.5212 573.968 492.674
498 0 95.1354 13.1392 1250 61.3304 574.573 486.45
499 0 96.1073 12.0386 1157 62.9473 573.926 484.602
500 0 101.085 12.5143 1265 62.1415 573.453 484.168
501 1 51.0537 9.89155 505 62.6594 573.638 508.879
502 0 52.0234 9.89939 515 63.499 573.862 506.693
503 0 54.1161 11.0688 599 62.7462 574.16 504.212
504 0 56.1006 10.8911 611 63.1964 574.62 504.558
505 0 59.0317 11.6039 685 61.1547 574.622 507.203
506 0 59.0562 11.9886 708 61.7994 574.212 503.551
507 0 61.0888 12.1299 741 61.5277 573.494 501.63
508 0 63.0352 11.3111 713 62.6816 573.551 501.414
509 0 66.073 11.5024 760 62.3171 573.782 500.197
510 0 69.2126 11.6742 808 61.6943 573.625 499.366
511 0 71.0809 12.8023 910 60.6615 573.422 497.729
512 0 72.0541 12.7265 917 60.9258 573.267 499.032
513 0 75.083 12.7326 956 60.5398 573.695 498.96
514 0 79.0808 13.4925 1067 60.1059 573.631 496.72
515 0 80.0735 12.1513 973 61.7554 573.731 495.913
516 0 81.1226 11.1436 904 62.9038 574.345 494.955
517 0 84.1006 13.793 1160 60.2612 573.832 493.784
518 0 88.0543 12.2197 1076 62.2091 574.217 492.96
519 0 91.0684 13.0342 1187 61.3943 573.302 491.915
520 0 91.0641 12.1343 1105 63.5267 573.045 488.022
521 0 95.1125 12.2907 1169 63.124 573.938 487.34
522 0 94.1072 9.40416 885 65.7333 573.843 490.287
523 0 100.186 13.2853 1331 62.4899 573.434 486.054
524 0 101.078 11.8523 1198 64.0401 573.98 485.899
525 0 106.251 12.4517 1323 63.4558 573.826 481.626
526 0 109.126 13.4157 1464 62.6667 573.694 480.546
527 0 113.135 12.5602 1421 63.5025 573.28 480.495
528 1 56.0812 10.2352 574 62.6725 574.033 509.017
529 0 59.1076 10.4893 620 63.2984 573.9 505.376
530 0 63.0706 11.7487 741 61.1808 574.484 506.251
531 0 63.1755 10.4946 663 63.3077 573.834 505.728
532 0 67.2239 12.8675 865 60.452 574.105 504.288
533 0 69.1002 10.5644 730 63.3904 574.174 503.47
534 0 69.0547 9.89071 683 63.9502 573.54 501.533
535 0 71.217 9.75891 695 64.9036 573.607 501.035
536 0 74.1706 10.9747 814 63.5123 573.393 499.839
537 0 76.1179 11.0224 839 63.64 573.204 496.944
538 0 78.064 12.5922 983 61.8678 573.488 496.709
539 0 82.0841 12.4263 1020 61.5735 573.287 497.656
540 0 82.1662 11.2698 926 64.0324 573.809 494.499
541 0 86.0492 10.2732 884 64.9333 573.469 494.137
542 0 87.179 10.7709 939 65.279 573.248 490.17
543 0 90.1306 9.91894 894 66.6242 573.966 489.752
544 0 94.1191 12.6223 1188 63.7424 574.018 490.194
545 0 96.1646 11.4075 1097 65.2562 573.54 488.269
546 0 100.22 10.6067 1063 66.3264 573.246 489.382
547 1 58.0635 11.0741 643 63.4075 573.678 507.232
548 0 59.0901 10.5263 622 63.6865 573.397 507.265
549 0 61.1037 11.7014 715 62.7622 573.308 504.957
550 0 62.1162 11.559 718 63.2841 573.103 502.745
551 0 64.0682 9.20894 590 64.9814 573.432 505.356
552 0 67.1157 11.3982 765 63.5752 573.26 501.012
553 0 67.1172 7.94133 533 65.469 573.546 505.416
554 0 71.1419 9.95195 708 64.1935 574.096 502.582
555 0 72.072 9.19913 663 66.4555 573.531 499.253
556 0 76.1977 10.6959 815 64.308 574.422 498.243
557 0 80.1553 10.7416 861 64.3298 573.833 495.438
558 0 80.1256 10.3587 830 65.5699 573.594 493.747
559 0 82.1095 9.92577 815 66.4724 572.974 489.321
560 0 87.1812 10.0136 873 66.1924 573.322 491.346
561 0 89.1946 11.3348 1011 65.0613 573.273 488.039
562 0 93.2506 11.3136 1055 65.2095 573.295 488.443
563 1 49.0876 11.0008 540 61.4167 574.132 510.998
564 0 52.0384 10.9342 569 61.4429 574.156 511.33
565 0 51.0144 9.42871 481 63.7214 573.915 509.05
566 0 54.1028 9.99949 541 62.8022 573.723 506.601
567 0 54.1439 10.823 586 61.8003 573.498 507.053
568 0 55.0788 11.656 642 61.2617 573.737 505.128
569 0 58.0913 11.0516 642 61.1636 572.927 507.065
570 0 58.1235 11.0627 643 61.4946 572.806 505.445
571 0 60.0332 10.4609 628 61.879 572.607 504.097
572 0 61.1123 10.3907 635 62.6882 574.074 502.477
573 0 64.1293 11.6483 747 61.2892 573.509 499.839
574 0 65.0836 10.3405 673 63.156 573.596 501.113
575 0 69.0694 9.628 665 63.1804 573.803 503.189
576 0 72.1858 10.6669 770 62.1104 573.721 497.801
577 0 73.2002 10.7923 790 61.6747 573.2 496.53
578 0 76.1434 12.8442 978 59.1922 573.878 494.731
579 0 77.2661 10.3927 803 62.2316 574.123 492.02
580 0 78.1922 6.48402 507 66.2406 574.953 495.629
581 0 84.2777 9.49243 800 63.095 575.351 492.368
582 1 43.0419 10.4782 451 59.1996 575.745 511.031
583 0 44.0345 9.26546 408 59.4632 574.662 511.495
584 0 46.037 9.70958 447 59.3333 574.678 511.246
585 0 46.0649 9.9859 460 58.9848 574.22 509.785
586 0 49.0557 8.98978 441 59.9614 574.333 511.172
587 0 50.1075 9.93862 498 59.5161 575.141 508.213
588 0 52.0951 9.86658 514 58.6887 574.5 509.42
589 0 53.0484 10.0663 534 60.0861 573.727 506.23
590 0 55.087 11.5091 634 58.3786 574.536 505.374
591 0 56.2255 10.8314 609 59.3448 574.867 502.824
592 0 57.0889 11.0004 628 59.5526 574.551 501.742
593 0 60.0825 9.18737 552 60.4656 574.063 499.542
594 0 61.1595 8.43695 516 59.8178 574.415 504.855
595 0 64.0729 10.8782 697 57.4706 574.558 501.099
596 0 63.0786 8.19612 517 60.4062 574.412 501.126
597 0 65.131 8.38311 546 60.3919 574.61 499.945
598 0 68.1936 9.89829 675 58.2904 574.733 500.612
599 0 73.1575 10.4159 762 56.5276 574.751 499.474
600 0 72.3253 9.7891 708 58.1299 575.025 495.386
601 0 76.118 11.7055 891 56.3883 574.374 492.791
602 0 79.3536 10.5351 836 57.8876 574.475 493.958
603 0 81.2057 10.8859 884 57.4197 574.414 494.097
604 0 81.1383 9.89668 803 59.0897 574.361 489.925
605 0 88.2137 11.2794 995 57.406 574.194 490.849
606 0 90.2349 11.1043 1002 58.0489 575.062 488.67
607 1 47.0925 9.5769 451 58.3082 575.12 509.741
608 0 51.1741 11.5293 590 56.4203 575.051 510.254
609 0 53.0999 10.3955 552 58.0326 575.478 507.058
610 0 53.0669 9.87433 524 59.5095 575.492 506.471
611 0 56.0414 9.88556 554 59.8141 575.338 502.704
612 0 58.0399 11.8884 690 58.0986 574.97 504.257
613 0 59.0754 11.1552 659 59.9499 575.068 501.909
614 0 59.1159 10.8093 639 60.2817 575.275 504.455
615 0 62.0496 11.2652 699 60.701 575.864 504.004
616 0 65.0509 11.222 730 60.7507 575.399 500.364
617 0 66.0419 10.887 719 61.7636 575.864 502.683
618 0 67.1264 11.6199 780 61.5449 575.256 502.515
619 0 69.053 12.3673 854 61.4813 574.925 498.155
620 0 73.0525 12.6758 926 61.352 574.856 499.904
621 0 75.0522 12.6046 946 61.2304 574.975 499.842
622 0 77.0486 11.9016 917 62.8615 575.056 496.859
623 0 76.1334 10.4553 796 65.5427 574.798 496.173
624 1 38.0685 9.03633 344 64.4186 574.983 515.919
625 0 41.0367 9.69864 398 61.6658 574.822 518.161
626 0 42.0244 11.8979 500 60.492 574.362 514.604
627 0 42.0452 11.0833 466 62.4142 573.974 513.916
628 0 43.038 9.34059 402 65.209 573.719 511.622
629 0 45.0796 10.9806 495 64.3818 575.38 510.988
630 0 49.023 10.8724 533 63.2345 574.58 514.861
631 0 50.0768 11.3426 568 63.3081 574.685 512.833
632 0 49.0543 10.6413 522 65.8716 574.946 510.921
633 0 52.1062 12.7432 664 62.1657 574.599 510.518
634 0 53.1256 11.7269 623 63.5457 573.957 511.395
635 0 55.092 11.4899 633 64.218 574.485 510.398
636 0 53.063 11.5523 613 65.5775 574.714 508.542
637 0 58.0445 11.1638 648 65.2284 574.602 508.853
638 0 57.0481 11.2887 644 65.8696 574.772 508.269
639 0 59.0521 12.6668 748 63.9144 574.497 506.281
640 0 61.0737 11.1996 684 66.4693 574.852 503.981
641 0 63.1104 11.6146 733 65.3561 575.559 506.15
642 0 65.1053 13.0097 847 64.0862 574.823 501.063
643 0 66.1258 13.2475 876 63.7066 574.715 502.84
644 0 69.1705 12.4041 858 63.4522 573.906 503.727
645 0 68.1055 11.8199 805 64.7851 574.277 502.466
646 0 72.1259 12.9912 937 63.1313 574.642 500.552
647 0 73.0657 11.9208 871 65.0184 574.846 498.548
648 0 77.0957 11.5441 890 64.6303 574.717 496.672
649 0 81.0864 13.7384 1114 61.3384 574.706 497.073
650 0 80.2539 12.3732 993 63.9537 574.548 493.27
651 0 84.1733 12.6406 1064 62.9549 575.07 494.962
652 0 87.3045 12.1185 1058 63.4452 575.398 493.394
653 1 45.0904 9.51421 429 64.6387 574.445 512.387
654 0 46.075 10.5914 488 63.2377 573.488 511.617
655 0 49.2027 10.1011 497 63.839 574.241 511.227
656 0 49.1084 9.95757 489 64.4008 574.364 510.223
657 0 52.1734 10.1584 530 63.8019 574.587 510.258
658 0 52.0804 10.2534 534 63.7603 574.732 511.015
659 0 57.0636 12.3371 704 60.0511 574.83 510.74
660 0 56.097 10.2323 574 63.7334 575.216 509.303
661 0 58.0471 11.9558 694 61.3429 575.048 507.367
662 0 60.0513 12.889 774 59.3618 574.817 504.88
663 0 61.1687 11.6726 714 60.591 575.052 507.298
664 0 63.0898 11.872 749 60.9599 574.035 505.083
665 0 64.1799 10.7666 691 61.8611 574.559 502.514
666 0 66.0984 10.4995 694 61.8444 574.612 500.769
667 0 69.0671 13.3059 919 58.6344 574.221 501.547
668 0 71.1671 11.8313 842 60.1948 574.865 501.879
669 0 75.1332 12.5111 940 58.9681 574.253 500.092
670 0 76.266 11.9319 910 60.2912 574.586 498.655
671 0 80.2288 12.3397 990 59.4333 575.544 497.525
672 0 79.1823 11.3283 897 61.4916 574.606 498.96
673 0 84.1643 11.9053 1002 60.8683 575.463 494.411
674 1 40.1872 10.6999 430 62.207 574.905 514.981
675 0 41.123 8.97308 369 65.0461 575.304 513.566
676 0 45.1777 10.4255 471 62.7771 575.331 514.607
677 0 45.1452 10.433 471 63.3779 575.257 513.062
678 0 46.079 12.2616 565 62.5982 575.542 509.993
679 0 48.0735 11.5864 557 63.1652 575.555 510.497
680 0 50.0699 12.6623 634 61.6798 575.771 510.025
681 0 52.0546 11.2766 587 63.3458 576.341 511.641
682 0 52.0463 11.605 604 63.6142 576.036 510.846
683 0 54.0236 11.3099 611 64.0524 575.864 510.462
684 0 56.0528 11.4357 641 64.0562 576.218 506.847
685 0 57.0549 13.1277 749 61.5834 576.092 510.935
686 0 60.0692 12.985 780 61.6654 575.009 509.424
687 0 62.0411 12.8786 799 62.7922 575.564 506.915
688 0 62.0347 11.816 733 64.0791 575.561 507.754
689 0 64.0317 12.4626 798 63.7857 575.318 502.919
690 0 64.0248 10.6521 682 66.3563 575.5 504.16
691 0 68.0334 11.656 793 64.0063 575.864 506.337
692 0 69.082 12.1595 840 64.2738 575.502 501.335
693 0 72.0862 13.0122 938 63.1269 575.033 502.651
694 0 75.2136 13.4151 1009 62.4896 574.207 502.937
695 0 77.155 12.2999 949 64.412 574.39 499.406
696 0 82.0757 12.5372 1029 64.0049 574.184 498.015
697 0 82.0873 12.6938 1042 64.2121 574.974 495.842
698 0 86.1176 13.0751 1126 63.214 574.871 497.056
699 0 88.1231 11.4612 1010 66.5881 574.827 493.029
700 1 48.0791 10.6075 510 64.3941 575.055 515.439
701 0 49.0118 10.9769 538 64.0799 574.877 514.924
702 0 50.0787 11.7415 588 64.017 574.41 512.395
703 0 51.0484 12.0082 613 64.2153 574.742 509.413
704 0 52.0667 10.9667 571 65.6532 575.224 508.65
705 0 54.2214 11.0473 599 65.5977 574.488 507.509
706 0 56.1183 12.937 726 63.4504 574.154 506.072
707 0 58.1274 12.1629 707 63.7822 573.726 507.208
708 0 58.1185 10.926 635 65.4898 574.472 504.175
709 0 61.1428 12.4626 762 63.4895 574.995 504.214
710 0 62.242 12.355 769 63.4798 574.368 503.006
711 0 66.0775 12.5005 826 63.3414 575.012 502.926
712 0 68.1272 12.2271 833 63.9112 574.354 499.796
713 0 70.0398 11.522 807 64.2924 574.177 500.736
714 0 71.2774 11.5324 822 64.062 573.88 502.811
715 0 75.1564 12.0282 904 63.6504 574.106 499.95
716 0 77.105 11.5816 893 63.5577 573.873 500.979
717 0 82.0844 11.8658 974 63.6047 574.384 497.596
718 0 84.1607 12.0365 1013 63.9121 574.723 494.209
719 1 42.0444 11.3451 477 62.6646 574.964 517.025
720 0 42.0193 10.4238 438 64.5708 574.813 515.973
721 0 46.0393 11.5553 532 62.9455 574.429 514.898
722 0 47.083 11.8727 559 64.0519 574.583 511.021
723 0 46.0626 10.9633 505 65.3941 573.822 513.099
724 0 47.0533 11.7739 554 65.3827 574.937 510.774
725 0 51.1649 11.9613 612 64.2647 574.431 511.845
726 0 51.0509 11.5571 590 65.7542 573.863 512.295
727 0 53.0867 11.2834 599 65.6411 574.509 511.663
728 0 53.0281 12.5782 667 64.907 574.258 510.387
729 0 55.0366 11.5741 637 66.3893 574.177 510.553
730 0 59.1998 12.4494 737 64.4003 574.003 510.982
731 0 59.1115 10.9962 650 66.7677 573.775 508.863
732 0 62.1688 10.8254 673 66.6092 573.802 508.63
733 0 65.222 12.4958 815 64.8994 573.342 507.093
734 0 65.0548 12.7124 827 64.9178 573.143 506.017
735 0 67.0794 11.2553 755 67.1629 574.245 502.829
736 0 68.1382 11.0364 752 67.0279 574.304 504.144
737 0 71.1276 11.4583 815 66.4945 574.01 502.436
738 0 75.0842 13.4116 1007 63.8163 574.447 501.022
739 0 76.1407 12.779 973 64.9897 574.305 500.038
740 0 80.2623 13.3936 1075 64.2102 574.357 498.731
741 0 82.1147 11.8736 975 66.5826 574.052 496.584
742 1 44.0487 11.3511 500 65.716 574.01 516.002
743 0 44.0342 9.71971 428 68.4463 573.591 515.743
744 0 45.1409 9.7251 439 68.4488 573.433 516.251
745 0 48.164 12.4782 601 65.6106 572.957 513.373
746 0 51.0119 12.1148 618 65.623 573.188 514.081
747 0 50.0614 10.9466 548 67.4982 574.009 513.956
748 0 51.0469 11.6168 593 68.4637 574.01 511.892
749 0 55.1026 12.5947 694 66.3228 574 510.014
750 0 56.0634 13.5204 758 65.3892 573.958 509.64
751 0 56.0378 11.7778 660 68.0576 573.092 509.377
752 0 59.0867 12.1686 719 67.3491 573.021 507.9
753 0 62.1395 14.5479 904 63.4646 573.612 507.363
754 0 63.1681 12.9971 821 66.5372 574.013 504.228
755 0 64.0623 12.16 779 67.8447 573.394 504.386
756 0 68.1594 13.0136 887 65.8241 573.381 504.533
757 0 70.1192 12.7497 894 66.4362 573.663 504.046
758 0 72.1262 12.3672 892 67.2657 573.88 501.676
759 0 73.1105 12.9667 948 67.1677 572.643 498.722
760 0 75.3154 11.7771 887 68.8207 572.736 498.31
761 0 78.0721 13.4747 1052 66.2405 572.751 498.652
762 0 81.294 12.5224 1018 68.0462 573.268 495.82
763 0 84.136 12.5036 1052 68.2196 573.652 495.647
764 0 86.162 13.8228 1191 66.5071 573.362 492.979
765 0 89.119 14.3291 1277 66.1566 573.07 490.979
766 1 45.1752 10.7581 486 70.8025 572.887 513.294
767 0 48.1388 11.82 569 68.9016 573.306 512.907
768 0 46.1443 10.5322 486 71.716 573.364 512.383
769 0 50.2104 13.2044 663 67.1252 573.401 511.323
770 0 52.0676 13.348 695 66.6935 573.422 510.722
771 0 53.131 13.7585 731 66.5718 573.763 509.759
772 0 51.0722 11.7481 600 71.35 573.998 508.61
773 0 53.0888 12.6392 671 69.6975 572.766 507.751
774 0 57.1306 13.5654 775 67.4013 573.2 508.196
775 0 58.0805 13.2919 772 67.2332 573.188 508.22
776 0 59.0595 12.5975 744 68.4892 573.032 507.137
777 0 63.1717 13.8353 874 65.3982 573.168 506.148
778 0 63.15 16.1203 1018 62.0196 573.942 506.92
779 0 67.2044 14.999 1008 63.5099 574.029 503.628
780 0 66.1359 12.3987 820 67.7049 574.066 503.279
781 0 71.1213 14.1167 1004 64.742 572.865 500.765
782 0 73.1019 12.5305 916 66.7358 573.453 502.594
783 0 73.1089 11.9411 873 67.3265 573.706 501.135
784 0 77.1074 12.5928 971 65.3553 573.304 501.19
785 0 79.2223 12.7994 1014 65.1095 573.49 497.466
786 0 79.1644 12.4551 986 65.9057 573.962 496.124
787 0 85.1192 12.7233 1083 64.9751 573.874 493.86
788 0 87.0746 13.3793 1165 63.8215 573.058 495.299
789 0 89.1193 13.9364 1242 63.6425 573.769 492.585
790 0 90.132 13.6245 1228 63.9006 573.085 493.642
791 1 48.0895 12.0193 578 63.8668 572.621 511.839
792 0 47.0685 10.7715 507 66.2229 572.621 512.077
793 0 51.0526 12.5361 640 63.8531 573.491 510.722
794 0 52.0402 13.2782 691 62.7352 573.841 510.796
795 0 53.0664 10.5717 561 66.2692 573.759 509.59
796 0 54.0367 11.4737 620 65.7161 574.182 508.524
797 0 57.0607 12.6532 722 63.9474 574.122 506.241
798 0 61.0551 11.3668 694 64.7349 573.831 504.837
799 0 61.0691 12.1502 742 63.4097 573.922 506.491
800 0 62.03 12.1877 756 63.8492 574.186 503.677
801 0 64.0347 11.7749 754 63.7851 574.133 502.512
802 0 66.0316 12.2971 812 63.6835 574.224 502.81
803 0 68.0437 12.0658 821 63.514 573.988 500.575
804 0 70.038 11.8507 830 64.1024 574.411 499.377
805 0 73.0667 14.6168 1068 60.3867 574.074 497.408
806 0 76.0871 12.3017 936 62.9263 574.271 499.31
807 0 77.0534 11.9138 918 63.2821 573.522 497.703
808 0 80.0878 13.9722 1119 60.8937 573.315 497.038
809 0 83.0811 14.2993 1188 60.7264 573.248 496.71
810 0 83.096 10.4458 868 65.9136 573.795 491.385
811 0 84.0974 10.6067 892 65.2399 573.642 491.66
812 0 90.0995 12.464 1123 62.9679 573.963 491.252
813 0 93.1856 12.5771 1172 63.2807 575.189 487.734
814 1 46.0191 9.77855 450 59.86 574.207 515.931
815 0 46.056 8.98906 414 61.7077 574.022 513.225
816 0 47.048 8.69325 409 62.2152 574.122 511.301
817 0 50.1224 10.0155 502 60.8486 574.799 510.675
818 0 52.0658 10.6404 554 59.8809 573.883 511.058
819 0 52.0595 10.3728 540 60.2556 573.537 510.83
820 0 56.193 10.6597 599 59.4591 573.623 511.053
821 0 57.0792 12.6316 721 57.681 573.656 509.029
822 0 56.1619 9.93556 558 60.1254 572.676 510.554
823 0 57.0533 10.0082 571 60.8424 573.949 502.82
824 0 61.1865 10.2964 630 59.7635 572.859 504.514
825 0 64.0652 10.4581 670 58.7134 573.013 506.231
826 0 63.1269 9.47298 598 60.6221 573.467 500.796
827 0 67.0853 10.8966 731 58.6265 573.65 502.818
828 0 68.0322 8.81935 600 61.22 574.062 501.617
829 0 72.1857 9.54483 689 60.0508 574.174 501.672
830 0 73.1555 9.63701 705 60.4028 574.438 498.793
831 0 76.2291 10.8358 826 58.5508 574.182 500.401
832 0 79.1621 10.4848 830 58.9566 573.828 499.033
833 0 82.1653 10.844 891 59.0808 574.13 493.47
834 0 83.2267 9.86463 821 59.6955 574.744 495.834
835 1 49.0711 10.5357 517 54.9671 573.963 515.068
836 0 46.1046 9.04465 417 57.5492 574.014 515.209
837 0 49.0278 10.3207 506 57.0929 574.441 513.071
838 0 48.0889 8.27633 398 58.2337 574.312 515.023
839 0 53.152 10.517 559 56.6029 573.828 512.172
840 0 53.2087 10.9569 583 56.8714 573.623 511.763
841 0 53.2073 10.4497 556 57.5144 574.054 509.182
842 0 54.1476 9.73265 527 58.5768 574.427 513.019
843 0 56.0579 12.5228 702 56.1282 574.531 508.869
844 0 57.1466 10.5168 601 58.4692 575.007 509.168
845 0 58.2002 9.65633 562 59.0925 574.868 507.856
846 0 60.1537 8.97701 540 60 574.732 508.381
847 0 62.1912 10.1783 633 59.0584 574.106 505.877
848 0 63.0817 8.98834 567 60.5626 574.441 508.314
849 0 66.1923 10.2731 680 58.6309 574.519 508.069
850 0 67.4688 11.0866 748 58.734 573.98 503.742
851 0 71.0666 11.2711 801 57.3471 574.524 506.482
852 0 72.1853 10.764 777 58.9846 574.322 503.111
853 0 73.3789 10.8206 794 59.306 574.724 500.05
854 0 77.1902 10.947 845 59.0686 574.63 499.683
855 1 39.0339 8.96656 350 60.2514 574.031 516.789
856 0 40.0277 10.6676 427 58.4684 573.422 517.208
857 0 42.0437 10.5129 442 58.552 573.391 518.027
858 0 41.0718 10.5182 432 59.8889 574.097 516.118
859 0 44.0944 11.1352 491 58.9552 573.847 515.193
860 0 47.0462 10.0327 472 59.8665 574.089 516.492
861 0 46.0885 11.0874 511 60.3425 573.384 516.732
862 0 48.1458 10.8836 524 60.9924 574.639 512.437
863 0 48.1579 11.3377 546 60.2582 575.081 515.377
864 0 52.0597 11.1218 579 59.981 574.29 514.566
865 0 49.0675 10.1697 499 62.4248 573.796 512.627
866 0 53.0587 11.0821 588 59.7109 573.854 516.066
867 0 55.0227 12.3949 682 59.305 573.953 511.188
868 0 55.1767 11.9072 657 60.2709 574.513 509.336
869 0 58.0846 10.8635 631 61.252 574.431 510.184
870 0 59.0574 10.8031 638 61.3872 574.458 511.527
871 0 59.0498 11.6342 687 60.2474 573.387 511.073
872 0 62.067 11.6487 723 60.9903 573.604 508.485
873 0 64.0618 13.8148 885 58.4655 573.602 507.546
874 0 65.118 10.8419 706 62.0425 573.452 508.676
875 0 69.0568 12.3377 852 60.081 574.066 505.782
876 0 71.0965 12.1806 866 60.6547 573.592 505.166
877 0 70.0716 12.6157 884 60.7228 573.847 503.615
878 0 74.0702 11.3541 841 61.4614 574.092 500.951
879 0 76.0822 11.1984 852 61.2512 573.496 501.076
880 0 79.1003 11.8331 936 60.8964 573.981 501.17
881 0 81.0707 11.5208 934 61.4304 573.853 497.737
882 1 43.018 10.9721 472 58.3538 573.61 519.572
883 0 43.0169 10.6702 459 59.0218 573.76 518.704
884 0 44.0155 10.6553 469 59.9552 572.78 517.215
885 0 46.0455 10.0118 461 60.7072 573.581 516.367
886 0 46.0357 11.1652 514 59.5876 573.78 516.265
887 0 49.0304 10.7892 529 60.0113 573.539 514.609
888 0 51.0855 10.8054 552 59.4493 573.245 513.973
889 0 52.0913 11.7486 612 57.9804 573.758 515.539
890 0 54.0488 10.6755 577 59.1438 573.785 514.019
891 0 54.1448 10.989 595 58.8639 574.462 513.155
892 0 54.0259 10.2543 554 60.7599 574.242 510.433
893 0 55.0472 10.7726 593 60.6088 573.467 508.998
894 0 60.0998 12.7288 765 57.5621 574.22 509.685
895 0 59.0737 11.1725 660 59.5803 573.93 506.638
896 0 63.1886 11.6952 739 58.4127 573.591 505.452
897 0 66.1204 12.1143 801 57.2085 574.321 506.196
898 0 68.0573 11.8724 808 57.8193 574.269 505.174
899 0 69.1468 10.4849 725 59.0593 574.097 504.683
900 0 72.0456 12.0896 871 57.1814 575.012 503.158
901 0 74.0398 12.4122 919 56.4494 574.655 504.266
902 0 76.1258 11.5073 876 57.7397 574.684 500.389
903 0 77.1958 12.1121 935 57.4652 574.457 500.133
904 0 79.0958 11.8211 935 58.3775 574.539 497.713
905 1 42.0247 11.636 489 55.8425 574.436 518.873
906 0 46.058 10.4651 482 56.0415 574.919 515.722
907 0 45.0343 11.2803 508 56.6043 575.313 513.783
908 0 43.0389 10.8507 467 58.2098 575.426 514.649
909 0 45.0614 9.96418 449 59.2895 576.352 515.465
910 0 49.0326 10.9519 537 58.0298 576.452 514.929
911 0 48.0779 12.2509 589 56.9728 576.509 512.508
912 0 52.0818 11.0979 578 57.3685 576.066 515.519
913 0 53.1578 11.1931 595 57.9849 576.24 513.676
914 0 53.0326 11.2572 597 58.2496 575.168 514.017
915 0 53.0686 10.9669 582 58.512 575.046 512.067
916 0 57.0918 11.5253 658 57.5091 574.666 512.799
917 0 56.07 10.362 581 60.0792 574.797 510.902
918 0 58.1022 11.6691 678 58.3481 574.487 509.429
919 0 60.1178 11.7436 706 58.0751 574.838 511.929
920 0 61.059 12.4634 761 58.0788 575.099 507.001
921 0 64.1633 11.6266 746 58.2493 574.528 509.66
922 0 66.0743 14.1053 932 55.7554 573.867 504.536
923 0 66.0666 12.5328 828 57.5326 573.732 505.51
924 0 71.0375 12.3737 879 56.9056 573.941 505.959
925 0 73.134 10.9525 801 58.9214 573.421 502.903
926 0 74.1003 11.6329 862 57.9629 573.813 503.495
927 0 76.1103 10.9052 830 59.3711 573.574 501.107
928 0 81.0461 11.6847 947 58.3854 574.122 501.492
929 0 84.1756 14.1846 1194 55.8601 573.662 501.135
930 0 84.078 12.5598 1056 58.4763 573.234 498.176
931 1 44.0587 10.1229 446 60.6883 573.841 516.484
932 0 48.0212 12.5569 603 58.6534 573.698 514.657
933 0 47.052 11.6892 550 60.9709 574.12 513.927
934 0 48.0195 10.7665 517 61.8975 574.375 514.122
935 0 52.0649 10.4101 542 61.8893 574.494 514.024
936 0 55.0341 11.2839 621 61.2013 574.121 512.338
937 0 54.0386 11.4363 618 61.7055 574.154 511.296
938 0 56.1183 12.3311 692 60.4783 574.264 511.012
939 0 58.1335 13.899 808 59.0817 574.233 507.048
940 0 58.065 13.0027 755 60.7894 573.779 506.972
941 0 60.0658 13.5352 813 59.7884 573.327 506.1
942 0 62.0886 12.0634 749 62.0628 573.773 505.66
943 0 63.1299 12.4347 785 61.9236 573.736 506.837
944 0 65.1556 12.4625 812 61.6995 573.819 506.578
945 0 67.1636 12.343 829 62.2943 574.879 502.457
946 0 69.195 13.5993 941 61.3698 574.134 501.146
947 0 71.0679 12.8328 912 62.7357 574.248 501.92
948 0 73.218 16.3348 1196 58.5635 574.404 500.77
949 0 75.1317 11.4865 863 64.2109 575.206 502.473
950 0 78.152 13.2434 1035 62.7855 574.9 497.418
951 0 82.1537 12.7201 1045 62.9856 574.613 499.738
952 0 84.1725 12.6526 1065 64.3991 574.641 496.843
953 1 46.1156 10.5387 486 65.3148 574.944 514.568
954 0 47.1414 11.6034 547 64.8336 575.049 514.367
955 0 47.2001 12.2669 579 64.6528 574.164 512.698
956 0 49.1269 12.3965 609 65.2742 574.43 512.064
957 0 48.0593 11.8603 570 67.1368 574.865 511.356
958 0 54.0552 11.3588 614 66.3713 574.857 511.86
959 0 55.0704 11.676 643 65.8709 574.4 511.56
960 0 57.0517 11.9716 683 66.451 574.671 510.483
961 0 56.0397 11.8844 666 67.3979 574.646 509.655
962 0 59.0683 11.6306 687 67.4993 575.322 508.45
963 0 61.034 13.2877 811 66.0197 574.979 506.926
964 0 61.0842 11.5251 704 68.5739 575.43 505.669
965 0 64.0734 11.799 756 67.7646 574.242 505.218
966 0 66.0389 12.8561 849 66.0106 574.539 505.041
967 0 68.1605 13.5122 921 65.6819 574.27 500.927
968 0 71.1256 11.8945 846 67.7979 574.766 502.872
969 0 76.2677 13.7542 1049 64.3584 575.842 501.927
970 0 76.416 11.9739 915 67.3738 574.459 499.797
971 0 78.2001 11.4962 899 68.6885 575.095 496.392
972 0 78.3872 10.6522 835 70.3269 575.584 498.006
973 0 84.2959 12.0409 1015 67.2808 575.15 496.627
974 0 88.205 14.3189 1263 64.247 574.564 494.822
975 1 44.1034 11.6091 512 64.8164 575.676 516.123
976 0 44.0406 10.899 480 65.9979 575.042 516.312
977 0 47.0607 11.2833 531 65.8305 574.991 514.589
978 0 48.0378 13.0522 627 62.9809 575.412 514.807
979 0 49.0191 12.7297 624 64.0497 575.83 513
980 0 50.0229 11.6547 583 65.5798 575.406 511.76
981 0 53.0222 11.7498 623 64.9262 574.798 511.281
982 0 52.0918 11.7677 613 65.4763 575.393 508.493
983 0 55.0177 10.8329 596 66.5336 574.778 508.101
984 0 55.1073 11.1782 616 65.8117 574.81 510.234
985 0 59.1102 12.4513 736 64.1223 575.49 508.304
986 0 60.1512 11.8867 715 64.2462 575.641 508.214
987 0 60.1055 13.9921 841 62.0939 575.842 507.736
988 0 63.053 11.9899 756 64.6177 575.333 505.774
989 0 63.0427 12.8008 807 63.7918 574.937 504.012
990 0 65.0588 10.3445 673 66.8618 574.517 504.854
991 0 68.0316 12.3766 842 62.6128 574.261 506.844
992 0 70.0411 11.5789 811 64.7102 575.566 503.845
993 0 73.1427 13.084 957 62.9384 575.077 501.137
994 0 74.0942 12.7 941 64.051 575.613 497.543
995 0 76.1407 11.4525 872 65.2477 575.648 498.675
996 0 80.0675 11.5902 928 64.8265 575.606 498.083
997 0 82.1409 11.4681 942 64.413 575.599 499.829
998 0 84.1194 11.9354 1004 64.2809 575.188 498.348
999 0 86.1127 10.4282 898 66.2172 575.548 497.414
1000 1 46.0352 10.6875 492 65.2297 575.071 512.732
1001 0 49.0451 10.3986 510 64.3412 575.314 513.157
1002 0 49.0339 10.2786 504 66.0714 575.875 512.153
1003 0 51.0394 12.5002 638 62.5219 575.618 511.605
1004 0 53.0353 11.0304 585 64.7214 575.33 511.164
1005 0 55.083 10.8927 600 64.9883 575.378 509.785
1006 0 56.0625 12.1115 679 63.7747 573.733 509.035
1007 0 58.0456 12.3179 715 62.965 573.869 509.11
1008 0 56.0668 11.1474 625 65.7056 574.315 510.584
1009 0 59.0777 13.1691 778 63.0206 574.053 509.733
1010 0 62.0662 11.4394 710 65.131 574.23 509.435
1011 0 63.1142 12.1526 767 65.5163 574.703 506.428
1012 0 64.0807 12.3126 789 65.9582 574.897 504.885
1013 0 68.1568 13.2929 906 63.9084 573.971 505.877
1014 0 69.1016 13.1545 909 64.8999 573.718 501.923
1015 0 71.1151 11.6572 829 66.7853 574.375 501.682
1016 0 75.2257 13.0939 985 64.9056 574.093 501.958
1017 0 79.101 12.0352 952 65.8057 574.188 502.838
1018 0 80.1137 13.6181 1091 64.1247 575.085 504.079
1019 0 82.0424 13.3589 1096 65.8066 575.358 498.14
1020 1 42.1268 11.1805 471 67.6539 574.682 517.446
1021 0 44.0435 9.46792 417 70.3597 574.616 518.026
1022 0 44.0691 10.892 480 69.3917 574.094 517.779
1023 0 46.0779 11.3286 522 69.6609 574.161 516.061
1024 0 45.072 9.34062 421 72.7577 574.221 516.428
1025 0 50.1086 11.7345 588 68.6752 574.429 514.69
1026 0 49.11 10.731 527 71.0095 574.131 515.592
1027 0 52.0416 12.3171 641 69.0842 573.76 514.025
1028 0 52.0469 11.8355 616 69.9416 573.654 514.628
1029 0 54.1161 11.5123 623 70.6083 572.525 513.541
1030 0 57.0622 11.7591 671 69.2832 572.231 512.717
1031 0 58.0449 11.2499 653 70.8882 572.796 511.124
1032 0 60.0853 13.564 815 66.7006 573.152 512.032
1033 0 62.0923 12.0466 748 69.2647 572.766 509.131
1034 0 63.0702 12.383 781 68.6517 573.22 509.394
1035 0 65.0471 12.9137 840 67.8202 573.321 507.536
1036 0 67.0917 12.0581 809 68.5661 572.433 509.044
1037 0 70.0838 11.3436 795 69.7447 572.916 507.218
1038 0 72.0684 12.9183 931 67.4296 572.836 504.005
1039 0 76.1517 13.1317 1000 66.631 572.363 504.464
1040 0 77.2087 14.4543 1116 64.9695 572.097 503.815
1041 0 80.1179 12.4442 997 67.7071 572.091 502.057
1042 1 43.0135 9.50864 409 70.3399 572.988 518.844
1043 0 44.0559 11.44 504 67.7579 573.095 516.722
1044 0 47.0595 11.0073 518 68.3166 573.43 516.753
1045 0 46.0242 11.1898 515 68.0796 572.559 517.575
1046 0 51.067 12.2584 626 65.1422 572.962 517.436
1047 0 52.0116 10.8437 564 68.1631 572.789 514.422
1048 0 52.0501 12.1229 631 65.6894 572.597 514.074
1049 0 55.2226 12.0422 665 66.0737 572.851 512.621
1050 0 55.0736 11.1669 615 66.922 572.956 513.141
1051 0 56.1881 11.07 622 67.172 572.386 510.563
1052 0 58.0726 12.3638 718 64.7423 572.719 511.595
1053 0 60.0468 12.3237 740 65.1378 571.897 510.254
1054 0 63.1958 12.1843 770 64.9156 572.321 509.862
1055 0 65.064 11.8499 771 65.4112 571.962 508.876
1056 0 67.0986 12.6828 851 64.2045 572.488 504.934
1057 0 66.0757 10.5485 697 66.9096 572.603 503.878
1058 0 69.1539 11.713 810 64.3173 572.307 507.498
1059 0 71.051 11.4143 811 64.9531 572.322 504.528
1060 0 75.1419 12.177 915 63.2765 572.673 504.428
1061 0 79.046 14.7635 1167 60.0326 572.28 504.548
1062 0 81.1599 11.2001 909 64.5534 572.224 501.812
1063 0 81.1162 10.9473 888 64.8468 572.282 503.905
1064 0 84.1225 11.4595 964 64.916 572.866 498.37
1065 1 44.0595 9.66874 426 64.216 572.854 519.749
1066 0 49.1355 12.2518 602 61.3405 573.025 519.561
1067 0 48.0998 10.7485 517 63.6093 573.248 518.629
1068 0 51.2025 11.6401 596 61.6074 573.002 519.243
1069 0 50.0677 10.5257 527 64.1803 573.321 516.829
1070 0 51.0755 10.5726 540 64.2556 572.73 518.291
1071 0 53.1691 10.4948 558 64.3351 572.611 515.172
1072 0 54.1565 10.8574 588 64.2211 573.046 515.963
1073 0 56.0386 12.5449 703 62.0114 573.289 513.548
1074 0 57.2495 11.8604 679 62.5066 573.33 515.268
1075 0 60.0846 11.2508 676 62.6982 573.365 513.856
1076 0 62.1978 12.1869 758 61.6478 573.503 510.34
1077 0 63.3042 10.0467 636 63.9009 573.157 509.002
1078 0 66.1713 12.2107 808 60.8725 572.771 506.916
1079 0 67.3651 10.6435 717 62.6834 573.411 506.206
1080 0 69.2436 12.391 858 60.1772 573.494 505.955
1081 0 73.2824 12.0629 884 60.4208 572.532 504.225
1082 0 71.16 10.6099 755 62.3179 573.503 503.364
1083 0 75.1992 13.2714 998 59.7345 573.822 501.37
1084 1 40.1607 11.5038 462 58.9199 574.197 520.322
1085 0 41.0287 10.3586 425 60.0424 574.261 519.233
1086 0 41.0395 9.84417 404 60.9381 573.624 519.72
1087 0 42.0206 10.7804 453 59.8874 573.159 519.448
1088 0 43.0316 9.10958 392 61.5459 572.821 519.926
1089 0 44.0669 11.301 498 59.2169 573.319 515.293
1090 0 46.0299 10.1021 465 60.7011 572.871 518.335
1091 0 50.0996 9.60087 481 60.1455 573.191 518.63
1092 0 49.0604 12.8413 630 57.7556 573.478 515.194
1093 0 49.0289 10.7895 529 60.4764 572.915 513.989
1094 0 53.0504 10.0848 535 60.4355 573.529 514.849
1095 0 54.0604 12.634 683 58.5534 573.684 514.085
1096 0 54.1323 10.6036 574 60.845 573.929 510.988
1097 0 57.0508 11.2006 639 59.6448 573.202 513.457
1098 0 56.1014 10.4632 587 61.4549 572.692 509.164
1099 0 60.0457 10.925 656 60.5351 572.78 509.421
1100 0 63.0369 11.7709 742 58.9205 573.035 510.253
1101 0 63.057 10.8156 682 60.5469 573.013 508.585
1102 0 66.0949 10.6816 706 60.9476 573.5 505.003
1103 0 67.1178 12.0832 811 59.8631 573.397 506.575
1104 0 70.064 13.5162 947 58.2746 573.078 505.538
1105 0 72.1335 11.6589 841 60.308 573.479 504.662
1106 0 71.1044 11.2792 802 61.0062 573.602 506.317
1107 0 74.1752 11.8773 881 60.336 574.298 503.429
1108 0 78.1708 12.4855 976 59.4744 574.102 504.553
1109 0 79.199 12.3739 980 60.2163 573.995 502.537
1110 0 81.0704 11.9772 971 60.9331 574.676 501.171
1111 0 84.1478 12.9177 1087 60.2861 574.201 498.316
1112 0 86.1019 11.3122 974 61.925 574.658 498.407
1113 0 87.1439 12.4621 1086 61.1989 574.943 496.466
1114 1 47.023 9.71865 457 63.326 574.28 516.319
1115 0 48.0751 10.442 502 62.6932 573.976 516.936
1116 0 51.0662 11.5536 590 61.7356 574.586 513.829
1117 0 52.0338 12.0883 629 61.4595 574.23 515.432
1118 0 54.1205 13.045 706 60.8144 574.38 512.735
1119 0 57.1514 13.7179 784 59.7092 573.874 513.644
1120 0 56.0728 13.0901 734 61.8065 573.933 510.029
1121 0 58.1113 13.1816 766 61.4621 574.448 510.678
1122 0 60.2239 12.9517 780 61.9013 574.427 510.528
1123 0 63.0713 12.9694 818 61.7934 574.489 509.443
1124 0 64.0329 11.416 731 64.0862 574.773 509.434
1125 0 65.1735 13.9167 907 60.9074 575.043 507.751
1126 0 67.13 13.8686 931 61.5822 575.292 506.899
1127 0 69.0756 13.9557 964 61.6494 574.817 505.926
1128 0 71.0512 12.0336 855 63.6105 574.515 505.729
1129 0 73.0766 13.3969 979 62.9571 574.753 501.688
1130 0 75.1613 14.5021 1090 61.089 574.594 504.132
1131 0 74.0498 11.4517 848 66.0377 574.231 501.263
1132 0 78.082 12.4869 975 63.9815 573.966 500.832
1133 0 82.1824 12.8981 1060 63.2962 573.33 499.734
1134 0 86.177 13.9016 1198 61.9124 574.459 496.74
1135 0 89.1778 13.1199 1170 62.2282 574.744 500.093
1136 0 90.1724 14.2283 1283 62.198 574.705 495.67
1137 1 48.04 11.3239 544 63.364 574.127 517.344
1138 0 48.0314 11.0761 532 66.0959 573.797 513.398
1139 0 53.073 13.001 690 62.6188 574.075 514.125
1140 0 54.0337 14.1948 767 61.0326 574.332 515.325
1141 0 54.1945 12.7688 692 64.3338 574.624 511.256
1142 0 57.0785 15.8729 906 59.6026 574.706 513.274
1143 0 56.0559 12.987 728 63.6319 574.503 510.651
1144 0 59.177 12.5218 741 64.0459 574.086 509.978
1145 0 62.0318 14.1863 880 61.6443 574.022 509.217
1146 0 65.0812 13.2757 864 62.338 574.307 508.567
1147 0 64.1066 13.9299 893 61.9742 574.431 508.071
1148 0 67.0959 12.8324 861 63.3148 573.823 506.21
1149 0 69.1158 14.1791 980 61.702 574.293 506.324
1150 0 70.2156 13.7434 965 62.5067 573.91 504.01
1151 0 73.1106 13.4317 982 62.9623 574.094 502.968
1152 0 76.1289 11.717 892 63.6413 574.229 505.258
1153 0 78.0894 13.3437 1042 62.8484 573.872 500.197
1154 0 81.0856 13.5412 1098 61.8224 573.465 502.793
1155 0 83.2386 13.5034 1124 62.2189 573.944 498.732
1156 0 85.0352 14.0295 1193 62.2045 573.925 496.77
1157 1 44.0444 12.0333 530 63.0151 573.624 516.383
1158 0 45.0597 11.5403 520 63.1327 573.7 516.579
1159 0 45.0768 11.1365 502 64.8466 574.034 515.388
1160 0 46.0148 11.844 545 64.3174 574.36 514.338
1161 0 47.0325 12.4382 585 64.465 573.892 514.841
1162 0 48.0684 11.2548 541 65.4362 573.527 514.471
1163 0 51.0699 12.1794 622 64.1383 573.728 513.339
1164 0 53.0627 11.8727 630 65.0651 574.051 512.519
1165 0 55.0872 13.6874 754 62.5796 573.521 513.271
1166 0 53.0456 11.0848 588 66.0935 574.184 510.332
1167 0 56.0453 11.7762 660 64.5197 574.208 511.002
1168 0 57.0852 11.4566 654 65.4404 574.28 509.586
1169 0 60.0771 12.5339 753 64.0983 574.283 509.183
1170 0 62.0862 14.1094 876 62.3082 574.471 507.927
1171 0 65.0661 13.1558 856 62.979 573.967 507.299
1172 0 65.096 13.0884 852 63.9472 573.619 504.119
1173 0 69.0543 13.3084 919 62.8781 574.06 507.061
1174 0 69.108 12.4877 863 64.788 574.826 503.25
1175 0 74.0769 12.5545 930 63.6 574.392 504.411
1176 0 75.1082 13.3541 1003 63.3609 574.3 500.192
1177 0 77.114 11.6451 898 65.8263 575.203 502.105
1178 0 80.1047 12.8457 1029 65.4004 575.512 498.906
1179 0 82.0613 13.3559 1096 64.9954 574.794 495.977
1180 0 86.1188 13.3885 1153 64.9428 574.546 498.334
1181 0 87.0429 13.2578 1154 66.0078 573.964 495.803
1182 1 47.114 11.9285 562 66.0908 573.902 514.884
1183 0 49.1056 12.6055 619 64.6817 574.154 516.585
1184 0 50.0741 12.7811 640 65.0375 574.82 515.236
1185 0 52.0999 13.4357 700 63.9114 574.689 514.679
1186 0 52.1624 12.5569 655 66.1618 573.849 513.924
1187 0 56.0608 13.0751 733 64.708 573.585 512.786
1188 0 57.0318 14.4481 824 62.875 574.046 512.284
1189 0 55.1374 11.7525 648 67.3873 573.506 511.636
1190 0 61.0118 12.0468 735 66.2653 574.49 510.423
1191 0 61.0884 12.7848 781 66.4738 574.222 507.044
1192 0 63.0733 13.6666 862 65.2204 574.014 506.79
1193 0 64.0404 11.6957 749 68.4085 574.555 506.04
1194 0 66.0272 12.3434 815 67.8503 575 505.01
1195 0 70.0576 12.8037 897 65.9342 574.411 506.963
1196 0 71.0762 11.1289 791 68.7762 575.185 505.173
1197 0 74.1085 12.927 958 66.9624 574.774 501.976
1198 0 75.068 13.3745 1004 66.4612 574.533 503.663
1199 0 77.043 11.1626 860 70.1686 574.263 500.594
1200 0 81.117 13.1538 1067 68.1509 574.893 498.872
1201 1 44.0462 10.3982 458 68.7336 575.33 518.153
1202 0 45.0681 11.6047 523 67.499 574.801 518.235
1203 0 46.036 13.1636 606 66.9934 574.538 516.16
1204 0 47.0998 12.2718 578 68.3097 574.628 514.739
1205 0 46.0498 10.2064 470 71.5766 575.183 515.426
1206 0 49.0643 11.0467 542 70.4225 574.581 514.873
1207 0 53.0256 12.824 680 67.6426 574.537 513.553
1208 0 54.0126 12.6822 685 68.273 575.15 510.926
1209 0 54.0394 11.4916 621 70.2383 575.029 513.185
1210 0 56.0393 12.5091 701 69.5121 575.133 510.06
1211 0 60.1264 12.5236 753 68.6985 574.222 511.028
1212 0 60.0419 13.3074 799 67.7509 574.449 510.83
1213 0 62.0375 12.4602 773 69.8758 574.787 509.599
1214 0 65.1283 12.7287 829 70.4282 575.349 506.501
1215 0 68.0384 14.2567 970 67.7155 574.869 507.123
1216 0 69.1373 12.3812 856 69.9673 574.903 509.898
1217 0 71.0682 12.2558 871 71.3513 574.703 503.846
1218 0 73.077 12.5895 920 71.3283 575.022 504.163
1219 0 75.1007 12.8627 966 71.4948 574.861 501.593
1220 0 78.1273 14.3612 1122 68.9323 574.564 503.429
1221 0 80.085 12.9737 1039 71.8017 574.529 500.362
1222 1 41.053 11.5461 474 71.5886 574.593 516.371
1223 0 45.1772 12.2186 552 70.3931 574.886 518.163
1224 0 43.0558 10.0103 431 74.8399 575.434 516.979
1225 0 46.108 11.9502 551 70.9528 576.082 518.256
1226 0 46.0572 11.3554 523 73.195 575.784 515.384
1227 0 50.0525 11.7477 588 71.699 575.122 515.668
1228 0 50.1106 12.4125 622 70.2267 575.265 516.482
1229 0 51.0725 12.2375 625 70.728 575.12 514.768
1230 0 51.0515 10.1662 519 74.3064 575.372 513.971
1231 0 54.0263 11.3648 614 72.1596 575.119 511.891
1232 0 54.0985 11.1648 604 72.2781 574.351 514.469
1233 0 59.1218 13.0578 772 68.8756 574.74 510.975
1234 0 60.066 12.5196 752 70.4468 575.586 510.198
1235 0 60.0736 11.9187 716 72.0852 574.941 509.239
1236 0 62.061 10.8603 674 73.5252 574.904 508.819
1237 0 65.052 13.3893 871 70.3502 575.373 505.667
1238 0 67.1276 13.0796 878 70.5068 575.9 506.145
1239 0 71.1507 12.6211 898 70.0512 575.01 505.57
1240 0 72.1152 12.5494 905 71.0298 574.85 503.744
1241 1 39.0698 11.0315 431 70.522 575.49 520.74
1242 0 39.0109 12.0992 472 69.6123 575.877 520.896
1243 0 42.0659 11.5058 484 69.6508 576.101 520.058
1244 0 44.0285 12.0831 532 69.8459 575.383 517.865
1245 0 44.054 11.7129 516 71.0892 575.333 518.378
1246 0 43.0195 11.2042 482 72.9958 575.514 517.068
1247 0 44.0561 11.7123 516 72.8101 575.023 516.329
1248 0 45.0384 10.0137 451 75.1685 575.348 515.676
1249 0 49.0303 11.5847 568 72.3996 575.606 516.569
1250 0 49.054 11.1102 545 74.0569 575.754 511.892
1251 0 52.0353 11.3769 592 73.5 576.463 513.517
1252 0 52.082 11.5395 601 73.7304 576.364 512.775
1253 0 54.0407 12.9162 698 71.116 576.026 512.483
1254 0 55.1547 12.1114 668 71.7096 575.778 512.967
1255 0 58.0382 11.9921 696 72.1049 575.372 511.187
1256 0 59.132 10.9924 650 73.7492 575.123 510.274
1257 0 62.121 12.7493 792 70.596 574.852 510.217
1258 0 61.0645 12.6587 773 71.3182 575.768 511.008
1259 0 65.1287 11.4849 748 72.0762 575.192 510.1
1260 0 69.2264 13.3619 925 68.8519 575.489 508.123
1261 0 67.17 8.78369 590 76.117 574.561 508.341
1262 0 71.1713 12.505 890 70.6225 574.691 506.117
1263 0 74.1422 12.3142 913 70.1303 574.893 506.135
1264 1 41.0549 9.93792 408 71.1593 573.978 520.451
1265 0 41.0414 10.331 424 71.5283 574.266 521.425
1266 0 42.1734 9.03412 381 73.7612 574.866 520.887
1267 0 45.0645 11.8719 535 70.1028 575.533 518.72
1268 0 47.1406 11.2854 532 70.468 575.648 518.833
1269 0 45.034 11.4136 514 72.8463 575.325 516.362
1270 0 49.0327 11.89 583 70.8045 574.714 517.648
1271 0 50.0396 11.8106 591 71.2944 574.954 515.966
1272 0 52.0377 12.318 641 69.8066 575.284 516.206
1273 0 52.0284 12.8584 669 69.6383 574.833 515.48
1274 0 53.0431 11.896 631 71.2583 574.957 513.948
1275 0 56.0846 12.9625 727 68.5378 574.906 514.619
1276 0 59.1441 14.1857 839 67.3611 575.393 511.866
1277 0 59.0834 12.9817 767 68.9922 574.495 512.262
1278 0 61.0991 11.866 725 71.1324 575.051 508.957
1279 0 64.0526 12.3805 793 69.4048 575.271 510.726
1280 0 64.058 14.2527 913 67.0438 575.179 509.985
1281 0 66.0884 12.2109 807 70.0731 575.123 506.846
1282 0 69.2109 12.368 856 69.7932 574.502 504.64
1283 0 70.1002 12.3537 866 69.455 575.121 504.674
1284 0 73.1219 13.9903 1023 67.0577 575.738 502.673
1285 0 74.1267 11.0217 817 71.5606 575.373 501.858
1286 0 77.2048 13.1339 1014 67.7347 575.312 504.873
1287 0 80.0364 13.3189 1066 67.9353 575.668 500.842
1288 0 84.1236 13.7536 1157 66.7243 575.309 498.616
1289 1 42.0508 8.91779 375 71.1707 575.296 520.077
1290 0 45.0693 10.384 468 69.6709 575.28 519.906
1291 0 45.0134 11.2855 508 69.2756 575.569 516.317
1292 0 47.0171 11.2087 527 68.6452 575.313 519.63
1293 0 47.0401 11.8622 558 68.586 574.715 514.665
1294 0 50.0526 11.7476 588 67.7738 575.352 516.177
1295 0 50.0692 11.7437 588 67.9898 574.393 514.697
1296 0 51.0507 10.8519 554 68.843 575.058 513.646
1297 0 51.0653 10.7705 550 69.6 574.985 513.727
1298 0 56.0498 11.7217 657 67.3135 574.852 512.411
1299 0 55.0695 10.8408 597 67.9481 575.551 511.772
1300 0 58.0932 12.566 730 66.2274 575.518 509.538
1301 0 59.0407 10.2302 604 68.5447 575.493 510.031
1302 0 62.1356 13.0682 812 64.0148 574.477 509.925
1303 0 63.1384 13.415 847 64.7048 575.015 504.269
1304 0 66.0623 13.0029 859 63.9336 574.459 504.886
1305 0 68.1479 12.6343 861 63.8304 574.811 504.238
1306 0 68.0656 11.4008 776 64.75 575.21 505.691
1307 0 72.0916 11.7767 849 64.894 575.322 503.32
1308 0 72.0727 11.2525 811 65.344 575.17 498.663
1309 0 74.1459 11.1941 830 64.8349 574.666 502.072
1310 0 78.0835 12.1024 945 63.1365 575.134 500.734
1311 0 78.1508 11.4778 897 63.8718 575.208 499.22
1312 0 82.1912 11.6071 954 63.826 576.086 497.03
1313 0 84.0514 10.4103 875 65.2811 575.841 495.55
1314 0 88.0667 12.2067 1075 63.1246 575.292 494.143
1315 0 90.0638 11.9582 1077 63.208 575.667 491.113
1316 1 50.0346 9.37351 469 63.2516 574.896 514.254
1317 0 51.046 9.57959 489 63.0593 574.532 513.45
1318 0 55.0431 9.73783 536 61.931 574.534 513.595
1319 0 58.1189 11.683 679 59.8336 574.754 509.965
1320 0 58.1196 9.97942 580 62.3172 574.607 508.879
1321 0 61.0776 10.4293 637 60.3202 575.085 513.124
1322 0 63.0867 10.969 692 60.5549 574.263 509.434
1323 0 64.0838 9.86208 632 62.1978 574.907 505.674
1324 0 67.0408 10.6204 712 61.111 574.747 506.683
1325 0 69.1691 12.8815 891 59.1751 574.613 504.453
1326 0 68.1611 10.5192 717 62.0907 575.262 502.901
1327 0 73.1047 11.3399 829 60.9433 575.211 500.183
1328 0 76.1748 10.6597 812 60.8867 575.772 504.663
1329 0 76.1115 11.7328 893 60.4569 575.718 501.365
1330 0 81.0888 12.4678 1011 59.4649 575.485 497.771
1331 0 84.0898 11.1904 941 61.2816 575.041 495.79
1332 1 43.0501 9.50057 409 61.6064 575.198 519.171
1333 0 47.1722 12.1046 571 58.5954 575.352 519.371
1334 0 44.1058 6.7338 297 65.1414 575.956 517.508
1335 0 48.0638 10.6733 513 61.2437 575.46 515.228
1336 0 51.1954 12.4816 639 59.0438 575.585 514.045
1337 0 51.3511 11.7427 603 60.0348 575.647 512.993
1338 0 54.2034 13.6523 740 57.9176 575.526 513.843
1339 0 55.3038 8.58893 475 63.3579 574.85 510.139
1340 0 56.1916 8.63118 485 63.4866 574.771 511.027
1341 0 56.1721 9.75573 548 62.7464 575.256 510.971
1342 0 61.388 13.6997 841 57.9572 575.499 510.351
1343 0 62.1406 11.0717 688 61 576.532 510.523
1344 0 64.21 10.9329 702 60.7849 575.848 510.654
1345 0 65.142 10.7765 702 61.1239 574.991 508.161
1346 0 67.1486 10.9757 737 61.1778 575.008 506.653
1347 0 69.1595 10.5987 733 61.573 575.1 505.533
1348 0 72.1154 11.3013 815 60.7337 575.674 504.897
1349 0 74.2021 11.9404 886 60.0474 575.613 502.365
1350 0 77.111 12.4625 961 59.2581 575.606 504.516
1351 0 80.1484 10.6053 850 61.4388 575.253 500.712
1352 1 43.0991 10.0002 431 60.6102 575.204 517.622
1353 0 45.0665 10.6731 481 59.6486 575.106 517.206
1354 0 47.1005 10.9341 515 59.0408 575.462 518.903
1355 0 48.1441 11.4864 553 59.5244 574.816 516.289
1356 0 50.0631 12.2046 611 59.2111 574.597 516.743
1357 0 51.0583 9.83189 502 62.2888 574.912 515.813
1358 0 53.1351 12.2894 653 59.3951 575.689 516.21
1359 0 54.1721 11.1312 603 61.1376 576.007 514.73
1360 0 58.0331 12.2172 709 59.8575 575.453 514.931
1361 0 59.2348 10.2473 607 62.86 575.47 511.041
1362 0 63.0992 12.1713 768 60.6419 574.798 512.233
1363 0 62.066 10.231 635 63.1937 574.961 510.921
1364 0 65.1678 11.2172 731 63.0944 575.23 508.506
1365 0 67.0958 11.0588 742 63.0054 575.31 509.411
1366 0 69.197 12.226 846 61.5934 575.751 508.535
1367 0 71.1025 10.8154 769 63.4434 574.532 507.67
1368 0 71.1168 11.2913 803 64.0822 574.951 502.717
1369 0 75.2721 12.6873 955 61.8073 575.289 503.894
1370 0 78.1432 11.9268 932 63.4968 575.416 501.64
1371 0 82.4025 11.8928 980 64.1276 575.166 499.622
1372 0 85.3194 13.4436 1147 62.1238 575.783 499.042
1373 0 85.1787 12.6323 1076 63.3113 575.267 497.895
1374 0 89.2972 12.1056 1081 64.3266 575.154 494.731
1375 0 93.3024 11.9825 1118 64.3113 575.276 493.103
1376 0 97.187 11.9872 1165 63.8901 574.803 493.476
1377 0 96.1633 11.0333 1061 65.4571 574.516 492.186
1378 1 53.0651 9.10203 483 65.2795 575.261 513.965
1379 0 54.0521 12.9505 700 61.54 575.247 512.721
1380 0 55.0631 9.86141 543 65.7274 575.293 510.405
1381 0 57.023 11.5918 661 64.0741 575.331 509.852
1382 0 60.0658 11.3043 679 64.1679 575.063 509.555
1383 0 62.1013 11.5457 717 63.5398 574.554 510.668
1384 0 64.0354 13.0084 833 61.2737 574.921 510.311
1385 0 67.0621 12.5406 841 61.7812 575.341 508.237
1386 0 69.0855 12.0286 831 61.7846 575.933 508.407
1387 0 68.1479 11.387 776 64.0103 575.487 503.702
1388 0 74.0762 12.7976 948 61.4082 575.856 503.591
1389 0 77.0751 12.676 977 61.1044 575.539 503.438
1390 0 77.1649 11.7022 903 62.3555 575.164 502.698
1391 0 80.093 10.9498 877 63.0171 575.025 499.694
1392 0 81.1407 12.4105 1007 61.2642 574.81 501.175
1393 0 87.0867 11.8503 1032 61.8304 575.125 499.024
1394 0 86.3468 11.4191 986 62.8043 575.689 496.162
1395 0 90.1712 11.334 1022 62.3513 575.55 499.814
1396 0 94.1752 12.4343 1171 61.4099 576.16 497.108
1397 0 96.2182 12.3989 1193 61.3856 575.4 494.484
1398 0 99.2411 11.4973 1141 62.9877 575.202 492.002
1399 1 53.0441 11.7261 622 61.0531 575.883 513.831
1400 0 55.0723 11.4395 630 61.8683 575.871 512.64
1401 0 57.0614 10.3573 591 63.2284 576.364 511.249
1402 0 60.0452 11.7412 705 61.6596 576.777 511.46
1403 0 61.0318 11.5022 702 61.9801 575.846 512.345
1404 0 62.1948 9.98476 621 64.1739 575.451 511.335
1405 0 64.0807 12.3282 790 61.5127 574.709 508.719
1406 0 63.0797 10.1142 638 55.1818 575.155 506.851
1407 0 67.0955 10.9694 736 63.0706 574.951 507.121
1408 0 68.1164 11.5978 790 62.5089 574.919 507.592
1409 0 72.1413 12.9468 934 61.2784 574.716 505.241
1410 0 74.077 12.7435 944 61.6239 575.109 502.718
1411 0 77.2784 11.6333 899 63.0512 575.772 502.205
1412 0 78.0819 11.3855 889 63.3037 576.081 500.241
1413 0 81.0744 11.915 966 62.5807 575.926 499.739
1414 0 82.0654 10.5038 862 63.92 575.469 499.305
1415 0 87.1498 11.004 959 64.1199 575.62 493.979
1416 0 88.2473 13.5982 1200 61.0133 575.509 493.836
1417 0 91.1944 11.6893 1066 63.1951 575.302 491.41
1418 0 95.1554 11.7177 1115 63.1946 576.345 491.692
1419 1 54.2488 12.3689 671 60.2683 575.902 510.063
1420 0 55.1437 9.46618 522 63.5996 576.124 513.176
1421 0 58.0775 11.4674 666 61.8318 576.291 510.374
1422 0 59.0179 11.8269 698 61.6332 576.368 511.779
1423 0 61.0555 10.0564 614 63.6694 575.909 511.116
1424 0 64.0379 13.7419 880 59.0807 575.414 508.568
1425 0 64.1849 10.8281 695 62.8432 575.449 507.037
1426 0 66.1363 10.8866 720 63.1625 575.682 506.593
1427 0 68.125 10.7009 729 63.2647 575.931 506.059
1428 0 70.1354 11.2354 788 62.2411 576.137 507.249
1429 0 74.106 12.6441 937 60.2743 575.478 503.787
1430 0 73.1184 12.0216 879 61.4289 575.36 501.321
1431 0 75.041 10.4609 785 63.2548 575.875 499.94
1432 0 81.1265 12.0059 974 60.5534 576.294 501.438
1433 0 80.1075 10.9228 875 62.496 576.025 500.325
1434 0 84.2758 12.4354 1048 60.7968 576.131 498.585
1435 0 86.1 12.7875 1101 60.2352 576.861 497.928
1436 0 91.1697 12.219 1114 60.4964 576.277 496.329
1437 0 90.1494 13.0894 1180 59.7212 575.59 493.619
1438 0 95.4514 11.6813 1115 60.861 575.621 490.338
1439 0 98.316 10.8121 1063 61.4243 575.613 491.316
1440 0 100.356 10.4926 1053 62.226 575.58 489.816
1441 1 57.2091 11.2919 646 58.6672 575.365 510.621
1442 0 57.2825 10.23 586 58.5256 575.13 513.109
1443 0 60.0862 11.6832 702 57.8177 575.614 511.776
1444 0 61.1049 9.96647 609 59.8342 574.929 510.493
1445 0 63.0662 9.70409 612 59.786 574.959 508.291
1446 0 65.0834 10.694 696 59.2012 575.631 508.001
1447 0 68.1938 11.0861 756 58.6627 575.925 507.123
1448 0 69.1132 9.92574 686 59.9869 575.497 505.036
1449 0 71.1673 9.85003 701 60.5435 575.715 501.402
1450 0 74.16 11.3943 845 58.8355 575.146 499.889
1451 0 75.0612 9.45895 710 61.9662 575.835 500.335
1452 0 80.061 11.7036 937 59.5315 576.152 499.651
1453 0 82.0818 10.4895 861 61.0755 575.56 496.403
1454 0 86.1009 10.9523 943 59.6288 575.3 499.916
1455 0 88.0985 11.3282 998 59.7525 575.432 496.328
1456 0 92.107 11.1609 1028 60.5749 575.891 490.912
1457 1 48.088 9.23308 444 60.1149 576.223 515.077
1458 0 52.0891 10.3669 540 57.9741 576.072 515.607
1459 0 53.0408 10.6333 564 59.1436 575.92 513.521
1460 0 55.0818 11.4739 632 58.4525 575.623 512.361
1461 0 56.0289 10.4232 584 59.9572 576.507 512.969
1462 0 57.0948 9.70316 554 60.4404 575.78 511.321
1463 0 58.063 9.85137 572 61.2727 576.054 511.318
1464 0 60.1203 11.294 679 59.8439 575.485 509.521
1465 0 62.0668 11.5037 714 59.1457 575.892 510.05
1466 0 61.0732 9.75879 596 61.9631 575.139 506.705
1467 0 66.101 10.4234 689 60.7228 575.093 504.035
1468 0 67.0322 11.4423 767 59.5254 575.108 504.098
1469 0 70.1176 12.0084 842 58.804 575.198 501.898
1470 0 71.03 10.6575 757 60.5073 574.729 501.478
1471 0 74.1164 10.8208 802 60.0723 574.797 498.687
1472 0 77.1172 11.1648 861 59.5401 575.526 500.114
1473 0 77.1198 12.7723 985 57.932 574.949 499.5
1474 0 81.1617 10.4483 848 60.5035 575.44 497.693
1475 0 81.1097 9.98648 810 61.2444 575.521 495.325
1476 0 87.1785 11.5395 1006 58.6392 575.163 498.373
1477 0 90.207 11.8284 1067 58.8791 575.287 494.881
1478 1 48.0346 10.6798 513 56.998 574.844 518.175
1479 0 49.0879 12.8749 632 55.2294 574.894 517.313
1480 0 49.0344 9.82984 482 58.7075 574.112 517.585
1481 0 50.0341 12.4515 623 56.7416 573.984 514.44
1482 0 52.0391 11.991 624 57.1362 574.013 511.705
1483 0 53.0902 11.0567 587 58.3697 574.438 511.424
1484 0 55.1304 12.3163 679 56.894 574.601 512.386
1485 0 56.1462 10.5261 591 58.7868 574.47 512.673
1486 0 57.1999 10.2448 586 59.7782 574.546 509.138
1487 0 58.0488 9.45756 549 60.7668 574.268 510.634
1488 0 63.2014 12.1516 768 57.6003 574.389 508.663
1489 0 65.0497 12.3752 805 57.4547 574.41 509.805
1490 0 65.1427 10.3772 676 59.5873 573.894 509.361
1491 0 70.4143 10.7791 759 59.4993 574.698 502.866
1492 0 68.1795 11.6311 793 59.14 574.03 505.32
1493 0 73.1645 11.891 870 58.2012 574.54 501.9
1494 0 73.1171 12.4595 911 57.5851 574.69 501.525
1495 0 75.187 11.1322 837 58.9582 574.189 503.909
1496 0 79.3272 10.3495 821 59.4287 574 502.526
1497 0 81.2338 11.8054 959 57.9958 574.338 498.539
1498 0 83.1145 11.7428 976 58.7367 574.914 495.883
1499 0 86.2517 11.6519 1005 58.402 574.399 495.543
1500 0 88.1282 11.4719 1011 58.5895 574.594 494.329
1501 0 90.234 10.8274 977 59.7196 574.143 490.932
1502 0 94.2136 12.8538 1211 57.3237 574.869 489.486
1503 0 95.1128 11.4601 1090 59.2193 573.515 489.939
1504 1 51.0639 11.1233 568 56.6338 573.382 515.965
1505 0 50.1338 9.4547 474 58.8797 573.542 514.205
1506 0 52.0544 9.08664 473 59.4186 573.865 514.116
1507 0 56.0485 10.2768 576 59.099 573.63 511.344
1508 0 57.1224 10.7488 614 59.1042 573.982 509.278
1509 0 58.1206 10.375 603 59.2156 573.892 509.136
1510 0 57.1756 10.0567 575 60.1391 573.259 508.355
1511 0 61.1068 12.2572 749 57.4352 573.884 508.264
1512 0 64.2145 10.6518 684 58.8158 573.832 507.825
1513 0 65.0727 11.2028 729 58.4787 573.713 505.774
1514 0 67.1091 9.90924 665 59.3233 574.071 506.398
1515 0 69.3242 12.2901 852 57.3486 573.87 503.006
1516 0 71.1082 10.8426 771 58.5616 574.881 506.734
1517 0 73.2343 14.0371 1028 56.5944 575.556 500.888
1518 0 73.2384 10.0357 735 61.1156 575.399 499.529
1519 0 76.1565 10.3209 786 60.8053 574.327 501.653
1520 0 79.1378 11.1072 879 60.0205 573.658 499.754
1521 1 39.0301 9.50548 371 60.1887 573.291 517.668
1522 0 43.0702 9.77475 421 59.4703 574.218 517.998
1523 0 44.0649 10.076 444 58.9887 574.806 517.496
1524 0 43.0438 9.64134 415 60.1639 574.137 516.576
1525 0 46.1763 10.5465 487 58.9076 574.977 515.287
1526 0 46.0708 11.1133 512 58.3848 575.008 514.791
1527 0 48.1567 11.8986 573 57.5881 574.724 512.749
1528 0 49.0385 10.8486 532 58.2613 575.816 515.594
1529 0 50.1178 11.1737 560 57.9571 575.093 511.748
1530 0 52.1551 10.9098 569 57.9772 574.687 513.592
1531 0 53.1436 10.4999 558 58.2294 574.595 511.283
1532 0 55.1536 10.643 587 58.3663 574.542 509.375
1533 0 56.0962 11.4625 643 57.2784 574.7 509.547
1534 0 58.0728 12.0194 698 56.4771 574.893 509.473
1535 0 59.1646 12.0004 710 56.4831 574.359 508.901
1536 0 62.131 10.5101 653 57.3185 574.273 506.77
1537 0 62.1309 10.4618 650 58.1338 575.472 504.848
1538 0 67.0919 10.0161 672 57.7634 574.923 503.344
1539 0 66.1079 8.80379 582 58.89 574.959 504.569
1540 0 68.1272 11.4639 781 56.388 574.301 504.631
1541 0 74.2223 10.3069 765 56.566 573.548 502.054
1542 0 73.0333 13.309 972 54.8693 573.905 499.565
1543 0 77.1595 12.1826 940 55.1862 574.418 501.605
1544 0 76.2636 11.5914 884 56.6561 574.727 500.611
1545 0 81.1512 11.2876 916 57.1255 574.549 494.262
1546 0 84.1084 10.5459 887 58.1826 574.655 493.416
1547 0 86.0746 12.1755 1048 56.8139 574.953 490.614
1548 1 43.1278 9.69212 418 58.1316 574.115 513.598
1549 0 46.0879 10.3064 475 57.4674 574.703 515.503
1550 0 47.101 9.29916 438 59.3265 574.906 514.34
1551 0 49.047 11.0098 540 58.0759 575.407 511.135
1552 0 51.0696 11.22 573 58.2304 574.916 510.702
1553 0 53.0614 11.1757 593 57.7622 574.693 511.857
1554 0 55.1449 11.4607 632 57.7595 574.786 510.033
1555 0 56.1536 12.7329 715 56.6308 574.236 508.733
1556 0 59.0407 10.2133 603 58.6103 573.624 510.153
1557 0 61.1748 12.7667 781 56.0474 573.754 508.907
1558 0 63.1071 11.9163 752 56.3564 574.311 508.574
1559 0 65.055 12.7584 830 55.7554 574.059 507.336
1560 0 66.0836 9.83602 650 58.5369 574.56 508.757
1561 0 66.1403 11.1279 736 57.9198 574.91 505.293
1562 0 71.286 11.545 823 56.6792 574.663 506.857
1563 0 73.1399 11.0473 808 57.3119 573.438 504.088
1564 0 72.2082 7.88 569 60.7838 573.884 496.694
1565 0 77.04 11.3967 878 57.246 574.042 501.018
1566 0 80.0838 10.6513 853 57.9496 574.074 501.319
1567 0 82.1389 13.0145 1069 55.7615 573.966 501.082
1568 0 84.0962 11.9863 1008 57.2421 573.515 499.615
1569 0 84.1163 10.9491 921 58.9262 574.047 492.474
1570 0 89.1871 8.70081 776 60.4536 574.191 495.978
1571 0 92.1948 12.018 1108 58.018 574.43 491.89
1572 1 50.0424 10.4312 522 58.4828 574.791 513.192
1573 0 53.0649 11.5519 613 57.1126 575.077 512.442
1574 0 54.0998 12.0148 650 57.1077 574.782 512.94
1575 0 55.0594 12.7317 701 56.5421 573.959 508.762
1576 0 56.0606 12.3259 691 57.4443 574.997 509.653
1577 0 58.0418 10.3374 600 59.2917 574.613 508.807
1578 0 64.1696 13.4176 861 56.0093 574.653 508.042
1579 0 65.0572 13.2038 859 56.6426 574.445 507.043
1580 0 66.108 13.4174 887 56.2875 574.734 508.735
1581 0 66.0608 11.5651 764 58.4044 574.925 506.81
1582 0 69.0875 11.9414 825 58.3685 574.045 508.393
1583 0 71.0497 13.2724 943 57.719 574.867 503.812
1584 0 72.1376 11.3672 820 59.1841 574.334 506.074
1585 0 75.154 11.6827 878 59.3542 574.732 502.624
1586 0 75.0802 13.2125 992 58.4677 575.257 498.987
1587 0 79.0709 13.3045 1052 58.674 574.841 498.838
1588 0 81.0631 12.4718 1011 59.8704 574.17 497.29
1589 0 84.0512 13.5394 1138 58.6995 574.074 496.574
1590 0 89.1162 13.8807 1237 58.2757 573.83 495.674
1591 0 90.057 11.7148 1055 61.1014 574.038 494.77
1592 0 91.1501 10.4772 955 62.3424 574.396 494.653
1593 1 52.0578 13.85 721 58.122 573.566 514.743
1594 0 53.0508 11.9885 636 60.4214 574.503 513.472
1595 0 54.0279 10.8648 587 61.879 574.116 513.387
1596 0 56.0508 12.7385 714 59.8445 573.786 513.888
1597 0 58.1433 12.882 749 59.773 573.915 512.796
1598 0 62.1733 11.5484 718 60.6741 574.201 511.01
1599 0 61.0578 12.48 762 60.6837 574.781 509.007
1600 0 62.119 11.639 723 61.177 574.535 510.609
1601 0 67.123 10.5776 710 62.2324 574.283 505.718
1602 0 68.105 12.9359 881 59.6311 573.935 506.804
1603 0 68.0661 11.2685 767 61.8096 573.999 507.351
1604 0 69.2067 10.4759 725 62.1724 573.932 502.094
1605 0 72.1107 9.85984 711 63.1561 574.506 503.779
1606 0 77.1017 12.9569 999 60.4725 574.214 501.965
1607 0 77.1759 9.64031 744 64.289 573.96 498.968
1608 1 44.071 11.1184 490 61.1837 573.874 518.755
1609 0 45.0291 12.0367 542 60.4631 574.282 518.347
1610 0 44.0316 10.6969 471 63.2739 574.709 517.166
1611 0 48.0648 12.504 601 61.2496 574.76 514.1
1612 0 50.1532 11.744 589 61.7538 574.511 514.538
1613 0 49.0403 10.7259 526 63.2928 574.973 515.802
1614 0 52.0964 12.784 666 61.2357 574.863 510.85
1615 0 53.034 10.2953 546 63.8242 574.418 512.09
1616 0 55.0668 11.822 651 62.2104 574.607 512.292
1617 0 57.1174 12.343 705 62.7574 574.243 509.966
1618 0 58.0888 11.9989 697 62.7403 574.758 510.717
1619 0 59.1011 12.8424 759 62.8893 575.294 507.304
1620 0 65.1216 13.3596 870 61.2713 574.991 507.512
1621 0 66.1391 12.882 852 62.0575 575.034 506.573
1622 0 71.1413 12.3979 882 62.1678 574.879 506.683
1623 0 71.097 13.6433 970 62.165 574.948 500.696
1624 0 73.1605 11.2902 826 64.1235 575.11 504.458
1625 0 74.2245 11.5865 860 65.257 575.024 500.687
1626 0 79.1932 12.539 993 63.9567 575.285 500.794
1627 0 85.0668 15.623 1329 60.1618 575.244 499.933
1628 0 86.1811 14.2723 1230 62.5406 574.923 498.069
1629 0 89.1456 14.123 1259 62.7085 574.79 499.087
1630 1 45.0942 12.9728 585 64.7573 574.851 515.778
1631 0 48.152 13.1043 631 64.58 574.071 515.487
1632 0 51.0897 12.4487 636 64.9402 574.741 516.03
1633 0 52.074 12.2518 638 65.8103 575.382 513.359
1634 0 52.0422 12.1056 630 65.6921 575.244 515.295
1635 0 55.117 12.9724 715 64.1427 575.285 515.744
1636 0 54.0437 12.6749 685 65.8467 575.473 513.26
1637 0 58.026 13.5457 786 64.1056 574.067 514.342
1638 0 61.1101 14.4493 883 63.128 574.596 511.713
1639 0 62.1372 11.4907 714 66.7283 575.248 511.459
1640 0 66.095 13.3898 885 64.2836 574.925 510.351
1641 0 67.2719 14.0921 948 63.7774 574.442 508.307
1642 0 70.0924 13.525 948 64.5696 575.036 507.614
1643 0 72.0966 14.7302 1062 63.0819 575.04 506.697
1644 0 72.2583 12.2062 882 66.5624 573.821 507.291
1645 0 75.1919 13.0865 984 65.9705 574.205 503.785
1646 0 78.1496 13.3334 1042 65.6017 574.603 504.225
1647 0 79.0395 14.2587 1127 65.4738 574.835 501.25
1648 1 44.161 12.7035 561 66.1034 574.576 520.03
1649 0 45.0993 11.907 537 67.7858 575.443 519.166
1650 0 46.0279 12.3186 567 66.7619 574.714 519.224
1651 0 48.062 13.9195 669 65.3154 574.251 518.14
1652 0 49.0622 14.0434 689 66.3599 573.794 516.126
1653 0 52.0902 14.2253 741 65.865 574.055 516.722
1654 0 52.1398 13.2337 690 68.2681 574.123 515.693
1655 0 53.1996 12.049 641 69.8222 575.048 513.93
1656 0 56.0809 12.5711 705 68.027 574.468 515.26
1657 0 56.1368 12.0064 674 70.4496 574.381 512.142
1658 0 60.0631 13.4026 805 68.1006 574.64 511.842
1659 0 60.0866 13.7635 827 67.9432 574.6 510.953
1660 0 59.0853 12.3719 731 70.2845 574.491 510.746
1661 0 65.1677 14.1174 920 67.2402 574.89 509.185
1662 0 68.0772 13.3965 912 67.6096 574.685 510.095
1663 0 70.0852 13.4122 940 67.8819 574.988 509.049
1664 0 72.0885 12.5401 904 69.4801 574.585 507.387
1665 0 76.1195 14.4247 1098 67.4089 574.685 504.374
1666 0 77.0862 13.686 1055 68.7081 574.787 505.37
1667 0 80.1767 14.6676 1176 67.6811 574.33 504.137
1668 0 81.1668 13.1827 1070 69.6963 574.44 504.746
1669 0 84.0817 13.8675 1166 69.6021 573.831 501.509
1670 0 88.1841 13.211 1165 69.727 573.773 502.385
1671 0 89.2884 11.8156 1055 71.8379 574.621 500.298
1672 1 49.0556 12.0679 592 70.6436 575.037 518.99
1673 0 50.1814 12.6142 633 70.4882 574.853 517.651
1674 0 51.1469 13.0213 666 70.506 574.252 515.374
1675 0 55.0568 14.2217 783 68.2452 574.93 515.506
1676 0 55.0715 12.7471 702 70.0712 574.85 516.11
1677 0 55.0582 13.7672 758 70.0792 574.454 512.227
1678 0 58.1029 13.872 806 68.6489 574.521 513.707
1679 0 60.0617 13.9357 837 68.5125 574.607 510.926
1680 0 59.039 11.7041 691 71.8365 573.797 510.625
1681 0 66.097 13.1473 869 68.7871 573.885 508.064
1682 0 66.1578 13.3318 882 68.7868 573.889 508.203
1683 0 67.1596 12.5522 843 70.3903 574.3 506.159
1684 0 72.148 14.2208 1026 67.8499 574.536 505.799
1685 0 75.0506 14.5235 1090 66.7615 574.253 505.389
1686 0 77.1321 13.6389 1052 68.1283 574.091 504.246
1687 0 78.1197 12.8393 1003 69.5603 574.421 503.436
1688 0 80.1531 12.3888 993 70.0111 574.271 502.378
1689 0 83.1228 14.1477 1176 68.6003 573.702 498.428
1690 0 87.0716 12.7596 1111 69.9775 573.72 499.995
1691 0 90.3042 13.0227 1176 70.3104 574.591 496.048
1692 0 93.102 14.1243 1315 68.381 574.207 497.7
1693 1 50.0402 11.8305 592 69.9409 574.534 516.211
1694 0 51.0612 13.709 700 69.6514 574.281 512.303
1695 0 52.1249 13.7362 716 69.4763 573.831 514.091
1696 0 52.0259 12.4746 649 71.8829 573.775 513.798
1697 0 55.1021 13.5385 746 70.185 574.473 513.003
1698 0 58.2462 13.855 807 69.4151 574.461 511.423
1699 0 58.123 11.1144 646 72.339 574.014 510.296
1700 0 62.2786 13.1827 821 70.2387 574.54 508.374
1701 0 66.0809 13.2413 875 69.3474 574.704 507.09
1702 0 68.0665 13.8982 946 68.3901 573.77 506.943
1703 0 69.0852 13.0274 900 69.3133 574.209 508.052
1704 0 71.1523 11.1451 793 71.4817 574.219 507.792
1705 0 73.1293 11.6643 853 71.0059 573.559 503.771
1706 0 75.0999 12.5167 940 70.1606 574.451 500.501
1707 0 80.1578 13.6855 1097 68.4603 574.645 501.226
1708 0 84.1426 14.214 1196 67.3436 574.32 500.742
1709 1 41.0847 11.1234 457 69.3326 574.497 519.762
1710 0 42.1049 13.3001 560 68.4661 574.754 516.37
1711 0 46.0896 12.9964 599 68.369 574.277 516.1
1712 0 46.0133 12.2139 562 69.6352 573.794 514.676
1713 0 48.1079 14.0102 674 66.8205 573.991 514.967
1714 0 50.1804 12.3953 622 68.9566 574.211 511.079
1715 0 51.0355 14.0099 715 66.3734 574.137 514.333
1716 0 52.0997 12.0538 628 69.4124 574.672 514.35
1717 0 56.0713 14.6064 819 65.8315 575.338 512.669
1718 0 57.1724 13.503 772 67.5246 574.646 511.608
1719 0 58.3615 12.0799 705 69.1617 573.997 511.443
1720 0 62.1263 13.5691 843 67.2313 574.692 509.864
1721 0 62.1522 13.4187 834 67.6487 575.131 509.653
1722 0 65.1878 13.9904 912 66.7456 575.55 507.532
1723 0 66.1086 12.5854 832 68.4327 575.016 508.744
1724 0 69.037 14.6878 1014 66.2268 574.741 505.92
1725 0 72.2396 12.9846 938 68.6237 574.429 505.12
1726 0 75.1389 13.9874 1051 67.1589 574.148 502.296
1727 0 78.0852 13.5877 1061 67.5382 574.695 501.609
1728 0 81.1349 13.8042 1120 67.3071 574.643 501.329
1729 0 82.2282 13.3044 1094 68.7459 574.641 499.073
1730 0 87.1015 14.7759 1287 66.6682 574.293 499.388
1731 0 89.1497 14.0775 1255 67.8534 573.775 496.935
1732 1 46.087 12.7368 587 69.3066 574.186 518.871
1733 0 47.0412 13.9027 654 67.5979 574.352 518.63
1734 0 48.1535 12.6055 607 70.6227 574.387 516.387
1735 0 50.0264 13.4729 674 69.3769 574.41 515.936
1736 0 54.1376 13.8905 752 67.9122 574.512 515.058
1737 0 56.0636 13.4668 755 68.5907 574.624 514.535
1738 0 56.0602 13.3963 751 69.5326 574.241 512.498
1739 0 58.1913 13.7649 801 69.1623 574.022 511.286
1740 0 60.0282 12.9606 778 70.0758 574.359 512.267
1741 0 64.1391 13.4395 862 69.1926 574.635 512.39
1742 0 64.0492 13.9892 896 69.9464 574.503 509.997
1743 0 66.1308 14.5772 964 68.4274 574.564 508.17
1744 0 69.0669 14.5366 1004 68.763 573.763 508.383
1745 0 71.1122 14.4279 1026 69.1628 574.078 505.694
1746 0 73.1104 13.7874 1008 69.9464 575.243 504.997
1747 0 75.1357 12.7636 959 71.44 574.633 505.333
1748 0 78.0525 13.965 1090 69.2505 574.016 504.972
1749 0 81.1817 12.8724 1045 70.2115 574.185 504.122
1750 0 86.259 14.0739 1214 68.8246 574.372 502.187
1751 0 87.3155 13.7547 1201 69.4296 574.157 500.848
1752 0 91.112 15.7718 1437 66.89 574.692 496.97
1753 1 46.1353 13.417 619 70.4006 575.002 516.346
1754 0 47.0244 13.8013 649 70.2388 574.151 515.345
1755 0 51.3798 12.9817 667 70.3523 574.475 516.624
1756 0 52.0859 11.961 623 70.2376 574.374 518.666
1757 0 50.1222 12.3698 620 72.2387 574.4 513.979
1758 0 53.072 11.5692 614 72.6726 574.363 513.892
1759 0 56.0936 13.2279 742 70.5701 574.131 511.96
1760 0 58.102 13.5452 787 69.4574 574.462 513.224
1761 0 61.1852 13.1078 802 70.1471 574.4 510.99
1762 0 64.1879 13.85 889 68.3701 573.741 510.136
1763 0 67.1075 14.976 1005 67.0995 574.279 507.578
1764 0 69.0995 14.6311 1011 68.3769 574.641 506.771
1765 0 72.2157 13.6951 989 69.5652 573.778 508.038
1766 0 75.0798 14.065 1056 68.8854 574.84 507.022
1767 0 75.1866 13.6061 1023 70.1193 575.186 505.88
1768 0 78.3646 12.7992 1003 71.2672 575.483 503.758
1769 0 81.2717 14.7407 1198 69.2003 575.174 501.189
1770 0 86.2146 14.2203 1226 69.1998 574.855 503.189
1771 0 86.0538 14.6885 1264 70.2587 574.921 499.916
1772 1 47.1458 14.2749 673 69.6686 575.015 518.884
1773 0 47.1785 12.4421 587 71.7172 575.17 519.249
1774 0 48.0989 12.2456 589 72.056 574.737 518.761
1775 0 50.1386 14.5397 729 69.4431 574.728 517.177
1776 0 50.0574 13.2248 662 72.2356 574.748 516.961
1777 0 52.1167 13.9686 728 71.2308 574.405 515.486
1778 0 53.268 12.3339 657 73.586 574.338 514.113
1779 0 55.0258 13.5028 743 72.0821 574.631 512.834
1780 0 59.2408 14.8378 879 69.6064 574.807 512.447
1781 0 60.0881 13.1474 790 71.9051 574.565 512.828
1782 0 62.0767 13.8055 857 70.8962 574.796 511.38
1783 0 65.2465 15.2345 994 68.7726 575.066 509.862
1784 0 65.2364 13.1675 859 72.142 574.637 507.711
1785 0 68.4103 14.1499 968 70.6033 575.031 506.268
1786 0 71.0804 13.7591 978 71.3241 574.368 506.036
1787 0 71.1793 13.2482 943 72.4369 574.333 503.544
1788 0 76.193 14.1614 1079 70.7868 574.459 502.12
1789 0 81.2335 14.9446 1214 68.9811 573.493 502.227
1790 0 82.1812 14.0178 1152 70.1536 574.063 501.01
1791 0 84.2198 13.4766 1135 71.4414 574.36 498.248
1792 0 87.219 14.7445 1286 69.9471 574.763 497.373
1793 1 45.093 12.6849 572 72.7885 574.754 514.687
1794 0 49.1596 12.4899 614 71.4707 574.357 515.287
1795 0 51.0489 13.3989 684 70.9854 575.02 514.092
1796 0 53.1044 14.3679 763 68.46 574.862 514.986
1797 0 57.1018 14.0626 803 68.2042 573.926 514.095
1798 0 58.1497 12.657 736 69.6481 574.254 512.5
1799 0 58.1166 13.0083 756 69.7328 574.155 511.776
1800 0 63.1131 13.0718 825 68.863 574.017 509.928
1801 0 65.1068 14.1767 923 67.5211 574.559 509.781
1802 0 66.0545 14.6243 966 67.4814 574.789 505.92
1803 0 67.1252 13.2141 887 69.018 574.533 507.831
1804 0 72.1034 14.0077 1010 67.704 574.275 507.127
1805 0 72.0536 13.5455 976 68.9795 573.964 504.349
1806 0 77.2185 15.631 1207 65.5708 573.738 503.932
1807 0 77.1052 13.4362 1036 68.9778 573.51 500.986
1808 0 83.1461 12.893 1072 68.6763 574.529 502.391
1809 0 82.1869 12.5446 1031 69.9719 575.153 500.234
1810 0 85.3112 14.1599 1208 68.8013 574.696 498.017
1811 0 91.2657 13.6305 1244 68.586 574.66 498.076
1812 0 91.0516 13.2892 1210 69.9967 574.089 496.758
1813 1 48.1229 12.3434 594 70.9057 573.961 518.2
1814 0 49.185 12.2598 603 70.3847 573.942 518.652
1815 0 49.1234 13.5373 665 70.0481 574.501 517.603
1816 0 53.2288 12.606 671 69.9508 574.562 516.569
1817 0 56.1383 13.7517 772 69.1904 574.907 513.631
1818 0 55.1118 12.6289 696 71.1049 574.967 512.358
1819 0 57.1488 14.401 823 69.4605 574.837 512.128
1820 0 60.072 13.0011 781 71.0026 574.922 511.073
1821 0 62.0884 12.3695 768 71.1562 574.177 511.893
1822 0 64.2083 14.8891 956 68.5031 574.532 507.62
1823 0 66.1461 13.7725 911 70.4029 574.755 507.461
1824 0 70.1169 14.2904 1002 69.1277 574.375 505.873
1825 0 70.149 13.2575 930 71.0849 575.025 506.588
1826 0 74.2107 13.4886 1001 70.4016 574.17 502.726
1827 0 75.0888 13.6106 1022 70.089 574.441 504.758
1828 0 80.1152 13.6803 1096 69.7181 574.83 502.294
1829 0 84.1184 13.3383 1122 70.4608 574.551 499.824
1830 0 87.1974 14.8055 1291 68.3741 574.211 501.291
1831 0 86.1921 14.0964 1215 135.249 573.219 499.931
1832 1 44.1456 14.724 650 67.9462 574.028 519.223
1833 0 45.059 13.56 611 70.1489 573.568 521.034
1834 0 45.0368 12.2566 552 71.7409 573.332 519.418
1835 0 48.1317 13.9825 673 69.636 573.233 515.253
1836 0 47.1221 11.9052 561 73.3173 573.205 515.825
1837 0 49.0834 12.1222 595 72.2756 572.891 515.346
1838 0 52.0635 12.5616 654 71.2309 573.613 512.665
1839 0 56.0937 12.8535 721 70.3426 573.627 515.307
1840 0 56.2112 13.0223 732 70.0929 573.358 512.238
1841 0 60.1201 13.656 821 68.8015 573.002 511.724
1842 0 60.3511 13.3718 807 69.663 573.825 509.772
1843 0 64.249 13.5878 873 68.7079 573.897 510.552
1844 0 64.1034 11.9494 766 71.1436 573.274 510.189
1845 0 68.0811 13.1608 896 69.4576 573.493 507.97
1846 0 71.051 12.8922 916 69.5524 572.796 507.564
1847 0 72.1188 14.5038 1046 68.2409 572.937 504.025
1848 0 75.1401 13.2419 995 69.3035 573.561 504.045
1849 0 77.0594 13.561 1045 68.8402 573.711 506.522
1850 0 80.1 14.8564 1190 68.0403 573.896 503.047
1851 0 84.1306 13.3008 1119 70.4504 573.488 501.364
1852 0 87.0947 14.0077 1220 69.3779 573.402 499.125
1853 0 88.1921 12.7449 1124 71.0863 573.366 497.998
1854 1 45.048 11.1437 502 72.3426 573.976 517.882
1855 0 46.0197 10.9953 506 73.0435 574.49 517.142
1856 0 48.1307 12.6738 610 70.7082 574.026 517.048
1857 0 48.1399 12.5052 602 70.9668 574.427 517.603
1858 0 50.0847 14.1161 707 69.5587 574.246 513.86
1859 0 53.1419 13.4169 713 69.251 573.785 513.436
1860 0 54.1983 13.9119 754 69.0875 573.47 512.993
1861 0 58.0541 13.4357 780 68.9269 574.428 513.031
1862 0 58.255 13.9902 815 68.4478 574.063 511.696
1863 0 61.1548 14.357 878 67.68 573.787 510.67
1864 0 63.0338 14.2305 897 68.0769 573.764 509.035
1865 0 65.0932 13.9492 908 68.3822 573.878 509.099
1866 0 67.1409 14.06 944 68.1557 574.095 508.518
1867 0 69.0368 14.0939 973 68.0031 573.525 507.951
1868 0 67.1179 12.9325 868 71.053 574.304 504.809
1869 0 72.1323 12.9207 932 69.9893 574.145 502.151
1870 0 75.0662 13.0019 976 69.6096 573.534 502.017
1871 0 78.0959 13.8548 1082 68.7237 573.592 500.817
1872 0 79.1009 13.4891 1067 69.508 573.647 501.684
1873 0 83.1273 13.5936 1130 69.4717 573.658 498.49
1874 0 85.0978 13.4434 1144 69.8033 573.987 495.08
1875 1 44.2529 12.9031 571 69.655 573.485 516.396
1876 0 45.0521 12.1859 549 70.1421 573.896 515.869
1877 0 45.0446 12.3211 555 71.4919 574.27 512.888
1878 0 49.0473 12.2331 600 70.05 574.01 514.605
1879 0 50.0219 13.2342 662 69.9124 573.249 514.535
1880 0 53.0656 13.3043 706 68.8952 573.946 513.667
1881 0 54.0284 13.2153 714 69.7899 574.249 511.983
1882 0 55.0926 12.1976 672 70.753 574.731 510.589
1883 0 59.1804 13.8221 818 68.1406 574.773 510.727
1884 0 60.0344 13.5089 811 68.1245 575.043 511.259
1885 0 64.1157 15.6436 1003 64.1037 575.024 512.188
1886 0 66.0908 13.5874 898 67.7628 574.018 507.502
1887 0 67.1104 13.4405 902 68.4601 573.603 507.14
1888 0 69.1543 14.2435 985 67.3381 574.293 504.482
1889 0 72.24 12.4031 896 69.2466 573.966 505.722
1890 0 74.1391 13.4342 996 67.6436 573.37 504.171
1891 0 76.0973 13.1148 998 68.6503 574.155 500.439
1892 0 76.0554 11.1892 851 71.1328 574.546 501.213
1893 0 83.0753 13.4456 1117 66.7108 573.168 501.226
1894 0 85.2203 12.72 1084 69.8644 573.685 499.359
1895 0 87.333 14.3474 1253 68.3735 573.974 495.56
1896 0 91.0768 14.12 1286 67.9611 573.82 496.605
1897 0 90.0878 14.0974 1270 69.1575 573.793 490.341
1898 1 51.0897 13.9167 711 68.0098 574.619 512.065
1899 0 50.1246 11.4914 576 71.309 574.342 511.887
1900 0 53.0772 11.455 608 70.6414 574.408 513.822
1901 0 55.1103 11.5949 639 70.2457 574.03 513.559
1902 0 59.0679 12.1894 720 69.0431 574.196 511.653
1903 0 60.1143 13.5908 817 67.798 574.13 510.4
1904 0 61.3334 12.75 782 69.468 573.988 507.07
1905 0 64.0857 13.872 889 66.9381 573.589 506.964
1906 0 67.2678 13.7807 927 66.5912 573.243 505.701
1907 0 70.1431 14.7413 1034 65.3559 574.072 504.249
1908 0 72.201 14.8336 1071 64.9673 573.539 505.924
1909 0 74.0471 14.3422 1062 65.4313 573.742 504.078
1910 0 78.0464 14.4273 1126 65.4121 574.443 501.137
1911 0 79.0846 15.0345 1189 65.3103 574.34 498.354
1912 0 81.0702 13.1244 1064 67.5545 574.101 497.606
1913 0 85.1129 13.1003 1115 67.313 574.208 497.549
1914 0 87.1123 13.8786 1209 66.7353 573.795 495.136
1915 0 91.1008 12.7112 1158 67.0544 573.953 499.104
1916 1 43.1057 11.7386 506 68.0217 574.622 517.13
1917 0 44.0774 13.2948 586 66.7696 574.596 514.785
1918 0 45.0402 12.2113 550 67.4618 573.856 515.215
1919 0 48.089 11.853 570 67.5877 574.007 514.391
1920 0 50.1569 13.6173 683 65.2313 574.84 514.347
1921 0 51.1005 13.0331 666 66.5976 574.65 512.731
1922 0 51.0565 11.027 563 68.7105 574.247 510.877
1923 0 55.061 13.2399 729 65.1742 574.302 512.695
1924 0 57.0554 12.8822 735 65.1469 574.72 507.467
1925 0 60.067 13.6348 819 64.2296 574.305 508.284
1926 0 61.113 13.0578 798 64.7644 574.13 509.747
1927 0 61.0448 12.6628 773 64.9884 574.695 507.886
1928 0 68.0787 12.9703 883 63.9977 575.119 508.894
1929 0 67.1356 12.9291 868 64.5576 574.58 505.013
1930 0 70.1867 14.2192 998 63.2114 574.325 502.626
1931 0 75.1741 13.9942 1052 62.7215 574.488 504.997
1932 0 76.0978 12.8387 977 64.4278 574.334 504.863
1933 0 78.1259 13.619 1064 63.6983 574.024 500.977
1934 0 80.1082 11.9339 956 65.7782 574.189 500.321
1935 0 85.0425 14.9455 1271 61.9654 573.683 499.419
1936 0 88.1334 13.5363 1193 62.7259 574.106 503.628
1937 1 43.0157 11.9956 516 64.9477 572.948 520.831
1938 0 45.0397 12.8331 578 65.0606 572.573 518.455
1939 0 46.0965 11.4976 530 67.5321 573.153 517.915
1940 0 48.0241 13.6806 657 65.414 572.802 517.123
1941 0 49.0373 13.7242 673 65.0594 572.432 516.838
1942 0 53.1968 13.4031 713 64.2454 572.62 518.337
1943 0 53.1268 10.4467 555 67.8396 572.58 517.22
1944 0 57.1886 14.0063 801 63.4632 572.764 515.03
1945 0 57.0983 14.5363 830 63.0458 572.988 514.745
1946 0 58.2808 11.9079 694 66.3328 572.354 513.837
1947 0 60.0785 11.951 718 65.7173 571.864 512.921
1948 0 61.091 11.1964 684 66.2164 571.722 512.822
1949 0 65.2548 12.6734 827 64.5441 571.143 509.688
1950 0 66.0476 12.6121 833 64.6122 572.023 508.342
1951 0 70.1796 13.7789 967 63.3268 571.584 505.707
1952 0 71.076 14.6182 1039 62.5938 571.514 506.074
1953 0 74.0763 12.4331 921 64.6319 570.919 504.891
1954 0 78.104 14.3143 1118 62.2862 570.744 504.352
1955 0 79.0962 13.0853 1035 63.9295 571.244 505.636
1956 0 80.1407 10.9183 875 66.5714 570.709 501.241
1957 0 84.1285 12.3026 1035 65.1778 571.326 501.557
1958 0 84.1311 12.5399 1055 65.8806 571.414 498.757
1959 1 46.0705 13.9134 641 63.5523 571.649 517.724
1960 0 47.2447 12.3612 584 66.238 572.118 517.05
1961 0 51.1355 14.3149 732 62.8374 572.291 517.421
1962 0 50.0239 13.9333 697 64.1263 572.04 515.851
1963 0 53.152 13.8283 735 63.6816 572.148 514.335
1964 0 54.1921 13.0093 705 65.1021 572.335 512.665
1965 0 57.1626 13.9252 796 63.0678 572.623 514.491
1966 0 57.0662 12.7221 726 65.0702 572.623 512.534
1967 0 62.1041 13.2841 825 63.9321 573.046 511.024
1968 0 62.1936 12.0591 750 65.5133 573.451 509.151
1969 0 65.1717 14.2547 929 62.6631 572.538 507.802
1970 0 68.2403 14.5075 990 62.1232 572.962 507.77
1971 0 67.049 12.0807 810 65.2062 573.642 503.879
1972 0 72.0526 13.5734 978 63.2965 573.317 504.775
1973 0 72.0547 11.9215 859 65.4354 572.994 503.165
1974 0 79.2046 14.6582 1161 62.006 573.757 500.295
1975 0 83.243 14.5838 1214 61.4876 574.264 501.021
1976 1 42.073 10.8145 455 64.3494 572.985 520.692
1977 0 44.1748 12.7675 564 63.1738 573.163 518.209
1978 0 43.24 12.6966 549 64.0656 573.286 518.066
1979 0 43.1561 12.6054 544 65.2279 573.686 517.18
1980 0 46.063 12.0704 556 65.3849 574.142 516.653
1981 0 49.0878 13.9953 687 62.3013 573.549 515.186
1982 0 50.174 14.37 721 62.6255 573.921 513.718
1983 0 51.1425 11.9079 609 65.7192 573.476 512.952
1984 0 55.2124 13.0224 719 63.9277 573.328 511.414
1985 0 55.1406 11.6611 643 65.1291 573.942 512.736
1986 0 57.1785 13.2917 760 64.0908 574.063 510.871
1987 0 59.1307 11.6691 690 65.3058 573.632 509.613
1988 0 61.1922 12.5506 768 64.9401 574.557 508.766
1989 0 64.1811 14.0228 900 62.5789 574.261 507.526
1990 0 64.0888 13.7466 881 63.7628 574.432 504.328
1991 0 68.155 14.1589 965 63.1078 574.441 509.036
1992 0 71.2018 14.3395 1021 63.5436 574.367 503.14
1993 0 70.2498 13.3239 936 65.0791 574.043 501.085
1994 0 75.2737 14.082 1060 63.8462 573.552 499.907
1995 0 77.1194 13.2651 1023 64.8182 573.781 500.823
1996 0 82.3637 14.2538 1174 63.5571 573.958 499.939
1997 0 83.146 12.7968 1064 65.3449 574.807 500.439
1998 0 86.4276 12.4844 1079 66.1918 574.832 495.088
1999 0 87.2244 13.3105 1161 65.2429 574.21 493.888
2000 0 89.2202 13.0688 1166 65.6544 573.924 490.352
2001 1 51.1178 11.2877 577 65.3154 573.735 514.057
2002 0 49.0509 11.9876 588 66.0731 574.376 513.056
2003 0 52.3231 11.429 598 66.107 574.54 513.381
2004 0 53.2457 10.9868 585 67.5316 573.956 510.267
2005 0 57.1804 12.7316 728 64.9492 574.587 509.786
2006 0 57.2565 12.1733 697 65.9856 574.456 508.003
2007 0 60.1443 11.8382 712 66.3006 573.146 505.229
2008 0 61.3955 13.1117 805 64.4646 573.432 508.13
2009 0 64.0919 13.1842 845 64.7515 573.998 505.129
2010 0 68.2017 14.5158 990 62.7788 573.15 504.135
2011 0 70.2438 14.9764 1052 62.9724 573.173 502.396
2012 0 73.3716 12.6888 931 65.0559 573.357 503.835
2013 0 74.3274 13.5213 1005 64.409 573.393 501.618
2014 0 78.1864 12.0481 942 66.0287 572.662 500.745
2015 0 83.1644 14.7299 1225 62.5576 573.349 498.716
2016 0 85.1479 14.1401 1204 63.7392 573.336 495.253
2017 0 87.099 13.8578 1207 63.6645 573.142 499.026
2018 1 39.0562 11.1378 435 65.2782 573.154 519.448
2019 0 40.191 10.4999 422 67.3744 573.389 518.927
2020 0 42.2881 13.81 584 64.0394 573.543 515.822
2021 0 45.1758 11.422 516 66.2926 572.922 516.465
2022 0 45.2122 12.0764 546 66.7582 572.864 514.41
2023 0 48.2102 11.7818 568 66.6567 573.625 513.386
2024 0 48.2659 12.3483 596 65.7768 573.656 514.505
2025 0 52.1752 14.4513 754 62.7082 573.733 514.278
2026 0 52.1139 12.6454 659 65.4067 573.536 512.135
2027 0 54.2658 12.2176 663 65.6833 572.923 512.078
2028 0 54.1259 12.5633 680 66.2706 572.732 510.329
2029 0 55.1893 12.4118 685 66.362 572.813 510.453
2030 0 59.1689 12.8784 762 63.6614 572.987 511.938
2031 0 61.2789 13.5773 832 64.8438 573.611 508.376
2032 0 63.1169 13.0235 822 65.7494 573.035 506.656
2033 0 66.1017 13.7667 910 64.3593 573.072 506.077
2034 0 68.2395 12.8225 875 65.816 573.018 506.726
2035 0 71.1627 13.6026 968 64.6333 573.224 504.901
2036 0 73.134 13.2086 966 65.6915 572.578 503.325
2037 0 76.2452 13.3648 1019 64.7802 572.776 505.055
2038 0 78.1518 13.7553 1075 64.8865 573.021 503.972
2039 0 81.1942 14.3483 1165 64.1957 573.179 501.368
2040 1 42.1121 9.64094 406 71.2488 573.298 516.268
2041 0 46.1067 12.8398 592 66.1284 573.657 519.61
2042 0 47.1236 11.7351 553 68.3978 572.868 517.349
2043 0 48.2338 13.787 665 66.579 572.976 515.989
2044 0 49.1068 12.4219 610 67.8246 572.833 516.074
2045 0 52.1931 13.1435 686 66.8324 572.7 515.102
2046 0 53.1593 12.1145 644 68.8975 573.612 514.017
2047 0 56.1692 13.6374 766 66.1932 574.124 513.174
2048 0 56.0988 13.6367 765 67.2366 574.034 511.098
2049 0 57.1437 13.1248 750 67.6627 573.773 511.056
2050 0 60.0862 14.1796 852 66.2324 573.661 508.038
2051 0 63.192 15.2551 964 64.778 574.098 508.063
2052 0 63.3171 11.2924 715 70.0322 572.775 508.296
2053 0 66.2737 14.938 990 65.0778 572.843 505.374
2054 0 68.2094 13.8104 942 66.2091 573.16 505.361
2055 0 72.2494 13.1351 949 66.9041 573.243 504.287
2056 0 72.4268 12.8544 931 67.6864 573.141 502.607
2057 0 75.0825 13.5984 1021 65.7013 573.628 504.548
2058 0 79.2564 14.0935 1117 65.5166 573.656 501.556
2059 0 80.181 12.5965 1010 67.103 572.838 500.898
2060 1 41.1945 11.7734 485 69.7052 572.693 519.219
2061 0 43.1919 10.4418 451 71.3991 572.823 518.672
2062 0 45.1036 12.4824 563 67.6004 572.652 520.119
2063 0 44.2704 12.3333 546 68.3095 572.916 518.797
2064 0 49.2649 13.945 687 65.818 573.485 517.579
2065 0 51.1223 12.8515 657 67.2237 573.312 516.77
2066 0 51.1472 13.2363 677 67.4195 572.217 515.025
2067 0 51.1667 13.3876 685 67.0555 573.22 515.801
2068 0 55.1032 12.1408 669 67.6741 573.265 513.617
2069 0 56.1704 13.4056 753 66.8606 573.268 512.004
2070 0 61.1784 13.6813 837 64.9821 573.691 511.342
2071 0 62.0547 13.6976 850 64.9941 573.414 510.954
2072 0 63.1263 13.5443 855 65.8281 573.444 508.757
2073 0 65.2115 12.9118 842 66.6865 572.322 508.239
2074 0 65.2504 12.9041 842 67.2043 572.314 506.922
2075 0 69.1973 13.7722 953 64.7849 571.991 508.507
2076 0 70.2539 14.5188 1020 64.3598 571.964 505.041
2077 0 73.2705 13.9347 1021 64.4456 571.832 507.373
2078 0 75.1291 12.951 973 66.3402 572.429 503.419
2079 0 75.2443 11.8149 889 67.9393 571.904 502.249
2080 0 79.3083 15.156 1202 63.2371 571.904 503.634
2081 0 83.2102 13.52 1125 65.5804 571.519 501.236
2082 1 45.2207 13.4452 608 65.9243 572.112 517.918
2083 0 45.0934 12.6182 569 68.0562 572.067 518.114
2084 0 50.262 26.7598 1345 36.1695 571.483 513.281
2085 0 48.2041 13.4636 649 67.7381 572.273 515.661
2086 0 51.1579 13.4486 688 67.1802 572.052 514.276
2087 0 52.1843 13.1265 685 68.1095 572.504 514.285
2088 0 54.1911 13.3417 723 67.8617 572.588 512.722
2089 0 57.1208 13.2701 758 67.2348 572.962 513.261
2090 0 58.1414 15.1355 880 65.3614 572.37 511.68
2091 0 60.1851 12.2456 737 69.1086 571.982 511.768
2092 0 60.2266 12.9511 780 68.518 572.103 511.837
2093 0 62.2439 13.174 820 68.6537 571.735 508.044
2094 0 66.143 14.2872 945 66.9196 572.123 509.89
2095 0 66.0983 13.4345 888 68.4696 572.018 509.231
2096 0 69.1745 15.5693 1077 65.5032 571.924 508.318
2097 0 72.2624 15.3468 1109 65.4364 571.326 505.335
2098 0 75.3157 13.8882 1046 67.6864 572.435 504.939
2099 0 78.2326 14.8659 1163 66.2966 572.108 502.388
2100 0 81.3132 14.2166 1156 66.5225 572.218 501.049
2101 0 85.2234 14.902 1270 65.3512 572.705 502.237
2102 0 87.1726 15.2456 1329 64.6862 572.301 500.947
2103 0 91.0996 14.3689 1309 65.4599 572.365 498.659
2104 0 92.3688 14.7669 1364 65.2698 572.274 498.815
2105 1 45.1748 14.0787 636 66.4607 572.635 517.719
2106 0 46.0777 11.9364 550 68.6091 572.718 518.478
2107 0 47.1835 14.1999 670 66.1731 572.872 518.07
2108 0 50.2176 15.0346 755 65.5192 572.274 516.187
2109 0 52.2134 14.0577 734 66.0627 573.022 517.222
2110 0 53.187 14.2704 759 66.0514 572.204 515.756
2111 0 52.2059 13.964 729 67.1989 571.796 513.388
2112 0 55.2808 15.9911 884 64.4819 572.089 511.293
2113 0 60.166 16.3714 985 62.9543 572.605 513.272
2114 0 59.2544 14.5306 861 65.6249 572.598 512.715
2115 0 61.0943 13.3237 814 66.57 573.33 511.914
2116 0 66.1938 14.8654 984 63.9827 572.317 510.99
2117 0 68.2202 14.4825 988 64.3816 572.082 510.034
2118 0 70.1213 14.4892 1016 64.4636 572.721 508.754
2119 0 70.1619 12.8275 900 66.8367 572.902 508.242
2120 0 73.1824 14.293 1046 65.3432 572.867 505.202
2121 0 76.2732 14.1334 1078 64.5436 572.461 505.973
2122 0 79.3239 14.3084 1135 65.0899 572.7 503.959
2123 0 83.1358 14.4823 1204 64.1545 572.36 503.499
2124 0 84.2055 14.6427 1233 64.7307 571.816 500.099
2125 0 85.2221 12.6141 1075 67.2465 572.416 499.586
2126 1 40.2421 14.0897 567 65.2328 572.541 521.427
2127 0 39.0141 12.8928 503 68.2425 572.626 518.575
2128 0 42.182 12.7305 537 67.1378 573.581 520.451
2129 0 43.1812 15.8634 685 63.7358 573.69 519.515
2130 0 47.0648 13.9807 658 65.193 573.495 517.705
2131 0 48.2229 13.7901 665 65.612 572.656 519.218
2132 0 49.2122 16.5609 815 62.7632 572.653 516.129
2133 0 50.4039 15.475 780 63.8167 573.796 515.901
2134 0 49.2134 12.2528 603 68.2869 573.496 514.408
2135 0 54.0621 13.9839 756 65.5106 573.12 512.562
2136 0 56.1381 15.3194 860 63.6116 573.899 515.509
2137 0 56.1706 15.5242 872 64.4874 573.242 513.108
2138 0 58.3779 14.4747 845 65.413 573.169 510.982
2139 0 59.2069 15.5725 922 64.5651 572.656 510.784
2140 0 62.1465 16.0427 997 64.004 573.164 510.488
2141 0 64.2701 13.8323 889 66.8965 573.7 508.711
2142 0 65.2026 13.6958 893 67.6585 573.359 504.968
2143 0 68.1956 15.1476 1033 65.9835 573.604 506.084
2144 0 72.0498 13.9209 1003 66.995 573.098 507.159
2145 0 75.25 15.4153 1160 65.3 572.474 506.065
2146 0 76.1567 14.8641 1132 65.4099 573.241 507.178
2147 0 79.1202 14.4337 1142 66.3398 572.581 504.79
2148 0 80.1114 16.3148 1307 65.3114 572.132 500.956
2149 0 83.2109 15.0942 1256 66.7444 572.98 499.683
2150 0 87.164 15.0062 1308 66.7255 572.552 498.427
2151 1 45.1326 13.5157 610 66.9787 573.123 521.472
2152 0 43.2624 14.3543 621 67.256 572.834 520.422
2153 0 45.0866 14.6163 659 67.0652 572.466 519.083
2154 0 47.1069 15.4117 726 66.186 572.587 519.452
2155 0 49.2356 16.5327 814 64.9447 572.02 518.047
2156 0 51.0528 14.8474 758 66.409 572.495 517.805
2157 0 51.0579 15.3355 783 66.8097 572.275 516.312
2158 0 53.1135 13.3488 709 68.8166 572.078 515.135
2159 0 55.0827 14.7233 811 67.8089 573.631 514.747
2160 0 59.3522 15.2817 907 66.409 572.304 513.724
2161 0 59.0756 15.167 896 67.9453 572.251 512.253
2162 0 61.1323 14.1496 865 68.978 572.368 511.446
2163 0 63.1651 14.66 926 69.487 572.518 509.769
2164 0 65.1382 14.3694 936 69.2137 572.919 510.775
2165 0 68.201 14.4133 983 69.6612 572.983 510.22
2166 0 71.0897 14.5591 1035 70.4164 571.75 507.733
2167 0 73.1163 16.166 1182 68.9975 572.308 504.691
2168 0 74.0359 14.601 1081 71.2747 572.216 505.275
2169 0 78.1113 13.9544 1090 71.6816 572.38 506.392
2170 0 80.1449 14.4239 1156 72.1964 572.897 502.004
2171 0 83.1631 14.7541 1227 71.6031 572.129 504.183
2172 0 85.1651 15.241 1298 71.1864 572.316 501.9
2173 1 46.1456 14.2376 657 72.3014 572.744 519.562
2174 0 47.072 13.3625 629 74.4722 573.285 518.029
2175 0 48.0579 13.4005 644 73.7702 572.997 519.486
2176 0 51.2117 14.0398 719 71.8762 573.046 520.3
2177 0 52.3118 14.1651 741 74.2038 572.984 515.564
2178 0 53.1583 15.5761 828 72.6413 572.924 514.895
2179 0 55.1032 15.9519 879 71.4824 572.656 515.458
2180 0 59.0449 14.7854 873 72.5338 572.78 514.316
2181 0 59.1997 13.6149 806 74.6278 573.082 513.187
2182 0 63.1895 15.8412 1001 71.043 573.164 511.788
2183 0 63.082 13.9818 882 74.3254 573.382 510.45
2184 0 66.1291 14.3507 949 73.3288 573.533 509.139
2185 0 71.2106 14.4361 1028 72.2519 573.132 510.049
2186 0 73.156 14.8313 1085 72.4212 572.714 507.921
2187 0 73.1227 15.1936 1111 71.8029 572.441 509.287
2188 0 79.201 14.5705 1154 72.3839 573.021 506.34
2189 0 79.1501 13.1649 1042 74.6891 573.232 505.554
2190 1 41.2726 12.9384 534 74.0992 572.861 521.142
2191 0 41.0698 15.8997 653 71.7244 572.89 520.73
2192 0 41.103 13.5027 555 74.1532 573.049 522.461
2193 0 43.04 16.171 696 72.0172 572.754 520.56
2194 0 45.075 15.3078 690 72.8739 572.052 520.284
2195 0 44.0736 14.0447 619 75.8562 572.817 519.047
2196 0 48.2491 14.964 722 72.8352 572.323 519.006
2197 0 50.1961 14.6426 735 73.1905 572.43 517.129
2198 0 50.2985 16.0044 805 72.7217 572.595 516.37
2199 0 50.0443 13.3282 667 76.3928 572.289 515.42
2200 0 53.0989 15.2169 808 73.1547 572.261 515.3
2201 0 55.1073 15.0978 832 73.2224 571.932 514.371
2202 0 57.3029 14.7287 844 73.487 572.436 514.783
2203 0 59.1124 14.87 879 72.9181 572.63 513.958
2204 0 61.1234 14.757 902 72.5211 572.259 513.279
2205 0 62.1603 13.6743 850 75.0282 573.167 510.685
2206 0 65.0422 15.3593 999 72.2032 572.832 510.362
2207 0 66.1816 15.5632 1030 72.3301 572.678 508.739
2208 0 69.1045 14.138 977 74.1668 573.224 509.288
2209 0 72.0958 15.4794 1116 71.8477 573.064 508.832
2210 0 72.2374 13.1511 950 75.4295 573.21 507.609
2211 0 76.0695 13.6191 1036 74.3243 572.996 506.528
2212 0 78.0569 16.7698 1309 70.6585 572.623 502.312
2213 0 80.2173 13.7502 1103 74.8368 572.403 501.593
2214 1 41.0517 13.69 562 75.0036 572.875 522.265
2215 0 41.075 12.4163 510 77.1216 573.176 522.006
2216 0 45.1674 13.2839 600 75.2233 572.47 522.58
2217 0 43.0407 14.707 633 75.3365 572.73 520.766
2218 0 45.2394 13.6385 617 76.0259 572.348 521.363
2219 0 48.3358 14.813 716 74.0154 572.522 519.976
2220 0 48.1422 13.5847 654 76.9067 572.236 518.557
2221 0 53.0336 13.8591 735 74.8748 572.271 518.014
2222 0 53.2413 14.3122 762 74.7848 572.937 518.929
2223 0 55.0381 14.8079 815 74.4883 572.627 516.121
2224 0 56.1231 16.1609 907 72.3627 572.777 516.811
2225 0 58.0503 14.0395 815 75.2834 572.658 516.27
2226 0 61.1967 15.0662 922 73.4837 572.639 514.682
2227 0 61.0818 15.2582 932 73.8798 572.323 513.437
2228 0 66.2464 15.9405 1056 71.8049 572.529 513.021
2229 0 68.3572 14.7607 1009 73.33 572.435 512.302
2230 0 70.2596 14.8165 1041 73.6888 572.639 511.305
2231 0 71.1745 14.05 1000 75.015 572.703 509.292
2232 0 73.1779 14.9635 1095 73.8055 573.05 510.382
2233 0 77.3755 15.2374 1179 72.7337 573.029 508.126
2234 0 78.0827 13.268 1036 75.9151 572.35 507.45
2235 0 83.1772 14.0303 1167 73.7918 572.624 506.739
2236 0 86.2436 15.1895 1310 72.5756 573.202 503.532
2237 0 88.1979 14.6375 1291 72.6414 572.701 505.366
2238 0 91.1923 14.5846 1330 73.3203 572.607 500.723
2239 0 94.328 14.0149 1322 74.3676 573.391 501.56
2240 0 99.2027 15.1609 1504 72.2281 572.701 499.759
2241 1 48.0449 14.9235 717 73.7838 572.338 521.681
2242 0 50.3563 15.7875 795 72.2063 573.614 521.87
2243 0 50.2719 14.2425 716 74.8338 573.222 521.11
2244 0 51.129 14.395 736 74.8139 573.023 521.359
2245 0 54.0836 16.8998 914 71.3009 573.338 519.347
2246 0 54.3684 14.4569 786 74.8842 573.354 519.302
2247 0 57.3032 15.7059 900 73.0533 573.007 518.781
2248 0 59.275 16.1282 956 72.681 573.068 516.903
2249 0 60.0821 16.2111 974 72.7433 572.967 516.773
2250 0 62.0503 14.9717 929 74.4682 573.106 514.733
2251 0 66.2985 16.0788 1066 72.5797 572.968 513.124
2252 0 66.2986 14.0275 930 75.7172 573.339 514.373
2253 0 69.2016 16.7482 1159 71.95 573.014 510.989
2254 0 72.2526 15.0168 1085 73.9631 573.042 510.667
2255 0 74.1657 16.4362 1219 73.0861 573.094 508.986
2256 0 78.378 15.5273 1217 73.3542 573.37 509.91
2257 0 78.2918 14.6631 1148 75.5122 573.416 509.224
2258 0 80.4552 15.1389 1218 74.8842 572.592 506.367
2259 0 84.2664 15.9613 1345 73.8848 572.515 504.605
2260 0 86.5344 15.5661 1347 74.4996 572.434 503.958
2261 0 89.3087 15.7879 1410 74.3255 573.126 500.302
2262 0 91.2107 15.963 1456 74.1964 573.444 501.442
2263 0 95.6607 15.095 1444 74.9875 572.82 500.131
2264 0 99.2817 16.2467 1613 73.2697 573.377 497.432
2265 1 45.192 13.2103 597 77.268 572.729 522.173
2266 0 47.3378 12.7805 605 77.6182 573.114 523.517
2267 0 47.5107 14.8388 705 75.0667 573.048 523.156
2268 0 49.1286 16.5891 815 73.4994 572.722 521.023
2269 0 51.2841 15.1119 775 75.9071 572.666 519.341
2270 0 49.1225 13.4969 663 79.083 572.863 520.246
2271 0 55.3076 15.7483 871 73.8324 572.352 521.457
2272 0 54.1316 15.0374 814 76.6978 572.549 518.93
2273 0 55.4551 15.3457 851 76.0329 572.498 519.244
2274 0 58.0725 14.7057 854 77.0504 572.494 515.852
2275 0 58.2443 14.422 840 78.1738 572.931 515.452
2276 0 61.1412 14.9326 913 77.058 572.786 514.207
2277 0 64.1848 14.801 950 76.58 573.461 514.014
2278 0 68.2127 16.0381 1094 73.7514 573.136 513.592
2279 0 69.1402 16.8209 1163 72.8126 573.518 512.855
2280 0 71.3116 14.668 1046 76.6013 573.251 510.664
2281 0 72.2178 15.0932 1090 75.6807 573.308 510.992
2282 0 73.1217 15.6725 1146 75.5698 572.888 509.078
2283 0 78.2859 15.1368 1185 75.2025 572.868 507.63
2284 0 80.294 15.1319 1215 75.3663 573.138 503.971
2285 0 82.1547 15.7143 1291 73.9659 573.464 505.366
2286 0 84.124 15.0968 1270 74.8094 573.621 503.255
2287 0 88.1614 16.4131 1447 73.2018 572.88 500.624
2288 0 93.098 14.9842 1395 73.7699 572.676 501.913
2289 1 47.227 15.4996 732 72.6735 572.893 521.622
2290 0 47.3464 12.8838 610 76.4787 573.875 520.233
2291 0 47.2125 15.2926 722 74.9848 573.623 518.429
2292 0 49.3629 13.654 674 77.0074 572.932 517.316
2293 0 52.134 14.3476 748 74.6497 573.671 519.527
2294 0 53.2192 14.957 796 74.1709 573.32 518.063
2295 0 54.1891 13.5267 733 76.5416 573.596 515.385
2296 0 58.2542 16.737 975 71.5805 573.342 514.138
2297 0 58.1673 15.9884 930 72.7043 573.092 516.182
2298 0 61.1508 14.4397 883 75.3692 573.696 513.241
2299 0 63.2748 14.4133 912 75.0778 573.552 513.253
2300 0 65.2379 16.0796 1049 71.0372 573.951 511.902
2301 0 66.1797 14.8082 980 72.2714 574.074 513.072
2302 0 69.2722 14.7101 1019 73.1492 573.8 509.122
2303 0 71.1863 16.6886 1188 70.8325 573.982 507.159
2304 0 74.174 15.2749 1133 72.098 573.767 505.719
2305 0 76.236 15.5963 1189 71.4811 574.277 507.188
2306 0 78.3562 15.9273 1248 71.6554 573.546 504.342
2307 0 82.1982 15.0612 1238 72.4346 574.044 503.178
2308 0 83.0588 14.3754 1194 74.0586 574.336 502.191
2309 0 85.2498 14.2522 1215 73.8173 574.096 503.098
2310 0 88.5322 14.266 1263 74.2439 574.089 500.001
2311 0 89.1641 14.4453 1288 74.8354 573.995 495.863
2312 1 43.135 14.3967 621 73.5008 573.873 520.374
2313 0 43.2507 14.4969 627 73.4019 574.357 521.718
2314 0 44.2505 12.9716 574 75.6829 574.648 521.789
2315 0 45.225 14.8812 673 74.2021 574.661 519.903
2316 0 47.3415 15.5466 736 73.0761 573.284 519.616
2317 0 49.2579 14.4545 712 74.5646 573.51 518.034
2318 0 49.2393 13.8913 684 75.9108 573.434 518.512
2319 0 50.5074 14.6117 738 75.3144 573.741 516.191
2320 0 52.2486 16.2301 848 72.9245 573.883 516.321
2321 0 51.1059 15.1255 773 76.1501 574.586 514.891
2322 0 56.1493 16.1534 907 73.7233 573.845 513.729
2323 0 58.1122 15.6077 907 74.1246 573.28 514.168
2324 0 59.1173 16.5941 981 73.2345 574.184 512.091
2325 0 63.1066 15.973 1008 73.504 574.369 511.277
2326 0 62.1508 15.4946 963 75.6978 574.026 509.093
2327 0 64.1985 16.8384 1081 73.8575 574.24 508.228
2328 0 66.0824 16.9183 1118 73.5143 573.787 507.069
2329 0 69.1418 15.2874 1057 74.5591 573.881 510.693
2330 0 69.209 15.3882 1065 75.8704 573.967 505.809
2331 0 72.127 14.6131 1054 76.5768 574.197 505.751
2332 0 73.2134 14.7377 1079 76.8258 574.399 504.229
2333 0 78.2297 15.4673 1210 75.3835 573.731 503.656
2334 0 81.2148 15.539 1262 74.7916 574.67 502.964
2335 0 83.2376 15.8702 1321 74.1575 573.264 501.151
2336 0 87.0824 17.5696 1530 71.649 574.157 499.301
2337 0 90.1117 15.7804 1422 73.8277 573.962 500.121
2338 0 90.2108 15.9848 1442 74.4223 573.723 498.162
2339 0 92.1499 13.923 1283 77.9096 573.8 497.573
2340 0 98.1811 15.2575 1498 75.3905 574.702 496.706
2341 0 100.187 16.5092 1654 74.0314 573.849 492.212
2342 0 102.15 15.6829 1602 75.3115 573.73 492.186
2343 0 106.126 15.7266 1669 75.4482 574.211 489.865
2344 0 109.348 15.7662 1724 75.6236 573.865 490.999
2345 1 50.1155 13.5687 680 78.3676 573.631 515.443
2346 0 53.1941 14.1745 754 77.6207 573.772 515.005
2347 0 54.3371 15.5695 846 75.935 573.956 513.956
2348 0 53.0433 13.2533 703 79.9801 574.327 514.797
2349 0 58.1642 14.2527 829 77.0555 573.978 515.287
2350 0 59.2234 14.5382 861 69.1161 573.454 514.252
2351 0 62.5897 15.2421 954 67.2296 573.588 512.244
2352 0 63.1782 15.7333 994 66.7052 574.086 508.834
2353 0 66.0578 15.7741 1042 65.4443 573.598 513.132
2354 0 67.2694 15.3859 1035 66.8155 573.517 511.549
2355 0 71.0418 15.1179 1074 66.7365 573.888 510.119
2356 0 71.2323 15.2459 1086 66.4208 574.428 510.126
2357 0 74.1803 15.2736 1133 66.4748 574.133 509.678
2358 0 74.1722 14.4124 1069 68.8064 574.127 505.565
2359 0 74.1641 15.1286 1122 67.8948 573.513 503.327
2360 0 81.3078 15.4229 1254 66.5662 574.097 505.344
2361 0 83.459 15.8521 1323 65.8692 573.432 502.782
2362 0 86.2336 15.0637 1299 66.2502 573.646 503.503
2363 0 88.2815 16.0509 1417 65.5462 573.651 501.428
2364 0 93.1587 15.8332 1475 65.5363 573.588 499.668
2365 1 44.257 16.0653 711 64.09 574.138 522.501
2366 0 45.3545 14.3536 651 65.7527 573.332 523.075
2367 0 46.2863 14.5183 672 66.7932 573.622 519.81
2368 0 46.2453 15.0286 695 66.6446 573.517 519.761
2369 0 46.1219 14.9604 690 66.7725 573.519 520.094
2370 0 49.1981 15.7323 774 65.7209 573.922 519.046
2371 0 49.3817 15.3296 757 66.6182 573.919 517.156
2372 0 52.3547 15.2422 798 66.3183 573.35 517.48
2373 0 54.5127 13.373 729 68.1056 573.119 518.853
2374 0 53.5755 15.1002 809 66.8813 573.255 514.985
2375 0 55.2608 16.6845 922 64.7549 573.518 515.565
2376 0 57.2884 15.4307 884 66.0747 572.998 515.757
2377 0 59.1204 15.3416 907 66.6185 573.452 513.299
2378 0 63.2709 16.9272 1071 63.9076 573.654 512.643
2379 0 63.3483 15.4227 977 65.7687 573.799 513.994
2380 0 66.1461 15.0727 997 66.1976 574.325 512.022
2381 0 68.1178 15.8255 1078 64.9898 573.86 509.959
2382 0 71.2457 13.671 974 66.5924 573.7 511.637
2383 0 73.0745 15.5321 1135 65.2229 574.074 505.544
2384 0 74.2502 15.9865 1187 64.9865 573.87 508.035
2385 0 76.1099 16.5419 1259 64.7379 574.535 503.267
2386 0 81.1424 16.8223 1365 63.2095 574.236 502.766
2387 0 83.1201 15.3272 1274 65.6711 574.658 500.768
2388 0 86.2694 15.3473 1324 65.185 574.33 499.626
2389 0 87.196 14.3585 1252 66.6693 575.133 498.411
2390 0 92.227 14.9197 1376 65.814 574.975 495.6
2391 0 95.4036 15.3978 1469 64.772 575.218 496.436
2392 1 44.059 10.9172 481 69.8212 576.437 515.884
2393 0 49.2291 11.7207 577 68.2236 576.042 515.146
2394 0 52.1716 15.0273 784 64.4796 576.545 515.485
2395 0 53.297 13.603 725 66.0331 577.201 514.927
2396 0 54.3304 12.9025 701 66.2225 576.679 514.67
2397 0 57.1008 15.1136 863 63.898 576.251 512.778
2398 0 57.2426 14.0979 807 64.5378 576.014 514.705
2399 0 61.1112 14.4982 886 64.8284 575.521 512.1
2400 0 61.2024 17.0418 1043 62.1879 576.099 510.916
2401 0 62.1937 14.1011 877 66.61 575.741 507.829
2402 0 63.2732 15.0142 950 65.4137 576.346 508.503
2403 0 65.0868 14.2271 926 66.1058 576.098 505.455
2404 0 69.1047 15.3101 1058 64.5803 575.688 505.264
2405 0 72.4695 15.5238 1125 63.6613 575.901 505.534
2406 0 76.1068 15.8724 1208 62.8022 575.694 504.642
2407 0 78.1309 16.2548 1270 62.0803 576.202 505.794
2408 0 82.3348 16.5908 1366 61.093 576.562 503.175
2409 0 83.1714 15.3779 1279 62.6935 575.973 500.612
2410 0 84.4023 13.8385 1168 64.2723 575.801 498.764
2411 0 88.2346 14.0194 1237 63.7947 575.685 497.213
2412 0 90.1683 15.2825 1378 62.4898 576.131 496.316
2413 0 95.6043 14.309 1368 62.7346 576.167 496.089
2414 1 50.2335 14.4127 724 62.1506 575.798 517.294
2415 0 49.1737 14.6216 719 62.7051 576.04 516.163
2416 0 50.3688 13.9769 704 64.1051 576.111 514.276
2417 0 52.0879 12.5749 655 65.1863 576.125 512.544
2418 0 54.1901 13.4526 729 63.6461 576.025 513.613
2419 0 57.2083 14.2287 814 62.8071 575.897 512.754
2420 0 58.5306 13.463 788 63.2043 575.812 513.404
2421 0 59.1093 12.4177 734 64.6444 576.353 512.172
2422 0 58.2157 13.5874 791 64.8319 576.747 507.869
2423 0 62.2195 15.4775 963 62.2648 576.251 509.821
2424 0 65.193 14.8482 968 62.4039 575.245 508.474
2425 0 66.1386 14.6813 971 63.243 574.873 507.346
2426 0 68.2287 15.3748 1049 62.5663 575.454 506.215
2427 0 74.4219 15.8287 1178 61.4287 575.976 504.366
2428 0 74.2412 14.2239 1056 63.876 575.261 502.161
2429 0 79.3896 13.7172 1089 63.4196 575.932 505.566
2430 0 79.3007 15.0818 1196 62.5418 575.411 500.452
2431 0 84.1468 14.5935 1228 62.3331 575.843 502.37
2432 0 87.3446 15.1469 1323 62.09 575.582 498.962
2433 0 88.3851 14.6971 1299 63.3695 574.812 496.836
2434 0 89.224 13.864 1237 64.2506 575.524 494.097
2435 1 42.0375 13.3452 561 64.3761 575.269 519.144
2436 0 44.1519 14.5181 641 63.8159 575.471 517.164
2437 0 45.2725 13.4519 609 64.7619 575.468 518.438
2438 0 47.093 13.7388 647 64.5286 575.796 517.603
2439 0 50.1762 13.7316 689 64.5109 575.611 515.768
2440 0 51.3074 14.0526 721 64.344 574.785 515.252
2441 0 54.1436 14.6832 795 62.6289 574.922 516.375
2442 0 55.1884 13.4449 742 63.6361 575.135 514.76
2443 0 57.2582 14.6879 841 63.1034 575.145 511.444
2444 0 59.1586 13.9625 826 63.4467 575.662 511.924
2445 0 62.1105 15.5046 963 61.7664 574.985 510.909
2446 0 63.1721 14.5476 919 62.9434 575.02 510.715
2447 0 65.1339 15.1688 988 62.3158 575.713 511.358
2448 0 66.0981 14.66 969 63.2147 574.618 508.365
2449 0 70.2713 15.8671 1115 62.1166 574.441 506.927
2450 0 70.2075 14.0583 987 64.0436 574.511 507.693
2451 0 70.1128 12.0377 844 67.2073 574.98 503.789
2452 0 74.3023 14.0372 1043 64.5369 575.089 503.646
2453 0 78.4113 14.832 1163 63.3371 574.375 501.651
2454 0 80.0878 13.9847 1120 64.2616 575.128 500.234
2455 0 81.3552 13.398 1090 64.9844 574.612 496.749
2456 0 85.2788 13.9542 1190 63.9126 573.929 497.688
2457 0 87.2088 13.1638 1148 63.8606 573.482 500.14
2458 0 91.4108 14.2215 1300 62.9592 573.048 494.994
2459 0 93.301 16.2806 1519 61.0046 574.382 494.025
2460 0 98.19 15.3885 1511 61.8425 574.503 491.441
2461 1 44.3923 12.9527 575 64.433 574.476 518.174
2462 0 46.3937 12.9975 603 64.3632 574.904 517.499
2463 0 48.2634 18.0261 870 58.854 574.52 516.4
2464 0 48.1457 14.2069 684 63.0731 574.804 518.061
2465 0 50.3855 15.5402 783 61.9183 574.83 513.354
2466 0 53.1862 15.1919 808 61.6436 574.212 517.267
2467 0 55.3036 16.6174 919 60.1099 573.668 515.059
2468 0 55.3101 15.2233 842 61.9335 573.217 514.767
2469 0 61.2719 16.6145 1018 59.8998 574.753 513.466
2470 0 60.1814 16.3838 986 61.1744 573.784 512.088
2471 0 61.1791 15.332 938 61.8092 573.906 513.542
2472 0 63.2268 12.6687 801 65.0762 574.062 511.915
2473 0 65.2472 14.606 953 63.4502 574.853 509.561
2474 0 66.5069 13.337 887 65.5085 573.868 506.696
2475 0 69.2533 15.7249 1089 62.3774 574.907 506.314
2476 0 73.3834 14.3902 1056 63.3504 574.172 506.767
2477 0 73.3351 16.0769 1179 62.1527 574.404 505.197
2478 0 77.2488 16.065 1241 61.9863 574.397 505.566
2479 0 79.3941 14.4091 1144 64.0184 574.992 503.297
2480 0 81.3081 16.1731 1315 62.3331 574.458 499.94
2481 0 84.3758 15.2176 1284 62.7391 574.734 501.178
2482 0 87.1756 15.3254 1336 62.4386 574.415 503.928
2483 0 90.3942 14.4146 1303 63.7153 574.316 496.196
2484 0 94.2167 15.4431 1455 62.2756 574.929 495.17
2485 1 48.2994 14.5343 702 63.057 574.782 519.966
2486 0 46.4769 13.426 624 65.9936 574.728 516.864
2487 0 50.3516 15.2726 769 62.987 574.429 517.892
2488 0 52.1311 15.4227 804 62.8445 574.687 516.684
2489 0 52.3997 13.397 702 66.3932 574.597 515.477
2490 0 53.3887 16.7826 896 62.7946 575.116 512.287
2491 0 56.3236 15.9258 897 63.5117 575.25 512.326
2492 0 55.1102 15.3511 846 65.2435 575.104 511.582
2493 0 60.2612 14.6197 881 65.1748 574.763 512.57
2494 0 60.2238 14.7948 891 66.0763 574.127 508.547
2495 0 60.3112 14.6076 881 66.8116 574.123 506.375
2496 0 63.6226 14.8218 943 66.2789 575.14 508.257
2497 0 67.2823 15.918 1071 64.1186 574.957 506.995
2498 0 70.1993 15.2138 1068 65.2425 574.416 506.106
2499 0 72.3734 16.5945 1201 63.7344 575.432 505.415
2500 0 72.2406 14.4517 1044 67.2328 575.518 503.77
2501 0 74.2117 14.4047 1069 67.0318 574.359 503.351
2502 0 78.3769 15.2341 1194 66.4204 574.951 500.379
2503 0 83.3787 16.0233 1336 64.8353 574.78 500.341
2504 0 85.3185 16.0458 1369 65.7575 574.536 500.065
2505 0 85.4182 15.5587 1329 66.2129 575.104 498.079
2506 0 87.4235 14.6299 1279 68.111 575.369 493.043
2507 1 44.205 13.641 603 66.5539 575.284 517.549
2508 0 48.3545 14.5591 704 65.733 575.423 516.195
2509 0 45.4311 13.4489 611 68.8969 575.524 516.403
2510 0 50.1709 14.4905 727 66.2242 574.458 515.744
2511 0 50.2084 14.3203 719 67.5508 574.79 514.134
2512 0 50.1976 13.6461 685 68.9635 575.523 513.025
2513 0 52.2965 15.6607 819 66.0879 575.738 512.575
2514 0 55.2774 13.8393 765 67.1294 575.124 512.094
2515 0 58.3617 15.8323 924 65.2803 575.235 510.19
2516 0 60.2496 15.5852 939 65.64 575.197 509.45
2517 0 60.3907 15.3666 928 66.3319 575.266 507.724
2518 0 64.2582 15.391 989 65.7614 575.718 507.927
2519 0 66.5448 15.6135 1039 64.8855 575.218 506.859
2520 0 69.3189 16.0851 1115 64.8054 574.666 503.225
2521 0 70.3217 14.7323 1036 66.3687 574.695 504.532
2522 0 73.4552 14.1719 1041 66.7589 575.383 501.141
2523 0 74.6497 13.3021 993 67.9204 575.079 501.866
2524 0 79.357 15.5374 1233 64.5369 575.71 502.409
2525 0 80.6129 14.8487 1197 65.8747 575.438 499.413
2526 0 84.6058 15.3536 1299 65.3002 575.376 495.343
2527 0 87.5386 14.3251 1254 67.3716 575.474 494.348
2528 1 44.182 14.0781 622 66.1013 576.199 516.331
2529 0 43.3346 17.0533 739 63.1177 575.843 515.938
2530 0 44.2613 12.9006 571 67.7758 575.312 515.657
2531 0 43.0843 13.8798 598 67.9465 575.127 516.316
2532 0 44.2593 13.6243 603 67.8706 576.32 513.715
2533 0 48.2178 15.6789 756 65.2262 576.353 512.239
2534 0 49.1605 13.7305 675 66.957 575.762 513.317
2535 0 49.162 14.0352 690 67.0391 576.074 510.91
2536 0 51.1523 15.2877 782 65.0141 576.878 510.325
2537 0 54.0834 14.2927 773 65.3441 576.419 509.361
2538 0 57.0768 14.9973 856 64.1133 575.565 506.335
2539 0 58.0608 14.9154 866 63.6039 575.642 509.909
2540 0 59.0885 15.3668 908 63.5143 575.472 505.09
2541 0 60.2242 15.4257 929 63.2842 575.717 506.418
2542 0 65.0819 15.3499 999 62.4214 574.996 503.609
2543 0 68.0587 13.7969 939 64.0522 575.015 502.408
2544 0 68.1073 14.8442 1011 63.1573 575.768 502.091
2545 0 68.0646 16.2934 1109 62.0316 575.284 501.339
2546 0 73.3509 14.2739 1047 62.8472 575.861 501.606
2547 0 76.1941 14.8962 1135 63.0079 576.18 497.548
2548 0 79.1644 15.032 1190 62.5966 575.082 497.917
2549 0 80.284 13.7014 1100 64.7382 576.103 494.571
2550 0 83.4307 15.402 1285 62.0389 576.04 497.983
2551 0 89.2601 15.2588 1362 62.2129 575.489 494.812
2552 1 45.1586 13.3529 603 66.2338 575.77 513.078
2553 0 49.0491 13.4151 658 65.2903 575.754 513.322
2554 0 50.0859 14.4152 722 63.9778 575.841 512.949
2555 0 49.1588 14.8295 729 64.1331 575.765 512.45
2556 0 52.0544 15.4454 804 62.9415 576.093 511.857
2557 0 53.0538 15.0225 797 64.2923 575.935 509.551
2558 0 55.0427 13.0081 716 66.1941 575.131 509.352
2559 0 57.1082 14.0085 800 65.045 575.796 508.32
2560 0 59.1015 14.8389 877 64.3056 575.241 505.891
2561 0 61.0529 13.9387 851 65.2644 575.169 504.982
2562 0 64.3724 14.6491 943 63.736 575.318 505.59
2563 0 65.0796 14.4131 938 63.984 575.593 503.175
2564 0 65.2117 12.7124 829 66.1387 575.606 501.008
2565 0 68.2404 15.8997 1085 62.2341 575.761 501.818
2566 0 72.2273 14.3159 1034 64.3182 575.552 500.662
2567 0 73.2777 15.025 1101 62.9646 575.457 497.383
2568 0 77.0736 14.7132 1134 62.9392 575.653 499.496
2569 0 79.1896 12.5774 996 65.9488 575.46 495.73
2570 0 82.2126 12.8204 1054 64.8966 575.291 495.656
2571 0 84.1239 14.3241 1205 63.1718 574.968 494.544
2572 0 87.1696 12.665 1104 64.7989 575.608 489.349
2573 0 89.2529 14.3637 1282 63.0374 575.257 491.576
2574 0 93.6811 14.037 1315 63.1407 574.246 488.027
2575 1 45.2471 14.2993 647 63.2087 574.788 514.352
2576 0 45.2813 14.4431 654 63.5092 575.229 512.567
2577 0 47.4096 13.5837 644 63.9596 575.174 511.616
2578 0 48.2269 13.4158 647 64.3138 574.904 512.263
2579 0 53.3828 14.3492 766 60.4465 574.664 513.676
2580 0 55.7113 14.0366 782 61.8286 574.127 509.731
2581 0 55.2172 14.8323 819 60.9426 574.477 509.835
2582 0 55.5124 14.0149 778 62.7712 574.77 507.311
2583 0 56.3971 15.2313 859 61.3644 574.77 506.189
2584 0 61.3729 14.5341 892 61.2276 575.03 506.161
2585 0 62.3002 11.8459 738 64.0827 574.335 504.505
2586 0 62.1119 14.9569 929 61.7255 574.124 503.138
2587 0 66.1953 14.986 992 61.0111 574.312 504.205
2588 0 69.3356 13.8601 961 62.1821 574.263 501.024
2589 0 72.4466 13.0993 949 62.5838 574.429 500.048
2590 0 73.3511 13.1559 965 63.5679 575.223 498.941
2591 0 77.4588 14.5755 1129 61.0903 575.193 499.454
2592 0 80.3729 15.7889 1269 59.7305 574.485 497.56
2593 0 83.1654 15.6315 1300 59.6208 575.238 499.377
2594 0 85.4816 13.9562 1193 61.4987 574.885 497.075
2595 0 88.4773 14.6139 1293 60.9861 574.747 493.41
2596 1 43.3071 13.8315 599 61.788 574.666 514.559
2597 0 44.5055 14.1106 628 62.2914 574.94 513.58
2598 0 49.2463 14.4986 714 60.1485 576.195 513.562
2599 0 48.0278 12.5552 603 61.942 576.919 513.509
2600 0 50.3304 13.3915 674 62.9169 576.543 511.537
2601 0 52.4042 17.8803 937 57.6126 576.227 509.987
2602 0 52.3046 15.3524 803 59.9801 575.999 510.946
2603 0 56.101 14.3313 804 60.2923 576.129 508.728
2604 0 56.1185 13.721 770 61.2494 575.145 508.552
2605 0 57.1797 13.7461 786 60.9771 574.975 508.51
2606 0 61.1468 15.2911 935 58.9754 574.995 506.523
2607 0 63.0972 14.7233 929 58.9343 575.039 507.831
2608 0 64.1572 15.54 997 58.32 574.951 503.713
2609 0 67.2488 15.569 1047 58.2942 575.518 504.438
2610 0 67.2324 13.5054 908 60.7368 575.592 502.32
2611 0 68.1229 15.8684 1081 58.4033 575.574 500.978
2612 0 73.3387 14.7126 1079 59.418 574.937 498.476
2613 0 75.2779 14.0944 1061 60.7738 574.751 498.556
2614 0 75.6692 14.3387 1085 60.5991 574.036 497.298
2615 0 80.4321 15.0811 1213 59.6208 574.604 496.297
2616 0 81.3388 14.876 1210 60.1843 574.83 495.68
2617 0 84.3451 16.3732 1381 58.5547 574.795 494.255
2618 0 85.7444 14.4266 1237 60.477 575.3 495.416
2619 1 39.2801 14.1293 555 62.3405 576.002 513.195
2620 0 40.443 11.8686 480 63.2958 576.64 515.425
2621 0 41.2955 15.2317 629 61.0874 574.895 514.552
2622 0 45.4123 14.6656 666 61.4775 574.973 512.532
2623 0 44.1633 15.103 667 61.3883 576.13 512.034
2624 0 45.1894 14.1405 639 62.9781 575.729 512.408
2625 0 45.2723 14.0483 636 63.3176 575.576 512.201
2626 0 49.5212 16.6393 824 59.9612 575.175 510.609
2627 0 50.3706 15.0485 758 61.4208 574.708 510.252
2628 0 52.2711 15.2283 796 61.5264 574.317 508.999
2629 0 53.5369 14.7749 791 62.3729 573.909 506.987
2630 0 53.7107 14.0196 753 64.2098 574.984 506.64
2631 0 56.6128 13.1949 747 64.9706 574.553 506.091
2632 0 58.4929 15.3523 898 62.5033 575.501 504.739
2633 0 57.2726 14.4746 829 64.2811 574.999 503.859
2634 0 62.674 13.3867 839 64.7044 575.098 503.697
2635 0 62.4008 15.128 944 63.8517 574.947 502.287
2636 0 65.5084 14.7004 963 63.8359 575.069 502.849
2637 0 66.9417 12.1748 815 66.3436 575.068 503.61
2638 0 68.2254 14.5254 991 64.9263 575.316 500.976
2639 0 72.3572 14.539 1052 64.2652 575.46 499.692
2640 0 74.6567 14.7609 1102 63.7677 575.74 500.478
2641 0 74.1076 13.4264 995 66.1658 574.888 497.876
2642 0 77.2353 13.9703 1079 60.2159 574.503 498.26
2643 0 81.6782 15.8059 1291 63.0372 574.72 496.459
2644 0 82.5148 13.4037 1106 65.8599 575.514 495.359
2645 1 40.4286 13.1837 533 64.7749 574.955 517.452
2646 0 37.3816 10.3259 386 68.7617 575.635 516.609
2647 0 44.4959 13.7091 610 63.6738 575.72 517.61
2648 0 42.1628 14.0645 593 65.2799 575.651 515.907
2649 0 41.1138 13.7667 566 65.4594 574.652 515.164
2650 0 45.5819 16.2345 740 62.9203 575.439 513.931
2651 0 47.6823 14.1352 674 64.1187 575.386 515.267
2652 0 47.4501 14.3941 683 64.7892 575.397 514.091
2653 0 49.6707 13.6096 676 66.2811 575.138 513.075
2654 0 51.7079 14.5626 753 64.579 575.947 511.693
2655 0 52.1508 15.0717 786 64.1972 575.922 512.908
2656 0 54.4556 14.342 781 64.8335 575.076 512.248
2657 0 57.3581 16.4929 946 63.4123 575.578 509
2658 0 57.2536 13.9729 800 65.6938 575.175 507.869
2659 0 59.4242 15.6165 928 64.3319 575.225 508.706
2660 0 61.2641 13.907 852 65.5282 575.251 511.433
2661 0 65.453 17.1726 1124 61.6237 575.217 507.67
2662 0 65.5196 13.5837 890 66.2719 575.555 506.917
2663 0 66.2814 15.3588 1018 64.6542 575.574 505.397
2664 0 70.478 13.8483 976 66.3617 575.17 506.9
2665 0 73.4138 15.4603 1135 64.244 575.524 504.081
2666 0 75.2202 13.9723 1051 66.2379 575.825 502.885
2667 0 76.2415 14.1786 1081 66.7872 575.637 502.39
2668 1 104.208 21.2652 2216 52.2031 575.695 490.017
2669 0 103.64 20.0213 2075 52.919 575.078 488.885
2670 0 103.036 22.7397 2343 51.1639 574.475 486.763
2671 0 108.567 18.2836 1985 55.7662 575.396 489.234
2672 0 107.804 28.5705 3080 48.3799 575.261 483.475
2673 0 110.84 15.8516 1757 60.7723 574.842 489.89
2674 0 112.65 25.921 2920 50.0339 574.992 476.115
2675 0 115.554 19.4973 2253 56.8247 575.782 482.009
2676 0 116.774 19.8074 2313 57.0657 576.334 482.159
2677 0 121.302 17.3616 2106 60.8096 576.307 486.36
2678 0 122.829 18.8066 2310 59.1996 575.913 480.824
2679 0 124.428 18.3318 2281 60.6861 575.216 480.146
2680 0 124.331 19.9467 2480 59.1137 575.092 475.366
2681 1 60.3666 13.8984 839 68.6746 575.472 515.206
2682 0 63.3276 15.4593 979 66.9316 574.81 511.432
2683 0 63.5552 14.9948 953 68.4355 575.856 512.673
2684 0 65.4167 16.7389 1095 66.5772 575.199 511.01
2685 0 68.2528 15.0177 1025 68.4644 575.04 508.881
2686 0 69.7116 15.0621 1050 69.4505 575.661 507.09
2687 0 73.4155 16.0048 1175 67.8102 574.37 507.858
2688 0 75.2754 14.8654 1119 69.0223 575.482 507.034
2689 0 77.5893 14.7314 1143 69.5538 575.088 505.985
2690 0 80.3493 15.9553 1282 67.7722 574.994 505.498
2691 0 82.4897 15.711 1296 68.2778 574.463 502.692
2692 0 85.87 14.6035 1254 69.6914 575.052 502.686
2693 0 85.235 14.2195 1212 70.6592 574.798 503.043
2694 0 87.3927 14.3948 1258 66.9793 575.33 503.107
2695 0 86.3105 13.0923 1130 70.3451 575.411 501.929
2696 0 83.6028 11.9494 999 73.3694 575.971 502.924
2697 0 86.5863 13.6511 1182 72.5651 575.428 501.86
2698 0 83.4605 14.1864 1184 73.2669 575.356 506.712
2699 0 84.4399 13.7613 1162 74.6248 575.766 503.441
2700 0 87.6142 14.0502 1231 73.723 576.069 503.267
2701 0 87.7395 13.0158 1142 75.8187 576.102 503.116
2702 0 88.546 13.8346 1225 74.1502 575.944 503.861
2703 0 90.4732 13.6726 1237 73.9701 575.508 503.05
2704 0 93.7498 14.3787 1348 72.3049 575.329 501.424
2705 0 94.7119 15.0034 1421 70.9831 575.275 500.507
2706 0 93.4499 13.0658 1221 72.6298 575.53 500.927
2707 0 89.6128 14.0493 1259 73.116 575.666 504.928
2708 0 87.4482 14.6715 1283 76.152 576.02 505.402
2709 0 86.5667 14.3589 1243 77.1874 576.18 503.912
2710 0 87.455 15.4022 1347 75.1774 575.952 506.364
2711 0 87.4184 15.5002 1355 75.1889 576.171 504.796
2712 0 84.6044 14.0182 1186 78.2723 575.97 508.261
2713 0 86.5624 14.2556 1234 77.2148 576.528 506.808
2714 0 88.9096 15.2402 1355 75.0406 575.507 506.292
2715 1 130.579 16.6719 2177 70.9867 575.736 491.115
2716 0 128.794 14.9153 1921 75.2342 575.838 489.123
2717 1 87.4585 14.99 1311 77.2899 575.99 508.16
2718 0 86.6308 14.683 1272 78.8459 575.957 505.847
2719 0 87.3937 14.7493 1289 78.0411 576.444 506.871
2720 0 89.7054 15.2388 1367 76.5552 576.32 506.787
2721 0 91.6136 14.7467 1351 75.6188 576.209 507.72
2722 0 90.5497 14.5224 1315 76.4829 576.111 507.252
2723 0 91.6683 16.0579 1472 75.1651 575.961 502.961
2724 0 91.7863 15.7431 1445 75.3924 575.687 504.62
2725 0 93.5132 16.094 1505 74.6206 576.154 503.134
2726 0 94.3619 15.6101 1473 75.0821 575.36 504.177
2727 0 93.5768 14.6831 1374 76.1652 576.055 506.739
2728 0 94.6094 16.5628 1567 74.6146 576.42 503.034
2729 0 93.4767 15.1696 1418 76.8893 576.209 503.358
2730 0 93.4993 16.567 1549 74.878 576.632 505.598
2731 0 95.8308 15.4126 1477 76.2979 576.509 505.639
2732 0 93.5145 14.2866 1336 78.6055 575.901 506.083
2733 0 90.5645 13.8907 1258 81.0477 576.539 504.145
2734 0 91.82 14.2344 1307 80.4185 576.576 504.17
2735 0 93.9305 16.6825 1567 76.531 576.405 503.876
