time division length width area intensity CMx CMy
0 0 59.7024 12.8805 769 63.5358 209.312 474.455
1 0 59.6555 12.1866 727 64.6974 208.663 473.608
2 0 56.8734 11.7102 666 66.6021 208.929 471.992
3 0 61.7591 13.2126 816 63.6287 208.908 472.409
4 0 62.9072 11.509 724 66.4586 209.109 471.776
5 0 62.6196 12.3604 774 65.7222 209.264 470.903
6 0 65.9006 11.9574 788 65.6155 208.428 472.015
7 0 65.8027 13.3885 881 64.2395 207.988 468.334
8 0 69.126 12.658 875 65.1154 208.126 469.827
9 0 68.8227 11.7113 806 66.4653 207.895 469.161
10 0 70.9728 13.8222 981 63.8491 207.715 469.088
11 0 72.9555 12.117 884 66.0735 207.863 469.87
12 1 16.0069 6.62214 106 66.0472 211.689 494.943
13 0 16.0117 7.49454 120 64.275 211.15 494.758
14 0 15.0352 5.91944 89 67.2135 212.27 494.382
15 0 17.0032 7.70445 131 63.6107 211.198 493.321
16 0 16.0059 6.93496 111 63.973 211.045 493.955
17 0 17.0194 8.04962 137 61.3723 210.423 493.314
18 0 19.0116 6.99574 133 59.8947 210.383 493.617
19 0 19.1669 7.25207 139 59.0863 210.022 493.604
20 0 20.0142 7.3448 147 56.9388 209.878 491.973
21 0 20.1427 7.74475 156 55.9744 209.962 490.763
22 0 19.0887 6.49601 124 57.3065 210.097 490.71
23 0 21.0268 8.89342 187 53.1497 209.658 490.118
24 0 21.0177 8.13601 171 53.5614 209.351 491.035
25 0 19.0477 7.34997 140 55.8214 209.521 489.857
26 0 20.0055 8.09776 162 54.6296 209.259 490.136
27 0 17.0078 5.40929 92 58.8804 209.478 488.848
28 0 19.0095 7.46993 142 54.9648 208.669 490.479
29 0 21.0241 8.46646 178 54.0562 208.455 488.461
30 0 19.0104 7.7326 147 55.0952 209.449 490.592
31 0 20.0586 6.87985 138 56.3261 209.674 489.558
32 0 20.0247 7.59064 152 55.4079 209.158 489.257
33 0 21.0079 8.80622 185 53.1243 208.708 489.162
34 0 19.0079 5.8923 112 57.8036 208.75 490.58
35 0 19.0144 6.52138 124 56.5806 208.605 489.508
36 0 21.0123 10.5652 222 50.9099 208.608 488.243
37 0 18.0079 7.33013 132 56.1061 209.114 489.341
38 0 18.0036 8.16504 147 55.1633 208.932 487.537
39 0 21.0063 9.997 210 51.7714 208.748 487.61
40 0 20.0011 9.74946 195 51.6359 209.349 487.39
41 0 20.0068 6.34784 127 55.5433 208.969 490.354
42 0 20.0013 7.94948 159 53.6415 209.654 487.962
43 0 20.0109 7.7458 155 54.1871 209.174 489.555
44 0 19.0049 7.57698 144 55.1042 209.965 489.438
45 0 21.0233 6.94466 146 55.0548 209.726 489.075
46 0 19.0054 8.73437 166 54.1446 208.259 487.476
47 0 16.0056 5.6855 91 60.7033 209.077 487.901
48 0 19.0071 7.94441 151 54.8278 209.099 488.709
49 0 16.0043 5.2486 84 61.2738 209.333 488.31
50 0 16.0028 6.7488 108 58.8056 209.815 488.204
51 0 17.0017 7.52866 128 56.9453 209.695 490.039
52 0 17.0053 5.99814 102 58.8824 209.48 487.833
53 0 18.0043 7.10939 128 57.3516 209.211 490.203
54 0 13.0168 5.30086 69 64.0725 209.899 490.072
55 0 17.0188 7.69739 131 58.0763 209.489 489.267
56 0 18.0177 6.43811 116 59.8017 209.664 490
57 0 16.0117 7.74435 124 58.8871 209.024 490.919
58 0 16.0044 6.87311 110 61.1727 208.445 489.927
59 1 72.7229 10.8081 786 70.3295 204.642 461.215
60 0 74.6382 11.5357 861 69.3508 204.957 461.962
61 0 76.7844 12.5937 967 68.0362 204.96 458.581
62 0 81.7886 12.948 1059 66.4117 204.916 462.165
63 0 82.594 12.1316 1002 67.6657 204.951 460.975
64 0 83.6602 11.0686 926 69.9212 205.028 458.797
65 0 83.7075 10.919 914 70.8085 204.198 456.732
66 0 90.475 12.5228 1133 67.6443 205.037 457.285
67 0 90.6766 12.914 1171 67.2502 205.003 456.555
68 0 92.7147 11.8104 1095 69.2146 204.42 454.036
69 0 95.8609 12.5599 1204 68.3007 204.167 454.409
70 1 54.8328 9.95754 546 69.4505 204.667 473.987
71 0 55.784 10.4331 582 70.299 204.931 472.294
72 0 56.641 11.2463 637 69.8948 204.848 470.345
73 0 57.7678 10.8365 626 70.8275 205.142 469.15
74 0 58.7921 10.9539 644 70.4224 204.696 470.548
75 0 61.7362 8.7469 540 73.1111 205.272 471.717
76 0 61.9564 9.00633 558 73.8047 205.328 470.231
77 0 64.6775 11.4259 739 70.5507 204.932 467.811
78 0 65.8517 11.9966 790 69.6709 205.156 468.916
79 0 65.6879 11.0066 723 71.8313 205.043 465.181
80 0 69.6662 11.914 830 70.406 205.405 463.646
81 0 71.8494 11.0787 796 71.5628 205.655 464.398
82 0 72.5845 10.7874 783 72.1315 205.581 463.372
83 0 71.6721 9.7109 696 74.7313 205.227 462.56
84 0 78.0058 10.8453 846 71.5508 204.913 463.798
85 0 77.7536 9.96739 775 73.431 204.639 461.686
86 0 82.7907 11.6559 965 71.1896 205.147 459.187
87 0 82.4764 11.9307 984 71.44 204.62 457.51
88 0 84.6972 11.3109 958 72.1388 205.224 457.528
89 0 87.6603 11.7271 1028 71.6372 205.099 459.48
90 0 92.8259 12.8089 1189 69.45 204.989 458.03
91 0 92.7007 11.8338 1097 71.7019 205.044 456.052
92 0 96.7915 11.3646 1100 72.2618 204.755 454.171
93 0 97.7425 12.0009 1173 72.1782 204.964 450.558
94 1 54.6886 10.4044 569 70.5413 205.627 476.39
95 0 54.5405 9.25918 505 73.1426 205.465 472.97
96 0 56.754 10.2019 579 72.0794 205.983 473.304
97 0 57.7716 9.451 546 73.0916 205.566 473.311
98 0 59.7584 10.9608 655 71.6794 205.319 471.979
99 0 60.625 10.6557 646 71.8731 205.229 472.497
100 0 61.7292 10.3031 636 72.4984 205.462 468.436
101 0 62.8773 11.2441 707 71.0127 205.58 468.354
102 0 66.8203 12.6907 848 67.7925 205.567 469.333
103 0 67.6544 11.4848 777 70.453 205.951 467.212
104 0 69.7362 11.185 780 70.5641 205.99 465.362
105 0 73.6516 12.5048 921 67.6906 205.432 464.275
106 0 71.8781 10.2952 740 71.9595 205.096 461.357
107 0 78.7441 12.7883 1007 67.8103 206.347 460.456
108 0 79.801 10.7142 855 70.5918 205.408 459.501
109 0 81.859 9.85842 807 71.969 205.591 458.081
110 0 85.49 12.2236 1045 68.2766 205.054 455.61
111 0 86.837 12.1377 1054 68.8112 205.169 454.307
112 0 89.7739 11.6515 1046 69.0535 205.23 454.202
113 1 50.5217 10.3718 524 68.0095 205.849 474.155
114 0 51.666 8.14849 421 71.2803 205.62 474.354
115 0 51.5735 8.78359 453 71.5475 205.912 472.751
116 0 54.8963 11.1665 613 66.7977 205.633 473.176
117 0 53.7457 8.96817 482 70.6743 205.699 472.618
118 0 57.7637 10.8719 628 67.2898 206.314 471.613
119 0 58.9046 11.1027 654 66.9602 205.772 470.647
120 0 58.5889 10.292 603 68.607 205.76 466.819
121 0 62.6673 11.1222 697 66.4763 206.194 469.291
122 0 61.6032 10.1131 623 68.8042 205.831 466.612
123 0 64.8263 11.8316 767 65.7823 204.651 467.168
124 0 65.6807 12.4237 816 64.7059 205.303 469.477
125 0 66.5197 9.39571 625 69.1824 205.35 465.837
126 0 68.7268 10.6654 733 67.5675 205.222 464.75
127 0 68.737 10.4311 717 68.0893 205.187 462.65
128 0 72.6319 11.0282 801 66.5793 205.809 463.468
129 0 73.6798 11.8893 876 65.7466 205.558 461.886
130 0 73.5179 10.3648 762 67.8045 205.22 460.68
131 0 79.651 12.1656 969 64.2621 205.141 459.821
132 0 79.6943 11.8453 944 65.2648 205.477 458.244
133 0 84.8139 11.5547 980 65.5724 205.818 456.472
134 0 87.737 13.0048 1141 63.5031 206.074 455.08
135 0 88.497 10.5427 933 66.5734 206.362 456.385
136 0 90.6237 10.6264 963 66.5348 206.469 457.518
137 1 51.7107 9.4758 490 67.3163 206.09 472.876
138 0 53.4978 9.96302 533 66.3846 205.91 472.773
139 0 56.6442 9.30369 527 66.4801 206.15 472.774
140 0 57.6239 10.6032 611 65.5974 205.244 470.288
141 0 61.5686 11.7917 726 63.2204 205.534 470.554
142 0 61.5118 10.5183 647 65.0247 205.892 471.417
143 0 62.7316 11.7644 738 63.6694 205.047 469.416
144 0 65.6954 11.462 753 63.1381 205.124 469.6
145 0 64.587 11.6897 755 64.106 205.575 465.921
146 0 64.6894 10.1562 657 65.9498 206.111 468.029
147 0 68.807 11.7139 806 63.0906 205.993 468.366
148 0 69.7284 11.6595 813 63.4551 206.085 463.547
149 0 72.4701 11.798 855 63.1064 205.923 464.699
150 0 73.4653 10.6036 779 63.9358 205.793 467.308
151 0 75.6018 11.7987 892 62.8027 205.131 464.22
152 0 76.803 10.2861 790 64.9924 205.554 463.367
153 0 78.9026 10.7728 850 64.7094 205.769 461.115
154 0 78.6782 11.2992 889 64.4859 206.258 460.018
155 0 79.5902 10.2023 812 65.915 205.618 459.298
156 0 83.6127 11.1825 935 64.6417 205.827 455.483
157 0 87.7734 11.9512 1049 62.8608 205.652 458.42
158 0 86.9147 9.96379 866 65.6617 205.501 459.088
159 0 90.9487 11.1382 1013 63.8954 205.479 456.994
160 1 51.907 10.4032 540 63.6296 205.391 475.481
161 0 51.5881 9.30448 480 65.2708 205.262 473.171
162 0 54.4807 11.6004 632 62.8972 205.793 473.391
163 0 55.8006 9.83861 549 64.9709 205.785 471.945
164 0 56.4701 9.95216 562 64.1068 205.827 474.278
165 0 56.6402 10.4343 591 64.3959 205.059 468.829
166 0 59.7633 10.2404 612 63.451 204.993 470.881
167 0 60.57 10.3021 624 63.4792 205.229 472.226
168 0 64.8383 11.3513 736 61.9511 204.905 468.556
169 0 65.5984 11.4942 754 62.0305 204.495 467.361
170 0 68.7407 12.3362 848 60.3738 204.732 468.52
171 0 68.7766 11.2247 772 62.3744 204.933 465.4
172 0 72.5984 12.4796 906 59.7781 205.376 464.416
173 0 73.7013 11.1938 825 61.6667 205.035 464.762
174 0 72.7175 9.81883 714 63.6527 204.77 463.857
175 0 74.5835 11.6246 867 61.2042 205.304 462.848
176 0 77.6989 10.3991 808 62.3069 205.65 462.42
177 0 79.6407 11.6147 925 60.4497 205.413 463.114
178 0 83.7333 10.3065 863 61.9676 205.363 460.607
179 0 84.708 11.6046 983 60.7518 205.851 458.059
180 1 48.6282 8.86317 431 62 205.213 476.912
181 0 53.7242 9.82798 528 60.358 204.072 475.083
182 1 14.0121 6.35164 89 55.6292 207.899 492.348
183 0 16.0029 9.31082 149 51.3221 207.06 492.289
184 0 12.0008 3.99975 48 58.1875 207.667 493.979
185 0 14.0063 7.78223 109 53.6055 207.67 492.633
186 0 16.008 9.37033 150 50.9467 207.513 491.847
187 0 12.0009 8.3327 100 53.32 207.64 491.69
188 0 14.0012 7.99932 112 52.3214 207.455 492.759
189 0 15.0167 7.32517 110 53.3273 208.464 491.673
190 0 15.0034 6.99842 105 52.7524 208.333 491.752
191 0 15.0007 6.46638 97 53.567 208.515 491.577
192 0 16.0469 8.10123 130 50.3923 208.315 490.546
193 0 17.0036 6.05753 103 52.6311 208.641 490.301
194 0 15.0071 6.86341 103 51.6796 208.369 492.592
195 0 15.0055 6.79749 102 53.0882 208.667 490.373
196 0 15.0011 6.73285 101 52 209.228 492.703
197 0 15.0015 6.19937 93 53.7957 208.946 491.183
198 0 16.0458 5.85822 94 52.766 209.032 492.415
199 0 16.0048 6.12316 98 53.3673 208.837 491.888
200 0 13.0023 5.15292 67 55.5522 209.284 492.104
201 0 16.0124 6.12025 98 53.3571 209.092 491.949
202 0 15.0037 5.53198 83 53.6145 208.783 492.735
203 0 15.0041 4.93199 74 54.7838 208.676 491.716
204 0 15.0021 8.5988 129 50.9302 209.062 491.783
205 0 14.001 5.99957 84 53.3929 208.405 492.845
206 0 14.0012 5.57097 78 54.0128 208.526 493.282
207 0 15.0005 5.53314 83 54.1446 208.819 492.325
208 0 15.0036 5.9319 89 51.4382 208.494 493.91
209 0 13.0019 7.15281 93 51.3871 208.344 492.462
210 0 15.0005 5.59981 84 51.131 208.202 493.607
211 0 13.0003 4.99987 65 53.3846 208.785 492.415
212 0 14.0009 7.71378 108 50.213 207.602 491.13
213 0 15.0297 5.65545 85 49.7412 208.224 494.753
214 0 15.002 7.0657 106 50.4717 208.302 492.953
215 1 67.5819 10.7721 728 54.6209 204.589 468.867
216 0 68.7333 11.2464 773 54.3881 204.151 464.331
217 0 70.859 10.8949 772 54.9585 203.892 463.698
218 0 73.6516 9.99299 736 55.3111 203.899 465.855
219 0 74.616 12.1958 910 53.0209 204.574 467.907
220 0 76.9974 11.1692 860 54.2907 203.993 461.306
221 0 79.8813 11.6924 934 53.454 203.452 463.196
222 0 78.7028 11.3592 894 54.4508 203.717 461.578
223 0 81.8941 10.6113 869 54.7215 203.275 459.432
224 0 83.5825 11.9762 1001 53.6344 203.348 456.669
225 0 85.8914 11.4563 984 53.6067 203.224 457.936
226 0 89.8356 11.6212 1044 53.3707 203.83 457.402
227 0 94.7243 11.1165 1053 53.3229 203.565 458.803
228 0 94.7185 11.7189 1110 53.0063 203.346 456.982
229 0 96.6301 10.5143 1016 54.2234 203.721 455.109
230 0 99.7844 10.4926 1047 54.3457 203.653 450.917
231 0 98.7472 8.86101 875 56.2103 203.85 448.506
232 1 57.7468 10.8058 624 53.4375 204.309 472.619
233 0 60.738 11.9365 725 52.5807 204.12 472.492
234 0 61.5175 10.176 626 54.6134 203.986 470.757
235 0 60.706 10.5591 641 54.4774 204.501 470.165
236 0 63.7662 12.8124 817 52.022 203.887 470.635
237 0 65.5117 13.4327 880 51.5614 204.414 468.276
238 0 68.6933 9.84084 676 54.3905 204.197 468.599
239 0 71.7094 10.2776 737 54.0136 204.312 465.545
240 0 70.7688 10.5131 744 54.5188 204.468 463.121
241 0 72.6984 10.798 785 53.8841 204.378 461.845
242 0 74.6609 11.6393 869 53.0898 204.044 462.193
243 0 77.7985 12.3524 961 51.9906 203.592 461.522
244 0 77.6864 9.84728 765 54.4824 203.671 459.868
245 0 80.649 10.6015 855 53.7088 204.199 457.212
246 0 84.4982 12.1068 1023 52.1525 204.118 460.12
247 0 86.7308 11.2071 972 53.2881 203.744 454.85
248 0 87.8146 10.636 934 54.0739 203.332 452.234
249 0 90.5243 12.1073 1096 52.8832 203.519 449.814
250 0 95.8067 12.6505 1212 52.0932 203.19 449.996
251 0 95.7155 10.5103 1006 54.6034 203.168 444.076
252 0 99.5633 12.0727 1202 53.4093 203.893 451.186
253 0 100.78 10.6568 1074 55.2821 204.07 447.15
254 0 104.771 11.9403 1251 53.7162 203.773 447.506
255 1 53.7371 10.3839 558 55.1577 204.366 472.935
256 0 56.739 10.6629 605 55.4661 204.217 468.631
257 0 57.7097 10.085 582 56.2131 203.837 469.478
258 0 58.4584 9.83605 575 56.8243 204.104 468.953
259 0 61.5106 12.1605 748 54.2995 204.509 467.039
260 0 62.5081 11.8865 743 54.5612 204.736 467.674
261 0 65.5295 10.2397 671 56.5231 204.548 465.089
262 0 66.6615 12.1359 809 54.8121 204.742 466.231
263 0 67.7781 12.0836 819 54.4933 204.703 465.521
264 0 68.5734 10.0476 689 57.0464 204.557 465.106
265 0 69.6062 10.1715 708 56.9831 204.347 464.114
266 0 74.8562 12.6108 944 54.2087 205.04 461.683
267 0 77.5697 11.1255 863 55.6489 204.461 464.038
268 0 79.5903 12.9161 1028 53.6002 203.997 463.721
269 0 78.5082 11.8714 932 55.7017 204.475 459.432
270 0 81.9161 11.9024 975 55.5908 204.101 459.675
271 0 83.7207 10.8934 912 56.3772 204.044 459.973
272 0 89.8128 13.3388 1198 53.1386 204.083 460.549
273 1 50.562 8.72196 441 56.6939 204.669 475.98
274 1 16.0043 8.06036 129 47.1008 208.419 493.07
275 0 17.0154 8.75677 149 47.1141 207.282 491.221
276 0 15.0016 9.8656 148 45.7365 207.845 491.622
277 0 15.0005 4.86651 73 50.0822 208.068 492.329
278 0 14.0174 8.3468 117 47.3761 207.12 490.88
279 0 12.0151 6.57507 79 49.5316 207.241 490.797
280 0 15.0082 7.59583 114 48.0263 206.921 490.43
281 0 17.0441 8.80068 150 46.8133 206.367 489.673
282 0 15.0023 6.33235 95 48.4947 207.421 491.611
283 0 13.0004 2.46146 32 54.6562 208 492.125
284 0 14.0024 4.71348 66 48.6212 207.864 493.379
285 0 14.012 5.35256 75 49.8 207.52 490.933
286 0 15.0167 5.19421 78 49.2821 207.487 490.769
287 0 14.0156 8.56189 120 46.3833 207.5 490.617
288 0 16.0117 6.18299 99 48.3838 207.99 491.03
289 0 14.0183 5.06482 71 49.7465 208.042 491.056
290 0 15.0167 4.46171 67 50.3433 208.09 491.791
291 0 14.0047 6.35502 89 48.9101 208.978 492.787
292 0 16.0026 5.62408 90 49.2444 208.167 493.033
293 0 14.0014 5.85657 82 49.5488 207.732 493.22
294 1 84.7839 11.7475 996 56.6928 204.897 458.971
295 0 87.5864 13.2441 1160 55.4966 204.348 456.996
296 1 50.7513 10.7583 546 56.3516 204.932 475.042
297 0 52.809 10.093 533 57.2383 205.133 474.544
298 0 53.5751 12.0765 647 55.1298 204.94 473.737
299 0 54.6882 12.5621 687 54.0087 204.684 475.61
300 0 53.5426 10.1601 544 57.9688 203.893 469.046
301 0 55.5593 11.1592 620 56.3565 204.645 471.987
302 0 58.5284 10.4906 614 57.557 204.314 469.71
303 0 60.5459 11.8092 715 55.4769 204.47 472.452
304 0 60.9343 10.7657 656 57.6631 204.241 467.698
305 0 62.8601 10.6904 672 57.9494 203.659 467.304
306 0 65.5587 10.8147 709 57.5247 203.394 468.133
307 0 64.7044 10.1384 656 59.032 203.562 466.662
308 0 66.7107 10.2982 687 59.0495 203.07 464.217
309 0 66.7787 9.76359 652 60.3528 203.055 461.36
310 0 71.7789 14.0431 1008 55.006 203.552 465.361
311 0 71.6867 10.4901 752 59.2141 203.066 463.257
312 0 74.5209 13.5532 1010 56.4881 203.369 460.607
313 0 75.978 11.5955 881 58.3167 203.418 463.462
314 0 77.0604 12.0555 929 58.4521 203.27 462.139
315 0 80.2358 13.3232 1069 56.7989 203.033 458.509
316 0 81.6903 12.3393 1008 58.4851 202.917 461.402
317 0 84.8939 10.519 893 60.4871 202.956 458.848
318 1 48.6922 10.1864 496 57.9375 203.292 476.651
319 0 47.5748 8.76514 417 61.7554 202.683 470.717
320 0 51.0604 10.6149 542 58.9077 202.589 471.592
321 0 50.6455 10.1885 516 60.3798 202.924 468.872
322 0 53.9661 10.766 581 59.9673 203.551 468.955
323 0 54.1298 9.40332 509 62.3379 203.454 469.075
324 0 54.7661 9.18451 503 62.3718 203.135 468.706
325 0 57.7397 9.66407 558 62.0573 203.172 464.796
326 0 57.6913 10.9549 632 61.1677 203.1 464.383
327 0 60.7599 11.4714 697 60.2683 203.603 465.993
328 0 61.536 12.1555 748 59.4679 203.257 466.063
329 0 62.5774 11.2021 701 61.1755 203.419 466.241
330 0 63.6384 10.7954 687 61.8093 203.824 466.857
331 0 64.5852 12.7119 821 59.76 204.292 465.879
332 0 66.7511 10.6215 709 62.6135 203.986 465.657
333 0 70.6933 11.5145 814 61.156 203.991 463.751
334 0 70.7654 12.4779 883 60.3545 203.715 463.281
335 0 73.8488 12.6881 937 59.7001 203.854 463.884
336 0 73.778 12.497 922 60.8134 203.704 460.846
337 0 75.5654 10.2428 774 63.1395 203.972 462.315
338 0 78.7821 11.627 916 61.5011 203.749 460.507
339 0 78.7195 11.6363 916 62.0721 203.263 459.124
340 0 82.6929 11.6334 962 61.4875 203.231 456.256
341 0 83.7005 12.4372 1041 61.2988 203.556 455.439
342 0 85.92 8.892 764 65.2094 203.533 456.908
343 1 45.4278 10.258 466 60.7318 204.054 473.942
344 0 49.7196 10.0564 500 60.984 204.276 473.29
345 0 52.6195 9.36914 493 61.2252 204.323 475.217
346 0 50.7329 9.55988 485 62.7278 203.746 471.087
347 0 51.5881 9.07186 468 62.938 203.109 471.607
348 0 53.7393 10.4951 564 61.4433 203.516 471.534
349 0 57.7448 13.5423 782 56.7404 202.926 472.905
350 0 55.6878 13.0549 727 58.5461 203.281 469.025
351 0 58.5988 10.8876 638 60.7257 202.846 468.144
352 0 56.7866 11.0942 630 61.1175 202.833 470.595
353 0 60.8312 11.0141 670 60.4 203.119 469.66
354 0 58.7147 11.2749 662 61.0211 203.163 468.814
355 0 64.8929 10.0319 651 62.4209 203.593 466.25
356 0 63.0179 11.5205 726 61.0441 203.669 467.591
357 0 66.497 11.4742 763 60.9777 203.396 467.405
358 0 67.763 11.8058 800 60.8588 201.814 462.618
359 0 67.6791 11.0078 745 61.8295 202.664 464.756
360 0 72.8638 12.1185 883 60.1223 202.404 465.301
361 0 65.0797 11.4321 744 62.9892 203.066 460.676
362 0 75.6556 10.8782 823 61.9623 203.752 464.531
363 0 74.9108 12.0944 906 62.1976 203.938 460.081
364 1 46.6394 9.75571 455 62.4593 203.936 475.222
365 0 46.7002 9.85007 460 62.937 203.626 475.611
366 0 44.1007 10.6121 468 62.9274 203.583 476.417
367 0 48.9471 9.9291 486 62.8313 203.613 476.57
368 0 50.6643 10.3623 525 63.1543 204.029 475.175
369 0 42.0355 10.848 456 65.3399 203.447 473.57
370 0 47.1819 11.6782 551 63.4356 203.53 468.866
371 0 49.2456 10.7421 529 64.1531 203.17 470.113
372 0 54.4179 12.3673 673 61.578 202.649 466.805
373 0 59.6896 9.2981 555 64.0342 202.69 466.796
374 0 60.8456 9.91034 603 63.7065 203.3 466.167
375 0 55.105 13.2293 729 61.3635 203.211 462.776
376 0 57.0768 13.1402 750 61.5733 204.159 464.533
377 0 55.0908 11.7624 648 63.7361 204.102 464.369
378 0 58.0553 12.3159 715 62.6783 203.972 462.249
379 0 60.1087 12.0615 725 63.051 203.423 459.618
380 0 62.0622 11.279 700 63.9157 203.099 459.156
381 0 66.2235 11.733 777 62.8185 203.969 460.014
382 0 73.2855 9.19691 674 64.9748 203.165 460.352
383 0 77.231 10.4492 807 63.2392 203.107 456.403
384 0 79.4909 12.1649 967 60.8831 203.728 457.849
385 0 80.3067 11.7549 944 61.4735 203.927 456.146
386 1 47.4657 7.16306 340 64.3382 203.788 472.703
387 0 53.7394 9.34138 502 59.6414 204.637 475.546
388 0 52.732 9.57673 505 59.7743 204.063 476.149
389 0 53.8858 9.98408 538 61.1357 204.379 472.095
390 0 58.7186 10.8994 640 59.5609 204.167 470.327
391 0 48.0808 10.8567 522 62.4559 203.929 466.64
392 0 54.1765 8.61998 467 64.1328 203.653 467.45
393 0 60.659 11.3256 687 59.4818 203.652 466.843
394 0 62.5171 10.4451 653 59.9985 203.715 464.712
395 0 66.7477 11.551 771 58.2529 203.691 467.399
396 0 66.5434 9.48253 631 61.233 203.615 461.456
397 0 68.6693 9.93166 682 60.3695 203.837 465.699
398 0 68.5888 13.005 892 57.2164 203.652 463.502
399 0 71.5556 10.8866 779 59.4519 202.873 460.945
400 0 73.9311 11.8489 876 57.9874 203.357 459.718
401 0 74.6172 9.67605 722 60.7825 203.663 457.033
402 0 77.6663 9.37344 728 60.8668 203.673 455.99
403 0 78.8038 10.5579 832 59.4243 203.523 453.613
404 0 73.2842 10.9983 806 59.9764 203.252 453.6
405 0 77.2243 11.8097 912 58.727 203.754 452.712
406 0 81.0613 12.287 996 58.3614 203.991 451.433
407 1 49.4063 8.56166 423 58.6005 203.693 468.865
408 0 39.0964 9.10571 356 59.8062 203.747 471.334
409 0 48.3447 7.38448 357 61.2745 204.129 470.252
410 0 43.0886 9.86339 425 60.1059 203.847 469.292
411 0 41.0348 8.06632 331 63.1903 204.003 468.855
412 0 45.1003 9.57864 432 61.0208 204.59 467.551
413 0 48.032 12.1585 584 57.7449 204.332 466.033
414 0 52.1858 10.8842 568 58.2623 204.269 467.329
415 0 49.0953 10.7953 530 59.1509 204.447 465.434
416 0 53.0423 11.8773 630 57.4048 204.321 464.503
417 0 60.1675 10.6536 641 57.4181 204.267 463.557
418 0 56.0719 10.5936 594 58.2542 204.177 464.259
419 0 60.7418 9.7297 591 58.4653 204.467 462.523
420 0 58.1348 10.0628 585 58.5897 204.065 458.448
421 0 60.0596 10.6228 638 58.0219 204.306 458.897
422 0 65.0454 13.0217 847 54.8087 203.949 457.139
423 0 65.0546 11.8669 772 56.206 204.843 455.654
424 1 148.739 9.12334 1357 60.3183 204.49 424.015
425 0 141.203 9.00833 1272 60.283 204.246 429.112
426 0 140.248 7.12311 999 60.3413 203.698 437.381
427 0 149.646 5.59318 837 58.4612 204.278 453.697
428 0 150.494 7.77441 1170 57.7137 203.823 445.784
429 0 151.835 9.60254 1458 55.9472 203.898 444.392
430 0 140.771 9.66822 1361 58.3637 203.578 433.77
431 1 53.538 7.71415 413 57.3366 204.215 469.797
432 0 42.2329 10.0633 425 56.6824 203.906 471.501
433 0 51.7086 8.60591 445 56.4674 204.022 472.38
434 0 56.7024 10.0525 570 54.8825 204.593 471.865
435 0 60.5586 12.781 774 51.7907 204.355 474.047
436 0 59.6108 12.5145 746 52.8512 204.058 470.217
437 0 60.6146 9.60164 582 56.055 203.924 467.837
438 0 53.2733 12.0511 642 55.0826 204.263 464.506
439 0 59.418 8.85253 526 57.8441 203.947 463.15
440 0 64.6281 8.88158 574 57.0662 203.732 460.535
441 0 69.7515 11.7704 821 53.4957 204.687 460.29
442 0 71.4298 13.0338 931 52.0945 204.525 463.963
443 0 72.5353 9.74698 707 55.8642 203.946 458.093
444 0 73.594 10.422 767 54.8605 204.373 461.855
445 0 73.594 10.4492 769 116.007 204.363 461.996
446 0 76.5942 8.87795 680 56.9118 204.19 456.703
447 0 80.4996 11.8137 951 53.8286 204.107 453.492
448 0 83.5623 9.14288 764 56.9476 204.219 450.954
449 0 85.6479 8.52327 730 57.089 203.952 453.948
450 1 47.6191 7.09799 338 56.355 204.432 471.686
451 0 44.2235 11.6454 515 53.0155 204.4 471.65
452 0 50.49 10.4377 527 53.2581 204.499 468.844
453 0 54.5381 8.63617 471 54.6093 204.573 469.864
454 0 50.4333 8.50629 429 55.8089 204.089 466.503
455 0 54.7581 8.1997 449 55.4187 204.303 468.768
456 0 57.4731 8.80411 506 54.4051 204.431 469.33
457 0 57.6674 10.0403 579 53.5095 204.345 466.086
458 0 55.4039 10.1978 565 53.8903 205.135 467.827
459 0 60.2889 10.0018 603 54.131 204.478 462.224
460 0 64.2969 9.34727 601 54.213 204.872 465.729
461 0 55.0657 11.3501 625 54.0688 204.517 463.515
462 1 68.5521 9.77359 670 54.1612 204.575 460.137
463 0 68.483 9.94408 681 54.5316 204.981 459.056
464 0 73.6766 14.7672 1088 48.8355 204.711 465.432
465 0 70.4589 10.4458 736 53.731 204.429 463.374
466 0 66.3373 10.8084 717 53.9986 204.576 462.079
467 0 76.5632 11.3109 866 52.8995 204.277 455.642
468 0 72.0631 11.032 795 58.6314 203.928 386.923
469 0 83.7022 10.3701 868 52.8111 204.397 462.722
470 0 82.7553 11.5038 952 52.9412 204.065 452.908
471 0 87.5266 11.6764 1022 52.5068 203.405 451.77
472 1 51.4385 7.64018 393 55.5496 203.969 470.455
473 0 51.4841 10.4692 539 52.9963 204.048 470.447
474 0 53.5733 9.59433 514 54.6868 203.64 468.732
475 0 54.632 11.6781 638 52.3777 203.592 468.668
476 0 54.4321 11.0045 599 53.8414 203.646 469.237
477 0 58.5238 14.3531 840 50.0607 203.627 470.024
478 0 53.0707 11.5506 613 54.6215 203.744 466.364
479 0 59.3228 9.06903 538 56.8011 204.392 463.342
480 0 61.6351 10.5135 648 54.6636 204.989 468.901
481 0 63.4321 9.99495 634 55.4685 205.405 467.353
482 0 64.6888 10.079 652 56.1212 204.689 460.768
483 0 66.5777 10.6042 706 55.5581 205.47 464.528
484 0 65.5884 9.66634 634 57.3675 204.901 460.312
485 0 70.5822 11.5752 817 54.1763 204.876 466.282
486 0 68.5553 13.3761 917 53.3719 204.528 461.932
487 0 71.2251 10.4458 744 56.8508 205.114 456.612
488 0 67.1983 11.6819 785 56.572 205.052 456.555
489 0 71.2116 13.818 984 54.126 205.256 455.016
490 0 79.6561 10.4198 830 56.4241 204.298 454.717
491 0 81.5737 12.8228 1046 54.0736 204.254 454.878
492 0 85.9453 12.3334 1060 54.1887 204.222 453.192
493 0 82.3014 12.5757 1035 55.087 204.722 450.643
494 0 83.1772 12.1187 1008 56.1845 204.665 451.115
495 0 91.4525 10.9128 998 56.6263 204.672 446.109
496 0 91.3558 10.4974 959 57.4703 204.75 446.439
497 0 88.2093 12.0509 1063 56.715 204.489 442.486
498 0 95.3342 8.69573 829 59.2376 204.268 447.618
499 0 90.0831 10.5347 949 58.3688 204.615 447.391
500 1 2 6 12 53.4167 204.917 436.167
501 0 2 6.5 13 48.0769 205.077 436.154
502 1 53.3443 11.3414 605 56.8165 203.911 461.775
503 0 54.0504 11.1933 605 57.1421 203.61 463.688
504 0 54.1341 11.4715 621 56.9855 203.528 463.254
505 0 58.5071 12.7164 744 55.8629 203.66 460.29
506 0 59.044 11.3983 673 57.1441 203.367 459.692
507 0 66.8891 10.0315 671 57.4292 203.322 460.857
508 0 68.253 12.8639 878 54.5706 203.513 461.744
509 0 64.194 12.1195 778 56.856 203.677 452.765
510 0 66.1112 12.9025 853 56.4689 203.987 456.03
511 0 69.1008 11.5773 800 57.6938 204.354 454.902
512 0 73.2144 13.7814 1009 55.1952 204.502 453.393
513 0 73.2557 10.6886 783 58.6616 204.294 451.747
514 0 76.3952 12.527 957 56.9154 204.164 451.259
515 1 33.1646 6.75419 224 63.2188 204.045 468.853
516 0 48.4167 6.98106 338 59.8905 204.305 471.148
517 0 51.4164 9.76342 502 57.004 203.833 473.369
518 0 52.4094 12.1352 636 55.5723 203.978 471.057
519 0 44.1658 13.1323 580 57.6879 203.559 467.353
520 0 44.2645 11.2957 500 60.236 203.578 463.016
521 0 46.0429 12.2494 564 59.5496 203.583 464.988
522 0 48.0392 12.2608 589 59.5059 203.489 464.598
523 0 52.152 12.3293 643 58.8258 203.907 465.403
524 0 52.2872 12.2018 638 59.4734 203.569 464.547
525 0 50.0602 10.6871 535 62.3421 203.757 459.06
526 0 53.0714 14.0754 747 58.3882 203.881 460.214
527 0 58.0279 11.0119 639 62.831 203.44 401.541
528 1 4 8.5 34 50.2059 204.059 431.324
529 1 59.1899 13.2117 782 59 204.178 457.953
530 0 62.1111 12.6708 787 59.5769 204.015 457.996
531 0 63.317 11.4819 727 60.5846 204.139 456.59
532 0 65.1095 10.8894 709 61.5839 203.779 456.921
533 0 72.6599 11.9736 870 59.9506 203.97 453.644
534 0 69.0753 12.6239 872 60.2821 202.892 452.739
535 0 70.1801 10.7295 753 62.3479 202.367 450.938
536 0 75.2032 10.4517 786 62.0293 203.005 455.508
537 1 45.3731 8.02238 364 62.9148 203.624 469.052
538 0 40.0751 10.5801 424 61.3821 204.736 470.759
539 0 42.1424 11.034 465 61.929 204.705 467.647
540 0 45.3305 11.4713 520 61.2346 204.477 465.808
541 0 45.1528 10.1433 458 63.1354 204.483 467.118
542 0 47.0566 12.7293 599 59.8748 204.496 467.254
543 0 46.0994 11.3017 521 62.0768 204.221 466.24
544 0 51.0609 12.9845 663 59.0694 203.894 467.303
545 0 50.0905 11.2995 566 62.8304 203.956 463.24
546 0 52.0903 11.4033 594 62.4158 203.396 462.219
547 0 56.0807 13.2309 742 59.6375 204.271 462.133
548 0 57.0851 12.1923 696 60.8664 203.968 460.707
549 0 59.0735 11.4603 677 61.1994 204.239 462.208
550 0 59.1658 12.5917 745 60.6027 204.231 459.064
551 0 60.0507 10.3912 624 63.1506 204.444 457.53
552 0 64.1266 11.9607 767 60.5033 203.618 456.587
553 0 66.031 13.1605 869 59.2911 203.809 455.51
554 0 69.071 11.9442 825 60.657 204.28 453.703
555 0 71.0739 13.2679 943 59.1654 203.778 453.161
556 0 71.1672 10.6229 756 61.9603 203.944 454.374
557 0 75.2175 13.9595 1050 58.9219 203.954 451.401
558 0 78.0952 11.55 902 61.2118 204.143 451.997
559 1 40.0168 8.67136 347 62.3516 204.369 469.086
560 0 40.0458 11.5118 461 60.6768 204.219 470.041
561 0 43.2312 9.73834 421 62.4608 203.211 467.247
562 0 44.1477 11.756 519 60.1272 203.329 466.501
563 0 46.1736 12.3014 568 59.7658 203.486 464.787
564 0 50.0534 10.9483 548 60.1606 203.195 465.836
565 0 48.0571 11.5904 557 60.1849 203.045 462.765
566 0 50.0638 11.1258 557 60.1257 202.892 464.713
567 0 51.1137 11.4255 584 60.4127 202.591 461.31
568 0 52.07 10.2938 536 61.0746 202.703 462.573
569 0 58.1248 12.9033 750 57.5707 202.931 462.069
570 0 58.0569 10.6447 618 60.5987 203.15 458.657
571 0 58.156 10.2311 595 61.0168 203.676 459.081
572 0 61.2212 11.2706 690 60.0174 203.852 458.512
573 0 64.1146 13.6786 877 57.0502 203.494 456.993
574 0 64.1879 11.8247 759 59.8682 203.804 455.881
575 0 67.0926 11.1339 747 60.0562 203.573 456.509
576 0 68.0623 11.8568 807 59.5948 203.539 452.318
577 0 70.1685 12.8263 900 58.6078 202.912 450.987
578 0 75.1086 13.2075 992 58.1492 203.323 451.114
579 1 38.0227 10.0466 382 59.788 203.66 470.997
580 0 41.0393 11.2088 460 59.1348 203.617 466.811
581 0 40.1124 9.12436 366 61.9727 203.383 467.131
582 0 45.0967 11.0651 499 59.1784 204.246 467.99
583 0 42.0256 10.1843 428 60.9206 203.888 464.839
584 0 45.0607 9.63145 434 61.1406 203.65 465.106
585 0 46.0253 9.12541 420 61.9 203.329 462.336
586 0 48.0484 10.3645 498 59.6546 203.695 465.38
587 0 51.163 10.3981 532 59.7613 204.252 463.492
588 0 52.122 10.5138 548 59.7135 203.637 462.726
589 0 51.1203 10.2699 525 60.3638 204.103 457.79
590 0 52.023 10.553 549 60.2259 204.219 458.832
591 0 53.0184 9.73247 516 61.2926 204.711 454.837
592 0 52.1032 11.055 576 60.434 204.976 456.557
593 0 55.0857 7.80602 430 62.586 204.733 456.528
594 0 58.035 10.6315 617 60.0972 205.047 451.734
595 0 60.0359 9.14452 549 61.4463 204.772 451.066
596 0 62.0555 9.91048 615 60.2602 204.574 450.533
597 0 64.08 9.00437 577 61.13 204.809 451.352
598 0 67.2035 10.0144 673 59.6597 204.881 450.262
599 0 71.1117 9.6468 686 59.6983 204.421 453.217
600 0 75.0847 10.3883 780 58.9846 204.527 447.913
601 1 36.0317 11.3511 409 58.5037 204.477 467.67
602 0 46.0486 9.96773 459 57.0893 204.523 470.773
603 0 41.1347 10.7209 441 58.3424 204.249 466.283
604 0 47.1455 11.6024 547 56.2267 204.501 466.728
605 0 43.0332 9.99229 430 59.0907 204.781 463.186
606 0 46.206 11.9681 553 56.7939 204.222 464.322
607 0 45.0281 11.4595 516 57.7849 204.256 463.329
608 0 49.0484 11.7639 577 57.3449 204.296 462.607
609 0 52.0615 11.7361 611 56.8887 204.277 461.848
610 0 50.0982 9.44146 473 59.1564 204.48 463.3
611 0 52.0267 11.2442 585 58.4188 203.942 459.294
612 0 55.073 11.1488 614 58.241 204.384 457.443
613 0 53.0338 10.0502 533 59.4165 204.28 461.897
614 1 65.2904 11.7782 769 56.3121 204.257 460.753
615 0 59.0502 11.9221 704 57.8679 203.939 457.798
616 0 62.2544 9.75032 607 59.7166 204.236 458.343
617 0 62.0574 10.1519 630 60.5429 204.383 455.125
618 0 66.0471 10.0988 667 60.3883 204.276 456.511
619 0 68.0645 9.69668 660 60.6894 204.497 454.591
620 0 69.2776 10.6095 735 60.0925 204.321 451.075
621 0 71.1424 9.71292 691 61.1143 204.191 450.628
622 0 75.0409 10.5942 795 59.9975 204.643 451.86
623 0 81.203 11.4035 926 58.6685 204.063 451.448
624 0 81.0767 10.2372 830 60.5735 203.799 446.663
625 1 44.1247 8.63463 381 59.8609 203.829 469.772
626 0 46.0283 10.9932 506 59.6067 204.071 465.172
627 0 49.106 12.5036 614 57.215 203.873 468.448
628 0 50.0385 10.9516 548 60.0803 203.931 464.812
629 0 50.0421 12.0698 604 59.0232 204.051 464.571
630 0 52.0888 10.0405 523 61.7457 204.315 462.665
631 0 62.3853 11.1885 698 57.8768 203.864 466.801
632 0 56.0584 12.5227 702 59.2066 203.906 460.372
633 0 56.0811 11.0554 620 60.7419 203.952 462.884
634 0 59.132 12.6666 749 59.1829 204.891 459.805
635 0 63.0287 12.3753 780 59.1808 204.544 459.096
636 0 63.0168 12.3618 779 59.7202 204.234 457.384
637 0 64.0501 11.007 705 61.583 204.255 454.325
638 0 68.2526 12.6735 865 59.5896 204.382 453.147
639 0 71.0792 12.5635 893 59.505 204.255 454.011
640 0 71.2492 11.1861 797 61.2823 204.537 452.506
641 0 73.0907 13.6269 996 59.4789 204.434 449.23
642 0 77.066 11.2371 866 61.3025 203.752 451.606
643 0 79.0413 10.7412 849 62.3168 204.299 448.653
644 0 82.206 13.235 1088 59.9338 204.234 447.151
645 1 40.0738 10.3309 414 63.6377 204.614 467.413
646 0 44.2483 11.1869 495 62.1737 204.253 468.277
647 0 46.0731 11.7856 543 62.8269 204.845 466.781
648 0 48.0573 12.1106 582 62.4124 204.857 467.139
649 0 48.0216 9.84974 473 65.351 203.641 466.987
650 0 51.0619 11.3196 578 63.4775 203.882 466.763
651 0 54.2228 13.5552 735 61.5211 203.707 463.072
652 0 54.0933 13.6061 736 62.4321 203.7 463.024
653 0 54.0479 10.6387 575 65.4522 203.894 465.409
654 0 59.1094 12.7222 752 62.7048 203.544 463.525
655 0 59.2387 13.4878 799 63.0325 203.616 460.757
656 0 60.3956 10.6796 645 66.2651 203.474 462.29
657 0 62.0668 12.261 761 64.9855 203.494 456.795
658 0 66.0484 13.3538 882 63.4603 203.661 457.288
659 0 66.0906 11.0303 729 66.915 203.883 454.964
660 0 71.1573 13.0275 927 63.8306 203.318 456.66
661 0 74.1052 13.103 971 64.2657 203.568 452.171
662 0 77.1802 14.3949 1111 62.4977 203.815 453.89
663 0 76.1656 11.2781 859 67.234 203.724 451.502
664 0 81.1114 12.9698 1052 65.1578 203.781 449.773
665 1 40.047 9.91334 397 67.6272 204.096 471.836
666 0 43.029 10.7602 463 66.0194 204.205 472.59
667 0 45.0765 12.024 542 65.9022 203.764 469.17
668 0 47.0498 12.2211 575 64.9478 203.826 468.831
669 0 49.1031 12.4839 613 65.4339 203.462 466.31
670 0 50.0212 12.2148 611 64.9755 203.718 469.547
671 0 52.1817 12.6098 658 65.3739 203.839 467.347
672 0 54.1333 14.0764 762 63.4619 203.634 467.104
673 0 55.0916 12.1071 667 66.063 203.759 464.91
674 0 56.1567 13.0171 731 65.5869 203.658 465.045
675 0 56.0554 13.4867 756 65.4735 203.813 464.296
676 0 57.0168 13.6276 777 65.8764 203.49 462.346
677 0 61.1185 12.9421 791 66.4678 203.217 463.263
678 0 64.1019 15.0073 962 63.7765 203.363 463.195
679 0 65.0994 12.8112 834 66.5827 203.7 461.687
680 0 66.1849 13.7796 912 66.1557 203.61 459.106
681 0 70.1273 12.2634 860 67.5233 203.422 461.517
682 0 73.208 13.4821 987 66.4721 203.319 458.076
683 0 74.0522 12.3427 914 68.047 202.434 458.183
684 0 77.084 12.1685 938 68.8134 202.673 454.967
685 0 79.1266 12.6253 999 68.3073 202.517 454.497
686 0 82.1379 13.7208 1127 66.488 202.331 456.256
687 1 48.0183 11.4748 551 67.8766 202.793 472.65
688 0 48.0699 11.0256 530 68.5057 202.723 474.472
689 0 48.1522 13.4158 646 67.0232 202.543 471.615
690 0 51.0672 12.5129 639 67.6041 202.919 470.837
691 0 50.1123 11.3744 570 69.6965 203.339 469.377
692 0 49.0591 11.9244 585 69.8462 203.137 466.316
693 0 54.1014 12.3102 666 67.6276 202.884 468.917
694 0 55.087 11.9266 657 68.3333 202.826 467.044
695 0 58.0576 12.591 731 66.6293 202.859 468.81
696 0 58.0826 10.6056 616 69.3377 202.851 465.373
697 0 63.1371 12.7817 807 66.0632 203.278 462.763
698 0 62.0846 12.8856 800 66.19 203.059 464.185
699 0 66.1299 14.6832 971 63.4655 203.871 461.804
700 0 67.0798 11.0018 738 67.9593 203.076 460.099
701 0 72.0445 13.3112 959 64.5162 203.182 458.374
702 0 74.2549 14.0462 1043 64.1371 203.967 457.637
703 0 75.1507 12.3352 927 66.5814 203.817 455.196
704 0 79.2183 13.0904 1037 65.6316 203.607 454.634
705 0 80.0922 12.0861 968 67.2417 203.271 453.319
706 0 84.1586 11.7754 991 67.5277 203.546 451.596
707 0 87.0774 14.2976 1245 64.2008 203.706 452.186
708 1 50.1423 11.4873 576 65.7569 203.667 471.078
709 0 50.0929 11.9977 601 65.9884 203.99 469.869
710 0 52.0279 12.205 635 65.3559 204.054 469.934
711 0 54.0893 12.4794 675 64.8252 203.929 466.948
712 0 53.1561 10.7043 569 66.1828 203.988 467.508
713 0 56.0431 10.5811 593 66.4486 203.621 462.627
714 0 58.207 11.2701 656 65.1738 204.277 463.784
715 0 63.1366 12.2274 772 63.2591 204.688 463.244
716 0 61.0627 11.8567 724 64.5387 204.196 461.275
717 0 66.2801 12.07 800 63.2287 204.123 462.541
718 0 65.1323 11.3922 742 64.3827 204.33 460.682
719 0 67.0262 11.5179 772 64.1282 203.974 457.584
720 0 69.1355 11.8318 818 63.401 204.086 457.372
721 0 74.1368 11.3574 842 63.7257 204.181 452.947
722 0 76.2341 10.6383 811 64.3403 203.926 452.159
723 0 80.1087 11.3221 907 62.8721 203.813 454.88
724 0 84.2279 12.205 1028 61.6401 203.512 451.191
725 0 83.0844 12.2767 1020 62.2882 203.892 448.088
726 0 87.1511 11.3825 992 62.6401 204.303 452.515
727 0 93.1437 11.9707 1115 61.7731 204.103 449.196
728 1 44.0424 9.69521 427 63.7869 204.274 470.958
729 0 48.0584 10.1335 487 63.6468 204.244 466.649
730 0 52.0238 11.7638 612 61.6242 203.917 466.745
731 0 53.1778 11.9787 637 60.763 203.677 467.717
732 0 55.297 11.809 653 61.4211 204.266 466.057
733 0 56.0968 12.2467 687 60.9083 203.895 465.636
734 0 57.1001 11.979 684 61.3319 203.697 463.211
735 0 58.1538 11.6587 678 61.7389 204.016 463.512
736 0 63.0716 13.2865 838 59.2053 203.708 459.733
737 0 62.1278 12.0397 748 61.1417 203.254 460.937
738 0 65.1544 11.1121 724 62.3343 203.764 459.309
739 0 70.1109 12.3947 869 60.1772 203.952 456.503
740 0 70.1056 12.7379 893 60.5543 204.199 456.168
741 0 71.1282 12.0065 854 61.5375 204.094 455.311
742 0 74.163 11.9332 885 61.539 204.087 455.172
743 0 77.105 11.6983 902 62.1519 204.554 452.687
744 0 80.1172 12.3319 988 60.8158 204.013 451.765
745 0 81.0343 12.8711 1043 61.303 203.889 449.229
746 0 83.085 11.9155 990 62.0737 204.518 452.307
747 0 88.0519 13.1059 1154 60.4168 204.158 448.735
748 0 89.1061 12.4458 1109 61.679 204.845 448.026
749 0 91.0383 11.5666 1053 63.3067 204.207 442.31
750 0 94.1761 13.135 1237 61.5853 203.698 441.597
751 1 52.0626 10.8139 563 63.0568 203.904 464.378
752 0 54.0501 11.8039 638 62.0799 204.028 461.641
753 0 54.0526 11.7848 637 62.5965 204.245 461.422
754 0 57.0467 11.7623 671 62.1475 204.155 462.92
755 0 59.0731 11.7482 694 62.464 203.932 460.867
756 0 61.0424 11.5985 708 63.1342 203.958 457.479
757 0 64.1082 12.0109 770 62.1701 204.117 457.075
758 0 64.0493 11.6941 749 62.976 203.919 455.869
759 0 68.1336 11.6242 792 62.4722 203.919 454.966
760 0 72.0837 10.9456 789 63.4157 203.881 454.54
761 0 75.1006 12.1703 914 62.046 203.65 453.538
762 0 76.1579 12.8155 976 61.8566 203.875 449.612
763 0 78.1627 12.1413 949 62.1328 203.851 445.962
764 0 81.1314 13.0776 1061 60.327 203.816 448.17
765 0 87.1759 13.1 1142 60.2837 203.783 446.419
766 0 89.1161 12.0405 1073 61.7978 203.555 445.872
767 0 91.299 11.4459 1045 62.156 203.219 446.24
768 1 48.0781 9.60936 462 64.0563 204.442 465.738
769 0 52.1319 10.4542 545 63.5688 203.47 464.066
770 0 54.0729 8.63649 467 65.9486 203.161 462.227
771 0 59.2499 12.2532 726 61.1667 203.433 460.762
772 0 62.1759 12.1751 757 61.3844 203.841 461.373
773 0 61.0433 11.8768 725 62.3186 203.448 458.874
774 0 63.2038 11.5025 727 62.8569 203.227 454.735
775 0 62.1644 12.2739 763 62.6828 203.469 455.299
776 0 66.0774 12.1676 804 61.4465 202.74 458.542
777 0 69.1126 10.9966 760 63.3184 203.199 453.588
778 0 73.1962 12.0771 884 61.8201 203.369 452.038
779 0 83.3722 12.5102 1043 59.6261 202.842 454.012
780 0 84.6353 11.4491 969 61.5088 202.925 449.713
781 0 82.0579 11.8575 973 61.7698 202.293 447.42
782 0 85.3183 11.5802 988 61.5951 202.923 450.532
783 0 91.1023 12.3488 1125 60.4578 202.728 445.685
784 1 52.2353 8.9786 469 61.4264 203.733 467.699
785 0 50.1827 9.70453 487 63.1622 203.887 464.71
786 0 47.0971 10.489 494 63.2308 203.532 466.291
787 0 53.4516 12.5534 671 58.9955 203.374 467.313
788 0 51.1168 12.2465 626 61.4696 203.76 462.895
789 0 53.0809 12.6034 669 60.6981 203.43 462.726
790 0 58.1199 10.3407 601 62.9035 203.915 462.281
791 0 63.3313 12.4899 791 59.3742 203.999 461.951
792 0 60.2694 12.5271 755 60.7285 203.686 457.564
793 0 68.2229 13.3533 911 58.2525 204.112 461.472
794 0 66.2081 12.4758 826 60.2663 204.119 461.987
795 0 67.1993 12.7382 856 60.1904 204.355 455.614
796 0 69.1038 12.3003 850 60.5459 204.022 458.791
797 0 70.2632 13.3356 937 59.0843 203.794 458.766
798 0 70.0736 11.6734 818 62.4731 203.641 453.048
799 0 71.1384 11.4144 812 62.1663 202.922 453.417
800 0 82.4671 13.6297 1124 58.7064 203.572 452.366
801 0 78.1326 11.2245 877 62.3843 203.449 450.842
802 0 84.2017 13.4439 1132 59.2332 204.297 450.103
803 1 45.2748 9.9393 450 62.4356 203.827 467.502
804 0 49.0435 9.05319 444 62.8221 204.099 467.462
805 0 49.0349 13.0111 638 59.2461 204.008 466.544
806 0 52.0619 12.5812 655 59.5344 204.046 464.95
807 0 53.123 11.8216 628 60.8774 204.134 463.954
808 0 55.1253 10.9387 603 61.5141 204.335 465.521
809 0 55.1457 12.5486 692 60.6445 203.996 460.918
810 0 58.0511 12.1962 708 61.0339 204.018 461.876
811 0 58.0236 11.03 640 63.4266 203.772 458.058
812 0 66.0908 13.1334 868 59.4608 204.344 461.111
813 0 64.1012 12.3243 790 61.8139 204.472 458.168
814 0 68.2599 13.8148 943 59.2301 204.065 457.496
815 0 69.1483 12.4226 859 61.3725 204.002 454.674
816 0 73.0603 13.1946 964 60.4212 204.058 454.266
817 0 75.1464 13.9461 1048 59.1985 204.185 454.46
818 0 78.0783 14.3958 1124 58.508 204.212 454.569
819 0 80.0787 11.7884 944 62.0922 204.489 451.252
820 0 81.1213 13.1778 1069 61.0617 204.502 448.267
821 0 84.0367 11.4474 962 62.5582 204.099 448.47
822 0 87.1699 12.1143 1056 62.2027 204.47 444.473
823 1 46.0721 9.70218 447 64.7763 204.313 466.801
824 0 49.0392 12.7245 624 60.4679 203.707 467.867
825 0 52.1608 11.7521 613 61.6754 203.312 465.953
826 0 53.1755 12.1673 647 61.3663 203.628 463.747
827 0 56.0467 12.1863 683 61.47 203.145 462.621
828 0 58.0335 14.5089 842 58.4952 203.722 461.545
829 0 59.0331 12.7725 754 60.9257 203.898 459.009
830 0 62.1063 13.7345 853 59.1512 203.382 460.047
831 0 62.0399 13.314 826 59.8148 203.72 458.005
832 0 65.079 13.2915 865 59.8046 203.827 457.517
833 0 67.0685 12.107 812 60.8904 203.537 457.857
834 0 68.1165 14.1522 964 58.833 203.673 455.701
835 0 69.1243 12.4413 860 61.307 203.347 454.657
836 0 74.0715 12.1639 901 60.869 203.622 453.12
837 0 77.0831 14.7114 1134 57.4929 203.842 454.727
838 0 75.1054 12.6356 949 60.9389 203.832 449.963
839 0 82.0992 12.3631 1015 60.7222 204.217 450.151
840 0 82.0381 12.7867 1049 60.6015 204.703 448.381
841 1 40.0744 9.682 388 62.4845 204.054 470.113
842 0 43.0456 12.1499 523 59.0707 204.446 472.279
843 0 44.0447 11.5791 510 61.1431 204.116 470.11
844 0 45.028 12.57 566 59.6095 204.092 471.675
845 0 47.3477 12.8834 610 59.3885 204.623 471.749
846 0 47.0517 13.7508 647 60.5224 204.53 469.547
847 0 50.1052 12.0147 602 62.5465 204.801 467.595
848 0 49.0652 12.5343 615 62.335 204.759 467.081
849 0 53.0722 11.343 602 62.887 204.507 468.497
850 0 54.2193 12.6708 687 61.1194 204.38 468.648
851 0 55.0302 12.7203 700 62.18 204.449 467.687
852 0 58.1923 14.0053 815 60.9975 204.42 467.455
853 0 58.1153 11.6148 675 63.3289 204.323 467.384
854 0 60.0643 11.9539 718 63.8969 204.297 465.529
855 0 60.1263 14.0704 846 62.0024 204.113 466.641
856 0 65.0689 14.7382 959 61.3233 203.912 464.542
857 0 65.2338 12.7081 829 63.7841 203.936 465.508
858 0 69.1124 14.6718 1014 62.3343 204.006 464.44
859 0 71.1786 14.6673 1044 62.4531 203.978 463.125
860 0 73.2057 13.182 965 64.5845 203.849 462.737
861 0 75.0807 12.4666 936 64.8942 204.684 464.136
862 0 78.1336 13.9633 1091 63.8607 204.134 464.158
863 0 81.2709 13.6703 1111 64.7264 203.851 461.482
864 0 80.0376 12.2942 984 67.0833 203.504 458.782
865 0 85.2722 13.1461 1121 65.5138 204.779 462.591
866 0 88.1404 11.5951 1022 67.6977 204.317 461.101
867 0 95.2565 8.62933 822 69.8431 204.263 462.668
868 0 93.2523 9.25447 863 70.7242 203.867 457.995
869 0 95.1773 12.545 1194 66.3543 203.893 460.87
870 0 97.1696 13.8727 1348 67.0994 204.245 455.217
871 0 97.1535 9.82981 955 70.7696 204.353 459.501
872 0 105.133 13.2309 1391 67.8332 204.664 454.325
873 0 107.227 12.7673 1369 69.0314 203.996 454.862
874 0 111.265 14.3981 1602 67.4114 204.321 452.908
875 0 118.527 11.6092 1376 70.923 204.264 452.142
876 0 118.129 13.7392 1623 69.5995 204.38 448.287
877 0 119.151 13.4116 1598 71.1809 204.949 447.003
878 0 123.102 13.6148 1676 70.8115 204.875 446.368
879 1 197.205 14.0311 2767 75.5678 204.377 408.989
880 0 202.146 13.1934 2667 77.2343 204.675 406.384
881 0 208.147 14.8165 3084 75.6511 204.658 406.973
882 0 211.158 11.8632 2505 80.5333 204.462 405.235
883 0 218.233 14.2416 3108 78.1126 204.218 402.185
884 0 224.444 13.8163 3101 79.5705 204.675 401.774
885 0 230.625 15.1544 3495 78.606 205.151 398.129
886 0 237.793 13.9407 3315 80.9922 204.573 395.849
887 0 241.376 14.4588 3490 80.8857 204.76 394.226
888 0 248.462 15.2941 3800 80.9782 204.626 386.301
889 0 253.442 15.2461 3864 81.4878 203.958 384.252
890 0 259.788 14.3117 3718 84.1226 203.782 385.489
891 1 217.791 13.9583 3040 84.2053 204.221 404.493
892 0 221.444 13.2991 2945 83.9586 203.777 409.168
893 0 228.389 14.2783 3261 83.6504 204.287 403.172
894 0 234.604 13.2052 3098 86.0297 203.626 399.224
895 0 242.458 14.3282 3474 84.5964 204.23 396.853
896 0 252.551 14.1516 3574 84.8551 203.267 392.163
897 0 261.376 14.9287 3902 85.2788 204.431 384.015
898 0 271.412 13.9345 3782 87.1557 204.072 377.975
899 0 280.391 14.9006 4178 85.8164 203.701 373.276
900 0 288.443 15.4935 4469 85.7818 203.224 367.266
901 1 367.075 10.5973 3890 92.3946 203.174 354.47
902 1 129.481 12.8745 1667 84.5549 203.95 445.909
903 0 130.282 12.542 1634 84.9957 203.894 449.261
904 0 133.119 11.4259 1521 87.8685 202.922 446.719
905 0 139.332 11.8135 1646 88.4666 203.547 442.889
906 0 141.239 12.4399 1757 88.2464 204.139 443.57
907 1 72.2118 13.4189 969 84.1104 204.101 474.494
908 0 73.0868 13.655 998 85.2605 203.865 471.143
909 0 75.0598 11.6307 873 88.0653 204.388 472.629
910 0 80.1193 13.3176 1067 85.672 204.078 468.401
911 0 82.0506 12.9554 1063 86.9962 204.184 467.138
912 0 85.1376 14.7526 1256 84.129 204.362 466.965
913 0 87.1089 14.8894 1297 83.6045 204.673 464.551
914 0 89.1474 13.831 1233 86.3074 204.048 461.932
915 0 93.0981 13.33 1241 85.9855 203.918 462.488
916 0 94.3073 13.3818 1262 87.0951 203.402 458.512
917 0 97.1312 13.7855 1339 85.8133 203.429 459.009
918 0 99.2958 14.5122 1441 85.0486 202.947 457.974
919 0 102.15 15.6339 1597 83.6249 203.674 456.959
920 0 106.278 14.5091 1542 85.2698 203.99 457.515
921 0 109.298 14.0717 1538 86.0962 203.528 455.966
922 0 112.171 14.7811 1658 85.9596 203.931 452.588
923 0 115.147 13.8519 1595 87.2533 204.423 454.143
924 0 118.095 13.65 1612 88.1681 205.059 451.128
925 0 122.216 13.0507 1595 88.4571 204.776 450.912
926 0 127.16 13.9823 1778 87.7733 204.442 443.904
927 0 128.098 12.7402 1632 90.0619 204.953 444.658
928 0 133.102 13.0051 1731 89.933 204.311 440.228
929 0 138.059 14.4576 1996 87.5 204.095 442.27
930 0 141.166 13.4523 1899 89.7009 204.373 437.144
931 1 110.104 11.0441 1216 91.102 204.086 455.344
932 0 113.109 12.8637 1455 87.9876 203.826 452.876
933 0 117.119 12.2013 1429 90.394 204.07 449.003
934 0 119.095 11.3019 1346 92.3343 203.923 447.611
935 1 81.0587 12.5095 1014 86.5187 204.543 466.636
936 0 84.1353 12.4799 1050 87.2076 204.392 464.542
937 0 89.2169 10.962 978 87.6084 204.165 465.202
938 0 90.1516 11.9465 1077 85.9257 203.969 464.229
939 0 93.0736 12.9038 1201 83.9359 203.827 464.533
940 0 96.1662 12.4264 1195 86.5808 204.59 458.685
941 0 99.1235 13.5387 1342 83.9732 204.551 459.906
942 1 49.0638 11.4137 560 87.3929 204.696 478.405
943 0 54.0568 12.8939 697 83.6155 204.861 479.786
944 0 56.1149 11.6725 655 84.9893 204.711 479.573
945 0 58.0516 11.0591 642 86.095 204.445 478.209
946 0 60.0746 10.8865 654 86.1927 204.203 476.488
947 0 61.0586 11.8411 723 84.2656 203.595 475.797
948 0 65.0656 12.5719 818 82.9328 203.93 473.9
949 0 66.1908 12.464 825 83.5733 204.501 471.867
950 0 69.1028 10.6074 733 85.7558 204.16 473.048
951 0 71.0762 11.762 836 83.2691 203.855 471.81
952 0 72.041 12.8538 926 83.3769 204.4 468.94
953 0 75.0489 11.1394 836 85.488 203.715 470.734
954 0 76.084 11.093 844 85.2832 203.906 471.492
955 0 79.1043 10.8717 860 86.4302 202.858 466.409
956 1 41.0197 11.7748 483 80.5445 203.65 488.271
957 0 42.1055 11.4949 484 81.0351 203.868 487.876
