time division length width area intensity CMx CMy
0 0 73.1877 10.6439 779 75.4288 283.246 496.716
1 0 74.222 11.8294 878 73.9579 282.655 494.063
2 0 77.1177 11.7742 908 73.7852 283.074 493.289
3 0 76.3354 11.6067 886 74.1287 283.088 494.007
4 0 80.066 12.2649 982 73.0692 283.291 491.292
5 0 83.195 13.0537 1086 71.4162 283.516 490.999
6 0 83.4199 11.2084 935 74.6032 282.526 493.258
7 0 87.1227 10.9501 954 75.2222 282.434 487.541
8 0 88.4026 11.5607 1022 74.3249 282.236 489.068
9 0 92.1008 11.9977 1105 73.3548 282.216 487.728
10 0 96.134 12.5242 1204 72.5332 281.919 487.62
11 0 96.0821 12.0938 1162 73.9337 282.059 486.327
12 1 58.1095 8.70769 506 76.4328 281.804 504.601
13 0 57.0824 10.6688 609 73.8801 281.537 505.581
14 0 59.1344 9.52068 563 76.3286 282.174 503.609
15 0 60.3468 10.9699 662 74.0347 281.592 503.326
16 0 62.1884 10.42 648 75.0324 281.147 503.085
17 0 63.1235 11.5171 727 72.6052 280.668 505.239
18 0 66.1864 12.6914 840 71.5881 280.657 502.846
19 0 66.1845 10.7125 709 74.5614 280.485 502.268
20 0 69.0945 10.8692 751 74.9933 280.482 497.999
21 0 70.3102 10.1692 715 76.4643 280.839 498.78
22 0 73.2613 12.1892 893 72.729 280.588 498.938
23 0 74.0731 11.4211 846 74.1182 280.885 497.908
24 0 78.324 12.6143 988 71.331 280.292 499.522
25 0 77.1263 12.2656 946 73.0867 280.189 496.128
26 0 80.2207 11.6678 936 73.7543 280.435 495.838
27 0 82.2934 13.0023 1070 72.0841 280.291 494.288
28 0 84.1658 11.4536 964 74.7583 279.565 493.891
29 0 86.1617 11.2231 967 75.0652 279.806 492.783
30 0 88.2231 12.0263 1061 73.6616 280.54 492.151
31 0 90.1485 11.5143 1038 74.7225 280.589 491.964
32 0 92.138 11.6998 1078 74.4592 280.22 488.051
33 0 96.3476 12.6002 1214 72.902 280.008 486.225
34 1 56.1063 10.9079 612 72.0588 279.154 506.712
35 0 58.2078 9.75814 568 73.5933 279.158 506.474
36 0 57.2332 8.43915 483 77.8571 279.876 502.671
37 0 60.0942 11.6817 702 71.8276 279.892 505.731
38 0 59.2426 9.62145 570 76.614 279.791 500.477
39 0 60.0525 9.54165 573 77.103 280.089 498.558
40 0 65.287 11.6256 759 72.6746 280.478 501.447
41 0 65.1733 10.5565 688 73.8372 279.754 501.843
42 0 65.1203 10.1351 660 75.8106 280.589 496.095
43 0 68.1597 10.6955 729 74.6722 279.938 496.734
44 0 70.1861 10.5149 738 74.9458 280.649 496.027
45 0 71.0739 10.8901 774 73.9225 280.348 497.269
46 0 74.0745 11.5559 856 73.0444 279.285 495.352
47 0 73.1753 11.3426 830 74.1506 279.855 490.786
48 0 76.0951 12.5501 955 72.177 279.762 492.968
49 0 78.1204 12.3399 964 72.195 279.76 493.494
50 0 81.039 12.167 986 72.2089 280.402 493.69
51 0 82.1334 12.6623 1040 72.2702 280.452 490.758
52 0 84.191 11.5571 973 73.8191 280.131 489.776
53 0 89.1805 11.4823 1024 73.2627 280.058 487.95
54 0 89.1972 11.682 1042 73.2668 280.505 484.426
55 1 52.1659 9.25893 483 73.472 280.143 507.203
56 0 54.1813 10.428 565 73.1133 280.218 502.635
57 0 53.1858 8.64892 460 76.4609 279.535 502.828
58 0 57.1269 9.43513 539 74.4916 279.037 502.05
59 0 57.0739 11.3712 649 72.2696 279.099 502.143
60 0 59.0483 10.466 618 73.4676 279.45 503.021
61 0 60.1354 10.809 650 73.7677 279.662 499.82
62 0 61.1334 11.5649 707 72.7298 279.53 500.794
63 0 64.1394 11.7401 753 72.2709 279.647 500.194
64 0 65.0776 12.6618 824 71.5534 279.701 498.916
65 0 67.116 13.1861 885 70.8452 279.052 499.042
66 0 66.3107 10.858 720 76.0472 279.85 496.59
67 0 69.1848 12.2281 846 72.7553 279.736 497.194
68 0 69.2134 13.1044 907 72.4234 279.363 495.71
69 0 73.2269 11.0615 810 75.7482 279.06 495.841
70 0 73.1363 12.087 884 74.4581 278.945 493.835
71 0 74.3404 10.9362 813 76.3112 279.33 493.451
72 0 76.0768 12.4085 944 74.6737 279.42 491.715
73 0 80.1576 12.0138 963 75.0166 279.773 491.484
74 0 82.1229 12.1891 1001 73.9371 279.169 493.555
75 0 82.0465 12.4198 1019 74.3425 279.772 489.555
76 1 48.1986 10.7472 518 75.6641 279.786 508.703
77 0 50.1329 9.13572 458 79.1157 279.517 505.393
78 0 53.0985 10.7913 573 75.7295 279.675 506.225
79 0 52.159 10.2571 535 77.7271 279.905 502.323
80 0 54.106 10.3316 559 76.9553 280.317 504.066
81 0 55.1705 12.3435 681 73.5433 280.176 505.181
82 0 58.14 11.7819 685 73.4788 280.201 504.124
83 0 59.0634 12.258 724 73.1202 279.988 504.332
84 0 57.1892 10.2817 588 77.267 279.721 501.447
85 0 60.1398 12.2714 738 73.4106 279.431 500.556
86 0 62.1087 11.7214 728 74.0756 280.01 501.75
87 0 65.2399 11.9559 780 72.768 279.547 501.44
88 0 68.1845 13.8448 944 69.3803 280.064 501.238
89 0 68.1865 12.8178 874 71.6682 279.852 499.876
90 0 68.2746 12.2007 833 72.7167 279.905 498.676
91 0 70.1098 11.9384 837 72.8805 280.011 497.559
92 0 73.1842 11.7102 857 72.8763 279.715 497.768
93 0 74.1741 12.7403 945 71.4571 279.954 495.424
94 0 75.1534 12.1219 911 72.7541 280.181 493.977
95 0 79.149 12.5965 997 71.2748 280.091 494.692
96 0 81.2861 12.6713 1030 70.9563 280.607 493.925
97 0 83.2482 11.1354 927 73.1446 280.065 494.127
98 0 82.1811 11.4138 938 74.0085 280.075 491.095
99 1 50.1629 8.592 431 75.2947 279.995 507.541
100 0 51.0936 10.334 528 72.2216 280.29 507.72
101 0 53.0867 11.0197 585 71.6462 280.414 506.111
102 0 54.0852 12.8131 693 69.0967 280.188 506.821
103 0 54.2245 9.99548 542 73.7712 280.839 505.037
104 0 57.1206 13.4802 770 67.5558 280.727 506.377
105 0 54.1785 9.32104 505 75.3921 280.279 502.313
106 0 60.2054 11.8262 712 70.0758 279.914 504.274
107 0 57.2046 9.10766 521 76.6737 281.2 501.365
108 0 61.0923 10.8197 661 73.6203 280.271 501.983
109 0 62.2096 11.0755 689 74.0131 280.46 497.604
110 0 67.2835 12.1575 818 70.379 279.856 502.749
111 0 69.1431 12.1921 843 70.9597 280.113 500.401
112 0 67.1804 11.7594 790 73.2165 280.368 496.873
113 0 67.0958 10.6415 714 75.2997 280.434 496.497
114 0 72.2292 13.3602 965 69.7969 279.936 500.004
115 0 74.0709 10.922 809 73.6848 280.433 498.864
116 0 76.1194 11.9286 908 72.6784 280.024 495.012
117 0 76.2248 12.9748 989 71.8483 280.134 494.162
118 0 78.2462 12.7163 995 71.6432 280.798 497.038
119 0 82.2575 13.1052 1078 71.2839 280.416 493.596
120 0 81.0645 12.8663 1043 71.8552 280.426 494.21
121 0 84.092 12.8669 1082 72.6802 280.87 489.797
122 0 85.1232 11.9122 1014 74.2278 280.655 490.542
123 0 88.1971 12.268 1082 73.5601 279.398 488.349
124 1 51.2126 11.091 568 74.5 279.836 507.342
125 0 51.1879 8.9865 460 78.713 280.057 505.657
126 0 54.1507 11.1356 603 75.8325 279.847 505.116
127 0 56.0696 11.8603 665 74.4376 280.003 502.224
128 0 59.1722 12.9453 766 72.2585 280.48 504.979
129 0 61.0802 11.9679 731 73.446 280.238 503.954
130 0 62.0704 10.472 650 76.8908 279.929 497.577
131 0 60.2639 10.8523 654 77.7676 279.836 499.034
132 0 66.1693 14.7047 973 70.0411 279.959 500.742
133 0 66.1036 11.6484 770 76.1792 280.561 496
134 0 64.2004 12.6791 814 75.7629 280.876 497.327
135 0 67.1623 12.3283 828 75.2234 281.087 498.478
136 0 72.1955 13.2418 956 73.5638 281.222 497.108
137 0 73.092 14.1739 1036 72.001 280.581 495.909
138 0 76.0608 12.9896 988 73.0759 280.365 494.834
139 0 73.1419 11.3888 833 77.8836 280.784 490.144
140 0 80.0879 13.0482 1045 72.911 279.681 492.595
141 0 80.26 12.8707 1033 73.9535 280.046 490.311
142 0 83.3114 13.3355 1111 72.7048 280.279 490.871
143 0 79.1272 12.423 983 75.8281 279.659 488.523
144 0 85.1552 11.9312 1016 75.4468 279.572 488.589
145 0 90.2897 13.058 1179 73.2502 280.169 484.806
146 0 92.1899 11.4872 1059 75.9594 280.694 483.837
147 0 93.3841 12.0899 1129 75.3012 280.638 481.378
148 0 101.204 13.1912 1335 72.1161 280.757 484.862
149 1 59.1158 10.4033 615 74.3398 280.428 504.553
150 0 62.0577 11.6827 725 73.2455 280.228 502.72
151 0 61.134 11.3357 693 74.5079 279.592 502.645
152 0 65.1514 11.4656 747 74.8032 280.199 498.253
153 0 63.2741 11.4265 723 75.9405 280.571 498.062
154 0 63.1125 10.41 657 79.3942 280.938 495.381
155 0 70.1192 14.2329 998 70.6453 280.272 499.982
156 0 70.1427 12.9736 910 73.9549 280.647 496.954
157 0 72.1131 12.3695 892 75.2948 280.385 495.206
158 0 76.1782 12.707 968 74.4597 280.123 494.776
159 0 76.2465 12.8006 976 75.2264 280.233 494.739
160 0 77.1483 12.0288 928 77.0603 279.55 494.159
161 0 82.1851 13.2628 1090 75.0936 279.501 490.312
162 0 82.1024 12.1799 1000 78.12 279.976 489.959
163 0 83.1306 11.921 991 79.5954 279.989 487.296
164 0 86.2443 13.5197 1166 76.3113 280.078 491.908
165 0 89.08 12.7975 1140 78.4596 279.419 488.664
166 0 90.1632 12.2777 1107 80.4002 279.32 487.156
167 0 91.1426 12.9138 1177 80.5956 279.427 483.096
168 0 95.13 12.4251 1182 81.1633 279.307 481.739
169 0 96.1879 13.3905 1288 80.2648 279.083 480.936
170 0 102.12 12.5049 1277 81.0016 279.196 481.645
171 0 103.099 12.1825 1256 82.7556 279.437 478.288
172 0 107.164 13.1294 1407 80.4954 279.722 477.115
173 0 105.36 13.1454 1385 81.9372 279.189 474.159
174 0 114.145 12.3352 1408 81.8892 279.141 473.939
175 1 63.1261 10.0751 636 82.3726 279.484 496.605
176 0 66.1112 9.92268 656 81.8094 279.869 497.555
177 0 69.0762 9.9021 684 83.3523 279.716 493.76
178 0 70.1889 10.4005 730 82.7781 279.945 493.24
179 0 67.0586 10.886 730 84.174 280.396 490.422
180 0 69.0956 10.2322 707 84.8416 279.44 489.504
181 0 76.1804 11.7484 895 79.1765 278.368 492.62
182 0 77.1382 11.6155 896 79.2623 278.344 491.752
183 0 81.1818 11.4558 930 79.1151 278.399 490.275
184 0 82.1536 10.663 876 80.04 278.449 489.232
185 0 77.0633 11.3154 872 81.9232 278.569 484.385
186 0 84.2253 11.1131 936 79.6496 278.598 486.689
187 0 87.2191 10.7431 937 79.6499 278.526 485.638
188 0 85.1224 11.971 1019 79.0265 278.508 482.358
189 0 91.1583 11.3319 1033 79.152 279.1 481.446
190 1 47.0422 8.31169 391 75.7673 278.88 504.138
191 0 47.0686 9.51803 448 75.6183 279.252 501.973
192 0 49.1598 8.54356 420 77.5548 279.255 501.726
193 0 49.085 10.7569 528 74.8333 279.485 500.104
194 0 50.0608 9.32866 467 77.5289 279.236 499.968
195 0 50.0769 8.92627 447 78.915 279.356 498.201
196 0 52.0685 10.2557 534 76.2528 279.68 499.303
197 0 52.0515 10.6241 553 76.2532 279.673 498.345
198 0 56.0714 9.82676 551 76.3358 279.976 497.127
199 0 58.0681 10.8493 630 74.7333 279.76 495.889
200 0 62.0997 10.3382 642 74.933 279.743 496.313
201 0 63.0424 9.70775 612 76.3693 279.619 495.582
202 0 64.0493 8.21243 526 78.692 279.42 495.382
203 0 62.0447 10.3957 645 76.6279 279.293 492.436
204 0 67.1093 11.0715 743 73.7618 279.666 496.958
205 0 68.09 11.0442 752 75.0359 278.707 491.008
206 0 64.0438 10.4772 671 77.383 278.785 491.152
207 0 70.0551 10.0492 704 76.5682 279.455 493.243
208 0 71.0823 12.3659 879 71.8066 278.86 489.68
209 0 77.1651 10.4451 806 73.6824 279.014 489.868
210 0 77.087 10.8319 835 72.9665 278.775 489.435
211 0 78.1409 10.4683 818 74.4572 279.394 486.628
212 1 42.0519 8.65597 364 69.6236 278.739 507.813
213 0 42.0303 10.7304 451 69.071 278.865 505.705
214 0 44.0202 9.67737 426 70.7629 278.66 503.906
215 0 44.0278 9.69841 427 71.1569 278.578 504.674
216 0 46.0228 11.038 508 69.4764 278.285 506.059
217 0 50.0457 8.95182 448 73.2254 278.103 503.935
218 0 48.0608 9.2591 445 73.9596 277.953 502.636
219 0 46.0284 9.84176 453 74.6534 278.483 501.956
220 0 50.0437 10.7106 536 72.0037 278.153 504.207
221 0 56.0791 10.1821 571 71.8652 277.429 502.553
222 0 54.0282 10.439 564 73.383 277.798 500.374
223 0 56.1018 10.7483 603 72.7579 277.453 499.658
224 0 54.0657 8.97057 485 77.2041 277.462 498.153
225 0 58.0363 10.1833 591 74.577 277.239 495.782
226 0 55.0276 10.1404 558 75.5968 277.97 499.995
227 0 63.1525 10.8943 688 71.968 277.682 500.01
228 0 58.0325 10.4424 606 74.9752 277.554 498.186
229 0 63.0527 12.434 784 70.9758 277.953 498.241
230 0 62.0665 10.9077 677 74.9424 277.947 494.682
231 0 66.0332 11.3428 749 73.3899 278.398 494.846
232 0 66.0505 11.4458 756 72.7725 278.425 495.866
233 0 70.097 9.78643 686 75.7274 278.061 495.418
234 0 70.0634 10.5476 739 75.1488 277.878 492.947
235 0 73.1025 13.4606 984 70.3303 278.355 494.035
236 1 38.0454 9.7515 371 73.1482 277.709 508.356
237 0 44.0372 9.51469 419 72.2172 278.348 507.501
238 0 46.0517 9.2939 428 71.9182 278.061 506.339
239 0 41.0333 10.918 448 72.4263 278.487 505.326
240 0 45.0204 10.0177 451 72.7273 278.787 503.922
241 0 47.0818 11.3632 535 69.9869 278.699 502.92
242 0 47.0713 10.346 487 71.8234 278.312 503.341
243 0 47.0858 10.7463 506 71.8202 278.051 501.874
244 0 50.0743 12.0821 605 68.0992 278.298 504.569
245 0 52.1271 10.2442 534 71.5655 278.934 501.68
246 0 51.152 10.5959 542 71.666 278.542 502.67
247 0 56.1193 11.529 647 69.2844 278.56 501.173
248 0 56.0579 9.7756 548 73.1679 278.172 499.197
249 0 59.2109 12.0924 716 68.7193 278.33 497.015
250 0 59.0869 11.6269 687 69.7307 278.031 496.558
251 0 57.1004 11.3309 647 71.7218 278.25 495.354
252 0 60.0377 10.61 637 71.7488 278.859 499.962
253 0 59.073 9.903 585 73.6051 279.135 496.402
254 0 63.0914 13.0763 825 68.7248 278.742 496.691
255 0 64.1194 11.8373 759 70.1766 278.91 496.646
256 0 67.1996 11.4138 767 70.8735 278.845 495.82
257 0 66.0395 11.4174 754 71.1008 278.622 494.156
258 0 72.1077 11.0806 799 70.4443 278.683 494.646
259 0 73.0761 11.7001 855 69.5158 279.294 493.129
260 0 76.0612 12.1481 924 68.7933 279.364 490.865
261 1 39.0315 9.96632 389 72.7481 278.882 507.979
262 0 40.0496 9.46327 379 73.8865 278.958 505.966
263 0 41.0797 10.224 420 72.4071 278.855 507.964
264 0 44.1137 9.5662 422 73.0829 278.983 506.585
265 0 45.1241 12.0556 544 68.6948 278.504 506.914
266 0 44.1214 11.899 525 70.2476 279.533 506.352
267 0 48.1192 11.0351 531 70.403 278.814 506.134
268 0 51.1376 12.2806 628 67.7468 278.346 503.825
269 0 47.1006 10.5519 497 71.831 278.996 502.706
270 0 49.0922 10.4497 513 72.2749 278.645 501.548
271 0 51.1941 11.4076 584 69.911 278.618 502.673
272 0 54.0927 11.8685 642 68.9377 278.595 499.315
273 0 56.042 9.83192 551 71.7768 278.737 500.595
274 0 57.0865 10.4403 596 70.7701 279.374 499.498
275 0 59.0712 12.2902 726 67.949 278.676 500.165
276 0 62.1553 12.5975 783 66.7178 278.995 496.226
277 0 62.043 10.7667 668 69.753 278.699 497.651
278 0 64.0741 13.1098 840 66.244 278.263 494.543
279 0 66.0849 12.8774 851 66.181 278.054 495.492
280 0 73.0806 11.0426 807 67.9405 278.089 492.793
281 0 72.1813 11.3049 816 67.5466 277.826 493.489
282 0 77.0339 13.3578 1029 64.3615 277.989 494.028
283 1 39.0601 12.0071 469 66.2857 278.45 509.571
284 0 42.0413 8.99115 378 70.119 278.101 508.146
285 0 43.167 9.22001 398 70.4447 278.138 506.053
286 0 44.093 10.0696 444 69.2185 277.833 506.836
287 0 50.0745 12.1219 607 64.5816 278.081 508.664
288 0 52.065 9.29608 484 69.5372 278.789 505.831
289 0 52.0466 13.1229 683 64.5988 278.856 507.161
290 0 51.0938 10.2948 526 69.4544 278.538 505.103
291 0 54.0701 11.3001 611 67.7021 279.185 507.481
292 0 55.1099 10.9236 602 69.5598 279.131 502.49
293 0 57.1466 11.7767 673 67.5929 278.771 505.522
294 0 58.042 12.8011 743 67.2476 279.595 503.833
295 0 57.0711 13.0364 744 67.7231 279.081 502.751
296 0 60.1233 14.0045 842 66.7197 279.165 502.181
297 0 62.074 13.8061 857 66.8728 279.476 502.6
298 0 65.1135 12.8545 837 67.9809 279.207 500.853
299 0 66.0863 12.1205 801 69.3034 279.035 499.568
300 0 68.2185 12.7092 867 68.6782 278.366 499.215
301 0 71.1261 12.0631 858 69.0431 278.987 499.115
302 0 72.146 11.7124 845 70.5692 278.839 496.046
303 0 74.1088 11.8474 878 70.1765 278.967 495.877
304 0 77.2496 14.0713 1087 66.8353 278.96 495.166
305 1 43.0334 8.7374 376 71.9574 278.136 510.766
306 0 45.1019 9.80003 442 70.3959 277.83 511.222
307 0 44.073 13.0465 575 66.9809 278.271 510.376
308 0 46.1195 11.9255 550 68.0873 277.784 511.178
309 0 47.1194 13.0095 613 67.2104 277.899 509.201
310 0 47.1502 13.3828 631 66.6482 278.144 510.049
311 0 48.121 11.4503 551 68.8711 277.543 510.949
312 0 51.0711 12.4728 637 67.248 278.091 509.311
313 0 48.2342 12.2942 593 69.403 278.03 508.054
314 0 52.1298 11.1069 579 70.0518 277.988 506.839
315 0 54.0938 11.8313 640 67.5844 277.889 509.155
316 0 54.111 11.1068 601 71.2463 277.715 503.805
317 0 56.1681 13.602 764 67.0785 277.812 503.372
318 0 58.0457 11.9044 691 68.686 277.436 505.893
319 0 58.0714 10.711 622 70.8103 277.235 503.896
320 0 60.0643 13.6021 817 67.4688 277.032 500.749
321 0 61.0719 12.559 767 69.1825 277.643 498.987
322 0 62.0888 14.3987 894 66.5011 278.226 499.317
323 0 65.0876 12.5984 820 68.3488 278.372 500.428
324 0 63.1091 13.9599 881 68.0658 277.888 496.952
325 0 66.1051 13.1155 867 68.4948 278.025 497.809
326 0 70.2369 12.5717 883 69.2163 278.038 494.684
327 0 70.1237 11.9931 841 70.6754 278.454 493.473
328 0 73.2275 13.8199 1012 67.6878 278.016 495.164
329 0 75.1712 11.7598 884 70.7794 278.146 495.523
330 0 77.1121 13.2016 1018 68.7358 278.505 495.027
331 1 43.0991 10.9747 473 69.9176 278.901 511.653
332 0 42.1104 10.2113 430 72.3767 278.721 509.781
333 0 43.1673 9.08095 392 74.9311 278.773 507.434
334 0 42.0968 11.2835 475 71.9642 278.789 508.2
335 0 46.029 11.3841 524 71.0687 278.733 507.145
336 0 44.0653 12.8673 567 70.9594 278.741 505.004
337 0 45.028 11.1042 500 73.704 279.188 505.452
338 0 47.0688 12.981 611 71.1277 278.939 503.486
339 0 50.0587 12.4853 625 71.5184 278.352 502.568
340 0 51.0341 11.9332 609 72.8966 278.361 500.278
341 0 52.0504 11.1046 578 74.3789 278.791 501.073
342 0 55.1288 12.4436 686 72.0875 278.819 499.564
343 0 56.0588 12.1301 680 73.0368 278.903 498.709
344 0 58.1236 12.4218 722 72.7632 279.078 496.037
345 0 59.1381 11.9551 707 73.454 279.016 497.444
346 0 62.0241 13.6721 848 71.4658 278.758 492.67
347 0 65.1075 12.2259 796 73.598 278.232 493.932
348 0 67.0967 13.95 936 71.2724 278.302 492.329
349 0 67.0591 13.0333 874 72.9188 277.78 491.945
350 0 72.1507 13.2085 953 72.4816 277.942 489.631
351 0 73.0948 13.3936 979 72.7099 277.805 489.368
352 0 74.1395 13.4476 997 72.332 277.819 490.862
353 0 76.2036 12.0729 920 74.7022 277.995 486.805
354 0 80.2157 12.3293 989 74.3226 278.071 485.292
355 1 41.041 10.3799 426 77.5657 278.636 502.155
356 0 44.0432 10.8984 480 75.2125 278.779 503.6
357 0 46.03 13.1002 603 72.3665 278.295 501.335
358 0 47.0953 12.2942 579 73.8307 276.813 498.974
359 0 49.169 11.0842 545 74.9193 277.607 499.64
360 0 50.0181 11.9957 600 74.3317 277.17 499.203
361 0 52.0559 11.065 576 75.1424 278.226 498.705
362 0 53.0889 12.3943 658 73.4787 278.5 497.286
363 0 55.0687 12.2029 672 74.1131 278.845 494.714
364 0 58.0377 11.3375 658 74.734 278.567 493.669
365 0 61.0654 12.2492 748 72.9211 278.298 492.555
366 0 61.0484 11.7448 717 74.5621 278.389 491.622
367 0 62.0646 11.0691 687 75.1237 278.229 490.793
368 0 64.0419 11.7111 750 73.7573 278.489 492.047
369 0 67.0936 11.7597 789 73.5932 278.184 491.003
370 0 70.0807 11.0444 774 74.3656 278.332 488.391
371 0 70.032 11.3662 796 74.7023 277.739 483.188
372 0 74.066 10.7742 798 74.6667 277.194 484.335
373 0 77.0586 10.5245 811 74.7941 277.195 483.211
374 0 79.1286 9.55407 756 76.7646 277.71 481.61
375 1 40.0275 11.592 464 69.9698 277.659 501.571
376 0 44.0429 10.8985 480 69.8188 278.592 502.873
377 0 44.0505 10.1474 447 71.2506 278.573 502.667
378 0 46.0092 9.93279 457 71.6477 278.39 500.832
379 0 46.0302 10.3628 477 71.3061 277.969 499.985
380 0 49.0655 9.9255 487 71.7536 277.938 498.702
381 0 50.0617 9.9677 499 71.3006 279.156 498.876
382 0 53.0635 11.9291 633 67.4866 278.33 500.706
383 0 53.0678 9.66688 513 70.8713 278.357 498.392
384 0 55.1209 11.1936 617 68.7455 278.754 495.454
385 0 57.1055 9.68383 553 70.2098 279.107 494.517
386 0 59.0583 11.531 681 67.4435 278.816 493.539
387 0 58.0744 9.16066 532 71.2293 279.16 492.763
388 0 61.2214 10.7315 657 67.9467 278.624 490.826
389 0 63.0934 11.9188 752 66.4801 279.182 488.495
390 0 69.0801 11.465 792 66.3864 279.019 490.168
391 0 69.1109 11.0692 765 67.3176 279.265 489.152
392 0 71.176 9.76452 695 69.0993 278.86 491.847
393 0 73.0992 10.7799 788 68.1827 278.513 489.014
394 0 77.0821 10.651 821 67.3642 278.666 486.942
395 1 41.0544 9.64574 396 66.6717 278.101 504.917
396 0 42.117 11.4681 483 65.1429 278.41 501.331
397 0 42.0346 9.27806 390 67.1923 278.087 503.972
398 0 43.0336 11.3864 490 65.0102 278.202 503.106
399 0 46.0981 11.5189 531 64.3314 277.731 501.386
400 0 46.1474 12.1784 562 63.7651 278.283 499.135
401 0 49.1086 10.6091 521 65.6679 278.749 500.727
402 0 49.1291 10.849 533 65.666 278.629 499.972
403 0 51.0507 11.3025 577 65.3206 278.686 499.107
404 0 53.0581 10.1398 538 66.3532 278.362 499.431
405 0 54.0743 10.4671 566 65.9947 278.809 498.618
406 0 57.1623 11.5461 660 65.1652 279.133 495.867
407 0 55.0823 9.87614 544 68.3934 278.344 497.248
408 0 58.0905 11.396 662 66.1299 278.689 495.68
409 0 57.053 10.9372 624 67.4359 279.184 495.577
410 0 64.2332 12.657 813 63.8807 278.938 494.355
411 0 64.0805 12.6248 809 65.1842 279.195 492.185
412 0 66.0761 13.0002 859 64.631 279.708 492.74
413 0 68.0644 13.4432 915 64.5355 279.397 489.701
414 0 70.1182 12.4789 875 65.9154 279.431 488.751
415 0 71.0866 10.5505 750 68.624 279.547 488.537
416 0 72.0492 10.6455 767 69.1578 279.49 488.36
417 0 76.1484 12.1867 928 67.3082 279.51 485.106
418 0 78.1134 12.5203 978 66.908 279.58 485.125
419 0 80.0823 11.176 895 69.3162 279.778 483.123
420 1 40.1091 11.8178 474 69.2869 279.439 502.827
421 0 41.0883 11.098 456 70.2281 279.474 503.305
422 0 44.0703 11.2774 497 69.5976 279.262 501.36
423 0 44.1084 11.1997 494 70.5911 280.095 499.468
424 0 45.0605 12.916 582 68.4175 279.893 497.861
425 0 48.0252 12.306 591 68.6007 279.423 498.831
426 0 48.0609 10.8612 522 71.1149 278.898 498.107
427 0 54.0282 12.2158 660 67.7333 279.009 498.558
428 0 53.0763 11.4364 607 70.3756 278.708 495.31
429 0 55.1087 11.9037 656 69.1814 278.777 495.378
430 0 58.106 12.3223 716 68.0838 278.644 494.284
431 0 59.0594 12.7499 753 68.0438 279.258 494.327
432 0 61.0457 12.3186 752 67.9854 279.221 495.783
433 0 62.1363 12.3921 770 68.126 278.77 492.436
434 0 65.0636 13.5867 884 66.4649 279.439 491.899
435 0 63.1229 12.8163 809 68.382 279.021 490.711
436 0 68.1044 11.3355 772 68.7902 278.88 493.961
437 0 72.1278 13.8643 1000 65.456 279.074 490.276
438 0 74.1127 13.385 992 66.0413 279.482 487.465
439 0 76.1303 12.4786 950 67.0295 279.235 486.888
440 0 78.076 11.207 875 68.424 278.993 486.402
441 0 79.039 11.7916 932 68.0912 279.71 485.072
442 0 83.186 12.7546 1061 66.0198 279.234 482.419
443 0 88.1113 13.1765 1161 64.7089 278.765 481.692
444 1 45.1072 11.9271 538 65.3773 278.985 501.279
445 0 45.1072 11.8828 536 142.351 278.985 501.265
446 0 47.0214 10.8674 511 67 279.088 501.084
447 0 49.0391 11.2563 552 66.5326 278.911 499.094
448 0 51.1034 11.5648 591 65.5245 279.168 498.171
449 0 53.1208 10.1655 540 66.5315 279.019 498.909
450 0 56.0955 11.9083 668 64.015 279.383 498.106
451 0 59.0826 13.2526 783 62.2912 279.444 496.559
452 0 59.0901 12.6079 745 63.4336 279.509 496.166
453 0 60.1571 12.085 727 64.2889 279.659 495.831
454 0 65.0913 12.5209 815 62.5546 279.414 494.198
455 0 64.0665 12.1436 778 63.3856 279.271 491.334
456 0 67.1565 12.8357 862 62.8295 279.389 492.258
457 0 70.0488 14.2329 997 60.7121 279.463 493.965
458 0 69.0502 12.5561 867 63.8074 279.975 491.811
459 0 72.0937 13.857 999 62.4214 279.722 490.273
460 0 75.0898 13.9566 1048 62.3387 279.698 491.169
461 0 77.1043 12.749 983 64.4741 279.627 489.376
462 0 79.1495 12.1669 963 65.6926 279.486 488.877
463 0 81.0887 12.1472 985 66.3634 279.993 486.724
464 1 44.1507 10.7133 473 68.0592 279.076 505.302
465 0 45.0516 11.0096 496 69.0081 279.319 503.512
466 0 47.1157 11.3338 534 68.6442 279.584 502.768
467 0 48.0396 11.9068 572 68.8199 279.285 502.091
468 0 52.0954 12.4963 651 66.9985 279.518 502.51
469 0 53.0335 11.8604 629 68.2464 279.184 499.951
470 0 55.0644 12.8395 707 67.2178 279.113 499.489
471 0 54.094 13.1253 710 67.4254 278.394 497.832
472 0 57.0419 11.8334 675 68.6207 278.693 497.644
473 0 59.0877 12.5914 744 68.1089 278.704 493.754
474 0 62.056 12.4726 774 67.2442 278.391 494.89
475 0 60.0887 10.9671 659 70.0774 278.496 491.93
476 0 66.0994 12.8443 849 66.4582 278.365 493.338
477 0 63.1372 11.2929 713 69.655 278.295 490.342
478 0 69.1546 13.6506 944 65.4333 278.847 491.922
479 0 69.0785 11.5955 801 68.834 279.568 489.459
480 0 75.1431 10.7262 806 69.3437 279.677 490.132
481 0 77.0846 12.8301 989 66.632 280.088 488.18
482 0 80.0731 11.7393 940 67.7872 279.812 487.849
483 0 82.1418 10.5306 865 68.8902 280.403 488.091
484 0 84.1004 10.9274 919 68.963 280.016 482.165
485 1 44.1604 11.8432 523 67.7323 279.79 504.442
486 0 45.1281 11.2125 506 68.4249 279.545 505.275
487 0 49.0849 13.0998 643 65.3126 280.328 503.529
488 0 49.056 9.74396 478 70.0251 280.243 504.349
489 0 52.0477 11.8353 616 67.7906 280.448 500.562
490 0 52.0267 11.0905 577 69.1525 279.392 499.929
491 0 57.1359 14.2817 816 63.5012 279.354 499.734
492 0 58.0581 11.8502 688 66.5378 279.375 500.599
493 0 59.0506 11.8542 700 67.05 279.747 499.546
494 0 61.0915 14.2082 868 63.9447 279.872 499.047
495 0 62.104 13.5418 841 65.8692 279.848 494.008
496 0 67.1543 13.804 927 64.2611 280.004 496.333
497 0 67.1359 13.6738 918 64.9739 279.779 493.171
498 0 67.0912 13.8319 928 65.3222 279.446 493.75
499 0 70.1046 12.624 885 67.6655 279.956 492.436
500 0 73.0786 13.3965 979 66.1624 279.419 489.561
501 0 72.1353 12.1439 876 69.2671 279.323 489.411
502 0 75.1263 11.8866 893 69.2721 279.243 488.449
503 0 78.0901 12.3191 962 69.0177 278.869 487.892
504 0 80.1463 12.5021 1002 68.9291 278.759 486.522
505 0 85.1072 12.9131 1099 68.0419 278.973 489.171
506 0 88.2016 13.7639 1214 67.4407 278.856 483.753
507 1 48.0717 11.7741 566 70.5601 278.474 506.064
508 0 48.0327 11.6379 559 71.8891 278.624 505.07
509 0 49.0731 10.6576 523 74.8757 278.778 502.837
510 0 52.0598 12.3704 644 71.8214 279.121 503.643
511 0 53.1103 12.6717 673 72.2437 279.486 500.783
512 0 56.1373 14.0192 787 69.4981 279.764 500.502
513 0 57.0599 14.143 807 70.0372 279.454 499.402
514 0 59.0658 13.0363 770 71.3494 279.357 497.823
515 0 62.0757 12.7103 789 71.8276 279.243 497.45
516 0 63.1268 13.7501 868 70.5576 279.222 497.245
517 0 65.1484 12.955 844 73.6825 278.706 494.898
518 0 67.0922 13.0269 874 73.3776 279.1 497.175
519 0 69.1406 13.5232 935 73.0267 278.913 494.318
520 0 73.1163 15.1539 1108 69.9738 279.083 493.11
521 0 73.1035 12.4891 913 74.9288 279.071 492.693
522 0 76.1879 14.018 1068 72.3174 278.881 489.757
523 0 80.101 14.1571 1134 71.9277 279.21 487.44
524 0 81.0788 13.3944 1086 73.4659 278.932 487.532
525 0 85.2508 12.8093 1092 73.9414 278.931 484.828
526 0 90.0705 14.0446 1265 71.3249 279.308 483.807
527 0 92.1725 14.4403 1331 70.2329 278.946 484.276
528 1 45.1095 11.7713 531 76.2392 278.605 503.992
529 0 48.1134 12.8031 616 74.1802 279.274 504.779
530 0 48.0982 11.7676 566 76.1979 279.15 502.721
531 0 50.0864 13.337 668 73.0958 279.359 502.567
532 0 53.1019 14.105 749 71.4499 279.103 501.495
533 0 52.2106 12.7752 667 75.1109 279.124 499.415
534 0 54.0639 13.558 733 72.6971 278.235 500.659
535 0 56.1151 13.4545 755 73.2185 277.648 499.029
536 0 59.079 14.1336 835 71.4563 278.23 498.731
537 0 61.1522 14.8482 908 70.2819 278.554 498.182
538 0 61.1856 14.9055 912 71.0439 279.95 495.693
539 0 63.0897 14.0276 885 72.3537 280.046 493.933
540 0 65.0604 12.6344 822 74.1083 279.493 494.799
541 0 66.1573 12.9691 858 74.1538 279.745 492.508
542 0 70.1614 14.6519 1028 70.4407 279.794 494.687
543 0 72.0887 14.0105 1010 71.3099 279.433 492.92
544 0 75.0918 13.4236 1008 72.0754 279.162 490.146
545 0 78.2069 12.6843 992 72.9597 279.182 489.513
546 0 80.0709 13.4756 1079 71.0037 278.606 488.779
547 0 84.1187 14.8243 1247 69.6584 279.641 486.31
548 0 87.0777 14.5158 1264 69.0949 279.165 487.384
549 1 42.0825 12.6418 532 72.1729 279.325 505.861
550 0 45.0975 10.7766 486 73.9342 279.28 505.021
551 0 46.1203 12.6192 582 72.5361 279.455 504.536
552 0 46.1274 12.3788 571 73.0175 278.569 503.205
553 0 48.1673 11.6884 563 73.833 278.869 503.156
554 0 50.109 13.5505 679 70.2622 279.49 504.028
555 0 52.0588 12.8508 669 71.5082 279.054 502.752
556 0 51.1072 12.0727 617 74.175 279.075 501.442
557 0 55.0356 13.0279 717 72.2301 279.172 500.739
558 0 58.0622 13.3478 775 70.9974 279.37 500.547
559 0 59.0733 13.7118 810 70.4827 279.259 498.602
560 0 61.0653 14.0178 856 69.2301 279.502 499.377
561 0 62.0829 14.7706 917 69.0109 278.494 496.425
562 0 61.1062 12.061 737 73.6947 278.472 496.104
563 0 66.09 14.4197 953 69.5016 278.707 494.248
564 0 69.1512 14.8804 1029 68.585 278.545 493.534
565 0 69.1193 13.2959 919 71.2568 278.491 494.148
566 0 72.083 13.4706 971 70.5561 278.279 492.478
567 0 75.0453 13.3919 1005 70.3552 277.85 492.004
568 1 39.0454 12.5239 489 70.8303 277.994 508.779
569 0 39.0297 10.7867 421 74.7055 277.898 508.028
570 0 43.1278 12.7528 550 69.1109 278.224 509.589
571 0 43.0463 13.9153 599 69.3339 278.768 507.182
572 0 45.0607 12.7162 573 71.4799 278.895 507.436
573 0 44.0558 12.802 564 72.6578 278.67 505.241
574 0 47.0605 13.1745 620 71.9226 279.026 504.829
575 0 48.0514 13.9434 670 70.0418 278.794 507.04
576 0 49.0676 12.9617 636 72.5393 278.761 504.324
577 0 51.0246 14.052 717 70.8452 278.144 501.661
578 0 52.0553 13.793 718 71.3273 278.513 502.472
579 0 56.0605 14.3952 807 69.4052 278.722 502.425
580 0 54.0733 13.2968 719 73.1474 278.868 502.401
581 0 57.0588 15.5278 886 68.8996 278.511 501.142
582 0 58.0904 13.4618 782 73.0665 279.317 499.919
583 0 58.058 12.7803 742 74.3288 278.964 501.057
584 0 61.1547 13.6375 834 72.6775 278.522 498.788
585 0 63.0853 13.1092 827 73.4111 278.493 497.871
586 0 65.0566 13.7111 892 72.9249 278.776 494.954
587 0 66.0856 13.6036 899 72.6262 279.376 497.306
588 0 70.0683 13.3441 935 72.6652 278.772 495.389
589 0 72.2058 13.3507 964 72.8766 279.028 494.366
590 1 38.0355 12.0151 457 74.7112 279.105 510.895
591 0 40.0357 12.5638 503 74.6262 279.557 509.364
592 0 40.0366 12.1139 485 76.6577 279.901 509.035
593 0 43.0252 11.807 508 75.6339 279.984 508.752
594 0 43.1246 11.7798 508 77.0965 280.136 507.378
595 0 45.0345 14.4778 652 72.6687 280.074 504.544
596 0 45.0766 12.8892 581 75.9931 279.89 504.955
597 0 48.0108 12.5805 604 75.7798 279.993 504.013
598 0 47.0556 12.2621 577 77.3605 279.936 504.719
599 0 49.035 11.7875 578 77.5519 279.554 503.393
600 0 52.0435 14.6416 762 72.3032 279.769 502.517
601 0 54.049 13.9503 754 73.5318 279.818 501.581
602 0 57.0632 13.7567 785 72.6127 279.889 500.973
603 0 58.0229 13.96 810 72.7309 279.662 500.9
604 0 59.0846 13.9969 827 72.9698 279.868 500.167
605 0 61.0711 13.8036 843 73.2112 280.253 498.692
606 0 62.0336 14.3793 892 72.62 279.763 496.863
607 0 63.1687 13.3452 843 74.6572 279.826 496.512
608 0 66.0745 13.4545 889 74.2126 279.76 495.774
609 0 68.0522 14.2685 971 72.5932 279.806 493.847
610 1 31.0316 11.021 342 79.5936 279.585 511.269
611 0 32.0101 10.5904 339 78.5575 279.248 513.118
612 0 36.0124 12.1903 439 76.0843 279.626 511.292
613 0 38.0396 13.7225 522 73.0058 279.596 511.044
614 0 37.0248 12.181 451 78.3526 279.468 508.142
615 0 38.0461 12.774 486 77.3086 279.442 507.846
616 0 40.0808 12.4499 499 77.3126 279.651 508.687
617 0 42.0214 14.2308 598 74.4448 279.674 508.189
618 0 41.0437 13.1323 539 77.6419 279.568 506.625
619 0 43.0426 11.6861 503 79.9463 279.863 507.167
620 0 44.0631 13.0495 575 77.4139 279.595 506.461
621 0 47.179 13.8409 653 75.5268 279.45 507.224
622 0 49.1096 13.704 673 76.1293 279.988 504.502
623 0 52.1113 14.7377 768 73.1094 279.65 504.896
624 0 51.1844 14.5748 746 75.0523 279.205 503.899
625 0 54.0896 13.681 740 76.0743 279.23 501.516
626 0 56.0942 12.6751 711 77.5218 279.302 500.076
627 0 55.0704 13.9639 769 75.4356 279.263 502.153
628 0 61.0476 14.1857 866 74.4758 279.311 500.606
629 0 60.1192 13.6562 821 76.2034 279.527 499.717
630 0 62.1171 12.9433 804 77.8731 279.664 497.803
631 0 64.0723 13.8125 885 75.8814 279.217 495.62
632 0 65.0895 14.1498 921 75.6004 279.512 493.853
633 0 69.0427 15.2949 1056 72.9555 279.549 494.894
634 0 73.1465 13.2474 969 75.9061 280.357 494.232
635 0 72.0388 13.34 961 76.4797 280.199 491.855
636 0 74.0755 13.0408 966 76.6242 279.693 491.181
637 1 37.049 12.0651 447 77.4362 279.691 507.271
638 0 38.0797 11.3971 434 77.8848 279.774 507.567
639 0 38.0443 11.3552 432 78.4699 279.775 506.495
640 0 40.0132 11.7461 470 76.5213 280.057 508.755
641 0 44.1014 12.1311 535 75.6056 279.994 506.032
642 0 42.1215 12.369 521 76.2937 279.259 505.211
643 0 46.1072 12.2757 566 75.841 279.836 504.866
644 0 47.0257 13.5883 639 73.6745 279.969 503.715
645 0 48.0591 12.7967 615 74.9463 280.236 503.911
646 0 52.1803 12.4568 650 74.1308 279.812 504.257
647 0 51.0935 12.526 640 74.8188 280.367 503.748
648 0 53.0356 13.1044 695 73.954 280.452 500.37
649 0 56.1315 14.3413 805 71.1217 279.217 500.114
650 0 57.0391 13.1314 749 73.1789 279.575 497.956
651 0 58.1349 11.7141 681 75.58 279.344 498.439
652 0 60.0955 12.1307 729 74.8875 279.333 496.162
653 0 62.0347 13.702 850 71.8988 279.602 494.878
654 0 66.025 12.8133 846 72.6915 279.39 494.97
655 0 68.0662 12.7229 866 72.7506 279.364 494
656 0 71.1294 14.2276 1012 69.8587 279.057 493.131
657 0 72.0532 12.0605 869 73.1128 279.18 492.75
658 0 77.097 13.5803 1047 70.2617 279.458 491.077
659 0 79.0371 11.9564 945 73.3884 279.564 487.92
660 0 82.0792 12.3783 1016 72.0492 279.026 485.844
661 1 42.026 8.68511 365 73.0164 279.438 504.989
662 0 45.1128 9.28783 419 69.8162 279.597 507.742
663 0 44.0082 10.1572 447 70.2975 279.597 505.21
664 0 47.0536 9.39354 442 71.6629 279.471 503.986
665 0 49.0215 11.6684 572 68.9633 279.512 502.215
666 0 50.1066 8.36218 419 75.0573 279.117 502.024
667 0 53.099 10.9607 582 68.9553 278.818 502.342
668 0 54.1095 9.35141 506 71.1265 278.953 502.253
669 0 55.1359 10.6827 589 70.1358 278.428 498.846
670 0 56.0755 12.0373 675 68.7793 278.684 497.23
671 0 58.0682 11.2971 656 69.2104 278.663 497.561
672 0 58.0924 10.5866 615 70.5756 278.525 494.811
673 0 60.0686 9.88869 594 71.5067 278.618 494.256
674 0 65.1609 10.1134 659 69.4492 278.674 496.41
675 0 66.0811 10.5779 699 69.0758 278.814 493.388
676 0 67.0881 10.7471 721 68.2372 278.528 494.68
677 0 71.1248 11.7681 837 67.1541 278.183 490.722
678 0 71.0566 10.8927 774 69.3592 278.209 488.687
679 0 75.0934 10.3072 774 69.5116 278.588 488.928
680 1 39.0565 10.5232 411 65.7762 278.9 506.92
681 0 39.1174 9.33089 365 67.6932 278.581 507.452
682 0 39.0941 10.641 416 65.6995 278.553 506.791
683 0 43.1026 11.0666 477 64.7568 277.778 505.805
684 0 42.0684 10.3403 435 65.5724 278 505.333
685 0 44.175 11.0243 487 65.3942 277.784 504.314
686 0 46.046 10.1638 468 66.8782 277.479 503.682
687 0 46.138 10.2735 474 67.5316 277.69 503.097
688 0 48.0906 10.0228 482 67.1909 277.78 504.483
689 0 49.113 10.9136 536 66.8321 277.513 501.912
690 0 49.0822 10.6556 523 67.5449 277.855 499.482
691 0 53.1359 12.2328 650 64.5523 278.137 498.089
692 0 53.0414 8.95527 475 69.3137 278.253 498.208
693 0 56.0523 10.5259 590 66.3814 277.807 498.942
694 0 59.1027 11.4208 675 65.0044 277.844 497.4
695 0 61.0828 11.5417 705 63.9447 277.96 497.654
696 0 62.0757 10.5194 653 66.3277 277.694 494.752
697 0 63.1278 10.3283 652 66.1902 278.287 493.212
698 0 67.0816 11.568 776 63.9343 278.062 493.968
699 0 66.156 9.55317 632 67.3956 278.76 491.138
700 0 69.1215 11.2555 778 64.4602 278.132 487.996
701 0 70.0741 10.5032 736 65.3696 278.23 485.655
702 0 73.0443 10.1856 744 66.3159 279.16 487.77
703 0 75.1033 8.29524 623 67.9294 279.215 485.629
704 1 39.0349 7.91599 309 66.343 278.693 507.307
705 0 43.0098 10.1605 437 64.2517 278.375 504.245
706 0 43.01 9.0444 389 66.6247 278.638 503.098
707 0 44.0915 10.637 469 65.0405 278.774 503.096
708 0 44.0422 10.8759 479 65.2651 278.539 499.766
709 0 46.024 10.9291 503 63.9582 278.686 502.006
710 0 48.1206 10.1204 487 65.2608 278.78 498.963
711 0 49.0741 10.5147 516 64.657 278.506 498.041
712 0 50.019 9.73629 487 64.54 278.729 496.394
713 0 52.0255 10.4756 545 62.6532 278.459 495.584
714 0 52.1158 10.1505 529 63.3989 278.921 495.367
715 0 54.0314 12.2521 662 61.0725 279.443 495.586
716 0 56.0949 9.35914 525 64.6362 278.966 494.979
717 0 58.0911 10.4835 609 63.7126 278.793 491.517
718 0 61.014 11.8333 722 61.8172 279.065 489.593
719 0 62.0922 8.61622 535 65.9196 278.66 490.862
720 0 64.0332 10.1978 653 63.9663 278.942 489.478
721 0 65.0781 10.3568 674 63.9184 278.883 489.007
722 0 67.0768 9.15368 614 65.3127 278.629 486.73
723 0 72.0763 10.6276 766 63.0118 278.437 487.668
724 0 74.1026 10.0941 748 63.1658 277.88 483.622
725 0 75.0801 9.70963 729 64.1001 278.632 485.557
726 1 37.0105 11.2671 417 62.5995 279.266 502.233
727 0 38.013 10.4964 399 63.8496 279.163 502.757
728 0 42.0672 12.0759 508 60.2205 279.224 501.63
729 0 41.0126 10.387 426 63.5892 279.082 499.995
730 0 43.0394 9.99084 430 63.5233 278.83 499.581
731 0 43.0495 9.82589 423 63.7896 278.622 499.915
732 0 44.0277 10.5615 465 63.3914 279.067 497.594
733 0 48.113 10.5585 508 62.1437 278.677 496.498
734 0 47.0434 11.3725 535 61.5103 278.484 495.467
735 0 50.1305 11.1708 560 61.3607 279.027 496.162
736 0 51.0523 9.02995 461 64.2364 278.759 494.879
737 0 54.0709 12.5021 676 59.5414 278.241 492.348
738 0 55.04 10.9375 602 62.1478 278.718 489.875
739 0 56.0584 10.168 570 63.2702 278.679 489.933
740 0 58.1097 10.3769 603 62.9917 279.217 491.683
741 0 62.112 12.3648 768 60.1185 279.061 490.853
742 0 63.1657 10.892 688 61.7224 279.01 489.844
743 0 62.0847 11.291 701 61.2939 279.611 486.519
744 0 64.1236 9.77798 627 62.6029 279.045 487.404
745 0 71.0718 13.9014 988 56.5435 279.032 487.116
746 0 71.0634 11.9752 851 59.7462 279.472 483.836
747 0 76.1773 12.7991 975 57.8564 279.38 483.945
748 0 77.134 11.4606 884 59.164 280.067 483.05
749 0 77.1431 11.2 864 59.9838 279.534 481.824
750 0 82.1485 11.7714 967 59.0776 279.105 477.958
751 0 83.106 10.9258 908 60.0529 279.04 479.292
752 1 43.0684 9.96091 429 61.1632 278.828 497.72
753 0 43.0307 9.96964 429 62.2284 279.068 496.979
754 0 46.0439 9.72984 448 61.8884 279.022 495.212
755 0 48.0546 11.258 541 60.6876 278.978 493.677
756 0 50.0707 11.2641 564 60.1702 279.181 493.901
757 0 50.0514 10.5492 528 60.697 279.36 493.367
758 0 54.0748 11.2252 607 59.7018 279.035 492.863
759 0 57.0291 12.7479 727 57.5818 279.029 493.345
760 0 57.0721 12.2652 700 58.5157 279.137 488.306
761 0 58.0362 10.1316 588 61.1292 279.065 490.134
762 0 59.1042 10.6591 630 61.0429 279.211 487.606
763 0 62.0452 11.959 742 58.4717 279.218 486.69
764 0 64.1696 12.8721 826 57.2784 279.098 488.677
765 0 69.0828 12.5646 868 57.5956 278.987 485.105
766 0 68.14 11.8286 806 59.3685 278.78 483.079
767 0 72.0368 12.0494 868 59.0818 278.559 482.577
768 0 72.21 11.0926 801 60.4482 279.386 484.086
769 0 78.1824 10.872 850 60.4918 278.36 481.709
770 0 80.0866 13.2606 1062 57.9878 278.242 478.86
771 0 83.0982 12.2506 1018 58.8261 278.489 481.685
772 0 84.0895 12.0943 1017 59.6883 278.999 480.169
773 1 44.0285 10.9929 484 60.4938 278.795 500.093
774 0 46.0308 12.9044 594 58.4158 278.401 499.221
775 0 47.0627 11.2616 530 61.3943 278.579 497.864
776 0 49.0265 11.8711 582 60.4725 277.911 495.558
777 0 53.0512 13.7603 730 57.8068 278.318 493.116
778 0 54.037 11.9918 648 60.659 278.423 492.636
779 0 54.0792 11.0948 600 62.1167 277.92 493.587
780 0 56.107 13.3673 750 59.4387 277.977 491.996
781 0 59.0832 13.5571 801 58.603 277.562 491.064
782 0 61.0511 12.1701 743 61.0215 278.104 488.773
783 0 64.0678 12.7365 816 59.9265 278.009 491.462
784 0 66.0774 15.9207 1052 56.3441 278.845 488.018
785 0 67.1224 12.0824 811 61.5018 279.004 486.543
786 0 70.1403 13.3447 936 59.8526 278.676 486.111
787 0 72.0664 11.2119 808 62.5285 278.498 484.582
788 0 73.0504 11.3346 828 63.0242 278.993 482.134
789 1 38.1378 10.4621 399 62.3108 278.551 502.875
790 0 41.0228 12.3102 505 59.8139 279.03 501
791 0 40.025 10.6434 426 64.3779 279.146 497.277
792 0 44.0513 12.6444 557 60.5135 278.829 497.867
793 0 45.088 11.6217 524 63.4065 279.095 496.573
794 0 47.0946 11.5512 544 62.7298 279.318 498.814
795 0 48.0963 12.9532 623 61.4205 279.421 497.003
796 0 48.1752 10.877 524 64.5592 279.206 495.275
797 0 48.0303 11.9716 575 64.2417 279.172 494.045
798 0 52.1404 12.6773 661 62.7731 279.067 493.908
799 0 53.066 12.1547 645 64.0977 278.271 491.367
800 0 55.0776 11.3658 626 65.0623 278.93 493.746
801 0 57.0388 12.623 720 63.6917 278.781 491.444
802 0 61.108 13.1898 806 62.531 279.636 489.337
803 0 60.1339 11.2582 677 65.6957 279.012 488.908
804 0 65.0831 12.799 833 63.5594 279.14 486.226
805 0 68.3805 12.4451 851 63.5993 279.249 487.716
806 0 70.175 14.6633 1029 60.482 279.179 486.699
807 0 71.1946 13.0768 931 62.7111 279.275 484.554
808 0 74.1069 12.1176 898 63.9009 279.531 482.682
809 0 77.1082 12.9299 997 62.7753 279.166 482.155
810 1 39.0717 10.7239 419 64.8353 278.921 499.029
811 0 41.0782 9.61581 395 66.6734 278.853 499.147
812 0 46.0624 11.441 527 62.7135 279.205 499.076
813 0 45.0134 11.3077 509 64.2004 279.434 497.102
814 0 47.0501 12.2848 578 62.6142 279.239 496.495
815 0 51.1412 13.5507 693 60.0996 279.085 495.289
816 0 52.223 11.5849 605 62.2413 279.385 495.83
817 0 53.1539 11.6078 617 62.6904 279.42 493.235
818 0 52.0703 11.35 591 63.9256 279.445 491.777
819 0 57.1602 11.9839 685 62.2146 279.702 492.984
820 0 59.2197 11.0267 653 62.4732 279.772 492.13
821 0 60.0317 13.0764 785 60.9656 279.343 488.575
822 0 62.1363 11.4426 711 62.5232 279.743 487.624
823 0 65.0179 12.0582 784 61.5548 279.739 488.75
824 0 67.2687 12.3088 828 60.9396 279.016 486.647
825 0 68.1996 11.349 774 62.7106 278.776 485.752
826 0 72.1326 13.0454 941 60.2476 279.12 482.261
827 0 74.088 12.0127 890 61.3034 278.578 483.155
828 0 78.1399 12.5672 982 61.164 278.984 480.612
829 1 39.1929 11.7623 461 61.7072 279.505 501.167
830 0 43.0643 12.5394 540 60.7148 278.846 499.45
831 0 42.0398 12.845 540 60.863 279.241 500.415
832 0 45.0786 13.6206 614 60.6596 279.171 497.637
833 0 49.0854 11.1642 548 62.823 278.85 497.44
834 0 49.1143 13.5602 666 60.4655 279.125 494.892
835 0 51.024 13.1703 672 61.064 278.878 494.817
836 0 55.1092 13.1376 724 60.8798 279.115 493.019
837 0 55.0502 12.9336 712 61.4789 279.32 490.142
838 0 58.0665 12.7784 742 61.8073 279.36 490.964
839 0 58.0904 11.7059 680 63.5368 279.706 491.163
840 0 59.1334 11.9898 709 63.9436 280.03 489.189
841 0 62.116 12.2352 760 63.6105 279.247 487.404
842 0 65.0515 11.5139 749 64.1122 279.601 487.336
843 0 67.0763 12.1354 814 64.8096 279.455 485.426
844 0 67.134 11.7228 787 65.0432 279.445 486.648
845 0 70.1782 11.3568 797 65.4743 279.947 485.818
846 0 73.2452 11.4683 840 65.4274 279.793 482.04
847 0 78.1727 12.6387 988 63.5111 280.235 482.184
848 0 79.0748 12.0266 951 64.7319 280.05 479.761
849 1 37.0466 11.9309 442 65.0837 279.824 500.253
850 0 37.165 11.2202 417 66.8921 279.64 500.106
851 0 41.0458 9.59904 394 68.2081 279.609 499.947
852 0 41.0356 11.7459 482 66.3299 279.637 498.178
853 0 44.0242 12.2206 538 65.0651 279.63 498.926
854 0 47.0817 12.9987 612 64.0229 279.65 498.051
855 0 47.0614 14.088 663 63.2715 279.278 494.768
856 0 49.0721 11.799 579 65.9482 278.972 494.808
857 0 50.0978 12.0764 605 66.1488 279.193 492.978
858 0 52.0264 13.397 697 64.5638 279.215 491.945
859 0 53.1431 12.8144 681 65.301 279.051 492.815
860 0 56.0255 11.0485 619 67.5687 279.123 491.63
861 0 57.0674 12.7744 729 64.9451 279.796 493.726
862 0 60.1182 12.5586 755 65.8132 279.339 491.837
863 0 63.0306 12.6764 799 65.5469 278.984 489.517
864 0 65.1225 12.2231 796 66.049 278.786 490.604
865 0 66.1809 11.9068 788 66.9746 279.94 489.211
866 0 70.1159 13.3778 938 65.3838 279.614 485.321
867 0 72.0673 12.8352 925 66.1741 279.492 486.6
868 0 76.2808 13.6601 1042 64.7457 279.142 485.889
869 0 79.1098 15.409 1219 62.5439 279.052 483.315
870 0 82.2411 14.7493 1213 64.108 279.57 481.932
871 1 40.0362 11.4896 460 68.6152 279.58 501.439
872 0 42.1144 13.0834 551 67.314 279.893 498.947
873 0 44.0548 13.3016 586 66.8242 279.295 498.884
874 0 45.0749 12.0244 542 67.8672 279.732 499.873
875 0 48.0659 12.8781 619 66.6349 279.578 497.315
876 0 52.2572 13.3953 700 64.52 279.853 496.893
877 0 50.0523 12.6668 634 67.3612 280.435 496.197
878 0 53.0397 12.9714 688 65.7936 280.422 496.823
879 0 54.2761 11.6257 631 68.4374 279.997 494.063
880 0 54.0146 12.2004 659 67.8953 280.331 493.24
881 0 57.064 14.1946 810 64.9482 280.27 491.914
882 0 60.1509 13.4163 807 65.689 280.089 490.519
883 0 59.0485 11.9393 705 68.156 279.84 490.528
884 0 61.0506 13.153 803 67.0112 280.286 490.115
885 0 62.1179 14.0861 875 66.1189 280.743 488.6
886 0 67.1047 12.9946 872 66.4748 280.184 488.653
887 0 67.0334 13.9333 934 65.6092 280.325 487.309
888 0 68.1161 12.8751 877 67.919 280.239 484.121
889 0 72.1428 13.9584 1007 65.4568 279.598 484.275
890 0 76.1539 14.0899 1073 65.2199 279.501 484.077
891 0 76.0453 12.4926 950 67.8726 279.767 483.506
892 0 80.1866 12.2589 983 68.0834 279.423 479.995
893 0 81.0799 15.2936 1240 64.1516 279.951 478.61
894 0 83.1337 11.4875 955 68.8618 279.232 478.996
895 1 44.1405 11.3048 499 68.1764 279.737 499.07
896 0 45.0153 11.5516 520 68.0481 278.898 496.794
897 0 46.0754 12.5012 576 67.7743 279.899 495.335
898 0 50.0499 11.8082 591 67.9239 279.651 494.322
899 0 53.2277 13.0947 697 65.3242 279.327 493.986
900 0 54.2861 11.6236 631 67.0491 278.929 494.837
901 0 56.1098 12.226 686 66.0729 278.853 493.424
902 0 58.0378 13.2327 768 64.8685 279.372 492.379
903 0 59.1092 15.1076 893 62.9227 279.336 489.264
904 0 61.0574 13.5446 827 64.6566 278.294 488.625
905 0 62.0801 12.5 776 65.7526 278.89 488.686
906 0 67.0545 14.5106 973 63.2662 279.564 486.844
907 0 66.1355 12.1115 801 66.2759 279.476 487.029
908 0 68.1248 12.5652 856 65.9801 279.173 482.928
909 0 70.0838 12.8132 898 65.4176 279.654 482.836
910 0 76.2078 12.7021 968 64.5362 279.392 482.947
911 0 78.2139 12.4275 972 65.07 279.468 481.945
912 0 82.0708 13.9026 1141 63.6827 279.521 480.284
913 0 82.087 11.8655 974 66.5554 280.158 478.807
914 1 42.3078 12.2436 518 64.6178 279.502 499.066
915 0 42.1152 14.674 618 63.0469 279.259 498.765
916 0 43.0552 13.7962 594 64.4192 278.71 497.234
917 0 46.1307 12.573 580 65.1707 278.769 497.357
918 0 49.0451 13.8852 681 63.4376 278.357 497.275
919 0 50.2702 12.7113 639 65.5493 279.03 496.277
920 0 50.2323 13.2584 666 65.9099 279.33 495.092
921 0 52.2038 12.3937 647 67 278.907 493.056
922 0 53.1802 11.3764 605 68.8661 279.251 493.924
923 0 55.074 13.963 769 65.7594 279.822 493.064
924 0 58.1694 12.7386 741 67.2699 280.441 492.113
925 0 57.0199 13.2761 757 66.8758 280.099 492.975
926 0 59.0631 12.7491 753 67.8141 279.997 489.894
927 0 63.2777 13.8596 877 66.1243 280.542 489.46
928 0 65.1238 12.6528 824 67.7743 279.746 487.337
929 0 67.1765 13.4124 901 66.7436 279.646 485.819
930 0 69.0423 14.2956 987 65.9858 279.824 487.282
931 0 75.2963 13.2277 996 66.8464 279.476 484.838
932 1 37.0707 10.2237 379 71.0026 279.427 500.372
933 0 37.0471 11.6338 431 70.4455 279.478 499.773
934 0 39.0649 9.93219 388 72.4562 279.474 501.039
935 0 42.1652 12.4273 524 69.0668 280 499.908
936 0 44.0989 13.4924 595 68.442 279.857 499.765
937 0 43.0186 12.9014 555 70.6486 279.656 495.982
938 0 47.043 13.392 630 69.1349 279.314 495.417
939 0 48.0236 11.4319 549 72.7359 279.335 494.854
940 0 50.1668 11.681 586 72.9096 279.94 493.647
941 0 52.0794 13.7098 714 69.6457 279.909 494.161
942 0 51.0621 12.5338 640 72.2234 280.019 494.241
943 0 53.1297 13.5894 722 71.1399 280.078 493.906
944 0 56.0675 12.1996 684 72.9605 279.86 492.158
945 0 61.3497 12.7629 783 71.3397 279.66 493.526
946 0 61.1717 14.0751 861 70.7004 279.598 490.328
947 0 63.0248 13.8517 873 71.1031 278.912 489.632
948 0 68.1512 13.6461 930 70.9753 279.241 488.038
949 0 69.189 12.1117 838 73.1217 279.918 490.488
950 0 72.4243 13.5728 983 71.0905 279.63 488.165
951 1 36.0763 11.0322 398 73.5829 279.369 503.111
952 0 40.3492 11.7474 474 71.2827 279.981 503.833
953 0 42.1854 11.9473 504 71.6409 279.268 502.401
954 0 44.0919 11.8843 524 70.8531 279.506 503.284
955 0 44.3248 12.7243 564 70.9539 278.447 501.862
956 0 43.2528 11.6755 505 73.503 278.982 499.838
957 0 44.0874 11.0235 486 75.216 278.914 497.903
