time division length width area intensity CMx CMy
0 0 47.0648 11.7073 551 56.9401 883.318 526.027
1 0 48.0844 12.894 620 55.3274 882.213 527.837
2 0 48.0844 12.894 620 154.653 881.213 527.837
3 0 50.032 15.0304 752 53.3524 882.847 526.988
4 0 51.1045 13.5996 695 54.6763 882.207 527.419
5 0 53.051 11.7434 623 56.9374 882.029 527.249
6 0 54.0244 14.8637 803 54.3138 882.227 524.991
7 0 54.0248 11.4392 618 58.4628 881.523 523.697
8 0 57.0583 14.161 808 55.5012 881.83 522.1
9 0 58.2126 12.5231 729 57.2661 880.816 524.853
10 0 59.0996 14.2471 842 55.5891 880.745 525.51
11 0 61.0605 13.937 851 56.8496 881.213 519.8
12 0 63.0727 12.2716 774 58.0698 881.32 523.213
13 0 67.0532 14.6153 980 54.9174 881.788 523.12
14 0 70.1379 12.8319 900 57.7967 881.666 519.932
15 0 72.1865 13.3959 967 56.9772 881.665 519.056
16 0 73.0746 13.5067 987 57.6464 881.897 517.675
17 0 76.0326 12.6788 964 58.8776 881.669 518.896
18 0 80.1828 14.891 1194 56.242 881.115 516.902
19 0 82.1155 14.1752 1164 57.872 881.366 513.231
20 0 84.0652 14.2389 1197 58.4261 882.105 511.541
21 1 41.027 11.1878 459 60.6819 881.904 532.34
22 0 42.0876 11.7137 493 59.6471 881.511 533.099
23 0 45.0141 12.6405 569 58.9121 879.819 531.367
24 0 43.0114 10.2531 441 63.4127 880.719 530.565
25 0 49.019 11.7098 574 61.0383 880.777 528.707
26 0 48.1029 12.5356 603 59.3184 880.925 529.139
27 0 52.0138 12.3429 642 59.7103 881.676 528.341
28 0 53.0935 12.9394 687 60.0247 881.249 527.285
29 0 53.0575 12.4205 659 61.2549 881.476 526.373
30 0 57.082 12.2981 702 60.6838 881.839 524.722
31 0 56.0675 11.4326 641 62.3042 881.83 525.084
32 0 60.1553 11.6033 698 61.3983 881.579 524.232
33 0 60.0423 12.0248 722 62.5748 881.018 520.349
34 0 63.0331 13.0408 822 60.5073 881.738 521.764
35 0 64.0801 10.5493 676 63.7944 881.359 521.3
36 0 67.0421 11.4107 765 62.3569 882.463 519.532
37 0 68.0625 12.4004 844 62.051 882.066 517.863
38 0 70.1231 11.708 821 62.8806 881.248 519.682
39 0 74.0772 12.1225 898 62.4031 881.112 517.39
40 0 75.047 12.8986 968 61.8295 882.284 516.568
41 1 37.0227 9.8318 364 62.9148 881.135 533.799
42 0 38.1075 9.84059 375 63.3173 882.605 533.792
43 0 40.0438 11.2127 449 61.7082 882.388 532.196
44 0 40.04 8.94107 358 64.6452 883.304 533.33
45 0 43.0605 11.5651 498 61.1365 883.004 533.116
46 0 44.0617 12.4371 548 60.5894 883.192 530.628
47 0 43.0313 10.7131 461 63.6464 883.171 530.072
48 0 47.0257 11.4618 539 62.1095 882.874 529.141
49 0 46.1136 9.93199 458 64.2031 883.314 530.09
50 0 49.0896 11.6114 570 62.0158 882.788 529.79
51 0 51.1609 12.2359 626 61.0639 883.631 527.118
52 0 52.0966 10.4997 547 63.075 883.36 528.612
53 0 53.0389 9.65329 512 64.2148 882.982 527.381
54 0 54.0568 11.9504 646 61.5495 883.32 525.091
55 0 55.0632 10.1338 558 63.871 883.081 524.776
56 0 59.0268 11.9946 708 60.8983 883.056 524.662
57 0 59.043 11.805 697 61.2123 883.462 524.443
58 0 63.0496 11.0072 694 61.7622 884.058 521.974
59 0 65.1307 12.7282 829 59.5802 883.056 520.951
60 0 65.1511 10.3605 675 63.0326 883.831 518.67
61 0 66.1131 11.9946 793 61.0404 883.24 519.974
62 0 71.2133 11.5007 819 61.4811 883.067 516.772
63 0 73.1209 10.7903 789 61.6603 883.411 518.175
64 1 37.1546 9.87765 367 61.1035 883.905 532.185
65 0 40.056 10.036 402 59.6642 884.055 532.637
66 0 37.0618 8.985 333 62.7117 884.456 530.811
67 0 39.0484 9.4498 369 61.9919 883.274 530.686
68 0 41.204 10.9455 451 59.1996 882.96 531.439
69 0 44.0444 9.30879 410 61.1122 883.429 528.544
70 0 43.0278 10.7837 464 58.8362 882.914 527.093
71 0 45.0723 10.6939 482 58.3133 883.147 529.938
72 0 46.1223 9.30136 429 60.2727 882.867 529.506
73 0 46.0584 10.3347 476 59.0126 882.294 527.38
74 0 48.0574 7.96963 383 60.8433 882.833 528.621
75 0 51.0676 11.1617 570 58.1772 883.33 523.13
76 0 51.1875 8.08792 414 61.7029 883.394 522.713
77 0 52.087 8.4666 441 61.3832 882.943 520.909
78 0 54.0283 7.66266 414 61.4493 883.027 522.906
79 0 56.1097 10.4438 586 59.0375 882.732 522.038
80 0 59.0508 9.29709 549 60.3934 883.348 519.834
81 0 60.041 10.3929 624 59.484 883.042 517.889
82 0 62.1199 9.86801 613 59.4013 883.581 519.659
83 0 62.1138 9.11231 566 61.3852 883.012 514.719
84 0 66.1721 10.0495 665 60.1459 883.417 517.82
85 0 69.1062 10.766 744 59.7231 883.688 515.527
86 0 69.1961 10.0295 694 59.7853 883.748 518.715
87 0 70.1403 10.1796 714 60.7325 883.927 511.716
88 0 75.1689 10.7358 807 59.4647 883.66 512.326
89 1 37.0442 6.45175 239 60.4728 883.707 530.025
90 0 40.0413 10.2144 409 57.0513 882.87 529.648
91 0 40.0791 9.2068 369 57.8862 883.68 531.694
92 0 43.0087 10.2305 440 56.5659 883.895 528.557
93 0 43.0417 10.455 450 58.6422 883.231 527.118
94 0 44.0335 10.3331 455 58.9231 883.284 525.743
95 0 45.0813 10.9358 493 58.4158 883.493 526.661
96 0 45.1491 9.90052 447 59.7718 882.642 523.678
97 0 48.1139 11.2442 541 57.7227 883.837 526.116
98 0 50.1087 10.9961 551 58.3176 883.465 526.441
99 0 50.1141 9.31874 467 61.1692 883.497 522.893
100 0 51.1873 10.2174 523 59.7782 883.694 522.895
101 0 53.0908 9.64386 512 60.3945 883.586 523.096
102 0 55.1217 11.1027 612 59.1078 883.41 519.99
103 0 56.2144 10.3176 580 59.6483 883.374 519.228
104 0 57.1464 11.2518 643 57.3375 883.795 520.986
105 0 58.0497 9.80194 569 59.2162 883.358 519.46
106 0 61.1131 11.2905 690 57.3145 883.594 517.149
107 0 63.0547 9.67414 610 58.8082 884.212 517.675
108 0 64.0842 10.377 665 58.6617 883.39 514.241
109 0 66.1397 11.0826 733 57.9004 883.817 514.965
110 0 69.1472 10.5283 728 57.625 882.541 516.591
111 0 71.1005 9.88741 703 58.7354 881.522 514.164
112 0 73.097 9.68576 708 59.5424 882.679 514.83
113 0 75.0978 8.32248 625 60.8752 882.907 511.045
114 0 79.1976 12.0585 955 57.1393 882.507 508.542
115 1 40.0717 9.45804 379 59.467 883.142 525.852
116 0 43.062 10.0553 433 57.5566 882.499 528.771
117 0 43.0675 9.00911 388 59.2577 883.977 527.827
118 0 44.0933 9.3665 413 58.9298 884.252 526.613
119 0 46.0694 8.03137 370 59.5027 884.127 525.486
120 0 49.0388 10.8893 534 56.1873 883.654 525.255
121 0 50.1137 10.5959 531 56.6667 882.721 523.331
122 0 49.0358 10.2986 505 57.1386 883.469 522.976
123 0 51.1154 10.6426 544 57.1875 883.057 519.489
124 0 54.0907 9.29919 503 58.1173 884.016 521.736
125 0 55.0998 10.9801 605 56.6793 882.598 519.493
126 0 58.1166 11.1672 649 56.5532 882.427 519.461
127 0 57.0923 10.4918 599 57.6477 882.534 519.758
128 0 62.0434 10.4927 651 57.2074 882.708 516.668
129 0 62.2002 11.7042 728 55.5604 883.706 514.106
130 0 63.1292 8.91822 563 57.6554 883.712 516.835
131 0 68.1885 10.383 708 56.4463 882.812 513.832
132 0 68.2131 9.3677 639 58.2285 883.33 514.443
133 0 71.1131 10.0825 717 57.304 884.018 512.568
134 0 74.1524 10.9369 811 56.7608 883.416 508.543
135 0 75.1448 8.99596 676 58.6686 883.154 505.704
136 0 80.1576 10.7164 859 56.3527 883.778 507.395
137 0 82.2933 9.10159 749 58.0267 884.138 504.587
138 1 42.0568 9.48716 399 55.2256 884.273 526.404
139 0 45.1438 10.4333 471 54.0637 883.679 524.764
140 0 44.0792 8.98384 396 56.1136 884.98 524.848
141 0 47.1033 11.3368 534 53.927 884.008 523.618
142 0 47.1049 7.0481 332 57.7831 883.711 525.795
143 0 49.0375 11.6645 572 54.1538 882.738 522.203
144 0 51.0641 9.55661 488 55.793 883.213 524.367
145 0 53.0936 10.5286 559 55.4812 884.02 520.399
146 0 52.0635 9.81495 511 56.3444 883.748 521.325
147 0 54.0633 10.9316 591 55.1083 883.497 520.592
148 0 56.0528 10.2404 574 56.7143 883.256 520.622
149 0 58.0259 10.0817 585 56.7675 883.227 518.677
150 0 61.119 11.404 697 55.7805 882.996 516.346
151 0 61.0871 11.1153 679 57.0442 884.33 515.882
152 0 62.0677 11.133 691 57.0116 883.534 515.059
153 0 63.0573 10.7204 676 57.6257 883.516 515.466
154 0 67.0528 11.8712 796 56.505 882.758 516.745
155 0 69.0905 10.783 745 57.3624 882.787 513.924
156 0 69.0956 11.2887 780 57.5295 884.138 513.924
157 0 72.1874 10.1264 731 58.2572 883.906 510.367
158 0 73.1667 9.70387 710 58.8423 884.476 511.999
159 1 36.0545 10.0404 362 57.4972 885.318 530.89
160 0 36.0745 10.3397 373 57.8579 885.07 529.113
161 0 37.0396 9.15238 339 58.8142 885.593 528.891
162 0 39.0558 8.93592 349 59.0143 884.711 529.593
163 0 40.1043 8.72725 350 59.4686 884.82 527.857
164 0 40.0728 9.98182 400 58.7875 885.028 526.822
165 0 43.054 10.5681 455 57.3912 885.266 527.202
166 0 42.0808 9.3867 395 59.3646 886.137 524.696
167 0 47.1026 11.4643 540 56.0463 886.333 525.687
168 0 45.048 10.6331 479 58.3591 886.466 523.413
169 0 47.0384 10.2895 484 58.4091 886.231 523.019
170 0 50.0562 11.567 579 56.9879 885.919 523.368
171 0 51.0333 11.228 573 57.8499 885.384 519.81
172 0 51.0284 10.406 531 58.4934 885.168 521.844
173 0 54.1401 12.8555 696 56.5172 884.8 517.675
174 0 54.0452 11.5089 622 58.0659 885.1 517.686
175 0 57.077 10.8976 622 58.1093 884.423 518.334
176 0 57.121 10.4515 597 59.2178 883.598 515.353
177 0 59.0355 12.0097 709 57.6474 883.804 514.694
178 0 60.0294 11.7442 705 57.1362 883.854 517.743
179 0 63.0651 11.3058 713 58.0996 884.323 514.895
180 0 64.0601 10.6462 682 58.0557 883.71 517.141
181 0 65.1273 11.6541 759 57.8617 882.685 513.926
182 0 70.099 12.6107 884 56.0973 882.997 513.817
183 0 70.1478 11.547 810 57.963 882.137 511.028
184 0 72.0656 11.545 832 58.3233 882.055 508.647
185 0 74.1774 9.71994 721 59.6921 881.76 511.229
186 0 76.1192 10.9828 836 59.1041 881.72 509.081
187 0 77.0723 11.1584 860 58.7302 881.507 509.291
188 1 42.0194 11.2805 474 56.9198 881.331 526.394
189 0 43.0215 11.4594 493 56.5923 881.529 526.809
190 0 46.0318 14.3596 661 54.2905 880.681 526.067
191 0 45.1355 11.6981 528 58.0625 879.801 523.83
192 0 48.0979 10.9152 525 58.2343 879.926 524.263
193 0 47.0628 11.219 528 57.8333 880.097 526.697
194 0 48.0661 11.2553 541 57.3604 880.482 526.244
195 0 51.1454 12.0832 618 57.0194 879.943 524.489
196 0 49.1348 10.4203 512 59.3457 880.602 523.959
197 0 56.062 12.1651 682 56.4707 880.924 524.358
198 0 55.1387 11.9154 657 57.5388 880.47 524.186
199 0 58.0973 14.665 852 54.1185 880.015 522.842
200 0 57.0853 10.4756 598 58.2893 879.6 524.311
201 0 58.1139 10.944 636 58.6682 878.649 521.03
202 0 63.0964 11.4587 723 57.1646 878.588 521.451
203 0 62.0398 12.2985 763 56.9423 879.249 520.464
204 0 62.0837 9.37444 582 59.8625 879.194 522.912
205 0 65.0929 11.9368 777 57.3874 878.776 517.514
206 0 69.0916 12.0275 831 57.3141 879.84 517.353
207 0 71.2244 10.9934 783 58.5019 879.971 517.884
208 0 72.1166 12.8681 928 56.264 879.93 518.37
209 0 75.0975 10.4131 782 59.1176 880.015 515.913
210 0 79.1117 10.1502 803 59.8929 878.89 513.76
211 0 78.1655 10.1196 791 59.5588 879.463 515.343
212 0 80.077 9.99038 800 60.025 879.391 513.086
213 0 84.1222 13.3496 1123 57.3606 878.636 510.805
214 1 43.0313 10.8061 465 58.7247 878.288 530.634
215 0 45.1138 11.3269 511 58.2544 878.331 530.714
216 0 45.044 9.65722 435 60.4736 878.177 532.069
217 0 46.0272 9.99408 460 60.5 877.215 528.489
218 0 49.0901 10.4909 515 59.3942 877.318 530.734
219 0 48.0895 10.2101 491 60.947 877.741 526.145
220 0 52.0574 11.5257 600 59.465 877.18 525.618
221 0 51.1337 11.5971 593 60.0169 877.835 526.745
222 0 53.0659 11.5705 614 59.8143 877.909 525.52
223 0 56.0568 11.8273 663 59.3273 878.36 525.52
224 0 57.0332 11.0287 629 60.6375 877.866 521.339
225 0 58.023 10.1167 587 62.1056 878.019 522.148
226 0 59.1243 11.1798 661 60.879 878.014 519.791
227 0 61.1332 10.1418 620 61.7564 878.113 516.948
228 0 64.0685 11.5345 739 60.5995 878.16 516.491
229 0 66.1152 12.3118 814 59.6486 877.602 515.061
230 0 67.2599 11.2549 757 60.7873 877.456 513.345
231 0 71.0727 11.2561 800 60.7538 876.24 510.834
232 0 74.1121 11.5366 855 60.4608 878.201 511.552
233 0 74.2877 9.05938 673 62.9257 877.97 509.386
234 0 80.1067 9.66211 774 62.0814 876.99 505.066
235 0 81.0883 11.5923 940 60.5223 877.246 505.407
236 0 80.1325 10.7447 861 61.6609 877.872 503.778
237 0 87.2401 10.6373 928 61.666 877.445 505.798
238 1 45.036 8.10463 365 61.663 877.753 527.512
239 0 45.0169 9.66304 435 60.5448 878.08 525.159
240 0 47.1251 11.1406 525 60.0533 877.71 522.4
241 0 48.0896 10.3557 498 61.0884 877.464 522.251
242 0 52.0697 10.2555 534 60.4494 878.936 523.524
243 0 53.0447 12.1972 647 58.5255 878.298 522.325
244 0 54.1832 11.5534 626 60.0431 877.446 520.102
245 0 54.1832 11.6457 631 107.254 878.48 520.051
246 0 57.1051 9.84151 562 61.0641 878.027 521.749
247 0 60.0686 10.7211 644 60.6273 878.304 519.953
248 0 60.1911 10.4002 626 60.4744 877.987 517.105
249 0 63.0563 11.2598 710 59.6268 878.751 518.059
250 0 64.0916 9.70486 622 61.7669 877.632 513.852
251 0 68.1804 12.0269 820 58.8695 878.343 515.64
252 0 68.2047 10.7177 731 60.844 878.776 516.398
253 0 70.1887 10.6712 749 61.1736 877.977 513.853
254 0 72.0804 10.0305 723 61.9668 879.537 513.347
255 0 77.1325 10.9941 848 61.1427 879.064 514.104
256 0 81.1107 12.748 1034 59.5222 878.46 512.221
257 0 84.1656 11.4061 960 60.8812 879.249 511.832
258 1 44.0812 8.93806 394 62.1802 879.695 530.327
259 0 48.0376 11.2828 542 59.4686 878.873 530.476
260 0 47.0886 11.7651 554 60.7184 879.484 528.477
261 0 50.0427 10.0914 505 60.9703 879.564 531.428
262 0 50.0902 12.3976 621 59.8551 878.351 527.242
263 0 51.1439 11.5947 593 60.683 878.516 528.777
264 0 55.066 12.1672 670 59.9716 879.254 527.694
265 0 54.1015 10.9239 591 62.489 878.034 526.306
266 0 58.1872 12.2536 713 60.2034 877.553 525.029
267 0 60.0752 12.0516 724 60.261 877.685 525.633
268 0 62.1172 12.3476 767 60.0834 878.004 525.911
269 0 62.1062 9.78968 608 63.0181 878.837 525.615
270 0 62.0599 10.5221 653 62.7795 877.995 525.095
271 0 68.1171 11.7004 797 60.5144 879.06 522.744
272 0 69.1294 11.1241 769 61.0143 878.121 523.056
273 0 72.092 12.8586 927 60.2147 876.921 516.92
274 0 71.0752 10.6648 758 62.1702 877.681 521.5
275 0 76.0893 11.7099 891 60.312 877.595 519.211
276 0 80.1182 13.3053 1066 58.5628 878.311 516.247
277 0 80.1029 10.4366 836 61.9474 877.787 515.825
278 0 83.1565 11.3641 945 60.891 877.471 513.256
279 0 83.2478 9.79005 815 63.2503 877.661 510.464
280 1 46.1162 10.1049 466 57.8519 877.481 534.275
281 0 47.1848 12.1861 575 55.7496 877.704 533.515
282 0 48.065 8.77978 422 59.5284 877.794 532.803
283 0 50.0996 10.8584 544 57.6121 877.59 531.309
284 0 51.0807 10.7281 548 57.9726 877.217 531.533
285 0 53.1773 11.9976 638 56.6097 877.024 529.317
286 0 54.2326 11.1188 603 58.5755 876.539 528.121
287 0 56.1129 10.372 582 58.4656 876.83 528.704
288 0 58.1023 11.2044 651 58.2673 876.298 527.287
289 0 59.0543 10.448 617 58.9303 876.976 524.506
290 0 60.201 10.5812 637 58.6954 876.615 525.388
291 0 64.1633 11.4863 737 57.2144 876.881 525.174
292 0 65.1159 11.8404 771 57.2996 877.061 524.262
293 0 66.0716 11.8811 785 57.0688 877.162 523.513
294 0 68.194 10.5434 719 57.9291 877.282 525.54
295 0 70.2936 11.8788 835 57.2228 877.02 517.071
296 0 69.1159 9.30322 643 60.1773 876.509 515.605
297 0 72.0545 9.38179 676 60.1228 876.324 514.139
298 0 75.0997 10.9188 820 58.7341 876.359 514.216
299 0 76.1448 8.72022 664 61.0136 876.178 513.565
300 1 40.0346 10.1662 407 57.5209 877.133 531.639
301 0 42.0378 10.7998 454 57.4582 877.033 528.634
302 0 44.1016 10.7479 474 57.8481 875.548 529.122
303 0 46.0997 8.98054 414 58.8913 875.229 529.85
304 0 48.2284 12.3993 598 54.6789 875.503 527.888
305 0 49.1002 12.057 592 55.1436 875.464 527.159
306 0 50.1372 12.9245 648 54.5926 875.518 526.897
307 0 50.1357 8.03818 403 59.5583 875.486 525.826
308 0 50.1635 11.2432 564 56.9894 876.241 525.227
309 0 53.2243 10.4088 554 57.6354 875.848 525.471
310 0 56.196 10.6235 597 57.273 876.459 524.347
311 0 57.0309 11.0291 629 57.5564 875.967 522.084
312 0 58.2371 11.4532 667 57.1709 875.859 520.621
313 0 59.1656 8.87339 525 60.2057 875.92 519.305
314 0 62.2163 10.6564 663 57.6501 876.45 521.674
315 0 65.1121 12.4708 812 55.9113 876.367 518.415
316 0 64.1079 10.2951 660 58.5076 876.189 520.262
317 0 66.1627 10.1417 671 59.2668 876.675 516.821
318 0 70.0643 12.3886 868 56.1325 876.411 519.103
319 0 71.107 12.4742 887 56.4397 876.518 516.451
320 0 72.0855 12.7904 922 56.1866 875.843 514.341
321 0 73.1671 11.6036 849 57.2721 876.08 516.741
322 0 76.0784 10.0554 765 59.2575 876.319 512.876
323 0 78.0639 11.8365 924 57.5812 876.147 509.787
324 1 42.0958 7.24537 305 59.577 876.623 530.702
325 0 45.137 8.68468 392 57.574 876.719 530.852
326 0 45.0834 8.85027 399 57.9925 877.644 529.93
327 0 47.1323 10.2053 481 57.0395 877.019 529.584
328 0 48.1209 10.9308 526 56.5798 877.133 528.376
329 0 48.1995 9.10798 439 59.0023 876.419 527.952
330 0 52.1118 8.76961 457 59.4923 876.361 527.624
331 0 53.1191 10.0905 536 59.0298 876.14 525.396
332 0 54.2578 10.6529 578 58.5623 875.877 523.516
333 0 55.1184 8.7811 484 60.4442 876.562 523.818
334 0 56.0776 12.1261 680 57.2912 876.841 522.297
335 0 59.178 10.6289 629 58.3832 876.033 522.204
336 0 59.1006 9.18772 543 60.477 876.254 520.495
337 0 63.0773 11.6524 735 57.5347 876.305 518.325
338 0 63.1311 12.181 769 57.5579 875.934 518.22
339 0 66.2781 11.1953 742 58.4218 876.535 517.27
340 0 65.1649 10.0514 655 59.9405 877.133 516.583
341 0 68.1709 10.9578 747 58.5663 876.728 516.233
342 0 69.1242 11.284 780 58.9013 876.996 512.612
343 0 70.1371 10.3369 725 60.1986 877.145 512.819
344 0 73.1656 10.6607 780 59.1551 876.928 510.903
345 0 75.1128 11.1299 836 59.1627 876.622 509.176
346 0 77.1191 11.4628 884 58.6787 876.433 511.284
347 0 79.0746 10.6608 843 59.7758 876.329 511.467
348 0 83.1898 11.1312 926 59.3801 876.712 504.718
349 1 45.1409 9.81371 443 58.6027 876.289 527.479
350 0 46.0839 9.9818 460 58.4326 876.911 525.991
351 0 47.2145 10.1452 479 59.0981 877.29 523.689
352 0 49.0387 10.4611 513 58.3645 876.649 524.302
353 0 52.0659 10.141 528 58.6458 877.208 524.366
354 0 49.1135 9.97689 490 59.8429 877.398 521.447
355 0 53.049 10.3112 547 59.3218 877.457 520.978
356 0 54.0705 11.6884 632 58.1297 877.081 519.128
357 0 56.2041 11.8852 668 58.1183 876.934 520.085
358 0 55.0329 11.266 620 59.4387 877.11 514.532
359 0 62.0872 12.4019 770 56.9883 877.542 518.643
360 0 60.138 9.9438 598 59.9565 877.363 517.323
361 0 62.1101 11.222 697 59.4821 877.083 514.967
362 0 64.1135 10.7934 692 60.0751 877.045 516.001
363 0 65.1677 12.8898 840 58.0631 877.896 512.643
364 0 68.0866 11.691 796 59.3857 877.647 512.074
365 0 70.1097 11.6532 817 58.8384 877.534 513.226
366 0 71.1296 13.2434 942 57.6985 878.389 508.087
367 0 72.0675 9.35234 674 62.2641 877.568 506.847
368 0 76.1201 10.247 780 60.7064 878.25 508.064
369 0 79.131 10.4637 828 60.7947 877.899 507.151
370 0 80.1732 11.787 945 59.4053 877.395 504.453
371 0 84.157 9.25651 779 61.8049 877.019 503.951
372 0 85.1397 10.2537 873 61.4364 877.294 503.37
373 0 90.1193 11.5403 1040 59.7788 876.631 502.059
374 0 93.2601 10.5082 980 60.6612 876.935 505.522
375 1 47.0258 8.37839 394 60.5178 877.926 522.959
376 0 50.0895 9.503 476 59.0756 877.603 525.168
377 0 50.0395 10.5716 529 58.8318 877.709 524.834
378 0 54.1176 11.7152 634 58.2429 877.249 521.29
379 0 53.082 9.94687 528 60.267 877.373 520.388
380 0 56.1774 11.7307 659 58.2656 877.41 520.431
381 0 56.1795 9.84345 553 60.4195 877.425 518.993
382 0 59.1393 9.97644 590 60.5983 876.766 518.263
383 0 62.0853 10.2923 639 60.0908 877.066 516.815
384 0 61.0566 11.0389 674 60.1484 877.583 515.76
385 0 63.167 9.75193 616 61.2679 876.781 516.339
386 0 64.1294 10.2605 658 60.8754 877.749 514.119
387 0 67.0302 9.5927 643 61.8087 877.322 511.921
388 0 68.1543 10.4616 713 60.9299 877.341 512.982
389 0 72.1095 10.3315 745 61.3369 876.715 509.244
390 0 75.1379 10.3277 776 60.6134 877.372 514.848
391 0 68.2018 6.33415 432 65.5787 878.028 504.602
392 0 79.0712 10.0669 796 61.4598 877.559 510.627
393 0 76.0951 8.38425 638 64.7414 877.244 504.707
394 1 43.0344 9.8061 422 59.8057 877.292 526.95
395 0 45.0808 9.9377 448 59.8772 878.009 525.969
396 0 46.0424 10.5555 486 59.8621 878.076 525.072
397 0 47.031 9.90836 466 60.1116 878.511 526.996
398 0 50.108 10.8565 544 59.4393 877.921 525.993
399 0 52.0634 11.2555 586 58.4061 878.229 527.662
400 0 53.0584 10.9125 579 59.0449 877.905 524.86
401 0 53.0778 12.0012 637 58.3674 877.684 525.562
402 0 56.0544 11.2391 630 58.9746 878.698 523.805
403 0 56.1287 11.3311 636 58.8113 878.535 523.14
404 0 57.0824 12.0002 685 58.4307 878.495 520.101
405 0 60.0723 10.1378 609 59.867 878.787 522.466
406 0 61.1227 11.5505 706 58.5382 878.071 522.7
407 0 65.0801 11.4167 743 59.0283 878.258 520.188
408 0 67.2425 11.5849 779 58.706 877.983 519.909
409 0 67.0519 10.4099 698 60.586 877.6 517.625
410 0 69.0525 10.311 712 61.0084 877.272 516.091
411 0 73.0878 11.0689 809 59.5315 877.477 519.182
412 0 75.1252 12.7121 955 58.7927 877.403 514.316
413 0 78.1207 11.7254 916 59.4913 877.417 516.366
414 0 79.1348 12.3587 978 60.0245 877.352 513.616
415 0 81.0516 13.1028 1062 59.6102 877.058 512.252
416 0 85.0929 11.7871 1003 61.4317 877.811 509.951
417 0 85.1424 11.886 1012 62.1571 878.218 505.504
418 0 89.2006 12.7353 1136 61.081 878.177 507.62
419 1 48.0269 10.2859 494 61.2915 878.124 529.269
420 0 46.1117 9.19506 424 63.9599 877.587 525.743
421 0 50.1208 10.9735 550 61.1255 877.807 528.184
422 0 51.0316 10.2877 525 62.7143 877.842 526.77
423 0 53.0613 11.0061 584 61.8699 877.2 525.541
424 0 56.1776 11.2322 631 61.8669 876.818 523.149
425 0 57.2122 12.3051 704 60.2386 877.742 525.692
426 0 56.0875 9.34254 524 64.3779 877.531 523.391
427 0 60.1192 10.8618 653 62.6493 877.585 521.221
428 0 62.0801 9.74548 605 64.395 877.375 518.603
429 0 65.1709 10.3114 672 62.9122 876.502 522.924
430 0 67.1128 10.2663 689 63.4673 877.885 519.401
431 0 71.1388 10.5287 749 63.1015 877.961 519.919
432 0 72.1955 10.6932 772 63.6412 878.254 517.102
433 0 74.1595 12.0686 895 62.4503 878.023 514.821
434 0 78.2859 9.70801 760 65.3737 877.288 513.905
435 0 80.1508 11.678 936 63.2564 877.852 513.459
436 0 82.1943 10.0494 826 65.5036 877.809 512.64
437 1 44.0721 9.64328 425 63.2424 878.652 529.666
438 0 49.015 10.099 495 62.8404 878.521 528.731
439 0 50.0467 9.97069 499 62.0701 878.862 530.792
440 0 50.0573 11.6067 581 61.685 877.33 528.454
441 0 51.0656 11.0838 566 62.0318 877.814 528.435
442 0 54.0439 11.7127 633 62.0095 878.251 525.605
443 0 56.0573 11.2028 628 62.1959 878.787 525.806
444 0 56.0576 11.399 639 62.9875 878.022 523.737
445 0 57.061 11.1635 637 63.3328 877.741 522.451
446 0 60.0603 12.3876 744 61.9973 877.773 520.543
447 0 61.1257 11.2064 685 63.7562 877.641 519.069
448 0 61.0515 7.82945 478 67.9854 877.159 516.634
449 0 64.1154 9.82604 630 65.3238 877.19 519.632
450 0 68.034 10.2008 694 64.8026 878.04 517.478
451 0 66.1084 9.51468 629 66.6264 877.405 515.442
452 0 71.1262 11.2195 798 63.792 877.508 513.398
453 0 73.0978 11.7514 859 63.2421 877.724 513.411
454 0 75.1481 12.0562 906 62.8157 877.017 513.87
455 0 79.324 10.4508 829 64.3474 877.959 511.311
456 0 81.2252 11.3758 924 63.2489 877.542 512.123
457 0 83.0928 12.1671 1011 61.9209 877.297 510.347
458 0 88.1037 10.2152 900 63.9244 877.636 510.416
459 0 89.086 10.7649 959 63.0365 877.71 506.117
460 0 93.1559 11.9907 1117 62.0645 876.55 505.059
461 0 97.1893 10.3921 1010 63.4842 876.925 506.334
462 1 48.0648 10.7147 515 60.4136 877.633 527.728
463 0 50.0732 11.603 581 59.1308 876.943 528.878
464 0 50.0894 9.80248 491 61.9246 877.067 528.183
465 0 50.084 9.42416 472 62.8093 877.138 524.578
466 0 53.1551 9.9332 528 61.733 878.282 526.943
467 0 58.0657 11.8659 689 59.1771 878.395 525.716
468 0 58.024 10.0476 583 61.446 878.281 523.775
469 0 61.1329 10.0928 617 61.6386 877.867 522.891
470 0 63.2399 10.5788 669 60.9552 876.777 521.735
471 0 62.2129 10.2873 640 61.5938 877.623 520.355
472 0 66.0851 11.0464 730 60.3945 877.014 520.77
473 0 67.3034 11.4853 773 60.4761 876.7 518.452
474 0 68.2284 10.9192 745 60.8778 876.54 517.072
475 0 70.2511 11.8859 835 60.0563 877.38 517.807
476 0 76.274 11.7471 896 59.856 876.26 514.454
477 0 75.3802 10.3078 777 61.8057 876.958 515.26
478 0 80.319 13.3717 1074 58.311 877.164 513.943
479 0 83.2273 12.2916 1023 59.6207 877.083 512.282
480 0 86.365 11.8682 1025 59.7463 876.94 511.08
481 0 86.2795 10.8253 934 62.2152 876.378 510.879
482 0 91.2053 11.3261 1033 61.2894 876.129 508.184
483 1 47.1053 8.76759 413 60.707 876.961 531.203
484 0 49.1518 10.5591 519 59.6628 877.189 526.249
485 0 51.1298 10.5613 540 59.4556 876.861 527.978
486 0 50.1097 10.497 526 60.0646 877.53 525.03
487 0 51.0717 9.51603 486 61.2963 877.691 527.772
488 0 55.1998 10.8334 598 59.3829 877.462 528.286
489 0 56.1112 11.1742 627 59.9904 877.362 525.845
490 0 57.078 12.2289 698 58.182 877.553 526.665
491 0 60.1088 11.945 718 57.9025 877.008 525.217
492 0 62.1361 11.1207 691 58.0724 877.808 525.696
493 0 64.2491 12.9496 832 56.4988 876.578 525.674
494 0 64.2433 10.6626 685 59.5299 877.425 523.504
495 0 66.2711 12.7054 842 57.6449 877.724 519.556
496 0 70.245 11.588 814 58.9926 875.903 521.908
497 0 71.0939 12.1248 862 58.7517 876.713 518.995
498 0 71.2612 11.7596 838 59.9463 877.158 519.079
499 0 75.116 12.048 905 59.3039 876.899 518.78
500 0 77.1211 11.2421 867 60.5156 876.927 514.652
501 0 82.1582 13.1941 1084 57.7279 876.922 514.375
502 0 84.1971 13.3378 1123 57.691 877.11 511.64
503 0 85.2311 11.7445 1001 60.042 876.312 511.628
504 0 87.2615 11.5859 1011 60.4026 876.727 511.324
505 0 91.3496 13.0926 1196 58.4298 876.74 510.907
506 0 94.1674 12.6371 1190 59.6067 877.434 507.372
507 1 48.1522 11.8582 571 59.4291 877.291 529.592
508 0 50.1068 11.7549 589 60.4499 876.997 527.509
509 0 50.1347 11.8281 593 60.5632 876.491 528.246
510 0 53.1054 11.7691 625 60.8272 876.198 527.104
511 0 55.0757 12.1469 669 60.0912 876.308 527.558
512 0 57.0791 12.544 716 59.8952 876.589 525.432
513 0 57.1477 10.8141 618 61.7621 876.026 525.351
514 0 60.0694 12.3024 739 60.2246 876.858 525.437
515 0 61.1687 11.2803 690 61.5377 876.717 524.639
516 0 61.1866 11.5875 709 61.3794 876.791 524.01
517 0 64.1416 12.5348 804 60.0572 876.969 522.529
518 0 65.1488 11.8805 774 61.2584 877.521 521.828
519 0 66.1202 11.7513 777 61.4685 876.856 521.855
520 0 70.1005 11.4407 802 62.1334 876.304 519.935
521 0 74.1872 12.3606 917 60.2105 877.137 519.477
522 0 74.2666 13.3977 995 59.8663 877.317 517.319
523 0 76.3693 12.7931 977 60.7564 876.898 516.455
524 1 39.0642 8.88281 347 64.1931 877.401 534.156
525 0 44.0258 12.0157 529 59.5974 877.172 534.749
526 0 45.1615 10.8057 488 62.4078 876.93 532.537
527 0 45.0648 12.1825 549 61.2076 876.561 531.47
528 0 47.0229 12.4195 584 59.9914 876.507 533.755
529 0 48.0274 12.4304 597 60.5997 877.419 529.549
530 0 48.0592 10.6119 510 62.4941 877.084 532.039
531 0 51.0499 12.6151 644 60.7764 877.061 529.87
532 0 53.0607 12.9663 688 60.4215 876.289 528.89
533 0 53.1627 12.0197 639 61.9859 876.721 528.297
534 0 54.0411 12.546 678 61.5693 876.739 526.987
535 0 57.1295 12.7605 729 60.631 876.717 527.898
536 0 59.1138 12.958 766 60.7428 876.881 524.495
537 0 62.0456 13.3128 826 59.7542 876.987 526.173
538 0 62.0717 11.7767 731 62.2627 876.379 523.168
539 0 64.1298 12.5371 804 61.5062 876.27 523.087
540 0 66.0891 11.893 786 61.9542 876.136 522.756
541 0 68.0676 13.0458 888 60.5203 876.522 523.761
542 0 69.1914 12.7472 882 61.7687 875.802 519.807
543 0 71.1003 12.9395 920 61.4294 876.935 520.789
544 0 73.14 13.1255 960 61.5656 876.866 518.618
545 0 75.0987 14.4343 1084 59.8395 877.296 518.796
546 0 76.1432 12.4502 948 63.0348 876.386 517.839
547 0 78.1198 13.6713 1068 61.4082 876.152 518.812
548 0 80.0634 12.1654 974 63.152 876.526 515.34
549 0 83.2087 13.0996 1090 62.5661 876.199 514.282
550 1 43.0908 10.6751 460 64.35 876.394 534.015
551 0 44.081 12.8854 568 62.1338 876.384 532.238
552 0 46.1836 12.1039 559 62.9982 875.966 532.737
553 0 45.0396 11.7896 531 64.0791 876.782 532.222
554 0 49.0339 12.7259 624 62.4231 877.223 530.32
555 0 49.0726 13.4291 659 62.0061 877.455 527.657
556 0 49.0964 12.2616 602 64.5166 877.525 526.927
557 0 50.1164 12.3113 617 64.2026 877.243 527.908
558 0 55.0585 13.5674 747 61.7149 876.819 527.39
559 0 55.0495 13.7694 758 62.0712 876.695 526.501
560 0 55.1278 12.0085 662 65.3429 876.292 524.267
561 0 58.1829 12.6154 734 63.6444 877.601 525.153
562 0 58.0178 13.3924 777 63.4942 877.708 522.279
563 0 63.1367 14.0806 889 61.4961 877.27 524.573
564 0 65.039 13.7917 897 62.4805 876.873 524.01
565 0 67.1072 13.7094 920 62.7206 877.228 520.111
566 0 69.0718 12.7549 881 63.6345 877.102 519.16
567 0 70.0418 14.3058 1002 61.9192 877.168 515.996
568 0 72.0663 12.6966 915 64.4 876.99 516.542
569 0 74.0346 12.5752 931 64.3416 876.843 517.434
570 0 76.1226 12.0858 920 64.9576 876.939 517.173
571 1 37.033 9.61306 356 66.5534 876.489 535.399
572 0 41.0413 10.4773 430 65.114 877.707 533.816
573 0 42.014 10.5679 444 65.1734 877.374 532.718
574 0 44.0399 12.2389 539 62.5455 877.369 531.748
575 0 43.0284 10.8765 468 64.6517 878.09 533.812
576 0 45.055 12.0076 541 64.0462 877.887 530.564
577 0 47.0597 11.156 525 64.0533 878.27 530.705
578 0 49.0765 12.1239 595 62.2336 878.571 530.541
579 0 49.0624 12.1274 595 63.0924 878.59 527.496
580 0 51.0406 12.4411 635 62.5228 879.973 527.265
581 0 51.0873 11.2944 577 63.5667 879.438 527.53
582 0 54.0236 11.4024 616 63.0666 879.846 525.403
583 0 55.0808 12.9446 713 61.1823 879.703 524.166
584 0 56.0994 13.3869 751 61.0746 878.65 523.791
585 0 60.1094 12.7933 769 60.948 878.704 522.059
586 0 63.0846 12.0315 759 61.4032 878.678 522.951
587 0 64.1132 12.9458 830 61.3193 879.024 519.053
588 0 64.1126 12.9304 829 61.5561 878.382 518.761
589 0 68.0807 11.7361 799 62.6033 877.59 518.925
590 0 69.2117 14.1306 978 60.136 877.544 515.345
591 0 71.0909 12.3222 876 62.5274 877.771 514.7
592 0 73.1459 10.9097 798 64.8058 877.385 512.49
593 0 74.0291 9.99607 740 65.4797 878.586 514.388
594 1 36.0725 11.366 410 63.222 878.051 533.107
595 0 38.1169 10.0218 382 64.9581 877.798 532.173
596 0 37.0259 11.0193 408 64.6299 877.243 532.6
597 0 42.0146 10.2345 430 65.1 877.598 532.214
598 0 41.0214 10.9699 450 64.86 877.433 529.538
599 0 43.0383 11.4781 494 64.4109 877.415 528.917
600 0 43.0271 10.9001 469 65.3454 877.147 528.145
601 0 44.0313 12.423 547 64.1298 877.764 527.83
602 0 46.0246 13.2972 612 62.7402 878.299 527.106
603 0 45.0792 11.6905 527 64.9108 878.33 524.114
604 0 48.0292 12.0968 581 64.0516 878.372 523.238
605 0 48.0432 10.6779 513 65.9064 878.363 524.499
606 0 49.0536 10.5803 519 66.4046 878.042 524.913
607 0 52.0695 11.139 580 65.2345 877.402 522.369
608 0 57.0778 12.8596 734 62.9714 877.921 523.395
609 0 61.048 13.1208 801 61.7953 878.077 524.683
610 0 60.0802 12.0672 725 64.1738 878.298 521.041
611 0 65.0587 13.142 855 62.662 877.87 522.796
612 0 66.0256 13.3736 883 62.9332 877.87 519.572
613 0 68.0882 13.4678 917 63.1658 878.31 520.109
614 0 68.0968 12.9375 881 64.6266 878.096 520.782
615 0 70.1039 13.052 915 64.9967 879.013 516.282
616 0 72.0912 12.5674 906 65.8201 878.676 516.148
617 0 75.0375 12.8469 964 65.9595 878.697 514.504
618 0 78.0848 14.1385 1104 65.2473 878.086 513.828
619 0 81.1488 13.7772 1118 65.6064 877.465 512.928
620 1 42.0496 10.773 453 65.5806 878.214 534.095
621 0 44.1252 12.5325 553 66.3725 878.353 529.785
622 0 45.03 12.414 559 66.3095 878.093 530.043
623 0 45.1051 11.2183 506 68.4704 877.806 530.194
624 0 47.1455 11.0721 522 68.3333 878.28 530.046
625 0 48.1757 10.8561 523 68.8088 878.501 529.073
626 0 49.0742 11.6762 573 68.4607 878.035 527.534
627 0 49.0736 11.3299 556 69.5683 878.401 526.315
628 0 53.2113 13.4746 717 65.9582 877.488 527.579
629 0 55.0163 13.6868 753 65.5564 878.073 526.587
630 0 57.0206 13.4864 769 66.7087 877.943 525.202
631 0 57.1547 11.88 679 69.6775 878.158 522.928
632 0 59.0892 11.8126 698 69.0544 877.682 524.043
633 0 61.0998 12.946 791 68.7434 878.76 519.558
634 0 65.0431 12.3457 803 68.8468 879.108 521.804
635 0 66.0986 12.9503 856 68.6215 879.118 520.459
636 0 70.1621 13.1838 925 67.7914 878.581 519.432
637 0 72.0725 13.5003 973 67.5889 879.462 519.132
638 0 74.064 13.8259 1024 67.4121 879.472 515.289
639 0 76.0966 13.5091 1028 68.4066 878.32 514.026
640 0 79.1403 13.4445 1064 68.5592 878.624 513.816
641 1 41.0624 12.5419 515 68.2136 879.307 532.002
642 0 39.0459 10.0907 394 71.8959 878.637 531.779
643 0 44.0523 12.122 534 68.427 878.601 532.341
644 0 45.0408 12.1889 549 68.2605 877.499 531.729
645 0 48.0673 12.5657 604 66.2632 878.066 532.805
646 0 49.0535 12.8024 628 66.3726 878.175 530.452
647 0 51.0671 12.0626 616 67.0292 877.494 529.792
648 0 50.0648 11.4851 575 68.1044 877.85 530.795
649 0 52.1089 11.8022 615 67.6358 878.171 528.348
650 0 53.0605 11.9109 632 66.7389 878.247 529.454
651 0 56.1506 11.8788 667 66.6672 878.943 525.382
652 0 58.1268 13.3673 777 64.4955 878.394 525.728
653 0 57.2414 11.9669 685 67.0204 878.566 523.339
654 0 59.183 11.946 707 66.3861 878.728 524.453
655 0 62.0602 12.1012 751 65.7563 878.296 524.101
656 0 66.3365 11.0799 735 66.5116 877.989 522.897
657 0 66.1348 12.3536 817 65.6524 878.52 520.206
658 0 66.2009 11.1932 741 67.1889 878.287 520.934
659 0 71.1259 13.3988 953 64.1459 877.576 520.327
660 0 74.0923 13.5507 1004 64.1135 877.872 518.538
661 0 75.19 12.4219 934 65.8919 878.532 516.652
662 0 78.0949 12.2031 953 65.7177 878.573 517.382
663 0 80.1805 11.3494 910 66.9989 878.222 516.478
664 1 39.1075 11.0465 432 65.6111 878.764 535.377
665 0 41.0705 11.0785 455 65.7978 878.42 532.62
666 0 45.0783 11.3358 511 65.1174 878.628 533.031
667 0 44.0234 12.1981 537 65.5419 878.562 531.557
668 0 45.06 11.518 519 65.5318 878.32 532.374
669 0 47.151 12.4918 589 64.4075 878.355 530.071
670 0 50.202 12.0314 604 64.4288 878.642 531.709
671 0 47.1596 11.1112 524 67.7748 878.248 526.897
672 0 51.0459 13.0863 668 64.1168 878.397 529.717
673 0 52.058 12.3516 643 64.297 878.762 529.731
674 0 55.0415 12.0273 662 64.9668 879.153 525.998
675 0 54.0459 11.1757 604 66.5944 878.371 523.121
676 0 56.1138 12.3855 695 65.3712 878.371 523.442
677 0 60.1191 11.0115 662 66.1737 878.681 523.689
678 0 61.0499 11.1876 683 65.7599 878.777 521.914
679 0 64.0879 13.5751 870 62.8437 878.429 520.263
680 0 65.1294 11.5923 755 64.3709 878.23 523.952
681 0 68.0433 12.4333 846 63.0733 878.963 522.459
682 0 72.1058 12.7452 919 62.593 879.151 518.311
683 0 73.1374 12.0868 884 63.0962 879.321 520.963
684 0 73.062 11.196 818 65.0856 879.351 515.982
685 0 78.1232 11.6611 911 63.8288 879.081 516.07
686 1 38.0352 11.4894 437 63.0755 879.149 533.664
687 0 41.0514 11.7657 483 61.7785 879.412 531.733
688 0 42.0506 11.8429 498 62.1064 878.598 532.349
689 0 44.0394 12.1482 535 61.8374 879.073 530.97
690 0 45.0472 11.3881 513 62.2632 878.959 532.267
691 0 46.0826 11.8266 545 62.3651 879.8 531.062
692 0 47.0345 12.3739 582 62.0344 880.16 531.062
693 0 47.097 10.7225 505 64.2356 879.113 531.396
694 0 49.0706 10.3117 506 64.7194 878.828 531.168
695 0 51.1526 10.9476 560 63.9071 878.47 529.657
696 0 52.0297 13.0502 679 62.6038 877.623 526.571
697 0 55.1025 13.2118 728 61.4313 877.994 527.981
698 0 56.1003 14.1176 792 61.096 878.538 525.741
699 0 56.1853 12.619 709 63.4838 877.664 526.189
700 0 58.1018 12.3232 716 63.3436 878.13 524.736
701 0 60.2018 12.89 776 62.8518 878.905 524.584
702 0 61.1727 12.2931 752 63.8524 878.388 522.202
703 0 64.0864 14.8393 951 60.7582 878.154 520.75
704 0 66.2018 12.8546 851 63.0376 878.195 520.237
705 0 67.0815 12.4923 838 63.7422 878.074 517.709
706 0 69.0633 12.2641 847 64.3506 878.339 517.375
707 0 72.0488 13.0606 941 62.8959 877.784 515.981
708 0 72.0845 12.7212 917 64.3402 877.513 515.108
709 0 76.1008 11.6556 887 65.1308 878.019 515.69
710 0 79.148 12.8493 1017 64.2409 878.201 512.056
711 0 81.1171 12.7717 1036 64.3533 878.235 513.829
712 0 85.1195 12.8525 1094 64.3921 878.018 511.288
713 1 41.1134 11.9426 491 64.0326 878.648 532.086
714 0 44.0377 11.2404 495 64.4061 878.232 531.657
715 0 46.0383 11.5773 533 63.9024 878.42 531.12
716 0 46.1449 11.3555 524 65.1393 878.26 528.653
717 0 48.1253 12.9454 623 62.7881 878.636 530.128
718 0 49.1232 12.8453 631 63.5087 878.284 527.529
719 0 51.0688 12.4929 638 63.7241 877.986 527.647
720 0 51.0381 12.4221 634 63.9921 878.199 527.509
721 0 52.0564 11.1418 580 65.7052 878.012 526.043
722 0 55.0874 12.4892 688 63.75 878.121 525.875
723 0 57.0652 13.2305 755 62.3642 877.466 525.04
724 0 59.0932 11.8288 699 64.525 877.338 523.092
725 0 58.0318 11.3386 658 65.6383 877.606 522.755
726 0 62.0199 10.8191 671 65.845 878.012 523.347
727 0 66.0624 12.7153 840 62.7571 878.698 524.006
728 0 66.172 12.1502 804 64.3147 877.98 522.06
729 0 67.0544 12.3333 827 64.451 877.987 519.458
730 0 69.0477 11.4124 788 65.5178 878.023 522.014
731 0 73.1256 12.2255 894 64.8747 877.02 517.883
732 0 76.2096 13.7778 1050 62.8762 877.249 518.41
733 0 76.1302 12.3473 940 65.0883 877.665 517.673
734 0 80.081 12.6996 1017 64.5369 877.464 514.275
735 1 43.0963 12.5765 542 60.8413 878.773 535.45
736 0 41.1004 10.8758 447 64.2998 879.042 533.526
737 0 45.0277 11.7039 527 62.7913 879.154 531.822
738 0 45.0541 12.94 583 62.1544 878.36 531.125
739 0 47.0332 11.9277 561 63.5686 878.601 531.175
740 0 48.0586 11.6524 560 64.0714 878.838 531.034
741 0 50.1432 12.8432 644 62.913 878.694 530.189
742 0 51.0453 12.0089 613 64.4959 878.896 528.287
743 0 51.0605 11.7899 602 65.5847 878.5 528.606
744 0 54.0308 13.2887 718 63.7396 878.259 526.804
745 0 56.0939 12.3186 691 64.7699 877.677 526.602
746 0 56.0566 12.755 715 64.9245 877.505 525.864
747 0 59.0625 13.1725 778 63.7854 876.554 526.008
748 0 61.045 12.2041 745 65.247 876.569 526.144
749 0 62.0665 12.406 770 65.2597 877.701 523.426
750 0 64.0359 12.4149 795 65.0579 877.88 523.337
751 0 66.0653 13.6229 900 63.1667 877.703 523.654
752 0 66.118 11.4643 758 66.8298 877.991 520.784
753 0 68.1524 12.34 841 65.6207 878.478 520.414
754 0 71.0663 11.9607 850 66.4447 877.704 520.436
755 0 73.0697 13.1518 961 65.1488 877.851 518.78
756 0 77.1052 12.8007 987 65.307 877.991 516.93
757 1 38.2764 9.24852 354 66.7288 877.785 538.291
758 0 39.0262 10.4033 406 67.3744 878.692 534.727
759 0 40.0528 11.0105 441 66.5918 878.864 534.306
760 0 41.0503 11.8391 486 65.3416 878.43 535.868
761 0 42.0171 10.4719 440 67.8341 878.095 534.448
762 0 43.0296 11.9918 516 66.1919 877.56 534.924
763 0 44.0518 12.8258 565 66.5009 877.733 532.315
764 0 45.019 11.0398 497 68.5694 878.388 531.336
765 0 46.0869 9.72076 448 70.5335 877.81 532.275
766 0 49.0515 11.6 569 68.0404 878.299 531.007
767 0 49.0451 12.4171 609 67.2956 877.69 530.158
768 0 51.0815 11.0216 563 68.746 876.712 530.6
769 0 53.0712 10.5895 562 68.8897 876.97 529.977
770 0 56.0285 13.6895 767 65.5606 876.926 526.881
771 0 55.1848 10.5101 580 70.0466 877.491 527.979
772 0 59.0347 12.0776 713 68.0729 878.05 524.771
773 0 58.1156 11.9933 697 68.4333 877.571 524.608
774 0 61.1018 12.3892 757 67.9088 877.012 525.427
775 0 64.0857 12.1244 777 67.3449 877.82 526.13
776 0 65.0835 11.539 751 68.779 877.276 524.71
777 0 69.1417 13.1325 908 66.5837 876.722 521.552
778 0 71.0884 11.6475 828 67.721 877.374 523.847
779 0 71.1997 11.1096 791 69.6877 877.583 519.977
780 0 76.066 12.3577 940 67.8053 877.267 520.038
781 0 77.0988 13.2168 1019 67.5132 877.484 518.168
782 0 79.0284 11.4516 905 69.6685 877.912 519.735
783 0 82.165 12.5114 1028 68.5963 878.241 515.271
784 1 45.0828 11.7561 530 66.9283 877.657 535.013
785 0 46.0345 10.4487 481 68.1746 878.403 535.064
786 0 47.1644 10.0712 475 69.44 877.705 532.356
787 0 49.0192 12.3217 604 66.5861 878.122 533.283
788 0 50.0726 11.8029 591 67.3942 877.768 532.393
789 0 53.1324 12.1583 646 67.2755 877.898 531.376
790 0 55.0475 12.8071 705 66.2057 877.167 530.674
791 0 53.0248 11.8247 627 69.3573 877.491 528.676
792 0 57.0727 13.5967 776 65.4536 877.738 529.146
793 0 56.0759 10.7533 603 69.7463 877.255 528.995
794 0 61.1538 13.0327 797 66.1317 878.573 526.954
795 0 59.1495 11.7499 695 69.4604 878 523.705
796 0 62.0512 11.5066 714 69.0644 877.924 525.41
797 0 65.1219 11.5015 749 68.9866 877.534 524.88
798 0 67.1184 12.1278 814 67.9582 877.998 524.063
799 0 69.1134 11.5462 798 69.1679 877.89 522.759
800 0 70.0649 11.5464 809 69.5154 877.76 521.721
801 0 73.2153 11.0496 809 69.7899 878.409 521.597
802 0 73.1187 11.8574 867 70.1661 877.504 518.098
803 0 77.1147 11.4764 885 71.0475 878.313 515.698
804 0 80.1496 12.1523 974 69.8542 877.75 514.799
805 0 84.1513 13.0242 1096 68.7299 877.639 512.387
806 1 42.0661 11.9574 503 68.7157 877.765 532.885
807 0 44.0848 11.9769 528 68.9091 878.184 533.184
808 0 43.1206 10.459 451 71.98 877.506 533.503
809 0 47.1097 11.5051 542 69.6273 877.642 532.869
810 0 48.0519 11.7997 567 68.9824 877.217 532.889
811 0 49.0743 9.94411 488 71.541 878.18 530.885
812 0 51.039 11.3051 577 69.8492 878.529 528.652
813 0 54.1146 12.6583 685 67.2029 877.966 529.661
814 0 54.0778 10.6698 577 70.1976 877.948 529.666
815 0 58.1097 11.7536 683 68.041 878.186 527.34
816 0 58.1029 11.755 683 68.5813 878.102 527.445
817 0 60.0968 11.7144 704 69.1008 877.787 523.388
818 0 62.1212 12.5883 782 67.4604 877.013 524.99
819 0 64.1041 11.7465 753 68.3081 877.057 523.963
820 0 69.2335 12.9417 896 65.5234 878.045 522.512
821 0 69.0959 12.186 842 66.7375 878.258 521.49
822 0 69.0791 10.3939 718 69.3454 878.469 519.699
823 0 74.1265 11.5208 854 67.2799 878.303 517.938
824 0 77.1434 11.511 888 67.1554 877.959 517.356
825 1 41.0266 10.481 430 64.8767 879.03 534.702
826 0 41.0337 8.7489 359 66.3259 878.786 535.972
827 0 44.0342 10.8325 477 63.9895 877.866 534.855
828 0 46.0649 10.1162 466 65.4335 877.665 534.434
829 0 47.0764 10.8334 510 65.2314 877.551 532.7
830 0 46.0199 9.40897 433 67.3464 878.545 532.279
831 0 49.0347 10.9106 535 65.5626 878.74 531.804
832 0 51.0802 10.8653 555 65.9423 878.537 530.249
833 0 51.0306 10.5819 540 66.8222 878.546 529.659
834 0 53.133 11.2548 598 66.0702 878.306 528.901
835 0 56.059 12.6831 711 63.128 878.371 528.643
836 0 57.0645 10.6897 610 66.5279 877.561 528.415
837 0 60.0352 11.1435 669 65.2138 877.595 527.294
838 0 60.0447 11.6913 702 64.7991 878.114 527.071
839 0 62.1404 11.812 734 65.3992 877.699 523.962
840 0 63.0464 10.9126 688 65.9201 878.278 525.174
841 0 66.048 11.0677 731 65.7592 878.078 524.506
842 0 67.2219 11.1422 749 65.51 878.107 524.139
843 0 71.1852 11.435 814 64.9128 877.149 521.129
844 0 74.1318 12.2754 910 63.678 877.146 520.349
845 0 76.17 11.4218 870 64.0736 878.059 520.786
846 0 77.1135 10.9708 846 65.0201 877.894 519.963
847 0 79.2648 11.2534 892 64.7253 877.517 518.611
848 1 43.063 10.3801 447 63.868 878.349 536.195
849 0 45.1227 11.0144 497 62.8793 878.604 535.658
850 0 45.1294 10.6582 481 63.6362 876.859 535.84
851 0 47.1451 10.5419 497 64.6559 876.451 533.441
852 0 50.0512 10.8889 545 63.3211 877.165 532.596
853 0 49.0171 10.2617 503 63.3897 878.618 531.089
854 0 51.0591 10.5956 541 61.7172 879.105 527.945
855 0 53.0336 11.2382 596 62.5017 878.921 530.2
856 0 55.0404 12.2092 672 61.0684 878.696 530.254
857 0 55.0848 11.9271 657 60.4658 878.76 528.304
858 0 58.1405 11.7818 685 60.5197 877.564 528.121
859 0 58.0989 10.9641 637 61.1852 878.721 528.013
860 0 59.0484 12.8031 756 55.0688 877.992 528.685
861 0 62.1181 10.2547 637 63.0518 878.79 526.32
862 0 64.1388 9.79126 628 63.6385 877.982 527.798
863 0 65.0638 10.4359 679 62.8778 878.845 525.929
864 0 68.0832 11.8238 805 60.9242 878.624 523.308
865 0 71.1503 11.3984 811 60.9766 878.423 521.453
866 0 72.1681 11.0437 797 61.3425 877.685 521.507
867 0 74.1314 12.0732 895 60.2804 877.65 519.803
868 0 75.1298 11.4202 858 61.5909 877.559 517.619
869 0 79.102 11.8581 938 60.7633 878.351 517.456
870 0 80.2307 10.6194 852 61.8228 877.235 518.371
871 0 84.2249 11.3862 959 61.1345 877.446 514.031
872 0 83.2506 10.4143 867 62.8708 877.133 513.129
873 0 89.1106 10.4253 929 62.9257 877.126 512.544
874 0 90.2047 11.4517 1033 61.6496 877.5 509.907
875 0 93.2261 10.8232 1009 62.6402 876.457 509.952
876 1 48.0731 10.2968 495 62.7313 876.978 531.974
877 0 51.0498 11.7728 601 61.213 877.17 531.825
878 0 51.0673 11.7492 600 61.775 877.112 530.105
879 0 51.0541 11.4193 583 62.5232 877.12 528.616
880 0 53.056 12.2512 650 61.4769 877.131 530.32
881 0 56.0957 13.6374 765 60.0967 876.714 527.123
882 0 57.0821 10.2659 586 63.8959 876.416 529.287
883 0 58.0442 12.1804 707 62.0919 876.939 524.972
884 0 57.1106 10.8736 621 64.1965 876.791 526.124
885 0 63.1552 12.2872 776 62.0206 876.482 525.481
886 0 63.111 11.3768 718 63.2827 877.737 523.709
887 0 65.06 11.1282 724 63.6423 877.772 523.51
888 0 67.0736 11.4799 770 63.048 877.525 520.918
889 0 70.0605 12.2323 857 62.1447 877.809 520.111
890 0 71.0726 10.834 770 64.2701 877.136 518.953
891 0 75.0595 12.4568 935 61.7283 877.996 519.014
892 0 76.1602 12.001 914 62.6915 878.132 514.189
893 0 80.0779 11.5138 922 63.5445 878.158 516.174
894 0 79.0846 10.3307 817 65.6096 877.964 513.752
895 0 84.1052 12.3655 1040 63.1038 877.94 515.329
896 0 85.2122 12.064 1028 64.3162 878.301 510.813
897 0 90.1013 12.5414 1130 63.4301 878.08 512.661
898 0 92.1039 13.3002 1225 63.2171 877.678 512.983
899 0 94.1207 11.5809 1090 65.5853 877.871 511.827
900 1 50.0485 11.9684 599 63.0968 878.22 532.337
901 0 51.0685 10.9265 558 64.5233 878.482 532.244
902 0 50.069 11.5041 576 64.7083 878.944 530.24
903 0 52.0821 10.9443 570 65.0649 878.177 530.195
904 0 57.0796 13.1571 751 61.8615 878.044 530.019
905 0 57.0788 11.8958 679 63.7496 878.345 529.8
906 0 58.0635 12.4174 721 63.1484 878.053 527.035
907 0 59.0623 11.7672 695 64.2676 877.918 524.917
908 0 64.0823 12.6712 812 62.0936 877.894 525.863
909 0 65.0847 12.7373 829 62.766 878.667 521.683
910 0 68.0377 11.7288 798 63.683 878.445 523.564
911 0 69.0936 12.114 837 63.2569 878.777 522.718
912 0 73.2294 11.3752 833 63.6975 878.818 520.85
913 0 75.1471 12.6153 948 62.8059 879.907 519.929
914 0 77.1468 12.4957 964 62.6878 879.046 519.301
915 0 79.0917 12.9217 1022 62.5988 878.969 515.669
916 0 81.1621 12.5674 1020 63.1069 878.413 515.87
917 0 85.089 13.1862 1122 62.1604 878.768 515.519
918 0 86.0897 12.789 1101 62.9246 877.47 511.625
919 0 90.171 13.0308 1175 62.36 877.46 514.096
920 1 49.1046 11.0988 545 61.9229 878.444 533.323
921 0 51.04 12.2845 627 61.0877 878.381 532.431
922 0 51.0946 10.2359 523 63.8834 878.423 530.467
923 0 51.1986 11.348 581 63.1824 877.862 529.083
924 0 56.1216 11.1187 624 62.0865 877.426 530.923
925 0 56.0818 11.2692 632 62.9256 877.549 529.052
926 0 57.1049 11.3475 648 63.4136 877.781 528.88
927 0 58.1004 13.4767 783 61.2988 877.67 525.831
928 0 59.0936 9.84878 582 65.4192 878.378 526.105
929 0 62.1002 11.0467 686 63.6487 877.859 526.315
930 0 65.2154 11.1937 730 63.0794 877.663 525.029
931 0 67.2387 10.961 737 63.7069 877.89 523.562
932 0 69.0883 11.6228 803 63.3836 877.672 521.636
933 0 69.0878 11.0873 766 64.624 877.084 519.171
934 0 73.0652 11.4692 838 63.5776 878.026 518.638
935 0 74.096 12.8752 954 61.5765 877.734 520.218
936 0 76.0919 10.2245 778 65.7404 877.636 513.033
937 0 79.1959 12.1976 966 63.3727 878.017 514.983
938 0 78.1504 11.3883 890 64.9663 877.874 514.304
939 0 82.1052 12.6789 1041 63.6868 877.856 510.275
940 0 84.1061 11.4023 959 65.3212 877.789 511.503
941 1 42.0228 9.82801 413 63.3051 878.065 533.751
942 0 42.0326 8.06516 339 66.5133 878.454 532.717
943 0 46.047 9.92464 457 64.5996 878.035 530.569
944 0 47.1148 10.485 494 64.4757 877.3 529.358
945 0 48.0246 10.9527 526 64.6369 876.614 529.89
946 0 46.0554 10.6828 492 66.1809 877.776 528.622
947 0 48.5473 3.27515 159 76.3899 878.56 536.308
948 0 50.5593 3.36239 170 76.4059 878.259 538.124
949 0 56.836 10.6271 604 80.4868 877.26 522.975
950 1 37.055 5.12751 190 77.1263 879.421 534.663
951 0 37.0263 7.31912 271 73.9557 879.384 534.432
952 0 35.017 5.16892 181 78.4144 878.79 531.912
953 0 37.0308 6.85916 254 76.5236 879.024 529.866
954 0 36.0358 4.46778 161 79.7826 878.615 529.64
955 0 38.0723 3.51962 134 79.4478 878.478 530.142
956 0 37.0302 5.21196 193 79.3161 876.798 526.223
957 0 41.011 7.12004 292 75.5719 877.815 529.935
958 0 40.0118 4.54866 182 79.0934 877.78 526.994
959 0 41.0512 4.79888 197 78.5584 877.797 525.381
960 0 42.05 4.35197 183 78.8907 877.295 526.536
961 0 41.019 2.94985 121 77.8016 877.388 531.984
962 1 26.3953 11.8203 312 99.9936 874.167 495.019
963 0 27.0019 0.99993 27 83.1852 877.074 526.407
964 0 19.0141 1.36741 26 78.8077 878 519.923
965 1 38.3302 13.9838 536 89.5224 876.108 494.224
966 0 28.0291 3.13959 88 79.0568 878.33 525.477
967 0 0 0 0 -nan -nan -nan
968 0 32.0317 3.62141 116 78.4914 877.741 524.836
969 1 19.0059 4.73537 90 77.2111 878.267 518.511
970 0 23.0303 7.90264 182 74.978 878.516 519.313
971 0 22.0324 9.8945 218 104.05 873.234 498.06
972 0 21.0694 10.4417 220 103.85 874.264 500.527
973 0 18.0323 7.2093 130 119.077 873.162 501.438
974 0 17.0411 8.15673 139 116.302 873.777 500.122
975 0 20.0607 9.91989 199 105.327 874.804 500
976 1 31.008 3.32172 103 80.8738 878.243 524.01
977 0 37.01 8.15996 302 75.7318 878.046 524.92
978 0 38.0508 3.54789 135 78.9111 878.341 525.733
979 0 41.0158 1.68228 69 78.7536 878.826 531.159
980 0 41.1119 5.69178 234 76.5641 878.034 522.833
981 0 42.0141 4.18907 176 76.6818 877.818 525.688
982 0 45.0064 2.24412 101 81.8416 877.832 515.386
983 0 45.0419 3.48565 157 79.0064 877.815 520.153
984 0 51.0916 4.07112 208 77.4038 877.404 522.731
985 0 48.067 2.68375 129 78.938 878.62 522.659
986 0 52.0997 5.50866 287 73.5331 877.909 528.279
987 0 53.1348 4.87439 259 74.0618 878.259 528.629
988 0 52.0423 3.91989 204 73.7451 878.26 532.701
989 1 39.0528 6.73446 263 71.597 877.848 530.259
990 0 42.0546 8.72675 367 69.951 877.616 532.49
991 0 44.0565 9.89638 436 67.6972 878.08 530.218
992 0 44.0906 9.82068 433 68.0185 877.831 531.695
993 0 50.0349 11.0323 552 65.5652 878.692 530.984
994 0 47.0374 10.9062 513 67.4581 878.417 527.949
995 0 50.0644 9.22811 462 68.6061 878.275 525.186
996 0 48.1209 10.5983 510 68.4784 877.596 526.035
997 0 39.0837 5.27074 206 75.1942 877.684 529.966
998 0 34.086 2.93376 100 77.94 878.24 530.57
999 0 37.0436 4.88614 181 76.3204 878.425 528.735
1000 0 37.0348 3.37521 125 78.68 878.704 524.176
1001 0 39.0892 4.37461 171 78.2749 877.965 520.848
1002 0 41.07 6.81763 280 76.2679 877.964 521.986
1003 0 41.1168 3.16173 130 77.6077 878.177 526.038
1004 0 42.0161 6.52132 274 75.3686 877.938 523.872
1005 0 44.0245 2.31689 102 79.6078 877.49 523.539
1006 0 47.1763 6.74068 318 75.9843 877.818 519.786
1007 0 43.0315 2.13797 92 78.75 878 526.511
1008 0 48.0169 3.91529 188 76.1436 878.426 528.122
1009 0 52.0662 4.12936 215 74.7163 877.628 529.116
1010 0 57.0614 3.66272 209 76.8612 878.167 525.057
1011 0 58.1255 4.07739 237 76.692 878.291 521.553
1012 0 61.0784 5.2228 319 77.2633 877.903 515.27
1013 1 79.9169 8.05837 644 82.7562 876.342 498.943
1014 0 83.9269 4.48009 376 90.5479 875.141 498.923
1015 1 38.0337 5.70546 217 73.5806 876.991 526.599
1016 0 39.07 6.14282 240 73.4 876.854 524.458
1017 0 48.0783 10.4205 501 68.004 876.327 528.992
1018 0 46.2078 11.2535 520 67.6058 877.079 525.956
1019 0 48.0674 8.73773 420 69.9381 877.236 525.343
1020 0 50.0863 9.52357 477 69.3585 876.975 525.725
1021 0 52.0633 8.0671 420 69.9595 876.595 521.45
1022 0 54.0897 9.89097 535 67.7178 876.841 522.751
1023 0 55.1522 9.70043 535 68.7589 876.927 523.011
1024 0 58.0218 9.99624 580 67.9379 877.571 522.916
1025 0 61.2526 10.5955 649 66.6949 877.373 522.83
1026 0 62.0512 8.70249 540 68.9222 877.178 521.511
1027 0 65.0688 10.5581 687 66.6055 876.582 520.157
1028 0 63.3896 7.76152 492 70.3394 876.909 518.815
1029 0 69.0306 10.6909 738 66.3659 877 516.598
1030 0 70.107 8.41571 590 69.2458 876.539 515.842
1031 0 73.1103 11.5579 845 65.7467 876.303 515.063
1032 0 76.2845 10.9328 834 66.4161 876.823 516.002
1033 0 78.1834 10.1812 796 67.25 876.879 509.896
1034 0 81.3499 9.79719 797 67.7177 875.925 512.251
1035 1 37.0711 7.31027 271 68.428 876.904 532.786
1036 0 42.0331 9.06428 381 66.5433 876.761 530.591
1037 0 42.0327 7.08972 298 68.7953 877.228 530.591
1038 0 44.022 9.40438 414 66.5531 876.664 532.044
1039 0 45.054 10.21 460 66.1391 877.102 529.026
1040 0 49.025 10.0153 491 66.1242 876.78 527.609
1041 0 49.0754 9.67899 475 67.04 876.072 527.061
1042 0 53.0157 10.3554 549 65.6521 875.761 527.49
1043 0 53.038 9.29522 493 67.2008 875.753 524.408
1044 0 56.2717 10.3071 580 65.8052 876.097 525.276
1045 0 58.0598 10.093 586 65.6843 875.2 523.939
1046 0 58.1036 10.7739 626 64.7955 876.085 526.727
1047 0 59.1278 9.97839 590 65.878 875.602 521.785
1048 0 62.1525 11.6649 725 63.9724 875.898 522.157
1049 0 64.1412 11.4279 733 64.2046 875.778 521.936
1050 0 64.094 10.2038 654 65.9281 875.362 521.983
1051 0 67.067 11.5258 773 64.5679 876.093 518.951
1052 0 68.0551 9.7715 665 66.6 875.508 517.623
1053 0 70.0838 11.101 778 65.7301 875.434 518.707
1054 0 73.0786 9.60609 702 67.1866 875.406 513.765
1055 0 76.1775 10.1605 774 65.9974 875.331 514.134
1056 0 77.0965 8.58664 662 68.1435 875.325 513.468
1057 0 80.2368 9.58413 769 66.6372 875.902 510.269
1058 0 80.0476 10.0815 807 66.5762 876.061 512.294
1059 1 42.0112 7.61701 320 67.3531 876.372 529.347
1060 0 44.0559 9.82842 433 65.582 876.044 529.587
1061 0 48.0333 8.91048 428 66.0561 876.808 532.984
1062 0 49.0415 8.66612 425 66.2706 876.701 531.193
1063 0 51.1342 8.40925 430 66.5721 876.328 526.765
1064 0 51.0439 10.6967 546 64.1648 876.299 531.564
1065 0 53.0538 8.74585 464 65.9009 876.539 531.858
1066 0 59.0494 10.0932 596 63.7064 876.609 529.8
1067 0 56.1344 8.40839 472 66.0593 876.513 527.616
1068 0 59.0349 11.1629 659 63.0668 876.514 526.299
1069 0 57.033 9.66107 551 65.2831 876.002 525.802
1070 0 62.1206 9.67472 601 65.1198 876.646 524.111
1071 0 65.1339 11.2384 732 63.1639 876.835 520.094
1072 0 65.0772 8.7281 568 66.0916 877.671 522.176
1073 0 67.1192 11.1295 747 63.2771 876.837 521.102
1074 0 71.0556 10.7803 766 63.7441 876.324 517.576
1075 0 68.458 8.29705 568 60.5599 876.877 518.548
1076 0 70.0674 8.2492 578 62.0813 876.379 516.163
1077 0 70.1699 10.6598 748 60.8168 877.047 518.769
1078 0 74.0585 11.9095 882 58.9218 876.637 519.401
1079 0 71.2392 10.8788 775 60.8671 876.872 522.255
1080 0 74.0817 9.90798 734 62.0613 877.499 520.541
1081 0 67.0928 8.86831 595 62.3546 876.625 518.723
1082 0 70.1033 9.45747 663 62.2353 876.712 520.341
1083 0 66.0886 8.62479 570 64.2842 876.384 517.289
1084 0 64.0435 9.74338 624 63.7035 876.5 523.253
1085 1 35.1037 12.3349 433 60.97 876.102 541.106
1086 0 37.0117 10.6993 396 63.8889 876.502 543.722
1087 0 34.0725 10.8885 371 65.965 876.205 544.178
1088 1 69.1139 12.5156 865 66.985 876.769 527.971
1089 0 67.1618 11.7329 788 68.6028 876.967 527.796
1090 0 71.0376 13.7111 974 64.771 876.727 525.719
1091 0 71.0996 12.0113 854 65.2119 876.7 526.462
1092 0 74.0549 12.2072 904 64.7223 875.949 525.77
1093 0 75.1545 11.7358 882 64.2177 875.712 526.779
1094 0 74.0994 11.822 876 64.9018 875.69 523.274
1095 0 75.1882 13.0473 981 63.3262 875.978 521.752
1096 0 77.2264 12.3144 951 62.7802 877.037 523.583
1097 0 75.0816 12.1867 915 64.3956 877.136 521.038
1098 0 77.2129 10.5682 816 65.1176 876.597 522.433
1099 0 79.1651 11.9118 943 63.3977 876.82 521.196
1100 0 79.1139 12.8802 1019 62.6604 877.132 521.298
1101 0 80.2152 11.9429 958 63.9269 876.982 518.926
1102 0 80.1089 12.4206 995 63.392 876.302 521.061
1103 0 83.1785 12.2748 1021 63.5837 876.366 518.525
1104 0 80.1595 11.2027 898 64.3998 876.379 521.285
