time division length width area intensity CMx CMy
0 0 35.0222 8.85152 310 59.4032 575.358 513.119
1 0 39.0417 11.7823 460 55.0326 575.12 512.635
2 0 40.0367 11.6643 467 53.8394 574.37 515.158
3 0 37.0335 10.666 395 57.5342 574.466 513.134
4 0 39.0375 11.2968 441 54.8776 573.896 513.265
5 0 40.0239 10.3938 416 56.613 573.993 511.202
6 0 39.0536 10.3448 404 57.0074 573.775 510.861
7 0 43.0665 11.192 482 56.0228 573.691 510.154
8 0 44.0488 11.1467 491 56.1711 574.004 510.98
9 0 45.0508 13.4071 604 54.5182 573.512 508.371
10 0 48.0676 10.7973 519 56.7784 573.162 510.965
11 0 48.0658 11.5883 557 56.0772 573.662 509.165
12 0 49.0507 11.3556 557 57.1975 573.578 508.691
13 0 48.0827 11.3554 546 58.0037 573.469 506.991
14 0 51.142 11.9667 612 56.7958 572.814 507.09
15 0 51.0349 11.7567 600 56.665 573.658 508.403
16 0 52.0876 13.3237 694 55.3156 572.941 508.624
17 0 54.1396 11.8028 639 57.6448 573.474 509.205
18 0 56.0763 12.6078 707 56.4088 572.805 507.1
19 0 55.0826 10.7838 594 59.2508 572.894 505.65
20 0 55.0662 11.7313 646 58.6858 573.223 505.915
21 0 57.0887 11.9989 685 58.1139 573.009 504.49
22 0 57.0973 11.892 679 58.5376 572.218 502.296
23 0 59.081 11.8312 699 58.5222 571.585 503.099
24 0 59.1626 12.4741 738 58.6599 572.469 503.377
25 0 63.0588 13.3209 840 57.2631 571.825 500.718
26 0 63.1272 12.5619 793 58.8096 571.914 498.189
27 0 65.1427 12.3421 804 59.3371 573.077 500.012
28 0 64.1254 12.5691 806 59.8238 572.397 499.888
29 0 66.019 11.6633 770 61.3857 572.442 499.5
30 0 68.1602 13.6737 932 59.2929 572.974 498.774
31 0 69.1298 12.6718 876 60.4635 572.949 498.839
32 0 72.187 12.1352 876 60.7888 573.328 498.325
33 0 73.0392 11.7745 860 62.6616 572.923 493.649
34 0 75.2892 12.9899 978 61.1329 573.294 496.116
35 0 78.1596 12.3209 963 62.5462 573.146 494.659
36 1 37.0434 10.8251 401 63.9975 574.414 511.042
37 0 38.0321 11.7269 446 62.6928 573.843 512.96
38 0 40.0232 12.018 481 62.2952 572.94 513.782
39 0 38.0892 11.8931 453 63.6954 572.947 513.068
40 0 41.0171 11.4342 469 62.7932 573.814 513.876
41 0 43.0222 13.3884 576 62.2865 573.246 511.474
42 0 42.0371 12.822 539 63.9221 574.03 512.069
43 0 43.0678 13.1188 565 63.954 573.497 510.805
44 0 42.0639 11.1735 470 66.6957 574.247 511.623
45 0 45.0219 10.4838 472 67.1102 573.593 511.83
46 0 45.0314 10.9479 493 66.4604 574.262 511.128
47 0 49.0258 11.4022 559 66.3095 575.826 509.057
48 0 50.0156 13.2958 665 64.6286 574.955 507.803
49 0 51.1487 11.6132 594 66.6465 575.152 509.444
50 0 51.087 11.314 578 67.5069 575.183 509.363
51 0 53.0446 14.1956 753 64.6109 575.393 506.033
52 0 54.0813 12.888 697 66.2281 574.888 507.221
53 0 55.1195 12.5001 689 66.5501 575.448 507.57
54 0 56.1635 13.9058 781 66.2458 575.629 504.259
55 0 59.0821 13.5236 799 66.2315 575.202 504.811
56 0 59.072 11.8161 698 68.7808 574.885 504.775
57 0 62.0524 13.1341 815 67.7522 575.843 502.498
58 0 64.0823 13.9352 893 66.6786 576.326 501.917
59 0 66.0566 14.427 953 65.4176 575.59 501.114
60 0 69.0283 13.154 908 67.1718 575.898 500.803
61 0 68.04 12.7719 869 68.6214 575.117 501.232
62 0 72.1348 13.6411 984 67.9228 574.855 496.526
63 0 74.0904 11.6614 864 70.3935 575.39 494.644
64 0 76.0341 12.9416 984 69.0681 574.844 493.278
65 1 41.0261 12.2849 504 68.0099 575.175 510.927
66 0 41.0325 11.5762 475 69.7347 575.556 510.501
67 0 43.0235 11.6913 503 68.2465 575.69 511.507
68 0 44.0967 10.4316 460 70.2848 575.006 512.33
69 0 46.0687 10.7448 495 70.596 575.339 510.695
70 0 46.0636 11.8315 545 69.8037 574.771 510.09
71 0 50.0156 11.0366 552 69.1232 575.091 510.649
72 0 48.0489 12.737 612 69.4592 574.712 507.201
73 0 51.0879 12.4883 638 69.9655 573.859 506.282
74 0 53.0293 12.4082 658 69.848 574.008 505.587
75 0 53.0574 12.7032 674 70.4822 574.361 504.276
76 0 55.0403 13.0086 716 69.8254 574.911 503.818
77 0 55.0452 11.2453 619 72.8174 574.979 503.512
78 0 60.0299 11.9607 718 71.0487 575.067 502.063
79 0 60.0603 13.6363 819 70.6435 574.889 501.622
80 0 64.0904 13.1065 840 70.806 574.519 500.533
81 0 66.1158 11.858 784 73.315 575.333 500.282
82 0 67.1087 13.5154 907 70.936 575.332 500.567
83 0 67.0477 11.8572 795 74.1711 574.88 500.03
84 0 72.1034 12.593 908 73.9064 575.119 498.159
85 0 73.1042 12.2565 896 74.4777 575.596 498.713
86 0 76.0203 12.7203 967 74.5884 575.596 496.278
87 0 78.0397 13.4931 1053 74.3067 575.69 494.199
88 0 80.1603 13.0489 1046 75.5727 575.745 492.445
89 1 40.022 12.0184 481 73.7942 576.366 511.869
90 0 41.0653 11.5913 476 74.874 575.082 510.992
91 0 42.0393 12.8451 540 74.1352 575.496 510.531
92 0 45.0983 13.1934 595 73.042 575.911 509.75
93 0 44.0164 12.7452 561 75.3351 575.804 508.667
94 0 46.0419 11.8153 544 75.6195 576.167 508.855
95 0 47.1253 11.4588 540 75.6296 576.052 509.346
96 0 49.0679 13.3285 654 73.9725 575.184 507.413
97 0 51.0134 12.1929 622 75.2235 575.756 506.667
98 0 53.1367 12.2514 651 74.8756 576.235 507.628
99 0 50.048 10.0703 504 78.8036 575.603 507.28
100 0 58.0518 12.6611 735 73.9211 575.261 504.876
101 0 56.0395 12.6339 708 75.1554 576.001 503.177
102 0 57.0774 12.2991 702 75.5897 575.677 502.721
103 0 61.1138 12.2886 751 74.3369 576.248 503.656
104 0 59.0588 12.005 709 76.9309 576.314 500.873
105 0 62.0402 11.7988 732 77.6858 575.605 500.753
106 0 62.0324 12.026 746 77.7507 575.953 500.718
107 0 63.1708 10.5428 666 79.9204 575.992 500.033
108 0 65.0212 11.4117 742 79.2574 575.787 499.055
109 0 68.0558 11.7551 800 78.51 576.129 496.885
110 0 72.0856 12.3048 887 76.8771 574.375 496.833
111 0 74.1419 10.0483 745 80.8698 574.134 496.846
112 0 74.0288 12.1169 897 79.7982 574.658 493.678
113 0 76.093 11.7356 893 78.9317 575.234 494.867
114 0 80.0668 11.7027 937 79.4899 574.828 491.99
115 0 82.096 11.5596 949 80.0011 575.043 490.311
116 0 85.0749 13.8819 1181 76.8112 574.798 489.04
117 0 86.1845 12.1368 1046 79.3528 575.486 488.805
118 0 89.049 11.5667 1030 78.9058 575.935 489.773
119 0 91.1038 12.6669 1154 78.7955 576.126 486.856
120 0 94.1101 12.8467 1209 78.5509 575.686 485.209
121 0 96.1804 13.2979 1279 77.4246 575.475 482.712
122 1 48.0271 12.9718 623 73.8507 576.39 506.164
123 0 49.0283 10.6877 524 77.7576 576.055 505.048
124 0 49.0367 12.1134 594 75.6599 576.217 503.968
125 0 51.036 10.7375 548 77.9416 575.192 504.095
126 0 53.014 12.6004 668 75.1033 574.882 503.048
127 0 55.0548 10.9346 602 76.505 574.897 503.807
128 0 59.0729 12.9162 763 73.0446 575.598 500.189
129 0 60.0876 11.633 699 75.5322 576.305 500.694
130 0 61.0583 12.791 781 74.2177 575.256 497.886
131 0 62.0787 11.6626 724 75.3522 574.783 501.983
132 0 64.0885 11.609 744 75.9825 575.261 500.008
133 0 68.1449 12.6789 864 74.8796 575.885 496.068
134 0 67.0767 11.6881 784 77.3048 575.536 495.787
135 0 70.0428 12.5209 877 75.813 575.067 494.366
136 0 71.0737 11.5655 822 78.0036 575.51 492.783
137 1 34.0243 10.7276 365 74.7151 575.786 511.921
138 0 36.0044 10.9709 395 74.9595 575.84 510.805
139 0 37.0379 10.5568 391 75.7519 575.552 510.008
140 0 38.0219 11.3882 433 74.4065 576.7 511.236
141 0 39.014 11.2268 438 74.6461 576.361 511.429
142 0 41.0343 11.8194 485 73.0763 576.633 509.707
143 0 44.0475 10.7838 475 73.4147 575.074 509.198
144 0 43.1949 10.6031 458 75.548 574.86 507.319
145 0 45.1254 11.9445 539 73.0779 575.879 505.952
146 0 46.0595 11.0943 511 73.5636 575.219 505.008
147 0 48.1469 12.8357 618 70.6828 575.005 506.608
148 0 46.0566 10.7476 495 75.5212 574.873 504.218
149 0 52.0472 12.3926 645 70.4558 574.744 504.668
150 0 51.1555 12.0222 615 72.1968 574.815 503.278
151 0 52.1126 11.7822 614 72.5456 575.686 502.743
152 0 52.0543 10.4698 545 74.7339 574.927 502.231
153 0 56.1154 11.3338 636 72.4843 574.627 501.258
154 0 56.0658 10.1666 570 74.1474 575.002 500.94
155 0 58.0824 11.1738 649 71.8736 575.367 500.641
156 0 61.0697 12.0354 735 70.4612 576.171 498.563
157 0 63.0217 12.6464 797 69.2585 575.753 496.907
158 0 65.028 12.164 791 69.5411 575.655 496.762
159 0 66.1077 11.6325 769 70.5982 575.542 495.042
160 0 68.1863 11.5712 789 70.1698 576.573 494.636
161 0 71.1802 11.8713 845 69.8497 576.432 493.232
162 0 72.1564 10.2555 740 71.7351 575.958 492.966
163 0 74.2464 11.7447 872 70.0482 575.942 489.804
164 0 79.143 11.953 946 68.2283 576.446 491.8
165 1 43.0449 10.2916 443 69.3928 576.406 507.088
166 0 42.0122 10.2113 429 71.2191 577.065 504.937
167 0 44.0687 10.6879 471 69.1486 577.183 506.359
168 0 45.0513 10.9875 495 69.2121 577.252 503.897
169 0 47.0749 11.4286 538 68.2361 576.758 502.013
170 0 48.0768 10.296 495 68.9232 576.03 504.919
171 0 49.0501 11.0907 544 68.7757 576.202 501.318
172 0 51.0583 11.1049 567 68.1834 575.87 501.436
173 0 53.0692 11.5133 611 67.9313 576.561 498.609
174 0 55.0881 11.2184 618 67.2023 576.181 500.526
175 0 56.1034 11.354 637 67.9341 575.898 497.728
176 0 57.1085 11.8371 676 67.0592 574.709 495.879
177 0 59.0927 11.135 658 67.5973 574.687 497.467
178 0 63.1155 11.9463 754 66.3992 575.098 495.619
179 0 63.054 9.62667 607 68.9522 575.89 495.265
180 0 66.0522 12.1722 804 66.0983 575.35 492.062
181 0 68.1012 10.9396 745 66.9383 574.796 496.219
182 0 69.1126 10.794 746 67.7024 574.465 491.515
183 0 74.1911 12.5487 931 65.5639 573.402 490.542
184 0 76.1357 10.9804 836 67.823 573.126 490.407
185 0 77.0846 11.4549 883 67.5923 572.742 489.326
186 0 83.0993 11.384 946 66.8615 573.252 488.921
187 1 44.0198 12.4035 546 64.1538 573.306 505.225
188 0 44.0266 10.9479 482 66.9336 573.145 503.429
189 0 45.0386 11.0794 499 66.3607 573.1 505.884
190 0 48.1302 10.5755 509 67.1965 572.601 504.862
191 0 49.0628 10.5987 520 67.2288 571.796 505.238
192 0 52.0459 12.1239 631 64.9398 571.488 504.17
193 0 53.0376 11.7652 624 65.9904 572.575 504.261
194 0 55.1508 12.4024 684 65.3567 571.553 503.556
195 0 55.0788 10.6575 587 68.7257 571.351 503.043
196 0 60.1132 12.4432 748 64.3342 571.922 504.619
197 0 59.1076 11.4706 678 66.8348 572.063 503.493
198 0 63.1051 13.1527 830 64.5072 571.613 502.276
199 0 65.079 13.2301 861 63.9338 571.664 501.957
200 0 64.1409 12.2075 783 66.2324 572.014 500.434
201 0 67.1037 13.9337 935 63.4267 571.271 499.848
202 0 69.0845 11.2616 778 66.329 570.898 500.603
203 0 68.1105 11.3492 773 66.8176 570.918 498.718
204 0 73.3089 11.4311 838 65.5119 571.547 500.138
205 0 76.1456 11.9771 912 64.909 570.97 495.675
206 0 77.0818 12.0392 928 64.9623 570.92 493.875
207 0 81.0652 12.2617 994 64.4678 571.448 492.8
208 0 84.1492 11.1706 940 65.5255 571.377 492.852
209 0 87.112 12.7537 1111 63.3861 571.433 493.717
210 0 88.1461 12.4226 1095 64.9425 570.486 488.654
211 0 92.1114 12.0832 1113 64.301 570.632 490.283
212 0 95.1368 13.4123 1276 63.3064 570.179 488.001
213 1 51.0368 10.9137 557 63.2262 569.844 510.806
214 0 52.0401 11.299 588 62.6735 569.548 510.702
215 0 52.067 11.3316 590 63.5695 569.053 511.088
216 0 55.0289 10.8125 595 64.6672 568.776 508.812
217 0 56.0613 12.2901 689 63.3266 568.65 505.811
218 0 58.0732 11.6749 678 64.0177 567.892 504.81
219 0 56.0796 10.6991 600 65.8067 568.813 504.77
220 0 60.1149 10.8958 655 64.6519 569.151 504.119
221 0 61.0824 10.5104 642 65.2508 569.343 502.966
222 0 63.0711 11.3047 713 64.2595 569.644 502.348
223 0 65.285 12.5144 817 62.727 570.058 500.354
224 0 67.1545 12.2107 820 63.661 568.98 497.248
225 0 68.1471 11.9007 811 64.2232 569.374 497.174
226 0 72.103 11.761 848 63.7441 569.342 496.142
227 0 72.0836 10.682 770 65.5701 569.217 496.648
228 0 75.066 11.8029 886 64.1309 569.915 495.172
229 0 78.1072 11.2282 877 64.9339 569.722 492.236
230 0 80.0822 12.3373 988 63.4767 569.822 491.342
231 0 81.1506 11.0905 900 65.1322 569.768 491.072
232 0 87.1406 13.4036 1168 62.125 570.069 488.347
233 1 42.0284 11.1115 467 63.1071 570.666 509.642
234 0 45.0544 10.6316 479 63.1274 569.491 511.119
235 0 48.0262 11.6603 560 62.6393 569.25 508.554
236 0 47.0456 11.0106 518 64.0541 569.994 507.828
237 0 50.0686 11.4643 574 63.0226 570.078 505.96
238 0 48.0741 10.1718 489 66.1902 570.11 507.577
239 0 51.1354 11.6553 596 63.9597 570.05 504.765
240 0 54.0911 11.2773 610 64.677 569.607 503.964
241 0 54.1334 12.3029 666 63.2673 569.338 503.282
242 0 55.1405 11.4072 629 64.5501 570.081 504.184
243 0 55.1263 11.0836 611 65.5777 570.579 502.985
244 0 58.057 12.66 735 63.4653 569.137 500.833
245 0 58.0653 12.3826 719 64.7357 569.748 498.768
246 0 60.0988 12.2465 736 64.7011 569.773 498.614
247 0 62.0414 12.2982 763 64.7641 569.979 499.322
248 0 62.0703 11.2775 700 66.5971 569.983 500.061
249 0 68.0834 11.4419 779 64.9384 570.972 499.933
250 0 69.0994 12.5616 868 64.167 570.088 498.74
251 0 71.0334 13.8245 982 62.3299 570.775 496.834
252 0 72.0506 13.7126 988 62.83 571.218 496.078
253 0 74.0546 11.9371 884 65.3416 570.661 495.656
254 1 38.0335 9.25499 352 65.7614 571.77 514.602
255 0 39.0241 10.1732 397 64.3627 571.854 513.965
256 0 38.0964 7.58602 289 68.1315 571.727 514.225
257 0 40.0329 10.7162 429 64.317 572.037 512.422
258 0 42.0466 9.94136 418 64.9761 571.761 511.847
259 0 44.035 11.4681 505 62.3604 570.194 511.887
260 0 44.0505 10.942 482 63.2386 571.446 512.546
261 0 45.1011 10.5097 474 63.8143 571.025 511.013
262 0 45.0396 10.2354 461 64.7831 570.232 509.31
263 0 47.0701 11.4085 537 62.9441 570.829 510.06
264 0 48.121 11.388 548 63.9416 570.157 507.881
265 0 48.1122 10.5587 508 64.5413 570.325 507.852
266 0 52.0556 11.1611 581 62.7745 569.831 508.733
267 0 52.1121 11.1107 579 62.9931 569.592 509.364
268 0 53.1002 11.8644 630 62.5317 570.251 507.068
269 0 56.1172 11.4403 642 63.0156 570.441 506.664
270 0 57.1033 11.2078 640 63.3391 569.242 505.714
271 0 59.1078 10.8446 641 63.2995 569.896 505.911
272 0 58.1418 11.7987 686 63.3994 569.761 501.016
273 0 62.0519 12.5701 780 61.9051 569.069 501.88
274 0 66.1073 11.4359 756 62.2024 568.869 503.955
275 0 66.2261 12.8499 851 61.1727 569.148 501.71
276 0 68.155 11.6499 794 62.6587 569.893 499.324
277 0 68.1659 11.5307 786 63.514 569.257 499.356
278 0 72.1218 11.6608 841 62.7313 568.878 499.225
279 0 74.0887 12.1746 902 62.6031 569.09 496.471
280 0 75.0784 10.2693 771 64.7717 568.458 500.197
281 0 78.1089 11.4328 893 63.9507 568.951 497.646
282 0 79.0826 11.8863 940 64.0521 568.962 496.387
283 1 42.0667 11.1965 471 63.7919 568.82 513.718
284 0 43.0605 11.9599 515 62.2214 568.635 515.15
285 0 45.0269 13.1033 590 60.9424 568.246 512.1
286 0 45.1531 10.6969 483 64.6791 568.282 513.311
287 0 47.032 11.6729 549 63.1475 568.444 512.466
288 0 47.0415 11.3942 536 64.0187 568.347 512.871
289 0 50.1137 13.1701 660 61.5652 568.58 511.236
290 0 48.1083 11.2662 542 64.6605 568.266 509.662
291 0 52.061 12.2741 639 63.1909 568.551 508.646
292 0 54.1327 11.712 634 63.4338 568.315 509.519
293 0 55.2071 12.589 695 62.246 568.696 508.683
294 0 56.1157 12.0644 677 63.6204 568.607 506.016
295 0 57.0765 11.3882 650 64.7338 568.192 504.565
296 0 59.0857 12.6427 747 62.4244 568.463 504.337
297 0 60.1513 11.5043 692 64.2587 567.65 502.467
298 0 63.0995 12.3456 779 63.2362 568 501.16
299 0 64.1235 12.0861 775 62.9342 567.819 503.951
300 0 65.0858 10.8165 704 65.2188 568.311 502.324
301 0 70.0995 12.7961 897 61.7893 568.207 500.033
302 0 70.0527 12.2622 859 62.532 566.671 500.609
303 0 72.1273 12.0759 871 63.4087 567.091 497.468
304 0 75.1263 12.845 965 61.9244 567.247 498.182
305 0 73.0764 11.1801 817 64.9229 567.042 493.016
306 0 79.1407 11.5617 915 64.2973 567.022 494.344
307 0 79.1955 12.084 957 63.3062 567.04 493.997
308 0 85.0978 13.5256 1151 60.702 567.728 493.95
309 0 84.1001 11.5577 972 63.8344 567.169 488.471
310 0 87.185 12.2842 1071 62.9785 567.687 489.013
311 0 90.1602 11.9787 1080 63.4972 567.941 487.568
312 1 48.0216 10.5786 508 63.3524 567.376 507.404
313 0 50.0562 11.1674 559 62.0716 567.614 508.662
314 0 51.121 11.0131 563 62.6057 567.542 506.162
315 0 51.0762 10.455 534 63.706 567.704 505.397
316 0 52.0788 9.86965 514 64.5603 567.675 505.969
317 0 54.0881 10.5568 571 63.0893 568.019 503.86
318 0 57.0565 12.6366 721 60.6033 567.646 503.495
319 0 56.0434 10.3848 582 63.1735 567.83 503.624
320 0 59.0673 11.5292 681 61.8282 567.436 502.125
321 0 62.0797 12.3712 768 60.6667 567.086 502.569
322 0 63.1033 12.0913 763 61.4574 568.456 500.516
323 0 64.2272 10.8365 696 62.4425 568.118 499.444
324 0 64.0695 11.4719 735 62.8286 567.25 498.649
325 0 69.1501 12.9139 893 60.5857 567.826 497.394
326 0 71.0728 12.4098 882 61.6213 568.29 494.304
327 0 72.0522 11.8664 855 62.1567 567.668 496.324
328 0 75.0853 12.8387 964 60.8724 568.075 495.265
329 0 78.1101 12.6872 991 61.2714 567.942 494.476
330 0 78.0783 10.6047 828 64.5085 567.959 492.575
331 0 82.0712 12.1236 995 62.6502 568.293 492.051
332 1 42.0613 7.60795 320 63.9562 567.959 514.538
333 0 43.1174 10.1583 438 62.879 567.982 511.19
334 0 45.0746 9.07384 409 64.8949 568.332 510.083
335 0 45.0632 11.5837 522 61.5747 567.194 510.467
336 0 45.0375 10.4358 470 64.0298 567.623 508.179
337 0 47.0775 13.2123 622 60.9421 567.667 506.299
338 0 51.0362 12.0699 616 61.6006 567.557 507.39
339 0 52.0389 11.2416 585 62.1573 568.682 507.356
340 0 52.1905 12.0712 630 61.9317 568.343 504.622
341 0 54.0455 11.3238 612 62.8873 568.273 503.556
342 0 53.0846 10.0971 536 64.9216 567.625 502.231
343 0 59.0653 13.1719 778 60.3779 567.916 500.524
344 0 59.0876 11.9653 707 62.1231 567.982 501.1
345 0 63.0768 12.1281 765 61.4667 567.593 500.17
346 0 64.1266 11.8516 760 62.3763 567.729 499.189
347 0 67.0441 11.4999 771 62.6252 568.925 499.213
348 0 68.1154 11.3043 770 63.3623 568.292 497.977
349 0 71.0891 10.7471 764 63.9123 567.664 497.901
350 0 72.1558 10.5328 760 64.4987 568.69 496.326
351 1 35.0219 8.4233 295 63.8407 569.444 514.461
352 0 36.0229 8.85549 319 64.2445 569.511 514.273
353 0 37.0653 9.8475 365 63.1836 569.063 513.781
354 0 37.03 10.8831 403 63.1687 568.536 512.166
355 0 39.0088 11.2795 440 62.2727 568.88 512.857
356 0 41.0712 10.9079 448 63.0112 568.049 510.188
357 0 42.0917 9.69313 408 63.9289 568.6 513.032
358 0 43.0865 11.7902 508 63.5591 568.878 509.287
359 0 44.0769 10.0279 442 64.1222 569.002 512.093
360 0 47.114 10.4428 492 63.9045 568.262 509.246
361 0 48.0586 11.2571 541 63.3198 568.567 508.164
362 0 48.0708 10.6302 511 64.7202 568.022 507.458
363 0 49.2732 11.0405 544 63.454 569.055 507.688
364 0 51.1604 10.4768 536 64.5578 569.196 506.584
365 0 52.1026 11.5733 603 63.7546 568.463 503.136
366 0 55.1996 11.3226 625 63.3072 569.104 504.523
367 0 57.1374 11.4111 652 63.5383 569.313 503.023
368 0 57.1519 9.5185 544 65.1305 569.483 504.219
369 0 57.0995 10.0526 574 64.9477 569.22 503.498
370 0 61.1944 11.7658 720 62.7333 568.549 500.554
371 0 63.1463 11.7188 740 62.9419 568.585 500.926
372 0 65.1982 10.4758 683 64.7716 568.363 498.119
373 0 69.2472 12.3471 855 61.8456 567.848 497.461
374 0 70.069 10.6038 743 63.6878 569.328 499.236
375 0 70.2335 9.96676 700 65.0257 569.767 495.783
376 1 39.0518 9.67944 378 63.6614 570.307 511.799
377 0 41.0728 10.4692 430 63.307 569.777 511.595
378 0 41.0843 10.9531 450 62.74 569.144 510.86
379 0 42.0393 10.7756 453 63.6137 569.035 509.698
380 0 43.0851 11.3032 487 62.7454 568.398 508.411
381 0 45.0274 10.6824 481 63.5592 568.06 507.451
382 0 46.1801 11.087 512 63.2871 567.658 507.826
383 0 46.1088 10.2583 473 64.6617 568.273 505.681
384 0 49.1124 12.0743 593 61.9511 569.147 507.344
385 0 51.1251 9.54522 488 65.7787 568.836 505.182
386 0 51.0489 10.9307 558 64.3638 569.222 503.64
387 0 52.0618 11.0446 575 64.4452 568.991 504.435
388 0 54.0655 11.597 627 63.3477 568.67 505.459
389 0 59.0918 12.1844 720 61.8278 568.803 504.821
390 0 58.1345 10.2177 594 64.8401 569.507 505.525
391 0 60.036 12.1261 728 63.1278 569.176 502.955
392 0 61.2653 10.5117 644 65.6894 569.483 500.964
393 0 63.1282 11.2786 712 65.1053 568.206 499.15
394 0 65.1105 12.5479 817 63.6242 568.226 497.452
395 0 66.0268 11.253 743 65.5101 568.048 496.633
396 0 67.1227 12.0526 809 64.9802 568.177 495.838
397 0 71.1106 11.4048 811 65.8212 568.84 498.174
398 0 70.0732 9.96102 698 68.3138 568.62 497.037
399 0 75.1535 12.9069 970 63.8763 568.938 498.174
400 0 77.0801 12.0524 929 65.4144 568.561 495.025
401 0 81.1147 12.4515 1010 64.5465 568.575 493.389
402 1 43.131 10.387 448 64.9509 569.27 511.931
403 0 41.0439 9.03911 371 67.4852 568.989 512.655
404 0 45.0903 10.0909 455 66.1758 568.866 509.4
405 0 45.0815 10.0041 451 66.9246 569.723 509.965
406 0 48.085 12.3531 594 63.0017 568.896 510.892
407 0 49.0942 11.4474 562 64.7509 568.781 509.964
408 0 51.1264 12.5571 642 63.1651 568.96 508.076
409 0 51.0718 11.0433 564 65.2996 568.849 507.885
410 0 53.1196 11.2011 595 65.205 567.63 505.669
411 0 52.1393 10.1843 531 66.9454 568.439 506.819
412 0 56.1366 11.757 660 64.1894 568.667 505.933
413 0 58.1631 11.8804 691 64.1418 568.414 505.297
414 0 58.3139 13.7017 799 61.7021 569.442 506.468
415 0 57.1252 10.0131 572 67.0664 568.654 503.549
416 0 63.1263 12.4988 789 63.6134 568.987 502.696
417 0 65.1552 10.5901 690 65.7768 569.009 502.623
418 0 64.0985 10.7959 692 65.7934 568.783 501.217
419 0 67.0863 12.2678 823 63.6987 568.518 500.706
420 0 70.1735 13.1959 926 62.8045 569.417 498.843
421 0 70.105 12.1104 849 65.0283 568.706 495.87
422 0 74.112 11.7795 873 64.9175 568.678 495.67
423 0 74.1578 11.3811 844 66.1789 568.228 495.532
424 0 80.0968 12.5723 1007 63.5065 568.51 495.936
425 0 80.1647 10.7529 862 66.3608 568.626 495.158
426 0 83.1099 11.4066 948 65.6076 568.553 493.096
427 0 86.0979 11.0223 949 66.3836 568.653 491.373
428 0 88.1093 11.9057 1049 65.2288 568.149 488.77
429 1 46.0694 8.76938 404 66.6906 567.79 512.728
430 0 49.0543 10.4986 515 63.901 569.179 511.381
431 0 52.0356 10.6273 553 64.2387 569.615 509.014
432 0 51.075 11.5125 588 63.7432 569.568 509.073
433 0 56.1267 12.3293 692 62.6069 569.314 506.204
434 0 56.1173 11.6363 653 63.4456 568.508 505.544
435 0 58.0368 10.4933 609 64.1757 568.877 507.291
436 0 59.0719 11.1898 661 63.711 569.617 504.234
437 0 61.0891 12.4245 759 62.386 569.277 501.453
438 0 64.2736 11.4666 737 63.6364 568.767 502.533
439 0 62.109 11.19 695 64.5496 569.135 498.571
440 0 68.0631 12.8263 873 60.8763 567.73 501.009
441 0 70.0779 12.3577 866 61.6374 568.87 498.994
442 0 69.0904 9.62507 665 65.3083 568.908 500.994
443 0 72.1176 11.3703 820 63.8195 569.404 495.787
444 0 76.2248 13.88 1058 60.3724 569.084 493.305
445 0 78.1582 11.5791 905 63.5801 568.484 494.256
446 0 81.1978 13.19 1071 60.6984 568.523 491.521
447 0 82.111 10.6685 876 64.516 568.994 489.273
448 0 86.1117 11.996 1033 62.7667 568.173 486.795
449 0 89.2207 11.1969 999 63.3534 567.931 487.687
450 1 45.0495 10.4774 472 62.6504 568.729 505.125
451 0 46.2387 9.29958 430 64.8093 568.463 503.965
452 0 48.0665 12.5659 604 60.351 568.434 505.086
453 0 50.166 11.2427 564 62.3723 569.188 503.532
454 0 48.0396 10.4705 503 64.0616 568.726 503.358
455 0 53.0464 10.6888 567 62.1676 569.196 506.258
456 0 52.249 10.2011 533 64.1632 569.493 505.726
457 0 55.2509 11.9093 658 61.4301 568.64 504.988
458 0 57.1568 10.2175 584 63.1866 568.776 503.3
459 0 60.1516 11.1552 671 61.1952 569.11 502.013
460 0 60.142 9.84337 592 62.8193 567.289 496.671
461 0 62.1857 10.9028 678 61.6652 567.732 500.584
462 0 65.0734 11.5562 752 60.3019 568.94 501.443
463 0 67.075 11.7182 786 59.7914 568.464 500.314
464 0 68.1217 12.14 827 59.1475 568.186 498.959
465 0 70.1263 11.3795 798 60.1366 568.545 496.886
466 0 72.1523 11.9054 859 59.1781 568.867 495.464
467 0 73.1471 10.5814 774 60.876 569.058 493.544
468 0 78.1298 11.9417 933 59.5198 569.17 491.988
469 0 80.1415 11.6669 935 59.5668 568.192 493.095
470 0 82.0846 12.6333 1037 58.8746 568.546 490.865
471 0 83.1775 10.5077 874 61.4222 569.156 489.55
472 0 86.2204 10.5196 907 60.946 568.58 490.863
473 1 44.048 9.23993 407 61.1843 569.479 509.998
474 0 46.107 12.0806 557 57.9677 569.689 508.928
475 0 47.109 11.5477 544 58.6029 569.252 508.465
476 0 48.0553 10.9457 526 59.2776 568.53 507.51
477 0 48.0373 11.0747 532 59.8365 568.038 506.78
478 0 52.0614 11.6401 606 57.8927 568.005 506.096
479 0 51.0384 12.5004 638 57.1881 568.082 505.616
480 0 52.0429 10.28 535 60.5963 567.841 506.168
481 0 54.111 11.0144 596 59.6326 567.728 506.883
482 0 56.099 10.9271 613 59.8173 567.251 506.759
483 0 58.3134 11.1295 649 59.433 568.433 504.704
484 0 58.0787 10.4858 609 60.4253 568.52 502.75
485 0 61.1161 9.88284 604 61.3725 568.187 503.831
486 0 64.102 10.8577 696 59.7988 568.882 501.741
487 0 64.0618 10.9582 702 60.5442 568.997 500.34
488 0 66.1322 11.5677 765 59.4353 568.983 501.12
489 0 67.1848 11.5354 775 60.0723 568.618 497.25
490 0 71.1407 11.7654 837 59.4624 568.277 499.597
491 0 71.1513 11.3561 808 60.7302 568.28 496.422
492 0 74.2782 11.605 862 60.6218 569.175 493.843
493 0 77.1544 12.0278 928 59.9688 567.417 493.928
494 0 79.1525 10.3724 821 61.5493 567.928 494.697
495 0 83.2285 11.4985 957 60.7346 567.938 491.469
496 1 46.0874 11.1961 516 58.5407 567.174 510.25
497 0 44.0234 10.3354 455 60.4264 567.354 510.345
498 0 45.0339 10.5698 476 61.1071 567.782 510.019
499 0 50.0135 12.2167 611 57.6596 568.052 508.951
500 0 50.0395 12.5301 627 57.5247 568.257 509.486
501 0 52.0806 11.271 587 58.9983 567.762 507.935
502 0 51.0832 10.708 547 60.6472 569.002 507.728
503 0 54.0508 11.6557 630 59.0841 568.324 506.862
504 0 55.0527 11.3528 625 60.1808 568.381 505.178
505 0 60.0592 10.7394 645 60.324 568.983 504.465
506 0 59.1282 11.196 662 60.3082 568.906 502.784
507 0 60.0786 10.8358 651 60.2473 568.594 502.722
508 0 62.0726 11.6799 725 59.9241 568.323 499.996
509 0 63.0802 9.95557 628 62.0271 567.771 499.422
510 0 67.0816 12.0152 806 59.2829 568.164 499.208
511 0 68.0228 11.2756 767 60.6584 567.605 496.711
512 0 71.0615 11.5815 823 59.6294 567.565 499.045
513 0 75.1884 11.0256 829 60.3209 567.913 497.323
514 0 76.1906 12.2456 933 59.5402 568.123 495.472
515 0 80.1026 12.8835 1032 58.2461 567.93 495.185
516 0 82.1896 11.1571 917 60.7121 568.262 493.728
517 1 42.067 7.74954 326 61.1626 568.187 515.589
518 0 47.0445 10.2244 481 58.6923 568.229 512.819
519 0 47.019 11.0381 519 58.6416 568.526 510.911
520 0 48.036 10.4089 500 58.78 567.532 511.57
521 0 48.0991 10.2705 494 59.6721 567.577 510.789
522 0 51.0476 11.166 570 58.4754 568.486 508.681
523 0 52.0453 12.2201 636 58.1997 568.237 506.808
524 0 56.0726 13.215 741 56.359 568.715 506.734
525 0 57.0486 10.4648 597 59.5611 568.364 506.894
526 0 56.0926 12.3546 693 58.8038 568.302 504.633
527 0 57.0364 11.8345 675 59.3378 568.689 505.037
528 0 60.0709 11.8027 709 59.2793 567.996 504.549
529 0 60.0364 11.5597 694 60.2262 568.458 503.788
530 0 63.0624 12.67 799 58.8786 568.274 501.705
531 0 66.0382 12.6291 834 58.8022 568.386 501.3
532 0 67.0629 11.0642 742 60.2183 567.486 503.898
533 0 67.0672 10.5715 709 61.5924 566.953 498.078
534 0 70.062 10.8904 763 60.9423 567.82 498.115
535 0 73.1742 12.8187 938 58.4104 567.227 497.359
536 0 75.3116 12.0167 905 59.5978 568.138 493.576
537 0 75.1953 13.2056 993 58.436 567.907 493.584
538 1 39.0735 7.70342 301 60.7807 567.485 513.904
539 0 40.0966 8.90349 357 60.1905 567.081 512.759
540 0 41.1747 10.2733 423 59.2246 567.515 511.09
541 0 41.0874 8.95651 368 61.1739 568.098 511.177
542 0 44.0617 10.2356 451 59.49 567.743 509.477
543 0 45.04 7.94849 358 62.3966 568.327 510.936
544 0 48.0324 12.0127 577 58.0017 568.511 509.551
545 0 49.0369 11.7871 578 58.4533 568.334 506.422
546 0 49.0642 10.8022 530 60.0245 567.724 505.377
547 0 51.0135 10.1934 520 59.975 568.348 508.998
548 0 54.0614 11.7829 637 58.2229 568.13 504.881
549 0 54.1158 10.4406 565 60.4832 567.423 504.204
550 0 56.0647 11.7186 657 59.2648 567.673 503.414
551 0 59.0251 12.249 723 58.112 567.534 505.62
552 0 61.0237 10.9466 668 60.2979 567.082 502.943
553 0 60.1175 11.228 675 60.4667 568.249 501.56
554 0 63.1337 10.1214 639 61.9421 568.493 500.615
555 0 64.1076 12.0735 774 59.9987 568.557 496.717
556 0 65.2323 10.0257 654 61.607 568.196 500.61
557 0 68.066 11.959 814 59.4337 567.38 499.783
558 0 68.1874 10.2512 699 62.4535 567.797 496.295
559 0 69.3655 10.1924 707 62.4965 567.832 497.549
560 0 75.1083 11.1439 837 61.0299 567.676 496.903
561 0 75.0988 11.7845 885 61.026 568.69 495.408
562 1 42.0275 10.6121 446 60.6076 568.417 512.832
563 0 45.052 11.8974 536 59.597 567.935 511.256
564 0 43.0336 9.59716 413 62.6586 568.01 513.063
565 0 44.0949 10.5681 466 62.7725 568.358 508.225
566 0 47.0289 8.18645 385 64.974 567.777 507.652
567 0 47.064 10.6451 501 61.8144 567.968 511.146
568 0 50.0626 11.3658 569 62.1318 567.742 508.464
569 0 51.1391 10.4421 534 63.1929 567.723 509.079
570 0 52.1613 11.4261 596 62.4295 568.282 507.062
571 0 53.0525 9.91471 526 64.3897 567.479 506.713
572 0 54.0322 10.3642 560 64.0679 568.343 504.83
573 0 56.2524 9.86625 555 64.9441 568.187 504.818
574 0 56.0481 9.474 531 65.7006 567.944 502.569
575 0 59.1154 10.0312 593 65.086 568.132 503.973
576 0 61.2618 11.3611 696 63.4655 568.264 502.375
577 0 61.262 9.3043 570 65.4737 568.282 502.856
578 0 63.2069 9.95144 629 65.4149 568.458 500.504
579 0 64.264 10.9081 701 64.7375 568.748 500.67
580 0 65.1533 9.6081 626 66.778 569.981 497.489
581 0 71.6001 11.4385 819 63.3993 569.394 498.049
582 0 70.4178 10.1679 716 65.1061 570.728 499.536
583 1 36.1561 9.62493 348 62.6753 570.362 514.546
584 0 38.1183 10.2838 392 61.7066 569.301 513.607
585 0 38.1726 7.99002 305 64.7574 569.013 514.39
586 0 39.1884 8.65052 339 63.882 569.56 513.914
587 0 42.1187 9.47323 399 64.2857 569.208 510.291
588 0 42.1679 12.1182 511 60.3699 569.342 511.869
589 0 42.1726 8.8209 372 64.8952 568.32 509.696
590 0 44.1302 10.2651 453 63.3532 567.854 508.309
591 0 48.1431 10.7388 517 61.4294 568.534 510.319
592 0 49.1428 10.8663 534 62.6554 568.129 506.903
593 0 51.1276 10.8552 555 61.155 569.079 509.459
594 0 50.0827 10.283 515 63.4602 568.511 506.452
595 0 52.1401 11.5075 600 62.7017 567.72 504.383
596 0 55.1812 11.2901 623 62.0177 568.554 506.35
597 0 54.1502 11.3573 615 62.9545 568.776 505.055
598 0 56.081 10.8058 606 63.3449 568.54 505.427
599 0 59.1468 12.8494 760 61.2579 567.73 502.149
600 0 59.0709 10.5636 624 65.1218 567.17 503.365
601 0 62.1161 12.3156 765 63.2144 568.04 500.19
602 0 61.0753 9.51285 581 66.7022 568.014 500.628
603 0 65.0745 11.6943 761 63.4704 568.166 499.657
604 0 67.0359 13.4704 903 60.8915 568.19 497.915
605 0 67.1222 10.3841 697 64.825 568.267 498.89
606 0 72.1126 11.4127 823 62.48 568.649 497.335
607 0 73.1042 11.9282 872 62.3647 568.123 495.721
608 0 75.1776 11.3864 856 62.9019 568.384 496.734
609 0 78.0786 11.5781 904 62.7434 568.699 493.545
610 0 81.1793 11.9981 974 61.4086 568.46 493.484
611 0 83.1016 9.72304 808 64.427 568.735 490.562
612 1 45.0943 9.86822 445 64.373 568.944 508.497
613 0 48.049 10.3436 497 62.3823 569.461 510.04
614 0 48.0716 11.0668 532 62.7049 568.97 507.408
615 0 49.032 10.5849 519 63.7765 569.661 505.75
616 0 50.0773 11.5222 577 62.4003 569.3 502.071
617 0 55.0789 10.9479 603 62.2438 569.469 504.92
618 0 57.077 10.81 617 62.4133 568.984 503.454
619 0 58.065 10.6605 619 62.8675 568.53 501.84
620 0 58.0348 11.5793 672 62.1756 568.305 499.988
621 0 59.0907 10.9493 647 63.0526 568.607 499.099
622 0 62.1026 11.7548 730 61.5644 569.11 498.249
623 0 63.1234 11.1052 701 62.4322 568.13 499.158
624 0 67.0642 12.3762 830 61.1446 567.82 495.804
625 0 69.0542 11.8313 817 61.2778 568.302 497.786
626 0 72.0555 13.6145 981 59.314 568.29 493.218
627 0 75.0504 12.7115 954 60.2851 568.281 493.739
628 0 75.1411 11.3653 854 61.6557 567.652 494.351
629 0 79.1584 11.2054 887 62.1161 568.838 490.759
630 0 81.0661 12.6193 1023 60.9091 568.596 488.877
631 0 85.1284 12.8864 1097 60.0766 567.994 489.021
632 1 45.0432 11.5223 519 59.9249 568.33 508.129
633 0 45.0432 10.2124 460 62.5239 569.402 506.411
634 0 46.0193 11.0606 509 62.1277 569.601 506.389
635 0 51.0245 13.131 670 58.3403 569.096 505.621
636 0 50.0476 11.7488 588 59.7177 569.643 506.69
637 0 53.0371 12.6892 673 58.8737 569.544 504.73
638 0 55.1235 10.8121 596 60.396 568.933 504.971
639 0 54.1051 11.4407 619 60.7464 569.706 502.468
640 0 58.1693 12.7731 743 58.5384 569.272 501.105
641 0 58.1258 12.3869 720 59.3847 569.875 499.836
642 0 59.122 11.7553 695 60.2144 569.135 498.505
643 0 62.1547 13.2733 825 58.0982 569.126 499.568
644 0 63.0717 12.3827 781 58.7631 568.142 497.42
645 0 65.0992 13.3796 871 57.5316 567.901 498.673
646 0 66.1269 11.0394 730 60.4014 569.086 495.438
647 0 65.0737 11.4025 742 60.6833 569.144 494.27
648 0 70.0622 12.7458 893 58.4401 568.578 494.23
649 0 71.0838 10.2696 730 60.9507 568.968 495.242
650 0 75.0799 12.5333 941 58.39 568.989 493.25
651 0 76.179 10.6066 808 60.802 569.957 491.988
652 0 80.0994 13.8203 1107 57.2502 568.726 490.771
653 0 83.0229 11.9726 994 59.3129 569.624 488.309
654 0 85.1679 11.4597 976 59.957 569.182 488.391
655 1 46.0306 10.3192 475 58.941 569.518 508.413
656 0 46.0196 9.7567 449 60.4365 568.84 508.122
657 0 46.0682 10.7232 494 59.6903 569.968 505.172
658 0 48.118 10.308 496 60.379 568.758 506.159
659 0 50.0848 11.8799 595 58.8487 568.613 505.556
660 0 53.2011 11.6539 620 58.5452 568.561 505.068
661 0 53.1849 12.7292 677 57.8848 568.994 502.499
662 0 54.1868 11.7741 638 58.8809 569.155 505.249
663 0 58.1239 10.9077 634 59.1908 568.721 504.024
664 0 59.1172 11.8409 700 59.1214 569.12 500.767
665 0 61.0881 11.0987 678 59.6254 568.715 500.379
666 0 61.116 11.6172 710 59.4606 568.121 497.392
667 0 63.0455 10.2307 645 61.0527 569.053 500.236
668 0 64.0745 11.2057 718 61.1866 568.982 496.244
669 0 65.0796 10.8022 703 61.7198 568.733 494.676
670 0 71.1354 13.4673 958 58.6065 568.619 496.806
671 0 70.0951 11.0707 776 61.7165 568.825 493.595
672 0 74.1565 11.705 868 61.4032 569.293 493.263
673 0 77.2476 12.1816 941 60.7014 568.908 490.861
674 0 80.1456 12.0032 962 60.948 569.931 490.621
675 0 80.0816 11.0512 885 62.6429 568.791 491.475
676 0 83.1431 12.4484 1035 61.5952 569.049 490.106
677 0 85.1496 9.18384 782 65.9706 568.872 486.242
678 0 90.1652 13.2867 1198 61.1277 569.374 486.919
679 1 47.1385 11.2435 530 61.9057 569.949 505.996
680 0 50.1456 11.8056 592 60.7568 568.84 508.066
681 0 50.0398 11.6307 582 61.6375 569.837 507.582
682 0 51.1068 9.99867 511 63.6908 569.622 506.231
683 0 55.0697 11.658 642 61.5654 570.009 504.97
684 0 56.0478 11.2047 628 62.1162 569.731 504.021
685 0 58.1256 11.7332 682 61.3328 569.499 505.331
686 0 60.2524 12.1655 733 60.7654 568.888 503.044
687 0 62.1038 11.4808 713 62.0701 569.482 501.056
688 0 63.1772 12.2671 775 61.2968 569.314 500.991
689 0 65.0852 11.2314 731 62.2066 569.339 501.031
690 0 66.0423 11.7198 774 61.7377 570.238 498.328
691 0 70.1264 12.2208 857 61.2672 570.124 498.131
692 0 71.0762 12.0293 855 61.1298 570.027 499.421
693 0 73.063 12.236 894 61.1007 569.123 497.263
694 0 77.1296 13.4968 1041 59.5889 568.548 495.234
695 0 79.3283 11.3327 899 61.5528 568.719 495.158
696 0 83.1157 11.8389 984 61.4837 568.381 492.918
697 0 87.1587 12.896 1124 60.1219 568.108 492.267
698 0 88.2359 11.5259 1017 62.2665 569.553 490.012
699 0 91.1014 12.766 1163 60.8925 568.399 487.924
700 0 91.1496 12.3533 1126 61.8561 568.884 486.479
701 0 95.1084 11.9337 1135 62.7172 569.052 485.391
702 0 99.2142 12.1656 1207 62.2328 568.897 482.499
703 1 52.0346 11.3578 591 60.9002 568.645 505.333
704 0 53.0492 10.8956 578 60.8166 567.898 508.884
705 0 55.067 10.805 595 60.9866 568.424 505.16
706 0 56.0995 11.2122 629 60.8219 569.205 505.161
707 0 58.0544 12.8156 744 58.6102 568.604 505.832
708 0 59.0874 11.8638 701 60.4451 567.987 500.904
709 0 60.1114 10.3974 625 61.2976 568.419 504.741
710 0 61.0876 10.755 657 62.2618 568.554 499.034
711 0 65.1523 12.6319 823 59.531 568.181 499.593
712 0 67.1061 12.13 814 60.07 568.536 499.084
713 0 67.0351 11.4716 769 61.0494 568.217 500.354
714 0 70.1984 12.9917 912 59.3739 568.238 499.159
715 0 71.0887 13.5183 961 59.333 568.265 496.778
716 0 73.1576 11.8101 864 61.3264 568.102 496.62
717 0 75.1551 12.2014 917 61.2694 568.827 490.987
718 0 76.1088 12.088 920 61.9185 569.097 491.387
719 0 80.1889 12.2211 980 61.952 568.693 490.958
720 0 81.046 11.2405 911 62.9989 568.269 489.783
721 0 84.0531 11.1953 941 63.525 568.359 489.345
722 0 88.112 12.6203 1112 61.9991 568.267 487.495
723 1 48.0635 9.57068 460 63.3522 567.267 508.52
724 0 51.1026 11.1149 568 61.4261 567.377 507.437
725 0 50.0748 9.76539 489 63.4192 568.648 509.039
726 0 50.129 9.97426 500 64.198 568.134 504.7
727 0 51.1568 8.26869 423 66.0638 568.797 507.229
728 0 53.1086 11.8248 628 62.4283 568.25 503.153
729 0 55.0792 10.8026 595 63.1782 567.677 504.585
730 0 57.046 11.2541 642 62.9829 567.988 502.684
731 0 59.139 9.90885 586 63.8908 566.904 503.775
732 0 60.085 10.1356 609 63.6092 567.918 503.488
733 0 64.0567 12.3797 793 61.512 567.658 500.555
734 0 65.0613 12.8033 833 60.8523 567.269 497.654
735 0 67.0921 11.1638 749 62.785 568.298 498.335
736 0 71.0792 12.2117 868 60.6071 568.906 498.541
737 0 72.0738 10.6974 771 62.192 568.862 497.442
738 0 76.1145 11.2462 856 61.354 568.284 495.35
739 0 78.1505 11.094 867 61.7601 568.799 495.091
740 0 82.06 11.3088 928 61.8448 568.052 493.628
741 1 41.032 10.699 439 60.6059 568.503 511.421
742 0 41.0739 11.175 459 60.6296 568.436 511.956
743 0 41.0293 9.01794 370 62.8622 568.573 511.551
744 0 43.0518 9.33758 402 62.1169 568.129 512.458
745 0 45.0559 9.92102 447 61.8233 568.463 511.53
746 0 49.1017 11.466 563 59.7691 567.481 510.787
747 0 52.0338 12.0306 626 58.5942 566.954 510.105
748 0 49.0972 9.87837 485 62.0454 567.602 509.39
749 0 52.0277 9.87936 514 60.9222 567.835 510.193
750 0 54.0532 11.7477 635 59.6976 567.885 506.614
751 0 53.1938 11.0163 586 61.0444 567.381 506.346
752 0 58.0298 12.373 718 59.1323 567.419 504.653
753 0 58.1098 10.0844 586 61.6416 568.152 506.578
754 0 61.1422 11.4814 702 60.0242 568.05 503.239
755 0 62.0353 11.5418 716 60.3757 568.599 502.806
756 0 66.1531 12.728 842 58.5321 568.157 500.632
757 0 66.1661 10.5039 695 60.8619 567.446 503.006
758 0 70.2386 12.5714 883 58.6104 568.341 499.236
759 0 72.403 12.5271 907 58.5921 568.27 499.093
760 0 74.0916 11.2428 833 60.012 568.001 497.636
761 0 77.1887 12.7609 985 57.9716 568.429 497.108
762 0 80.2189 10.8827 873 60.3184 567.939 496.599
763 1 40.0353 9.81634 393 60.2061 567.511 514.982
764 0 42.1029 11.2106 472 63.2458 567.648 470.011
765 0 43.0507 8.45514 364 62.294 567.569 513.992
766 0 43.0736 9.19356 396 62.0152 568.447 512.861
767 0 49.0475 10.2757 504 59.8274 568.153 512.276
768 0 48.0164 10.5172 505 60.5941 568.752 511.095
769 0 50.0552 10.6882 535 60.3981 569.297 508.49
770 0 52.0917 11.2494 586 59.4454 568.507 508.913
771 0 55.0532 12.3154 678 57.91 568.195 508.906
772 0 54.076 11.9831 648 58.7361 569.134 509.06
773 0 56.0143 9.42616 528 61.0701 568.903 508.303
774 0 58.0449 11.1121 645 59.6884 567.704 505.42
775 0 60.0414 10.676 641 60.1825 568.131 504.877
776 0 62.1619 12.0974 752 58.0665 568.693 505.537
777 0 65.032 14.4083 937 46.9168 566.796 504.204
778 0 67.0745 11.8078 792 57.6338 567.802 503.379
779 0 68.0629 10.3287 703 58.8933 568.393 503.084
780 0 70.2044 11.7371 824 57.8422 568.062 501.352
781 0 73.0534 13.0042 950 56.3474 568.552 498.675
782 0 74.0576 12.3282 913 57.4294 568.852 498.179
783 0 78.0946 10.6666 833 58.1248 569.283 498.204
784 0 80.0684 12.0147 962 56.3326 568.763 497.822
785 1 43.0484 8.03746 346 58.448 569.416 515.749
786 0 45.0808 11.313 510 54.7863 568.149 513.271
787 0 45.1629 10.8053 488 56.4201 567.822 511.16
788 0 47.0904 10.5329 496 56.3286 567.353 511.708
789 0 48.0838 10.96 527 56.2334 567.478 510.526
790 0 50.1223 11.5717 580 55.6138 566.94 509.324
791 0 49.0579 9.68244 475 58.221 567.267 508.646
792 0 55.0526 10.1358 558 56.7706 567.656 509.57
793 0 55.1041 11.0518 609 55.959 567.811 507.663
794 0 57.0931 11.3674 649 55.7411 568.886 506.012
795 0 58.069 10.2809 597 56.8007 568.628 502.688
796 0 59.1215 10.5884 626 56.7939 568.185 506.275
797 0 62.1307 12.0874 751 55.0839 567.597 504.346
798 0 61.0657 10.3004 629 56.8172 567.76 503.736
799 0 65.1581 13.1987 860 53.9872 567.698 501.262
800 0 68.0567 12.2692 835 54.7473 567.465 499.653
801 0 70.0479 11.3637 796 55.4874 568.577 499.256
802 0 72.0863 12.4434 897 54.9766 568.045 497.761
803 0 75.1056 13.9936 1051 45.55 568.475 498.019
804 0 76.1063 11.3525 864 55.7975 568.414 497.942
805 0 80.1169 13.9172 1115 52.7247 568.55 490.313
806 0 82.0863 12.0239 987 55.3192 567.603 496.404
807 0 86.1223 13.1209 1130 54.338 567.64 493.908
808 1 43.0321 11.015 474 56.3692 567.181 516.192
809 0 43.0204 9.71632 418 58.1388 568.031 514.17
810 0 46.0715 11.786 543 55.7385 567.744 512.514
811 0 48.0584 10.3624 498 57.0884 568.084 512.966
812 0 46.0407 9.75224 449 58.9889 568.145 510.096
813 0 48.0346 11.0129 529 57.344 567.906 512.652
814 0 51.0365 11.7759 601 57.01 567.874 508.423
815 0 53.0253 11.5982 615 57.0098 568.006 508.369
816 0 55.05 10.7902 594 57.7946 567.672 509.694
817 0 55.0607 10.7699 593 58.5852 566.857 506.782
818 0 55.1312 10.7199 591 58.6684 567.543 509.909
819 0 56.0472 11.5974 650 57.9508 567.578 507.852
820 0 60.105 10.7811 648 58.7747 567.599 503.332
821 0 61.0327 12.2721 749 57.2563 568.462 501.973
822 0 64.077 12.0012 769 57.1612 568.117 504.746
823 0 66.1029 12.4805 825 57.1867 567.742 502.065
824 0 67.0685 12.7631 856 57.1764 567.494 500.637
825 0 69.1446 13.0017 899 57.0189 567.597 499.924
826 0 71.074 11.9453 849 57.947 568.859 500.274
827 0 72.0778 11.7373 846 58.2991 568.359 501.204
828 0 74.1313 11.2503 834 58.8142 568.125 500.966
829 0 77.0986 11.1675 861 59.5749 568.087 497.211
830 0 78.1994 11.5474 903 59.7099 568.223 496.608
831 1 44.0732 11.0952 489 59.3681 568.509 515.219
832 0 42.0704 9.38903 395 61.9063 568.911 514.83
833 0 45.0567 12.4288 560 59.3196 568.316 513.014
834 0 47.0943 11.7424 553 60.1103 568.548 511.599
835 0 48.1038 11.6207 559 60.5957 568.487 510.61
836 0 49.0595 11.6593 572 61.1136 567.906 511.614
837 0 52.0389 12.7981 666 59.1456 567.371 511.926
838 0 53.0551 12.5341 665 60.0992 568.293 510.973
839 0 55.0548 10.8256 596 61.9228 567.233 511.946
840 0 55.0444 11.8268 651 61.9002 567.911 508.853
841 0 56.0307 10.2444 574 63.7544 567.775 508.563
842 0 58.0455 12.9037 749 61.4433 567.989 507.543
843 0 62.0393 12.5727 780 61.4372 567.858 507.199
844 0 62.0518 13.1503 816 61.8738 567.986 507.263
845 0 64.0905 12.732 816 61.6752 568.314 507.42
846 0 68.06 12.0188 818 62.3704 567.899 507.524
847 0 66.0628 11.9583 790 64.8101 567.804 503.739
848 0 71.0495 13.188 937 62.826 568.952 500.895
849 0 73.0555 13.2502 968 63.061 568.343 502.394
850 0 75.1785 12.0114 903 64.8416 567.371 501.869
851 0 78.2472 12.2433 958 64.0647 567.166 502.958
852 1 41.0401 10.8918 447 66.4564 568.38 516.772
853 0 44.039 12.0348 530 64.3094 568.928 515.432
854 0 45.0451 11.7882 531 65.7382 568.145 513.921
855 0 44.0401 12.9655 571 65.1734 567.949 513.911
856 0 48.0266 12.6597 608 65.0658 567.867 514.804
857 0 47.0241 11.9939 564 66.9397 567.385 514.082
858 0 46.0915 10.9131 503 69.1133 567.078 512.664
859 0 52.0606 12.9464 674 64.9377 567.93 514.19
860 0 53.0346 12.4824 662 66.6994 567.492 512.869
861 0 55.0866 11.491 633 69.1896 567.983 513.858
862 0 55.0762 12.9639 714 68.402 567.71 510.29
863 0 57.0972 13.4682 769 67.225 568.088 511.537
864 0 59.0383 12.585 743 69.1144 568.098 510.194
865 0 60.0771 12.6171 758 68.7124 567.991 509.549
866 0 61.0676 13.4932 824 67.7718 568.041 508.109
867 0 65.0772 12.8616 837 68.1613 568.32 506.352
868 0 67.0613 13.5995 912 67.2533 568.467 504.671
869 0 69.0584 13.9737 965 66.5596 568.3 503.885
870 0 70.0732 12.3157 863 68.2005 567.59 505.578
871 0 73.0446 13.0331 952 68.2815 567.847 500.597
872 0 74.1081 12.7786 947 68.5565 567.412 500.954
873 0 77.0784 13.6614 1053 67.7664 566.922 498.881
874 0 79.1506 11.8129 935 69.3775 567.852 501.625
875 0 83.0907 13.0099 1081 68.5661 566.854 496.61
876 1 45.0495 12.0312 542 68.6292 567.799 516.316
877 0 46.0535 10.4227 480 70.3812 567.456 515.702
878 0 48.0852 12.6858 610 68.0213 567.212 514.133
879 0 48.0612 12.0055 577 69.4211 567.454 513.906
880 0 51.0503 12.1841 622 67.6913 567.183 515.785
881 0 52.0409 11.8368 616 69.6899 567.01 512.846
882 0 52.0368 12.8563 669 68.8475 567.695 511.072
883 0 54.047 13.3588 722 68.349 568.098 510.547
884 0 54.0812 12.0559 652 70.5568 567.635 508.373
885 0 57.0245 13.0646 745 68.898 566.758 509.466
886 0 57.0631 13.1959 753 69.1355 568.001 506.453
887 0 61.0957 11.9321 729 70.1358 567.406 507.447
888 0 61.0874 13.5707 829 68.6381 567.653 504.531
889 0 63.069 14.3177 903 67.4862 567.842 504.408
890 0 64.132 11.8818 762 70.2205 567.81 506.312
891 0 69.2603 13.2688 919 68.3145 568.391 502.523
892 0 69.0799 12.1164 837 70.5209 568.523 501.748
893 0 72.1477 12.5992 909 69.7448 568.297 500.022
894 0 75.137 11.3925 856 70.6332 567.737 502.241
895 0 77.1254 12.9789 1001 69.7712 568.207 497.313
896 0 80.0499 14.9532 1197 66.8354 568.564 497.768
897 0 79.0426 11.4875 908 72.7974 568.903 497.066
898 0 85.1141 13.758 1171 69.4535 568.915 494.272
899 1 43.0528 10.011 431 72.1346 569.058 516.239
900 0 45.0565 11.1194 501 70.2136 568.758 516.347
901 0 43.0677 10.2397 441 74.3333 568.807 513.569
902 0 47.1147 12.4377 586 70.5154 569.418 513.382
903 0 47.0287 12.4392 585 70.7914 568.918 514.239
904 0 47.0671 9.81578 462 75.2186 569.24 512.104
905 0 51.0697 13.276 678 69.351 569.355 511.852
906 0 50.0695 11.1046 556 73.1709 568.775 510.532
907 0 51.0653 11.6517 595 72.5008 568.595 508.524
908 0 56.0391 12.8839 722 69.3421 568.601 509.399
909 0 54.0591 12.0794 653 72.706 569.475 507.236
910 0 58.0344 11.8206 686 71.1574 569.666 509.867
911 0 58.0496 12.162 706 71.2252 569.948 508.739
912 0 63.0473 12.8951 813 69.2534 569.877 505.705
913 0 62.051 12.4092 770 70.8455 570.28 503.748
914 0 65.0506 11.9599 778 70.5758 569.264 504.826
915 0 66.0385 12.5079 826 70.3075 569.792 502.701
916 0 67.101 10.283 690 72.8333 568.958 503.606
917 0 71.0666 11.7918 838 70.716 569.833 501.666
918 0 75.1128 12.4479 935 69.0278 568.812 500.842
919 0 75.1602 11.5487 868 70.2085 568.672 500.009
920 0 79.0513 12.2452 968 69.2603 568.558 499.435
921 1 40.0165 10.4707 419 69.6301 568.573 517.16
922 0 44.0899 12.4745 550 66.3091 568.884 516.396
923 0 42.0217 10.9943 462 68.6212 568.558 515.606
924 0 45.0246 10.9051 491 68.723 568.733 513.385
925 0 47.0331 11.8215 556 66.5863 568.777 513.25
926 0 47.067 12.2379 576 66.8785 568.194 512.804
927 0 51.1459 11.9071 609 66.665 568.81 510.86
928 0 51.0276 11.6016 592 67.4865 568.674 509.978
929 0 53.0344 12.2373 649 66.3205 568.166 510.351
930 0 51.0845 11.0797 566 68.9117 567.802 507.648
931 0 56.0349 11.1359 624 67.1218 568.348 508.484
932 0 57.0433 12.0786 689 66.2496 567.83 504.781
933 0 60.0736 11.5358 693 66.7864 567.645 507.035
934 0 63.2185 11.8952 752 66.3045 568.539 504.757
935 0 65.145 11.7123 763 65.3722 568.476 505.429
936 0 67.0797 12.0752 810 65.6802 568.293 502.625
937 0 68.0977 13.9799 952 63.6187 568.279 498.65
938 0 69.179 10.509 727 68.1169 568.457 500.718
939 0 75.0458 11.4597 860 66.4721 568.172 498.392
940 1 37.0387 9.01759 334 68.5359 567.958 515.686
941 0 41.0419 11.4274 469 64.9019 567.458 514.179
942 0 42.0157 10.6627 448 66.375 567.993 513.339
943 0 42.0587 11.3888 479 65.2025 569.05 512.71
944 0 42.0931 10.8569 457 66.1816 568.608 513.256
945 0 44.0294 13.2639 584 63.0942 567.553 512.389
946 0 47.0391 12.0113 565 64.6903 568.299 512.219
947 0 47.0523 11.9654 563 65.3464 568.746 510.004
948 0 49.0264 12.6462 620 64.1581 568.761 509.074
949 0 51.031 13.2664 677 63.0561 569.346 509.555
950 0 50.0201 11.6153 581 65.5508 569.9 509.034
951 0 54.1099 12.9551 701 63.0613 569.123 506.987
952 0 56.0582 11.6843 655 64.5786 569.382 506.559
953 0 56.0241 10.4598 586 65.6485 569.578 505.403
954 0 53.0506 10.2732 545 67.244 568.703 502.508
955 0 45.0241 7.37383 332 68.6988 568.277 491.759
956 1 61.0881 11.3606 694 66.8026 567.708 442.261
957 0 64.0563 10.7718 690 67.6435 568.135 438.446
958 0 65.1852 10.7386 700 67.8671 567.707 433.754
959 0 69.1317 11.3985 788 67.0812 567.968 431.416
960 0 71.0878 11.0005 782 68.0051 567.472 427.907
961 0 72.1718 11.4033 823 67.9368 567.893 422.78
962 0 76.1891 10.0277 764 69.7212 568.207 420.181
963 1 56.0529 6.36898 357 69.4706 568.308 474.199
964 0 61.0613 4.06149 248 73.9032 568.641 476.23
965 1 25.0098 5.55782 139 72.6547 568.971 504.727
966 0 19.0178 1.41972 27 73.7037 569.852 498.63
967 0 24.0438 7.65271 184 71.8967 568.614 505.967
968 0 26.0146 5.49692 143 72.8671 568.643 503.098
969 0 35.0278 10.4203 365 66.9151 569.364 503.06
970 0 34.0454 8.51803 290 70.269 569.017 505.183
971 0 39.0429 9.27184 362 67.3039 568.917 500.503
972 0 41.0725 9.81193 403 68.3697 569.576 503.707
973 0 40.0489 7.01643 281 71.1139 569.413 500.747
974 0 44.0419 8.78709 387 69.1964 569.202 502.227
975 0 44.0381 9.28741 409 68.6137 569.257 500.381
976 0 41.0172 9.1425 375 69.2533 568.832 497.093
977 0 45.1134 9.5537 431 67.7749 568.466 494.35
978 0 42.0256 8.01892 337 70.5875 568.917 494.935
979 0 46.0506 8.20836 378 69.8201 569.712 491.442
980 1 69.0765 11.2194 775 69.111 568.032 434.063
981 0 66.1159 12.1 800 64.65 568.272 499.065
982 0 71.1697 13.531 963 62.3053 568.895 498.716
983 0 73.1264 12.7177 930 63.3505 569.171 497.68
984 0 75.103 13.1286 986 63.2708 568.763 497.856
985 0 76.0874 11.3817 866 66.1039 569.155 497.388
986 0 78.1826 11.3197 885 66.0565 568.303 493.908
987 0 80.0625 11.4411 916 66.2969 569.027 495.131
988 0 83.1579 11.857 986 66.8428 568.951 490.23
989 0 88.195 12.7218 1122 64.8708 568.972 489.829
990 0 91.1482 13.9992 1276 63.5729 568.828 490.614
991 0 91.0754 12.045 1097 66.8222 568.324 487.169
992 0 95.0807 13.6831 1301 64.8939 568.709 486.917
993 0 97.0863 13.0811 1270 66.0874 569.691 483.906
994 1 51.0199 11.0545 564 66.1082 568.553 508.816
995 0 52.057 11.3722 592 65.5946 568.686 508.459
996 0 53.0861 11.6603 619 66.1276 568.583 504.216
997 0 55.0271 11.5034 633 66.4423 568.899 506.836
998 0 59.1032 12.3174 728 64.5975 568.472 505.029
999 0 61.0931 12.7674 780 63.7487 568.924 505.468
1000 0 63.0303 11.8197 745 65.3973 569.538 501.785
1001 0 65.0474 11.6223 756 65.4034 568.672 500.865
1002 0 66.1578 12.1225 802 64.3566 568.786 502.91
1003 0 67.1104 10.8925 731 65.9808 569.639 501.164
1004 0 72.1133 12.5358 904 63.4757 568.752 500.727
1005 0 75.1801 11.9713 900 64.2233 568.978 498.027
1006 0 75.1011 11.5311 866 65.6501 568.791 495.323
1007 0 78.124 11.4305 893 65.7021 568.917 495.805
1008 0 80.1511 11.5407 925 65.8076 569.319 494.763
1009 0 81.142 10.8205 878 66.7358 568.892 494.961
1010 0 87.1768 12.2624 1069 64.7493 570.025 494.159
1011 0 87.1028 10.7459 936 66.9882 569.65 492.509
1012 1 44.026 10.5392 464 63.3405 569.291 514.64
1013 0 47.0794 11.2788 531 62.9887 569.158 513.578
1014 0 48.0751 10.4628 503 64.2425 568.149 512.618
1015 0 48.0659 11.9003 572 62.6661 567.913 511.837
1016 0 49.0928 10.3274 507 64.6331 568.688 511.726
1017 0 52.0313 11.3201 589 62.9049 568.453 509.883
1018 0 52.0174 10.4388 543 64.2873 568.171 509.704
1019 0 56.0217 11.442 641 62.3697 568.814 507.989
1020 0 57.0508 11.5336 658 61.5289 568.564 509.682
1021 0 57.1601 12.0364 688 61.6221 568.141 506.525
1022 0 59.0678 11.5122 680 62.1485 567.616 505.397
1023 0 62.0677 11.7291 728 60.8297 568.598 506.343
1024 0 65.0474 11.9451 777 60.2059 568.638 504.47
1025 0 64.1197 9.70061 622 62.6029 568.844 503.392
1026 0 65.0874 9.95585 648 62.3951 568.353 500.338
1027 0 71.1411 10.8095 769 60.0923 567.261 502.062
1028 0 72.1127 10.8996 786 59.7824 567.106 502.866
1029 0 78.0561 13.3366 1041 56.8184 567.799 500.351
1030 0 78.1663 11.7186 916 58.119 566.761 500.045
1031 0 78.1019 11.0625 864 59.838 566.727 494.046
1032 0 83.1331 10.4531 869 60.1197 567.008 494.756
1033 0 85.2615 11.3416 967 58.4281 567.28 497.675
1034 1 46.0335 11.2092 516 57.4651 567.57 513.448
1035 0 49.0824 9.18862 451 58.4545 567.468 513.887
1036 0 47.096 8.55698 403 60.4194 567.6 514.489
1037 0 51.0469 12.4983 638 56.2602 567.55 511.922
1038 0 52.1438 11.5258 601 57.406 567.366 509.376
1039 0 52.1511 11.0448 576 59.099 567.953 509.872
1040 0 56.1058 12.1734 683 57.4305 567.425 507.363
1041 0 57.0492 9.43045 538 59.7677 566.701 511.139
1042 0 59.04 11.8564 700 57.7443 566.866 505.851
1043 0 60.1167 10.4131 626 59.2396 567.059 501.823
1044 0 60.141 10.492 631 59.3613 566.784 505.518
1045 0 63.0402 11.2151 707 57.8105 565.775 503.197
1046 0 64.1786 13.3378 856 55.7266 566.005 504.968
1047 0 65.0775 10.403 677 58.6396 566.812 503.799
1048 0 67.0956 11.7742 790 57.3392 566.92 500.027
1049 0 71.0972 12.4759 887 56.2638 566.205 499.78
1050 0 72.1417 8.99619 649 59.6364 566.367 504.357
1051 0 76.1712 12.1437 925 56.5589 566.77 499.003
1052 0 79.2061 11.2996 895 57.2358 566.427 496.392
1053 0 81.0873 11.1115 901 57.9378 566.374 494.277
1054 0 83.1398 11.5588 961 57.9938 566.775 493.358
1055 0 85.1084 11.9495 1017 57.0344 567.408 496.801
1056 1 44.0489 9.19432 405 58.7136 566.4 516.074
1057 0 44.0146 8.9743 395 59.562 565.995 514.372
1058 0 45.0405 10.1464 457 60.0066 566.136 514.372
1059 0 48.0266 9.32817 448 60.2679 566.5 513.507
1060 0 51.0445 12.2442 625 57.1264 566.534 512.147
1061 0 52.0701 11.062 576 58.3767 567.012 512.998
1062 0 54.0376 11.1774 604 58.6291 567.33 510.558
1063 0 54.0671 9.9506 538 60.1394 567.199 509.775
1064 0 58.0701 10.9351 635 58.622 567.22 510.003
1065 0 59.0483 10.0934 596 59.9211 568.024 511.309
1066 0 58.1249 10.5979 616 60.0795 567.94 506.914
1067 0 63.1143 14.3549 906 54.7318 567.291 510.641
1068 0 65.0958 12.0899 787 57.6493 567.389 506.901
1069 0 63.1912 12.5967 796 57.892 566.487 507.661
1070 0 68.0543 12.1961 830 58.3482 566.558 504.371
1071 0 69.1362 12.2657 848 58.816 567.97 503.191
1072 0 73.0697 12.7413 931 57.9796 568.124 501.677
1073 0 75.0604 12.3767 929 58.4327 567.02 501.493
1074 0 79.0922 10.7722 852 59.8462 567.055 500.168
1075 0 80.042 11.0067 881 59.7639 567.788 499.183
1076 0 83.1353 12.63 1050 58.2371 567.842 497.36
1077 0 87.1874 13.6832 1193 57.0218 567.721 496.042
1078 0 90.1908 12.784 1153 57.6288 567.306 496.957
1079 0 89.0839 10.6753 951 61.0904 567.074 492.632
1080 0 94.0755 11.7246 1103 60.1877 567.498 490.886
1081 0 98.13 11.6172 1140 59.8447 567.175 491.27
1082 0 101.042 12.0445 1217 59.3155 566.672 490.265
1083 1 53.0809 10.4746 556 60.2104 567.973 511.766
1084 0 53.0346 12.0299 638 58.8339 567.661 511.194
1085 0 58.0837 12.6369 734 57.0341 567.203 509.978
1086 0 58.221 11.0098 641 58.7956 567.463 510.374
1087 0 59.145 11.8691 702 58.5313 566.991 507.254
1088 0 61.1481 11.6112 710 58.838 567.487 505.344
1089 0 63.0537 11.5933 731 58.7975 567.435 505.405
1090 0 65.2084 11.9003 776 58.491 567.767 505.791
1091 0 68.1213 12.6392 861 57.4297 567.941 503.055
1092 0 70.1089 12.395 869 57.9356 566.844 503.57
1093 0 72.0836 11.0982 800 59.42 567.32 499.41
1094 0 75.2716 11.2792 849 59.0424 566.408 499.349
1095 0 75.0795 11.9207 895 58.7777 566.882 497.568
1096 0 79.2401 11.7112 928 58.5291 567.676 497.001
1097 0 80.2025 11.6081 931 59.4651 567.291 493.378
1098 0 83.1983 11.3223 942 59.1518 566.672 492.749
1099 1 44.1539 11.0749 489 55.8487 567.178 513.906
1100 0 45.1537 10.4975 474 56.5127 567.584 513.2
1101 0 46.1773 10.568 488 57.6516 567.67 507.6
1102 0 48.0645 9.50806 457 57.9234 566.993 510.759
1103 0 48.0826 10.8147 520 56.2923 567.779 508.31
1104 0 51.1166 13.6355 697 53.3529 567.61 508.217
1105 0 53.1363 10.3507 550 56.5091 567.333 510.265
1106 0 55.1984 11.667 644 56.2236 568.085 505.843
1107 0 58.1328 11.6285 676 55.7219 568.894 505.287
1108 0 59.317 12.8294 761 53.9396 568.105 506.611
1109 0 60.0891 11.4164 686 55.4329 567.526 501.168
1110 0 62.2847 9.15152 570 57.2895 568.249 503.163
1111 0 64.2323 11.0069 707 55.6591 568.058 500.895
1112 0 65.4741 10.8898 713 55.9271 567.794 500.637
1113 0 69.318 12.6951 880 49.7409 567.724 495.648
1114 0 71.2523 11.7049 834 55.6031 567.505 494.289
1115 0 72.5452 10.683 775 56.6077 567.79 495.125
1116 0 76.2932 13.0549 996 54.001 567.898 494.99
1117 0 77.0895 10.4813 808 56.9059 567.642 494.528
1118 0 80.3138 10.3345 830 57.553 568.668 491.845
1119 0 82.1168 11.1914 919 56.7486 567.794 493.232
1120 0 83.1872 11.42 950 56.9305 568.264 489.492
1121 0 90.1435 12.9127 1164 55.0043 568.783 490.874
1122 0 92.253 11.5877 1069 56.3377 568.486 492.091
1123 0 94.2098 12.2811 1157 56.6301 569.016 485.444
1124 0 96.1043 13.8495 1331 54.9812 568.433 484.89
1125 1 50.0671 11.4247 572 55.0262 568.292 512.829
1126 0 49.1289 11.1747 549 56.5337 567.692 509.723
1127 0 52.0936 11.2106 584 55.5342 569.08 509.375
1128 0 53.2815 10.9606 584 55.9058 568.389 507.269
1129 0 56.154 12.4657 700 54.4029 569.613 506.397
1130 0 56.0713 11.4497 642 55.4813 568.738 509.637
1131 0 57.0722 11.1788 638 56.1756 568.119 506.524
1132 0 58.0465 12.111 703 55.2603 568.612 506.663
1133 0 60.1653 12.7316 766 54.6227 567.694 506.051
1134 0 60.0498 10.0916 606 57.6452 567.368 502.122
1135 0 64.0869 11.422 732 55.6872 567.575 503.724
1136 0 65.0582 11.3744 740 55.8419 568.031 503.605
1137 0 67.1078 12.696 852 54.8779 567.062 499.522
1138 0 69.0818 11.4791 793 55.9823 567.312 500.654
1139 0 70.0785 13.0853 917 54.7045 567.2 499.412
1140 0 72.1945 12.2031 881 55.8263 567.896 498.692
1141 0 74.2087 12.101 898 56.1626 567.82 496.313
1142 0 75.2049 10.744 808 57.651 567.814 495.635
1143 0 80.1534 12.3139 987 55.9625 568.157 495.57
1144 0 80.1882 11.8721 952 57.3939 568.234 491.886
1145 0 84.1507 10.6357 895 58.8268 567.918 492.05
1146 0 87.1944 12.7875 1115 56.3444 567.62 494.233
1147 0 90.2224 14.032 1266 55.3926 567.174 490.684
1148 0 93.1471 13.731 1279 56.4113 568.421 489.848
1149 1 50.2405 11.7833 592 57.5929 568.346 511.426
1150 0 52.0852 11.3852 593 58.9511 568.744 509.206
1151 0 53.096 11.4886 610 58.9344 567.959 509.307
1152 0 56.1268 10.8326 608 59.6118 567.868 507.812
1153 0 56.3664 12.0994 682 58.2493 569.041 507.916
1154 0 59.1889 12.7389 754 57.5106 568.816 505.646
1155 0 62.0968 13.8493 860 55.507 568.17 506.581
1156 0 63.0727 12.0337 759 58.0079 567.499 504.094
1157 0 64.0574 11.677 748 58.6845 567.655 503.469
1158 0 64.0741 11.9861 768 58.888 568.023 502.635
1159 0 68.0895 11.0296 751 58.9973 567.964 503.474
1160 0 69.1086 13.3124 920 57.2663 568.395 500.399
1161 0 70.1285 11.4076 800 59.5325 568.624 499.085
1162 0 71.1177 10.8131 769 60.1652 567.612 495.642
1163 0 76.0887 12.1832 927 58.3873 567.951 495.279
1164 0 78.1542 12.181 952 58.7395 568.26 493.794
1165 0 80.3133 12.1898 979 58.812 568.138 493.926
1166 0 82.1113 12.4952 1026 58.8928 568.134 489.852
1167 0 87.2151 14.8025 1291 56.0225 568.31 490.472
1168 0 89.0276 11.9963 1068 59.2772 568.849 489.699
1169 0 90.0827 12.2776 1106 59.5172 568.774 486.378
1170 0 94.1234 11.3043 1064 60.3534 568.241 488.587
1171 0 97.192 11.6985 1137 60.3764 568.478 484.3
1172 1 52.0436 11.2982 588 59.6412 568.662 507.655
1173 0 52.0684 11.1968 583 59.4717 568.461 509.667
1174 0 56.0911 12.034 675 58.8296 569.468 508.252
1175 0 55.0916 10.3646 571 61.2294 568.657 505.296
1176 0 58.0682 12.7436 740 58.2905 568.273 504.732
1177 0 59.1447 11.1253 658 60.6489 569.134 502.795
1178 0 62.0406 12.5079 776 58.674 569.562 505.166
1179 0 61.1057 9.76996 597 62.3551 568.77 501.151
1180 0 67.1403 11.7068 786 59.813 568.888 501.027
1181 0 68.1694 11.5301 786 60.2735 568.819 499.611
1182 0 69.1244 11.9929 829 59.8589 567.727 495.744
1183 0 72.1957 11.3165 817 60.0024 568.887 501.629
1184 0 76.0757 11.6069 883 60.0895 568.55 499.662
1185 0 77.1156 11.4893 886 60.6185 568.398 494.677
1186 0 80.0515 12.5294 1003 59.2702 568.803 497.289
1187 0 82.0962 11.5596 949 60.6586 568.891 491.077
1188 0 87.1463 12.3126 1073 59.794 569.367 489.847
1189 0 87.135 10.3518 902 62.4956 568.299 490.122
1190 1 45.0416 10.8122 487 60.5852 568.565 512.232
1191 0 48.0724 11.7115 563 61.0036 569.309 507.583
1192 0 51.022 13.308 679 58.9691 569.289 508.829
1193 0 54.0876 11.9436 646 59.9675 569.293 509.785
1194 0 54.0779 12.445 673 59.9257 569.409 509.361
1195 0 55.0379 11.9917 660 61 569.403 507.177
1196 0 56.057 10.6499 597 62.6935 568.951 507.767
1197 0 61.0504 13.4807 823 58.8275 568.965 506.119
1198 0 61.0813 12.4588 761 60.7056 569.397 503.658
1199 0 62.0762 11.5503 717 61.8173 568.473 504.81
1200 0 63.0784 11.0656 698 62.1662 568.292 505.765
1201 0 68.083 11.7504 800 61.9012 568.662 503.865
1202 0 70.1041 12.3816 868 60.8813 568.798 502.819
1203 0 71.0677 13.2972 945 60.3111 569.047 502.367
1204 0 72.1012 11.1926 807 63.2813 568.958 499.45
1205 0 76.1852 11.6164 885 61.991 569.064 498.734
1206 0 79.1808 13.1219 1039 60.2791 568.936 497.68
1207 0 82.0877 12.6694 1040 60.8538 568.082 494.07
1208 0 83.0824 11.6511 968 62.8048 568.658 494.204
1209 1 47.1205 11.5661 545 60.8202 569.057 512.426
1210 0 50.1874 10.3412 519 61.8073 568.919 512.486
1211 0 51.0449 11.1862 571 60.9807 568.879 511.333
1212 0 53.0554 10.555 560 60.9679 569.164 512.721
1213 0 52.0441 10.2413 533 63.1726 567.827 511.163
1214 0 55.065 11.4773 632 61.4525 568.888 509.418
1215 0 56.0443 10.9378 613 62.5612 568.406 507.24
1216 0 57.216 11.5352 660 61.3773 568.7 509.029
1217 0 59.1045 12.4864 738 60.481 568.644 507.279
1218 0 62.0986 12.6895 788 60.2728 568.863 505.56
1219 0 61.1583 10.3338 632 63.9098 569.141 505.769
1220 0 66.1289 11.8707 785 62.121 569.217 503.146
1221 0 66.1048 10.801 714 63.4048 568.538 501.882
1222 0 70.1424 12.7313 893 60.6708 568.619 500.602
1223 0 74.1722 13.2934 986 59.8702 569.329 500.292
1224 0 75.1337 12.4977 939 61.3514 569.833 498.903
1225 0 77.1569 11.3924 879 62.5165 569.52 495.347
1226 0 81.155 11.7676 955 61.8576 569.279 496.682
1227 0 79.1944 11.0109 872 63.4438 569.392 494.831
1228 1 44.0241 10.2444 451 61.7317 569.406 515.013
1229 0 46.1571 11.4608 529 60.3157 569.456 514.652
1230 0 48.0761 11.253 541 60.6137 569.523 512.658
1231 0 49.1323 10.197 501 62.4731 569.996 510.068
1232 0 50.0788 10.803 541 61.7098 569.325 512.717
1233 0 52.1684 10.9837 573 61.4991 568.782 510.105
1234 0 53.0932 13.0337 692 59.0997 569.311 508.9
1235 0 56.0974 12.6922 712 58.9916 569.626 509.104
1236 0 56.1141 11.6726 655 60.9756 569.534 507.086
1237 0 59.0392 11.5517 682 60.7449 569.194 505.817
1238 0 60.0956 11.698 703 60.0925 568.438 505.583
1239 0 64.1129 12.7431 817 58.5814 568.547 503.627
1240 0 65.1366 13.6329 888 57.8874 568.823 503.535
1241 0 66.0671 12.7749 844 59.0983 569.134 502.633
1242 0 70.0701 12.516 877 59.13 568.382 500.87
1243 0 71.0572 12.4547 885 58.9514 568.778 499.485
1244 0 71.0599 13.4675 957 57.7576 569.046 502.201
1245 0 77.0978 12.1404 936 58.2414 568.843 501.532
1246 0 77.0633 11.0039 848 60.1816 568.69 497.981
1247 0 80.1567 12.0015 962 59.3098 569.112 494.434
1248 0 82.087 11.6827 959 59.9645 568.968 494.705
1249 0 86.1503 12.3041 1060 58.6576 568.932 496.761
1250 0 86.1507 12.6871 1093 58.8765 568.691 493.16
1251 0 90.0994 11.5539 1041 60.6042 568.743 490.058
1252 0 93.0739 14.3649 1337 57.436 569.082 488.563
1253 1 46.0318 10.0148 461 62.0217 568.948 510.388
1254 0 51.0879 12.3904 633 58.6303 568.664 511.152
1255 0 50.0433 9.6916 485 62.2041 568.247 510.711
1256 0 55.0611 11.006 606 60.8267 569.074 509.465
1257 0 56.1201 11.5823 650 60.3031 569.057 509.914
1258 0 58.1022 12.8222 745 58.8872 568.699 509.174
1259 0 56.0996 10.9627 615 62.4683 569.013 507.982
1260 0 60.079 11.4516 688 61.4811 569.916 504.658
1261 0 61.1521 12.5588 768 60.4388 569.064 505.612
1262 0 66.127 11.977 792 60.3523 569.154 505.242
1263 0 66.1216 11.0705 732 61.9071 569.108 503.372
1264 0 66.063 11.3831 752 62.3245 568.543 504.069
1265 0 70.0869 13.0552 915 60.0776 568.119 501.751
1266 0 71.113 11.4888 817 62.1518 569.04 497.31
1267 0 75.059 12.4036 931 61.1096 568.665 498.122
1268 0 77.085 13.5565 1045 59.6555 568.268 498.373
1269 0 78.059 11.85 925 61.7665 568.559 498.694
1270 0 80.11 13.4315 1076 60.6357 567.862 495.036
1271 0 84.1359 14.2864 1202 59.3486 567.696 495.101
1272 0 87.1358 12.5551 1094 61.2623 568.247 493.281
1273 0 90.1653 12.3662 1115 61.3229 568.431 495.361
1274 1 43.06 8.94102 385 64.7455 568.345 515.078
1275 0 47.0499 10.8821 512 62.7949 566.928 515.652
1276 0 47.0281 11.036 519 63.5568 567.526 514.464
1277 0 49.0314 12.7469 625 61.7728 567.867 512.216
1278 0 50.1093 11.2354 563 63.8366 569.08 511.082
1279 0 53.0354 13.1422 697 61.6915 568.762 511.195
1280 0 55.0937 11.3443 625 62.8928 568.85 509.19
1281 0 56.0582 11.6486 653 63.2619 569.101 508.521
1282 0 57.0322 13.3433 761 61.4573 569.042 506.54
1283 0 61.0649 11.8071 721 62.2233 569.38 507.478
1284 0 61.0837 13.3751 817 60.5949 568.509 505.411
1285 0 60.0507 12.223 734 62.1104 569.023 505.499
1286 0 65.0649 14.5086 944 59.1197 568.448 505.804
1287 0 66.0545 13.1709 870 60.3667 568.1 504.84
1288 0 68.0491 13.5637 923 60.2167 568.764 503.573
1289 0 71.0323 13.9514 991 60.1241 568.825 501.559
1290 0 72.0596 13.4888 972 60.4002 569.1 500.32
1291 0 75.1567 12.6003 947 61.0686 568.998 500.127
1292 0 76.2109 12.8197 977 61.2108 569.34 498.824
1293 0 80.0419 13.4055 1073 60.4902 568.646 497.85
1294 0 82.0663 12.6483 1038 61.4432 569.279 498.493
1295 0 85.1875 12.8775 1097 60.9025 568.375 498.222
1296 0 88.1355 14.2735 1258 60.1105 568.259 494.476
1297 0 88.0927 14.3145 1261 60.2823 569.453 494.143
1298 1 48.0922 12.476 600 61.1117 568.847 514.688
1299 0 50.0496 10.3697 519 63.1484 569.345 512.139
1300 0 53.0379 13.3489 708 60.4788 569.222 511.497
1301 0 53.066 13.21 701 60.7118 569.245 511.08
1302 0 56.0947 14.0298 787 59.4333 569.011 511.959
1303 0 58.0663 12.348 717 61.4644 569.212 509.976
1304 0 57.0607 12.18 695 62.1554 568.734 509.84
1305 0 60.0971 13.1953 793 60.5309 569.69 505.711
1306 0 63.0698 12.2245 771 61.0415 569.455 507.275
1307 0 63.0637 12.1623 767 62.0417 568.321 507.18
1308 0 67.1488 13.001 873 60.6186 569.016 505.661
1309 0 69.0683 13.103 905 60.7602 569.302 502.812
1310 0 70.0478 11.6777 818 62.2714 569.242 504.018
1311 0 73.0641 13.6729 999 60.2312 569.059 501.438
1312 0 75.1972 13.7904 1037 59.5612 569.424 503.473
1313 0 79.0793 13.948 1103 59.9628 569.432 500.27
1314 0 81.0853 11.5681 938 62.2857 568.748 500.152
1315 0 83.108 12.5259 1041 61.5552 568.188 498.28
1316 0 84.054 12.5634 1056 61.91 568.703 496.235
1317 0 86.1104 13.7149 1181 60.7705 568.797 496.613
1318 0 91.1224 14.5409 1325 59.8808 568.296 495.162
1319 1 45.0421 11.8778 535 61.8654 568.589 513.66
1320 0 47.1307 11.797 556 62.2122 568.946 513.851
1321 0 47.1691 12.5082 590 60.917 568.866 514.288
1322 0 49.063 10.9247 536 63.0597 569.047 513.662
1323 0 51.165 12.4695 638 61.8558 569.121 512.494
1324 0 52.0541 13.217 688 61.3416 569.326 510.89
1325 0 54.0208 11.3105 611 63.3192 568.971 511.149
1326 0 56.053 12.399 695 61.9942 569.027 509.837
1327 0 57.0527 13.5489 773 61.0168 568.912 506.636
1328 0 60.1871 13.591 818 60.7738 568.467 508.572
1329 0 60.0506 12.1731 731 62.1327 568.884 508.417
1330 0 63.1037 11.0928 700 63.1343 569.2 504.329
1331 0 66.1399 13.4563 890 61.0382 568.865 505.44
1332 0 67.1244 12.7822 858 61.8811 569.267 506.852
1333 0 69.1792 12.5038 865 62.4821 569.138 505.492
1334 0 71.1148 13.0212 926 62.1393 569.585 505.056
1335 0 74.09 14.0235 1039 62.1646 570.122 500.448
1336 0 76.0685 13.054 993 62.9728 568.809 501.013
1337 0 79.176 14.1962 1124 61.6744 568.844 498.343
1338 0 80.2269 11.106 891 65.257 568.88 499.92
1339 1 42.1807 10.9766 463 65.1361 568.343 514.611
1340 0 46.072 11.6774 538 63.5186 569.314 518.664
1341 0 49.0304 13.5426 664 62.009 569.515 515.925
1342 0 49.0642 12.983 637 62.9294 569.038 516.978
1343 0 50.0946 12.4564 624 64.2484 569.726 513.923
1344 0 53.0466 13.064 693 63.0967 569.182 513.447
1345 0 54.1068 12.7341 689 63.8418 569.398 511.219
1346 0 55.0897 12.7066 700 64.14 568.766 511.913
1347 0 59.1304 13.0221 770 63.8468 568.755 510.213
1348 0 62.0778 14.0147 870 62.7391 569.491 509.732
1349 0 64.0603 13.6278 873 62.9794 569.773 508.742
1350 0 65.0523 14.7112 957 62.2842 568.61 508.499
1351 0 66.1298 13.5189 894 64.5134 568.433 506.388
1352 0 69.1153 13.7886 953 63.7482 567.92 504.966
1353 0 70.0837 14.9535 1048 62.7357 568.634 503.256
1354 0 73.1547 14.8316 1085 63.176 569.255 504.205
1355 0 73.2202 13.9306 1020 64.398 569.086 504.446
1356 0 77.1455 14.868 1147 63.374 568.433 499.425
1357 0 80.2046 14.1887 1138 53.8998 567.34 504.115
1358 0 85.0497 14.5797 1240 63.2564 568.622 498.294
1359 0 83.0974 15.4638 1285 63.0615 568.921 497.493
1360 0 86.1942 13.7132 1182 64.5051 568.649 498.353
1361 0 88.1895 12.9607 1143 65.741 568.606 498.238
1362 0 92.1439 14.9223 1375 63.5695 568.164 497.229
1363 1 50.1177 14.007 702 63.4444 568.914 515.17
1364 0 50.157 12.7599 640 65.4453 568.919 514.336
1365 0 53.109 13.8959 738 63.1762 568.722 514.005
1366 0 54.0775 12.9444 700 63.7943 568.713 513.337
1367 0 55.1111 13.8629 764 63.3639 569.302 510.357
1368 0 57.086 13.6811 781 62.8758 569.326 510.773
1369 0 59.111 12.8064 757 62.9551 568.838 512.114
1370 0 63.0628 13.6689 862 62.2784 569.196 510.049
1371 0 62.0699 12.9048 801 63.774 569.241 508.419
1372 0 68.0769 15.2328 1037 60.4754 568.747 507.03
1373 0 69.0862 13.3456 922 62.5087 568.769 504.826
1374 0 71.2038 15.6031 1111 59.2412 569.079 507.026
1375 0 74.0564 14.2864 1058 60.9055 569.169 505.034
1376 0 76.2343 13.6684 1042 61.7428 568.745 499.993
1377 0 77.2573 13.4356 1038 62.1734 568.741 498.422
1378 0 80.1736 13.0217 1044 62.2883 569.138 500.13
1379 0 84.1373 13.3116 1120 62.0089 570.079 498.937
1380 0 88.3066 12.8869 1138 62.4657 568.842 497.779
1381 1 44.2201 12.189 539 63.2597 568.807 516.002
1382 0 50.0782 12.7001 636 61.6918 568.514 515.97
1383 0 48.0592 12.0684 580 63.5948 568.305 515.997
1384 0 52.0225 12.0909 629 62.6598 568.431 514.727
1385 0 54.0786 12.6668 685 61.5562 568.707 515.13
1386 0 55.1712 12.8328 708 61.363 569.612 510.98
1387 0 56.1123 12.2255 686 61.8061 569 511.682
1388 0 57.0692 13.3347 761 60.6321 568.585 508.963
1389 0 60.0214 13.112 787 61.1322 568.896 507.945
1390 0 62.4599 12.6481 790 61.4 568.976 509.119
1391 0 66.1507 14.0437 929 59.3229 568.653 507.914
1392 1 131.19 12.4324 1631 62.0748 568.358 473.563
1393 1 69.049 11.977 827 62.0387 568.689 502.297
1394 0 73.1043 14.4725 1058 59.6106 569.752 504.053
1395 0 73.2188 12.3875 907 61.8721 568.793 499.517
1396 0 75.199 14.0162 1054 60.5342 568.969 502.072
1397 0 79.268 13.2588 1051 61.2141 569.568 498.106
1398 0 81.1164 12.5129 1015 61.7438 569.245 500.789
1399 0 85.3074 13.1876 1125 61.1076 569.351 497.922
1400 0 87.2728 13.75 1200 60.8 569.008 495.517
1401 0 88.4522 11.1925 990 63.7636 568.82 494.392
1402 0 92.3914 12.2089 1128 62.9034 569.269 490.157
1403 0 97.3235 14.3747 1399 60.4889 569.038 491.507
1404 0 98.1135 13.4028 1315 61.9133 569.148 486.87
1405 1 54.121 13.5622 734 59.7452 569.255 511.481
1406 0 55.2225 9.32591 515 63.0116 569.656 513.179
1407 0 57.3316 12.2446 702 61.4644 568.85 508.973
1408 0 60.5226 13.1025 793 59.855 568.512 510.296
1409 0 60.2075 13.603 819 59.6984 568.6 509.005
1410 0 63.1614 14.0276 886 59.0892 569.368 507.764
1411 0 65.0894 13.1204 854 60.2916 570.119 505.24
1412 0 70.2019 13.8173 970 58.8093 569.602 505.797
1413 0 70.2602 12.9376 909 60.1782 569.09 502.49
1414 0 72.2983 12.1718 880 60.8068 569.086 503.531
1415 0 75.397 14.1385 1066 58.9934 569.087 500.663
1416 0 77.1929 13.6023 1050 59.9105 569.044 498.933
1417 0 80.0853 12.7114 1018 60.3526 568.908 500.494
1418 0 83.1582 14.2259 1183 58.7405 569.545 497.068
1419 0 85.1662 13.2447 1128 60.2349 569.757 495.678
1420 0 87.2044 13.692 1194 59.8936 569.848 493.018
1421 0 90.2401 13.6746 1234 60.2107 569.013 492.377
1422 0 94.2225 13.3726 1260 60.5421 569.568 491.365
1423 0 95.3361 12.7339 1214 61.2685 569.624 491.449
1424 0 101.644 13.5374 1376 60.1541 569.212 488.534
1425 0 102.561 12.7241 1305 61.3992 569.851 483.84
1426 0 107.318 13.3994 1438 60.2065 569.43 484.73
1427 0 108.192 12.8475 1390 61.4288 569.529 482.519
1428 0 114.242 13.3139 1521 60.4911 569.477 482.657
1429 1 59.3989 9.79816 582 59.9124 570.316 510.893
1430 0 62.1596 11.0844 689 58.1843 570.392 511.565
1431 0 64.2297 11.9571 768 58.5742 569.744 505.69
1432 0 66.1062 12.5556 830 57.8675 570.46 504.933
1433 0 68.1191 11.4652 781 59.5147 570.213 505.201
1434 0 70.1754 12.882 904 58.0774 569.695 504.223
1435 0 72.309 13.6221 985 57.3777 570.063 502.216
1436 0 72.184 11.5123 831 59.7232 569.515 499.442
1437 0 77.3066 11.9912 927 58.4358 569.591 501.178
1438 0 79.2302 10.9049 864 59.1181 569.947 502.338
1439 0 84.1022 13.0674 1099 56.4968 569.695 499.579
1440 0 85.1314 12.2164 1040 58.2317 570.009 494.733
1441 0 89.1741 11.4047 1017 58.9666 569.73 495.063
1442 0 89.2584 13.5561 1210 57.4016 569.698 492.221
1443 0 92.1165 11.1598 1028 59.357 569.96 493.69
1444 0 96.1574 12.5939 1211 58.4137 569.564 489.019
1445 0 99.1289 12.4888 1238 58.5606 569.345 488.332
1446 1 50.0623 9.32838 467 57.8266 570.064 514.28
1447 0 52.0536 10.835 564 56.8582 570.303 512.057
1448 0 55.0512 11.4984 633 55.3428 570.128 511.401
1449 0 54.0622 10.007 541 58.183 570.431 508.854
1450 0 56.0453 9.49232 532 58.7669 569.607 509.19
1451 0 60.0389 10.7097 643 57.6516 570.762 509.457
1452 0 62.173 13.6072 846 54.5154 570.109 507.239
1453 0 60.128 9.62946 579 59.057 570.444 505.997
1454 0 63.0868 7.94144 501 59.2096 568.076 508.796
1455 0 66.1987 10.4232 690 57.4899 568.638 504.886
1456 0 67.1866 10.1211 680 57.6897 569.398 503.596
1457 0 69.1519 9.81896 679 58.0486 569.461 502.797
1458 0 70.1347 8.58348 602 59.5847 568.762 499.94
1459 0 75.1807 10.0691 757 57.6869 568.456 503.05
1460 0 77.1361 12.2122 942 56.1168 568.96 499.107
1461 0 81.0803 9.86677 800 58.5812 569.604 497.289
1462 0 83.0781 9.42487 783 59.295 569.623 497.812
1463 1 44.0261 10.0622 443 54.9571 569.524 519.607
1464 0 43.088 8.47104 365 58.0548 569.586 517.685
1465 0 45.0292 8.99415 405 57.0889 570.141 516.617
1466 0 47.1137 10.3367 487 55.4374 569.472 516.3
1467 0 49.0968 12.2411 601 54.4842 570.369 514.735
1468 0 48.0277 10.3274 496 57.8407 569.28 512.081
1469 0 51.0122 12.0559 615 55.1789 569.852 512.478
1470 0 52.0214 10.784 561 56.0891 569.321 513.702
1471 0 55.0386 10.5744 582 55.7285 569.631 514.084
1472 0 55.0201 10.9233 601 55.797 569.79 514.238
1473 0 57.0866 11.5088 657 55.5175 569.492 510.024
1474 0 57.0996 10.3503 591 56.5296 569.531 512.113
1475 0 58.0389 10.3034 598 57.0652 569.361 510.793
1476 0 63.0976 11.712 739 55.5129 569.208 507.355
1477 0 64.146 10.1799 653 57.5207 569.354 506.539
1478 0 66.1822 10.6071 702 57.3675 569.548 505.541
1479 0 69.0288 12.56 867 55.2572 569.182 505.975
1480 0 70.0938 10.2434 718 58.3189 569.011 506.095
1481 0 73.032 11.8715 867 56.7647 568.805 505.745
1482 0 74.0642 10.7069 793 58.6192 568.484 503.008
1483 0 78.1323 12.1077 946 57.5634 568.488 501.881
1484 1 39.08 9.31422 364 60.6786 568.984 518.712
1485 0 41.0334 9.96749 409 60.1027 568.531 518.914
1486 0 42.0408 10.6801 449 60.441 568.668 518.216
1487 0 42.0567 10.3907 437 61.167 568.817 517.856
1488 0 45.0413 11.3895 513 59.4717 568.848 516.764
1489 0 46.0317 11.6224 535 59.9122 568.843 516.185
1490 0 48.0734 11.1704 537 60.6238 569.494 515.555
1491 0 51.1387 13.2385 677 58.1787 568.778 513.64
1492 0 51.0627 12.749 651 59.8034 567.479 513.817
1493 0 53.1957 10.8467 577 62.1282 567.333 513.86
1494 0 53.0429 12.4993 663 60.8612 566.677 512.125
1495 0 56.193 12.5461 705 60.2468 567.057 512.23
1496 0 55.1346 12.9864 716 60.7668 567.446 510.807
1497 0 59.113 11.9094 704 61.6094 567.531 507.232
1498 0 61.0966 11.801 721 61.301 568.01 509.083
1499 0 61.0967 10.5898 647 63.8145 568.427 509.55
1500 0 65.2199 12.6035 822 60.4988 568.416 508.056
1501 0 65.168 11.6008 756 62.8995 567.918 505.454
1502 0 66.1129 10.7997 714 64.0224 567.989 504.728
1503 0 69.136 11.528 797 62.7566 567.601 504.885
1504 0 71.0381 12.796 909 61.1683 567.879 502.829
1505 0 74.1008 12.8878 955 61.0377 567.244 498.725
1506 0 76.1633 12.5126 953 62.1291 568.386 499.618
1507 1 41.0756 12.5135 514 62.0973 567.632 516.111
1508 0 43.1071 10.7871 465 63.9462 567.862 516.406
1509 0 45.0271 11.9928 540 62.8518 568.663 514.683
1510 0 45.0271 11.9261 537 132.529 568.652 514.616
1511 0 46.0683 11.8737 547 64.7569 567.874 513.055
1512 0 50.0319 12.1922 610 63.3066 568.062 513.361
1513 0 51.0243 12.8566 656 62.904 567.724 509.966
1514 0 51.0406 11.4615 585 65.1128 567.25 510.503
1515 0 52.065 12.6765 660 64.3636 567.7 509.233
1516 0 55.0337 12.7195 700 63.94 568.281 508.759
1517 0 56.0334 12.3855 694 65.4236 568.328 505.791
1518 0 56.0734 12.0378 675 66.6252 567.993 507.293
1519 0 61.0589 14.2322 869 63.1392 567.794 505.044
1520 0 61.1532 11.7737 720 67.0542 567.475 504.476
1521 0 65.0946 14.1794 923 63.6349 566.845 504.312
1522 0 67.078 12.9998 872 64.797 567.628 503.865
1523 0 67.1283 12.7219 854 66.1112 567.081 500.725
1524 0 71.1005 14.1349 1005 63.2468 567.827 501.82
1525 0 73.2117 13.7 1003 64.1974 566.7 500.242
1526 0 73.1664 12.1777 891 66.4085 567.526 500.893
1527 0 77.0318 13.1504 1013 65.1698 568.559 497.416
1528 0 79.0587 13.2686 1049 64.8599 567.748 494.729
1529 0 82.1821 13.5674 1115 64.1112 567.713 497.709
1530 0 84.0609 13.1809 1108 65.4792 567.486 494.344
1531 1 47.1003 11.2314 529 66.0699 567.69 513.864
1532 0 49.0722 11.9008 584 66.5702 567.182 512.387
1533 0 51.0508 12.2819 627 65.681 568.153 512.775
1534 0 53.088 12.5075 664 65.753 568.529 512.075
1535 0 53.0454 12.6872 673 66.0892 568.117 509.62
1536 0 55.0757 11.584 638 67.8542 567.92 509.111
1537 0 56.0818 13.1415 737 66.3446 568.05 508.342
1538 0 59.0615 14.1547 836 64.2847 568.199 509.249
1539 0 59.0387 12.1615 718 67.6852 567.539 506.939
1540 0 63.0374 13.024 821 66.2765 567.346 505.818
1541 0 63.1199 13.0704 825 66.3079 567.144 503.059
1542 0 67.0395 13.9619 936 64.7799 567.395 504.54
1543 0 67.0992 12.489 838 67.1062 567.421 505.649
1544 0 70.0467 13.2055 925 65.9676 567.821 504.536
1545 0 71.0868 12.5199 890 67.0236 567.793 502.297
1546 0 72.0329 12.4249 895 67.4078 568.21 497.826
1547 0 75.1076 14.0598 1056 65.4441 567.56 496.241
1548 0 78.052 12.9529 1011 66.0297 567.431 498.018
1549 0 82.0637 14.4522 1186 63.8499 567.764 497.218
1550 0 82.0634 13.7577 1129 65.2852 568.193 492.478
1551 0 85.1052 12.8077 1090 66.1596 568.008 493.385
1552 0 88.1526 11.7977 1040 68.1558 568.157 490.122
1553 0 91.1232 14.003 1276 64.9451 568.04 492.973
1554 1 48.0597 11.8394 569 65.2584 567.875 512.569
1555 0 49.0594 10.7217 526 66.3935 567.333 512.802
1556 0 51.0196 11.721 598 65.2926 567.452 512.808
1557 0 51.1405 10.7547 550 67.3873 567.589 513.609
1558 0 54.0744 12.7047 687 64.099 566.574 511.048
1559 0 56.0182 11.9604 670 65.4478 567.515 509.775
1560 0 53.043 12.5935 668 65.6602 567.696 509.549
1561 0 57.1696 10.9848 628 66.5844 567.53 509.758
1562 0 58.0776 10.2105 593 67.968 567.616 508.776
1563 0 62.0487 12.3774 768 64.2682 567.206 507.525
1564 0 62.0506 12.2481 760 65.5697 567.191 504.693
1565 0 66.0896 12.2107 807 64.4288 567.149 505.458
1566 0 68.1015 10.9689 747 65.6948 567.57 504.155
1567 0 69.1544 11.7563 813 65.0984 567.754 500.499
1568 0 73.0538 11.8953 869 64.5086 568.066 501.649
1569 0 73.0732 13.986 1022 62.6585 567.479 496.738
1570 0 78.0345 12.8533 1003 63.3719 566.976 498.223
1571 0 81.0853 11.3091 917 64.9727 567.009 499.912
1572 0 82.0676 11.0397 906 66.3234 567.685 494.978
1573 1 44.0506 12.4175 547 62.4296 568.038 515.399
1574 0 45.0271 11.6597 525 62.8305 567.413 515.971
1575 0 48.0315 12.3044 591 62.7039 567.25 514.988
1576 0 48.0962 12.7661 614 62.386 567.941 514.77
1577 0 50.0382 11.791 590 64.0407 567.607 513.756
1578 0 50.1997 11.6933 587 65.5843 567.762 512.145
1579 0 50.0502 10.5294 527 68.0474 567.032 511.537
1580 0 54.1416 12.0425 652 65.2577 567.253 511.689
1581 0 54.1201 9.99629 541 68.2773 567.836 513.913
1582 0 56.111 11.7446 659 66.5918 567.164 513.079
1583 0 57.1054 10.9272 624 68.9984 567.236 507.659
1584 0 59.084 12.9646 766 66.4504 567.214 508.095
1585 0 60.0822 11.0515 664 68.738 567.331 509.104
1586 0 62.0918 12.1272 753 67.8752 567.555 506.741
1587 0 63.097 11.9657 755 68.0212 567.491 507.317
1588 0 66.1202 11.9631 791 68.11 566.973 506.076
1589 0 70.0861 13.0411 914 66.0875 567.167 505.76
1590 0 71.1952 13.2593 944 66.6917 567.782 502.442
1591 0 73.0992 11.9974 877 69.057 567.357 500.649
1592 0 73.0934 10.5892 774 71.0659 567.54 499.749
1593 0 77.1068 11.9574 922 69.0358 568.066 499.329
1594 0 79.121 11.4003 902 69.9601 567.296 497.355
1595 1 44.0848 10.3664 457 68.4048 567.735 515.015
1596 0 45.0382 9.59185 432 69.1944 566.757 515.431
1597 0 46.0604 11.2027 516 67.626 566.971 514.343
1598 0 49.0177 10.996 539 67.6252 566.174 514.889
1599 0 50.0419 11.2905 565 67.3345 566.908 513.591
1600 0 50.0441 11.7097 586 67.5136 566.797 512.87
1601 0 51.0488 10.9895 561 68.7451 567.317 510.797
1602 0 54.0211 12.0879 653 67.1623 567.095 509.354
1603 0 55.0308 11.757 647 67.1468 567.376 510.372
1604 0 58.057 12.3327 716 65.8492 567.011 508.374
1605 0 61.0318 11.7971 720 65.9069 568.019 507.21
1606 0 61.0233 11.8316 722 66.0706 568.141 505.63
1607 0 62.0233 11.7375 728 66.7734 567.644 507.31
1608 0 65.1004 11.7818 767 65.6754 567.87 504.6
1609 0 67.0387 12.5897 844 64.3614 567.794 504.905
1610 0 70.0392 11.465 803 65.4097 568.468 503.304
1611 0 71.0726 11.242 799 66.239 568.511 499.816
1612 0 72.0712 11.8494 854 65.5796 568.53 501.155
1613 0 75.0411 11.4471 859 65.7462 568.007 498.889
1614 0 77.0524 10.9666 845 66.3953 568.401 498.589
1615 0 83.1634 12.6378 1051 63.3054 568.324 497.861
1616 0 84.0948 12.2481 1030 64.6699 567.576 493.756
1617 0 85.0878 10.8711 925 66.5762 567.685 496.413
1618 1 48.0571 9.88407 475 66.6905 567.834 514.362
1619 0 48.074 10.6294 511 66.182 567.636 512.969
1620 0 50.0211 11.2952 565 65.4832 568.255 512.982
1621 0 54.0846 13.294 719 63.4451 567.925 510.878
1622 0 55.0566 11.1522 614 66.513 568.226 511.609
1623 0 56.0454 12.6862 711 64.9311 568.288 509.97
1624 0 60.0301 12.6603 760 63.8263 568.137 509.897
1625 0 62.0636 11.8105 733 65.5102 567.906 507.237
1626 0 63.1469 13.4132 847 63.4723 568.91 507.607
1627 0 65.0364 13.9307 906 63.0673 568.264 505.917
1628 0 66.0772 12.2432 809 65.0841 568.271 506.276
1629 0 68.1171 13.4328 915 64.177 566.903 504.545
1630 0 68.0736 13.3385 908 64.7401 567.573 502.18
1631 0 72.1458 12.4747 900 65.3389 567.349 501.461
1632 0 73.1045 11.5588 845 66.755 566.952 502.038
1633 0 77.0542 13.5359 1043 63.465 566.602 499.012
1634 0 77.0816 12.8565 991 64.5944 566.458 500.313
1635 0 79.2103 12.6499 1002 65.0609 567.216 497.556
1636 0 81.0835 13.1223 1064 64.5263 567.242 496.052
1637 0 85.1911 12.1022 1031 65.7856 566.852 495.303
1638 0 89.1671 12.1569 1084 65.2814 568.352 495.285
1639 0 91.1602 12.6042 1149 65.0783 568.078 492.303
1640 0 95.1512 13.0739 1244 64.1334 567.937 493.631
1641 1 52.0551 12.7749 665 61.6842 568.499 513.979
1642 0 49.091 10.4296 512 65.8398 568.082 512.248
1643 0 51.0309 10.6014 541 65.0869 568.037 513.869
1644 0 52.0791 11.809 615 65.413 567.62 509.722
1645 0 57.0848 14.0668 803 61.0137 567.852 511.376
1646 0 56.0694 12.4845 700 63.5186 567.903 509.369
1647 0 55.0544 11.5885 638 65.3856 568.353 506.967
1648 0 59.067 10.6659 630 65.1508 567.578 508.316
1649 0 59.0403 12.4491 735 63.7742 568.313 506.984
1650 0 62.0579 11.7632 730 63.8904 568.312 507.408
1651 0 63.0651 11.2899 712 64.5913 568.215 506.867
1652 0 67.1994 12.6192 848 62.4599 567.283 504.646
1653 0 68.1423 14.1615 965 60.7181 566.575 503.705
1654 0 69.1515 12.3642 855 63.3462 566.675 502.366
1655 0 72.077 13.6243 982 61.7301 566.446 500.816
1656 0 74.0889 12.6875 940 62.6777 567.489 501.728
1657 0 77.0776 12.9739 1000 62.101 566.893 501.273
1658 0 78.1561 13.6138 1064 62.1269 567.676 497.608
1659 0 80.1381 12.8403 1029 62.7454 567.318 499.012
1660 0 84.0451 12.8859 1083 62.7867 567.974 496.987
1661 0 89.1855 13.5112 1205 61.468 567.093 497.176
1662 1 46.0533 12.9632 597 61.4807 567.342 517.059
1663 0 47.0074 10.9557 515 63.7573 568.023 516.229
1664 0 46.0899 10.7182 494 65.3441 567.688 515.781
1665 0 47.0329 11.9278 561 63.6239 566.535 514.456
1666 0 50.057 13.2649 664 62.4413 566.797 513.196
1667 0 50.1148 11.3938 571 65.2977 567.469 511.888
1668 0 52.0334 12.8187 667 63.8741 568 511.138
1669 0 54.1428 12.6887 687 64.345 567.723 510.649
1670 0 55.0427 13.8256 761 63.0092 566.784 510.945
1671 0 57.1066 13.5711 775 63.6284 566.794 506.93
1672 0 61.0378 13.6964 836 63.3684 566.926 508.542
1673 0 59.1645 12.423 735 65.8816 567.853 507.776
1674 0 61.0427 11.6312 710 68.0084 567.29 506.731
1675 0 64.1578 12.2822 788 67.3185 566.793 505.929
1676 0 67.1014 13.6659 917 65.1701 566.586 506.023
1677 0 68.0672 13.1341 894 66.9664 567.498 504.011
1678 0 73.0661 14.8085 1082 64.5083 567.455 502.361
1679 0 74.091 14.0773 1043 66.6635 567.939 501.237
1680 0 75.139 12.6565 951 69.0263 567.144 500.081
1681 0 79.0846 13.9471 1103 67.4234 567.604 498.792
1682 0 81.0865 14.2564 1156 67.5346 567.189 497
1683 0 82.1361 12.8445 1055 70.2948 567.433 496.915
1684 0 85.1076 13.6415 1161 69.7562 566.438 493.524
1685 0 89.0902 12.3246 1098 70.9545 566.65 496.662
1686 0 93.1589 14.0727 1311 68.4104 566.898 494.375
1687 0 95.0887 14.334 1363 69.2135 567.479 490.445
1688 1 53.0961 11.8088 627 72.3987 566.702 510.431
1689 0 56.1176 12.9549 727 69.6988 567.146 510.97
1690 0 59.0762 12.34 729 71.0686 566.582 508.845
1691 0 62.1387 12.3434 767 70.2725 567.176 508.884
1692 0 60.024 12.0119 721 71.9598 567.839 507.198
1693 0 66.0374 13.8558 915 67.6667 567.58 508.223
1694 0 66.0426 13.2187 873 69.677 567.187 504.221
1695 0 69.05 13.4685 930 68.5108 567.237 505.291
1696 0 72.0643 13.9736 1007 67.9791 566.62 503.247
1697 0 75.1295 13.3769 1005 68.6428 566.984 501.57
1698 0 76.1313 12.2551 933 70.806 567.375 501.078
1699 0 78.1084 13.7501 1074 68.3175 567.165 501.025
1700 0 83.1459 13.2298 1100 69.3073 566.836 498.432
1701 0 84.059 12.5983 1059 70.5543 567.632 499.36
1702 0 89.2127 12.9578 1156 70.1964 567.728 495.574
1703 0 92.0684 12.7079 1170 70.4 567.673 496.288
1704 0 92.0607 12.6873 1168 71.4409 567.719 493.223
1705 0 95.2186 12.4766 1188 71.6136 568.203 491.66
1706 0 99.1351 12.3367 1223 71.9779 566.675 491.711
1707 1 54.0355 11.8626 641 71.6724 568.111 511.83
1708 0 58.121 11.7341 682 71.4106 567.743 510.738
1709 0 58.0851 11.8619 689 71.9405 567.209 508.456
1710 0 60.2779 12.8571 775 70.5806 567.449 507.381
1711 0 61.1262 12.7605 780 70.1923 567.406 507.414
1712 0 63.0488 11.3563 716 72.0601 567.285 507.342
1713 0 64.0607 11.2862 723 73.3306 567.08 502.468
1714 0 67.1292 11.9918 805 71.6335 567.745 502.491
1715 0 69.1903 12.4584 862 69.8306 567.078 504.974
1716 0 73.163 12.8344 939 70.1992 566.933 500.858
1717 0 77.1645 13.4647 1039 69.256 567.536 500.122
1718 0 77.0269 13.5797 1046 69.0526 567.482 501.716
1719 0 80.21 12.7914 1026 71.2875 567.736 498.658
1720 0 82.2594 13.0441 1073 71.0065 567.286 495.817
1721 0 85.1422 12.6142 1074 70.9581 567.495 498.016
1722 0 88.0493 13.0609 1150 70.5939 566.962 495.355
1723 0 91.2174 12.3332 1125 71.5004 567.006 494.466
1724 0 95.1852 13.5946 1294 70.027 566.91 493.768
1725 1 50.1167 11.9321 598 69.4916 567.456 514.972
1726 0 49.0818 11.817 580 70.4138 567.352 514.205
1727 0 52.1459 11.5062 600 70.8333 568.207 513.028
1728 0 53.1328 13.2498 704 67.7983 567.588 513.541
1729 0 54.1453 11.9493 647 70 567.267 512.397
1730 0 56.1648 12.036 676 69.8979 567.606 510.839
1731 0 56.2034 12.0277 676 69.1272 567.081 511.704
1732 0 59.0744 10.9692 648 70.2747 567.631 510.39
1733 0 62.0889 14.286 887 65.2627 568.761 508.727
1734 0 65.19 13.1615 858 67.1538 568.495 507.605
1735 0 66.1688 14.2665 944 65.7288 567.842 505.484
1736 0 66.1433 12.352 817 68.9302 567.739 502.918
1737 0 70.0438 12.7777 895 67.5352 567.822 503.296
1738 0 71.2007 10.7443 765 70.1739 567.044 501.954
1739 0 75.114 12.9936 976 66.9488 567.993 501.022
1740 0 76.0875 12.6565 963 68.0716 567.772 500.812
1741 0 79.1514 13.3289 1055 67.7071 567.861 497.174
1742 0 81.0618 12.5213 1015 68.5379 566.898 497.989
1743 0 85.0723 13.6707 1163 66.6733 567.153 496.758
1744 0 88.1512 12.955 1142 67.8354 568.054 496.037
1745 0 89.1457 12.0926 1078 69.7356 567.438 492.116
1746 1 45.0414 10.9455 493 69.4199 567.947 514.665
1747 0 50.0114 10.3176 516 68.4302 567.651 514.849
1748 0 52.0816 12.0196 626 67.1054 568.013 510.324
1749 0 53.0764 10.7392 570 68.0491 568.139 512.193
1750 0 53.0487 11.0464 586 67.9573 568.295 511.666
1751 0 56.1354 11.401 640 66.2953 568.327 510.167
1752 0 57.0611 10.1821 581 67.1997 568.069 512.621
1753 0 59.1302 11.0772 655 66.2412 568.223 510.327
1754 0 62.1377 12.0056 746 64.8445 568.461 508.556
1755 0 64.1607 12.157 780 64.7936 567.664 505.842
1756 0 67.1018 11.8179 793 64.5927 567.349 505.72
1757 0 70.1221 14.817 1039 61.0741 567.602 503.669
1758 0 72.132 11.9919 865 63.8971 567.731 505.243
1759 0 76.092 11.4992 875 64.3097 568.469 502.161
1760 0 78.1194 11.2264 877 64.5975 567.56 503.588
1761 1 41.0529 10.8884 447 64.7629 567.553 517.47
1762 0 41.1113 11.2864 464 63.9763 567.466 517.601
1763 0 42.0931 10.6431 448 64.7679 568.145 517.578
1764 0 44.0938 10.523 464 65.7759 568.095 516.722
1765 0 46.0706 10.918 503 65.1968 568.163 515.942
1766 0 47.0944 11.9972 565 64.9575 568.198 514.317
1767 0 49.0416 10.2362 502 67.3207 568.624 513.699
1768 0 50.0495 11.6684 584 65.3579 567.62 514.399
1769 0 51.0351 12.5208 639 64.9875 567.834 512.177
1770 0 52.0294 11.0899 577 67.0555 567.359 511.345
1771 0 55.1052 11.469 632 66.7089 567.661 512.147
1772 0 57.1217 12.5872 719 65.249 566.996 507.317
1773 0 58.0611 12.3491 717 65.6778 567.911 508.762
1774 0 62.0406 13.1366 815 64.7117 568.014 506.152
1775 0 63.0448 13.7997 870 63.5345 566.878 507.062
1776 0 66.0237 14.0707 929 63.4876 567.202 506.229
1777 0 66.1445 12.7902 846 66.0106 567.104 504.327
1778 0 71.1854 14.68 1045 62.5809 566.552 503.864
1779 0 72.0857 14.0111 1010 64.3594 566.948 501.104
1780 0 74.0845 14.5105 1075 63.5795 567.56 499.99
1781 0 77.0359 13.4613 1037 65.2237 567.841 498.21
1782 0 81.1081 15.0786 1223 62.5478 567.594 498.797
1783 0 82.066 14.0862 1156 65.0182 567.458 496.194
1784 0 85.2107 13.4842 1149 65.705 567.208 493.344
1785 0 89.1765 13.9162 1241 65.6712 567.427 495.457
1786 0 91.0854 14.448 1316 65.4688 566.537 491.833
1787 0 94.0607 13.4169 1262 67.5674 567.878 489.708
1788 1 46.0432 10.0992 465 71.9849 567.604 511.976
1789 0 48.0449 10.0739 484 71.0393 567.285 513.076
1790 0 52.0616 12.4852 650 68.2 567.155 510.443
1791 0 54.0366 13.8425 748 66.6578 567.261 510.104
1792 0 56.1265 12.5253 703 67.6046 568.07 510.257
1793 0 58.0788 11.5016 668 69.3503 567.153 508
1794 0 59.0869 14.3348 847 66.2645 566.567 504.457
1795 0 62.0452 13.1195 814 67.3268 567.467 506.302
1796 0 64.1154 13.117 841 67.3294 567.256 503.46
1797 0 65.0837 12.9679 844 67.3424 567.282 504.861
1798 0 69.1026 13.6174 941 65.8193 567.396 500.109
1799 0 70.0601 13.3029 932 65.9828 567.1 502.373
1800 0 71.1396 11.611 826 69.2373 567.23 498.218
1801 0 75.1151 13.3928 1006 66.4493 566.298 499.991
1802 0 78.0955 13.0481 1019 67.2934 567.549 496.942
1803 0 81.2433 12.0995 983 68.7314 567.908 496.722
1804 0 84.2296 13.3326 1123 67.1122 567.512 495.423
1805 0 87.0565 13.4281 1169 67.7126 567.264 491.772
1806 0 89.0809 13.8863 1237 67.2191 567.034 491.267
1807 1 41.0543 10.888 447 69.443 567.271 514.774
1808 0 43.0159 11.2517 484 68.9525 567.63 514.26
1809 0 44.0334 10.9008 480 69.4229 567.894 514.192
1810 0 45.0405 10.9235 492 70.7764 567.652 512.835
1811 0 46.0451 12.7484 587 69.0204 567.959 509.484
1812 0 49.079 13.1828 647 67.6986 568.168 510.61
1813 0 52.0321 12.5692 654 67.8991 566.72 510.966
1814 0 51.0734 11.9436 610 69.9361 567.738 511.108
1815 0 53.0897 12.0739 641 69.6334 567.122 509.532
1816 0 56.048 13.8453 776 66.4214 567.151 508.842
1817 0 58.0945 13.8051 802 66.3429 566.635 507.585
1818 0 58.0593 14.4335 838 65.7303 567.389 507.952
1819 0 62.1199 13.6027 845 65.6071 567.199 509.168
1820 0 61.087 12.785 781 68.0935 567.28 506.223
1821 0 64.0817 11.3137 725 69.4814 567.259 507.41
1822 0 66.0311 13.221 873 67.2806 567.631 503.18
1823 0 68.0841 13.028 887 66.9515 566.941 503.462
1824 0 69.0774 13.4487 929 67.1755 567.447 502.306
1825 0 71.1146 12.6838 902 68.153 567.296 501.357
1826 0 72.0982 12.1501 876 69.6119 567.411 498.642
1827 0 76.1565 12.1592 926 69.6393 567.9 496.268
1828 0 77.1265 13.7955 1064 67.8036 567.037 495.222
1829 0 81.0837 14.8118 1201 66.0308 567.156 496.485
1830 1 41.0343 10.6253 436 69.6995 567.372 516.413
1831 0 42.0165 10.8529 456 68.6754 567.472 517.575
1832 0 44.2218 11.7363 519 66.9904 567.499 518.075
1833 0 45.0829 12.8208 578 66.5675 567.632 515.813
1834 0 43.0821 10.6773 460 70.9913 567.322 512.941
1835 0 48.0391 11.6155 558 69.0627 565.729 511.776
1836 0 48.2062 12.1354 585 67.8735 566.718 513.8
1837 0 51.1392 12.4562 637 66.8713 567.072 512.154
1838 0 53.118 11.8416 629 67.8506 567.219 510.184
1839 0 54.1655 12.4618 675 67.2948 566.136 510.547
1840 0 54.1558 11.5962 628 68.4506 566.841 508.76
1841 0 59.0357 12.7889 755 66.2556 566.809 508.466
1842 0 58.0712 11.2104 651 67.9739 567.18 508.372
1843 0 60.1341 13.42 807 64.6245 567.465 507.535
1844 0 62.1518 14.352 892 64.324 566.691 505.219
1845 0 66.0644 11.9429 789 66.7427 566.387 505.221
1846 0 66.0614 13.1393 868 65.1198 566.252 504.181
1847 0 70.087 11.928 836 66.6962 565.409 501.591
1848 0 71.1396 12.6933 903 66.4585 565.547 498.384
1849 0 72.032 13.4246 967 65.3888 566.275 499.086
1850 1 38.1326 8.83758 337 68.5638 566.276 518.872
1851 0 37.0256 9.53394 353 69.3144 565.935 516.173
1852 0 39.0469 10.2697 401 68.1172 566.185 515.421
1853 0 42.0302 11.1824 470 66.5766 566.919 516.449
1854 0 43.0377 12.0127 517 65.942 566.242 514.104
1855 0 44.1113 10.7682 475 67.2063 566.817 514.596
1856 0 42.0828 11.1447 469 67.3134 567.198 514.844
1857 0 48.0233 12.015 577 65.5009 566.802 513.681
1858 0 48.046 13.2373 636 64.739 566.987 512.503
1859 0 48.0671 11.6712 561 67.3316 566.756 511.077
1860 0 52.0292 12.0317 626 65.6246 566.958 510.649
1861 0 53.1329 12.2711 652 65.2117 567.144 511.804
1862 0 53.0536 10.7062 568 68.4102 567.215 508.504
1863 0 56.2064 11.5467 649 66.6518 567.746 510.217
1864 0 59.1123 12.5693 743 64.4428 567.993 509.455
1865 0 57.1169 11.7654 672 66.9077 567.243 508.888
1866 0 60.0615 11.4549 688 66.5872 567.562 508.406
1867 0 60.0589 11.2889 678 67.882 566.771 505.055
1868 0 65.094 12.5818 819 65.1709 566.709 506.885
1869 0 65.1156 11.6255 757 67.3501 567.082 504.629
1870 0 68.1753 11.7785 803 66.9128 567.57 505.03
1871 0 68.0455 11.9038 810 67.9654 567.089 502.304
1872 0 73.0597 13.6464 997 65.1133 567.349 500.928
1873 0 77.1042 13.0992 1010 65.6267 567.891 501.133
1874 0 76.0866 11.8549 902 68.704 567.507 496.277
1875 0 79.0776 12.8987 1020 67.6971 567.716 495.792
1876 0 81.2986 12.2511 996 68.5321 567.524 493.831
1877 1 44.0459 10.035 442 70.2964 567.457 514.898
1878 0 45.0649 11.8718 535 68.0598 567.194 515.478
1879 0 46.0452 12.1837 561 69.4456 567.562 512.232
1880 0 47.0326 11.6515 548 70.562 567.608 513.128
1881 0 49.0788 13.3255 654 68.1957 567.417 513.064
1882 0 49.0875 11.5304 566 71.7615 567.454 510.931
1883 0 51.0381 12.9903 663 69.8718 567.481 510.487
1884 0 54.0198 12.1252 655 70.0687 567.209 510.986
1885 0 55.1032 12.4312 685 69.9314 567.701 510.87
1886 0 55.0609 13.1309 723 70.5311 567.609 507.396
1887 0 57.052 13.216 754 70.4629 567.313 506.056
1888 0 58.1698 11.965 696 72.0316 566.825 507.809
1889 0 61.09 14.4868 885 67.852 566.808 506.444
1890 0 64.0529 13.0049 833 68.5786 567.305 507.227
1891 0 63.0579 12.2586 773 70.9017 566.234 505.234
1892 0 66.0861 12.3324 815 70.4834 565.978 504.302
1893 0 68.0586 12.0925 823 70.3864 567.004 502.976
1894 0 69.1743 12.3167 852 71.8638 567.008 503.729
1895 0 70.1363 12.8749 903 71.7076 567.08 500.166
1896 0 75.0503 13.2444 994 70.2948 567.14 498.672
1897 0 76.0897 13.1818 1003 70.6391 567.884 495.955
1898 0 81.1218 13.8927 1127 68.3949 567.701 497.572
1899 0 83.1128 13.981 1162 68.6024 567.359 495.562
1900 0 86.1864 12.2061 1052 70.6587 567.753 495.636
1901 0 90.1358 13.3132 1200 69.28 567.611 492.486
1902 1 49.0237 13.1773 646 67.7802 568.084 512.515
1903 0 50.0603 10.4274 522 71.6245 567.605 512.487
1904 0 51.0937 11.8997 608 70.2566 567.099 511.007
1905 0 53.07 12.4741 662 69.2085 567.831 512.196
1906 0 52.0699 11.9839 624 69.0641 567.726 511.484
1907 0 55.074 12.5104 689 69.5501 567.022 508.377
1908 0 58.0711 13.2252 768 68.0195 568.021 506.906
1909 0 58.1067 13.0966 761 67.9277 567.748 506.678
1910 0 60.1016 12.8782 774 68.7403 567.088 504.585
1911 0 59.1785 11.0513 654 70.9587 567.002 504.344
1912 0 64.0944 13.1525 843 67.1412 567.05 504.064
1913 0 64.0648 12.2688 786 68.9847 566.919 503.38
1914 0 68.109 14.0951 960 65.9979 567.633 501.734
1915 0 69.1586 11.9725 828 68.4722 567.326 503.449
1916 0 69.0531 13.3665 923 67.493 567.496 499.12
1917 0 73.1613 13.4224 982 66.1782 568.306 501.455
1918 0 76.0599 13.1607 1001 66.6883 568.047 499.223
1919 0 77.0888 13.1537 1014 66.3018 568.027 496.737
1920 0 79.1061 12.3884 980 67.0408 568.112 499.907
1921 0 81.0771 12.9013 1046 66.9924 567.46 495.619
1922 0 84.1495 13.5473 1140 65.5491 567.641 494.428
1923 0 87.0343 12.9144 1124 66.3541 567.323 493.861
1924 0 90.063 13.3462 1202 65.5025 568.291 490.858
1925 0 92.1135 13.0491 1202 65.7329 568.405 491.582
1926 1 51.082 11.8241 604 66.3311 568.151 511.911
1927 0 51.0468 12.4983 638 66.384 567.188 508.658
1928 0 55.0146 13.3055 732 64.8661 567.149 507.452
1929 0 54.0394 13.0831 707 65.3578 567.365 507.557
1930 0 57.0467 12.9894 741 64.8516 566.81 509.077
1931 0 61.0795 14.0636 859 63.0512 567.264 508.392
1932 0 63.1117 13.0562 824 63.7245 567.924 507.357
1933 0 64.0852 12.6394 810 64.7123 568.553 506.931
1934 0 66.1388 12.7308 842 64.6686 566.814 506.024
1935 0 67.071 12.867 863 64.5747 567.064 506.546
1936 0 70.1206 12.7922 897 64.2196 567.578 504.989
1937 0 72.0939 13.6627 985 63.4609 566.88 504.372
1938 0 73.0783 13.7934 1008 63.6121 566.164 502.146
1939 0 76.054 13.7534 1046 63.5516 566.199 501.975
1940 0 80.1223 13.2423 1061 63.7267 566.229 501.696
1941 0 82.1157 13.3957 1100 63.8055 566.748 500.139
1942 1 41.0278 11.9431 490 65.2306 566.388 519.116
1943 0 43.0618 11.4719 494 65.7996 566.449 517.913
1944 0 43.1274 10.8052 466 66.3712 565.68 520.384
1945 0 47.1008 12.5688 592 64.4088 565.492 518.356
1946 0 49.0578 13.2904 652 63.4663 564.92 519.068
1947 0 48.0088 13.2684 637 64.595 565.674 517.765
1948 0 51.0968 13.6212 696 63.8362 564.927 515
1949 0 51.0196 12.603 643 65.0964 564.734 515.605
1950 0 53.0498 13.2706 704 64.5298 564.817 513.668
1951 0 56.0884 15.2616 856 61.736 564.227 512.602
1952 0 59.0382 15.0581 889 61.3611 564.216 511.949
1953 0 59.0644 13.3583 789 64.275 563.603 508.897
1954 0 63.0296 12.978 818 64.077 564.542 510.268
1955 0 65.0632 13.1718 857 64.105 564.596 508.73
1956 0 68.0394 13.1541 895 63.9464 565.008 507.46
1957 0 68.0761 11.9572 814 65.5725 564.919 509.686
1958 0 70.0534 12.4048 869 65.7043 563.968 505.705
1959 0 73.076 13.4928 986 64.8032 564.252 502.742
1960 0 75.0918 13.8764 1042 64.2015 564.756 502.538
1961 0 78.0802 14.4851 1131 63.6136 565.095 501.505
1962 0 80.0586 13.3777 1071 65.3595 564.632 501.146
1963 0 82.1674 13.8376 1137 64.8558 565.006 499.202
1964 1 43.0514 13.0774 563 65.119 565.028 518.266
1965 0 44.084 12.4989 551 65.5844 565.514 517.949
1966 0 45.1326 13.1612 594 65.5741 565.704 515.194
1967 0 44.0232 13.1522 579 66.9292 565.781 515.541
1968 0 49.0547 14.0863 691 64.5239 565.716 514.887
1969 0 49.1174 13.7426 675 65.4652 565.988 514.535
1970 0 51.2037 13.3584 684 65.8582 566.443 513.52
1971 0 52.0245 13.3206 693 66.4228 567.193 511.182
1972 0 54.0782 14.1832 767 65.3286 567.246 510.904
1973 0 58.0476 15.918 924 62.4524 566.63 508.617
1974 0 59.0406 14.4307 852 65.0223 566.584 508.568
1975 0 63.0512 14.0838 888 64.5473 566.728 509.054
1976 0 64.13 14.4082 924 63.8831 566.531 508.284
1977 0 64.0832 12.4838 800 66.5362 566.136 507.974
1978 0 67.0853 12.9537 869 65.9954 566.641 505.206
1979 0 68.212 11.9774 817 67.213 567.231 503.979
1980 0 72.0437 13.8943 1001 64.6953 567.78 502.807
1981 0 75.0981 14.8339 1114 63.2469 567.434 501.516
1982 0 77.1261 13.3418 1029 65.1594 566.616 500.718
1983 1 37.0519 10.7957 400 68.015 567.525 519.522
1984 0 41.1941 12.3562 509 65.7269 566.817 518.45
1985 0 43.0448 12.1037 521 66.4012 566.559 516.806
1986 0 43.0671 12.6314 544 65.761 567.458 517.506
1987 0 45.0418 12.4329 560 67.1321 567.63 514.402
1988 0 46.0739 14.7589 680 64.0882 567.303 513.562
1989 0 47.0214 14.9081 701 64.4993 566.843 511.629
1990 0 49.1666 14.339 705 64.7645 567.719 512.516
1991 0 51.1012 13.7179 701 65.766 566.686 511.829
1992 0 53.135 13.4939 717 66.5565 566.749 511.51
1993 0 53.0794 13.9602 741 66.2605 567.001 509.623
1994 0 51.1038 11.5843 592 70.6385 567.669 507.747
1995 0 57.0491 14.9696 854 65.3642 567.644 508.66
1996 0 60.0978 14.8757 894 65.9306 566.409 507.708
1997 0 62.0439 12.9747 805 68.0199 566.718 507.216
1998 0 64.0759 14.6233 937 66.1654 566.562 504.809
1999 0 66.067 13.335 881 68.0715 566.909 505.257
2000 0 69.1635 14.0103 969 66.8968 567.189 503.785
2001 0 70.1573 16.2634 1141 64.433 566.33 502.99
2002 0 73.1398 13.8092 1010 67.7525 567.015 502.603
2003 0 74.2253 14.941 1109 67.1903 566.737 499.679
2004 0 79.1361 14.2034 1124 67.4804 567.179 501.31
2005 0 81.1361 15.3199 1243 66.3331 567.012 499.107
2006 0 84.0597 14.6443 1231 67.3314 567.226 498.5
2007 0 85.1081 14.4757 1232 59.9326 566.696 502.566
2008 1 44.0375 13.216 582 70.4811 566.918 516.309
2009 0 45.0455 13.0979 590 71.0407 567.729 516.164
2010 0 48.0564 14.2125 683 68.41 567.612 515.042
2011 0 49.0469 13.8235 678 69.6578 566.726 514.468
2012 0 50.0394 13.6692 684 69.9825 565.817 514.029
2013 0 52.0326 14.145 736 70.1196 566.44 510.64
2014 0 54.0334 14.7686 798 69.287 566.212 510.506
2015 0 57.0832 13.892 793 69.3115 566.686 511.918
2016 0 58.1004 13.0464 758 71.1675 566.61 510.898
2017 0 59.0778 14.1847 838 70.2601 565.978 508.628
2018 0 62.049 14.0534 872 70.0872 566.679 506.302
2019 0 63.0409 13.8323 872 70.5172 566.874 507.125
2020 0 64.095 14.0729 902 70.7672 566.533 505.088
2021 0 69.0645 15.3769 1062 68.0056 567.003 504.056
2022 0 70.057 13.8744 972 70.751 566.569 503.998
2023 0 72.1041 14.3126 1032 70.0659 566.649 504.219
2024 0 76.0518 15.4368 1174 68.6584 567.29 502.103
2025 0 79.1404 14.8218 1173 69.7008 566.808 501.055
2026 0 80.0876 15.9825 1280 68.8055 566.921 500.391
2027 1 126.056 13.9065 1753 71.53 566.604 483.815
2028 1 84.0459 13.5997 1143 73.3106 566.641 498.038
2029 0 90.0362 15.9714 1438 68.9986 566.971 498.683
2030 1 46.0219 13.8412 637 72.573 567.035 517.455
2031 0 46.0265 12.1669 560 76.2946 566.691 517.764
2032 0 48.0472 14.2984 687 73.7773 566.619 516.066
2033 0 50.0604 14.6423 733 73.6508 566.621 514.614
2034 0 51.1975 13.3796 685 75.073 566.546 515.492
2035 0 50.0618 14.2824 715 74.8518 566.684 513.916
2036 0 54.0852 14.0519 760 74.2197 564.751 513.537
2037 0 57.035 16.7616 956 69.9163 565.69 512.621
2038 0 59.0345 15.8043 933 71.8585 566.336 511.451
2039 0 61.0883 14.5854 891 72.6813 566.898 512.615
2040 0 61.1281 15.4103 942 72.8524 566.829 510.911
2041 0 65.0622 15.1394 985 72.5137 566.599 511.051
2042 0 62.0572 13.7293 852 76.6631 566.8 507.533
2043 0 67.0577 14.6441 982 74.9267 566.741 506.7
2044 0 70.154 14.7675 1036 73.472 566.672 506.753
2045 0 72.1076 14.7835 1066 73.7955 566.457 504.921
2046 0 74.0882 15.3466 1137 73.2665 565.253 504.814
2047 0 77.0465 14.926 1150 73.68 566.386 504.096
2048 0 80.0721 15.536 1244 72.25 566.384 503.264
2049 0 81.1232 15.384 1248 73.0665 566.42 500.905
2050 0 84.1253 15.156 1275 73.9373 566.402 497.406
2051 0 89.0934 16.8138 1498 70.4713 566.304 497.654
2052 0 91.1001 14.775 1346 73.7853 565.958 497.68
2053 1 45.222 14.3514 649 75.6379 566.374 518.339
2054 0 48.0415 13.4675 647 76.507 565.912 517.47
2055 0 48.0387 15.6749 753 73.7902 564.952 517.089
2056 0 49.0612 15.2259 747 74.4043 565.941 516.656
2057 0 52.0803 15.5529 810 73.9 566.063 513.786
2058 0 53.0456 14.6289 776 75.2178 566.155 513.466
2059 0 55.1113 15.2056 838 73.9618 565.667 513.424
2060 0 53.0321 13.6521 724 79.8287 566.385 513.606
2061 0 57.0511 14.8288 846 77.5697 566.073 512.35
2062 0 58.05 14.8665 863 77.7057 565.753 511.714
2063 0 61.031 15.402 940 76.2128 564.738 510.661
2064 0 62.055 14.4388 896 78.3839 566.776 509.267
2065 0 63.0495 15.5909 983 76.8291 565.982 509.396
2066 0 68.0237 13.5541 922 77.9143 565.501 509.872
2067 0 70.1773 15.4323 1083 76.0305 565.117 505.534
2068 0 72.0854 15.3013 1103 75.6936 565.606 504.428
2069 0 74.1653 14.4542 1072 77.0896 565.637 503.789
2070 0 76.058 14.5021 1103 77.185 565.865 501.548
2071 0 78.0501 13.8629 1082 77.793 565.482 502.823
2072 0 82.1347 15.3285 1259 75.606 564.971 499.989
2073 0 85.1551 14.8318 1263 76.5732 564.633 498.401
2074 0 88.1893 15.1946 1340 75.856 564.798 497.779
2075 1 39.0644 13.337 521 77.6065 565.013 519.614
2076 0 41.1251 14.2249 585 76.6308 565.084 518.86
2077 0 41.0979 13.334 548 78.115 565.142 518.316
2078 0 42.0187 14.1128 593 76.9983 565.914 518.332
2079 0 45.0857 15.5482 701 73.1027 565.267 518.242
2080 0 45.0752 12.823 578 78.5467 565.358 516.766
2081 0 46.0456 14.92 687 75.9549 564.798 515.434
2082 0 46.1931 15.0239 694 75.3588 565.862 515.947
2083 0 50.0618 15.0015 751 75.3156 565.949 513.775
2084 0 52.0608 14.0797 733 75.0014 565.898 515.72
2085 0 54.2558 14.7818 802 74.8728 565.4 512.363
2086 0 56.2562 14.3273 806 75.1811 565.716 510.888
2087 0 57.0488 14.6541 836 75.122 565.356 509.255
2088 0 58.1005 12.8054 744 77.2151 565.746 509.151
2089 0 61.0645 14.2964 873 75.2864 565.696 507.058
2090 0 65.1299 14.3252 933 73.3698 566.23 508.24
2091 0 67.0958 14.1141 947 74.51 565.375 505.302
2092 0 69.1044 14.1236 976 74.4539 565.817 505.42
2093 0 70.1144 15.218 1067 74.2493 565.201 502.679
2094 0 72.0497 13.6711 985 76.1624 564.82 502.607
2095 0 74.0498 13.2343 980 76.4612 565.579 501.484
2096 0 78.0451 14.12 1102 74.794 565.259 502.271
2097 0 82.0816 14.5952 1198 74.172 565.302 498.703
2098 0 82.1364 14.7438 1211 74.54 565.751 498.92
2099 1 40.0672 12.9532 519 79.0944 565.611 515.882
2100 0 44.0156 14.6312 644 75.1972 566.205 517.792
2101 0 44.0375 12.7618 562 79.226 565.457 514.429
2102 0 44.1021 12.9926 573 79.2234 565.693 515.113
2103 0 47.1442 14.3814 678 77.0251 565.513 513.178
2104 0 48.0163 12.0168 577 79.9636 566.123 513.503
2105 0 51.1016 15.4594 790 75.081 565.358 510.246
2106 0 54.1464 15.0518 815 75.0478 565.61 511.287
2107 0 55.1203 14.5681 803 75.7285 566.371 510.877
2108 0 57.0566 13.7758 786 76.5547 565.281 510.361
2109 0 60.0824 13.7977 829 76.31 564.813 509.603
2110 0 59.1814 13.5685 803 77.2017 564.761 507.675
2111 0 63.15 14.0301 886 75.7799 564.938 508.323
2112 0 65.1792 14.6366 954 75.4958 565.884 504.573
2113 0 68.1571 14.76 1006 74.6024 565.172 504.348
2114 0 68.1167 14.622 996 75.5693 565.169 503.921
2115 0 71.118 15.5516 1106 74.0931 565.255 502.222
2116 0 72.1422 14.1665 1022 76.9736 565.868 501.12
2117 0 76.1298 13.2668 1010 78.1802 565.29 499.348
2118 0 79.1083 15.9275 1260 73.9286 566.214 498.971
2119 0 78.1079 13.1101 1024 79.0127 565.765 499.696
2120 1 43.0627 12.656 545 76.2055 564.954 518.604
2121 0 44.0739 13.0916 577 75.8094 565.747 516.402
2122 0 44.0825 12.9303 570 77.8509 566.1 515.472
2123 0 44.0499 12.2588 540 78.8482 565.611 516.202
2124 0 48.1159 13.031 627 76.4067 565.714 516.448
2125 0 49.0486 15.2706 749 74.4927 565.431 513.366
2126 0 52.0814 11.1748 582 79.5619 566.438 514.378
2127 0 53.0698 14.17 752 74.7793 566.739 511.851
2128 0 53.126 13.4962 717 76.7057 566.1 512.042
2129 0 57.0876 12.6823 724 76.3909 565.87 509.671
2130 0 58.0876 12.1196 704 77.5 565.375 509.026
2131 0 61.09 14.7815 903 73.1805 565.214 507.549
2132 0 60.0626 12.3538 742 77.7898 565.445 506.128
2133 0 66.092 15.1909 1004 72.1584 566.611 504.785
2134 0 69.1934 13.5273 936 74.3034 566.687 503.913
2135 0 71.1781 13.8385 985 73.932 566.02 503.936
2136 0 73.1002 13.8303 1011 73.4392 566.23 502.943
2137 0 76.1133 13.7558 1047 73.7068 566.494 501.022
2138 0 78.1027 14.2377 1112 73.0656 566.628 498.704
2139 1 42.0394 12.9878 546 73.4212 567.216 518.782
2140 0 40.158 12.0275 483 77.0041 565.82 516.702
2141 0 43.0487 11.9632 515 75.3689 566.738 518.586
2142 0 45.047 12.9642 584 73.6952 566.456 517.195
2143 0 46.0864 13.0841 603 73.2023 566.63 516.73
2144 0 47.0268 13.1202 617 73.3744 566.055 514.643
2145 0 49.0644 15.0211 737 70.8426 566.122 513.465
2146 0 51.0798 13.1363 671 73.2697 565.908 512.075
2147 0 53.0437 13.1024 695 72.9683 565.459 512.511
2148 0 54.0709 13.2789 718 72.241 565.631 512.947
2149 0 55.1615 13.9409 769 71.7828 564.411 511.264
2150 0 57.1059 13.5713 775 71.969 565.382 510.671
2151 0 58.0827 12.7749 742 73.3828 565.15 509.41
2152 0 62.1013 13.172 818 71.445 565.037 508.493
2153 0 63.069 13.1126 827 71.9867 564.762 507.03
2154 0 68.0261 14.1416 962 69.8825 564.964 504.955
2155 0 68.0963 13.2166 900 71.2233 565.176 504.401
2156 0 69.0528 13.1349 907 71.5204 565.055 501.074
2157 0 72.0496 11.7697 848 72.7759 565.436 500.093
2158 1 39.1708 10.8244 424 71.9363 565.413 518.781
2159 0 39.0895 9.05613 354 75.6356 565.347 517.715
2160 0 43.161 12.7893 552 69.5888 565.482 516.768
2161 0 42.0748 10.2674 432 73.7407 565.803 517.37
2162 0 44.048 12.8269 565 70.8566 565.377 515.271
2163 0 44.0801 12.1597 536 72.0634 566.284 515.062
2164 0 47.0407 12.0109 565 71.3469 565.216 513.94
2165 0 48.1026 13.6167 655 68.8336 565.392 514.284
2166 0 51.1523 13.1959 675 68.9511 565.738 511.436
2167 0 51.0887 11.8617 606 71.0957 564.526 511.726
2168 0 52.0742 13.3271 694 69.1138 565.416 510.086
2169 0 54.0746 12.7417 689 69.5051 564.52 509.122
2170 0 58.1328 14.7937 860 65.6942 565.648 508.474
2171 0 60.0642 14.4012 865 66.1653 565.594 507.825
2172 0 62.118 15.5832 968 64.2066 565.132 508.243
2173 0 64.0749 12.7975 820 67.8549 565.263 507.484
2174 0 63.2028 11.7083 740 70.1041 565.624 505.509
2175 0 68.0337 14.2429 969 66.3044 565.773 505.182
2176 0 71.0787 13.3936 952 67.145 564.955 502.726
2177 0 72.0602 14.2103 1024 66.543 565.733 502.518
2178 0 77.0479 13.6798 1054 66.6053 564.429 501.502
2179 0 79.1189 14.7879 1170 65.3214 564.403 498.584
2180 0 80.1061 14.0938 1129 66.256 564.548 500.177
2181 0 82.0963 12.9482 1063 68.2154 565.397 496.71
2182 1 41.0371 12.9639 532 66.5883 565.242 515.883
2183 0 44.0635 13.6394 601 66.0466 565.361 514.268
2184 0 43.1186 13.8919 599 66.9165 565.382 514.047
2185 0 45.0783 13.7982 622 66.5724 565.426 515.145
2186 0 46.0907 12.0849 557 68.0162 565.196 516.874
2187 0 50.1089 13.4906 676 66.2559 564.899 514.03
2188 0 50.1323 13.4045 672 67.2634 565.408 511.077
2189 0 51.0942 11.4299 584 69.1832 565.06 511.103
2190 0 55.0692 13.3105 733 65.9632 565.57 511.164
2191 0 56.0779 10.2536 575 69.9739 565.546 508.859
2192 0 59.113 13.3981 792 65.5606 565.218 507.703
2193 0 60.103 12.3288 741 66.6208 565.016 507.704
2194 0 63.2049 13.6698 864 65.0914 565.089 507.161
2195 0 65.0889 12.1526 791 66.0695 565.315 506.899
2196 0 66.0552 13.2314 874 65.7243 565.865 502.694
2197 0 68.0371 11.1704 760 67.0553 565.457 505.301
2198 0 74.1037 12.8334 951 64.7319 565.728 503.266
2199 0 74.1315 13.4221 995 64.7487 564.847 498.594
2200 0 75.2008 11.9946 902 66.7129 564.977 499.949
2201 0 79.0827 12.2783 971 66.345 564.717 496.909
2202 1 44.1319 11.6243 513 65.2904 565.364 516.404
2203 0 46.0743 11.2644 519 65.7746 566.179 515.933
2204 0 46.0374 10.3394 476 67.2227 565.863 516.252
2205 0 46.0233 10.8858 501 67.7784 565.142 512.291
2206 0 50.0684 13.3418 668 64.5704 565.189 512.552
2207 0 51.0482 12.831 655 65.4656 565.482 511.716
2208 0 53.1211 13.0268 692 64.1806 564.999 512.815
2209 0 53.1683 11.962 636 66.2626 565.445 510.778
2210 0 56.0384 11.6884 655 66.1771 565.431 510.475
2211 0 56.0816 11.4298 641 66.8362 565.704 509.254
2212 0 59.0356 12.7889 755 65.2848 565.028 506.185
2213 0 62.1138 12.0585 749 65.4953 565.23 507.756
2214 0 64.0587 11.3802 729 66.2195 565.778 507.775
2215 0 66.1218 14.3523 949 63.4668 565.075 503.685
2216 0 67.1429 13.3 893 64.4759 564.754 503.785
2217 0 71.1256 12.499 889 65.0619 563.904 502.196
2218 0 74.1648 13.497 1001 64.4106 564.316 499.874
2219 0 77.0906 12.5048 964 65.3983 564.545 501.136
2220 0 76.1263 13.0704 995 65.5296 564.62 501.484
2221 0 81.1957 12.9687 1053 65.5688 565.521 496.525
2222 1 41.023 11.262 462 65.4307 565.708 520.513
2223 0 46.2376 13.0413 603 64.4146 564.987 515.589
2224 0 46.0628 12.2007 562 64.5036 565.21 518.274
2225 0 47.1096 13.1396 619 63.6074 564.792 518.561
2226 0 49.0493 12.7627 626 64.746 565.157 516.468
2227 0 47.1103 11.8445 558 67.509 565.342 515.154
2228 0 52.0498 12.8915 671 65.4441 565.3 514.267
2229 0 50.0678 12.9424 648 66.3133 565.248 513.171
2230 0 55.1319 12.3341 680 66.1618 565.262 513.16
2231 0 56.0456 13.0965 734 65.8038 564.999 511.96
2232 0 58.2568 11.621 677 67.4993 565.16 510.084
2233 0 59.0592 12.7669 754 66.7308 565.598 508.365
2234 0 61.0761 12.4435 760 67.2053 565.274 509.966
2235 0 63.096 12.8534 811 66.8705 565.742 506.628
2236 0 64.0554 12.8014 820 67.578 564.929 503.843
2237 0 67.183 11.0891 745 69.1181 565.235 503.013
2238 0 67.0652 11.3621 762 68.6719 565.941 503.44
2239 0 71.1104 12.3751 880 67.7534 565.548 501.762
2240 0 75.1702 11.8664 892 67.6132 565.935 500.966
2241 0 77.0811 12.4025 956 67.5178 565.387 498.99
2242 0 79.0385 12.4623 985 67.8325 565.803 496.607
2243 0 83.115 13.5234 1124 66.024 566.016 496.963
2244 1 42.0527 11.3191 476 67.437 565.983 518.559
2245 0 43.0947 11.8808 512 67.498 566.412 517.266
2246 0 44.0827 12.6127 556 66.5917 566.615 515.408
2247 0 47.117 12.2249 576 66.2552 566.028 516.601
2248 0 45.0202 12.7943 576 67.658 565.91 513.363
2249 0 49.0344 12.2363 600 66.7133 565.91 514.863
2250 0 51.0476 12.9095 659 65.6191 566.187 513.264
2251 0 52.0416 13.4123 698 65.2149 565.809 512.612
2252 0 53.0743 13.6601 725 65.5021 565.695 513.559
2253 0 54.1004 13.0313 705 66.0397 566.526 512.882
2254 0 54.0492 11.619 628 68.1815 565.385 510.826
2255 0 59.0994 13.6042 804 65.3221 566.137 509.047
2256 0 60.0975 12.9623 779 65.9666 565.804 511.18
2257 0 63.1007 13.423 847 65.7769 567.237 507.135
2258 0 64.1021 13.8685 889 65.2823 565.878 507.429
2259 0 66.1047 13.7055 906 65.8896 565.87 505.496
2260 0 69.1272 15.9127 1100 63.3864 565.845 502.085
2261 0 72.0824 13.0961 944 67.0191 566.677 503.05
2262 0 75.106 13.0615 981 66.84 566.479 501.231
2263 0 75.1212 12.7128 955 68.2272 566.243 499.129
2264 0 79.0916 13.4907 1067 66.7451 566.095 499.658
2265 0 82.1783 13.7384 1129 66.4845 566.373 498.335
2266 0 84.2451 13.3658 1126 67.0897 566.802 497.255
2267 0 88.0854 12.4652 1098 67.9709 566.221 496.547
2268 0 91.0885 14.206 1294 65.9969 566.451 494.31
2269 0 93.1877 14.5083 1352 65.9512 565.964 493.584
2270 0 94.1137 13.8237 1301 67.1622 565.942 490.772
2271 0 97.0836 12.8549 1248 68.4295 566.33 489.576
2272 1 50.052 12.3472 618 68.856 565.613 512.523
2273 0 54.1137 12.5477 679 68 566.295 512.087
2274 0 59.1015 14.0098 828 64.75 566.885 512.632
2275 0 57.124 12.9718 741 67.7072 565.528 509.829
2276 0 61.1673 11.8691 726 68.3444 566.008 508.554
2277 0 63.129 13.9239 879 65.2162 565.514 508.949
2278 0 66.1231 12.8851 852 66.1573 565.824 507.053
2279 0 67.195 13.1111 881 65.8002 565.135 506.44
2280 0 70.0973 13.5241 948 65.4378 565.475 505.489
2281 0 73.215 14.6555 1073 63.9068 566.208 503.569
2282 0 74.0542 13.6387 1010 65.8426 566.504 501.502
2283 0 77.0971 12.4389 959 66.5579 565.831 502.383
2284 0 80.1407 12.9023 1034 65.8211 566.036 500.755
2285 0 85.1184 13.6163 1159 64.2804 567.529 499.775
2286 0 87.1885 12.6049 1099 65.8007 565.907 493.29
2287 0 89.1114 13.2643 1182 65.5144 565.734 495.738
2288 0 92.2498 14.0271 1294 64.432 565.958 494.621
2289 1 46.0335 14.0333 646 64.4164 565.751 514.85
2290 0 47.2263 11.8154 558 66.9014 566.577 515.677
2291 0 49.1036 12.0358 591 66.4467 566.237 515.076
2292 0 51.0417 13.969 713 63.77 567.226 511.222
2293 0 53.0309 12.4644 661 65.5507 566.501 510.927
2294 0 54.0644 14.1498 765 63.6863 566.322 511.163
2295 0 57.0339 14.0969 804 63.7102 566.347 510.185
2296 0 60.062 14.8513 892 62.1648 567.394 510.2
2297 0 60.0482 13.8056 829 63.3522 566.876 509.819
2298 0 63.0953 12.6951 801 64.5793 566.68 507.365
2299 0 67.1825 13.4708 905 63.3425 567.15 505.304
2300 0 66.1233 12.3557 817 63.7136 567.364 504.397
2301 0 70.0359 11.9225 835 63.7246 567.424 505.472
2302 0 75.0731 14.1595 1063 61.0668 567.006 502.654
2303 0 76.1244 14.3187 1090 61.2578 567.579 500.602
2304 0 78.1424 14.0129 1095 62.2128 567.812 497.945
2305 0 80.185 14.1174 1132 61.6458 566.726 498.924
2306 0 84.1184 14.218 1196 61.9306 567.151 495.177
2307 0 85.1774 14.2761 1216 62.0502 566.96 495.294
2308 0 88.1786 13.8809 1224 62.8407 567.448 492.49
2309 0 91.1173 14.6295 1333 62.1313 567.203 490.062
2310 0 94.0796 11.841 1114 65.4138 566.841 487.305
2311 1 47.0894 12.7417 600 64.1083 566.417 511.713
2312 0 49.0482 11.7232 575 64.5478 567.087 512.623
2313 0 53.1068 12.8044 680 62.6956 566.45 512.804
2314 0 52.0336 12.6265 657 64.2055 566.82 510.965
2315 0 54.0739 14.1288 764 62.1165 567.048 510.8
2316 0 56.1429 14.6768 824 62.449 567.153 505.494
2317 0 59.0588 13.2241 781 63.3457 566.644 506.508
2318 0 60.1384 12.7373 766 63.8029 567.132 505.963
2319 0 62.0602 12.7296 790 63.8418 567.051 503.69
2320 0 65.0511 14.1888 923 62.2546 566.561 503.544
2321 0 66.0692 12.0328 795 64.2704 566.758 501.182
2322 0 68.1743 13.9202 949 62.9526 566.541 499.606
2323 0 72.0616 13.086 943 63.1707 567.168 498.802
2324 0 73.0595 11.7028 855 65.0538 566.915 498.848
2325 0 77.0946 13.438 1036 62.8185 566.694 497.933
2326 0 81.1532 13.9982 1136 62.346 566.376 494.651
2327 0 84.1265 16.2256 1365 60.0777 566.695 493.294
2328 0 87.2677 15.2978 1335 60.9708 566.879 492.252
2329 0 89.2027 13.2059 1178 63.5323 566.299 491.405
2330 0 92.2006 13.8611 1278 62.8036 566.566 491.09
2331 0 96.0823 14.0296 1348 62.6906 567.004 487.893
2332 0 98.2022 14.3174 1406 62.3023 567.093 486.006
2333 0 100.151 13.9689 1399 62.8892 567.303 484.554
2334 0 106.086 13.7342 1457 62.3706 567.24 485.889
2335 1 59.0947 12.1331 717 63.06 567.098 505.742
2336 0 62.1202 12.9588 805 61.5019 567.086 507.416
2337 0 63.1698 13.2025 834 62.5863 566.618 502.764
2338 0 67.1772 12.9359 869 61.9827 566.472 504.214
2339 0 69.0875 13.9099 961 61.6785 566.418 500.618
2340 0 70.1234 13.0199 913 62.9858 566.948 501.164
2341 0 70.0656 11.9459 837 64.362 567.202 498.687
2342 0 76.0982 12.9175 983 62.3957 567.172 498.876
2343 0 77.0797 13.8039 1064 62.079 566.89 494.599
2344 0 76.1161 11.8766 904 64.8241 566.998 495.293
2345 0 84.0959 12.5571 1056 63.0663 567.502 497.643
2346 0 85.1032 11.4332 973 65.221 567.164 490.912
2347 0 89.08 13.9201 1240 62.1274 567.003 493.835
2348 0 89.1919 12.2769 1095 64.6548 567.275 490.502
2349 0 94.1833 13.994 1318 62.651 567.385 488.042
2350 1 47.1334 11.9872 565 55.7912 567.857 514.218
2351 0 49.063 10.5375 517 56.8956 567.095 511.928
2352 0 51.0954 11.8993 608 55.9457 567.571 509.694
2353 0 49.164 12.4685 613 55.9494 567.393 507.305
2354 0 52.2028 11.666 609 56.2791 567.287 510.562
2355 0 55.085 12.6895 699 55.0386 566.886 508.249
2356 0 57.105 12.2056 697 55.4132 567.043 506.594
2357 0 58.0821 11.8625 689 56 566.707 506.827
2358 0 61.1213 11.9598 731 55.502 566.755 505.085
2359 0 61.0338 10.5679 645 57.3954 565.981 503.495
2360 0 63.0732 11.5897 731 56.606 566.319 502.93
2361 0 67.1153 12.9628 870 55.2391 567.716 501.647
2362 0 69.0526 14.2066 981 53.7156 566.965 498.538
2363 0 69.1073 12.0393 832 56.5409 567.221 499.656
2364 0 75.2275 13.4924 1015 54.6098 567.801 497.113
2365 0 78.1403 13.1942 1031 55.0873 566.726 498.641
2366 0 79.2648 13.6 1078 55.2384 567.237 494.16
2367 1 37.092 10.8649 403 57.6898 567.479 515.96
2368 0 41.0649 10.666 438 57.0936 568.39 515.514
2369 0 44.0199 12.1081 533 55.3677 567.998 514.889
2370 0 45.0191 13.15 592 54.4105 568.052 514.612
2371 0 44.1697 13.0633 577 54.9324 567.856 515.418
2372 0 44.0612 12.4826 550 55.7818 566.547 513.598
2373 0 45.1111 11.2168 506 57.3893 566.37 513.47
2374 0 49.0132 13.6902 671 54.3726 567.671 510.505
2375 0 48.041 12.2187 587 56.063 566.705 511.877
2376 0 51.0618 12.4359 635 55.9102 566.595 510.416
2377 0 53.116 14.3083 760 53.7868 566.404 509.675
2378 0 54.0356 13.158 711 55.1744 566.188 510.188
2379 0 56.0567 13.3793 750 55.044 566.647 508.343
2380 0 57.0491 12.0949 690 56.3928 566.98 508.332
2381 0 58.0732 13.3108 773 54.5834 567.257 509.669
2382 0 60.2091 12.8718 775 55.7652 567.213 507.347
2383 0 64.0909 12.2014 782 56.1739 565.881 505.407
2384 0 65.1432 11.7587 766 56.5287 565.928 508.025
2385 0 69.038 14.6586 1012 54.6482 567.026 502.927
2386 0 69.1126 12.7184 879 56.7747 566.911 503.705
2387 0 72.1126 14.1723 1022 55.9364 566.799 501.683
2388 0 77.3112 14.0989 1090 55.1312 566.961 502.522
2389 1 40.0905 12.4468 499 56.3507 568.168 516.768
2390 0 39.0218 11.4551 447 59.6667 568.673 513.181
2391 0 41.1073 13.3553 549 57.6412 569.26 514.763
2392 0 40.0945 9.92656 398 61.397 569.462 513.256
2393 0 43.1218 11.8502 511 60.0215 569.45 512.25
2394 0 44.0279 12.8328 565 59.8407 569.628 509.315
2395 0 46.0907 12.8009 590 60.1712 569.746 510.83
2396 0 47.0806 12.7229 599 59.9916 569.516 509.546
2397 0 49.1852 12.0361 592 60.0726 568.623 509.041
2398 0 51.0723 12.6292 645 59.9674 569.245 508.31
2399 0 52.1012 14.8749 775 57.8142 569.363 506.886
2400 0 52.1012 14.8365 773 122.123 569.364 506.921
2401 0 56.1568 12.3939 696 61.3046 569.069 506.109
2402 0 57.0261 12.2926 701 61.2325 568.869 505.345
2403 0 61.079 12.9013 788 60.8477 567.976 504.377
2404 0 63.1187 13.435 848 60.2252 568.508 502.723
2405 0 65.0885 14.3497 934 58.7163 568.545 501.905
2406 0 65.1531 12.1713 793 61.116 568.783 502.498
2407 0 69.1272 12.3106 851 61.4418 568.622 501.927
2408 0 72.1637 12.4855 901 61.1143 569.374 500.624
2409 0 74.106 13.6156 1009 59.9415 568.735 499.041
2410 1 40.0401 11.6134 465 61.2151 568.157 515.916
2411 0 41.1464 13.0023 535 59.5308 568.628 517.574
2412 0 42.1712 14.3226 604 59.1523 568.207 515.106
2413 0 45.0255 14.2808 643 58.6998 568.989 514.173
2414 0 46.0885 11.6081 535 63.129 568.665 511.101
2415 0 45.0468 12.4759 562 62.7171 568.552 510.872
2416 0 49.0535 13.4955 662 60.8263 568.804 509.66
2417 0 50.0498 14.1059 706 59.6898 568.13 510.069
2418 0 50.0467 11.2095 561 63.4082 567.579 509.314
2419 0 53.1703 12.3001 654 61.3578 568.122 509.239
2420 0 54.2195 14.0355 761 60.4547 568.125 506.54
2421 0 57.149 15.1184 864 58.4595 568.306 505.272
2422 0 58.0895 12.9972 755 60.8517 568.212 506.188
2423 0 59.0744 14.7272 870 59.2195 567.849 504.409
2424 0 60.1012 13.9099 836 59.805 567.409 505.884
2425 0 65.0457 14.5436 946 59.0169 567.483 503.415
2426 0 65.0984 12.1816 793 61.6583 568.411 503.155
2427 0 67.0471 12.5285 840 60.9429 567.98 502.661
2428 0 70.2297 12.0035 843 61.7592 568.298 498.299
2429 0 69.0909 11.8974 822 62.5426 567.992 496.55
2430 0 74.1142 11.9275 884 61.9197 567.982 495.387
2431 1 39.0623 12.9281 505 60.4673 569.43 515.63
2432 0 41.0195 13.8958 570 60.2421 568.87 514.888
2433 0 43.0625 11.9826 516 61.3546 568.205 515.138
2434 0 44.0514 12.9621 571 61.007 568.004 513.988
2435 0 44.1019 12.3577 545 62.1284 568.536 512.868
2436 0 46.05 12.3561 569 62.2953 568.68 509.926
2437 0 46.1563 11.6344 537 62.8361 568.966 511.067
2438 0 50.1608 11.7223 588 61.5935 568.017 511.673
2439 0 52.1293 14.4448 753 58.4011 568.449 512.522
2440 0 53.0456 13.7994 732 60.1626 568.067 507.59
2441 0 57.0655 16.5424 944 55.9587 568.289 508.733
2442 0 57.1098 12.6423 722 60.1399 567.601 509.043
2443 0 59.0902 14.8586 878 57.9727 567.648 506.769
2444 0 60.207 15.0149 904 58.2212 567.198 505.073
2445 0 63.0712 15.094 952 57.626 567.702 505.828
2446 0 65.3249 13.4099 876 59.7078 567.701 504.812
2447 0 67.0918 13.5188 907 59.8269 567.572 503.077
2448 0 70.0698 14.9993 1051 57.3416 567.358 504.142
2449 0 71.0904 12.9694 922 60.0987 567.622 502.559
2450 0 74.1829 13.5341 1004 59.4193 568.297 498.851
2451 0 74.1387 13.2724 984 60.625 567.74 499.238
2452 0 77.1351 13.4569 1038 60.3276 568.061 500.805
2453 0 81.1488 13.7772 1118 60 568.26 495.76
2454 0 81.0997 13.8595 1124 60.2011 567.733 497.808
2455 1 42.2133 12.2473 517 60.6093 568.259 517.838
2456 0 44.2295 13.5882 601 60.4542 567.276 514.815
2457 0 46.2485 12.0653 558 61.3692 568.011 516.079
2458 0 46.0701 11.8732 547 62.5448 566.459 516.066
2459 0 46.03 14.7947 681 60.5301 567.921 514.14
2460 0 48.0576 13.1093 630 62.6302 567.4 512.371
2461 0 50.0692 13.701 686 60.605 567.23 513.908
2462 0 52.0671 13.982 728 61.283 567.957 511.062
2463 0 55.1161 13.4443 741 61.2065 567.429 510.958
2464 0 56.0724 13.3399 748 61.111 567.366 511.746
2465 0 57.0771 13.4555 768 60.9674 567.332 509.882
2466 0 59.2189 14.8263 878 60.049 567.348 507.024
2467 0 60.1063 15.1897 913 59.2497 567.04 507.838
2468 0 62.1357 15.7719 980 58.7255 567.286 505.586
2469 0 65.0953 14.4865 943 59.9788 567.249 503.99
2470 0 66.097 13.0868 865 61.3792 568.523 501.791
2471 0 69.1808 15.2643 1056 58.3362 567.702 505.497
2472 0 72.2162 15.3428 1108 58.5442 568.058 502.547
2473 0 72.153 13.3744 965 61.343 567.44 500.593
2474 0 78.2626 15.563 1218 59.1765 568.375 500.712
2475 0 78.0957 12.5359 979 62.5976 567.535 498.315
2476 0 83.2371 13.7679 1146 61.6396 567.458 497.088
2477 1 41.1617 12.3173 507 62.6213 567.318 517.775
2478 0 42.1252 12.3916 522 63.9521 567.358 516.431
2479 0 43.1517 14.7155 635 61.7701 566.335 516.222
2480 0 45.069 15.8868 716 60.4413 567.237 515.774
2481 0 46.1804 15.093 697 62.1176 567.283 512.814
2482 0 47.2543 14.2844 675 62.2563 567.682 515.084
2483 0 52.1236 14.9836 781 60.8515 567.426 513.469
2484 0 50.0473 13.8069 691 63.8495 567.187 512.152
2485 0 52.094 15.2225 793 62.1274 568.168 512.43
2486 0 54.104 14.9342 808 62.6386 567.942 510.804
2487 0 55.1801 14.2805 788 63.236 568.047 510.353
2488 0 58.2873 13.7251 800 63.7788 567.25 509.828
2489 0 59.0775 15.4543 913 61.8291 568.491 509.717
2490 0 61.1513 14.4396 883 63.5221 567.224 507.465
2491 0 65.323 16.3801 1070 60.3561 567.096 506.234
2492 0 64.3292 14.1304 909 64.1375 567.36 504.367
2493 0 68.1248 13.7982 940 64.2606 567.411 504.706
2494 0 71.2038 14.8166 1055 62.3393 567.078 504.222
2495 0 72.1133 15.5311 1120 62.7679 566.838 500.035
2496 0 73.0703 14.0413 1026 64.6209 568.006 500.631
2497 0 78.147 15.5732 1217 61.9942 567.702 498.675
2498 0 80.0564 15.9637 1278 62.2011 567.608 496.961
2499 0 81.1505 14.9968 1217 63.2974 567.719 494.247
2500 0 84.2139 14.9144 1256 63.1067 568.065 497.215
2501 0 84.1449 13.6431 1148 65.1455 568.44 493.426
2502 0 87.0888 14.112 1229 64.6737 568.106 493.121
2503 1 47.2117 14.149 668 64.2919 568.286 511.618
2504 0 49.0511 13.1292 644 64.5745 568.865 513.247
2505 0 50.189 14.9834 752 62.4322 568.118 511.61
2506 0 50.189 14.9834 752 151.319 567.082 511.577
2507 0 52.2461 14.0106 732 65.1653 569.885 508.393
2508 0 53.1382 14.5281 772 63.5311 568.356 509.452
2509 0 56.1634 13.8702 779 64.0462 568.728 508.153
2510 0 58.0955 14.304 831 63.0638 567.816 507.852
2511 0 61.1372 16.3239 998 60.8587 567.593 505.23
2512 0 63.1259 14.3523 906 62.8731 568.181 503.581
2513 0 64.2583 15.3443 986 61.788 568.446 500.668
2514 0 66.0959 14.9177 986 61.7992 568.924 502.427
2515 0 67.1323 14.7917 993 62.9033 567.365 498.773
2516 0 71.1297 14.0307 998 63.1723 567.672 500.403
2517 0 73.0828 14.3262 1047 62.8491 568.064 499.137
2518 0 74.2228 14.6451 1087 62.4085 567.932 499.384
2519 0 76.1792 14.886 1134 62.3166 567.372 496.129
2520 0 79.1217 15.0022 1187 61.9183 567.404 494.136
2521 0 82.1016 14.7013 1207 62.1234 567.524 493.274
2522 0 84.0784 13.1544 1106 63.6854 567.247 493.476
2523 0 85.2594 13.4061 1143 63.9466 567.122 488.264
2524 1 41.1104 12.6002 518 64.9556 567.237 509.156
2525 0 44.1056 12.8102 565 64.2195 567.871 509.761
2526 0 45.098 13.6148 614 63.4414 568.373 508.52
2527 0 47.4671 15.0631 715 62.1343 567.445 508.361
2528 0 50.104 13.0728 655 63.2366 567.788 507.823
2529 0 49.0832 13.6096 668 63.6856 567.698 504.49
2530 0 52.1281 13.8313 721 62.233 568.036 505.739
2531 0 54.0851 14.4217 780 61.4949 567.08 505.531
2532 0 54.0391 14.0639 760 62.3737 567.454 502.926
2533 0 58.1461 14.5668 847 61.3731 568.07 504.044
2534 0 58.0684 14.3107 831 61.8412 568.349 502.558
2535 0 59.0666 12.3758 731 63.7962 568.551 502.078
2536 0 62.0819 14.2876 887 61.9109 568.22 497.165
2537 0 64.2145 13.1279 843 62.8458 569.209 499.662
2538 0 68.2227 12.3419 842 63.4418 568.878 497.641
2539 0 70.1036 13.9365 977 61.651 568.799 495.516
2540 0 71.0834 12.5768 894 63.5727 568.82 495.383
2541 0 75.2418 14.8721 1119 61.2055 568.751 492.924
2542 0 77.2147 12.6271 975 63.9344 568.606 490.612
2543 0 80.0764 15.1106 1210 61.4694 567.945 490.345
2544 0 86.2129 16.5636 1428 59.1134 568.54 490.657
2545 0 89.0754 15.0098 1337 60.3111 569.426 492.426
2546 1 46.1063 12.8833 594 63.0791 568.786 510.296
2547 0 48.3324 13.1796 637 62.9922 569.129 509.166
2548 0 47.305 14.3537 679 62.8115 569.221 507.268
2549 0 51.1685 14.2861 731 61.8865 568.234 508.811
2550 0 50.0603 15.0219 752 62.1742 568.786 506.164
2551 0 53.206 13.9082 740 63.0757 567.984 505.111
2552 0 54.3148 14.103 766 62.7324 568.128 505.334
2553 0 57.2896 14.6449 839 62.2241 568.187 505.527
2554 0 60.2186 14.8625 895 61.5151 568.847 506.587
2555 0 60.1078 12.3112 740 65.0514 567.845 504.201
2556 0 62.2963 13.179 821 63.6906 568.815 503.468
2557 0 67.2311 14.3386 964 61.9813 568.897 502.182
2558 0 69.0804 14.6351 1011 62.2493 568.581 500.08
2559 0 70.3281 14.8731 1046 62.4484 568.953 499.037
2560 0 72.2194 13.5698 980 64.3276 567.826 497.521
2561 0 76.444 14.3111 1094 63.1097 567.952 496.596
2562 0 77.0987 14.6954 1133 62.7229 567.752 497.227
2563 0 79.1405 14.2279 1126 62.8197 568.675 496.354
2564 0 82.3144 14.2381 1172 63.7901 568.203 491.768
2565 0 85.1909 14.5555 1240 62.8718 567.854 490.349
2566 0 88.2977 15.5157 1370 61.7679 567.958 493.654
2567 1 43.2525 13.0397 564 64.5248 568.358 510.319
2568 0 46.2123 13.5678 627 63.8038 568.565 509.973
2569 0 48.2966 14.1418 683 63.0132 568.365 511.376
2570 0 49.1769 13.8073 679 63.3446 568.143 510.791
2571 0 50.1409 15.2969 767 62.2138 568.859 508.964
2572 0 51.0603 13.7485 702 63.9701 568.067 509.17
2573 0 54.1734 14.3428 777 63.1982 568.218 508.36
2574 0 55.0378 13.0456 718 65.4735 568.746 506.663
2575 0 57.4891 14.5593 837 63.8638 567.869 507.22
2576 0 59.1091 14.0418 830 64.5663 567.624 505.311
2577 0 61.0666 13.7882 842 64.6485 568.032 505.157
2578 0 64.3302 15.436 993 63.001 568.068 503.798
2579 0 64.2123 14.0472 902 64.9424 568.007 502.184
2580 0 66.1706 13.2385 876 65.7158 567.294 503.696
2581 0 70.1074 15.191 1065 63.3681 566.98 501.737
2582 0 72.0767 15.9136 1147 63.1988 567.357 500.55
2583 0 73.0739 15.1354 1106 64.7378 568.797 497.742
2584 0 76.2742 15.2214 1161 63.8932 567.179 498.974
2585 0 78.18 13.8782 1085 65.9475 567.34 495.517
2586 0 81.1287 13.4231 1089 66.2837 567.219 497.123
2587 0 83.1727 14.7043 1223 65.0621 567.623 495.301
2588 0 86.1968 14.8729 1282 65.1856 568.147 492.971
2589 0 88.1034 14.5965 1286 65.2566 567.606 492.144
2590 0 89.0794 13.8191 1231 66.9204 567.708 490.585
2591 0 95.1125 15.4974 1474 63.7815 567.873 488.432
2592 0 97.1362 17.6041 1710 61.3333 567.402 490.251
2593 1 53.1649 14.2951 760 64.5105 568.246 509.467
2594 0 54.0215 15.1976 821 63.1985 567.639 509.929
2595 0 53.2563 12.806 682 67.8328 567.236 507.814
2596 0 56.0425 14.9886 840 65.1452 567.386 504.343
2597 0 59.1164 15.258 902 63.9401 567.045 507.162
2598 0 60.0872 14.013 842 65.2732 569 507.207
2599 0 61.0449 14.7924 903 64.4673 569.173 504.313
2600 0 62.2831 14.113 879 66.0284 569.402 503.567
2601 0 66.0922 14.389 951 65.7256 568.386 502.585
2602 0 66.1283 13.005 860 66.9628 567.654 501.455
2603 0 69.0667 15.1593 1047 64.2942 567.636 502.115
2604 0 71.1799 13.0233 927 66.7303 567.795 499.813
2605 0 72.0715 13.7502 991 66.4369 567.17 498.418
2606 0 76.0623 15.6451 1190 63.1731 567.384 497.028
2607 0 78.1023 13.9048 1086 64.9319 568.006 496.204
2608 0 81.0749 14.5791 1182 63.9915 567.696 496.162
2609 1 42.2645 12.2562 518 66.9305 567.728 512.39
2610 0 44.031 13.9674 615 65.0455 568.198 510.894
2611 0 44.2311 12.2764 543 67.1565 568.368 509.704
2612 0 44.071 13.0698 576 67.2778 569.154 508.526
2613 0 49.1499 13.2045 649 65.1726 567.952 509.659
2614 0 47.0886 14.3771 677 65.4032 568.17 507.616
2615 0 52.2156 15.2828 798 63.0175 567.623 508.375
2616 0 53.1476 14.281 759 64.4756 568.213 504.287
2617 0 53.0866 12.4514 661 67.584 567.758 504.737
2618 0 55.1283 14.8744 820 64.111 568.965 504.211
2619 0 56.3509 13.5934 766 65.5679 567.926 503.709
2620 0 59.1339 14.8646 879 64.4972 568.994 501.489
2621 0 62.0903 14.1568 879 64.8055 568.416 502.462
2622 0 63.0739 13.5397 854 65.7365 567.765 502.918
2623 0 64.1683 17.0645 1095 61.9206 568.709 498.112
2624 0 65.0672 14.3236 932 65.3906 568.26 499.539
2625 0 67.3949 15.0456 1014 64.1548 568.682 499.27
2626 0 71.1739 14.9914 1067 64.1799 568.4 496.61
2627 0 73.2957 15.0623 1104 64.2681 567.885 495.284
2628 0 74.1353 15.9169 1180 63.5695 567.903 494.056
2629 0 76.2471 14.5973 1113 65.292 566.634 494.808
2630 0 79.1541 14.0359 1111 66.0144 566.46 494.229
2631 0 82.4826 13.4453 1109 66.8413 567.082 490.921
2632 0 83.184 13.5964 1131 66.7462 567.622 486.227
2633 0 88.3392 15.1915 1342 64.0253 567.973 488.116
2634 0 90.3828 14.2837 1291 65.3122 567.809 490.112
2635 1 50.2595 13.6889 688 65.6613 567.972 508.517
2636 0 52.3232 13.818 723 65.0844 568.371 506.87
2637 0 54.4561 14.3051 779 64.0565 568.747 506.852
2638 0 53.1103 13.6697 726 65.3196 567.798 505.86
2639 0 55.2084 13.9834 772 64.6516 567.778 505.008
2640 0 57.2108 12.4627 713 66.1374 568.351 503.944
2641 0 60.3114 13.5132 815 64.0098 568.13 504.168
2642 0 61.3383 12.7164 780 64.841 568.359 503.087
2643 0 65.1629 13.3511 870 63.3575 569.032 502.778
2644 0 64.2576 13.0724 840 64.3762 568.595 502.024
2645 0 67.2638 14.0938 948 63.3027 568.09 498.283
2646 0 69.3376 13.3405 925 64.2443 568.448 498.789
2647 0 72.2225 14.1369 1021 62.8031 569.107 499.816
2648 0 76.1949 14.6335 1115 62.3605 568.656 498.858
2649 0 77.3096 14.1121 1091 62.4913 568.272 498.204
2650 0 80.1259 15.9749 1280 52.9797 567.925 494.46
2651 0 83.3234 14.0657 1172 62.3891 569.096 496.098
2652 0 83.2406 13.8754 1155 62.6771 569.167 494.79
2653 0 85.2153 14.6218 1246 62.7897 568.498 490.117
2654 0 88.1549 13.4763 1188 63.0741 568.598 494.796
2655 1 40.2591 14.4812 583 62.5609 568.765 512.25
2656 0 46.2532 13.3396 617 61.9481 568.428 515.535
2657 0 48.1245 14.1508 681 61.069 568.242 514.162
2658 0 47.1677 12.233 577 64.3362 569.222 510.307
2659 0 50.3287 12.0806 608 63.8914 568.421 509.411
2660 0 49.206 13.6569 672 62.8512 569.301 508.533
2661 0 52.1546 13.0573 681 63.0367 568.921 509.571
2662 0 54.1163 14.8569 804 60.3458 568.713 508.806
2663 0 55.4109 14.2571 790 60.9013 569.662 510.509
2664 0 56.3156 13.4599 758 63.2533 568.276 508.393
2665 0 60.2113 13.3198 802 61.9738 568.873 508.691
2666 0 59.1428 13.628 806 62.6452 569.257 506.311
2667 0 62.2265 14.0455 874 61.7506 568.788 506.178
2668 0 63.1882 15.2877 966 60.7588 569.08 503.986
2669 0 65.2128 13.4023 874 62.0103 568.503 504.037
2670 0 69.2442 14.4994 1004 60.8088 568.874 502.295
2671 0 68.079 13.8662 944 62.6314 568.485 501.236
2672 0 71.1292 12.2734 873 64.236 569.171 501.538
2673 0 75.3012 13.8245 1041 62.8521 568.545 499.775
2674 0 76.1276 13.7926 1050 63.1514 567.882 498.749
2675 0 77.2174 13.1318 1014 64.6765 568.812 495.185
2676 0 80.2612 13.2816 1066 64.1848 568.469 493.315
2677 0 84.1372 14.2387 1198 62.4299 568.628 496.8
2678 0 88.191 13.2213 1166 63.8559 568.751 493.718
2679 0 90.1057 14.3498 1293 62.8755 568.985 490.527
2680 1 46.3177 12.9972 602 64.4302 568.44 511.528
2681 0 50.2267 13.6581 686 63.2755 568.644 512.328
2682 0 49.0625 14.3898 706 62.2819 568.983 513.381
2683 0 52.4075 14.0629 737 63.1289 568.924 510.943
2684 0 52.0939 12.9382 674 63.8457 568.548 511.875
2685 0 56.1972 14.4313 811 61.8927 567.858 509.322
2686 0 56.1147 14.007 786 62.6209 569.036 510.648
2687 0 57.2166 12.9857 743 64.2598 568.052 507.678
2688 0 60.2619 13.5575 817 62.3648 568.433 510.201
2689 0 62.3659 15.1686 946 61.4471 568.847 506.106
2690 0 64.2363 14.5089 932 61.8315 568.029 505.242
2691 0 65.13 13.665 890 63.3348 568.104 503.28
2692 0 68.1246 14.5909 994 62.0382 567.999 504.309
2693 0 69.2703 13.1658 912 63.5077 569.206 504.2
2694 0 70.2222 13.087 919 64.3417 568.461 498.396
2695 0 74.1894 11.9559 887 64.5738 568.357 502.076
2696 0 78.2737 13.9383 1091 63.3685 568.176 498.267
2697 0 80.2268 13.2001 1059 63.9358 568.293 499.316
2698 0 81.1114 14.4493 1172 62.8857 569.095 496.218
2699 0 84.2574 14.9304 1258 62.659 568.719 494.731
2700 0 87.1356 15.2406 1328 62.2485 569.482 494.117
2701 0 88.1643 13.0325 1149 65.0844 568.68 493.086
2702 0 93.3408 13.6382 1273 64.6795 568.844 491.35
2703 0 96.2541 13.6098 1310 64.3458 568.184 491.424
2704 1 49.2513 14.3753 708 62.7613 568.048 511.459
2705 0 51.3245 13.7166 704 63.902 568.942 508.312
2706 0 51.1095 12.9134 660 65.3318 568.5 509.456
2707 0 53.222 12.1754 648 65.8889 568.292 509.946
2708 0 56.1875 14.2024 798 63.3308 568.41 510.192
2709 0 56.305 12.7165 716 66.4176 569.337 508.046
2710 0 58.3925 13.8203 807 64.7187 568.611 509.424
2711 0 61.1516 13.4584 823 64.8433 568.237 508.264
2712 0 63.2948 14.393 911 63.5456 568.894 508.24
2713 0 65.2353 13.6582 891 63.9147 568.827 507.814
2714 0 65.3735 14.1648 926 64.2408 569.197 503.37
2715 0 70.26 14.6171 1027 62.776 568.598 504.561
2716 0 70.3078 12.4311 874 65.9119 567.966 503.477
2717 0 73.2471 15.8095 1158 62.0199 569.014 501.247
2718 0 75.2551 14.4974 1091 63.6361 568.694 499.788
2719 0 78.1145 14.4019 1125 63.2569 568.741 502.357
2720 0 81.1534 16.0807 1305 61.4146 569.769 499.366
2721 0 83.2792 15.2619 1271 62.3973 569.586 499.767
2722 0 84.1462 14.9145 1255 63.1275 569.165 497.77
2723 1 41.0734 12.4655 512 66.5059 569.77 516.004
2724 0 44.2739 13.0551 578 64.6817 569.095 517.618
2725 0 44.155 13.1808 582 65.677 569.18 515.426
2726 0 46.187 13.3587 617 64.5089 568.164 516.613
2727 0 49.1838 12.7481 627 65.2648 568.705 514.517
2728 0 50.1222 12.5892 631 65.6545 569.358 514.312
2729 0 52.2996 13.1359 687 64.7977 569.172 513.432
2730 0 53.1991 14.2296 757 63.7728 568.822 511.91
2731 0 56.3569 16.0939 907 61.2789 569.165 511.856
2732 0 59.2714 15.2013 901 61.6404 569.662 512.235
2733 0 57.4418 14.2927 821 64.1876 569.426 508.972
2734 0 60.1807 13.7586 828 63.7935 568.524 509.923
2735 0 61.2656 13.466 825 64.7236 568.846 508.119
2736 0 63.46 12.5118 794 65.3703 568.772 508.086
2737 0 66.123 14.2764 944 63.6155 568.512 506.702
2738 0 68.1343 14.3247 976 64.0676 568.899 502.797
2739 0 68.0928 14.1425 963 63.9128 568.053 504.438
2740 0 72.4063 13.8938 1006 64.2962 568.726 500.351
2741 0 76.1995 15.7875 1203 61.5179 567.655 501.894
2742 0 79.4147 16.2187 1288 60.6343 568.369 501.015
2743 0 78.2324 12.7313 996 65.5683 568.424 500.228
2744 0 82.2457 13.3989 1102 64.9673 568.867 496.391
2745 0 83.3199 14.3783 1198 63.7095 568.536 497.797
2746 0 87.3234 14.6925 1283 63.5448 568.529 493.385
2747 0 91.2704 13.2464 1209 64.8958 568.65 492.619
2748 0 93.1722 15.627 1456 62.0501 568.658 492.299
2749 0 96.1186 15.6994 1509 61.8516 568.429 491.208
2750 0 98.1443 14.2341 1397 63.7931 568.46 488.276
2751 0 101.19 15.1102 1529 62.6978 568.496 490.204
2752 1 50.2298 13.1396 660 65.5318 569.112 508.135
2753 0 54.2383 11.5232 625 66.0112 569.538 511.995
2754 0 57.3226 12.9617 743 65.1036 569.233 508.685
2755 0 56.1134 14.043 788 64.1574 569.057 508.7
2756 0 60.2518 14.5722 878 62.869 569.04 509.033
2757 0 62.3178 15.0037 935 62.6545 568.767 508.201
2758 0 63.273 14.0344 888 64.1914 568.798 507.333
2759 0 66.3866 12.9695 861 64.9431 568.695 502.825
2760 0 68.1753 13.7293 936 64.5524 569.363 503.552
2761 0 69.4851 13.9023 966 64.8799 568.588 501.745
2762 0 76.2739 16.0868 1227 61.11 568.958 502.94
2763 0 75.3892 13.1053 988 65.5476 568.618 502.413
2764 0 79.1627 13.8196 1094 64.3144 568.565 499.604
2765 0 79.3197 13.9562 1107 64.8627 569.028 497.679
2766 0 83.4263 13.485 1125 65.3556 568.881 497.708
2767 0 86.1163 15.212 1310 63.8435 568.031 494.66
2768 0 91.328 13.895 1269 64.4444 568.586 494.271
2769 0 91.1106 14.3013 1303 65.0683 569.104 493.609
2770 1 50.2123 12.9052 648 64.4892 569.332 516.273
2771 0 50.2642 13.3296 670 64.1985 569.563 514.482
2772 0 52.335 14.197 743 63.5222 569.012 512.764
2773 0 52.4025 13.4917 707 63.8939 569.321 512.692
2774 0 55.1126 13.2275 729 64.1728 568.898 510.337
2775 0 58.2914 13.6041 793 62.9407 569.223 508.753
2776 0 59.1613 14.5027 858 62.5221 569.342 507.996
2777 0 61.2014 14.3461 878 62.2973 570.121 507.326
2778 0 61.319 12.4594 764 64.7866 569.907 504.547
2779 0 63.2467 14.309 905 62.5691 568.72 503.394
2780 0 64.2375 12.6562 813 64.7515 568.979 501.141
2781 0 68.3053 11.9903 819 63.7033 568.393 506.47
2782 0 69.3357 13.9899 970 62.9804 568.064 502.615
2783 0 72.3183 12.6109 912 63.443 569.459 503.193
2784 0 74.3219 14.5852 1084 61.4327 568.852 499.635
2785 0 77.3827 12.8582 995 63.5296 568.671 498.613
2786 0 78.3224 13.5976 1065 62.3146 569.061 497.209
2787 0 81.227 14.5026 1178 61.1341 569.338 496.741
2788 0 82.3769 14.6643 1208 61.293 568.567 495.757
2789 0 84.2616 11.8203 996 64.0984 569.469 495.982
2790 1 48.2205 12.7539 615 61.4146 569.637 513.875
2791 0 47.3595 11.3177 536 63.6138 569.72 513.315
2792 0 50.232 10.9094 548 64.4672 570.018 512.161
2793 0 50.2475 13.5927 683 61.9649 570.404 511.242
2794 0 52.2638 11.9968 627 62.8038 570.329 512.329
2795 0 55.3538 13.8744 768 61.0456 569.49 508.146
2796 0 56.3022 13.1433 740 62.2378 569.247 507.982
2797 0 58.2796 14.0186 817 60.8874 569.158 508.092
2798 0 61.1961 12.5988 771 62.1141 569.82 505.768
2799 0 62.1703 12.7553 793 62.4565 569.058 504.89
2800 0 63.2188 13.303 841 61.4281 569.182 504.263
2801 0 65.3346 13.0559 853 61.6131 569.389 503.777
2802 0 69.1389 13.4222 928 60.7241 569.359 504.131
2803 0 69.1935 13.614 942 61.2452 568.983 500.142
2804 0 72.1905 14.4063 1040 60.0894 569.029 500.483
2805 0 75.2417 14.4468 1087 58.8905 569.711 502.475
2806 0 76.3984 12.4872 954 61.4507 569.399 501.757
2807 0 78.3622 13.8332 1084 60.4253 568.595 497.545
2808 1 38.2559 12.8869 493 60.3813 569.454 517.594
2809 0 41.1201 12.2325 503 61.501 569.392 514.777
2810 0 43.1426 12.3775 534 61.0693 569.914 516.637
2811 0 45.4523 12.9366 588 60.4626 569.231 514.986
2812 0 44.1812 11.6113 513 62.46 569.54 513.635
2813 0 47.3735 12.7075 602 60.4153 569.874 511.322
2814 0 49.1159 14.4352 709 58.2976 570.44 512.838
2815 0 52.2999 11.6635 610 60.723 570.446 513.079
2816 0 51.1987 13.5746 695 60.1036 569.577 510.188
2817 0 53.3373 14.6802 783 58.198 569.492 510.35
2818 0 53.2708 13.7411 732 59.9016 570.247 510.366
2819 0 55.2603 13.6083 752 59.484 569.612 509.86
2820 0 56.194 14.2364 800 58.5938 569.385 507.105
2821 0 56.1622 12.1078 680 61.7294 570.209 504.304
2822 0 63.4544 14.2622 905 57.768 570.366 508.148
2823 0 64.2781 14.0017 900 58.9578 570.57 503.504
2824 0 66.3955 13.1184 871 59.5178 570.129 506.406
2825 0 66.2475 12.6646 839 60.3695 570.36 502.665
2826 0 66.3431 12.2093 810 60.6926 571.515 502.31
2827 0 72.2081 13.8904 1003 58.4128 570.31 501.225
2828 0 72.3162 14.9897 1084 57.7131 570.752 500.384
2829 0 76.2741 15.2739 1165 57.1991 570.399 496.306
2830 0 78.2058 13.7586 1076 58.8504 570.478 497.446
2831 0 80.4377 13.3022 1070 58.985 569.941 494.545
2832 1 42.3183 11.6026 491 60.1609 570.523 516.452
2833 0 43.4032 11.2895 490 60.9306 569.898 515.143
2834 0 45.3483 12.3268 559 59.6029 569.766 513.594
2835 0 49.2477 11.8381 583 58.837 570.429 514.211
2836 0 47.1691 12.805 604 59.5397 569.876 512.247
2837 0 49.1794 12.9119 635 59.4614 571.32 510.942
2838 0 50.414 10.8502 547 60.9269 570.963 510.658
2839 0 51.2087 13.318 682 58.8182 570.95 510.287
2840 0 51.1192 13.4 685 58.7985 570.816 508.369
2841 0 57.3872 15.2299 874 55.4062 570.787 510.192
2842 0 59.2553 14.1422 838 56.9368 570.919 506.395
2843 0 58.26 12.1868 710 59.2056 570.137 507.523
2844 0 60.2327 13.8131 832 57.4315 570.161 506.058
2845 0 64.3654 13.6409 878 57.4317 570.59 503.487
2846 0 63.2291 12.9054 816 58.9547 570.108 501.392
2847 0 67.5465 12.4063 838 58.9487 569.558 501.44
2848 0 70.3498 14.3284 1008 56.7659 569.457 497.973
2849 0 72.4521 11.6767 846 59.253 570.112 499.758
2850 0 77.3946 11.9 921 59.0087 569.929 496.446
2851 0 78.4799 13.8379 1086 56.779 569.641 494.141
2852 0 79.4032 13.4 1064 57.6504 569.711 498.003
2853 0 83.2555 16.1551 1345 55.2439 570.123 492.92
2854 1 40.2408 9.41829 379 61.628 570.702 514.04
2855 0 43.2254 10.2949 445 60.9258 571.009 513.98
2856 0 45.3972 12.4237 564 59.3316 571.378 513.135
2857 0 46.2563 13.2955 615 59.2098 570.511 510.164
2858 0 48.3192 12.3346 596 60.0805 571.196 509.768
2859 0 49.2213 11.2553 554 61.2599 571.13 510.303
2860 0 51.2669 13.3614 685 59.0029 570.711 509.088
2861 0 50.1752 13.6721 686 58.8542 570.306 508.593
2862 0 53.239 14.9327 795 57.6629 569.761 506.468
2863 0 54.2414 14.3802 780 57.982 569.695 505.02
2864 0 54.2173 11.3617 616 61.1575 570.328 505.231
2865 0 58.3895 13.6326 796 57.9435 569.825 504.516
2866 0 60.4158 13.9533 843 57.3677 570.429 503.669
2867 0 63.338 14.7305 933 56.8146 570.55 502.686
2868 0 65.2611 14.2505 930 57.1677 570.372 501.951
2869 0 64.1452 11.5831 743 60.0363 570.122 499.725
2870 0 70.3758 12.2769 864 58.4861 570.083 502.653
2871 0 71.179 15.173 1080 56.2287 570.789 499.92
2872 0 74.4309 13.2875 989 57.7836 570.841 497.555
2873 1 36.1797 10.5861 383 59.5431 570.564 517.734
2874 0 37.2111 11.8513 441 59.2109 571.052 516.075
2875 0 37.5697 10.913 410 60.2122 570.983 515.073
2876 0 40.155 12.5514 504 58.2917 570.085 513.98
2877 0 42.4266 13.0343 553 57.3906 570.013 513.656
2878 0 43.5482 12.6526 551 57.6515 569.926 514.706
2879 0 45.4153 12.2205 555 58.1532 570.811 512.75
2880 0 46.2373 13.7984 638 57.3009 570.6 512.403
2881 0 46.3106 13.4527 623 58.0498 570.926 511.653
2882 0 47.3579 13.2607 628 58.344 570.807 512.146
2883 0 51.6588 13.1052 677 57.9424 571.224 510.631
2884 0 50.3997 13.1747 664 58.5376 570.611 510.58
2885 0 50.2404 13.6345 685 58.5664 570.226 510.636
2886 0 56.4963 13.877 784 57.3418 570.034 508.195
2887 0 54.3859 13.1284 714 59.3641 569.55 506.784
2888 0 61.4344 15.3171 941 55.8289 570.666 508.782
2889 0 60.3958 14.1235 853 58.1899 570.865 506.311
2890 0 60.4281 13.2389 800 59.4038 569.558 505.324
2891 0 65.3832 13.2144 864 58.735 570.538 505.304
2892 0 67.3915 13.1322 885 58.6599 570.792 503.858
2893 0 68.5508 13.9896 959 58.2565 570.293 501.732
2894 0 71.5213 13.1989 944 59.0572 570.632 502.328
2895 1 39.339 11.7441 462 59.2792 570.42 518.193
2896 0 38.4217 11.5299 443 60.5305 570.573 517.361
2897 0 41.3314 13.2587 548 58.2153 570.416 516.894
2898 0 42.2596 13.985 591 57.8376 570.23 517.526
2899 0 41.316 11.763 486 60.8272 571.77 513.971
2900 0 45.4831 13.7853 627 58.0622 571.067 513.502
2901 0 45.6161 12.671 578 59.4568 571.083 515.483
2902 0 46.3109 13.9708 647 58.3308 570.805 511.544
2903 0 47.0784 13.9342 656 58.7927 570.764 511.834
2904 0 51.1909 14.065 720 57.2389 570.428 512.265
2905 0 51.2639 15.664 803 56.2192 570.961 510.846
2906 0 53.3528 12.8953 688 58.4884 571.552 511.366
2907 0 55.3712 12.6781 702 58.8034 571.104 509.093
2908 0 54.2695 13.2487 719 59.1502 570.879 509.399
2909 0 58.2407 12.8433 748 59.139 570.211 508.377
2910 0 58.2346 12.3638 720 59.9514 569.899 506.968
2911 0 63.2322 13.8537 876 57.2979 569.723 506.551
2912 0 61.2534 14.3829 881 58.1634 570.815 504.173
2913 0 66.1628 14.2376 942 57.2495 570.177 505.107
2914 0 67.2352 14.4418 971 57.1792 571.073 502.824
2915 0 69.3298 14.395 998 57.3557 570.908 504.077
2916 0 72.4068 14.3495 1039 57.6622 571.191 500.532
2917 0 73.3749 14.1193 1036 58.2191 570.328 497.951
2918 0 76.0992 14.4811 1102 57.8067 570.683 498.579
2919 1 38.1167 12.4617 475 60.9347 570.968 515.322
2920 0 39.1787 11.4348 448 61.7991 571.185 516.433
2921 0 42.236 11.4831 485 62.1464 571.476 514.909
2922 0 43.3267 14.6099 633 58.9273 570.91 514.932
2923 0 43.2675 12.5961 545 61.2532 570.994 515.666
2924 0 45.1907 14.6269 661 58.9909 571.048 514.775
2925 0 43.1262 12.0113 518 63.5193 570.728 511.73
2926 0 45.1681 14.1472 639 61.0047 571.182 511.396
2927 0 49.2184 14.8725 732 59.4126 571.57 511.295
2928 0 49.1944 14.9204 734 60.0995 571.138 509.199
2929 0 51.1689 12.7812 654 62.0428 571.902 509.13
2930 0 52.1748 14.2406 743 60.7214 570.992 507.755
2931 0 54.1652 16.0435 869 58.2428 571.165 507.725
2932 0 57.3594 13.9297 799 60.0413 570.604 507.845
2933 0 56.1132 13.2945 746 61.7292 571.28 506.06
2934 0 60.3587 14.9274 901 59.1476 571.032 505.751
2935 0 58.464 14.4533 845 60.942 570.899 503.542
2936 0 64.257 15.8893 1021 57.7669 571.388 504.358
2937 0 65.2887 14.2751 932 59.8401 570.742 503.476
2938 0 67.2344 15.3047 1029 58.7289 570.891 501.466
2939 0 69.3142 13.3306 924 60.8409 571.366 499.645
2940 0 73.3821 15.6986 1152 57.8967 570.086 498.266
2941 0 73.3083 15.8509 1162 58.6102 571.704 498.495
2942 0 75.1831 15.2162 1144 59.3881 570.219 498.552
2943 0 80.5423 13.2477 1067 60.8407 571.523 494.662
2944 0 79.1239 14.5721 1153 59.5481 570.76 496.875
2945 0 82.1597 13.8876 1141 60.8861 569.887 494.231
2946 0 87.3804 14.4426 1262 60.0412 569.668 493.501
2947 1 39.3046 11.9579 470 63.8638 571.211 513.083
2948 0 42.406 11.5314 489 64.0552 570.386 515.19
2949 0 44.2809 13.5047 598 61.9649 570.771 512.841
2950 0 45.3534 13.1192 595 61.5916 570.644 515.687
2951 0 47.1007 14.4372 680 60.4897 570.209 513.01
2952 0 45.2471 12.8185 580 63.0397 570.829 512.769
2953 0 48.1416 14.0004 674 61.8531 570.094 511.089
2954 0 50.2183 14.8153 744 60.461 570.677 509.716
2955 0 52.1539 14.3422 748 61.2112 569.068 508.207
2956 0 53.051 13.4399 713 61.9018 569.914 509.969
2957 0 56.5387 14.4149 815 60.5632 570.735 507.191
2958 0 59.0836 13.4724 796 61.3216 570.588 507.186
2959 0 61.1588 13.9146 851 60.5311 571.027 506.619
2960 0 62.1455 15.3511 954 59.7191 569.916 504.544
2961 0 64.1944 15.4998 995 59.6291 570.768 503.914
2962 0 65.1626 13.2284 862 61.906 570.384 504.487
2963 0 67.1752 14.1124 948 61.3513 569.92 504.055
2964 0 71.4069 14.2143 1015 60.9862 570.703 502.16
2965 0 71.1354 14.8871 1059 60.6922 569.926 500.406
2966 0 72.2449 12.9698 937 63.1206 569.899 500.292
2967 0 77.1686 14.9284 1152 60.5616 569.698 499.582
2968 0 78.2679 14.8848 1165 61.097 569.59 497.204
2969 0 80.2899 11.8819 954 64.0052 569.926 494.136
2970 0 82.6026 14.6727 1212 61.2682 570.587 495.273
2971 0 85.6794 15.2195 1304 60.9478 570.254 491.749
2972 1 42.2763 13.6247 576 61.5538 570.273 515.477
2973 0 41.1188 13.1084 539 63.6382 570.616 514.412
2974 0 44.1298 11.8514 523 64.6788 570.635 512.486
2975 0 46.4458 13.1766 612 62.598 570.9 512.9
2976 0 48.3382 12.6815 613 62.6591 571.525 512.401
2977 0 49.5013 12.4239 615 63.1138 571.002 511.387
2978 0 48.0844 12.79 615 64.039 570.81 510.802
2979 0 51.1132 12.756 652 63.1043 570.644 511.017
2980 0 53.1053 14.2924 759 61.2556 571.109 508.626
2981 0 56.578 15.7305 890 59.4921 570.494 509.649
2982 0 59.3222 14.4297 856 60.8493 571.062 506.915
2983 0 59.332 15.152 899 60.1413 570.888 507.403
2984 0 63.4402 14.5807 925 60.7276 570.669 505.172
2985 0 62.2468 13.1412 818 63.4144 570.163 503.123
2986 0 65.3175 13.5492 885 62.8226 570.497 501.43
2987 0 67.2184 13.4785 906 63.0298 570.864 501.819
2988 0 70.4307 15.1071 1064 60.7491 570.676 501.077
2989 0 70.1701 14.9066 1046 62.0373 570.146 498.975
2990 0 72.1958 14.3914 1039 62.7161 569.671 497.175
2991 0 74.4329 14.0664 1047 63.3926 570.285 495.72
2992 0 77.2735 13.3163 1029 64.2536 570.931 497.492
2993 0 81.3931 13.1461 1070 64.328 570.993 495.538
2994 0 84.2471 13.8284 1165 64.1536 571.277 493.191
2995 0 85.2702 14.5537 1241 63.0419 571.782 493.319
2996 1 41.1854 12.0674 497 66.0905 571.217 512.71
2997 0 44.1659 15.1927 671 62.4292 571.732 511.542
2998 0 48.1543 12.4807 601 64.4093 570.797 513.511
2999 0 47.2454 15.2819 722 62.5692 571.007 511.579
3000 0 50.2594 14.9624 752 61.8338 570.98 511.222
3001 0 52.3322 15.0003 785 62.1758 571.269 509.025
3002 0 53.3599 15.4985 827 62.3204 571.942 507.085
3003 0 54.3765 12.5422 682 66.0689 570.943 506.392
3004 0 56.2523 15.3238 862 62.4582 570.474 507.078
3005 0 59.3848 14.7849 878 63.0057 570.55 506.158
3006 0 62.2681 14.7588 919 62.2688 570.954 506.741
3007 0 58.4505 13.1564 769 66.9012 570.72 502.74
3008 0 65.3698 14.3338 937 63.4408 570.417 502.37
3009 0 67.3469 14.2249 958 64.3226 570.461 500.912
3010 0 69.3451 13.9592 968 63.9928 570.426 501.14
3011 1 35.265 13.4694 475 64.2968 571.726 516.152
3012 0 36.2623 10.8101 392 68.3291 571.875 515.403
3013 0 35.19 12.3899 436 67.3005 570.842 517.436
3014 0 36.2154 11.1279 403 69.0918 570.439 516.692
3015 0 38.1648 13.3893 511 65.8826 570.877 516.943
3016 0 41.4491 13.3899 555 65.6432 570.789 514.38
3017 0 42.318 13.9893 592 65.1368 571.363 515.475
3018 0 44.3941 13.0197 578 66.4619 571.086 516.176
3019 0 45.3592 12.4782 566 67.2385 571.069 515.35
3020 0 45.1291 13.3838 604 66.9139 571.541 512.419
3021 0 47.1533 14.3574 677 65.6736 571.095 513.381
3022 0 49.1659 13.9528 686 65.656 570.692 511.576
3023 0 51.1483 14.6241 748 65.2567 571.392 512.694
3024 0 52.3109 14.7388 771 65.0921 571.575 511.632
3025 0 55.46 16.1017 893 63.14 571.251 509.261
3026 0 55.2706 13.5153 747 66.6359 571.671 508.813
3027 0 57.5022 16.1211 927 63.0356 571.624 508.528
3028 0 56.4364 15.1675 856 64.7617 571.841 507.956
3029 0 59.211 13.8657 821 66.3544 571.238 507.353
3030 0 61.1154 15.1517 926 64.7916 572.11 506.481
3031 0 65.4051 15.3658 1005 63.8269 571.919 505.12
3032 0 64.1117 15.9097 1020 64.2706 571.634 503.774
3033 0 66.2398 13.3455 884 67.491 571.808 501.652
3034 0 69.2828 14.5058 1005 65.596 571.944 502.25
3035 0 69.328 13.1693 913 67.9003 571.196 501.85
3036 0 71.2114 15.4751 1102 65.2677 571.531 500.61
3037 0 73.0823 14.1895 1037 67.2758 571.559 494.462
3038 0 76.3771 14.1011 1077 67.0232 571.863 497.155
3039 0 76.2695 14.0423 1071 67.7227 572.155 495.814
3040 0 79.1055 14.6513 1159 67.4599 572.202 494.859
3041 1 40.2035 13.1581 529 67.5652 572.397 515.807
3042 0 41.0563 13.0309 535 70.1122 572.073 512.686
3043 0 43.1894 12.4568 538 69.7342 572.067 514.188
3044 0 45.1705 14.08 636 67.8616 572.016 512.871
3045 0 44.1816 14.0556 621 68.1659 571.138 512.625
3046 0 46.0845 13.063 602 70.0532 571.733 511.184
3047 0 45.0605 13.3598 602 70.7209 572.081 508.542
3048 0 50.122 15.1231 758 67.2309 570.722 508.689
3049 0 51.1375 14.9401 764 67.2421 570.568 508.832
3050 0 53.0486 15.2313 808 66.3428 570.67 508.054
3051 0 52.0672 12.7912 666 69.9279 571.45 505.414
3052 0 55.1927 14.3316 791 68.0986 571.001 505.277
3053 0 58.0882 15.5109 901 65.9123 571.607 504.866
3054 0 60.0651 15.2002 913 66.218 570.545 503.963
3055 0 58.2828 13.383 780 69.2551 571.337 502.032
3056 0 63.2812 15.0124 950 65.8895 571.398 503.849
3057 0 63.2547 13.5326 856 68.528 571.785 502.914
3058 0 66.1529 13.9374 922 68.1486 571.111 499.674
3059 0 67.1041 13.9038 933 68.3173 571.301 499.759
3060 0 70.1784 14.9191 1047 66.4508 570.931 500.176
3061 0 72.0916 14.7729 1065 66.5268 571.449 497.193
3062 0 74.1465 15.0243 1114 66.4246 571.274 497.54
3063 0 76.1988 16.4438 1253 64.8053 571.089 496.073
3064 1 33.0401 12.8934 426 70.277 571.293 514.953
3065 0 39.1908 12.6305 495 67.2545 571.756 517.741
3066 0 38.0414 12.0658 459 67.9085 571.558 517.061
3067 0 40.2734 13.756 554 67.3213 571.489 515.919
3068 0 41.1565 13.3393 549 68.2131 571.419 513.321
3069 0 42.0335 14.3219 602 66.7907 571.658 513.495
3070 0 45.0726 14.2659 643 65.8616 571.375 512.802
3071 0 44.1307 13.7999 609 67.0296 571.378 511.061
3072 0 46.2346 15.9188 736 64.3832 571.261 511.634
3073 0 45.1526 16.9647 766 64.2402 571.543 509.886
3074 0 48.0683 14.8331 713 65.1781 571.644 511.279
3075 0 50.249 14.8262 745 65.3275 572.129 509.768
3076 0 53.1393 15.864 843 63.9597 571.592 507.943
3077 0 53.0925 14.2581 757 65.8983 571.698 508.316
3078 0 54.1694 14.4177 781 65.9654 571.679 504.511
3079 0 56.0387 16.0068 897 63.7826 571.646 505.216
3080 0 56.0399 14.6503 821 65.3313 571.548 508.149
3081 0 60.0652 14.2845 858 66.0035 571.465 504.246
3082 0 59.097 13.4186 793 67.8588 571.102 503.369
3083 0 61.0714 14.4094 880 66.5273 571.476 500.722
3084 0 65.1082 14.6525 954 65.5671 571.938 501.187
3085 0 66.0724 15.6949 1037 64.4204 571.941 501.012
3086 0 66.0547 15.8202 1045 64.7856 571.31 499.897
3087 0 70.062 14.0733 986 67.2079 571.207 497.499
3088 0 73.4075 14.7941 1086 65.6252 570.525 496.868
3089 0 72.143 14.6514 1057 66.422 571.394 499.077
3090 0 75.0608 14.6015 1096 65.833 571.748 496.853
3091 0 77.1476 13.8047 1065 67.0385 571.529 494.415
3092 0 81.236 15.2519 1239 64.8128 571.998 490.713
3093 0 82.0881 14.9839 1230 65.1846 571.258 494.028
3094 0 85.1763 14.9103 1270 65.1402 571.634 488.22
3095 0 86.0694 13.9422 1200 66.3925 570.703 488.087
3096 0 89.079 15.099 1345 64.8223 571.079 489.935
3097 0 94.0785 15.4446 1453 64.064 571.586 486.445
3098 0 98.1343 15.6113 1532 63.2539 571.332 484.13
3099 0 99.1819 14.0953 1398 65.1445 571.235 484.571
3100 0 102.255 16.1753 1654 62.7678 571.557 484.134
3101 0 107.069 15.3452 1643 63.5898 571.662 481.377
3102 1 54.0625 13.7249 742 63.3423 571.532 509.739
3103 0 52.0332 12.1077 630 67.4905 571.748 504.722
3104 0 54.1038 11.8846 643 66.9891 571.39 503.544
3105 0 59.1133 14.7006 869 63.4338 572.185 502.921
3106 0 60.1845 14.4057 867 63.1292 572.382 504.709
3107 0 61.0686 13.7059 837 64.2557 571.896 503.851
3108 0 65.0716 14.5378 946 63.2188 571.946 499.514
3109 0 66.0623 13.4419 888 64.4133 572.452 500.545
3110 0 68.0673 13.2516 902 64.5931 571.899 499.145
3111 0 70.1046 12.9378 907 65.333 571.404 496.66
3112 0 75.0823 15.4364 1159 62.0216 573.044 495.694
3113 0 75.085 12.8255 963 65.2908 571.636 494.58
3114 0 78.1186 13.9787 1092 63.532 571.043 496.115
3115 0 79.1834 13.374 1059 64.4872 571.817 490.483
3116 0 83.1999 15.3125 1274 61.9082 572.347 490.013
3117 0 85.1118 12.5952 1072 65.3843 572.199 488.509
3118 0 88.0457 12.255 1079 65.6756 571.533 483.883
3119 0 92.0912 13.6169 1254 63.5574 571.623 484.824
3120 1 45.027 13.3031 599 63.0334 572.09 508.139
3121 0 48.0714 13.688 658 62.2979 572.565 508.985
3122 0 49.0802 12.5509 616 64.3003 573.237 507.669
3123 0 50.055 15.7826 790 60.8494 572.228 504.68
3124 0 51.0952 13.7195 701 62.903 571.502 503.613
3125 0 52.0538 13.1595 685 63.965 572.364 503.552
3126 0 56.1874 13.455 756 63.4008 572.243 500.234
3127 0 56.1595 14.2273 799 62.6658 571.313 501.479
3128 0 57.0601 13.81 788 64.0025 571.726 497.27
3129 0 61.1114 13.5327 827 63.5635 572.016 496.53
3130 0 64.0691 13.4854 864 63.6933 572.34 496.315
3131 0 65.0952 13.0271 848 64.3915 571.728 495.396
3132 0 68.1688 13.2319 902 63.6951 572.503 493.092
3133 0 71.1014 13.2628 943 63.8674 572.464 493.247
3134 0 73.0329 13.8431 1011 62.8764 573.093 493.353
3135 0 74.224 12.6644 940 65.1755 572.033 490.922
3136 0 79.1077 14.1453 1119 63.5433 571.291 487.353
3137 0 78.0895 11.8966 929 66.3671 571.62 489.111
3138 1 42.0166 11.7573 494 65.2632 572.474 506.227
3139 0 41.0264 11.9679 491 65.7699 572.012 506.104
3140 0 42.0197 12.7559 536 64.9907 571.744 507.356
3141 0 42.0337 11.6573 490 67.2082 572.157 506.139
3142 0 45.0312 12.3248 555 66.0613 572.205 504.777
3143 0 46.0586 14.4598 666 63.4595 572.838 504.353
3144 0 48.1744 13.2643 639 64.7997 572.294 502.941
3145 0 50.0765 11.9817 600 66.3617 571.61 502.618
3146 0 51.0584 12.2605 626 65.6438 571.508 503.788
3147 0 54.0345 15.1385 818 62.22 571.029 502.487
3148 0 53.0325 13.4446 713 64.9088 571.512 501.75
3149 0 56.0349 12.5814 705 64.3972 570.526 502.267
3150 0 58.0296 12.0973 702 65.7963 571.184 498.697
3151 0 59.0508 13.3444 788 64.5305 570.896 497.348
3152 0 59.0633 13.8157 816 64.3676 570.712 496.933
3153 0 66.1104 11.7833 779 65.629 570.53 497.684
3154 0 69.0869 13.1573 909 64.0792 570.865 495.427
3155 0 67.0729 13.299 892 64.5 570.948 495.032
3156 0 72.1215 13.1722 950 63.7684 570.56 494.932
3157 0 74.0385 13.8171 1023 63.2326 570.943 492.879
3158 0 77.1699 12.8936 995 64.2221 570.324 489.754
3159 0 75.0675 10.9235 820 67.5817 569.824 487.317
3160 0 81.1146 12.8214 1040 64.8817 569.672 487.11
3161 0 81.0917 12.4304 1008 66.0724 569.62 487.343
3162 0 87.0806 13.2062 1150 64.1235 569.562 486.171
3163 0 87.1586 12.4141 1082 65.464 569.768 482.22
3164 1 41.2474 10.0855 416 67.1346 569.988 505.25
3165 0 45.0158 13.2398 596 62.4765 570.265 504.864
3166 0 44.0545 12.2349 539 63.9907 570.349 503.16
3167 0 46.0175 10.1048 465 66.3828 570.258 505.03
3168 0 49.0603 13.2694 651 61.4654 570.114 504.332
3169 0 51.0305 12.2672 626 62.139 569.671 502.47
3170 0 52.0723 12.6747 660 62.0439 570.111 501.548
3171 0 54.2364 11.8371 642 62.1386 570.553 503.389
3172 0 57.1552 13.5596 775 60.0774 569.628 499.594
3173 0 58.1276 12.1801 708 62.0692 569.901 498.609
3174 0 62.0636 13.325 827 59.8174 570.174 499.56
3175 0 60.049 11.807 709 62.5712 569.848 497.915
3176 0 64.1891 11.8556 761 61.4862 569.82 498.679
3177 0 68.097 12.4528 848 60.671 570.138 496.045
3178 0 69.3049 11.9905 831 61.0626 570.4 492.886
3179 0 73.1126 12.2004 892 60.6132 570.68 493.826
3180 0 73.0851 11.3293 828 62.0978 569.948 489.989
3181 0 77.1426 12.4186 958 60.428 570.493 490.945
3182 0 76.1013 9.55306 727 63.2572 570.424 491.198
3183 0 82.1968 12.7621 1049 60.2479 570.116 487.435
3184 0 84.1704 12.5697 1058 60.552 569.617 486.646
3185 0 86.1488 12.9775 1118 60.0528 569.459 485.695
3186 0 91.2446 14.3022 1305 58.3126 569.584 484.455
3187 0 92.1175 12.0064 1106 61.1826 570.026 479.768
3188 0 96.1332 12.3891 1191 60.492 570.024 479.817
3189 1 49.0993 13.1978 648 58.392 570.006 502.696
3190 0 52.0972 12.6686 660 58.8015 570.856 501.932
3191 0 53.2699 10.1746 542 61.2398 570.144 502.531
3192 0 57.0755 12.1769 695 58.8115 569.921 500.109
3193 0 58.14 11.4035 663 59.7542 569.863 498.246
3194 0 57.1018 11.4357 653 60.5161 569.867 498.453
3195 0 61.237 12.917 791 58.0025 570.173 498.157
3196 0 66.1251 12.5217 828 57.7838 569.821 496.173
3197 0 64.1647 11.19 718 59.7006 570.74 495.681
3198 0 68.1381 12.2692 836 58.0251 570.554 495.77
3199 0 68.2513 11.6774 797 59.1493 570.934 491.532
3200 0 71.2391 10.6402 758 60.2203 569.893 490.567
3201 0 74.1905 11.3761 844 59.3377 568.988 489.868
3202 0 78.1512 9.17452 717 60.6444 569.798 484.738
3203 0 80.1757 13.2459 1062 57.1026 569.983 486.983
3204 0 81.3334 11.9262 970 58.5845 569.995 483.564
3205 1 42.1139 10.3054 434 58.9862 569.993 504.005
3206 0 42.1943 10.7124 452 58.8031 570.212 505.524
3207 0 45.1134 11.8812 536 57.334 570.295 504.164
3208 0 47.095 11.8696 559 57.5653 570.528 504.075
3209 0 45.108 9.75436 440 60.1614 570.141 501.882
3210 0 49.0644 11.2709 553 57.8571 570.83 499.756
3211 0 51.0687 10.6327 543 58.4088 570.901 500.768
3212 0 50.0302 9.23442 462 59.9113 570.409 499.136
3213 0 54.1653 10.911 591 57.5973 571.41 497.915
3214 0 56.0795 9.96799 559 58.8301 570.666 496.272
3215 0 58.1903 10.6891 622 57.8408 570.754 497.535
3216 0 58.0529 8.87121 515 59.5087 571.039 494.167
3217 0 60.0656 10.8049 649 57.7735 570.8 492.869
3218 0 62.0838 11.2268 697 56.9598 570.646 492.416
3219 0 64.1225 10.1992 654 57.7615 570.989 491.324
3220 0 66.081 9.07977 600 59.0533 571.367 491.96
3221 0 70.0929 11.5418 809 56.131 570.567 486.86
3222 0 73.0591 13.6875 1000 53.877 570.557 487.271
3223 0 75.0758 13.0135 977 54.7185 570.016 486.974
3224 0 76.1958 11.5754 882 56.2415 570.703 482.435
3225 0 81.2092 10.2205 830 57.2361 570.417 482.042
3226 1 42.0557 11.9841 504 53.9385 570.812 505.266
3227 0 42.048 9.37023 394 56.8122 570.586 504.2
3228 0 43.0798 10.585 456 55.9715 570.278 504.353
3229 0 46.0359 10.557 486 55.7942 571.239 504.325
3230 0 48.0884 9.79446 471 57.0085 571 502.327
3231 0 49.0724 11.6766 573 55.3927 570.824 501.913
3232 0 49.0301 11.5031 564 55.8262 570.864 502.057
3233 0 49.0917 9.69614 476 57.3046 570.672 499.502
3234 0 54.1028 11.4966 622 54.6447 570.531 496.592
3235 0 57.1006 11.4009 651 54.3441 569.88 497.33
3236 0 56.0224 10.9242 612 55.0915 571.227 499.26
3237 0 58.1098 10.1188 588 55.8197 571.298 496.575
3238 0 62.1851 10.6617 663 54.0045 571.692 498.653
3239 0 63.0328 12.6125 795 53.1799 571.004 494.087
3240 0 67.2407 13.0278 876 52.4566 570.741 493.219
3241 0 70.0381 11.2225 786 53.5089 570.473 493.616
3242 0 71.1542 11.8475 843 53.4567 571.189 492.433
3243 0 68.1828 9.62119 656 55.8918 570.259 490.091
3244 0 73.1578 11.236 822 54.1046 571.213 490.903
3245 0 79.1821 11.9598 947 52.7307 571.5 488.476
3246 0 79.1082 11.8825 940 53.2617 571.605 489.455
3247 1 40.1154 11.3672 456 52.6557 571.689 511.93
3248 0 40.1233 9.39603 377 55.1618 570.687 508.987
3249 0 42.0745 11.5985 488 53.2725 570.34 510.611
3250 0 43.1633 12.3484 533 52.7674 570.801 509.49
3251 0 45.1418 9.65845 436 55.6514 571.401 506.592
3252 0 43.116 10.2978 444 55.1239 571.074 509.128
3253 0 45.0695 11.3602 512 54.4785 570.326 507.393
3254 0 47.2156 9.93315 469 55.5181 570.691 507.019
3255 0 48.1792 15.0688 726 50.9077 570.211 504.234
3256 0 50.1735 12.0183 603 53.6634 570.081 505.124
3257 0 53.2869 13.0614 696 52.8434 570.935 506.964
3258 0 53.3566 11.8261 631 54.5483 570.013 503.132
3259 0 54.1476 11.1178 602 55.5648 569.538 503.169
3260 0 57.2824 11.5393 661 55.1029 568.938 503.009
3261 0 56.2961 10.9421 616 56.1526 568.859 503.291
3262 0 60.2757 12.2769 740 54.6162 568.827 500.743
3263 0 61.0538 14.1187 862 53.4072 568.668 501.233
3264 0 65.1938 11.9797 781 55.1332 568.37 500.487
3265 0 68.2563 13.8449 945 53.4762 568.464 500.324
3266 0 68.2649 13.3744 913 54.5159 568.291 499.591
3267 0 72.4123 14.6936 1064 52.8985 567.781 500.933
3268 1 36.2186 11.9552 433 56.1247 568.864 515.263
3269 0 38.096 12.416 473 55.8753 568.484 512.746
3270 0 41.2127 12.5447 517 55.3849 568.538 514.749
3271 0 41.0334 12.1365 498 56.6466 569.038 511.301
3272 0 45.4721 11.9194 542 55.5314 567.965 513.063
3273 0 42.1947 13.5562 572 56.0157 566.927 511.921
3274 0 45.2382 11.76 532 57.2425 567.543 508.671
3275 0 49.0929 12.8328 630 55.846 568.281 507.625
3276 0 49.0918 13.4035 658 55.5654 567.331 508.236
3277 0 50.0579 12.5055 626 56.2684 566.895 507.92
3278 0 53.1497 13.9417 741 55.2132 566.019 504.202
3279 0 53.2947 12.9844 692 56.1445 566.523 505.027
3280 0 54.0994 14.4549 782 54.6893 566.274 503.694
3281 0 57.2197 14.2259 814 55.0712 565.768 504.324
3282 0 59.19 13.6341 807 55.596 566.079 503.555
3283 0 60.2387 12.7825 770 56.8078 566.445 500.035
3284 0 63.3624 14.2671 904 55.2301 567.405 499.541
3285 0 65.2161 14.8736 970 54.4021 567.011 501.35
3286 0 65.1056 12.5796 819 57.3761 566.781 498.192
3287 0 68.1947 14.6052 996 55.1406 567.664 499.116
3288 0 73.509 13.8895 1021 55.8972 567.035 496.894
3289 0 72.3637 16.0025 1158 54.4819 566.704 495.176
3290 0 76.1416 16.0096 1219 54.1674 566.453 495.002
3291 0 79.1214 15.9123 1259 54.0135 567.071 493.472
3292 1 38.2164 11.8797 454 58.6013 567.018 512.161
3293 0 41.2407 12.2694 506 57.6304 566.921 512.113
3294 0 43.1111 14.4742 624 56.1026 566.518 511.341
3295 0 43.0982 13.2024 569 56.8014 567.438 513.541
3296 0 46.2266 13.0661 604 57.1026 566.95 512.654
3297 0 46.2228 13.8243 639 57.3192 567.416 507.659
3298 0 47.1002 13.5456 638 57.8997 567.074 508.302
3299 0 49.0655 12.5954 618 59.0259 566.955 508.947
3300 0 49.0584 14.1056 692 57.9754 566.643 508.988
3301 0 50.1731 15.1475 760 56.7974 567.986 506.236
3302 0 52.1482 14.5547 759 57.0079 567.766 507.619
3303 0 55.4687 14.2423 790 57.4228 567.722 505.929
3304 0 53.2759 13.5146 720 59.1833 568.453 503.303
3305 0 58.0979 13.615 791 58.4526 568.812 503.027
3306 0 58.1738 14.4739 842 58.0558 568.034 500.899
3307 0 60.2904 13.7004 826 58.6199 568.666 501.485
3308 0 62.0529 13.4079 832 58.7993 568.005 497.899
3309 0 63.1438 14.8075 935 57.4374 568.676 500.665
3310 0 66.2864 15.0559 998 57.0351 569.292 497.327
3311 0 68.4464 15.6327 1070 56.6832 569.405 496.974
3312 0 71.1275 14.4951 1031 57.4122 568.843 492.194
3313 0 70.3545 13.7447 967 59.0217 568.917 494.783
3314 1 34.1355 12.7433 435 58.6 569.745 512.602
3315 0 35.1692 10.3784 365 62.3534 568.921 509.995
3316 0 38.2342 13.8881 531 57.9718 569.23 511.186
3317 0 39.0616 13.4403 525 58.3867 569.189 510.078
3318 0 39.0437 13.4465 525 59.4533 568.659 508.192
3319 0 38.1267 11.8028 450 61.5756 570.251 508.78
3320 0 42.2853 12.7467 539 59.3674 569.284 508.95
3321 0 42.3579 12.5124 530 60.5509 569.113 507.96
3322 0 43.431 13.0322 566 60.8428 569.048 506.507
3323 0 43.2533 12.4846 540 62.1593 569.163 507.006
3324 0 43.3854 15.2125 660 59.4106 569.503 505.977
3325 0 45.2823 13.5152 612 60.9101 569.845 506.119
3326 0 47.4997 14.2106 675 59.8652 569.812 506.501
3327 0 48.1263 12.6542 609 62.1067 569.793 504.593
3328 0 48.2048 11.4719 553 63.3906 570.013 505.033
3329 0 49.1379 11.8646 583 63.6535 569.691 501.971
3330 0 50.2715 15.4958 779 59.9666 569.634 504.874
3331 0 51.2222 12.6703 649 63.3051 569.784 501.453
3332 0 54.1895 15.1505 821 60.7783 570.004 502.78
3333 0 54.2983 13.4443 730 62.4479 569.937 502.082
3334 0 57.2844 14.6986 842 60.7019 570.062 504.536
3335 0 55.1458 13.147 725 64.0869 569.815 499.597
3336 0 60.4985 12.4962 756 64.1548 569.866 499.868
3337 0 61.1805 14.8086 906 61.4724 570.657 500.883
3338 0 63.333 14.5106 919 62.0468 569.9 499.939
3339 0 67.4996 12.7112 858 63.5909 570.547 500.048
3340 0 67.5169 13.9076 939 62.9436 570.14 498.619
3341 0 69.1754 14.5283 1005 62.7294 569.504 497.351
3342 0 69.4416 11.8517 823 65.7679 570.264 497.141
3343 0 72.391 13.1508 952 63.7132 570.634 497.774
3344 0 74.2066 13.2603 984 64.6585 570.906 496.712
3345 0 76.2218 14.6284 1115 63.3982 570.306 497.115
3346 1 38.2449 12.6553 484 63.6901 570.729 514.405
3347 0 38.2085 13.6881 523 63.9503 570.264 511.432
3348 0 40.2195 11.7356 472 64.8051 570.051 513.778
3349 0 41.4008 12.4635 516 64.3915 570.3 512.853
3350 0 42.2969 13.4289 568 64.9084 570.551 511.187
3351 0 44.3091 12.9996 576 64.3125 570.073 510.358
3352 0 43.2771 12.2698 531 66 569.29 511.876
3353 0 46.2589 12.0193 556 66.1439 568.977 510.658
3354 0 46.3475 11.608 538 67.5353 568.595 510.786
3355 0 46.1681 11.8913 549 68.3443 569.151 507.718
3356 0 49.4268 12.0785 597 67.2111 569.038 509.508
3357 0 49.4062 13.2574 655 66.6687 569.304 507.667
3358 0 51.1743 12.2913 629 68.5771 568.671 505.525
3359 0 54.1622 13.1457 712 67.0351 568.742 505.975
3360 0 55.3063 13.8863 768 66.3919 569.035 505.854
3361 0 59.3336 14.9494 887 65.0902 568.442 506.441
3362 0 59.1296 12.5487 742 67.7372 568.369 506.229
3363 0 61.2565 11.6886 716 69.6187 567.489 503.804
3364 0 64.3081 12.5023 804 69.3495 568.4 501.929
3365 0 64.1422 12.9712 832 69.5577 567.968 502.227
3366 0 67.4044 12.9665 874 68.7162 567.886 505.167
3367 0 69.591 12.3148 857 70.727 568.413 499.958
3368 0 71.3276 13.0384 930 69.0731 568.795 502.122
3369 0 72.1835 13.4657 972 70.034 568.401 499.59
3370 0 76.2405 13.1689 1004 69.4821 568.462 499.458
3371 0 77.3513 11.8809 919 70.5876 568.709 499.041
3372 0 80.1101 14.6548 1174 67.9685 568.089 495.376
3373 1 37.1163 10.1303 376 75.6197 569.285 512.101
3374 0 40.3633 11.5947 468 72.8547 569.645 511.543
3375 0 44.3179 13.5386 600 69.3433 569.203 513.385
3376 0 45.3214 13.636 618 70.0502 568.741 512.063
3377 0 46.4538 14.2507 662 69.5468 569.095 510.982
3378 0 45.0317 12.4579 561 71.9857 568.595 511.291
3379 0 49.4012 12.692 627 71.2376 568.719 509.364
3380 0 50.1872 11.9752 601 72.3461 568.329 507.521
3381 0 54.4474 14.1421 770 68.6013 568.688 509.092
3382 0 53.1233 14.2122 755 69.2212 568.285 507.107
3383 0 55.1802 13.7006 756 69.8942 568.984 505.452
3384 0 58.2052 12.8339 747 71.4511 567.948 504.45
3385 0 57.1764 12.1204 693 72.2294 568.351 500.773
3386 0 59.3843 12.2591 728 71.544 568.374 503.703
3387 0 64.4481 12.6924 818 70.1834 568.554 504.263
3388 0 63.3536 13.3221 844 70.3223 569.338 502.804
3389 0 69.1941 11.764 814 71.7371 569.587 502.452
3390 0 69.2459 13.3004 921 70.3344 568.506 500.521
3391 0 71.2436 13.9241 992 69.5645 568.842 498.965
3392 1 35.2321 10.814 381 74.2861 568.407 514.496
3393 0 39.1812 12.9654 508 69.8169 568.358 515.169
3394 0 39.4234 10.8565 428 72.4346 568.598 514.762
3395 0 40.1502 13.8231 555 69.1027 568.946 513.045
3396 0 39.4636 10.6681 421 72.5534 568.461 514.086
3397 0 41.2612 14.3961 594 68.4663 569.374 511.69
3398 0 41.2899 12.5212 517 70.8704 569.605 510.619
3399 0 44.3883 12.7286 565 69.5734 568.842 510.384
3400 0 45.2186 14.2198 643 67.4059 568.941 510.714
3401 0 47.3547 12.6914 601 68.7904 569.033 510.136
3402 0 48.3774 15.2344 737 65.9227 568.198 508.877
3403 0 49.0925 12.6089 619 68.315 568.17 509.704
3404 0 52.201 13.6779 714 67.1975 568.931 507.004
3405 0 53.2352 12.8486 684 68.4108 568.883 505.836
3406 0 54.1444 12.4482 674 68.5861 568.767 504.389
3407 0 52.0208 13.5138 703 68.596 569.509 505.139
3408 0 56.2415 12.8731 724 68.7707 568.907 503.771
3409 0 61.139 14.8678 909 66.1001 569.635 502.317
3410 0 62.2748 14.998 934 65.3426 569.242 500.429
3411 0 63.2811 14.7121 931 65.6122 568.586 499.198
3412 0 64.1047 14.3515 920 66.7456 568.684 498.623
3413 0 66.1956 14.2004 940 66.9426 569.126 500.104
3414 0 68.1535 13.5723 925 67.5881 569.817 498.671
3415 0 70.2612 13.3359 937 68.0448 570.477 496.232
3416 0 71.2321 11.4555 816 69.9865 570.336 494.506
3417 0 74.2192 14.053 1043 67.1697 569.858 492.499
3418 0 77.4639 14.0324 1087 66.7323 569.53 495.24
3419 1 43.1009 14.1528 610 64.5016 569.752 513.157
3420 0 43.304 12.0774 523 66.6176 569.226 513.939
3421 0 42.1943 14.1251 596 66.2232 569.134 511.696
3422 0 43.043 13.591 585 66.3744 568.897 510.434
3423 0 46.2488 12.7355 589 66.7674 569.068 508.796
3424 0 47.2873 10.764 509 68.8409 568.733 509.222
3425 0 48.1394 11.7368 565 68.2336 568.359 506.696
3426 0 51.2203 13.7836 706 64.8938 568.194 506.428
3427 0 51.2781 12.988 666 66.6051 568.026 505.874
3428 0 55.1314 12.6425 697 66.1377 568.713 505.438
3429 0 54.1869 13.6749 741 64.448 569.524 505.254
3430 0 55.3229 15.292 846 63.2979 568.308 502.382
3431 0 57.2597 14.932 855 63.207 568.728 502.266
3432 0 59.2643 12.2671 727 65.9354 569.451 499.988
3433 0 56.2368 12.1984 686 67.8601 568.293 498.089
3434 0 62.1388 13.502 839 65.1847 568.229 497.814
3435 0 63.0987 13.3442 842 65.3183 569.088 498.04
3436 0 64.1406 13.408 860 65.7337 568.963 495.977
3437 0 68.1546 14.0709 959 65.0198 570.262 493.4
3438 0 69.1261 13.6996 947 65.5512 569.548 492.422
3439 0 70.0864 11.8283 829 68.1375 569.996 490.899
3440 0 74.2731 14.6083 1085 64.8627 568.947 490
3441 0 77.2813 14.3372 1108 65.0821 569.538 492.447
3442 0 80.2927 13.9116 1117 65.7824 569.207 487.666
3443 0 83.1466 13.0733 1087 66.1684 569.499 491.333
3444 0 85.2555 13.3716 1140 67.1395 569.717 486.535
3445 0 87.1444 14.4702 1261 65.5496 570.044 483.642
3446 1 42.1046 9.38141 395 71.2228 570.534 505.195
3447 0 47.2015 10.2115 482 68.9792 570.701 505.438
3448 0 48.125 11.5117 554 67.4946 570.175 504.554
3449 0 48.0697 12.6899 610 66.4443 569.964 501.489
3450 0 52.1473 13.807 720 64.7361 570.453 501.693
3451 0 52.0639 12.3886 645 66.7892 570.011 499.811
3452 0 53.1624 12.095 643 67.3017 570.269 498.974
3453 0 55.2454 11.9467 660 67.1409 570.103 500.421
3454 0 55.2029 12.9703 716 65.9469 569.532 500.13
3455 0 60.0471 12.74 765 65.9412 569.404 497.937
3456 0 63.1864 13.1674 832 64.5577 570.148 498.974
3457 0 61.0859 13.0636 798 66.8095 569.548 492.773
3458 0 66.232 11.8372 784 67.2168 569.207 495.242
3459 0 65.1056 12.5335 816 67.3186 570.456 491.847
3460 0 68.1582 13.0138 887 67.2322 569.75 489.03
3461 0 76.1053 12.2725 934 66.0739 570.247 491.591
3462 0 80.1474 12.4396 997 65.8265 570.41 492.427
3463 0 81.135 11.4624 930 67.7914 569.504 490.441
3464 1 36.1305 10.4067 376 69.7473 569.019 505.125
3465 0 44.0899 8.25586 364 70.8434 570.052 502.324
3466 0 48.3223 9.47802 458 67.0066 568.799 506.847
3467 0 47.133 8.55027 403 69.1414 569.258 505.546
3468 0 50.5155 10.0563 508 67.3346 568.746 503.783
3469 0 51.4593 9.52209 490 67.9878 569.194 502.345
3470 0 52.1357 7.67229 400 70.95 569.695 498.888
3471 0 46.2279 12.3951 573 65.8202 569.473 501.358
3472 1 56.3606 10.2199 576 66.7569 569.922 500.122
3473 0 60.3386 10.4079 628 66.0303 569.441 500.654
3474 0 60.1778 12.3467 743 63.2786 569.756 502.548
3475 0 63.193 12.4539 787 63.2808 569.447 499.77
3476 0 65.3802 13.1079 857 61.7573 569.782 501.02
3477 0 66.3477 11.6357 772 64.728 570.057 493.443
3478 0 70.3588 13.7012 964 61.5508 569.993 498.882
3479 0 72.2245 13.7349 992 61.9224 570.273 496.871
3480 0 73.5215 12.1461 893 63.8544 569.903 492.608
3481 0 74.224 10.9264 811 65.8076 569.482 492.704
3482 1 14.0485 7.54528 106 50.5849 570.924 526.085
3483 0 16.0032 8.06091 129 48.9535 571.744 526.225
3484 0 14.1609 9.60389 136 49.4485 571.029 524.044
3485 0 16.0469 7.41574 119 50.4286 571.555 524.824
3486 0 15.0021 3.5995 54 54.0185 571.482 524.926
3487 0 15.013 7.85984 118 50.4661 571.517 525.703
3488 0 15.0395 5.71828 86 52.5349 571.419 525.337
3489 0 17.0238 8.75244 149 51.0201 571 524.544
3490 0 16.01 6.18364 99 51.8687 572.071 525.333
3491 0 13.0089 6.14964 80 54.525 571.288 527.088
3492 0 17.0662 10.3128 176 50.3125 571.409 525.386
3493 0 15.0011 5.99956 90 54.1667 572.556 528.144
3494 0 17.015 9.46225 161 51.5652 572.422 526.186
3495 0 17.0145 10.4029 177 50.4915 572.249 526.61
3496 0 17.081 6.20571 106 53.6038 572.5 527.349
3497 0 16.0081 9.49519 152 52.3092 572.553 525.763
3498 0 18.0068 8.1636 147 52.7687 571.83 524.258
3499 0 18.0521 8.80783 159 52.6164 571.792 527.101
3500 0 18.0215 9.82161 177 52.2486 571.706 526.435
3501 0 20.03 8.48727 170 52.9412 571.747 524.894
3502 0 19.0132 8.31004 158 54 572.07 526.228
3503 0 18.0872 7.57444 137 55.1825 571.131 526.256
3504 0 19.0377 8.29931 158 54.057 570.861 527.063
3505 0 19.0558 8.50137 162 53.5556 571.025 526.42
3506 0 21.0138 9.6603 203 51.9655 571.01 526.783
3507 0 21.0874 10.2905 217 52.9954 571.378 525.71
3508 0 21.0518 9.35787 197 53.1421 571.259 525.868
3509 0 23.0779 11.0062 254 52.2638 571.39 525.642
3510 0 23.0678 8.23659 190 55.0579 570.99 525.458
3511 0 23.0381 11.0686 255 49.5804 570.855 524.588
3512 0 24.0083 10.1215 243 53.3416 570.761 523.852
3513 1 1 4 4 50.75 569.25 513.75
3514 1 24.0261 9.57291 230 54.9174 570.913 525.352
3515 0 24.0766 8.43143 203 56.3103 571.35 526.818
3516 0 24.1164 6.09542 147 58.8299 571.361 525.075
3517 0 23.0011 6.99966 161 58.5963 570.956 525.286
3518 0 25.0447 9.70264 243 55.8189 571.058 524.593
3519 0 25.0326 8.34911 209 57.1818 571.426 526.206
3520 0 26.0166 9.3402 243 55.8107 570.864 523.905
3521 0 27.1136 7.59766 206 58 570.369 524.752
3522 0 28.0365 9.70165 272 55.9779 570.698 524.794
3523 0 28.0522 5.31153 149 60.8322 570.966 522.631
3524 0 28.044 10.1983 286 56.7133 570.65 522.559
3525 0 29.1431 8.85287 258 58.031 570.372 523.066
3526 0 27.0539 7.46656 202 60.3614 570.391 522.099
3527 0 31.0493 10.4028 323 56.5666 571.248 522.706
3528 0 30.0139 9.72883 292 57.7226 570.973 521.469
3529 0 31.0309 9.24883 287 58.4112 570.289 521.624
3530 0 31.031 8.50761 264 59.1894 569.841 521.606
3531 0 35.0682 9.46726 332 57.3193 570.678 521.087
3532 0 35.16 9.69853 341 57.5982 570.287 517.519
3533 0 35.0454 10.3009 361 57.3795 571.036 517.817
3534 0 35.034 11.132 390 56.7718 569.874 517.369
3535 0 37.0255 9.91209 367 57.4959 570.079 517.294
3536 0 41.0819 10.8564 446 56.2556 570.558 516.827
3537 0 39.0387 11.3989 445 56.4764 571.007 517.267
3538 0 41.0623 10.959 450 56.1822 571.047 516.876
3539 0 40.0911 11.2743 452 56.3628 570.887 516.657
3540 0 41.0446 10.8419 445 57.218 570.685 514.813
3541 0 41.1844 11.145 459 56.4183 571.131 513.416
3542 0 41.0584 9.32817 383 58.6762 571.125 513.888
3543 0 43.0649 9.28831 400 58.08 570.592 516.558
3544 0 44.1143 10.4728 462 58.039 570.955 509.89
3545 0 44.0233 10.449 460 58.1044 571.522 512.476
3546 0 43.0638 10.1942 439 58.5877 571.567 512.738
3547 0 45.1804 9.76086 441 59.0862 571.322 510.703
3548 0 48.0997 11.7048 563 56.7957 571.812 510.002
3549 0 49.1212 11.5632 568 56.7236 571.342 510.54
3550 0 48.1732 11.1265 536 57.6157 570.914 509
3551 0 49.1309 11.6424 572 57.6556 570.594 508.568
3552 0 53.3448 11.2663 601 57.6855 571.314 508.549
3553 0 52.0761 9.73574 507 59.9665 571.002 506.538
3554 0 53.1368 10.3883 552 58.8587 570.652 507.125
3555 0 52.0697 9.48729 494 60.7368 570.464 506.065
3556 0 53.0288 11.1826 593 58.6965 569.58 507.059
3557 0 55.0586 10.5161 579 58.5458 570.776 509.23
3558 0 55.1042 9.74517 537 60.4358 570.523 505.142
3559 0 55.1478 9.66493 533 60.6886 570.846 505.734
3560 0 58.1493 11.1437 648 58.8349 570.097 504.096
3561 0 58.0912 11.5164 669 58.3259 570.282 503.61
3562 0 60.0474 11.0246 662 59.0634 571.452 502.15
3563 0 58.177 10.8806 633 58.3175 570.848 505.409
3564 0 58.1533 11.9512 695 57.1439 570.806 503.488
3565 0 59.1532 10.177 602 58.8306 570.799 502.445
3566 0 59.335 10.0952 599 58.9015 570.11 502.564
3567 0 60.1322 11.3749 684 57.1608 570.934 503.244
3568 0 61.098 9.67299 591 58.9645 571.098 500.799
3569 0 61.0725 8.46534 517 59.8801 570.88 498.841
3570 0 63.0757 10.4319 658 58.1018 571.357 499.962
3571 0 63.1873 9.14741 578 59.301 570.268 502.443
3572 0 66.0822 10.6231 702 57.963 570.697 502.979
3573 0 65.2442 10.1158 660 59.6167 569.673 500.418
3574 0 68.1886 10.6029 723 58.7289 570.365 501.791
3575 0 69.1739 10.6543 737 59.6906 570.459 501.033
3576 0 69.5695 10.0619 700 60.9857 570.237 500.327
3577 1 42.139 9.08897 383 63.0261 570.379 512.927
3578 0 45.1085 10.5745 477 60.9665 569.612 513.918
3579 0 45.2285 10.259 464 62.556 570.371 513.444
3580 0 46.2526 10.594 490 62.2755 570.8 513.735
3581 0 47.3207 10.6507 504 62.9663 570.621 512.843
3582 0 43.2982 8.22206 356 68.3258 570.899 511.806
3583 0 49.2443 11.6562 574 62.5575 571.442 510.488
3584 0 47.2438 11.0702 523 64.2887 570.665 511.231
3585 1 73.2473 12.3691 906 62.3896 570.344 495.429
3586 0 74.3714 11.2812 839 63.9559 569.464 496.827
3587 0 75.4976 11.5235 870 63.3736 570.662 497.677
3588 0 76.3068 10.0122 764 65.0222 571.128 495.832
3589 0 77.3528 11.0015 851 64.2996 570.912 494.738
3590 0 79.2965 13.2919 1054 60.9564 570.848 494.021
3591 0 80.2501 11.4891 922 62.5954 570.731 496.582
3592 1 51.1938 11.8374 606 63.2508 570.861 511.551
3593 0 49.2261 8.65394 426 68.5587 570.944 511.068
3594 0 51.2654 9.79218 502 66.1614 570.874 512.446
3595 0 52.2159 9.95866 520 65.9154 570.631 511.112
3596 0 52.2968 11.1288 582 64.9296 571.715 509.304
3597 0 51.342 9.85547 506 66.9565 571.425 511.514
3598 0 50.2876 9.70418 488 67.8135 570.965 509.547
3599 0 50.2236 8.88028 446 69.0538 571.993 510.049
3600 0 49.1001 9.16496 450 68.08 572.142 511.536
3601 0 51.3199 11.7109 601 64.8819 571.268 509.444
3602 0 52.1668 11.9808 625 64.808 571.294 510.442
3603 0 49.1139 9.26418 455 59.7121 571.952 510.752
3604 0 49.4062 9.39152 464 58.4741 571.194 511.364
