time division length width area intensity CMx CMy
0 0 54.2499 19.4286 1054 45.315 579.332 523.74
1 0 55.1834 14.5152 801 49.8127 578.67 523.868
2 0 58.1221 18.8569 1096 45.2874 579.144 526.439
3 0 56.1206 13.8808 779 51.3273 579.268 522.211
4 0 60.1166 16.102 968 47.9938 578.899 522.979
5 0 60.1109 17.684 1063 47.016 578.003 521.607
6 0 61.1765 21.0048 1285 44.8374 578.599 523.433
7 0 61.3004 14.2413 873 51.2085 578.197 521.265
8 0 62.2462 14.3784 895 51.2704 578.321 521.055
9 0 68.1391 18.9319 1290 46.2605 578.811 518.672
10 0 68.1957 18.6962 1275 46.9545 578.27 516.74
11 0 72.1322 18.9929 1370 46.3131 578.074 517.028
12 0 71.1851 17.7565 1264 48.0372 578.694 515.042
13 0 73.1698 17.3296 1268 48.5591 578.599 517.517
14 0 74.1834 15.2595 1132 50.4814 578.227 515.473
15 0 76.2432 13.0372 994 53.0533 577.652 515.374
16 1 44.0775 12.0016 529 52.206 577.885 534.716
17 0 43.1163 10.2282 441 55.4104 578.687 533.814
18 0 42.0914 10.501 442 55.8416 577.758 531.921
19 0 46.102 11.5396 532 54.3835 577.808 531.254
20 0 92.458 20.247 1872 46.2698 577.482 504.888
21 1 50.0512 12.7869 640 52.4375 577.817 531.002
22 0 51.0356 13.6963 699 52.8813 578.099 527.242
23 0 53.0676 12.0789 641 54.4181 576.39 526.243
24 0 55.1277 13.7862 760 51.7776 577.376 528.545
25 0 57.0165 12.435 709 54.22 578.199 524.472
26 0 58.0356 14.3705 834 52.3465 578.446 521.534
27 0 58.0669 13.8806 806 53.6811 578.567 521.761
28 0 62.1338 12.795 795 54.4176 578.316 522.096
29 0 64.0884 13.419 860 54.1919 578.424 519.917
30 0 66.1214 12.7342 842 54.2684 577.786 520.432
31 0 69.212 14.1738 981 52.0469 577.956 522.261
32 0 71.1353 13.1721 937 52.9594 578.185 520.461
33 0 72.1371 13.1 945 53.8825 577.587 516.454
34 0 76.1345 12.9902 989 53.6451 578.031 517.723
35 0 79.1274 13.6615 1081 52.765 579.438 515.286
36 0 79.1583 13.3151 1054 53.3681 578.9 514.428
37 0 82.1767 12.9842 1067 53.6289 578.595 513.118
38 0 86.2275 13.1281 1132 53.992 579.15 509.237
39 0 88.2045 12.6978 1120 53.6804 577.962 513.553
40 1 50.043 11.1904 560 53.1857 579.259 530.677
41 0 51.0627 10.9473 559 54.2791 578.665 529.776
42 0 53.0909 10.6986 568 54.5581 579.384 528.151
43 0 54.0388 13.5828 734 52.6049 579.279 527.526
44 0 58.1689 11.8448 689 53.8592 579.493 526.925
45 0 58.0688 10.8492 630 55.6603 579.463 524.675
46 0 58.0241 10.1682 590 56.3237 579.517 522.412
47 0 65.0494 12.7749 831 53.1516 579.419 522.922
48 0 64.0771 14.1704 908 51.9174 580.247 519.587
49 0 65.0944 11.7214 763 54.9279 580.161 518.412
50 0 67.0588 11.4974 771 54.5811 579.914 518.794
51 0 69.0652 13.6248 941 52.6079 580.033 515.624
52 0 71.0577 10.8081 768 54.9062 579.875 518.888
53 0 75.0979 13.5956 1021 52.2076 579.945 516.224
54 0 77.1312 12.6797 978 52.9213 579.605 515.824
55 0 77.1799 11.078 855 55.7018 580.185 512.677
56 0 81.0837 14.4912 1175 52.1217 579.579 511.229
57 0 83.0807 11.6995 972 55.4743 580.234 507.111
58 0 84.0492 11.2553 946 55.9323 580.292 509.613
59 0 88.1417 12.2757 1082 55.1867 579.97 507.066
60 0 94.122 11.7826 1109 55.3111 580.519 508.184
61 0 95.2268 12.591 1199 54.7173 580.506 506.299
62 1 49.0311 9.21865 452 55.4912 580.427 529.283
63 0 53.0742 12.605 669 53.1958 579.456 524.611
64 0 56.081 10.5027 589 55.3752 580.02 524.45
65 0 56.1039 12.762 716 53.852 581.088 522.546
66 0 57.1804 12.2944 703 54.2646 580.366 524.383
67 0 57.1144 9.13956 522 57.5728 579.824 525.324
68 0 60.1394 11.041 664 56.8042 580.081 521.736
69 0 63.0679 11.1309 702 56.2336 579.574 521.729
70 0 64.1185 11.9934 769 55.6125 579.706 521.276
71 0 66.0657 13.5471 895 54.2793 579.179 518.093
72 0 66.1639 10.4438 691 57.6845 579.514 519.738
73 0 71.1324 13.7631 979 53.9275 579.84 516.398
74 0 70.0427 12.7779 895 55.5609 579.333 514.568
75 0 75.1768 10.8677 817 57.0061 579.868 515.594
76 0 76.0765 10.7655 819 57.2564 580.48 514.349
77 0 79.2329 12.6084 999 54.8058 579.24 514.728
78 0 82.051 10.6641 875 57.4994 579.613 509.481
79 0 83.1985 10.9137 908 57.4108 580.325 510.409
80 0 88.0976 11.6575 1027 56.2561 580.244 508.497
81 0 88.1688 10.4005 917 58.5714 580.501 507.591
82 1 44.1126 10.9492 483 56.4431 581.068 527.986
83 0 46.0241 11.8199 544 55.7188 579.562 526.419
84 0 48.0277 10.6189 510 57.4824 580.718 527.986
85 0 46.1314 9.84145 454 58.7996 579.938 525.901
86 0 51.0371 11.7758 601 56.8952 581.045 525.21
87 0 52.1321 12.3916 646 56.695 581.314 523.517
88 0 53.0161 10.0535 533 59.4409 580.482 523.522
89 0 55.0932 11.8708 654 57.2798 581.124 524.642
90 0 56.0378 11.4565 642 58.2056 579.963 522.364
91 0 56.1316 9.7984 550 61.0745 580.162 521.244
92 0 58.1215 9.68661 563 61.5861 581.181 518.103
93 0 60.0437 10.4257 626 61.1565 581.022 520.016
94 0 61.2168 11.5001 704 59.527 580.537 521.206
95 0 65.0665 11.957 778 59.0373 580.947 518.14
96 0 66.1454 11.5503 764 60.2579 580.463 516.355
97 0 68.1449 10.6391 725 60.9159 580.556 515.952
98 0 70.1721 11.1298 781 61.0461 580.035 514.314
99 0 73.0409 12.1028 884 59.3767 580.762 514.291
100 0 74.1896 11.201 831 61.1252 580.999 513.439
101 0 75.2194 10.6223 799 62.0939 580.751 508.342
102 0 79.1439 10.8916 862 60.9617 580.465 512.229
103 0 80.1043 10.8608 870 61.9023 580.633 506.459
104 0 84.1027 10.4039 875 62.2583 581.065 504.431
105 0 90.221 13.7108 1237 57.637 581.15 510.478
106 0 90.0853 10.7232 966 61.8675 580.467 504.903
107 0 94.172 12.371 1165 60.3348 581.324 503.835
108 1 48.0777 10.7326 516 58.8798 581.105 527.578
109 0 49.0495 10.0918 495 60.3111 581.717 526.598
110 0 53.0703 9.72296 516 59.7946 581.481 527.87
111 0 51.0454 10.2654 524 57.6298 580.592 523.788
112 0 54.0518 11.674 631 59.6101 580.859 523.204
113 0 56.0798 10.9665 615 59.8455 580.875 522.636
114 0 57.1132 11.4684 655 59.4809 581.102 523.147
115 0 59.1812 11.9464 707 59.4993 581.533 520.12
116 0 59.1443 11.3282 670 60.9582 580.957 521.145
117 0 62.1499 11.8102 734 60.0559 582.022 519.984
118 0 63.2226 12.0368 761 60.8121 582.693 516.828
119 0 65.1396 11.1913 729 61.7215 582.166 516.564
120 0 65.1237 12.3457 804 60.9403 581.558 514.414
121 0 68.0806 11.6186 791 61.2389 580.684 516.392
122 0 70.3265 12.2713 863 60.8019 581.16 514.483
123 0 72.2328 12.0444 870 61.0655 580.354 513.199
124 0 75.1642 11.4815 863 61.1251 580.973 514.475
125 0 77.1707 12.2197 943 60.9279 580.796 512.53
126 0 80.1122 12.9568 1038 60.3266 581.108 511.477
127 0 80.2273 11.3677 912 62.7961 580.73 508.36
128 0 84.1983 11.3541 956 63.1213 580.578 506.991
129 0 86.1345 11.1918 964 63.3039 581.254 510.087
130 0 89.3007 12.1388 1084 63.0895 581.21 504.649
131 1 46.0296 13.1003 603 59.7032 581.614 526.335
132 0 46.0084 10.259 472 62.803 582.112 528.644
133 0 49.0746 11.5131 565 62.6142 581.538 523.74
134 0 48.0451 10.3236 496 64.9536 581.968 523.427
135 0 49.0462 12.0091 589 62.7674 581.608 522.63
136 0 50.1571 10.487 526 64.808 581.749 524.249
137 0 51.0346 10.4439 533 64.379 581.415 522.979
138 0 51.132 9.89596 506 66.4664 580.773 520.743
139 0 56.1347 11.9178 669 61.9865 581.009 522.975
140 0 55.1639 11.3843 628 64.3264 582.018 521.463
141 0 55.1154 11.1403 614 65.1498 581.798 520.249
142 0 61.147 11.5459 706 63.8031 581.905 519.584
143 0 61.1425 9.86221 603 66.6401 581.899 518.781
144 0 61.1485 10.9079 667 65.8666 581.345 517.228
145 0 64.1803 9.13053 586 67.3788 582.169 517.672
146 0 67.1425 10.2915 691 66.4761 582.139 515.211
147 0 68.2772 12.4932 853 63.8875 581.596 515.599
148 0 70.119 11.6516 817 65.1444 580.636 513.517
149 0 74.2019 12.6008 935 63.9893 580.567 509.237
150 0 75.1054 10.8248 813 66.8499 581.177 510.587
151 0 78.1802 11.0386 863 66.6014 581.656 509.466
152 0 77.2415 11.0303 852 67.8239 580.541 506.272
153 1 39.0485 8.52786 333 68.7718 581.402 526.204
154 0 42.0141 9.92524 417 67.4724 580.926 526.928
155 0 42.027 9.99356 420 68.2929 581.202 526.405
156 0 44.0357 10.6959 471 67.5669 582.658 525.62
157 0 45.082 10.0705 454 67.5529 582.236 523.626
158 0 48.0684 10.9636 527 66.129 581.789 522.501
159 0 47.1429 9.69393 457 68.5427 583.101 524.166
160 0 51.1317 10.1698 520 67.5596 583.138 522.413
161 0 53.082 10.3425 549 67.541 583.273 520.426
162 0 55.1649 10.5139 580 67.3448 582.705 520.39
163 0 58.0969 10.8267 629 66.9634 582.113 519.525
164 0 60.0685 12.4691 749 64.6449 582.415 517.134
165 0 60.0898 10.3845 624 67.7644 582.707 518.021
166 0 61.1919 10.9492 670 67.5119 583.578 516.125
167 0 62.1102 10.9644 681 66.6828 583.404 518.28
168 0 63.1084 10.68 674 67.5994 583.636 515.522
169 0 68.1223 11.861 808 65.5272 582.968 512.873
170 0 70.1258 12.3207 864 65.2512 582.735 512.051
171 0 71.1477 12.1437 864 65.2708 582.682 510.204
172 0 74.1501 11.4093 846 65.5816 582.655 512.032
173 0 75.171 10.097 759 67.2055 582.242 510.507
174 1 42.2723 7.92482 335 66.8896 581.11 526.319
175 0 45.1493 9.679 437 63.6407 580.876 525.709
176 0 45.1414 9.85792 445 64.9528 580.512 522.735
177 0 47.2047 10.6981 505 63.7584 580.685 522.754
178 0 51.1054 10.9577 560 62.2286 580.511 523.089
179 0 49.0205 12.3622 606 61.6914 581.186 522.703
180 0 52.0613 12.2356 637 61.2841 580.837 521.504
181 0 52.0792 11.4825 598 62.5769 580.229 520.318
182 0 54.0577 11.6727 631 62.4945 581.046 519.577
183 0 58.079 9.9864 580 63.6879 580.003 520.398
184 0 59.1261 11.4163 675 61.6296 579.527 520.72
185 0 58.0888 9.69206 563 64.9893 580.718 518.092
186 0 59.0598 10.1253 598 64.495 580.51 515.415
187 0 61.0506 10.8271 661 63.3374 580.009 515.369
188 0 65.037 10.9937 715 62.8503 579.266 514.782
189 0 66.1859 11.6037 768 62.0586 579.559 514.289
190 0 67.15 10.1117 679 63.1193 578.252 513.218
191 0 68.1961 10.6751 728 62.6538 578.251 514.286
192 0 72.0706 12.6404 911 59.7267 578.149 513.321
193 0 72.1135 9.60985 693 63.4805 578.133 513.781
194 0 76.1648 10.7005 815 61.9141 578.063 513.106
195 0 77.177 10.3528 799 62.5131 578.337 509.783
196 0 80.2737 11.2241 901 61.2542 578.572 507.699
197 0 83.1986 10.6372 885 61.3254 578.108 510.609
198 0 86.1934 10.8825 938 61.9467 578.062 506.485
199 0 87.1469 9.7766 852 62.7007 577.705 507.43
200 1 44.22 9.97286 441 58.8118 577.397 528.358
201 0 46.0732 9.98412 460 58.513 577.074 528.152
202 0 47.1108 9.5095 448 59.4375 577.214 528.174
203 0 50.1341 8.91608 447 59.2506 576.729 528.353
204 0 53.1084 10.262 545 58.6661 576.958 528.092
205 0 52.1047 9.0203 470 60.434 577.168 526.166
206 0 53.1229 10.1275 538 59.8625 577.55 523.264
207 0 55.0909 9.29373 512 59.3867 577.355 524.604
208 0 56.0266 9.92387 556 58.5342 577.797 525.025
209 0 61.0224 11.0943 677 57.5702 577.71 524.453
210 0 61.0401 11.4515 699 58.1745 576.742 522.758
211 0 62.1267 10.7361 667 58.2594 576.345 518.955
212 0 64.1034 10.4207 668 58.7949 576.997 521.238
213 0 68.0934 11.8367 806 56.438 576.277 522.194
214 0 68.1471 10.0078 682 59.629 575.751 520.268
215 0 70.2504 10.5053 738 59.2019 576.37 517.164
216 0 71.0541 10.5413 749 58.6983 575.085 516.171
217 0 72.0998 9.97228 719 59.6704 574.962 513.51
218 0 78.1216 12.4549 973 56.2549 575.184 514.868
219 1 36.0524 9.1256 329 57.3526 574.812 534.742
220 0 38.0736 9.37657 357 55.8992 574.342 537.216
221 0 35.1084 7.63351 268 59.1716 574.478 534.66
222 0 37.0237 9.31835 345 57.8 575.264 535.38
223 0 43.0821 10.097 435 56.1494 576.147 533.103
224 0 43.0704 8.21911 354 58.5763 576.04 531.503
225 0 46.0545 8.9025 410 57.5293 575.485 531.329
226 0 47.1262 11.0979 523 55.3002 574.774 528.759
227 0 50.1489 10.409 522 55.6609 574.707 528.069
228 0 51.1145 10.721 548 55.8047 574.907 525.951
229 0 53.0863 10.6807 567 55.3951 574.991 527.593
230 0 53.1269 9.31731 495 57.1798 575.188 526.024
231 0 56.1228 12.6865 712 53.6868 574.316 521.659
232 0 57.0397 10.9573 625 56.2544 575.792 521.467
233 0 57.1222 11.1515 637 56.0549 576.451 520.713
234 0 59.0855 11.1872 661 55.3828 575.572 523.454
235 0 63.0977 12.1874 769 54.9064 575.964 519.472
236 0 64.1533 11.3946 731 55.8782 576.28 519.107
237 0 65.0981 10.031 653 56.7565 575.271 517.7
238 0 66.0897 11.7114 774 55.8798 575.994 516.466
239 0 69.0835 10.5959 732 56.3743 576.027 518.057
240 0 73.0863 12.6836 927 53.8889 576.177 514.018
241 0 75.106 12.489 938 54.0011 576.665 513.023
242 0 76.1009 12.9302 984 53.7195 576.402 512.6
243 0 79.1311 12.1318 960 54.4625 576.6 511.622
244 0 79.1241 10.9069 863 56.387 577.25 508.355
245 0 83.1718 11.0133 916 55.7566 576.922 509.156
246 0 86.1431 12.131 1045 54.6517 576.932 507.38
247 0 89.1971 10.2582 915 56.8754 577.509 507.786
248 1 44.1051 10.611 468 55.2692 577.092 528.145
249 0 46.0201 10.5823 487 55.115 577.458 527.725
250 0 46.1214 10.7976 498 55.6446 577.339 524.287
251 0 48.0774 11.0655 532 55.5338 577.517 524.996
252 0 50.2059 9.8594 495 56.5737 576.855 525.911
253 0 52.0623 11.275 587 55.0835 577.235 525.927
254 0 51.0217 9.19216 469 57.7484 578.552 524.968
255 0 53.0606 9.36666 497 56.8008 577.712 524.903
256 0 55.0742 11.5662 637 54.8132 578.166 524.367
257 0 56.0915 9.94803 558 55.8692 577.996 523.471
258 0 59.0645 10.751 635 55.0047 577.65 521.874
259 0 60.1868 10.052 605 55.3901 577.531 523.499
260 0 64.0529 10.7099 686 54.6647 576.56 522.733
261 0 64.0595 8.13306 521 57.1708 576.349 519.038
262 0 65.0949 11.2451 732 54.3183 576.414 517.63
263 0 67.1304 11.1127 746 54.571 576.949 519.685
264 0 68.1925 10.309 703 55.7183 576.575 516.265
265 0 68.1208 8.60236 586 57.6826 576.169 516.922
266 0 72.0582 9.36743 675 56.8652 576.019 514.8
267 0 76.057 11.1627 849 55.0589 576.053 513.59
268 0 78.1077 12.7516 996 53.6677 575.91 514.982
269 0 76.097 8.80455 670 58.3119 576.552 510.993
270 0 74.0699 9.70705 719 57.6245 575.769 504.406
271 1 87.0946 12.4233 1082 54.5166 576.054 510.79
272 0 87.1606 10.7503 937 56.9424 574.64 508.206
273 1 48.0449 10.6775 513 54.5945 574.867 529.103
274 0 48.0239 9.47444 455 56.5319 575.029 528.873
275 0 50.0593 9.90826 496 55.1794 574.994 532.077
276 0 52.0832 9.63842 502 55.5916 575.398 532.602
277 0 51.0467 11.3621 580 55.6621 575.447 526.964
278 0 52.085 9.92607 517 56.6847 574.855 528.596
279 0 55.1145 10.451 576 56.6736 575.142 526.597
280 0 54.0752 9.11693 493 58.3225 575.566 527.925
281 0 58.2169 11.0621 644 56.3851 576.014 527.311
282 0 59.1049 11.0312 652 56.5475 575.906 528.021
283 0 61.2179 13.2478 811 55.111 575.637 523.766
284 0 65.1762 11.5533 753 55.8021 574.725 525.776
285 0 65.2924 10.3228 674 57.6009 575.653 523.436
286 0 66.0627 11.4134 754 56.679 574.772 524.845
287 0 68.1123 13.0667 890 55.8854 574.543 519.427
288 0 71.1398 13.0166 926 55.2333 574.389 520.225
289 0 73.2989 11.8283 867 56.6782 575.033 516.601
290 0 77.3446 11.0027 851 56.9941 574.671 519.957
291 0 77.1985 10.2075 788 58.217 575.188 517.604
292 0 82.2338 13.0968 1077 55.4633 575.397 513.974
293 1 40.0479 9.53857 382 57.4895 576.421 534.024
294 0 42.035 10.9671 461 56.2191 576.36 533.397
295 0 42.064 10.1988 429 56.5641 575.841 534.622
296 0 47.0731 12.0876 569 54.8981 575.032 531.438
297 0 46.073 10.3965 479 57.2109 574.486 527.998
298 0 49.0164 11.3635 557 55.9425 575.043 527.461
299 0 49.125 11.257 553 56.0814 575.325 530.429
300 0 49.0423 10.2157 501 57.9341 575.347 527.539
301 0 52.051 10.4513 544 57.1452 574.162 523.719
302 0 53.0217 11.7688 624 56.0272 574.625 525.181
303 0 55.0877 12.7978 705 54.9858 574.508 524.73
304 0 56.0663 10.0774 565 57.1027 574.207 524.968
305 0 58.1068 12.5803 731 54.5376 575.03 523.004
306 0 61.1338 11.8265 723 54.6307 574.595 524.936
307 0 61.2065 10.4564 640 56.0812 573.848 521.37
308 0 63.0955 11.7282 740 54.8514 574.558 520.718
309 0 63.0928 11.2374 709 55.9323 574.801 519.906
310 0 67.0758 12.1803 817 54.0269 574.268 518.749
311 0 66.2399 11.4282 757 55.3818 574.494 516.176
312 0 71.1462 13.2825 945 52.6677 574.592 516.085
313 0 72.0903 14.6344 1055 51.2322 573.972 513.731
314 0 73.153 9.30925 681 55.7166 574.16 514.496
315 0 76.098 11.0253 839 53.8701 574.48 513
316 0 77.158 12.1828 940 52.9351 574.094 512.252
317 0 79.1698 10.0922 799 54.5069 574.677 511.546
318 0 79.1624 9.44893 748 54.7674 573.934 511.453
319 0 81.2268 8.75327 711 55.0759 574.685 510.594
320 0 85.0609 12.7908 1088 51.2491 575.014 508.991
321 0 84.1465 8.29506 698 54.49 574.784 508.277
322 0 89.1937 10.6846 953 52.5299 574.353 504.842
323 0 88.1697 10.1962 899 52.8087 573.561 498.16
324 0 92.3466 12.4964 1154 50.5806 573.699 497.587
325 0 95.0797 9.25539 880 52.2114 574.291 506.251
326 0 96.2179 10.2372 985 51.9208 574.917 497.623
327 0 101.211 13.3187 1348 49.296 574.145 500.833
328 0 104.205 12.2067 1272 49.6651 573.915 501.676
329 0 106.106 15.2017 1613 47.6857 574.413 497.792
330 0 107.183 10.5708 1133 50.8835 574.153 496.822
331 0 110.106 11.8159 1301 49.9677 574.956 494.491
332 0 113.297 12.1539 1377 49.6006 574.54 495.441
333 0 113.139 9.0066 1019 51.4573 575.055 492.891
334 0 118.275 10.1036 1195 50.3414 573.697 490.944
335 0 120.202 12.6121 1516 48.7038 573.352 489.325
336 0 121.242 9.65013 1170 50.3248 573.899 490.324
337 0 123.35 11.3823 1404 49.3775 573.243 483.61
338 0 125.221 8.63273 1081 50.7299 573.577 484.554
339 0 129.135 9.06032 1170 50.5504 574.231 486.047
340 0 131.337 10.3779 1363 49.2135 574.869 487.674
341 0 132.192 8.3439 1103 50.971 575.235 481.026
342 0 135.169 9.12194 1233 50.5775 575.189 480.031
343 0 138.206 8.2196 1136 51.0555 574.818 465.797
344 0 141.215 10.2822 1452 49.5916 575.41 480.674
345 0 141.199 11.4944 1623 49.1356 574.868 469.052
346 0 150.323 8.94077 1344 50.6332 574.171 467.146
347 0 152.18 12.2552 1865 48.8504 574.066 470.597
348 0 149.339 6.12698 915 52.3563 574.768 471.405
349 0 155.332 11.6782 1814 49.3589 574.499 464.291
350 0 156.478 7.91805 1239 51.1477 574.192 471.517
351 0 166.386 9.38782 1562 50.4097 574.236 462.371
352 0 168.202 3.56714 600 53.2067 574.688 478.945
353 0 168.393 8.50983 1433 51.0677 575.336 465.326
354 0 174.299 5.30123 924 52.8669 575.417 431.636
355 0 180.712 11.4934 2077 49.2855 574.496 447.59
356 0 182.249 6.83133 1245 52.4594 575.602 446.109
357 0 181.295 11.1696 2025 50.481 574.6 452.616
358 0 183.367 11.3816 2087 50.7269 574.892 440.598
359 0 187.358 6.91189 1295 53.0988 574.846 430.602
360 0 195.142 7.70208 1503 52.99 574.89 445.904
361 0 203.349 12.1269 2466 50.8382 574.952 448.839
362 0 206.259 7.92207 1634 54.3586 575.424 447.031
363 0 215.388 8.57524 1847 54.372 575.396 438.907
364 0 218.589 9.8404 2151 54.4207 575.108 438.29
365 0 208.276 2.95762 616 60.0357 575.182 441.315
366 1 280.414 12.7062 3563 50.0379 575.445 411.514
367 0 276.842 14.1994 3931 50.3416 575.586 418.612
368 0 274.7 14.7943 4064 50.549 575.746 411.296
369 0 273.598 15.6617 4285 50.9246 575.672 407.797
370 0 273.931 17.8037 4877 49.6537 575.548 395.845
371 0 346.667 13.226 4585 58.1381 574.6 390.745
372 0 347.464 11.1177 3863 61.9091 574.229 383.299
373 0 353.457 11.0141 3893 62.693 574.716 382.291
374 0 362.438 11.4861 4163 62.6776 574.758 379.161
375 1 304.779 16.8483 5135 54.0754 574.726 396.105
376 0 309.605 20.5036 6348 51.2798 574.428 386.859
377 0 314.563 20.422 6424 51.1289 575.101 364.855
378 0 321.451 18.5783 5972 54.1165 575.045 380.452
379 0 329.275 21.3682 7036 51.631 575.21 359.049
380 0 339.508 21.2396 7211 52.3753 575.017 372.126
381 0 329.66 17.3391 5716 57.5882 574.716 391.012
382 0 336.322 17.171 5775 58.199 574.161 385.248
383 0 343.391 17.1787 5899 58.5096 575.147 380.889
384 0 352.662 18.0485 6365 57.6555 574.567 380.793
385 0 360.608 18.3939 6633 57.66 573.761 380.366
386 0 366.537 16.364 5998 60.5195 574.452 367.983
387 1 312.462 14.5586 4549 63.5432 574.803 396.35
388 1 261.299 13.8539 3620 63.7193 574.592 436.402
389 0 267.358 13.2332 3538 65.9576 574.434 421.645
390 0 276.41 13.9105 3845 64.9399 575.291 426.089
391 0 284.392 13.1825 3749 66.2502 575.543 419.884
392 0 295.418 14.8434 4385 64.774 574.974 410.349
393 0 302.372 14.7203 4451 65.8841 575.474 401.126
394 0 304.39 11.4853 3496 68.5844 575.279 419.122
395 0 303.464 10.8283 3286 69.4315 575.948 422.423
396 1 72.1339 11.8946 858 58.7611 576.522 521.308
397 0 77.0876 12.3755 954 60.653 576.283 516.805
398 0 77.1103 10.7897 832 62.7668 575.935 515.805
399 0 81.2169 12.3743 1005 61.8209 576.085 512.613
400 0 82.1739 12.4614 1024 62.248 575.618 510.425
401 0 83.0849 12.0599 1002 62.3762 575.845 513.342
402 0 87.1643 12.8493 1120 61.5357 576.13 510.098
403 0 88.194 11.2706 994 63.6992 576.857 507.237
404 0 91.1662 11.9452 1089 63.4738 576.586 503.275
405 0 97.0658 13.0633 1268 60.7744 576.306 506.476
406 0 100.111 11.0477 1106 63.1049 576.653 503.816
407 0 102.164 11.0411 1128 62.7145 576.288 505.601
408 0 106.158 13.8096 1466 59.9891 575.767 499.221
409 1 57.0648 11.1803 638 60.4295 575.835 519.414
410 0 60.0469 9.54255 573 61.7033 576.412 520.236
411 0 63.0563 11.7673 742 59.3437 575.947 520.307
412 0 63.1067 11.5202 727 59.0495 575.585 520.978
413 0 66.0721 10.7912 713 60.0182 575.979 520.697
414 0 70.0968 11.2559 789 58.9442 575.246 516.63
415 0 71.093 12.4766 887 57.2785 575.069 514.411
416 0 77.2124 12.1742 940 56.4117 575.376 514.599
417 0 75.1762 9.92335 746 58.3995 574.983 514.771
418 0 82.3403 11.3796 937 55.8858 574.86 512.377
419 0 84.2908 11.0095 928 56.0959 574.801 511.44
420 0 88.2453 11.8647 1047 53.6208 574.388 514.499
421 1 44.1044 10.6112 468 52.9103 574.19 530.267
422 0 45.0829 9.91507 447 52.9083 574.096 532.586
423 0 45.0656 9.12004 411 54.1484 574.574 529.489
424 0 46.0529 11.4216 526 51.7395 573.956 529.873
425 0 48.0449 10.9689 527 52.1176 574.687 527.909
426 0 49.0475 9.72526 477 53.0294 574.889 530.868
427 0 53.0534 12.1199 643 50.2753 575.585 527.317
428 0 52.0553 11.9104 620 50.9484 575.318 524.576
429 0 54.1063 12.4754 675 49.2104 574.957 528.385
430 0 55.1007 12.4136 684 50.402 575.08 522.74
431 0 56.0432 11.4376 641 50.7566 575.08 524.785
432 0 58.0273 10.8914 632 51.5475 575.25 522.824
433 0 59.0512 10.3978 614 52.298 575.368 519.508
434 0 61.0529 10.6465 650 51.5969 574.974 522.072
435 0 64.1073 10.4824 672 51.3125 574.985 523.78
436 0 64.1171 8.01659 514 53.3813 575.263 523.049
437 0 64.0487 7.2601 465 54.7398 574.905 517.226
438 0 70.1983 11.1541 783 51.5006 575.521 515.963
439 0 72.1743 9.79573 707 52.7044 575.819 516.576
440 0 74.0459 10.7501 796 51.3631 574.366 519.088
441 0 75.139 10.9797 825 51.7758 574.482 516.514
442 0 77.2773 9.71824 751 52.6751 574.925 515.103
443 0 79.1788 11.3414 898 51.216 574.83 514.39
444 0 83.2956 11.9094 992 50.997 574.794 512.835
445 0 86.275 9.80586 846 53.487 574.375 511.184
446 0 87.2635 10.5313 919 52.7704 574.815 511.813
447 1 45.0772 8.94023 403 52.2457 574.97 531.032
448 0 46.0523 9.55436 440 51.7568 575.448 529.875
449 0 47.0763 11.0034 518 50.9208 575.112 528.643
450 0 49.023 10.1177 496 51.2177 575.567 527.468
451 0 51.0474 10.1866 520 50.325 575.173 528.092
452 0 52.0473 11.4127 594 49.5219 574.916 528.311
453 0 54.0991 10.7396 581 50.0723 574.625 525.329
454 0 57.1021 11.5057 657 49.8128 574.74 527.795
455 0 58.1078 10.3256 600 50.86 574.743 523.303
456 0 57.1509 9.39618 537 52.9106 575.339 521.708
457 0 60.1703 10.8858 655 51.3389 574.969 525.421
458 0 62.2214 11.7323 730 50.4219 575.273 522.647
459 0 63.1673 11.7782 744 50.5336 574.883 521.411
460 0 64.1084 11.3714 729 51.166 574.446 517.516
461 0 67.1971 10.7296 721 50.8197 574.509 519.455
462 0 66.1551 9.05448 599 51.9215 574.125 522.269
463 0 69.1283 8.44806 584 52.3253 573.752 521.892
464 0 71.1818 9.93232 707 51.587 573.743 516.304
465 0 73.1983 12.1314 888 50.2072 574.818 516.798
466 0 76.2194 11.9786 913 50.3373 575.298 515.421
467 0 73.1415 9.24236 676 53.5976 574.5 512.538
468 0 81.1333 12.2761 996 50.5753 574.698 512.451
469 0 81.1252 9.70105 787 53.5604 574.465 508.506
470 0 83.1455 10.5357 876 52.7249 573.946 512.369
471 0 86.1396 10.5526 909 53.2937 574.234 509.292
472 0 91.2277 11.2027 1022 52.1086 574.194 510.835
473 1 46.0376 11.773 542 51.4317 574.537 527.29
474 0 48.0488 9.78171 470 52.7681 574.545 531.526
475 0 49.0631 12.9221 634 51.4401 575.328 528.415
476 0 48.047 10.6146 510 54.2608 575.361 525.739
477 0 52.0393 11.6643 607 53.0412 574.666 526.127
478 0 54.0419 12.1017 654 52.7477 574.83 524.95
479 0 54.3274 11.2466 611 53.2848 575.023 527.021
480 0 54.0583 12.172 658 52.8237 574.46 524.974
481 0 57.1398 12.4082 709 52.9492 574.533 524.468
482 0 60.1381 11.59 697 53.3945 574.395 525.156
483 0 62.1697 12.482 776 52.3196 574.531 525.287
484 0 61.0766 10.6424 650 54.7754 574.382 521.545
485 0 65.1078 10.8743 708 54.2726 574.734 522.326
486 0 64.048 11.1791 716 54.6397 574.979 519.43
487 0 67.0993 12.8913 865 53.2 574.451 520.356
488 0 68.1485 9.61136 655 56.2962 574.169 518.055
489 0 69.1052 12.1699 841 54.0595 575.146 518.524
490 0 74.1459 11.5313 855 54.4351 574.271 517.766
491 0 75.0559 13.0036 976 53.793 574.284 515.557
492 0 78.0827 12.141 948 54.7162 574.53 514.949
493 0 80.0814 12.1751 975 54.7221 573.745 514.131
494 0 79.1644 10.9393 866 56.7714 574.248 509.926
495 1 43.0335 11.247 484 55.8884 575.688 531.481
496 0 42.0612 9.12955 384 58.3646 575.482 531.75
497 0 43.1438 9.45675 408 58.4387 575.208 532.63
498 0 44.0509 12.0542 531 57.1902 574.955 529.734
499 0 47.0765 11.1946 527 57.425 575.417 531.044
500 0 48.2177 12.8791 621 56.5233 575.003 526.367
501 0 49.116 11.1369 547 58.3254 574.846 528.201
502 0 50.0647 11.9046 596 57.5235 574.74 527.077
503 0 52.0526 12.6026 656 56.5595 574.427 528.215
504 0 53.1118 11.8806 631 57.5404 574.458 523.908
505 0 54.0662 13.0581 706 56.5241 574.633 525.681
506 0 57.1284 14.5287 830 54.9807 575.159 522.705
507 0 58.0891 13.9785 812 55.649 574.958 521.962
508 0 58.0395 12.6466 734 58.0599 574.866 521.151
509 0 60.1041 12.2454 736 58.1603 573.825 521.122
510 0 65.0812 11.1399 725 57.9848 574.057 523.666
511 0 64.0502 13.2864 851 57.3196 573.927 519.219
512 0 67.0622 11.5714 776 59.076 573.92 519.412
513 0 69.2549 12.389 858 57.6748 573.859 520.107
514 0 70.1018 11.626 815 58.7534 574.191 519.129
515 0 76.1465 12.7255 969 57.3571 574.17 516.861
516 0 75.1131 10.1181 760 60.3711 574.196 516.846
517 0 77.071 11.5089 887 59.6156 574.59 516.255
518 0 81.107 13.1431 1066 58.4653 574.016 511.979
519 0 82.2053 11.8362 973 59.6526 573.776 513.136
520 1 42.0941 10.6191 447 60.4161 574.474 533.832
521 0 43.0638 10.4961 452 61.677 574.593 531.254
522 0 45.1328 13.7594 621 58.0757 574.551 530.675
523 0 46.0399 12.7715 588 59.9201 574.077 528.277
524 0 50.0756 11.8021 591 60.1624 574.289 527.809
525 0 49.0382 12.1946 598 60.6355 574.4 526.599
526 0 52.1225 12.3939 646 60.0464 574.172 526.799
527 0 54.0908 12.7563 690 59.9884 574.535 526.639
528 0 52.0405 10.2997 536 63.5858 574.629 525.121
529 0 54.0447 12.0086 649 61.8598 574.533 525.804
530 0 57.0385 12.3776 706 61.9915 574.582 523.251
531 0 61.0937 11.556 706 62.2465 575.239 524.302
532 0 61.1048 12.094 739 62.3018 574.93 523.536
533 0 64.0905 11.8738 761 62.866 574.348 520.007
534 0 65.1528 12.1714 793 63.0958 574.315 517.069
535 0 64.0436 11.0862 710 64.7479 573.78 518.361
536 0 68.1312 11.7567 801 63.9551 573.92 515.461
537 0 68.0935 10.4268 710 65.9859 574.458 517.968
538 0 72.1122 10.5391 760 65.7737 574.143 514.709
539 0 76.0611 11.2673 857 65.7923 574.296 513.704
540 0 77.086 13.1282 1012 64.0879 574.323 513.738
541 0 80.0971 11.4611 918 65.3355 574.436 515.557
542 0 85.1127 14.3692 1223 62.5715 574.106 508.738
543 0 85.0715 11.2964 961 66.6243 574.961 507.365
544 0 88.1386 11.4819 1012 66.1097 573.555 509.615
545 1 46.0834 11.0886 511 65.4716 574.587 527.72
546 0 47.1093 11.3778 536 64.2351 574.209 527.349
547 0 48.0562 10.6334 511 65.4207 574.436 530.407
548 0 51.0687 11.0439 564 64.2199 574.541 528.427
549 0 54.0456 11.7863 637 64.0612 574.63 526.521
550 0 56.0751 12.7508 715 62.7832 574.838 525.326
551 0 55.0518 10.4629 576 66.2378 574.056 524.609
552 0 58.0896 11.9471 694 63.8199 574.259 526.879
553 0 61.1133 13.3195 814 62.6192 574.44 524.149
554 0 62.1519 10.9088 678 66.2212 575.131 521.788
555 0 64.1507 12.3303 791 65.2718 575.153 519.48
556 0 67.1315 11.7531 789 65.2788 575.729 522.01
557 0 68.0946 13.7896 939 63.2577 574.253 520.571
558 0 73.1672 11.8906 870 65.8529 573.038 517.339
559 0 76.13 13.5558 1032 64.3178 573.147 515.216
560 0 77.1447 13.5071 1042 64.1478 574.184 516.154
561 0 81.1434 12.2622 995 66.0834 574.212 515.479
562 1 40.0782 12.3259 494 64.0587 575.126 534.348
563 0 41.0686 11.4199 469 66.2367 575.418 532.923
564 0 45.0895 11.3995 514 65.0233 575.031 534.959
565 0 46.0787 11.8059 544 64.2151 575.3 531.737
566 0 49.092 12.059 592 64.2128 574.644 529.583
567 0 49.1641 10.8616 534 64.9925 574.989 531.213
568 0 50.1317 11.4897 576 65.2257 573.812 530.273
569 0 53.1196 12.9331 687 62.802 573.801 529.574
570 0 53.0367 12.859 682 63.7947 574.547 528.183
571 0 56.0367 12.0635 676 64.0266 574.756 527.441
572 0 54.1222 10.4948 568 66.9613 574.489 524.472
573 0 58.0922 13.3237 774 63.5788 574.654 523.895
574 0 59.1463 13.2215 782 63.7506 574.715 522.523
575 0 61.1428 11.465 701 65.98 575.02 522.849
576 0 64.1162 11.7755 755 65.3457 574.638 522.918
577 0 66.0807 12.515 827 64.2273 574.505 521.409
578 0 69.1115 11.9228 824 64.7731 574.882 520.221
579 0 70.1158 11.21 786 66.0254 575.284 518.136
580 0 75.0425 12.0598 905 64.9227 575.806 516.31
581 0 75.0583 13.0299 978 64.2454 575.945 514.334
582 0 78.0986 11.9848 936 65.1282 576.469 511.856
583 0 81.1299 13.9899 1135 62.2537 576.411 513.917
584 1 45.0805 10.9138 492 62.0955 576.518 534.055
585 0 45.0463 12.8978 581 60.9552 576.43 531.69
586 0 46.0452 11.9882 552 63.0453 576.672 529.379
587 0 48.0587 11.7148 563 63.3304 575.984 529.6
588 0 47.1702 10.4091 491 65.7495 575.035 529.165
589 0 52.0434 14.0652 732 59.7937 575.574 528.189
590 0 52.1011 11.9767 624 63.1138 575.569 526.986
591 0 53.0941 11.037 586 63.7782 574.447 525.959
592 0 54.0742 12.9452 700 61.9057 574.82 524.723
593 0 56.1501 12.1104 680 62.7632 574.315 524.229
594 0 57.1038 11.4703 655 63.4534 574.603 525.342
595 0 59.1732 12.8099 758 61.6174 574.375 524.31
596 0 61.1612 12.0011 734 62.7984 574.14 522.353
597 0 65.1473 12.5255 816 61.5282 574.353 523.1
598 0 63.1409 10.8804 687 64.083 574.787 521.952
599 0 63.0774 11.795 744 64.2581 575.25 518.62
600 0 67.0847 11.5227 773 63.8538 574.899 520.547
601 0 71.149 12.9587 922 62.2028 574.085 519.182
602 0 73.1283 12.2388 895 63.1989 575.078 518.508
603 0 72.1607 12.292 887 63.0248 575.507 519.714
604 0 76.1549 13.4988 1028 62.7257 574.969 514.696
605 1 37.0183 12.5884 466 63.0966 576.034 533.646
606 0 39.0397 11.5779 452 64.25 576.159 533.142
607 0 42.0182 11.8282 497 63.2475 575.256 534.517
608 0 42.059 11.8405 498 64.3695 575.649 531.651
609 0 42.1028 11.2819 475 65.1537 575.036 531.36
610 0 43.1159 12.2461 528 64.5284 574.915 528.831
611 0 44.0618 12.6413 557 64.2747 574.492 530.835
612 0 48.0899 12.3103 592 64.6216 574.986 529.446
613 0 49.0524 13.8423 679 62.9323 574.875 529.439
614 0 49.0594 11.374 558 66.2849 575.344 527.889
615 0 53.1488 13.2647 705 63.9915 576.157 527.363
616 0 54.1552 12.0579 653 64.6907 576.364 526.282
617 0 54.149 12.0039 650 65.2631 576.069 526.451
618 0 57.1014 11.5409 659 66.091 575.712 524.2
619 0 58.1592 13.2395 770 63.9805 575.118 524.257
620 0 61.1322 13.1027 801 63.0649 574.753 524.167
621 0 63.1027 12.3133 777 64.7169 575.236 520.147
622 0 64.0555 12.0052 769 65.0975 575.488 519.545
623 0 67.1669 13.5186 908 62.4053 575.716 521.916
624 0 70.1448 14.0139 983 62.1272 575.823 518.191
625 0 72.1085 13.868 1000 62.492 575.623 516.414
626 0 73.0785 13.725 1003 62.5075 574.616 517.58
627 0 76.1007 13.469 1025 62.8341 574.826 513.129
628 1 38.07 10.5595 402 65.2736 575.756 534.281
629 0 38.1041 13.0694 498 62.998 575.245 533.143
630 0 39.0306 12.0675 471 64.9363 574.909 532.045
631 0 40.0535 11.4347 458 65.3952 575.194 529.808
632 0 43.0832 12.2553 528 63.8523 575.388 527.795
633 0 43.2056 12.2669 530 64.3962 576.004 527.551
634 0 45.1688 12.9736 586 63.1706 575.935 529.394
635 0 49.1596 12.5103 615 62.6943 575.315 528.605
636 0 48.1191 11.6586 561 63.9822 575.294 528.788
637 0 49.253 12.1211 597 63.9548 575.906 526.375
638 0 52.0522 13.3712 696 61.9914 576.21 525.72
639 0 53.0349 13.6325 723 61.5228 575.815 524.234
640 0 54.1704 11.9622 648 63.6373 575.37 522.221
641 0 55.1875 11.162 616 64.4091 576.06 524.458
642 0 59.1334 12.9707 767 62.339 575.274 520.778
643 0 62.1441 14.0319 872 60.8956 575.286 521.486
644 0 63.2037 13.4644 851 61.745 574.995 521.338
645 0 64.1711 12.0147 771 63.7458 574.907 522.367
646 0 65.099 13.1953 859 62.901 574.498 519.021
647 0 70.1861 13.051 916 62.6856 574.211 517.14
648 0 71.0624 12.6368 898 63.8641 575.007 516.712
649 0 72.1535 12.6674 914 64.2254 575.277 517.259
650 0 77.1469 14.1678 1093 61.8591 575.225 516.348
651 0 76.2194 12.7395 971 64.4233 575.841 516.911
652 0 80.0843 13.9228 1115 63.1623 574.974 511.361
653 0 81.1024 13.3535 1083 64.2059 575.674 510.05
654 1 42.0398 11.9886 504 65.6131 575.492 530.569
655 0 44.0306 12.1279 534 65.4476 575.434 530.618
656 0 43.2391 12.6737 548 66.6679 575.443 530.708
657 0 45.0329 13.7677 620 65.3177 575.582 528.256
658 0 46.0572 10.7475 495 68.6889 575.97 530.038
659 0 49.0949 13.7285 674 64.4199 574.613 529.895
660 0 51.0759 12.4716 637 66.0879 575.308 528.834
661 0 52.1177 14.3521 748 64.3422 575.201 525.283
662 0 52.0329 12.4152 646 67.4396 575.252 526.234
663 0 56.1655 12.8193 720 65.8667 575.464 526.462
664 0 57.0706 13.2993 759 66.1568 575.299 522.049
665 0 59.1448 12.1228 717 66.7629 575.204 524.194
666 0 61.1579 12.6394 773 66.1203 575.942 523.342
667 0 62.0839 14.4804 899 64.6529 574.839 520.402
668 0 66.1125 13.7644 910 64.8989 575.644 520.747
669 0 67.0837 12.5515 842 65.8884 575.352 520.659
670 0 71.234 14.6138 1041 62.8866 575.614 520.091
671 0 73.032 14.7333 1076 63.0474 575.381 515.509
672 0 73.2207 11.3493 831 67.4103 575.788 514.515
673 0 77.2804 12.1635 940 65.4319 575.819 514.398
674 0 76.1021 13.0614 994 64.5111 575.644 512.447
675 0 82.1091 11.7892 968 65.8822 575.854 510.531
676 0 87.2174 13.5638 1183 62.9611 575.225 511.462
677 1 42.0426 11.0126 463 64.1447 575.512 533.121
678 0 43.0216 12.5518 540 62.5963 575.207 531.67
679 0 43.0278 12.5268 539 63.141 576.045 532.508
680 0 45.0461 12.6981 572 63.6923 576.1 532.26
681 0 45.0246 14.0812 634 62.5946 575.871 531.402
682 0 47.1091 12.1633 573 64.8743 576.3 528.581
683 0 48.1464 11.9635 576 65.658 576.856 528.106
684 0 51.0385 13.7347 701 62.3352 576.241 529.217
685 0 52.0629 11.9471 622 64.881 576.225 526.415
686 0 53.1107 12.8034 680 64.1691 576.126 526.009
687 0 54.0592 12.6343 683 64.6018 576.145 522.201
688 0 56.224 13.5885 764 63.2657 575.889 523.441
689 0 58.0639 14.8285 861 61.8943 576.591 523.994
690 0 59.2222 12.5966 746 64.2265 575.985 521.091
691 0 61.0706 12.3627 755 64.8371 576.396 521.93
692 0 63.2147 13.1299 830 63.8735 576.12 522.52
693 0 66.1521 11.4131 755 65.5457 575.734 520.303
694 0 66.1546 12.4708 825 64.1236 575.509 520.876
695 0 71.2302 12.958 923 63.6609 575.648 517.44
696 0 73.1742 11.9988 878 64.8679 575.202 519.116
697 0 76.1411 13.475 1026 63.4669 575.317 515.173
698 0 76.1137 12.7835 973 64.9188 575.77 515.504
699 0 81.0857 12.6286 1024 64.3848 575.354 514.821
700 0 85.085 12.1761 1036 64.7375 575.213 509.488
701 1 45.0686 11.2495 507 64.5128 576.13 531.602
702 0 46.0484 11.4445 527 64.129 575.873 530.032
703 0 45.0805 11.0025 496 64.2298 575.159 531.766
704 0 48.0888 12.2482 589 63.2292 574.927 527.784
705 0 47.0752 12.1083 570 63.714 574.572 527.795
706 0 50.0807 11.122 557 64.5727 575.478 525.014
707 0 50.098 10.5992 531 65.2542 574.772 526.755
708 0 52.0618 12.0626 628 64.0939 575.667 523.317
709 0 53.1583 10.7415 571 65.0438 575.786 524.356
710 0 55.1263 12.0813 666 63.7943 575.799 524.551
711 0 58.1026 14.44 839 61.8176 576.144 521.628
712 0 59.0363 12.3145 727 64.2957 575.638 521.333
713 0 62.1202 12.2504 761 64.1104 575.779 520.792
714 0 64.0811 12.4062 795 64.1044 575.512 520.663
715 0 66.0447 13.0669 863 62.7532 575.526 522.101
716 0 71.3177 12.9421 923 63.0228 575.585 516.361
717 0 73.2273 11.8399 867 64.3126 575.955 517.353
718 0 75.1851 11.4783 863 64.7265 575.466 516.183
719 0 76.0767 12.1982 928 64.3675 575.469 513.29
720 0 79.0814 12.5567 993 63.4824 575.85 514.086
721 0 85.239 13.0574 1113 61.6819 575.201 516.695
722 0 86.0808 13.9985 1205 61.9519 575.103 512.529
723 0 89.1924 12.4338 1109 63.8395 574.371 511.858
724 1 43.1457 9.34045 403 65.0298 575.395 533.402
725 0 45.1022 12.9484 584 62.6627 574.745 530.563
726 0 47.0233 11.3986 536 63.7034 574.903 531.998
727 0 50.1613 12.4199 623 62.4013 575.934 530.483
728 0 50.1189 12.7696 640 62.3406 575.392 530.241
729 0 53.3091 11.2176 598 63.8595 574.804 528.497
730 0 53.0974 12.543 666 63.2913 574.913 527.126
731 0 54.0971 12.2373 662 63.4547 574.796 527.205
732 0 55.1415 13.1299 724 62.8356 574.425 525.432
733 0 57.0569 12.7592 728 62.908 574.865 526.776
734 0 59.146 13.1708 779 62.5494 575.345 524.012
735 0 61.0753 12.0834 738 63.4255 575.726 523.344
736 0 65.0827 12.0769 786 63.3944 575.164 522.056
737 0 67.054 13.0343 874 61.7952 575.422 520.249
738 0 65.2793 13.3273 870 62.3552 574.995 519.939
739 0 69.0918 12.3893 856 62.8925 574.82 521.074
740 0 73.1393 12.483 913 63.3834 574.955 519.433
741 0 73.142 12.797 936 63.5 575.032 516.45
742 0 76.1052 12.4039 944 64.1155 575.068 516.243
743 0 78.1068 12.2781 959 64.4348 574.794 514.628
744 0 83.1485 11.5697 962 64.9168 574.549 511.612
745 0 82.2128 11.0567 909 66.2893 574.341 511.641
746 0 85.1179 12.3006 1047 65.4155 574.882 510.844
747 0 87.1851 10.6555 929 67.7567 574.608 509.008
748 1 47.0995 11.8685 559 64.2057 574.453 530.943
749 0 45.0163 11.2848 508 66.2441 575.195 528.419
750 0 46.0246 11.1028 511 66.362 576.029 529.804
751 0 48.0464 12.925 621 64.3559 575.275 527.717
752 0 51.0792 11.2766 576 65.6649 574.545 528.861
753 0 52.0955 12.0548 628 65.6927 575.231 525.723
754 0 52.0355 10.9348 569 67.3673 574.866 527.183
755 0 55.1361 10.6645 588 67.3163 575.022 525.951
756 0 58.1279 11.2683 655 66.0931 575.122 526.595
757 0 59.165 10.6482 630 66.4841 574.806 526.39
758 0 63.0921 12.2678 774 65.0995 575.416 522.64
759 0 66.1328 11.8247 782 65.0793 575.708 522.987
760 0 68.0609 12.768 869 64.6398 575.304 520.822
761 0 70.0337 12.1656 852 65.9448 574.971 518.313
762 0 74.1355 12.7334 944 64.607 574.967 520.595
763 0 77.2786 11.5944 896 65.9208 575.136 520.776
764 0 75.3077 10.1982 768 68.4479 575.297 518.126
765 0 80.1483 12.427 996 65.8554 574.198 514.108
766 0 83.128 12.7875 1063 65.5974 574.238 515.283
767 1 42.0453 11.226 472 65.0191 574.676 534.847
768 0 42.0457 9.34697 393 68.5598 573.667 532.827
769 0 45.0936 11.4872 518 65.749 573.764 531.251
770 0 46.0579 11.1599 514 64.893 574.728 534.566
771 0 49.03 12.115 594 65.4057 574.948 528.882
772 0 50.0915 11.8184 592 65.5709 574.377 532.198
773 0 50.0788 12.061 604 66.1921 574.641 529.831
774 0 49.1069 10.9557 538 67.8364 574.725 531.266
775 0 52.1498 11.6204 606 66.5611 574.728 530.079
776 0 51.0732 10.1031 516 69.3081 574.585 527.446
777 0 55.0705 13.4555 741 64.5452 574.692 528.132
778 0 58.0592 11.9878 696 65.5575 574.28 528.438
779 0 61.1437 12.9531 792 64.5518 574.75 525.244
780 0 63.1227 12.1034 764 65.2552 574.458 525.31
781 0 64.2056 13.6281 875 63.3246 574.105 525.135
782 0 67.294 12.1408 817 65.0906 574.574 524.572
783 0 69.0545 13.4532 929 63.7094 574.753 520.339
784 0 72.0525 12.3521 890 63.9674 574.534 520.603
785 0 73.0761 13.4517 983 62.8352 574.835 519.298
786 0 76.0898 12.1961 928 64.0916 574.797 519.303
787 1 41.1289 12.3271 507 63.0631 575.509 534.065
788 0 40.0186 10.2952 412 65.784 574.784 534.728
789 0 44.0526 12.4624 549 62.2131 574.577 536.778
790 0 44.0288 12.242 539 62.6753 573.822 536.378
791 0 46.1134 11.4283 527 64.6015 574.888 535.182
792 0 47.0546 12.6449 595 63.4555 574.22 533.024
793 0 49.1495 12.5128 615 63.3919 574.566 532.707
794 0 52.0513 12.7374 663 62.3831 575.379 532.363
795 0 52.2121 11.8555 619 64.8368 575.541 529.123
796 0 52.0493 12.6419 658 64.0805 574.728 531.681
797 0 54.0789 12.8331 694 63.9121 574.903 530.455
798 0 58.0534 13.4704 782 62.4783 575.437 529.861
799 0 58.1064 13.1999 767 63.5515 575.312 526.601
800 0 62.0877 13.4165 833 62.5066 575.492 527.45
801 0 61.0719 13.0829 799 63.577 575.34 525.579
802 0 64.0678 12.5024 801 64.4395 574.76 524.984
803 0 67.1327 13.9723 938 62.0938 575.591 525.716
804 0 69.1226 14.7275 1018 61.665 575.643 522.125
805 0 72.1958 13.4495 971 62.7662 574.996 522.316
806 0 73.0936 13.7632 1006 62.5348 575.395 521.858
807 0 74.1788 14.2628 1058 62.5416 574.864 519.526
808 0 78.1429 13.4369 1050 63.4943 574.29 519.009
809 0 79.0867 12.5811 995 65.195 574.522 518.529
810 0 81.1612 13.0604 1060 64.4217 575.293 517.588
811 1 41.0696 11.9797 492 64.3516 575.799 536.823
812 0 42.0715 12.5501 528 64.1345 576.256 536.498
813 0 42.0491 11.986 504 65.9623 575.502 533.597
814 0 46.1126 12.5562 579 64.2642 575.195 535.06
815 0 45.0536 10.8537 489 66.9366 575.55 534.006
816 0 50.2269 14.0363 705 62.261 575.478 533.633
817 0 49.2337 12.4915 615 64.8033 575.166 533.255
818 0 52.1437 15.9751 833 60.3589 574.754 532.875
819 0 53.1737 13.2208 703 63.7952 574.768 530.573
820 0 55.1552 13.1447 725 63.6938 576.025 528.692
821 0 55.1581 11.8024 651 65.7266 575.84 529.684
822 0 60.1116 12.4269 747 63.9987 575.511 529.507
823 0 57.081 12.7012 725 64.9669 575.2 527.168
824 0 61.1826 13.7457 841 63.6944 575.231 525.586
825 0 65.192 15.4774 1009 60.6145 574.958 526.366
826 0 66.1283 12.2943 813 65.0357 574.487 524.236
827 0 69.1203 12.3119 851 64.7732 574.582 523.469
828 0 73.056 13.3733 977 63.3337 574.606 523.241
829 0 72.1137 13.5203 975 63.8646 574.836 521.473
830 0 75.123 11.8739 892 65.5303 574.657 521.015
831 1 37.196 10.8076 402 66.6617 575.366 539.117
832 0 40.2147 10.245 412 66.1044 575.57 540.439
833 0 41.0943 11.2911 464 66.6509 574.851 537.444
834 0 41.168 12.0239 495 66.2667 575.01 536.174
835 0 44.0353 14.3975 634 62.5946 574.746 537.071
836 0 46.1965 12.8581 594 64.2205 575.081 537.217
837 0 47.0668 15.9136 749 47.3338 574.31 540.302
838 0 44.1824 12.7653 564 66.3475 574.872 534.383
839 0 49.187 12.9709 638 64.7868 575.31 534.98
840 0 48.0997 12.4117 597 66.2663 574.75 534.64
841 0 50.1733 12.6761 636 65.684 575.047 532.533
842 0 54.2198 13.4453 729 63.7613 575.337 533.856
843 0 50.302 11.7689 592 67.5422 574.976 531.961
844 0 54.119 14.1355 765 64.281 574.599 531.38
845 0 56.1791 13.7596 773 64.5278 575.186 529.955
846 0 58.1917 13.8851 808 63.724 575.671 531.729
847 0 61.181 13.9095 851 63.9589 574.392 528.435
848 0 62.1267 13.1827 819 65.2295 574.911 527.524
849 0 64.0788 12.391 794 66.3627 574.994 526.887
850 0 65.0973 12.7962 833 65.8391 574.76 527.574
851 0 70.1705 13.4529 944 64.304 574.749 526.833
852 0 72.3406 12.2891 889 65.8189 574.523 524.931
853 0 74.1033 13.1303 973 65.2641 574.836 521.792
854 0 74.3594 11.3772 846 67.2991 574.431 522.387
855 0 79.445 13.4181 1066 65.2298 573.886 519.098
856 1 42.0519 14.1016 593 63.7589 574.801 539.204
857 0 43.1481 11.5648 499 67.4008 574.818 537.545
858 0 47.1009 13.4817 635 65.0756 574.819 536.674
859 0 49.2147 12.6995 625 65.88 575.576 535.987
860 0 49.2316 11.8623 584 68.1096 575.301 535.092
861 0 48.1483 12.6692 610 69.1508 576.049 534.733
862 0 50.2044 11.493 577 70.7262 575.3 534.981
863 0 54.1691 13.864 751 67.012 575.479 534.142
864 0 55.1068 13.5192 745 67.945 574.58 532.937
865 0 57.2511 12.9779 743 67.2988 574.346 534.703
866 0 58.1797 12.7364 741 67.9501 575.202 533.004
867 0 60.0616 14.0356 843 66.9644 575.094 531.093
868 0 62.1442 12.7767 794 68.7695 575.786 531.253
869 0 64.2274 13.6546 877 68.2144 575.664 527.982
870 0 66.1596 13.8755 918 67.8889 575.592 527.203
871 0 68.1012 13.8764 945 68.6868 575.188 525.491
872 0 71.3458 12.5586 896 69.3996 575.324 526.019
873 0 72.2911 12.671 916 70.2948 575.39 523.954
874 0 76.1232 14.135 1076 67.2045 575.756 524.96
875 0 78.0888 14.3683 1122 67.574 575.494 521.822
876 0 81.3553 13.7053 1115 68.9668 574.754 518.293
877 0 83.3339 13.6079 1134 69.1129 575.251 517.764
878 1 42.2516 12.4019 524 69.8702 575.511 538.328
879 0 41.2313 12.9756 535 69.471 575.557 538.48
880 0 42.22 11.3217 478 72.0983 575.079 538.167
881 0 45.1525 14.0856 636 69.0849 574.599 535.415
882 0 47.1562 13.8264 652 68.8712 574.462 535.36
883 0 47.2679 13.0109 615 71.1268 575.607 532.717
884 0 51.5009 14.3299 738 67.9024 576.175 531.068
885 0 52.2439 14.0495 734 68.3787 575.322 533.044
886 0 53.3425 12.5791 671 70.152 576.539 533.595
887 0 55.4863 14.0756 781 68.6697 576.597 529.324
888 0 56.1944 12.1008 680 70.9838 575.847 530.468
889 0 58.2813 14.104 822 68.045 576.203 529.645
890 0 59.3966 13.553 805 68.9143 576.302 529.193
891 0 63.158 12.73 804 69.4353 576.835 528.047
892 0 64.2161 14.9495 960 66.6365 575.97 524.189
893 0 66.2539 14.3388 950 67.5505 576.235 524.747
894 0 69.2473 12.9825 899 68.5862 575.865 523.297
895 0 71.3263 14.5248 1036 66.6631 576.319 520.91
896 0 74.5387 13.7378 1024 67.5391 576.364 520.263
897 0 76.3944 13.3125 1017 67.1455 575.925 524.399
898 0 79.1426 13.9116 1101 67.7784 575.923 519.195
899 0 84.3196 13.5674 1144 67.479 576.641 517.741
900 0 85.4243 12.4438 1063 68.8871 576.11 517.06
901 0 87.135 12.9454 1128 68.1197 576.034 515.91
902 0 89.5101 13.2611 1187 68.337 575.555 512.722
903 1 43.1648 12.1858 526 69.5057 576.316 535.485
904 0 47.3423 13.4341 636 67.1777 575.671 535.613
905 0 46.2233 12.2233 565 69.2389 576.565 536.481
906 0 48.3446 12.3488 597 69.6918 576.219 533.39
907 0 49.3448 13.6995 676 67.7204 576.13 533.676
908 0 52.4027 13.568 711 67.0985 576.637 533.229
909 0 55.4622 13.7391 762 67.1483 576.593 530.29
910 0 57.2097 13.6341 780 66.9859 576.597 530.555
911 0 59.2957 14.1494 839 65.9654 576.231 531.338
912 0 57.1937 13.9526 798 67.7143 577.306 527.281
913 0 62.2499 14.9398 930 64.7151 577.13 529.937
914 0 64.2265 14.3087 919 65.5365 576.882 528.482
915 0 66.1666 14.0252 928 65.792 575.975 525.672
916 0 66.1841 15.1698 1004 64.8596 575.887 523.237
917 0 69.1507 12.9427 895 67.0112 576.279 524.564
918 0 73.2643 13.7175 1005 66.0438 576.44 523.047
919 0 73.359 14.245 1045 65.512 576.336 523.061
920 0 77.25 16.0259 1238 63.5081 576.086 520.425
921 0 77.3171 14.059 1087 66.2061 575.535 520.776
922 0 81.2644 14.6436 1190 65.3185 575.84 517.192
923 0 83.4631 13.6348 1138 66.1582 576.127 516.906
924 0 87.3063 13.7218 1198 65.9942 575.393 517.832
925 0 90.202 13.8356 1248 65.8574 575.623 516.111
926 1 44.3008 11.6476 516 69.8217 575.612 534.238
927 0 48.2044 12.7167 613 67.8858 575.777 534.786
928 0 50.2012 12.4698 626 68.1821 576.307 535.479
929 0 50.2306 15.1103 759 66.0369 576.522 535.213
930 0 52.163 13.6879 714 67.9412 575.492 533.489
931 0 55.236 14.7006 812 66.9877 575.278 531.491
932 0 55.1602 14.5032 800 67.8838 575.444 530.782
933 0 58.1263 14.0728 818 67.5636 575.335 531.482
934 0 60.2898 14.0488 847 68.3636 575.544 529.456
935 0 60.3057 13.7632 830 68.6398 575.706 527.116
936 0 62.3537 13.6479 851 69.0576 575.381 526.541
937 0 63.1848 14.0224 886 68.7686 576.297 526.851
938 0 67.2096 13.6736 919 69.1023 576.311 525.205
939 0 67.3949 13.7102 924 68.6115 575.689 524.83
940 0 69.2037 13.4964 934 69.3298 575.847 524.018
941 0 71.3206 14.0352 1001 69.1878 576.233 521.335
942 0 75.2065 15.3444 1154 67.6023 575.346 519.393
943 0 78.3228 15.1552 1187 67.54 575.22 518.043
944 0 80.5239 15.3247 1234 67.3112 575.921 517.31
945 0 82.2111 13.8789 1141 69.5513 575.764 517.13
946 0 88.2816 17.1157 1511 64.1985 575.675 517.587
947 0 88.1787 16.183 1427 66.5487 575.779 511.886
948 0 91.437 15.672 1433 67.3203 576.133 511.181
949 0 93.1656 14.8338 1382 68.7315 575.948 512.446
950 0 99.3369 14.5263 1443 68.3694 576.626 513.357
951 0 101.406 14.8907 1510 68.0305 577.056 511.23
952 1 51.1434 13.1395 672 69.6845 577.241 533.476
953 0 54.153 14.1451 766 68.5875 576.188 531.245
954 0 56.1799 15.219 855 67.9251 576.437 531.192
955 0 57.1559 13.8043 789 69.308 576.412 530.133
956 0 61.1237 13.8081 844 68.282 575.736 530.382
957 0 62.3311 13.7331 856 68.9603 576.018 528.708
958 0 62.3735 13.2909 829 70.0097 575.783 528.212
959 0 65.2468 14.2536 930 69.2871 574.746 524.511
960 0 69.2086 13.5099 935 69.6053 574.84 525.293
961 0 70.2974 14.524 1021 68.2272 575.359 522.18
962 0 72.2054 13.794 996 68.9177 575.749 523.385
963 0 76.4079 14.0431 1073 68.4408 576.256 521.493
964 0 78.2342 14.1115 1104 68.7346 576.439 519.929
965 0 80.2759 14.7616 1185 68.0895 576.008 518.26
966 0 82.4202 14.1713 1168 68.8519 576.003 512.944
967 0 86.2508 14.3767 1240 67.9089 576.589 516.002
968 0 87.264 13.5336 1181 69.5004 575.829 514.644
969 0 91.359 13.9888 1278 69.18 576.038 511.779
970 0 96.231 14.8809 1432 67.3149 575.689 511.005
971 0 96.2791 14.5203 1398 68.8448 576.451 508.858
972 1 49.3522 12.502 617 70.1945 577.203 531.58
973 0 53.2825 14.0759 750 67.6493 577.047 531.353
974 0 53.2448 12.527 667 69.991 577.007 530.946
975 0 55.202 12.6626 699 70.1316 577.436 530.655
976 0 56.1553 12.9284 726 69.8209 576.923 530.011
977 0 59.2197 14.1845 840 68.6393 576.546 528.649
978 0 62.3648 13.2767 828 69.25 577.058 527.937
979 0 63.3294 14.0851 892 68.907 578.084 526.464
980 0 62.1622 11.9848 745 72.3275 576.946 525.613
981 0 64.2691 12.4788 802 71.702 576.732 525.496
982 0 68.2564 14.0353 958 68.9081 575.967 523.22
983 0 69.4431 14.0691 977 69.6694 575.99 520.646
984 0 72.3271 14.1994 1027 70.1042 576.458 520.229
985 0 75.2719 11.9567 900 72.0844 577.078 522.094
986 0 78.3204 13.1511 1030 70.0883 576.553 522.224
987 0 80.2083 12.7294 1021 71.7581 576.163 518.303
988 0 83.2885 15.2842 1273 68.1218 575.545 517.54
989 0 78.1326 11.5445 902 74.9656 575.619 512.041
990 0 80.1336 12.9159 1035 73.772 576.243 509.844
991 0 81.142 10.9068 885 75.5514 575.869 503.958
992 1 51.1879 12.9523 663 68.3544 576.481 535.459
993 0 48.2035 12.0531 581 72.1652 577.024 532.54
994 0 54.3493 14.6644 797 67.0878 577.331 533.484
995 0 52.1878 12.5508 655 70.7374 576.357 531.869
996 0 53.2061 12.9496 689 70.0479 576.071 532.244
997 0 55.2304 13.3622 738 71.0339 576.961 528.049
998 0 57.2717 13.9161 797 69.0828 576.12 529.066
999 0 59.1681 12.794 757 71.0277 576.174 527.793
1000 0 60.2018 12.292 740 70.9 576.296 527.896
1001 0 66.2102 15.0279 995 66.8573 576.594 526.181
1002 0 66.2713 14.8179 982 67.9969 576.451 525.599
1003 0 71.1899 13.5834 967 68.4054 576.455 525.908
1004 0 71.3692 13.185 941 70.2476 576.831 522.063
1005 0 73.1296 13.8248 1011 69.3264 576.636 521.813
1006 0 76.168 15.0194 1144 67.722 575.955 520.471
1007 0 76.2401 12.6836 967 71.1282 576.163 518.711
1008 0 80.2536 14.1676 1137 68.5242 575.599 519.079
1009 0 83.1597 14.418 1199 68.6772 575.41 516.244
1010 0 85.2509 13.8298 1179 69.676 575.425 516.656
1011 0 88.3415 12.1347 1072 71.6595 575.74 512.669
1012 0 89.2627 13.4771 1203 70.3732 575.807 512.998
1013 0 92.2076 11.6368 1073 71.7558 576.269 513.677
1014 0 96.3324 14.2216 1370 69.027 575.475 509.991
1015 0 100.402 13.8942 1395 68.0746 574.868 511.582
1016 0 101.541 12.911 1311 70.0564 575.016 507.693
1017 0 104.322 15.1167 1577 67.3576 575.303 506.798
1018 1 54.2465 12.3695 671 69.4784 576.089 530.151
1019 0 54.3007 11.6205 631 70.3391 575.818 527.666
1020 0 59.2277 12.7643 756 68.6402 574.905 528.479
1021 0 61.1871 13.6303 834 65.9053 574.86 530.861
1022 0 62.3129 12.2447 763 68.557 574.877 527.674
1023 0 64.3635 13.113 844 67.2524 575.024 527.986
1024 0 67.338 13.5288 911 66.5082 574.141 524.867
1025 0 70.2275 14.9799 1052 63.9553 574.184 526.3
1026 0 68.1712 12.63 861 68.108 574.89 522.355
1027 0 72.2842 13.1149 948 67.3302 575.29 522.151
1028 0 78.2813 13.4132 1050 66.3848 574.993 522.133
1029 0 78.0902 13.5228 1056 66.6894 574.741 520.493
1030 0 80.3055 14.3328 1151 65.7958 574.508 518.495
1031 0 82.3853 13.0849 1078 67.8247 574.049 516.934
1032 0 86.3488 14.4183 1245 65.6233 574.334 515.751
1033 0 87.2023 12.4997 1090 68.1367 574.458 514.078
1034 0 90.153 15.5624 1403 64.7691 573.904 511.238
1035 0 94.2719 12.4003 1169 67.4508 573.85 512.719
1036 0 97.2286 14.1008 1371 65.8366 573.878 509.753
1037 1 49.3547 12.5419 619 66.9855 574.528 533.378
1038 0 49.2078 10.4049 512 69.6406 573.609 532.898
1039 0 51.3254 11.807 606 68.8861 574.101 529.881
1040 0 55.2246 11.082 612 68.9461 574.306 531.582
1041 0 55.0303 11.7572 647 69.4606 573.825 527.025
1042 0 60.3177 14.0091 845 65.6178 573.867 526.486
1043 0 60.2502 13.2614 799 66.781 574.406 526.277
1044 0 64.5107 14.5402 938 64.2367 574.037 526.236
1045 0 67.3022 13.0308 877 65.959 573.783 522.399
1046 0 66.3188 12.6661 840 67.1131 573.825 521.665
1047 0 70.5141 12.4798 880 66.7943 573.392 522.241
1048 0 71.3345 12.6306 901 66.7825 573.96 519.132
1049 0 74.4429 12.7212 947 66.2133 574.435 521.314
1050 0 75.3661 12.5786 948 66.6624 573.636 519.924
1051 0 78.286 13.1697 1031 66.0883 573.789 518.996
1052 0 79.2049 11.7796 933 67.3998 573.074 518.019
1053 0 82.3077 13.2916 1094 66.6335 573.431 515.025
1054 0 90.2961 14.3085 1292 64.4721 573.413 517.473
1055 1 47.4616 12.5786 597 65.0503 573.839 537.637
1056 0 49.2479 13.1173 646 64.8266 574.24 536.085
1057 0 49.224 11.661 574 67.8258 574.308 534.434
1058 0 51.4095 13.4411 691 65.9884 574.488 533.48
1059 0 50.382 12.3854 624 67.8622 574.075 532.989
1060 0 54.4246 13.0456 710 66.2507 573.631 534.654
1061 0 56.1438 14.0532 789 65.7148 573.961 531.728
1062 0 56.438 13.4838 761 66.5309 574.083 532.996
1063 0 61.3694 13.8505 850 65.1847 574.474 532.945
1064 0 61.3135 14.646 898 65.4811 573.954 530.032
1065 0 64.1535 12.8598 825 67.4848 575.072 531.659
1066 0 66.334 14.231 944 65.5816 575.279 531.505
1067 0 68.2967 14.2906 976 66.1055 574.501 530.757
1068 0 68.3758 13.1041 896 68.2991 574.638 527.61
1069 0 72.2642 13.589 982 66.2413 574.387 531.826
1070 0 74.3305 13.3592 993 68.9476 574.338 524.259
1071 0 79.6063 15.7651 1255 65.5139 573.413 524.004
1072 0 81.4075 13.6228 1109 67.9378 574.698 526.424
1073 0 81.3128 12.8147 1042 70.2169 574.976 524.419
1074 0 85.493 14.2819 1221 68.3456 574.351 521.314
1075 0 88.3336 14.7056 1299 68.2964 574.532 520.117
1076 0 90.4405 14.0092 1267 69.2723 574.509 518.517
1077 0 93.3749 14.7042 1373 68.3999 575.237 519.717
1078 1 48.2612 13.4684 650 70.2815 575.638 536.362
1079 0 51.3308 12.8968 662 70.4018 575.701 536.219
1080 0 50.2721 13.5463 681 70.6182 574.489 536.194
1081 0 54.2145 14.2028 770 69.4844 575.231 534.379
1082 0 55.376 14.2481 789 69.3536 574.657 533.716
1083 0 56.3791 12.5224 706 71.8031 574.31 532.446
1084 0 61.4219 15.304 940 67.3745 575.198 531.318
1085 0 64.1652 14.338 920 67.9196 575.622 532.032
1086 0 63.1117 13.9594 881 68.5789 575.107 531.833
1087 0 67.2879 12.9741 873 69.5361 574.467 530.215
1088 0 69.128 14.8999 1030 67.5718 574.853 528.912
1089 0 71.4225 15.0093 1072 67.7696 575.985 527.391
1090 0 73.2786 14.6427 1073 68.7484 575.153 523.295
1091 0 76.142 14.3416 1092 68.706 574.646 524.161
1092 0 75.2671 13.7909 1038 71.0193 574.348 521.392
1093 0 79.22 14.5797 1155 69.4268 574.778 520.383
1094 0 84.3011 14.4364 1217 68.8882 574.38 519.935
1095 0 86.2121 14.5107 1251 68.9121 574.593 517.376
1096 0 88.3038 13.0572 1153 70.4744 574.471 517.721
1097 0 92.3807 13.5959 1256 70.125 574.65 513.303
1098 1 48.4526 11.3307 549 71.694 575.508 535.479
1099 0 50.2029 13.0869 657 69.1781 575.817 534.813
1100 0 50.1308 11.3104 567 70.9982 575.966 537.399
1101 0 54.182 14.1191 765 67.5699 575.378 533.03
1102 0 53.2069 12.987 691 69.8379 575.019 532.842
1103 0 56.1448 12.4143 697 69.7633 574.549 531.849
1104 0 60.2732 13.4886 813 67.2485 574.996 532.052
1105 0 61.2268 13.6868 838 67.4547 574.857 529.533
1106 0 64.1812 12.1998 783 68.8301 574.945 528.024
1107 0 64.2274 11.8018 758 69.3786 575.318 527.691
1108 0 68.1706 13.3489 910 67.1505 575.112 526.496
1109 0 69.1543 12.6384 874 68.1316 575.31 525.979
1110 0 71.3502 12.8381 916 68.0633 575.132 523.447
1111 0 74.2721 12.6831 942 68.1815 575.236 520.566
1112 0 77.1696 13.2306 1021 67.2311 575.334 520.623
1113 0 83.3184 14.1145 1176 65.6794 575.376 519.642
1114 0 84.1767 13.5548 1141 66.6459 575.189 519.323
1115 1 42.2963 13.2163 559 66.7835 575.02 536.419
1116 0 43.1124 11.528 497 68.7243 575.41 537.151
1117 0 47.192 13.8371 653 66.2282 575.198 535.554
1118 0 47.3069 12.1547 575 68.6696 575.797 535.499
1119 0 48.3056 13.7665 665 67.0677 575.371 534.35
1120 0 49.1878 13.54 666 67.4775 574.646 532.116
1121 0 51.1604 14.1711 725 65.9876 575.477 534.771
1122 0 54.3222 13.0886 711 67.557 575.371 532.293
1123 0 54.2585 12.8828 699 68.279 575.197 529.451
1124 0 57.4083 14.5101 833 65.7299 575.449 529.221
1125 0 59.1985 13.6659 809 66.974 576.384 529.863
1126 0 60.3716 14.3445 866 65.6282 575.67 531.195
1127 0 62.3502 13.0072 811 67.3785 575.106 529.199
1128 0 63.1799 12.1716 769 68.9259 575.748 527.573
1129 0 62.1634 12.3706 769 69.5462 575.506 523.51
1130 0 68.4932 14.1766 971 66.1184 575.333 525.156
1131 0 71.345 12.3485 881 67.941 575.38 524.951
1132 0 72.251 13.6884 989 67.7846 575.759 520.4
1133 0 74.2717 14.7028 1092 66.7326 575.462 519.386
1134 0 76.1961 13.1372 1001 68.6703 575.364 518.58
1135 0 80.2679 13.43 1078 67.5733 575.029 520.779
1136 0 84.302 15.2903 1289 65.3297 575.432 517.222
1137 0 83.2092 12.09 1006 69.6392 575.476 516.264
1138 0 89.2281 14.9504 1334 65.6957 575.735 515.403
1139 0 89.2367 13.1112 1170 68.4479 575.595 514.923
1140 1 46.0886 12.3241 568 67.2359 575.252 536.4
1141 0 50.1678 11.4615 575 69.2104 575.442 532.748
1142 0 51.1943 13.0093 666 66.8694 575.497 533.835
1143 0 51.2313 13.9173 713 66.8443 575.829 529.958
1144 0 52.1871 12.9725 677 67.551 576.227 532.972
1145 0 55.2355 13.6325 753 66.8141 576.117 530.288
1146 0 57.2665 12.6776 726 66.6088 575.928 532.842
1147 0 59.3371 14.4935 860 65.3651 576.263 528.669
1148 0 61.2424 13.569 831 66.4741 576.004 528.608
1149 0 62.2302 13.8196 860 66.257 575.022 529.1
1150 0 65.3944 13.9767 914 65.372 575.03 527.892
1151 0 66.2139 15.6161 1034 64.4923 574.985 522.44
1152 0 67.2612 13.8267 930 66.2763 575.419 522.904
1153 0 68.2681 12.5535 857 68.049 575.868 521.482
1154 0 73.3342 14.8089 1086 64.6575 576.115 521.629
1155 0 73.7013 12.7677 941 67.3741 576.217 518.612
1156 0 76.3581 13.5546 1035 66.2763 575.394 517.659
1157 0 80.2545 13.3949 1075 66.0084 574.967 518.751
1158 0 81.3237 11.9522 972 68.4033 575.646 512.513
1159 0 83.4324 13.3521 1114 66.5682 575.765 515.11
1160 0 87.3677 13.4375 1174 66.1627 575.445 511.799
1161 0 89.4102 13.891 1242 65.8462 574.859 511.159
1162 0 92.3196 13.5074 1247 65.2775 575.295 512.74
1163 0 94.3851 14.2925 1349 65.152 575.256 507.645
1164 0 96.5219 12.1423 1172 67.4113 575.565 509.953
1165 1 50.329 13.3124 670 64.0224 575.339 534.933
1166 0 51.1636 13.7598 704 64.6491 575.351 532.227
1167 0 52.3 13.6903 716 64.9804 575.566 530.084
1168 0 53.3267 12.0015 640 66.7469 575.745 527.975
1169 0 58.2042 14.6897 855 62.9064 576.002 530.4
1170 0 58.5428 13.0161 762 65.2231 576.072 527.948
1171 0 60.3086 12.9003 778 65.8406 575.671 526.22
1172 0 62.498 13.4564 841 64.4293 575.744 525.237
1173 0 65.2411 12.8753 840 65.044 575.962 524.668
1174 0 66.2174 15.0867 999 62.5926 575.237 523.853
1175 0 68.2261 12.2241 834 65.6859 574.918 524.131
1176 0 69.2422 11.1637 773 67.0957 575.858 521.62
1177 0 72.2486 13.8273 999 64.4284 575.826 518.972
1178 0 75.2351 12.0157 904 66.7478 576.162 518.709
1179 0 77.2784 12.5003 966 66.0166 575.682 518.881
1180 0 81.3716 14.4276 1174 63.7853 576.464 516.707
1181 0 82.2386 13.3757 1100 65.2564 575.195 517.489
1182 0 86.3801 12.4566 1076 66.1338 575.375 515.804
1183 0 87.3035 12.7372 1112 66.0836 575.399 513.346
1184 0 92.4136 13.775 1273 64.6646 576.011 512.152
1185 0 95.4706 14.549 1389 63.0547 576.049 513.32
1186 0 97.5099 13.0551 1273 65.4116 575.859 509.307
1187 1 51.338 11.2977 580 65.5569 575.962 532.734
1188 0 52.1837 11.9961 626 64.7588 576.463 533.733
1189 0 55.1593 13.2525 731 64.461 576.083 529.804
1190 0 55.1691 11.2019 618 66.8738 576.362 528.688
1191 0 57.2584 11.9109 682 66.3842 575.912 526.13
1192 0 60.2808 11.745 708 66.3644 576.395 528.394
1193 0 64.1771 13.8523 889 63.2925 576.724 527.245
1194 0 63.3416 12.2353 775 67.1613 576.56 523.645
1195 0 66.3443 13.7163 910 64.5275 576.086 523.215
1196 0 70.3202 13.6234 958 64.5021 575.981 520.995
1197 0 73.3386 13.7445 1008 64.3333 575.271 520.685
1198 0 75.3762 13.3729 1008 65.002 574.951 520.334
1199 0 75.3057 13.173 992 65.9647 575.153 518.621
1200 0 80.3952 12.8366 1032 66.094 575.717 518.616
1201 0 83.1896 14.1123 1174 64.5366 575.647 517.212
1202 0 86.2719 13.9095 1200 64.8592 575.625 513.535
1203 1 44.2726 10.345 458 66.9432 576.225 537.777
1204 0 43.3013 11.8241 512 67.168 576.605 535.309
1205 0 45.2456 11.736 531 66.838 576.426 536.173
1206 0 49.2943 12.2935 606 65.8515 576.487 534.076
1207 0 49.3095 13.3037 656 64.6646 576.168 534.383
1208 0 53.2945 14.054 749 63.8772 576.033 532.494
1209 0 54.3865 12.0802 657 65.3531 576.117 533.148
1210 0 56.3552 13.2729 748 64.115 575.683 532.329
1211 0 56.284 12.3126 693 65.9495 575.595 529.919
1212 0 61.2277 14.0949 863 63.1703 575.868 529.222
1213 0 62.233 13.5298 842 64.348 575.98 528.125
1214 0 64.2776 13.9084 894 63.8177 576.405 526.828
1215 0 67.1776 12.5042 840 64.7631 575.637 523.967
1216 0 68.4445 14.8587 1017 62.296 576.743 523.024
1217 0 69.4043 12.8522 892 65.2343 576.398 522.825
1218 0 73.3267 13.4467 986 63.7039 576.011 523.543
1219 0 76.2711 14.4616 1103 62.3345 576.064 522.488
1220 0 78.2297 14.4319 1129 62.5226 576.47 520.672
1221 0 81.385 13.3194 1084 63.6024 576.825 518.48
1222 0 84.3018 14.9226 1258 62.0803 576.27 516.993
1223 0 86.4235 13.9777 1208 63.2525 576.04 515.122
1224 0 88.3132 13.8824 1226 63.2341 575.479 516.031
1225 1 45.2616 10.1631 460 66.3217 576.75 536.065
1226 0 48.2629 12.3905 598 64.3763 576.612 535.289
1227 0 50.2572 11.5009 578 64.9481 576.557 535.433
1228 0 51.2448 11.4158 585 65.5265 576.766 533.279
1229 0 52.3328 12.516 655 64.6504 576.305 531.6
1230 0 54.1556 12.1317 657 64.5738 576.473 532.419
1231 0 55.4241 12.0164 666 64.8754 576.261 530.767
1232 0 53.3259 11.1015 592 67.0659 576.632 529.573
1233 0 59.2641 13.0771 775 63.9432 576.435 528.844
1234 0 61.3139 14.2056 871 62.1274 576.253 527.304
1235 0 63.4039 14.5417 922 62.3427 575.719 525.943
1236 0 64.3689 14.4324 929 62.916 576.129 524.774
1237 0 66.4904 14.0471 934 63.1756 575.479 523.87
1238 0 68.4675 12.3708 847 64.7473 575.648 524.264
1239 0 70.3257 13.793 970 63.6608 575.845 521.022
1240 0 73.3816 14.3633 1054 62.6395 576.274 521.927
1241 0 74.2215 12.9477 961 64.2123 575.361 521.338
1242 0 76.5346 13.0529 999 64.4364 575.485 519.537
1243 0 81.2441 14.1056 1146 62.7723 575.549 516.193
1244 0 81.3808 12.3739 1007 65.4896 576.502 517.334
1245 0 84.3281 12.2735 1035 64.8676 576.374 516.787
1246 1 47.2356 13.5703 641 62.1981 576.961 535.49
1247 0 47.2644 13.5197 639 63.6166 576.681 534.629
1248 0 46.4073 11.8516 550 66.0582 577.511 532.3
1249 0 49.4781 12.9148 639 64.2582 576.867 532.128
1250 0 49.4224 11.6749 577 66.2392 576.747 530.412
1251 0 53.1541 13.1505 699 63.6223 577.361 532.458
1252 0 53.3319 11.8878 634 64.7792 577.043 531.177
1253 0 57.2788 13.5303 775 62.6219 576.644 531.03
1254 0 55.2927 13.112 725 63.6207 576.284 532.05
1255 0 57.3727 12.0789 693 64.8081 575.746 529.687
1256 0 61.3822 12.9191 793 63.7516 575.241 526.435
1257 0 64.3901 14.6451 943 61.5429 575.779 525.056
1258 0 67.3164 13.6222 917 62.2737 576.373 525.986
1259 0 70.334 14.2605 1003 61.5583 576.764 524.402
1260 0 72.3674 12.9893 940 62.8383 576.833 524.621
1261 0 71.2771 13.3002 948 63.3639 576.378 521.215
1262 0 77.5635 13.3955 1039 62.0953 575.602 523.311
1263 0 79.545 13.6024 1082 62.2856 575.613 519.448
1264 0 83.397 12.6503 1055 63.2682 575.934 521.515
1265 0 86.272 12.4838 1077 63.5608 575.436 518.44
1266 0 87.4231 12.8227 1121 63.9474 576.291 512.591
1267 0 92.6151 13.9826 1295 62.2224 576.554 515.51
1268 1 46.1512 11.9173 550 65.7636 575.829 532.571
1269 0 50.4188 13.4474 678 64.5693 576.206 531.879
1270 0 51.2432 13.0554 669 63.9088 575.211 533.782
1271 0 53.3904 12.6989 678 65.1239 575.975 529.861
1272 0 56.3375 14.0049 789 63.1496 575.42 530.763
1273 0 57.0538 14.1095 805 62.9193 574.462 529.209
1274 0 60.4008 12.7647 771 63.546 575.642 529.936
1275 0 59.1226 10.8419 641 66.4509 575.498 526.647
1276 0 63.4921 12.5212 795 64.2692 574.687 527.199
1277 0 67.4308 14.83 1000 61.223 575.789 528.124
1278 0 67.3919 12.9837 875 63.808 576.306 524.281
1279 0 70.2188 13.2301 929 63.1442 575.842 525.425
1280 0 70.5473 13.3386 941 63.6557 575.508 521.078
1281 0 74.3922 14.8268 1103 61.7081 575.624 522.035
1282 0 76.2513 13.8621 1057 63.1173 576.035 517.155
1283 0 80.2877 15.706 1261 60.5686 576.148 518.109
1284 0 78.5899 10.2049 802 66.409 576.213 520.181
1285 0 82.2799 13.2961 1094 63.5165 576.64 516.805
1286 0 87.3814 15.3236 1339 61.5967 576.812 514.471
1287 0 87.382 14.9115 1303 62.7015 576.355 511.075
1288 0 93.4155 14.1411 1321 63.2097 576.023 513.181
1289 0 91.4061 11.881 1086 66.5433 575.318 511.041
1290 1 49.3403 13.8629 684 64.1243 575.475 531.934
1291 0 52.311 13.4962 706 63.9306 576.133 532.483
1292 0 53.539 11.8232 633 66.3002 576.164 532.981
1293 0 54.2954 13.0029 706 65.7946 576.499 530.664
1294 0 56.3267 12.9069 727 65.784 576.488 530.63
1295 0 58.5237 14.319 838 63.574 576.615 532.7
1296 0 59.1364 14.1368 836 64.4067 575.743 530.654
1297 0 61.5482 14.054 865 64.7168 576.349 529.105
1298 0 63.2848 12.7361 806 66.0794 576.065 529.826
1299 0 65.282 14.5676 951 64.2008 576.436 526.068
1300 0 64.3467 13.0543 840 66.8786 576.537 525.142
1301 0 68.2493 13.6412 931 65.5242 576.127 525.356
1302 0 72.5206 13.7478 997 65.2548 577.314 525.049
1303 0 73.5035 13.5232 994 66.504 576.669 520.253
1304 0 76.2816 14.8922 1136 64.8996 576.599 520.739
1305 0 79.4767 14.2809 1135 65.1295 576.877 521.023
1306 0 82.3506 14.6447 1206 64.8864 577.083 517.217
1307 0 85.3839 14.792 1263 65.2716 577.023 518.579
1308 0 88.3537 14.7589 1304 64.7301 575.719 519.735
1309 1 47.2405 13.9922 661 64.9334 576.304 537.354
1310 0 49.3276 12.9947 641 66.0686 576.777 535.484
1311 0 49.233 11.0901 546 68.5 577.071 536.795
1312 0 48.1891 12.2434 590 68.4831 576.847 533.529
1313 0 51.4968 12.661 652 67.5552 576.302 534.063
1314 0 56.3245 15.0201 846 63.7884 576.728 533.258
1315 0 54.4463 13.7016 746 66.2614 577.117 531.395
1316 0 59.3295 14.6639 870 64.2759 576.318 533.445
1317 0 60.415 14.4831 875 64.5371 576.379 532.539
1318 0 62.403 13.2846 829 66.4873 576.521 530.654
1319 0 63.451 15.3662 975 63.8636 576.182 530.518
1320 0 64.7628 15.6263 1012 63.7796 576.114 530.019
1321 0 67.5819 13.8203 934 66.1103 576.803 527.983
1322 0 70.3826 14.2365 1002 65.5299 576.147 527.165
1323 0 71.5468 14.2843 1022 65.6761 576.133 526.238
1324 0 75.3539 15.0755 1136 64.8794 576.088 525.104
1325 0 76.4111 13.6891 1046 67.7514 576.415 520.589
1326 0 79.4257 14.63 1162 66.3003 576.281 521.765
1327 0 81.4421 14.4274 1175 66.8519 576.617 519.52
1328 0 81.6617 13.8988 1135 68.148 576.643 518.509
1329 0 85.5635 13.8377 1184 67.4307 576.649 521.612
1330 0 89.4782 13.9587 1249 67.3523 576.552 518.17
1331 0 90.2355 14.2405 1285 68.2374 576.732 515.335
1332 1 43.2952 13.304 576 70.0868 576.365 535.53
1333 0 46.3142 14.3369 664 67.9819 576.577 537.455
1334 0 47.3693 12.7931 606 71.2294 576.586 536.112
1335 0 51.2983 12.9049 662 70.1631 576.645 536.577
1336 0 50.5002 12.2376 618 71.6764 577.18 535.531
1337 0 51.4521 13.6243 701 70.6733 576.678 534.732
1338 0 55.3016 13.4716 745 69.9128 577.067 533.078
1339 0 57.3536 13.1117 752 70.4468 576.335 530.812
1340 0 58.2761 13.2816 774 70.2519 576.158 531.661
1341 0 61.5758 13.8853 855 68.8047 576.57 531.851
1342 0 63.3468 14.3022 906 68.7152 576.738 529.423
1343 0 63.5093 12.5808 799 71.0038 576.915 529.096
1344 0 66.4466 12.8675 855 70.869 576.196 527.972
1345 0 68.3486 14.3236 979 68.8887 576.873 527.017
1346 0 72.541 15.991 1160 66.3897 575.741 523.138
1347 0 74.3309 13.1977 981 70.5392 575.454 522.206
1348 0 75.3543 13.0185 981 71.1845 575.993 522.127
1349 0 79.3842 14.2094 1128 69.2385 576.826 519.037
1350 0 81.2641 13.9668 1135 69.593 577.338 521.954
1351 0 82.3696 13.8522 1141 70.851 576.806 516.022
1352 0 87.3295 13.9357 1217 70.0789 576.408 515.57
1353 0 87.4022 12.6542 1106 71.9403 576.142 516.086
1354 1 49.2539 12.1006 596 72.2097 576.856 535.475
1355 0 49.533 12.6179 625 71.1424 576.883 535.589
1356 0 49.4174 12.9914 642 71.5997 576.748 532.612
1357 0 51.3378 12.1743 625 71.824 576.76 535.616
1358 0 52.3968 13.0161 682 71.6525 576.387 529.626
1359 0 55.2718 13.4608 744 70.4462 576.313 531.075
1360 0 55.4286 13.0077 721 71.1512 576.072 530.707
1361 0 58.3919 13.8375 808 70.0903 576.223 526.493
1362 0 61.2572 14.5779 893 68.7884 575.823 526.826
1363 0 65.5678 15.1904 996 67.1657 575.928 527.388
1364 0 65.2924 13.2328 864 69.5324 576.035 525.069
1365 0 69.5553 13.6151 947 68.8015 576.289 525.257
1366 0 68.3728 14.3039 978 68.5041 577.334 523.762
1367 0 73.2915 15.4042 1129 66.5624 577.035 523.961
1368 0 73.4408 12.6633 930 69.9548 576.077 522.52
1369 0 74.4209 13.1146 976 70.4754 575.802 517.935
1370 0 77.4479 13.196 1022 70.0049 576.313 520.31
1371 0 80.6688 13.3261 1075 70.5563 576.386 517.247
1372 0 81.4198 13.2155 1076 70.6236 577.312 516.402
1373 0 85.4503 13.3528 1141 70.0175 576.437 516.133
