time division length width area intensity CMx CMy
0 0 60.1051 11.8293 711 69.5302 501.063 335.056
1 0 66.0853 12.3628 817 67.3133 500.726 336.062
2 0 64.0766 12.9376 829 68.31 500.926 330.753
3 0 67.1444 12.6444 849 67.5088 500.461 335.152
4 0 71.0964 12.5604 893 67.5599 500.525 333.766
5 0 72.0761 12.1261 874 68.1373 500.3 333.11
6 0 74.0414 12.2229 905 68.7448 499.785 330.743
7 0 78.2049 13.9378 1090 64.6495 499.588 332.72
8 0 79.2185 12.4718 988 68.254 499.025 328.667
9 0 82.085 13.7053 1125 66.9111 498.371 325.388
10 0 85.054 13.7912 1173 66.5345 498.528 323.828
11 1 50.1126 11.5739 580 67.9328 498.388 343.147
12 0 47.127 10.4399 492 70.5874 498.4 343.421
13 0 52.0639 12.0429 627 67.9777 498.466 342.794
14 0 52.0216 11.7836 613 69.8793 498.869 341.869
15 0 56.3522 13.1494 741 67.1053 497.511 340.953
16 0 56.1478 12.9302 726 68.2452 497.161 339.836
17 0 58.155 13.0685 760 67.8592 498.059 339.63
18 0 61.0588 15.5915 952 64.1334 497.434 337.029
19 0 62.033 13.0415 809 68.3696 497.539 336.551
20 0 63.1242 12.9903 820 68.7317 497.916 335.877
21 0 64.0757 12.0639 773 70.0298 497.413 337.116
22 0 66.0909 11.8776 785 71.2357 497.854 334.665
23 0 70.2268 12.8156 900 69.0733 497.343 334.983
24 0 71.1164 13.1615 936 69.1325 497.681 332.839
25 0 75.144 14.5853 1096 66.9434 498.162 330.94
26 0 76.1503 12.9481 986 70.1298 498.538 329.479
27 0 76.0696 12.9092 982 71.22 498.386 326.804
28 1 39.032 11.7596 459 70.0109 498.383 347.882
29 0 41.0642 10.5932 435 71.6874 498.078 347.883
30 0 42.055 11.1521 469 72.7228 497.923 346.618
31 0 43.1051 12.8523 554 70.6173 498.088 346.478
32 0 44.1505 11.4834 507 72.6765 498.193 346.16
33 0 47.1204 12.4362 586 70.6826 498.027 345.118
34 0 49.0987 12.3221 605 70.7818 498.331 344.155
35 0 50.0783 13.5588 679 70.2194 498.405 342.122
36 0 51.0268 13.0324 665 70.7594 498.388 343.671
37 0 53.1143 13.4615 715 70.6965 497.744 340.81
38 0 52.0766 12.7121 662 73.503 497.195 339.011
39 0 54.0865 12.3506 668 73.3817 497.247 339.897
40 0 57.06 12.9338 738 72.0434 497.57 338.5
41 0 58.0417 13.5592 787 71.4104 497.776 339.297
42 0 61.0891 13.5212 826 70.9576 498.128 339.137
43 0 60.0795 11.8843 714 75.5462 497.482 335.749
44 0 63.0522 12.5134 789 73.5577 498.056 336.592
45 0 66.226 12.8046 848 72.8278 497.943 335.304
46 0 69.1647 12.8245 887 72.0575 497.044 335.618
47 0 71.0937 13.0954 931 71.638 496.86 333.807
48 0 72.2152 12.989 938 72.6844 497.03 331.778
49 0 74.0606 13.3404 988 71.5324 496.182 332.874
50 0 77.2081 12.7448 984 72.6555 496.502 330.794
51 0 79.0811 13.012 1029 72.3236 496.823 327.388
52 0 81.1264 12.7948 1038 73.3295 496.912 323.597
53 1 42.041 10.3708 436 72.7179 497.447 348.025
54 0 42.0303 11.23 472 73.0508 497.246 346.047
55 0 46.0797 12.1529 560 70.4214 497.668 345.957
56 0 47.0176 13.7395 646 68.2988 497.006 344.32
57 0 44.0336 10.9689 483 75.087 496.973 343.203
58 0 49.058 11.5374 566 72.4806 497.274 342.664
59 0 48.0131 11.2469 540 73.8944 496.991 342.746
60 0 52.0453 12.9695 675 70.0015 496.516 341.391
61 0 54.046 11.8973 643 71.4323 496.918 341.403
62 0 51.026 11.9155 608 72.9326 496.597 339.178
63 0 56.0783 12.3755 694 70.5144 496.659 336.931
64 0 57.0256 12.8013 730 69.7014 497.003 338.575
65 0 61.0849 13.0474 797 68.5885 496.548 337.084
66 0 62.0679 12.438 772 69.9767 496.136 335.746
67 0 64.1495 13.5621 870 67.5161 496.097 336.44
68 0 63.0921 10.9839 693 72.0491 496.56 335.218
69 0 69.0237 12.5464 866 68.3199 497.234 333.88
70 0 69.107 12.9075 892 68.0841 496.683 332.959
71 0 73.1023 13.1049 958 67.2839 496.653 331.696
72 1 39.0597 9.37028 366 70.0601 497.126 347.91
73 0 39.0929 11.4599 448 66.846 497.069 347.194
74 0 40.1072 10.3223 414 69.1739 497.13 346.684
75 0 43.0114 11.5551 497 67.0543 496.94 346.223
76 0 44.0569 11.3263 499 66.1723 496.651 347.281
77 0 47.0947 13.5047 636 62.978 497.175 344.112
78 0 45.0344 11.8798 535 66.0206 497.426 345.379
79 0 47.0825 11.1294 524 67.3168 497.29 343.002
80 0 49.0301 12.5841 617 64.765 497.606 343.434
81 0 51.0414 13.2638 677 63.9129 497.194 342.762
82 0 52.1974 12.2611 640 65.1891 496.717 341.355
83 0 54.0341 11.8629 641 65.9142 496.449 340.105
84 0 53.0386 11.9347 633 66.6904 496.321 339.477
85 0 56.1117 12.9563 727 64.2421 497.099 340.623
86 0 58.0755 12.8453 746 64.1997 497.41 340.546
87 0 57.0904 12.5941 719 65.3727 497.068 338.72
88 0 63.078 13.2534 836 63.4019 497.55 337.898
89 0 63.0914 13.2189 834 63.3621 497.639 338.319
90 0 65.0352 11.4553 745 65.6483 497.483 336.195
91 0 69.0916 12.6064 871 63.4971 497.47 335.832
92 0 69.0742 13.1887 911 63.3249 497.481 334.908
93 0 71.0601 12.8061 910 63.3758 497.643 335.569
94 0 75.039 11.9671 898 64.2884 497.414 333.693
95 0 75.039 12.4069 931 153.808 497.387 334.229
96 0 78.1112 14.0313 1096 61.9964 496.911 332.988
97 0 81.0316 12.5877 1020 64.0147 496.776 329.436
98 0 82.1165 12.9085 1060 64.1557 497.235 330.312
99 1 46.0757 13.0871 603 63.5406 497.501 347.131
100 0 46.0541 11.3345 522 65.6935 497.226 347.027
101 0 51.106 11.9751 612 64.402 497.229 345.242
102 0 52.0263 11.5903 603 64.7761 497.821 344.819
103 0 51.0452 11.2449 574 66.5157 497.878 343.009
104 0 54.092 12.2014 660 65.1667 497.729 342.908
105 0 56.1024 14.0457 788 61.8147 497.739 344.431
106 0 58.0783 11.6911 679 65.4801 497.471 341.907
107 0 58.0416 11.9053 691 65.4834 497.236 342.566
108 0 61.0472 13.8909 848 63.25 497.436 338.745
109 0 61.1007 13.2077 807 64.803 497.196 337.774
110 0 63.1657 13.805 872 63.8681 497.765 338.227
111 0 67.0544 12.4078 832 64.9231 496.773 336.304
112 0 69.0677 13.4216 927 63.0831 496.488 337.796
113 0 70.1475 13.4288 942 64.1667 496.235 334.09
114 0 72.0547 13.7396 990 63.6202 496.482 332.813
115 0 74.1058 13.3053 986 63.7982 496.745 334.885
116 0 79.1147 13.1328 1039 63.6622 496.808 332.616
117 0 81.0844 13.3195 1080 64.1333 497.26 330.458
118 0 83.0634 13.1947 1096 64.281 497.362 330.657
119 0 85.128 13.3094 1133 64.3998 497.208 329.547
120 1 44.0352 12.3083 542 64.5092 497.867 349.854
121 0 44.0596 10.9397 482 66.7427 497.95 350.027
122 0 47.0497 13.4539 633 63.8341 497.272 346.52
123 0 49.0853 11.9791 588 65.1888 497.594 347.338
124 0 49.077 13.0204 639 64.0673 497.721 347.626
125 0 50.106 13.6112 682 64.2801 498.232 342.975
126 0 52.0335 12.0499 627 66.1308 497.754 345.306
127 0 56.1181 12.7588 716 64.7291 497.432 342.858
128 0 57.0811 13.1042 748 64.2353 497.443 342.116
129 0 58.153 14.1695 824 63.2451 497.262 340.858
130 0 61.1566 13.2937 813 63.695 497.127 340.809
131 0 61.0841 12.8348 784 64.4235 497.56 341.769
132 0 64.0595 12.8162 821 64.5481 497.596 339.167
133 0 64.0776 11.7358 752 66.4707 497.843 338.846
134 0 69.055 13.5979 939 63.5964 497.471 337.258
135 0 71.0769 15.4903 1101 60.9864 497.215 337.223
136 0 72.2494 12.5399 906 65.213 497.575 334.806
137 0 75.0626 12.6961 953 64.9559 497.456 334.665
138 0 78.2018 13.6825 1070 63.114 498.037 333.934
139 0 78.0313 11.9695 934 65.6413 498.077 334.124
140 1 42.0106 12.473 524 63.5802 498.282 349.945
141 0 42.0631 12.1009 509 64.0393 497.749 350.169
142 0 44.0312 10.379 457 66.7812 497.932 349.869
143 0 43.0626 10.6589 459 67.732 497.795 347.717
144 0 48.1286 12.1134 583 63.988 497.834 347.556
145 0 48.0824 13.3937 644 63.0466 498.495 347.596
146 0 51.1166 13.4986 690 62.7855 498.557 345.945
147 0 52.0462 12.7387 663 63.7934 498.116 345.793
148 0 52.091 11.7679 613 64.7716 498.382 346.667
149 0 54.067 11.8927 643 64.0389 498.114 346.395
150 0 57.0549 12.7246 726 63.0758 497.926 344.656
151 0 58.0831 11.6213 675 64.843 498.416 342.753
152 0 59.2071 13.2417 784 63.1148 498.685 339.204
153 0 60.1155 12.3263 741 63.9487 497.476 340.845
154 0 65.0501 14.1122 918 60.5741 498.463 341.102
155 0 64.0801 12.9213 828 63.0531 498.335 337.844
156 0 69.1268 14.1479 978 60.5654 498.153 337.043
157 0 69.0805 13.0283 900 62.1211 498.336 337.537
158 0 72.0857 13.0123 938 61.8923 498.279 336.666
159 0 73.1582 12.4525 911 62.1383 498.8 337.495
160 1 38.0226 10.7831 410 63.5488 498.063 352.039
161 0 41.0394 12.5733 516 62.1705 498.012 349.769
162 0 42.0129 13.3054 559 62.1628 498.268 349.159
163 0 45.1396 13.713 619 60.6817 498.107 349.002
164 0 45.11 13.5225 610 61.9721 497.321 348.884
165 0 46.1199 13.8769 640 61.8875 497.089 347.777
166 0 47.0442 14.0506 661 62.5416 497.31 347.1
167 0 50.1044 12.6536 634 63.3691 497.636 348.694
168 0 52.1093 11.8213 616 65.2192 497.261 347.062
169 0 52.0153 13.7267 714 63.4874 497.937 346.331
170 0 55.1475 13.074 721 64.5368 497.343 344.409
171 0 56.0868 12.6946 712 65.4593 497.729 346.076
172 0 57.0303 14.7816 843 63.7865 497.868 343.643
173 0 57.0647 12.5822 718 67.5084 497.571 342.39
174 0 61.0273 12.6173 770 67.0065 497.778 342.166
175 0 62.1312 12.9403 804 66.9241 498.221 341.167
176 0 65.1523 13.2612 864 66.2222 497.123 339.523
177 0 67.043 14.2893 958 65.4969 496.921 337.926
178 0 68.0992 13.3188 907 67.0022 497.391 339.082
179 0 70.0379 12.8787 902 67.6996 497.249 338.534
180 0 71.0421 12.3026 874 69.2757 497.428 336.486
181 0 73.0217 12.5442 916 69.1867 497.539 334.814
182 1 41.0529 11.1563 458 69.559 497.762 350.526
183 0 45.0642 12.693 572 66.5699 498.481 351.664
184 0 45.0407 12.1002 545 68.6661 498.461 349.039
185 0 46.0303 12.1442 559 69.5599 498.2 347.531
186 0 46.071 12.0466 555 70.2541 497.544 347.276
187 0 50.0299 12.0128 601 68.9684 497.953 347.131
188 0 50.0177 12.4756 624 69.258 497.79 344.918
189 0 52.0804 13.1719 686 67.5845 497.628 346.284
190 0 55.0746 13.1458 724 67.8094 497.544 343.851
191 0 54.0982 12.5882 681 69.1542 497.885 343.822
192 0 59.0591 12.1573 718 68.4095 497.513 343.508
193 0 58.2828 13.2458 772 67.7837 497.302 341.282
194 0 60.0739 13.4834 810 67.2877 497.378 342.306
195 0 64.0651 13.1741 844 67.564 497.248 339.552
196 0 64.0647 13.9078 891 67.3064 497.285 338.113
197 0 65.0913 12.4441 810 69.5148 497.664 336.638
198 0 68.0416 15.1819 1033 65.3185 497.149 338.265
199 0 71.0305 13.2619 942 68.1391 496.544 335.297
200 0 73.1557 12.3982 907 69.3583 496.645 334.438
201 1 41.0143 10.9474 449 67.9131 497.334 352.9
202 0 42.1504 11.8623 500 67.976 497.616 350.638
203 0 42.1062 12.2547 516 69.4264 497.233 348.215
204 0 45.0353 12.3014 554 68.2112 496.957 349.85
205 0 47.0972 13.8437 652 66.6887 496.989 348.405
206 0 47.1363 13.4716 635 66.8646 497.658 349.291
207 0 48.0798 11.7097 563 69.1741 497.659 347.268
208 0 48.0342 11.3461 545 69.5009 497.71 346.398
209 0 53.091 12.488 663 66.7044 496.997 346.149
210 0 54.0803 13.7388 743 65.9112 497.135 343.055
211 0 57.0626 14.2125 811 64.6523 497.109 343.671
212 0 57.1155 13.569 775 65.9703 497.383 343.772
213 0 60.1034 12.0126 722 67.9363 497.659 343.294
214 0 61.1015 12.7493 779 67.1463 497.881 342.267
215 0 63.0557 13.6863 863 65.9502 497.706 341.239
216 0 65.2219 12.9864 847 66.3306 496.425 341.641
217 0 66.0364 12.8111 846 67.0757 496.342 340.136
218 0 70.0296 13.58 951 65.6688 496.382 338.382
219 0 70.1 12.6248 885 67.4124 496.472 336.569
220 0 73.0178 13.5172 987 66.0588 496.767 335.187
221 0 77.11 12.3719 954 67.3669 496.777 334.168
222 0 78.0775 13.1152 1024 66.501 496.808 333.832
223 1 42.0334 11.8715 499 65.4629 497.19 350.114
224 0 44.0168 11.3593 500 66.306 497.328 349.07
225 0 44.0115 11.4288 503 66.837 497.012 349.427
226 0 45.0489 12.9859 585 65.7402 497.443 349.525
227 0 47.0269 12.9288 608 65.5428 497.247 349.072
228 0 49.0567 12.5161 614 66.0977 497.153 349.326
229 0 49.0466 13.375 656 65.6204 497.646 347.123
230 0 51.041 13.1071 669 66.1136 498.103 346.309
231 0 54.0617 13.5771 734 64.4646 497.963 347.285
232 0 55.0361 13.7728 758 65.2639 497.843 346.079
233 0 57.101 13.1696 752 66.133 497.852 344.418
234 0 57.1116 13.8676 792 66.0391 497.937 343.005
235 0 59.0323 13.247 782 67.0448 498.036 342.615
236 0 64.0237 14.4478 925 64.2054 497.49 343.424
237 0 63.0612 12.9874 819 67.6252 497.073 339.894
238 0 66.0649 12.5937 832 68.0264 497.32 340.358
239 0 68.0241 12.9072 878 67.6219 497.987 340.244
240 0 71.0269 13.9665 992 66.128 497.893 338.966
241 0 72.064 13.1133 945 68.0635 498.192 336.365
242 1 39.0582 10.83 423 67.7494 498.106 355.619
243 0 39.0157 10.2523 400 67.9825 497.613 356.505
244 0 40.0586 11.9575 479 69.3173 497.428 352.246
245 0 44.017 13.2676 584 66.1764 497.187 352.853
246 0 43.0353 12.5943 542 67.9428 497.349 352.729
247 0 46.0291 12.1662 560 68.7607 496.948 351.186
248 0 44.0193 11.3359 499 71.2044 497.188 349.515
249 0 48.06 11.4856 552 69.6757 496.033 348.348
250 0 50.0748 11.7225 587 69.6235 496.709 347.816
251 0 52.0629 12.5425 653 68.2925 497.259 348.078
252 0 51.0932 12.1347 620 70.0177 497.469 348.358
253 0 53.1776 13.3703 711 67.526 497.328 348.821
254 0 53.0511 13.176 699 70.1631 496.83 344.468
255 0 58.1293 12.2486 712 69.6404 496.465 345.072
256 0 60.1533 13.183 793 68.5662 496.943 345.86
257 0 60.1416 11.8221 711 71.1491 496.591 344.505
258 0 61.1649 13.1448 804 69.9316 496.867 342.208
259 0 63.1218 12.7848 807 69.9157 496.774 343.099
260 0 67.0552 11.9603 802 70.7855 497 341.299
261 0 68.1185 13.3444 909 69.5204 497.454 338.814
262 0 70.0567 14.3312 1004 68.259 497.418 336.672
263 0 74.07 13.1362 973 69.2004 497.266 336.938
264 0 74.0475 12.0193 890 71.5764 496.908 335.715
265 1 38.0856 10.844 413 70.3027 496.872 354.242
266 0 42.0265 12.3731 520 67.9942 496.996 353.033
267 0 41.0668 12.1022 497 69.833 496.646 351.268
268 0 40.0518 11.56 463 70.7905 496.924 350.801
269 0 45.0299 12.3696 557 68.5799 497.232 349.097
270 0 45.0431 11.9219 537 68.4562 497.179 350.11
271 0 49.0239 10.8519 532 68.7763 497.15 349.737
272 0 48.0752 12.9381 622 67.7122 497.431 345.267
273 0 51.1112 11.9935 613 67.3165 496.956 347.731
274 0 50.1205 12.889 646 68.1533 497.364 343.418
275 0 53.0693 11.4756 609 69.2742 497.174 344.478
276 0 56.094 12.8713 722 67.0748 497.348 343.082
277 0 57.1168 12.2206 698 68.1332 497.298 340.89
278 0 61.256 14.17 868 65.023 497.302 340.999
279 0 60.1824 12.1298 730 68.6726 497.107 340.441
280 0 64.0757 13.6089 872 65.883 497.308 337.649
281 0 64.0131 12.1538 778 68.5566 496.826 338.715
282 0 70.0612 12.6318 885 66.7435 496.595 338.637
283 0 69.0821 11.5659 799 69.403 496.242 336.874
284 0 74.1239 12.5331 929 67.0022 496.084 337.7
285 0 75.084 12.9988 976 67.1598 496.161 335.466
286 1 38.0351 12.1993 464 67.5582 496.209 352.543
287 0 38.1241 9.39039 358 71.8659 496.508 353.455
288 0 41.0727 12.5388 515 67.4369 496.381 352.041
289 0 42.0619 10.8174 455 69.9363 496.668 352.464
290 0 43.0506 13.3796 576 67.2778 495.899 349.023
291 0 46.0146 13.4957 621 65.934 495.712 350.887
292 0 46.0125 12.1054 557 68.9461 496.406 349.905
293 0 50.061 14.5423 728 63.375 496.109 352.185
294 0 52.074 14.0569 732 64.582 496.348 351.381
295 0 53.0555 12.9298 686 66.8688 496.448 350.471
296 0 53.0213 13.0136 690 67.6072 496.065 348.332
297 0 54.0477 12.2114 660 69.0833 495.952 346.994
298 0 56.0242 12.7088 712 68.4733 496.572 345.385
299 0 57.0533 13.7065 782 66.454 496.777 347.457
300 0 60.0915 13.6126 818 66.8435 496.152 344.016
301 0 62.033 12.6707 786 68.0814 495.524 345.303
302 0 64.0445 14.4899 928 66.0172 496.247 342.18
303 0 66.0756 13.9688 923 66.8299 496.749 339.697
304 0 69.0617 12.6698 875 68.3954 496.789 340.979
305 0 69.0654 12.9153 892 68.8632 496.613 337.779
306 0 72.1265 13.8784 1001 67.7073 496.842 336.564
307 0 77.117 13.4341 1036 67.2307 497.049 337.669
308 0 79.0974 12.9461 1024 68.1172 496.737 338.378
309 1 43.0201 10.7392 462 70.5563 496.632 353.035
310 0 46.0404 11.251 518 69.0985 496.956 353.22
311 0 45.079 11.9568 539 69.9388 496.642 350.894
312 0 48.0313 12.3045 591 69.3181 496.095 348.283
313 0 51.0291 12.8162 654 67.7645 496.436 349.474
314 0 52.0783 11.9628 623 68.7785 496.827 348.594
315 0 54.054 12.5245 677 66.9217 497.087 349.505
316 0 56.048 11.3653 637 68.9246 497.193 345.94
317 0 57.0525 12.024 686 69.0656 497.055 341.78
318 0 60.0286 12.1609 730 68.0192 496.815 341.312
319 0 61.094 12.5053 764 67.8495 496.622 339.755
320 0 64.059 12.8788 825 66.5964 496.61 339.036
321 0 66.1001 12.0726 798 68.0627 496.41 337.031
322 0 67.0899 12.4609 836 67.2392 496.227 335.91
323 0 69.104 12.4016 857 68.042 495.923 334.673
324 0 70.0672 10.9181 765 69.4536 495.897 335.376
325 0 74.0268 12.2388 906 67.5386 496.03 332.935
326 0 77.0963 13.4248 1035 65.9024 496.158 328.88
327 0 77.0932 11.3629 876 69.2534 495.995 328.831
328 0 82.1308 12.3949 1018 67.3772 495.962 328.109
329 0 85.178 11.6814 995 68.3065 496.031 327.54
330 1 44.0684 11.9133 525 64.4438 495.362 348.575
331 0 43.0234 11.6448 501 64.9301 495.463 347.986
332 0 46.0723 9.74556 449 67.7506 495.882 346.439
333 0 47.1393 11.6675 550 65.0073 496.153 345.691
334 0 49.0727 11.432 561 64.975 496.194 346.032
335 0 50.0133 12.3967 620 64.1032 496.747 345.061
336 0 52.0469 11.5665 602 64.4169 497.003 344.372
337 0 53.0484 11.3293 601 64.8735 497.295 345.208
338 0 56.238 11.6114 653 64.3492 496.972 344.233
339 0 57.0599 13.0389 744 62.4933 496.554 342.067
340 0 59.0687 12.5616 742 62.8571 497.02 341.392
341 0 62.1897 13.1855 820 61.4988 496.924 341.177
342 0 61.0496 11.4661 700 64.3314 496.831 337.047
343 0 65.0765 11.2944 735 63.4558 496.411 339.39
344 0 68.1237 11.8167 805 62.8634 496.2 336.906
345 0 70.1512 12.6869 890 61.9697 495.899 336.367
346 0 71.1479 11.1458 793 64.2446 495.893 333.18
347 0 71.1798 10.916 777 64.7272 496.243 332.353
348 0 73.0891 10.6445 778 65.4075 495.541 331.81
349 0 79.1543 12.6209 999 62.6897 495.734 330.687
350 1 36.0977 9.72361 351 64.5128 496.305 350.034
351 0 41.1798 10.8548 447 62.5302 495.752 349.557
352 0 45.0233 12.016 541 60.4806 495.8 349.102
353 0 46.0428 11.5545 532 61.7406 496.22 348.664
354 0 47.0609 10.582 498 63.6727 495.767 347.815
355 0 48.0206 11.2035 538 63.0855 495.383 346.223
356 0 51.045 11.5388 589 62.9219 494.944 345.051
357 0 51.0394 13.2447 676 60.9453 496.197 344.351
358 0 50.0446 11.7695 589 64.3005 496.436 341.012
359 0 53.0632 12.1742 646 63.2322 496.642 342.599
360 0 56.0736 12.7511 715 62.0406 496.413 342.453
361 0 57.0472 11.4992 656 64.2256 496.902 340.267
362 0 58.0805 11.8973 691 63.7844 496.899 341.12
363 0 62.1748 12.8026 796 62.2764 496.992 341.006
364 0 63.142 11.6563 736 63.5815 496.711 342.007
365 0 65.0908 14.0266 913 61.3888 496.714 337.046
366 0 67.0303 11.5172 772 64.728 496.947 339.065
367 1 34.0478 10.5146 358 65.595 496.693 352.947
368 0 39.0751 11.1068 434 63.1636 496.493 354.253
369 0 38.1146 11.0981 423 63.9149 496.551 354.983
370 0 39.044 11.1157 434 65.8848 496.717 352.048
371 0 42.0336 11.5146 484 64.0269 496.793 351.38
372 0 44.0763 11.4574 505 64.4139 496.271 351.129
373 0 45.0236 13.4818 607 62.4366 496.87 349.755
374 0 45.0433 11.4556 516 66.4264 496.234 348.878
375 0 48.0652 12.8992 620 64.3129 496.477 348.498
376 0 48.0672 10.7766 518 67.8127 496.929 346.985
377 0 50.0352 12.4512 623 66.0578 496.682 345.692
378 0 52.0515 13.0063 677 65.0089 496.316 346.372
379 0 55.0526 11.5708 637 67.5055 496.276 344.808
380 0 55.0759 12.2558 675 67.2059 496.919 344.561
381 0 56.1377 11.8815 667 67.5982 497.169 344.972
382 0 59.1275 12.4308 735 67.0789 496.573 343.638
383 0 62.0651 13.1636 817 65.4908 496.335 344.032
384 0 64.0263 12.6979 813 66.1156 495.852 341.937
385 0 66.0249 11.5562 763 67.6173 496.257 341.489
386 0 65.0519 10.653 693 69.5094 496.162 341.263
387 1 36.0199 11.105 400 67.4325 496.377 354.438
388 0 38.049 10.8807 414 67.9783 496.389 354.099
389 0 40.0619 12.6804 508 65.9665 496.112 351.549
390 0 41.0259 11.7243 481 66.684 496.892 351.784
391 0 42.0356 12.1564 511 66.5616 496.906 349.712
392 0 43.0247 11.4585 493 67.1136 497.28 350.71
393 0 47.0879 12.1263 571 65.4904 497.114 349.602
394 0 50.0343 13.5507 678 62.5044 497.097 349.42
395 0 48.1286 12.3212 593 66.0691 496.224 347.223
396 0 49.0988 11.874 583 66.5437 496.386 346.803
397 0 53.0511 12.4597 661 65.4236 496.811 346.221
398 0 55.1011 13.7202 756 63.705 497.085 345.606
399 0 56.1568 13.765 773 63.9702 497.344 342.489
400 0 57.0646 12.7925 730 65.2767 497.163 343.336
401 0 59.0825 12.0509 712 66.0267 496.639 343.772
402 0 61.0409 13.6302 832 64.2825 497.322 341.403
403 0 64.0522 13.3173 853 64.2954 496.549 342.426
404 0 64.0883 12.8417 823 65.7473 496.431 339.781
405 0 66.1293 12.3697 818 66.6663 496.356 339.293
406 0 69.083 13.1147 906 65.5519 497.062 338.083
407 0 72.0563 13.3368 961 65.0156 496.599 336.453
408 0 73.0505 12.772 933 66.0461 497.017 335.746
409 0 77.1083 12.3982 956 65.4487 496.371 336.118
410 0 81.1175 15.3851 1248 62.0625 496.401 333.232
411 0 82.0922 13.1072 1076 65.5883 496.642 332.076
412 0 87.0966 13.8582 1207 64.4043 496.999 328.536
413 1 43.0653 13.2357 570 63.2018 496.989 350.868
414 0 43.0768 12.7911 551 65.2995 496.517 349.964
415 0 44.0255 12.8562 566 66.1643 496.846 348.233
416 0 47.0464 11.563 544 66.9651 497.292 348.695
417 0 50.0613 13.6433 683 63.5373 497.363 348.832
418 0 51.0699 12.6493 646 66.1641 497.257 346.207
419 0 53.053 13.8918 737 64.0109 496.989 345.372
420 0 54.1055 13.3258 721 64.8974 496.65 345.516
421 0 54.0627 13.2624 717 65.6165 497.053 343.614
422 0 57.1245 13.0417 745 65.4631 496.588 344.372
423 0 59.1139 15.4786 915 62.2306 496.704 343.449
424 0 59.099 11.9799 708 67.1441 496.791 345.448
425 0 62.0453 11.7978 732 67.3538 496.818 343.187
426 0 64.06 12.9878 832 65.8966 497.239 340.786
427 0 66.0594 13.0489 862 65.522 496.817 341.655
428 0 69.0995 13.893 960 64.2646 496.623 338.94
429 0 68.1175 11.9206 812 67.3707 496.904 337.868
430 0 72.0425 12.6453 911 65.9034 496.965 337.769
431 0 77.0816 13.2457 1021 64.0578 497.096 339.475
432 0 78.0984 14.7506 1152 63.263 496.846 334.848
433 0 80.1499 13.7243 1100 64.5691 496.364 333.168
434 1 43.0246 10.8775 468 67.7094 496.983 351.526
435 0 45.1634 10.6945 483 66.9896 497.033 352.36
436 0 48.1593 11.6281 560 65.2232 496.632 351.066
437 0 48.0975 12.7449 613 64.4568 496.122 350.131
438 0 49.0468 11.1934 549 66.3625 496.508 350.113
439 0 51.1192 12.3828 633 64.3965 496.175 349.897
440 0 53.0362 13.5945 721 63.4785 496.395 347.834
441 0 54.0465 12.3227 666 65.0375 496.423 348.937
442 0 57.0469 12.3758 706 64.3555 496.334 347.695
443 0 59.0349 12.7721 754 63.4284 496.531 348.13
444 0 62.0262 12.0755 749 63.8919 496.222 347.454
445 0 62.0389 13.3142 826 63.7349 496.088 344.396
446 0 64.0447 12.9285 828 64.0085 496.243 343.539
447 0 65.0906 12.3674 805 64.3938 496.995 344.634
448 0 68.1489 12.458 849 64.1991 496.914 344.037
449 0 72.1243 12.4785 900 64.2322 496.908 342.846
450 0 73.1192 12.4454 910 64.6978 497.216 341.322
451 0 78.0226 12.1247 946 64.4556 497.234 341.646
452 0 79.081 12.2785 971 64.8002 496.922 341.464
453 1 41.0382 10.0394 412 65.4248 497.002 360.114
454 0 43.0705 14.0932 607 61.2784 496.725 358.381
455 0 40.1563 8.51672 342 68.5556 496.409 358.959
456 0 44.0222 11.7668 518 65.4035 496.542 356.975
457 0 45.0372 11.657 525 65.4895 496.533 355.463
458 0 48.0306 13.1374 631 63.336 496.726 356.507
459 0 50.0449 11.8493 593 65.1535 496.589 357.194
460 0 52.0589 12.4474 648 63.9985 496.699 356.853
461 0 53.0425 12.5183 664 64.8358 496.342 354.592
462 0 54.0377 10.9368 591 66.5702 496.316 354.958
463 0 59.0762 12.0353 711 64.4459 496.932 355.439
464 0 60.1441 12.6031 758 64.5462 496.108 353.69
465 0 61.0241 14.9285 911 61.697 496.756 353.665
466 0 63.0677 12.8275 809 64.3622 496.802 353.068
467 0 66.0507 13.9287 920 63.2489 496.777 351.786
468 0 67.0282 12.9945 871 65.3605 496.789 350.048
469 0 71.0667 12.7486 906 64.7384 496.567 350.183
470 0 71.0857 13.3782 951 65.1525 496.592 349.064
471 0 77.1005 14.2282 1097 63.5223 496.248 348.669
472 1 40.0997 12.3692 496 64.6129 496.577 365.433
473 0 43.0649 12.9572 558 63.4014 496.823 365.036
474 0 43.0354 11.8275 509 65.4931 496.829 364.931
475 0 44.0447 10.9434 482 66.861 497.098 366.869
476 0 46.0315 12.4263 572 65.5559 497.012 364.549
477 0 47.0112 12.9544 609 65.4368 497.501 364.304
478 0 50.1112 11.5344 578 66.7595 497.251 363.142
479 0 50.1158 10.8948 546 68.0733 497.099 364.811
480 0 52.1136 12.3576 644 65.9472 496.97 364.733
481 0 53.124 11.4449 608 68.2007 497.023 362.669
482 0 57.1159 11.608 663 66.7511 497.131 365.187
483 0 57.0586 12.6887 724 66.1948 496.561 363.175
484 0 61.1309 12.5305 766 67.1462 496.232 359.902
485 0 61.0543 11.1049 678 69.2891 496.55 361.491
486 0 65.0991 14.1477 921 64.5776 496.607 362.089
487 0 66.0273 11.9345 788 67.8096 496.624 360.112
488 0 68.0604 11.7396 799 68.438 496.588 358.383
489 1 38.0159 12.7052 483 63.3043 497.025 374.364
490 0 40.0512 12.2593 491 64.721 497.273 373.835
491 0 39.0304 11.017 430 66.9349 497.126 372.721
492 0 42.0998 11.4727 483 65.9793 497.17 371.716
493 0 42.0186 11.4473 481 66.1975 496.863 370.753
494 0 44.0955 12.6544 558 64.3548 496.55 368.695
495 0 46.0201 14.385 662 61.8595 496.089 368.505
496 0 44.0551 10.555 465 67.8043 495.662 367.409
497 0 47.091 11.8069 556 65.5288 495.68 366.496
498 0 48.0518 10.3014 495 66.7495 495.756 366.588
499 0 51.0148 12.3494 630 64.3762 496.289 364.722
500 0 51.0602 9.89028 505 67.0238 495.947 365.531
501 0 55.0542 11.97 659 64.0895 495.718 364.648
502 0 56.0986 12.1037 679 64.0133 496.582 364.292
503 0 58.0691 13.3462 775 62.391 496.945 362.828
504 0 58.0938 11.8601 689 64.4427 496.308 361.522
505 0 62.1206 12.5401 779 62.9872 496.095 363.763
506 0 62.0937 11.3216 703 65.1792 495.502 360.636
507 0 67.1078 11.0568 742 64.6631 495.623 361.204
508 0 68.1339 12.0498 821 63.5579 496.251 361.515
509 0 70.0375 9.93754 696 66.1509 496.353 359.681
510 1 38.0865 11.5526 440 61.7114 497.152 375.014
511 0 38.0332 9.93868 378 64.6455 496.405 372.376
512 0 39.1637 10.6221 416 63.8582 496.423 371.863
513 0 41.0597 12.4697 512 60.8535 496.76 373.514
514 0 41.0503 10.9865 451 63.5942 497.027 371.945
515 0 43.0323 10.8291 466 63.6652 496.994 371.101
516 0 45.1148 12.5458 566 61.4611 496.689 370.689
517 0 46.1668 11.0469 510 64.9275 496.649 367.478
518 0 48.0266 12.3681 594 63.1599 496.859 366.594
519 0 49.0379 8.76872 430 66.7791 496.114 366.842
520 0 53.1233 10.2215 543 64.6059 496.438 362.751
521 0 54.2127 9.99766 542 65.0609 496.828 364.72
522 0 55.0433 11.9542 658 62.6778 496.222 363.556
523 0 56.0605 9.57893 537 66.2197 496.359 362.458
524 0 60.2062 12.3409 743 62.3755 496.475 360.265
525 0 61.0899 12.2115 746 62.2708 496.795 360.894
526 0 64.1302 11.4766 736 63.4375 496.556 357.713
527 0 66.1017 11.4672 758 63.4406 496.744 357.252
528 0 69.0517 12.8599 888 61.3074 496.296 356.074
529 1 38.121 11.07 422 62.0237 496.389 371.291
530 0 38.2134 9.47311 362 63.6685 496.729 370.171
531 0 39.0512 9.21867 360 64.6417 495.911 371.169
532 0 43.0816 9.77216 421 63.5843 495.933 369.126
533 0 43.1968 11.0425 477 62.4885 496.117 369.143
534 0 46.0834 11.3707 524 62.2882 496.672 367.954
535 0 47.076 11.7894 555 61.8414 496.638 367.114
536 0 49.1264 11.1549 548 62.5347 496.569 367.673
537 0 49.0586 10.9869 539 63.3135 496.991 366.64
538 0 54.0656 11.782 637 61.2732 496.523 364.815
539 0 53.0296 11.6727 619 62.2682 495.918 363.656
540 0 56.0368 12.9201 724 60.7003 495.992 362.898
541 0 57.1033 11.7156 669 62.1704 496 361.277
542 0 60.0534 12.3224 740 61.0054 496.059 361.503
543 0 62.0874 13.3844 831 59.8351 495.248 356.597
544 0 62.1034 12.5275 778 61.5913 495.409 356.117
545 0 69.1405 12.7711 883 59.5923 494.783 357.786
546 0 68.0605 10.5347 717 63.1604 495.543 356.718
547 0 72.1337 12.56 906 60.4128 495.134 353.658
548 1 36.0477 8.87714 320 63.0375 494.928 371.009
549 0 38.121 10.8602 414 60.7802 495.261 370.053
550 0 41.0883 10.8547 446 61.1659 495.83 367.926
551 0 42.0117 11.7824 495 59.8 496.37 368.776
552 0 44.0377 11.1041 489 60.3497 495.755 368.511
553 0 45.0537 11.2532 507 60.5819 495.732 366.047
554 0 44.0761 11.3213 499 61.8938 495.443 364.583
555 0 46.0294 10.5802 487 62.5072 496.335 364.585
556 0 48.0589 11.9229 573 60.8656 496.134 363.415
557 0 51.1173 11.7964 603 60.7761 496.191 362.373
558 0 50.0577 11.2071 561 62.7308 495.428 360.485
559 0 52.0725 10.7542 560 62.8107 495.614 359.614
560 0 57.0804 11.7028 668 60.4192 495.822 361.506
561 0 57.0252 11.8895 678 61.0575 495.348 359.286
562 0 60.0462 12.4404 747 59.9866 495.628 360.376
563 0 62.0765 12.6135 783 59.6398 495.759 359.474
564 0 65.1732 11.8914 775 60.5471 495.574 359.303
565 0 67.0725 12.0467 808 60.4579 495.814 356.725
566 0 71.0985 12.1381 863 59.8436 495.802 354.664
567 0 71.1112 11.7844 838 61.2947 495.945 353.774
568 1 39.0366 10.9897 429 60.0629 496.48 370.571
569 0 39.0288 10.4794 409 60.6748 496.445 371.555
570 0 42.0818 11.3826 479 59.9269 496.568 369.246
571 0 42.1131 10.4718 441 61.7188 496.308 367.868
572 0 43.0679 11.4238 492 60.998 496.256 366.825
573 0 47.0407 11.3094 532 61.0019 495.789 363.331
574 0 49.0639 10.8838 534 61.0487 496.182 363.818
575 0 52.0496 12.4305 647 58.7883 496.074 363.801
576 0 53.0492 11.593 615 60.1561 496.057 362.351
577 0 54.0263 12.0682 652 59.0936 495.853 363.709
578 0 53.0964 8.73883 464 63.125 496.31 363.735
579 0 58.0488 12.9029 749 57.6475 496.101 362.897
580 0 59.0632 12.038 711 59.3685 495.679 360.018
581 0 60.0955 10.8993 655 60.9954 495.55 359.673
582 0 62.0448 12.2976 763 59.1861 495.638 359.017
583 0 63.0414 12.0873 762 59.6759 494.476 357.591
584 0 68.1429 13.2956 906 58.3267 494.728 354.071
585 0 68.0653 11.107 756 61.041 495.02 353.571
586 0 71.1678 11.7047 833 60.4994 494.875 350.676
587 0 74.2403 12.0689 896 59.4319 495.269 351.379
588 0 77.1616 11.1973 864 60.7847 495.536 349.175
589 0 81.0912 12.0235 975 59.4985 495.461 348.686
590 0 82.2093 11.3369 932 60.8155 495.147 347.671
591 0 86.0491 11.3656 978 60.545 495.381 345.405
592 1 45.0628 12.2274 551 57.461 495.691 366.352
593 0 47.0158 11.762 553 57.8608 495.454 364.014
594 0 47.0221 11.5903 545 58.9009 495.864 362.912
595 0 48.0217 10.8701 522 60.0268 495.866 360.09
596 0 49.046 11.6625 572 57.9266 496.112 362.217
597 0 52.0654 11.9657 623 57.9246 495.448 357.254
598 0 54.0332 10.8082 584 59.1027 495.389 359.538
599 0 55.0799 10.4394 575 59.2557 495.426 359.235
600 0 58.1165 11.2533 654 58.6009 495.179 357.631
601 0 60.0903 11.2664 677 59.0222 495.747 356.139
602 0 63.0908 12.1729 768 57.6927 495.923 356.609
603 0 63.0648 10.3861 655 60.5817 495.945 353.208
604 0 65.1012 11.1058 723 59.787 496.093 353.111
605 0 67.0876 10.449 701 60.6605 496.049 352.719
606 0 68.0493 10.654 725 61.1021 495.975 348.753
607 0 73.1268 12.4715 912 59.1535 496.068 347.319
608 1 36.0723 10.174 367 60.4741 495.807 366.125
609 0 39.0503 9.42375 368 59.8777 495.685 366.698
610 0 41.0305 10.5531 433 59.776 495.478 364.072
611 0 43.1099 10.2993 444 59.1869 496.113 365.124
612 0 45.0653 10.4293 470 59.2745 495.677 364.051
613 0 47.1406 11.943 563 57.6696 494.98 362.673
614 0 46.0519 10.1407 467 60.4347 495.229 363.032
615 0 51.2275 11.3025 579 58.0967 495.131 362.223
616 0 51.0454 11.8522 605 59.1322 494.574 358.716
617 0 52.0791 12.097 630 57.6921 494.833 361.706
618 0 56.0244 11.6378 652 58.3129 494.883 359.887
619 0 57.2743 11.733 672 58.9643 494.973 357.714
620 0 57.041 11.22 640 59.9188 494.806 357.348
621 0 59.0919 12.066 713 58.9607 494.797 357.843
622 0 63.1161 11.6927 738 59.2263 495.434 355.15
623 0 66.1567 12.682 839 57.8641 495.39 354.71
624 0 67.1933 12.3524 830 59.2265 495.07 351.022
625 0 68.2356 11.8413 808 60.4666 494.994 350.892
626 0 71.2138 10.9108 777 60.6345 495.367 353.026
627 0 74.136 11.7082 868 59.8168 494.808 351.581
628 0 75.1728 11.7995 887 60.0383 495.037 350.383
629 0 77.1434 11.0184 850 61.7647 495.024 347.218
630 1 44.0534 9.85168 434 61.2465 494.548 362.41
631 0 45.0935 9.15876 413 61.9806 494.906 362.768
632 0 45.1096 9.13331 412 61.1262 494.541 365.818
633 0 46.0634 9.74743 449 60.8931 495.038 365.024
634 0 50.0871 10.5416 528 60.2273 495.21 362.102
635 0 50.1047 10.7974 541 60.0444 495.59 360.952
636 0 53.1066 12.9927 690 57.042 496.035 358.113
637 0 53.151 11.7213 623 58.8266 495.669 355.409
638 0 56.1123 12.0829 678 57.7212 495.624 354.919
639 0 56.1591 10.221 574 60.4059 495.507 353.784
640 0 59.1391 11.0587 654 58.922 495.486 355.26
641 0 60.0303 10.5947 636 59.6211 495.148 353.643
642 0 64.1051 13.7898 884 55.8473 495.326 352.18
643 0 64.0657 13.1896 845 56.774 494.489 351.288
644 0 65.1324 10.6706 695 60.0777 494.652 349.219
645 0 68.1665 11.8827 810 57.6173 494.921 350.825
646 0 72.078 11.6679 841 57.6504 494.812 349.231
647 0 74.118 11.8864 881 57.1918 495.081 348.73
648 0 78.0904 11.7684 919 57.4037 494.479 346.661
649 0 81.1307 11.5 933 57.8017 495.456 344.51
650 0 83.117 11.6583 969 57.5893 495.341 345.282
651 0 88.0772 12.6253 1112 56.3183 495.147 343.161
652 0 89.0826 12.0001 1069 57.7456 495.217 340.191
653 1 46.0919 10.2621 473 58.0021 495.505 360.835
654 0 50.0222 10.3754 519 57.894 495.05 358.58
655 0 51.1163 10.838 554 57.6841 495.023 358.146
656 0 52.0601 12.5624 654 55.7141 495.483 357.723
657 0 55.0479 11.4082 628 55.836 495.328 357.04
658 0 56.1287 11.7765 661 57.3041 494.284 354.959
659 0 58.0918 11.1376 647 58.6275 493.867 352.338
660 0 61.1333 13.4951 825 55.3091 494.544 353.656
661 0 63.1158 14.3546 906 54.5033 494.477 352.342
662 0 64.1212 11.9773 768 57.1797 494.284 351.905
663 0 63.0988 10.4439 659 59.8361 494.493 349.393
664 0 67.0423 10.7097 718 59.3036 494.618 349.663
665 0 69.0574 12.6706 875 56.8663 494.523 348.653
666 0 72.0237 12.7597 919 57.3188 494.19 349.192
667 0 73.064 12.0169 878 58.3918 494.615 348.024
668 0 75.0597 12.3368 926 58.2613 494.585 345.715
669 0 78.2124 12.0058 939 58.476 494.637 344.967
670 0 76.1806 9.68751 738 61.5772 494.485 342.949
671 0 84.1369 12.1469 1022 58.7339 494.15 341.029
672 0 85.0424 11.7118 996 59.5462 494.367 339.219
673 1 43.0257 10.5518 454 59.0242 494.141 359.134
674 0 45.0208 11.2615 507 58.1203 494.538 361.785
675 0 46.0554 11.0736 510 58.2549 494.294 358.845
676 0 49.0553 10.7226 526 58.0228 493.975 360.778
677 0 51.0427 13.6552 697 55.5409 493.861 358.009
678 0 51.0262 11.1707 570 58.1351 493.896 359.365
679 0 53.051 11.8942 631 57.8875 494.265 356.3
680 0 53.0678 10.7221 569 59.29 494.504 356.851
681 0 55.1018 12.6675 698 57.5917 494.769 352.278
682 0 55.0527 11.8069 650 58.5815 495.074 354.897
683 0 59.1724 13.7733 815 55.8847 495.151 353.371
684 0 60.0865 12.3489 742 57.9313 494.987 353.637
685 0 62.0283 13.4777 836 56.9127 495.102 352.051
686 0 63.1231 10.8835 687 58.6521 494.613 354.071
687 0 65.0425 11.6385 757 58.576 494.724 350.089
688 0 66.0356 13.7047 905 56.5282 494.925 348.538
689 0 69.0903 12.8672 889 57.3791 495.151 346.831
690 0 70.0676 10.1759 713 59.9285 495.098 348.435
691 0 74.0737 12.7981 948 56.8776 494.882 347.223
692 0 74.1067 11.8073 875 58.4983 494.635 345.896
693 0 78.0633 12.0159 938 57.9968 495.164 346.19
694 0 83.1143 13.8604 1152 55.9193 495.122 343.379
695 0 85.0485 12.5458 1067 57.0544 495.146 344.755
696 1 44.108 10.4063 459 59.0283 495.109 360.351
697 0 47.0338 11.6937 550 57.8636 494.775 360.142
698 0 49.0625 11.9236 585 57.4188 494.921 359.45
699 0 48.0598 11.0904 533 58.4991 495.537 359.417
700 0 50.0633 13.1234 657 57.0761 495.524 355.953
701 0 52.0685 13.6551 711 56.1758 495.509 356.961
702 0 56.0485 13.1672 738 56.9959 496.154 355.691
703 0 57.0277 14.6595 836 55.3385 495.946 354.602
704 0 59.097 12.4033 733 58.2087 495.644 355.909
705 0 58.0811 11.6045 674 60.1662 495.573 352.349
706 0 63.0594 12.29 775 58.48 495.048 353.244
707 0 64.0285 13.9782 895 57.7285 495.46 349.001
708 0 66.101 11.5429 763 60.4246 495.227 350.98
709 0 68.0868 12.4694 849 59.6113 495.435 347.951
710 0 69.0746 12.1752 841 60.6076 495.27 346.968
711 0 74.0766 10.9211 809 60.3894 494.921 347.398
712 0 78.0852 13.831 1080 56.238 494.83 348.275
713 0 79.0609 14.2548 1127 57.126 495.043 343.579
714 0 83.0633 12.2076 1014 59.4773 495.845 340.908
715 0 84.1561 11.3004 951 61.0347 494.792 338.356
716 0 89.0759 13.438 1197 58.6107 495.225 337.482
717 0 90.1932 11.4199 1030 61.4359 494.682 335.602
718 0 96.2073 13.1175 1262 58.7242 495.277 334.141
719 1 51.099 11.6049 593 57.5261 495.46 357.675
720 0 48.0158 10.1842 489 60.4131 495.446 355.683
721 0 54.0495 12.6366 683 56.6808 495.163 354.193
722 0 54.0732 10.9111 590 59.3576 494.951 352.561
723 0 57.0541 11.8835 678 56.7286 495.17 356.078
724 0 57.112 11.2236 641 58.8658 494.863 351.741
725 0 58.1643 11.4675 667 58.7451 494.789 349.924
726 0 62.1011 12.1576 755 57.3921 495.087 349.803
727 0 64.0666 11.5661 741 58.1066 495.572 348.874
728 0 67.064 14.0463 942 55.2282 495.141 346.123
729 0 68.046 11.7567 800 58.105 494.971 345.373
730 0 71.1044 14.0638 1000 55.428 495.421 346.572
731 0 70.0776 11.7869 826 58.569 495.36 344.669
732 0 73.0425 10.9525 800 59.015 494.939 344.496
733 0 78.1214 11.9174 931 57.7164 494.912 343.649
734 1 44.0714 13.1378 579 53.8256 494.869 360.575
735 0 44.0624 12.4142 547 55.5905 495.011 358.563
736 0 48.042 11.7606 565 56.1398 495.273 357.821
737 0 48.0938 12.0598 580 56.1862 495.369 356.626
738 0 49.0661 11.5151 565 57.1699 495.193 355.112
739 0 52.0589 12.4859 650 55.7215 494.983 354.909
740 0 51.036 12.0503 615 57.2992 494.392 354.023
741 0 55.0304 12.5567 691 56.4863 494.226 352.543
742 0 55.0398 11.7915 649 57.3374 494.519 351.963
743 0 56.1192 10.2995 578 59.0917 495.455 351.815
744 0 60.0501 11.3239 680 57.2838 494.581 352.31
745 0 61.0479 10.7293 655 58.4168 494.716 350.354
746 0 65.0725 14.1688 922 54.179 494.361 350.42
747 0 64.0557 12.052 772 56.9806 493.997 348.977
748 0 66.079 11.229 742 58.0687 494.931 347.15
749 1 35.0209 10.8221 379 55.4301 494.588 363.391
750 0 37.0476 8.69151 322 58.2019 494.497 362.652
751 0 38.0252 12.4128 472 54.6716 495.458 360.725
752 0 38.0894 11.6043 442 55.8303 495.122 360.846
753 0 39.0688 10.2128 399 56.9524 494.654 361.19
754 0 39.0323 10.5554 412 56.1408 494.83 361.223
755 0 43.0392 11.2223 483 55.6315 494.236 356.323
756 0 43.0524 10.7311 462 56.5043 494.028 355.734
757 0 47.0434 12.6904 597 54.1323 494.611 357.32
758 0 48.0993 11.7673 566 55.0336 494.12 355.703
759 0 50.0254 10.0549 503 56.2565 494.213 357.219
760 0 49.0516 9.92832 487 57.501 494.667 355.386
761 0 53.1058 11.2041 595 56.3983 495.264 354.227
762 0 55.0393 13.6811 753 53.2882 494.991 355.669
763 0 57.077 11.7736 672 54.8765 495.307 354.186
764 0 58.0545 11.4548 665 55.5579 495.456 352.985
765 0 61.0415 13.0239 795 53.6252 495.697 352.313
766 0 61.0552 11.7926 720 55.4986 495.371 349.244
767 0 58.0311 9.99464 580 58.1914 495.067 349.59
768 0 63.0256 11.7254 739 55.4073 495.25 350.622
769 0 68.2305 13.1466 897 53.8194 495.027 348.72
770 0 71.0829 12.9848 923 53.7876 494.805 347.583
771 0 71.0706 11.8052 839 55.1454 495.031 349.16
772 1 33.0285 8.78029 290 55.5103 495.048 365.624
773 0 35.1245 10.05 353 55.9377 495.272 362.516
774 0 35.031 11.8181 414 53.7319 494.565 364.326
775 0 36.0396 11.9036 429 54.4079 494.487 363.016
776 0 39.015 9.40663 367 56.376 494.711 362.128
777 0 41.0395 10.1122 415 55.4843 494.639 361.61
778 0 41.044 10.2573 421 55.4941 494.074 360.162
779 0 44.1296 11.7608 519 54.2697 494.355 357.566
780 0 47.0595 12.1336 571 53.3485 494.384 359.049
781 0 49.1195 12.5409 616 52.6445 494.89 358.286
782 0 49.0667 10.6997 525 55.2076 495.015 355.27
783 0 50.0661 11.2651 564 53.7039 494.856 358.553
784 0 51.1259 12.3421 631 53.8304 495.32 352.29
785 0 55.1264 11.8455 653 53.5559 495.268 353.994
786 0 55.0831 12.1271 668 53.7844 494.912 352.033
787 0 57.2042 11.9572 684 54.655 494.702 348.876
788 0 61.0947 12.2269 747 53.826 494.639 348.47
789 0 62.0598 11.6501 723 54.2158 494.669 349.609
790 0 65.0625 11.4966 748 54.3369 495.337 347.444
791 0 69.0445 11.5288 796 53.9724 494.832 343.251
792 0 70.0879 13.3119 933 52.5798 495.265 344.447
793 1 36.0314 12.045 434 51.8986 495.698 360.177
794 0 36.0253 10.0762 363 55.2039 494.526 357.554
795 0 36.0368 8.38031 302 56.7848 494.341 359.334
796 0 41.0453 9.59916 394 54.7132 493.939 359.178
797 0 40.1472 11.7817 473 53.6342 494.41 356.829
798 0 41.0269 11.7971 484 54.5269 494.337 355.603
799 0 43.0671 11.5866 499 54.513 494.94 355.605
800 0 43.0365 10.0845 434 56.5553 495.459 356.788
801 0 45.0751 10.0277 452 57.4491 494.916 353.847
802 0 48.0135 11.7675 565 55.1752 495.535 355.998
803 0 50.0909 13.5554 679 53.3844 496.184 355.105
804 0 53.0828 11.435 607 55.3278 495.735 355.361
805 0 52.0705 13.3089 693 54.6869 495.266 351.535
806 0 56.0315 11.3151 634 56.541 495.446 353.394
807 0 58.0773 12.6556 735 54.7687 495.703 353.763
808 0 58.1306 12.8848 749 55.6943 495.29 350.031
809 0 61.0899 12.0805 738 56.607 494.997 351.378
810 0 66.0861 13.664 903 54.6866 495.413 348.484
811 0 66.0296 12.2975 812 57.6663 495.972 347.783
812 0 68.0335 12.876 876 56.774 495.902 347.953
813 0 69.0825 12.362 854 58.6347 495.939 342.355
814 0 74.0474 12.438 921 57.6124 496.366 344.44
815 0 73.1224 11.0363 807 60.7323 495.906 342.482
816 1 40.0853 11.9745 480 57.7437 495.619 360.169
817 0 42.0359 10.9668 461 59.3601 495.915 359.557
818 0 44.1215 11.4457 505 59.1842 495.689 356.541
819 0 44.0409 11.2395 495 60.0747 495.84 358.121
820 0 45.0388 11.479 517 60.1199 495.952 355.617
821 0 47.1111 12.3326 581 58.5594 495.898 357.033
822 0 49.0978 11.2836 554 60.5487 495.245 355.433
823 0 51.0244 11.4063 582 60.3918 495.467 355.54
824 0 54.0715 12.4835 675 58.9274 495.655 353.612
825 0 56.0803 13.9443 782 57.5691 495.73 353.185
826 0 59.0727 12.6285 746 59.0067 495.739 351.566
827 0 59.0835 13.4386 794 58.8564 495.414 349.487
828 0 63.05 12.7518 804 59.1443 495.241 349.907
829 0 62.0464 12.6679 786 59.5802 495.622 349.561
830 0 66.0474 13.46 889 58.1485 494.979 348.037
831 0 66.1462 11.5955 767 60.7705 495.196 348.064
832 0 70.2152 11.4363 803 60.7671 494.499 346.694
833 0 70.0656 12.3741 867 59.6667 494.307 345.337
834 0 71.1236 11.7401 835 61.1677 494.699 343.042
835 0 76.1571 12.5661 957 59.2696 494.931 344.392
836 1 43.0565 11.4268 492 59.937 495.78 358.886
837 0 43.0343 11.9672 515 59.2039 495.388 358.691
838 0 46.0126 11.9967 552 59.6033 495.723 357.665
839 0 50.041 11.8503 593 58.7639 495.513 356.629
840 0 51.0264 12.3465 630 58.2937 495.96 356.746
841 0 52.014 12.8042 666 58.1066 495.671 356.02
842 0 54.0923 11.8131 639 59.9218 496.13 354.155
843 0 55.087 11.9266 657 60.7458 495.852 352.81
844 0 54.0857 12.018 650 61.2908 496.142 352.06
845 0 59.0456 12.5496 741 60.0729 495.826 352.382
846 0 60.0275 12.1778 731 61.1409 495.706 350.912
847 0 64.0669 15.0936 967 56.7528 495.137 350.919
848 0 65.0861 12.2453 797 60.9021 494.842 347.693
849 0 65.0876 13.1822 858 60.3986 495.386 346.684
850 0 69.0295 13.2117 912 59.568 495.277 346.922
851 0 71.0966 14.1779 1008 59.2688 495.067 344.558
852 0 75.0584 13.6161 1022 59.4472 494.825 343.657
853 0 76.1109 12.6 959 60.5589 495.318 344.583
854 0 80.1997 15.3741 1233 57.0308 495.809 343.144
855 1 42.0446 10.4889 441 60.8571 495.46 361.063
856 0 41.0368 10.8683 446 62.1816 496.105 358.143
857 0 48.0147 12.6211 606 58.9719 495.46 358.03
858 0 47.0613 12.1756 573 61.0873 495.435 354.538
859 0 49.0557 11.2525 552 61.7428 495.629 355.167
860 0 51.0657 12.1216 619 60.3732 495.333 354.312
861 0 55.2213 17.0768 943 52.755 494.056 355.949
862 0 56.0548 12.8089 718 58.5376 495.104 355.376
863 0 53.0461 10.8962 578 63.0277 495.453 350.369
864 0 59.1068 13.501 798 58.3145 496.056 351.828
865 0 61.1005 13.306 813 58.2977 496.424 352.148
866 0 63.2385 13.8681 877 57.6556 496.367 350.623
867 0 64.0958 13.6982 878 57.7995 496.121 349.961
868 0 65.2114 11.8078 770 60.1377 496.183 347.806
869 0 68.1375 13.6635 931 58.3158 495.812 345.026
870 0 69.0602 12.5687 868 59.5046 496.328 346.548
871 0 76.2126 13.3311 1016 57.4685 496.345 346.776
872 0 78.112 12.8149 1001 58.0519 496.266 346.838
873 0 77.0661 10.5624 814 61.516 496.127 344.221
874 1 45.0472 11.3881 513 58.77 495.994 360.17
875 0 45.0224 10.4393 470 59.9298 495.819 358.836
876 0 48.0361 11.7203 563 58.7229 496.052 358.972
877 0 48.0361 10.4505 502 60.6295 496.55 357.44
878 0 49.1095 11.5253 566 58.7367 496.396 357.39
879 0 53.0706 11.2492 597 57.928 496.891 357.961
880 0 54.0213 12.2544 662 57.148 495.754 355.14
881 0 58.0546 12.0404 699 56.8083 495.913 354.953
882 0 58.0677 14.3109 831 55.2563 495.826 351.554
883 0 57.084 11.7896 673 58.0996 496.174 352.077
884 0 60.0637 13.2692 797 56.1217 496.266 352.507
885 0 65.1357 11.6987 762 57.2323 496.503 350
886 0 66.0381 12.6896 838 55.8663 496.337 350.752
887 0 68.0469 13.1233 893 55.2665 496.422 349.685
888 0 70.0931 10.6287 745 57.8765 496.189 347.883
889 0 74.1314 12.1271 899 55.4683 496.576 347.295
890 0 76.1184 12.5988 959 56.0594 495.719 341.759
891 0 80.0422 12.281 983 56.0142 495.913 342.199
892 0 82.2032 12.6637 1041 55.4073 495.167 341.473
893 0 83.2163 12.9662 1079 55.152 495.29 338.348
894 0 87.0877 12.6195 1099 55.7853 494.987 335.276
895 1 47.0743 10.4303 491 56.22 494.933 355.933
896 0 51.0575 9.96915 509 56.5835 495.356 354.338
897 0 50.0744 12.0421 603 55.6385 495.29 351.383
898 0 54.0389 11.8248 639 55.2457 495.524 352.092
899 0 58.1325 13.108 762 53.5223 495.997 350.953
900 0 60.0309 10.9444 657 55.204 495.525 351.187
901 0 64.075 13.2813 851 52.2679 495.724 351.625
902 0 64.0828 11.61 744 53.6935 495.426 352.68
903 0 66.072 13.2885 878 52.9909 495.394 346.334
904 0 69.1133 11.2569 778 54.9692 495.261 346.983
905 0 69.0994 10.9986 760 55.0658 495.296 346.112
906 0 72.104 13.3834 965 52.6725 495.07 344.065
907 0 73.0987 10.6568 779 55.6996 495.727 342.576
908 0 75.0843 10.4416 784 55.8763 495.519 340.633
909 0 80.0937 14.3582 1150 51.6591 496.022 342.337
910 0 82.126 10.63 873 55.4754 495.916 338.92
911 0 88.2206 13.3189 1175 52.7166 495.402 339.242
912 1 48.108 11.6613 561 52.8859 495.207 358.098
913 0 50.0474 11.4691 574 52.9634 495.07 357.568
914 0 47.1108 11.2288 529 54.2571 495.248 356.025
915 0 52.0492 11.1433 580 53.6828 495.369 354.66
916 0 54.1654 11.1695 605 53.676 494.97 351.638
917 0 58.1892 12.0813 703 52.2873 495.708 353.501
918 0 61.0175 12.1932 744 51.2177 496.086 353.403
919 0 63.0452 12.2928 775 51.5535 496.17 350.773
920 0 68.1083 11.2027 763 51.9318 496.242 351.748
921 0 69.0935 13.3442 922 50.4544 496.665 348.375
922 0 70.0791 10.4453 732 52.6817 496.21 350.128
923 0 71.0578 11.7088 832 51.9026 496.462 346.107
924 0 75.1131 11.9686 899 51.8376 496.013 343.952
925 0 76.1865 10.6974 815 53.092 495.876 341.793
926 0 82.1193 13.3951 1100 50.4282 495.857 341.025
927 0 83.0809 11.4587 952 52.0557 495.757 339.222
928 1 44.1363 9.28941 410 51.8927 495.583 359.732
929 0 45.0293 10.4821 472 51.1419 495.517 359.123
930 0 50.0546 12.8659 644 48.8649 495.992 355.884
931 0 50.0938 10.1809 510 50.9412 495.52 356.951
932 0 52.1093 11.0537 576 50.9444 494.878 353.243
933 0 54.0461 11.2867 610 51.1492 494.916 350.562
934 0 59.04 11.8225 698 49.7235 495.04 353.509
935 0 61.0938 11.7852 720 49.9611 494.667 350.665
936 0 61.1029 11.7998 721 50.8419 495.838 350.978
937 0 61.0502 10.1392 619 52.42 494.977 347.919
938 0 65.1125 11.3189 737 50.7123 495.038 349.265
939 0 67.0406 11.6497 781 50.8233 494.976 345.399
940 0 74.1603 10.4099 772 45.2306 494.231 343.632
941 0 72.1653 12.8594 928 49.5022 494.899 344.508
942 0 73.1263 9.84598 720 52.4236 495.307 342.657
943 0 76.1518 10.8205 824 51.8362 494.542 340.335
944 0 81.2888 13.5074 1098 49.1056 495.09 339.55
945 1 39.0643 11.9803 468 49.3184 495.222 360.162
946 0 40.077 10.0057 401 51.0574 495.09 356.352
947 0 42.0554 11.366 478 50.249 495.381 359.01
948 0 45.1387 11.4536 517 49.6538 494.727 357.973
949 0 46.0974 12.4953 576 49.224 495.038 355.002
950 0 47.1267 10.058 474 50.9388 495.15 355.648
951 0 48.046 9.82392 472 51.6292 494.947 352.29
952 0 51.2268 10.8342 555 50.4414 495.2 351.885
953 0 52.0214 11.8028 614 50.5733 495.031 350.738
954 0 55.2007 13.0977 723 49.0429 495.326 350.943
955 0 57.061 13.249 756 48.8664 494.997 350.315
956 0 57.0895 11.9286 681 50.4626 495.106 347.768
957 0 58.0259 11.3225 657 51.4886 495.233 348.516
