time division length width area intensity CMx CMy
0 0 69.0605 7.60203 525 67.9657 879.28 480.07
1 0 73.1435 9.21476 674 65.997 878.809 477.318
2 1 37.0542 6.98976 259 66.8108 879.629 496.127
3 0 35.0255 7.79431 273 67.2344 879.286 496.949
4 0 38.1115 8.05532 307 66.0489 879.362 497.886
5 0 42.0263 9.01816 379 63.942 879.103 495.082
6 0 44.0366 10.1734 448 62.6161 878.438 496.259
7 0 42.0202 9.68581 407 63.0909 878.268 493.627
8 0 48.051 9.4691 455 62.5451 877.756 493.908
9 0 46.0184 8.77909 404 64.1114 877.554 490.089
10 0 46.0272 8.97295 413 64.1235 877.535 491.254
11 0 49.0471 8.90981 437 64.0572 877.256 490.668
12 0 51.0565 9.73432 497 62.998 877.308 489.688
13 0 51.0598 8.48025 433 65.873 877.647 489.139
14 0 53.0305 9.20226 488 66.0061 878.045 488.084
15 0 58.0954 10.1213 588 63.9133 876.741 487.9
16 0 58.0819 11.4321 664 62.244 876.065 489.002
17 0 59.1049 9.18706 543 64.9613 877.013 484.597
18 0 60.0799 10.3196 620 63.4871 876.456 485.523
19 0 63.1169 10.7895 681 62.906 876.264 485.593
20 0 64.1155 10.2939 660 63.6773 876.568 484.717
21 0 65.16 9.53039 621 64.5153 875.675 481.717
22 0 70.1075 10.598 743 62.7779 876.015 482.21
23 0 71.1358 11.0493 786 62.4071 875.501 480.031
24 0 74.1435 10.5876 785 62.749 875.791 480.746
25 0 79.1258 11.9051 942 60.8811 876.484 478.003
26 0 79.2719 11.4921 911 62.0768 876.829 477.571
27 0 81.1602 11.1631 906 62.9095 876.613 474.582
28 0 84.1341 10.5783 890 63.4663 876.419 473.837
29 0 88.2063 12.2214 1078 61.5584 876.165 472.866
30 1 44.0689 9.68938 427 63.3185 876.913 494.133
31 0 44.068 8.23727 363 65.5014 876.785 494.645
32 0 48.0773 10.6703 513 62.653 876.684 493.326
33 0 47.043 10.7349 505 63.5129 876.509 491.57
34 0 50.0413 10.0517 503 64.3459 876.71 491.654
35 0 51.0995 11.4091 583 63.2882 876.566 489.307
36 0 53.0835 11.0769 588 63.2245 876.563 489.939
37 0 56.2065 11.6001 652 61.8972 876.086 492.078
38 0 55.0272 11.1581 614 64.0342 875.256 486.609
39 0 57.222 12.0059 687 63.5313 875.236 482.467
40 0 57.1779 10.3536 592 65.9696 875.395 482.328
41 0 60.2743 10.9997 663 65.3831 875.671 482.701
42 0 61.245 11.0866 679 64.9676 875.919 484.623
43 0 62.091 10.8711 675 65.8459 875.36 479.625
44 0 68.1855 12.0114 819 63.2259 875.816 481.258
45 0 67.1941 10.2836 691 66.0839 875.774 481.139
46 0 72.2976 13.0433 943 62.3065 874.857 478.931
47 0 72.1947 10.9426 790 65.0709 874.784 477.276
48 0 76.2132 10.2607 782 65.688 874.84 476.231
49 0 77.1802 11.8165 912 63.7544 874.057 474.821
50 0 80.4128 13.4556 1082 61.5277 874.296 474.262
51 0 83.5606 10.8544 907 64.6395 874.667 470.616
52 0 85.2603 10.1923 869 65.1128 874.785 471.911
53 0 88.0741 11.6947 1030 63.3563 875.164 469.079
54 1 44.0809 10.6395 469 61.6439 874.78 491.588
55 0 47.1443 10.2451 483 62.4845 875.114 492.075
56 0 48.0718 11.1916 538 61.6004 874.364 490.781
57 0 48.0816 9.62946 463 64.6479 874.583 489.039
58 0 50.1219 11.3523 569 62.3761 874.752 487.647
59 0 51.0318 10.9344 558 63.6254 874.681 487.19
60 0 53.1601 11.2114 596 63.0973 874.161 485.141
61 0 57.1257 11.711 669 61.7235 874.656 485.904
62 0 58.0527 13.7806 800 59.1688 874.464 485.897
63 0 59.1578 12.0525 713 61.6031 874.404 485.513
64 0 61.1912 12.2403 749 61.4927 874.63 485.856
65 0 62.0373 10.7355 666 63.2147 874.062 484.258
66 0 64.2184 10.9159 701 63.0756 873.702 481.893
67 0 66.1986 12.4625 825 61.5842 873.838 477.344
68 0 68.1898 10.5734 721 63.1248 874.251 480.007
69 0 69.2214 11.3693 787 62.6645 875.047 476.353
70 0 73.2341 10.9512 802 62.9102 874.364 476.35
71 0 74.1652 13.0654 969 61.0248 874.51 473.732
72 0 73.2823 11.1214 815 63.3362 874.739 474.589
73 0 76.0737 10.8842 828 63.5604 874.539 476.008
74 0 80.1099 10.523 843 63.2633 874.422 476.008
75 0 81.1944 12.2176 992 61.9244 874.387 470.007
76 0 83.172 9.13769 760 65.9355 874.001 470.992
77 0 87.1399 10.6036 924 64.1602 874.536 470.596
78 1 49.0802 8.92416 438 62.8128 874.822 491.208
79 0 48.0693 9.13265 439 63.8041 874.565 490.658
80 0 48.0911 9.96027 479 63.9061 875.196 488.637
81 0 53.0599 10.818 574 63.0366 874.533 487.709
82 0 56.0574 11.5239 646 61.8762 874.118 487.851
83 0 53.1307 10.5589 561 64.18 874.05 486.36
84 0 54.0635 9.82179 531 65.4256 873.815 485.021
85 0 56.0624 11.4872 644 63.0978 874.561 487.13
86 0 59.0515 10.5162 621 64.9614 874.908 484.359
87 0 60.0442 10.0926 606 65.3069 874.548 485.417
88 0 62.065 11.4235 709 64.8928 875.118 482.268
89 0 65.0936 12.5665 818 62.6149 875.167 483.812
90 0 67.0919 11.0147 739 65.0487 875.009 481.578
91 0 69.0961 11.4623 792 64.7475 875.109 478.489
92 0 73.1376 13.4404 983 61.5239 875.293 477.944
93 0 72.0164 11.4835 827 65.0992 875.318 476.029
94 0 75.055 10.5123 789 66.4423 875.054 476.25
95 0 75.055 10.4057 781 139.47 875.065 476.145
96 0 82.0826 12.1463 997 63.7482 874.756 475.46
97 0 84.0582 12.182 1024 64.2686 874.738 471.804
98 0 85.0508 12.2397 1041 64.1374 875.219 470.063
99 0 89.1777 14.757 1316 60.1976 875.378 471.064
100 0 91.3162 11.5861 1058 64.0888 875.195 470.107
101 1 44.0963 7.23416 319 64.2194 875.216 491.235
102 0 48.1226 9.62126 463 60.7214 875.952 491.255
103 0 48.2272 11.3007 545 60.0661 875.941 488.743
104 0 48.1926 11.288 544 60.2518 876.009 489.882
105 0 52.1112 10.4584 545 61.1028 875.695 488.213
106 0 53.1685 10.5326 560 60.4286 875.311 491.459
107 0 55.2003 10.6159 586 60.7491 875.058 494.251
108 0 57.0849 11.6493 665 59.8241 875.693 489.919
109 0 59.0405 11.1618 659 59.6358 875.361 488.788
110 0 58.1034 10.4641 608 61.125 876.118 487.387
111 0 60.1141 9.29899 559 62.1163 875.077 489.49
112 0 61.112 9.99804 611 61.5614 874.866 486.671
113 0 65.0507 11.2989 735 59.8082 874.59 486.614
114 0 64.1007 10.8735 697 60.9871 874.834 485.313
115 0 67.0766 9.39224 630 62.4841 875.154 484.629
116 0 69.0672 10.497 725 61.9572 875.346 481.571
117 0 71.0455 10.3877 738 62.1897 875.873 479.425
118 0 75.0922 8.81583 662 63.7009 875.897 482.385
119 0 77.0691 11.1718 861 61.7027 875.769 480.479
120 0 79.1089 11.6422 921 61.4582 876.054 478.213
121 1 39.0343 8.5822 335 61.1552 876.036 498.74
122 0 42.0404 9.30058 391 59.7417 875.455 499.148
123 0 44.0188 9.70039 427 58.8618 875.916 500.454
124 0 46.03 10.2542 472 58.8898 875.943 499.074
125 0 43.0199 8.34498 359 63.0139 876.448 495.248
126 0 47.0228 9.71868 457 61.1904 875.952 496.838
127 0 48.0384 11.1994 538 59.658 875.699 493.431
128 0 49.0467 9.25647 454 62.5925 876.352 494.504
129 0 52.0413 10.4532 544 60.4945 876.145 493.25
130 0 52.0563 9.91235 516 62.7054 876.017 491.787
131 0 55.0685 11.2405 619 60.1842 876.664 494.559
132 0 55.0598 9.2445 509 63.7092 876.432 492.578
133 0 54.0734 9.37614 507 64.0592 876.783 492.842
134 0 57.087 9.19649 525 64.3714 876.444 492.411
135 0 58.0188 8.44554 490 66.2837 876.316 486.867
136 0 59.0677 9.5653 565 64.908 876.48 488.071
137 0 61.0319 9.749 595 65.4588 876.395 489.571
138 0 62.0985 12.0132 746 63.063 876.937 486.584
139 0 66.0649 11.3525 750 63.0387 876.865 489.603
140 0 66.0427 10.7052 707 64.5672 877.222 487.877
141 0 67.1638 10.8541 729 64.8656 876.49 486.331
142 0 71.103 11.6732 830 63.1627 876.723 484.933
143 0 71.1216 10.2782 731 65.8755 876.733 483.977
144 0 73.0528 9.58211 700 66.0071 876.651 486.27
145 0 74.0991 9.41981 698 67.49 877.401 481.36
146 0 79.0581 11.7003 925 64.2292 877.466 480.334
147 0 79.0717 10.8509 858 65.986 876.888 479.869
148 0 83.0965 11.4445 951 64.877 876.778 479.563
149 1 47.0297 10.7379 505 64.3743 876.673 496.543
150 0 48.0644 10.4027 500 65.538 876.464 496.652
151 0 51.0704 11.3765 581 63.9346 876.294 495.661
152 0 50.0308 10.4336 522 65.1782 876.54 496.496
153 0 52.0953 10.2313 533 64.1557 876.233 492.893
154 0 55.032 11.139 613 62.7814 877.111 493.591
155 0 55.0937 10.9268 602 63.0332 877.266 492.62
156 0 55.0555 10.8981 600 64.1183 876.818 491.847
157 0 57.1249 10.3633 592 64.598 876.992 490.453
158 0 58.0622 10.4887 609 65.2726 876.992 490.128
159 0 58.1147 9.53288 554 66.5379 877.361 488.224
160 0 60.0821 8.83791 531 67.6911 876.473 488.947
161 0 64.1042 10.3425 663 65.5234 876.305 486.962
162 0 66.0778 9.70068 641 66.1404 876.424 488.438
163 0 66.0534 9.49232 627 67.7959 876.193 487.231
164 0 70.089 11.4854 805 65.0857 875.549 483.773
165 0 72.1826 11.1523 805 66.0497 875.416 481.655
166 0 74.0504 10.5739 783 66.0166 875.586 482.01
167 0 76.0675 11.3978 867 64.9504 875.864 479.722
168 0 78.0713 10.0421 784 67.1913 875.356 480.815
169 1 40.023 9.41959 377 67.191 876.095 498.844
170 0 42.0553 9.86796 415 67.3229 875.441 497.414
171 0 44.0794 9.982 440 66.8136 875.975 498.261
172 0 45.0841 11.2235 506 65.6779 876.188 496.747
173 0 44.0291 9.28932 409 67.9829 875.895 495.23
174 0 47.017 11.0811 521 65.2438 876.547 495.791
175 0 46.038 9.51388 438 67.6849 877.352 493.511
176 0 49.0805 9.43348 463 67.8985 875.961 494.251
177 0 49.0345 10.0134 491 67.9267 875.943 491.99
178 0 52.1202 9.59321 500 68.534 876.328 493.19
179 0 54.0705 10.9302 591 66.6971 876.169 493.266
180 0 55.0544 10.4079 573 68.0401 876.277 488.639
181 0 56.0531 10.7041 600 68.3517 876.485 488.075
182 0 58.0876 10.8973 633 68.2543 876.553 488.376
183 0 61.0255 11.7984 720 67.1486 877.075 488.926
184 0 63.0689 11.8125 745 67.6067 877.052 488.619
185 0 65.0686 11.3419 738 68.5569 876.654 487.191
186 0 67.1215 11.0844 744 69.2567 876.042 486.481
187 0 68.1673 11.8239 806 68.799 876.404 484.434
188 0 69.2845 10.3775 719 71.2197 876.331 483.601
189 0 72.2678 12.1492 878 68.3747 875.983 482.241
190 0 74.1466 11.1266 825 70.0424 876.033 481.035
191 0 76.0959 11.2884 859 70.0093 876.318 478.764
192 0 80.1226 12.2937 985 67.7503 875.935 480.615
193 0 82.3472 12.5202 1031 67.7342 875.824 477.182
194 0 85.1744 12.3159 1049 68.1249 875.867 475.204
195 0 86.3642 11.3241 978 70.1687 875.763 475.436
196 0 89.1626 11.0024 981 70.6432 875.808 475.702
197 1 47.3548 12.3536 585 66.894 876.272 493.41
198 0 49.047 10.0924 495 70.099 875.487 494.56
199 0 50.1806 10.0039 502 70.9303 875.345 491.783
200 0 52.1167 10.8986 568 69.1021 875.185 492.266
201 0 53.1267 9.95732 529 71.2949 875.868 489.49
202 0 56.0829 12.0892 678 68.4705 875.9 490.419
203 0 54.1063 10.9599 593 71.1535 875.567 490.256
204 0 57.0478 11.6218 663 69.9427 875.268 489.84
205 0 59.1062 11.454 677 70.353 875.1 486.492
206 0 58.0657 10.7292 623 72.4912 875.929 486.371
207 0 62.094 11.2088 696 70.6954 876.055 484.853
208 0 65.1679 12.2606 799 68.1314 875.921 484.715
209 0 65.2282 12.6172 823 67.9696 875.25 484.092
210 0 67.0602 12.4664 836 67.7285 875.451 484.028
211 0 65.1451 11.0215 718 70.8175 875.443 481.992
212 0 72.0535 12.5462 904 67.4569 875.525 482.437
213 0 72.0959 11.6234 838 68.8986 875.925 483.168
214 0 75.2213 11.5659 870 68.2724 876.04 482.985
215 0 76.1451 11.4255 870 68.8184 875.872 478.06
216 0 76.1115 10.8262 824 70.301 874.767 478.436
217 0 81.0707 11.5331 935 68.7091 874.511 477.027
218 1 40.0675 8.81014 353 68.7025 874.958 498.807
219 0 43.0277 10.4351 449 66.2918 875.1 498.561
220 0 44.0146 10.2012 449 67.3385 875.35 497.53
221 0 44.0067 11.2028 493 66.8945 875.637 493.44
222 0 45.0289 10.3267 465 68.4667 875.54 494.034
223 0 49.1412 12.2911 604 65.0017 875.7 491.475
224 0 49.0412 10.7665 528 66.7367 875.854 490.491
225 0 52.0721 12.6171 657 64.5129 875.349 490.358
226 0 52.0368 10.8577 565 67.3681 875.864 492.653
227 0 54.0864 12.2027 660 65.2439 875.677 491.273
228 0 54.0836 10.8721 588 67.2483 875.597 490.998
229 0 56.085 10.288 577 68.4263 876.289 490.198
230 0 57.0261 9.8902 564 69.4202 876.564 487.323
231 0 59.0748 11.1554 659 67.6844 876.451 486.284
232 0 59.037 9.24843 546 70.804 876.458 484.784
233 0 61.0468 10.0742 615 69.5398 876.026 482.102
234 0 61.0642 9.97311 609 70.1445 875.903 479.266
235 0 63.1157 8.46065 534 71.6891 876.18 478.594
236 0 65.0744 9.38925 611 71.2864 875.797 482.072
237 0 68.1148 8.36823 570 72.4526 875.384 481.093
238 1 32.0576 7.73608 248 68.5081 875.871 499.504
239 0 34.0541 6.4603 220 70.1318 876.645 498.7
240 0 33.0247 6.81308 225 70.4178 876.533 499.129
241 0 38.0422 10.0415 382 65.7592 876.605 496.712
242 0 37.0549 8.44694 313 68.5048 876.179 496.141
243 0 40.081 9.7802 392 66.9745 875.959 496.202
244 0 41.0345 10.8202 444 65.9482 875.712 497.16
245 0 41.1145 9.53436 392 68.6173 875.232 496.12
246 0 43.0324 10.341 445 67.1438 875.519 495.429
247 0 42.0925 9.95426 419 69.9069 875.348 491.482
248 0 39.0933 8.67156 339 72.2861 875.26 490.018
249 0 41.1209 7.14966 294 74.432 874.33 485.391
250 0 49.0477 10.3776 509 68.9136 875.136 490.639
251 0 52.2164 11.0502 577 67.3328 875.406 488.319
252 0 54.2939 11.9719 650 66.3631 875.609 489.517
253 0 53.1179 10.8815 578 68.9325 875.58 488.291
254 0 58.3051 11.8686 692 66.315 875.12 488.458
255 0 59.2048 12.1443 719 66.4103 874.759 486.942
256 0 58.1541 10.8161 629 68.7901 875.173 486.238
257 0 61.2206 11.3361 694 68.3372 874.754 485.163
258 0 62.3525 12.1888 760 66.7355 875.105 485.733
259 0 64.496 11.8302 763 66.8611 875.045 483.442
260 0 65.2151 12.0984 789 67.0406 875.248 482.752
261 0 65.13 10.1643 662 69.8036 875.727 483.424
262 0 70.4646 11.8499 835 66.3329 875.79 481.923
263 0 71.3223 13.0674 932 65.3584 875.465 478.618
264 0 73.3673 11.2857 828 67.2403 875.127 477.804
265 0 74.1487 10.6678 791 67.9254 874.865 479.277
266 0 77.4171 13.7179 1062 63.9802 875.044 476.948
267 1 37.1116 10.913 405 66.0667 875.121 495.316
268 0 39.0983 10.0516 393 64.5267 874.809 497.074
269 0 41.1592 9.62117 396 66.3813 875.189 493.503
270 0 40.1973 9.95093 400 66.675 875.12 493.06
271 0 42.0488 9.7268 409 66.4328 875.049 493.753
272 0 44.116 11.5831 511 64.5656 875.368 491.712
273 0 44.1261 10.4247 460 65.9565 874.965 490.833
274 0 45.1708 10.4935 474 66.6118 875.534 489.027
275 0 49.1233 10.5245 517 65.6538 875.159 489.965
276 0 51.3117 10.1147 519 65.7572 875.31 490.212
277 0 53.1606 11.5875 616 64.9529 875.256 487.031
278 0 54.1661 11.9447 647 64.8903 875.314 487.543
279 0 56.2396 11.451 644 65.1941 875.158 487.506
280 0 55.2367 11.2787 623 66.2632 875.554 485.239
281 0 59.3142 10.6551 632 67.0997 875.022 484.139
282 0 60.2075 10.8126 651 66.8556 874.77 484.862
283 0 61.1233 10.6997 654 66.8914 874.46 481.384
284 0 64.3346 10.3988 669 66.5635 874.169 482.016
285 0 66.1439 11.218 742 65.9663 874.255 479.016
286 0 65.2589 9.80709 640 67.8984 874.18 479.606
287 0 69.3173 10.0696 698 67.3725 874.567 477.516
288 0 72.2351 10.452 755 66.7709 874.375 478.826
289 0 72.2897 9.6556 698 68.3954 874.686 475.937
290 0 74.2084 10.767 799 67.3404 873.952 476.312
291 0 79.1938 10.5059 832 67.5 873.82 474.198
292 0 81.2413 11.4105 927 66.5102 874.347 473.833
293 0 83.227 11.739 977 66.4831 873.99 470.216
294 0 86.1672 11.3732 980 66.6071 874.337 472.937
295 1 41.114 8.4886 349 67.1748 874.189 495.662
296 0 43.1236 9.83221 424 66.4552 873.948 494.241
297 0 43.0322 9.59747 413 67.2736 873.86 492.462
298 0 45.2572 10.8933 493 65.645 874.333 490.355
299 0 47.1412 11.3277 534 65.3408 874.695 491.639
300 0 49.0607 11.6183 570 65.2298 874.049 490.319
301 0 51.0561 11.0858 566 65.8569 873.479 490.519
302 0 51.0916 10.9411 559 66.2487 874.299 487.76
303 0 52.1331 10.4924 547 66.9799 874.702 487.512
304 0 53.0393 9.95488 528 68.2746 874.765 487.106
305 0 56.1619 10.9505 615 66.452 874.733 486.668
306 0 58.2481 11.554 673 65.3952 874.81 487.773
307 0 59.0604 10.2607 606 67.0396 875.144 487.883
308 0 60.0859 9.85256 592 67.7736 874.777 485.444
309 0 62.069 10.5528 655 66.455 874.602 485.455
310 0 64.1464 11.4894 737 65.0081 874.726 484.56
311 0 65.0874 11.0928 722 65.9377 874.515 484.187
312 0 66.1326 10.6302 703 66.6529 874.038 483.209
313 0 69.2488 11.1771 774 66.1473 874.211 481.165
314 0 73.1306 12.4845 913 63.1972 874.745 482.647
315 0 75.2366 12.0287 905 64.221 874.728 480.529
316 0 76.1095 12.193 928 64.5237 875.006 478.149
317 0 76.1445 11.3468 864 66.0938 874.962 476.319
318 0 81.095 11.9366 968 64.9246 874.709 475.804
319 0 81.1485 11.4974 933 66.2755 874.682 471.781
320 1 39.0104 9.25394 361 65.3324 874.321 494.632
321 0 42.0219 8.80494 370 65.1622 874.362 493.824
322 0 41.0522 11.0835 455 63.4418 874.16 492.475
323 0 45.1355 11.2328 507 62.927 874.01 492.864
324 0 45.1692 10.3168 466 63.7618 873.888 492.348
325 0 47.0398 9.05616 426 65.2793 874.695 491.047
326 0 48.1292 12.2171 588 62.0187 874.699 489.156
327 0 48.1202 11.3881 548 63.385 874.434 490.549
328 0 50.1266 10.3937 521 64.4088 874.526 490.338
329 0 51.025 9.75991 498 66.0763 874.4 489.606
330 0 53.1268 11.0302 586 64.4539 873.614 489.954
331 0 54.0347 11.5481 624 64.2067 873.665 488.247
332 0 55.1263 11.3739 627 64.7241 874.332 488.951
333 0 55.0691 10.0056 551 66.7786 874.474 488.699
334 0 58.0405 10.5099 610 65.3213 874.526 488.831
335 0 61.0419 11.8279 722 63.0817 875.091 488.863
336 0 62.0519 11.1358 691 63.4761 875.278 489.31
337 0 65.068 11.4957 748 63.3503 875.758 488.81
338 0 66.148 12.2755 812 62.5714 875.634 485.66
339 0 68.0345 12.8611 875 62.2457 875.065 482.651
340 0 69.0522 11.7302 810 64.3778 875.622 481.484
341 0 73.1377 10.8699 795 64.8151 875.483 483.236
342 1 38.1223 9.81054 374 62.9439 875.217 500.027
343 0 37.0171 9.77927 362 63.8646 874.699 496.381
344 0 39.0109 8.81805 344 65.5785 874.448 496.788
345 0 41.0257 9.57936 393 64.7176 874.193 496.677
346 0 41.0234 9.21426 378 64.7804 874.217 495.95
347 0 45.1005 10.9977 496 61.7944 874.48 496.171
348 0 45.0419 10.5235 474 63.6329 874.006 494.268
349 0 48.0254 10.2446 492 62.8211 873.933 496.252
350 0 50.1014 10.4987 526 62.6939 874.293 495.194
351 0 48.0817 9.52546 458 64.4301 873.686 495.129
352 0 53.0814 11.0585 587 62.3748 874.053 491.731
353 0 52.0649 11.5433 601 62.7138 874.381 492.163
354 0 54.0627 10.3584 560 64.7679 874.107 489.484
355 0 54.0266 9.43979 510 65.6706 873.565 491.182
356 0 58.1072 11.3239 658 63.0653 873.574 490.579
357 0 59.0685 9.80218 579 65.3903 874.864 488.584
358 0 60.1516 10.8892 655 65.774 875.078 484.186
359 0 60.1134 9.26582 557 68.2657 875.355 484.871
360 0 65.0628 8.85298 576 67.7483 875.266 487.106
361 0 65.0544 11.7286 763 64.8637 875.67 483.671
362 0 67.1028 9.77605 656 67.2729 875.427 484.46
363 1 33.0291 8.35628 276 65.9964 875.377 502.623
364 0 37.0219 10.7774 399 61.8596 874.807 500.183
365 0 36.0279 9.49264 342 64.6316 875.003 499.991
366 0 39.0263 10.9926 429 61.8159 874.851 499.566
367 0 40.0108 10.4472 418 62.2033 874.311 498.847
368 0 40.0078 9.87307 395 63.5494 874.365 497.316
369 0 38.0601 8.01365 305 66.8426 874.348 498.285
370 0 42.0411 10.0616 423 63.6076 874.537 496.279
371 0 42.0258 9.23243 388 64.7552 874.809 494.995
372 0 43.0565 9.15077 394 65.0305 874.383 495.175
373 0 43.0125 9.69486 417 64.8561 875.269 492.746
374 0 44.0432 8.33273 367 66.5286 874.308 493.591
375 0 47.0585 9.69006 456 66.1513 874.232 490.34
376 0 50.0926 12.0577 604 63.2053 874.742 488.515
377 0 51.1046 10.8405 554 64.7852 874.507 488.653
378 0 51.1566 10.1844 521 65.5893 874.639 488.981
379 0 55.0329 10.4301 574 64.4791 874.836 488.889
380 0 55.1038 10.6889 589 64.5586 875.294 487.097
381 0 55.0232 8.97803 494 66.502 875.334 488.589
382 0 56.1456 10.3125 579 65.9447 874.891 485.09
383 0 60.2279 10.7259 646 64.6037 874.717 487.485
384 0 63.1548 11.2897 713 62.7672 874.25 486.135
385 0 63.1426 10.2625 648 64.4938 874.582 483.665
386 0 66.2953 11.1019 736 62.7989 874.423 483.359
387 0 67.0834 10.9863 737 62.4681 874.408 481.218
388 0 69.128 9.83682 680 63.9397 874.476 480.075
389 0 72.3809 11.0112 797 62.3338 874.193 479.188
390 0 73.1306 10.4334 763 63.0039 874.929 477.984
391 1 39.1165 9.10102 356 62.559 875.228 495.281
392 0 38.0241 8.46831 322 64.1335 875.773 496.23
393 0 39.0491 8.93746 349 63.8195 875.628 494.095
394 0 43.1361 10.7798 465 61.4882 875.553 493.305
395 0 44.0378 10.877 479 61.7537 874.622 495.157
396 0 45.0081 10.998 495 59.8566 874.301 495.111
397 0 48.0696 10.5264 506 60.4032 874.787 495.273
398 0 49.0519 10.4787 514 60.5311 875.002 494.784
399 0 51.0141 10.4677 534 60.7097 875.534 492.069
400 0 53.1329 11.8382 629 59.7631 875.806 490.927
401 0 54.0402 12.0281 650 60.1785 875.297 490.815
402 0 53.0451 9.63332 511 63.6497 875.879 489.115
403 0 55.0858 10.8195 596 62.6628 875.176 489.527
404 0 58.1233 9.97879 580 64.0034 875.067 486.984
405 0 59.1069 10.591 626 63.4233 874.877 488.791
406 0 61.1357 11.2536 688 62.811 875.66 487.692
407 0 63.0802 12.7298 803 61.2105 875.352 484.549
408 0 63.0413 10.0569 634 64.776 875.894 485.699
409 0 66.2215 12.277 813 61.9459 874.989 482.921
410 0 69.0669 12.3359 852 62.0798 875.061 483.242
411 0 72.0518 12.3522 890 61.9528 875.338 483.245
412 0 73.1802 10.481 767 64.8136 876.029 479.052
413 0 75.1505 10.7385 807 64.5341 875.881 478.266
414 1 38.0177 9.39037 357 65.1317 875.266 497.619
415 0 40.0978 9.17756 368 65.6277 875.424 498.353
416 0 41.0278 9.62762 395 64.838 875.863 498.372
417 0 43.1126 12.1774 525 63.6571 875.916 494.629
418 0 44.0602 11.1665 492 64.8089 875.866 496.681
419 0 47.0608 11.7083 551 64.2632 875.637 495.296
420 0 48.1241 11.6989 563 65.2451 875.405 493.263
421 0 49.0724 11.5747 568 65.7799 875.604 493.817
422 0 51.077 11.884 607 65.1697 875.076 493.222
423 0 53.0126 11.8274 627 65.453 875.029 493.284
424 0 54.1095 11.6246 629 66.3768 875.232 491.027
425 0 57.1206 12.9375 739 63.8809 875.226 492.938
426 0 57.0734 12.2124 697 65.8264 875.515 491.729
427 0 57.0608 11.479 655 67.6718 875.209 491.707
428 0 58.0702 12.6399 734 66.5245 875.02 488.635
429 0 63.1669 14.248 900 62.5944 875.242 491.118
430 0 60.1125 11.2123 674 68.5504 875.337 488.012
431 0 65.0217 12.3497 803 66.7111 875.339 487.795
432 0 67.0334 15.3804 1031 62.4452 875.165 486.12
433 0 68.0466 12.1975 830 67.2651 874.501 485.539
434 0 71.0626 12.3553 878 66.3303 875.054 487.3
435 0 72.1665 12.9839 937 65.9893 875.052 485.205
436 0 75.0431 12.6461 949 66.098 874.658 484.003
437 1 37.0214 10.7776 399 69.8947 874.008 498.927
438 0 38.0085 12.4446 473 67.5349 874.44 498.729
439 0 40.0355 12.0643 483 66.5404 874.304 501.938
440 0 40.0328 13.6888 548 66.1807 874.569 499.416
441 0 43.1028 12.273 529 67.3138 874.629 498.758
442 0 44.0789 13.9522 615 65.0374 874.527 498.281
443 0 45.0719 12.6465 570 66.9035 874.565 497.553
444 0 46.1593 13.3234 615 66.7642 874.515 496.233
445 0 47.0532 12.539 590 67.3831 874.242 496.937
446 0 49.1303 13.6576 671 66.225 874.298 494.048
447 0 50.0281 12.1132 606 68.5875 875.226 493.355
448 0 52.0787 13.4028 698 67.0172 875.103 492.172
449 0 53.1101 12.4459 661 68.8396 875.162 491.605
450 0 55.0986 13.5031 744 67.0067 875.573 494.855
451 0 57.1483 14.5061 829 65.994 875.495 491.96
452 0 58.1731 12.3597 719 68.9958 875.266 490.408
453 0 59.0693 14.0005 827 67.4039 875.237 490.137
454 0 62.1286 13.4721 837 67.1756 874.95 490.342
455 0 61.0761 14.31 874 67.0927 874.709 489.217
456 0 64.0331 14.5237 930 66.8763 874.81 488.082
457 0 67.2164 14.0293 943 67.0042 874.856 487.006
458 0 68.2086 13.1802 899 68.7186 874.822 486.497
459 0 70.0707 13.8717 972 68.1461 874.861 485.556
460 0 72.0951 14.0093 1010 68.1921 874.858 482.883
461 0 74.132 13.7458 1019 69.2591 874.609 481.326
462 0 77.1469 13.5845 1048 68.8769 874.669 482.761
463 0 78.0793 14.3572 1121 68.826 875.264 480.556
464 0 81.0793 13.604 1103 69.8912 874.309 480.451
465 0 85.0769 13.1881 1122 70.9439 875.006 477.143
466 0 87.0848 14.0782 1226 69.5775 875.051 478.413
467 0 89.0961 13.3227 1187 71.4288 874.993 475.449
468 1 43.0754 13.5112 582 71.0704 874.885 499.208
469 0 45.1019 12.4385 561 72.4456 874.579 498.103
470 0 45.0859 12.0437 543 74.407 874.536 496.352
471 0 47.028 12.7158 598 73.8863 874.4 494.96
472 0 50.0411 14.2083 711 71.1195 874.515 494.044
473 0 51.0992 13.6597 698 72.6404 874.951 491.983
474 0 52.0559 13.6008 708 72.1893 874.935 493.678
475 0 54.1032 15.0638 815 70.6748 875.292 492.504
476 0 56.0438 13.8998 779 72.2349 875.144 491.566
477 0 57.1128 14.4976 828 72.1304 875.69 490.008
478 0 58.122 13.2996 773 74.1475 875.357 489.602
479 0 61.0575 14.4618 883 72.6149 875.287 489.122
480 0 63.0584 13.987 882 73.5215 874.973 488.413
481 0 65.0897 15.1944 989 71.909 875.24 485.765
482 0 68.1435 13.8384 943 73.8812 875.23 487.227
483 0 67.1052 12.3835 831 77.8773 874.633 485.106
484 0 72.0999 15.6866 1131 72.4111 874.438 482.844
485 0 73.058 14.3037 1045 74.8211 874.746 482.851
486 1 36.069 13.3078 480 73.7979 874.619 503.002
487 0 34.0269 12.8428 437 77.0938 874.707 501.483
488 0 38.0398 12.1189 461 77.026 874.672 500.954
489 0 38.1182 14.3501 547 74.4113 874.991 499.53
490 0 38.1237 12.7217 485 77.4619 875.309 499.526
491 0 38.1237 10.6495 406 81.101 875.017 497.333
492 0 36.1065 10.9676 396 82.3838 875.003 495.881
493 0 41.0579 11.7152 481 79.6403 874.83 495.967
494 0 40.0401 10.8141 433 81.4411 874.411 496.57
495 0 41.0998 8.68617 357 83.591 873.739 492.538
496 0 46.0662 13.3938 617 76.4846 873.744 495.102
497 0 48.0583 12.8594 618 76.8236 873.676 494.68
498 0 48.0827 13.5392 651 76.4301 874 492.989
499 0 50.0281 13.9722 699 75.226 874.306 494.132
500 0 53.0705 14.1698 752 74.5053 873.918 491.541
501 0 54.0568 12.9863 702 76.7222 873.771 491.575
502 0 57.1147 15.3375 876 72.4087 874.676 490.592
503 0 58.0398 16.1958 940 71.4394 874.957 489.343
504 0 60.1594 13.2149 795 75.2868 874.443 490.712
505 0 64.0672 13.9385 893 74.2284 874.148 487.745
506 0 64.0736 13.2348 848 76.0236 873.506 488.067
507 0 67.0422 15.4977 1039 72.6824 873.738 486.054
508 0 68.1076 13.6549 930 75.1366 874.238 487.418
509 0 69.0728 13.9129 961 74.9875 874.471 486.26
510 0 73.0757 14.5876 1066 73.4203 875.081 485.291
511 1 32.0058 12.1541 389 77.1877 874.267 502.512
512 0 33.0274 10.4156 344 79.2035 874.134 502.328
513 0 37.0336 11.8811 440 77.1909 874.698 500.882
514 0 38.0178 12.8361 488 76.248 875.039 500.824
515 0 37.0173 12.6697 469 77.6077 875 500.053
516 0 41.029 13.1127 538 76.3885 874.861 498.98
517 0 40.024 12.4425 498 79.9498 874.876 498.066
518 0 43.232 13.416 580 77.5586 874.988 497.231
519 0 45.0189 13.8164 622 77.2637 874.418 494.83
520 0 47.1226 13.9848 659 76.2458 874.8 495.156
521 0 45.0168 13.395 603 78.8988 875.073 495.07
522 0 51.0698 15.4103 787 73.8691 874.396 493.724
523 0 51.0223 13.5235 690 77.0768 874.628 494.172
524 0 53.0744 14.3761 763 75.5203 874.594 492.558
525 0 54.1249 14.0601 761 76.3272 875 491.12
526 0 54.1223 13.3956 725 77.7172 874.743 490.149
527 0 55.1024 12.8306 707 78.5403 874.88 489.625
528 0 60.0769 15.5967 937 73.0309 874.455 487.657
529 0 62.0965 14.8479 922 74.3677 874.544 487.193
530 0 64.1024 12.168 780 77.5872 874.792 488.223
531 0 66.0725 12.8041 846 77.5035 873.846 485.353
532 0 68.0399 13.4333 914 76.7702 873.842 485.062
533 0 68.0894 13.541 922 77.0358 874.131 485.335
534 0 73.0832 14.2304 1040 75.6962 874.832 483.661
535 1 31.065 11.4598 356 81.4522 874.511 501.618
536 0 32.0633 11.6332 373 80.6917 874.574 502.421
537 0 33.0383 12.4401 411 81.0024 875.226 500.676
538 0 36.0352 12.238 441 80.0317 874.447 501.093
539 0 36.0774 12.6118 455 80.6396 873.947 500.125
540 0 38.0901 13.153 501 79.2315 874.012 499.287
541 0 37.034 13.6091 504 79.875 874.004 498.087
542 0 40.1179 13.0864 525 79.739 874.225 499.015
543 0 43.1069 13.5941 586 78.4334 873.517 497.718
544 0 42.0396 13.7489 578 79.0277 873.808 497.457
545 0 45.0247 13.7924 621 79.1932 873.035 496.271
546 0 46.0324 15.3153 705 76.8426 873.85 495.162
547 0 47.1167 13.2649 625 81.28 873.379 495.205
548 0 49.0544 14.8203 727 78.7785 873.116 493.895
549 0 49.0737 13.062 641 82.4087 873.535 494.853
550 0 53.0177 15.3157 812 77.5985 874.097 493.773
551 0 53.1479 14.7136 782 80.3964 874.508 491.98
552 0 53.0946 14.1446 751 82.4527 873.664 491.988
553 0 56.071 13.2867 745 83.9007 874.121 491.854
554 0 57.0786 12.5967 719 85.7246 873.9 489.86
555 0 60.0557 14.3533 862 82.1288 874.816 490.802
556 0 59.1055 13.8735 820 84.6134 874.39 488.998
557 0 60.0102 12.9311 776 87.0825 874.555 488.246
558 0 66.2203 14.8897 986 82.1927 873.915 485.663
559 0 67.0776 14.4609 970 83.3526 874.015 486.047
560 0 68.0653 14.2363 969 84.3364 874.263 485.36
561 0 71.0239 13.8404 983 84.4303 873.858 486.198
562 0 74.1659 15.3979 1142 82.0289 874.2 483.34
563 1 40.0253 13.7413 550 83.0473 874.273 501.482
564 0 38.0496 12.0632 459 88.5512 874.196 500.479
565 0 40.105 12.4673 500 86.642 874.45 500.636
566 0 41.0557 13.5182 555 85.8685 874.227 499.243
567 0 42.0504 12.271 516 87.376 874.467 499.455
568 0 44.16 13.202 583 85.6895 874.791 498.053
569 0 44.1395 13.9784 617 83.4635 874.724 499.066
570 0 46.0383 13.4453 619 85.7803 874.911 496.674
571 0 47.1575 13.1262 619 85.7674 874.771 496.932
572 0 47.0453 13.03 613 86.9935 874.643 495.847
573 0 51.0467 14.1243 721 83.0291 874.254 495.85
574 0 52.0616 14.6365 762 82.4633 874.556 494.801
575 0 51.1169 13.1463 672 86.9271 874.423 493.67
576 0 54.0248 13.3828 723 85.6293 874.353 492.99
577 0 57.0169 14.0835 803 83.1295 874.281 492.996
578 0 56.0251 14.3686 805 83.754 874.639 491.607
579 0 60.0896 14.6781 882 83.4218 874.503 489.391
580 0 62.0751 14.6758 911 82.202 873.898 490.01
581 0 62.0272 13.3651 829 85.4355 873.884 489.264
582 0 65.0601 15.0323 978 81.8507 873.879 486.878
583 0 65.0918 13.8266 900 85.2244 872.923 486.701
584 0 70.0909 15.0091 1052 81.5618 873.099 485.998
585 0 71.0924 13.9396 991 83.7437 873.357 484.866
586 0 72.0483 13.144 947 86.2386 873.367 482.757
587 0 74.0992 13.4549 997 85.1505 873.594 482.549
588 0 75.0528 14.15 1062 85.0273 873.971 480.456
589 0 78.1706 13.2786 1038 85.8603 873.935 480.789
590 0 80.0244 12.8211 1026 87.6959 873.662 478.134
591 1 41.0364 11.2096 460 83.6022 873.978 500.785
592 0 40.0174 10.4954 420 85.6262 873.957 500.524
593 0 43.0665 12.8871 555 81.8955 873.773 497.914
594 0 43.0451 11.3602 489 85.0491 874.19 497.004
595 0 45.0347 12.2794 553 83.4304 874.43 495.617
596 0 47.0302 11.6521 548 82.5675 874.644 496.544
597 0 49.0509 12.0079 589 81.8183 874.032 495.306
598 0 50.0125 12.2369 612 82.5114 873.995 494.015
599 0 52.0281 12.2626 638 82.4028 874.006 492.245
600 0 53.1233 12.3486 656 82.2332 873.628 491.116
601 0 53.0401 11.7458 623 82.3082 874.358 492.777
602 0 55.1953 12.2474 676 81.1095 874.475 491.031
603 0 56.0593 11.5592 648 82.6481 874.534 488.92
604 0 59.0619 12.0213 710 81.3704 874.596 486.9
605 0 62.061 12.391 769 79.3433 874.602 488.602
606 0 65.1397 12.8033 834 78.952 874.501 485.546
607 0 67.052 12.7662 856 79.111 874.504 484.763
608 0 67.0263 12.1146 812 81.0234 874.353 483.363
609 0 70.0978 13.2101 926 78.8704 874.185 481.499
610 0 73.0603 13.4957 986 77.7576 874.18 480.719
611 1 37.0124 10.3209 382 76.8377 874.647 499.955
612 0 37.0136 10.9959 407 76.1081 874.125 500.349
613 0 38.0149 10.4433 397 77.8186 873.501 499.635
614 0 39.0904 11.2048 438 77.6644 873.776 498.571
615 0 41.0299 11.0651 454 76.9978 873.617 497.033
616 0 41.0317 10.7722 442 77.9208 873.106 498.324
617 0 43.0369 9.50347 409 79.9095 873.196 496.633
618 0 45.0388 9.79155 441 79.3719 873.231 495.982
619 0 45.0289 10.571 476 77.4307 873.595 496.597
620 0 47.011 11.593 545 75.8055 873.29 493.523
621 0 49.0345 10.8699 533 76.8049 873.385 492.844
622 0 49.0875 10.7359 527 76.8691 873.846 492.047
623 0 49.0353 10.8493 532 77.235 873.639 490.618
624 0 53.0574 9.85725 523 77.4512 873.201 491.522
625 0 54.0805 11.0021 595 75.6168 873.185 490.187
626 0 55.0582 11.4969 633 75.1706 873.607 487.848
627 0 59.0259 12.8418 758 71.9301 873.07 486.394
628 0 62.0588 11.8275 734 72.8733 873.204 488.206
629 0 63.1867 12.3918 783 72.3487 873.241 487.004
630 0 65.0425 12.8531 836 71.5586 872.855 483.7
631 0 67.0681 11.5256 773 73.4191 873.094 483.956
632 0 69.0721 11.64 804 72.6878 872.692 484.919
633 0 71.0879 11.6616 829 72.4499 873.11 484.743
634 0 74.0982 11.4983 852 72.6984 873.128 479.745
635 0 74.0751 11.1778 828 73.8913 873.496 480.256
636 0 77.1024 12.879 993 70.7472 873.89 478.893
637 0 80.0547 12.0668 966 72.2174 873.314 477.296
638 1 41.012 11.1187 456 70.7961 873.66 496.772
639 0 40.0517 11.2604 451 71.9047 873.339 495.953
640 0 43.0372 9.94489 428 73.0958 873.621 495.481
641 0 43.0357 11.7112 504 70.7202 873.232 495.585
642 0 44.0406 11.0126 485 72.1753 873.014 495.252
643 0 45.0263 10.5494 475 72.4358 872.596 495.947
644 0 48.0729 11.2121 539 70.9703 872.688 493.501
645 0 47.06 11.2197 528 71.6402 873.117 492.545
646 0 49.0285 11.3607 557 71.9695 873.059 492.002
647 0 52.042 11.6636 607 71.1318 873.199 491.944
648 0 52.0686 12.1762 634 70.6215 872.82 489.938
649 0 54.0247 11.5688 625 71.2112 873.677 489.416
650 0 55.0918 10.9272 602 72.0598 873.581 489.64
651 0 57.0856 11.2288 641 71.5257 873.465 487.746
652 0 59.0731 11.3419 670 71.406 873.567 488.158
653 0 60.0748 12.2014 733 69.9045 873.608 487.265
654 0 60.0747 10.9364 657 72.1872 873.323 486.008
655 0 63.1612 12.6818 801 69.2797 873.291 485.134
656 0 65.0898 10.6161 691 71.7612 873.815 482.064
657 0 66.3223 11.4894 762 71.0052 873.646 482.357
658 0 67.1138 10.3704 696 73.0244 872.743 482.263
659 0 72.2698 11.8307 855 71.3439 872.308 478.843
660 0 73.1839 12.0792 884 71.6459 872.758 478.216
661 0 75.1299 12.4185 933 71.4845 872.79 479.047
662 0 79.0659 12.9639 1025 69.8937 872.669 478.453
663 0 79.1485 11.5984 918 72.7723 872.749 475.93
664 0 80.2244 10.6825 857 74.1494 872.939 475.169
665 0 86.1306 12.8758 1109 70.4779 872.695 472.999
666 1 46.0703 12.0251 554 70.1751 872.287 494.294
667 0 48.0373 11.949 574 69.5592 872.7 495.24
668 0 49.1566 11.7583 578 70.6038 872.83 493.991
669 0 51.0737 12.2764 627 69.6667 872.625 494.123
670 0 51.089 11.8616 606 71.0132 872.733 492.508
671 0 53.0563 12.2323 649 69.718 872.416 492.901
672 0 54.0455 11.6754 631 71.1569 872.404 490.236
673 0 54.0599 11.2838 610 72.4393 872.457 489.161
674 0 58.0287 12.1147 703 70.6942 872.656 488.613
675 0 60.0554 12.2887 738 70.4417 872.462 485.591
676 0 61.0696 12.3138 752 70.617 872.411 486.63
677 0 62.0291 13.2196 820 69.7732 872.421 486.705
678 0 63.0576 11.8622 748 71.9906 872.233 483.985
679 0 66.0956 12.7089 840 70.0202 872.624 486.588
680 0 70.0559 13.8461 970 68.0763 872.971 484.96
681 0 70.1382 12.5894 883 70.6874 873.28 483.362
682 0 72.0756 11.9458 861 71.6492 873.51 481.391
683 0 75.072 13.0808 982 70.5275 873.416 479.647
684 0 74.1481 11.0455 819 74.5678 873.413 477.549
685 0 80.027 13.8828 1111 69.7516 873.573 477.364
686 0 82.1023 13.0812 1074 71.5968 872.857 474.763
687 0 85.0828 12.1764 1036 72.8697 873.161 474.881
688 0 88.1107 13.7214 1209 70.5426 873.249 472.26
689 1 42.1031 10.3555 436 73.3624 873.36 495.482
690 0 43.0319 9.82993 423 74.3853 873.532 494.456
691 0 44.158 9.89628 437 74.3364 873.188 494.156
692 0 46.0932 11.0862 511 72.6067 872.847 494.346
693 0 47.135 11.1806 527 73.2163 873.288 493.899
694 0 50.0291 11.7332 587 71.5911 873.25 493.385
695 0 51.1105 13.0306 666 70.2492 873.336 490.39
696 0 53.1574 11.5882 616 72.1607 873.214 490.833
697 0 56.0219 12.6736 710 70.1183 872.88 490.4
698 0 57.0632 13.6515 779 69.0334 873.29 489.214
699 0 57.1122 12.029 687 72.4367 873.572 486.934
700 0 58.0334 12.4239 721 72.4938 873.743 485.479
701 0 60.1316 12.3729 744 72.4032 873.773 485.586
702 0 63.1006 12.5989 795 72.4767 874.327 484.17
703 0 63.0637 11.7025 738 74.4946 874.091 484.218
704 0 66.1248 11.8866 786 74.1285 873.822 483.206
705 0 66.0764 11.6834 772 75.7552 873.81 480.74
706 0 68.0554 11.2996 769 76.0988 873.196 481.065
707 0 71.1087 12.0238 855 74.4175 873.747 481.012
708 0 74.1139 13.5332 1003 72.1844 873.415 477.191
709 1 37.0573 11.064 410 74.7829 873.773 494.341
710 0 39.0573 11.0863 433 73.7506 873.441 495.54
711 0 38.005 9.8145 373 75.1475 873.185 493.681
712 0 40.0602 10.7838 432 73.4815 873.067 493.438
713 0 43.0459 11.3367 488 71.7664 873.375 493.621
714 0 44.1321 10.8764 480 73.0167 874.019 492.735
715 0 44.095 11.8154 521 72.2745 873.069 491.38
716 0 46.007 12.4764 574 71.0401 873.657 491.913
717 0 45.0428 10.7453 484 74.6591 873.306 490.973
718 0 48.0345 12.4286 597 71.9548 873.757 489.012
719 0 50.0781 12.0612 604 71.7699 873.906 490.162
720 0 50.114 11.2344 563 73.9094 873.876 487.497
721 0 53.1162 11.842 629 72.5056 873.677 487.351
722 0 56.0381 11.6171 651 72.0061 873.465 488.624
723 0 58.0535 11.8339 687 72.0568 873.782 488.015
724 0 59.0773 11.5103 680 72.9794 873.518 485.715
725 0 59.0399 11.7886 696 73.3362 873.398 484.563
726 0 61.1176 10.9297 668 73.8638 873.919 485.293
727 0 65.1646 12.5068 815 71.2908 874.223 484.076
728 0 67.1381 11.7966 792 72.7992 873.972 481.452
729 0 69.181 11.3471 785 73.8522 873.931 480.037
730 0 72.1697 11.279 814 73.4251 874.273 480.043
731 0 74.1295 11.3315 840 73.6929 874.174 479.399
732 1 35.0619 10.125 355 74.5803 873.899 495.572
733 0 38.0225 10.9672 417 72.4532 873.82 495.952
734 0 39.0898 9.92588 388 73.8531 873.675 494.966
735 0 38.0523 10.8535 413 73.5835 873.705 494.646
736 0 42.1544 12.0747 509 71.1749 873.886 493.226
737 0 43.1086 10.9955 474 71.5992 873.996 494.35
738 0 44.0778 11.6158 512 71.7793 873.879 491.461
739 0 45.0652 12.3155 555 70.1135 873.436 492.541
740 0 47.0265 11.2277 528 71.5 872.92 491.318
741 0 49.0987 11.6093 570 71.0211 872.786 489.486
742 0 51.1001 12.0939 618 69.5502 873.197 490.861
743 0 53.0603 11.0252 585 71.4735 873.964 489.513
744 0 55.106 13.0657 720 68.1319 872.896 490.05
745 0 56.0318 12.2073 684 70.6988 873.073 488.181
746 0 56.0447 10.1883 571 74.0473 872.438 490.441
747 0 60.0906 12.8806 774 69.7752 872.46 486.778
748 0 59.0587 11.9881 708 72.6723 873.362 486.599
749 0 62.0776 12.8065 795 71.3887 872.633 484.916
750 0 63.1148 12.501 789 72.6489 872.796 483.679
751 0 64.0643 11.4104 731 74.1286 873.445 484.319
752 0 68.1247 13.5487 923 70.7573 873.315 481.566
753 0 70.0968 13.4528 943 71.2269 873.199 479.995
754 0 71.058 13.5101 960 71.3594 873.264 479.801
755 1 37.0545 12.6301 468 72.2094 872.829 495.996
756 0 38.0193 12.783 486 72.0905 872.586 495.403
757 0 39.0282 11.1714 436 74.1606 873.312 496.429
758 0 39.0775 11.1317 435 75.8828 872.862 493.89
759 0 40.0191 11.3446 454 75.7489 872.822 493.978
760 0 43.0501 11.8002 508 74.7598 873.455 494.171
761 0 45.0613 11.5842 522 74.6916 873.937 493.255
762 0 44.0221 12.0621 531 75.0546 873.723 492.207
763 0 48.0508 12.1954 586 71.8549 873.952 492.06
764 0 49.0218 13.6878 671 69.6453 874.075 491.386
765 0 49.064 12.8404 630 71.7492 874.376 490.605
766 0 50.026 13.6529 683 71.2577 873.878 489.649
767 0 52.0837 12.8447 669 71.9522 873.706 489.851
768 0 52.0856 13.4202 699 72.1502 873.681 488.579
769 0 52.0302 12.4735 649 74.1479 873.427 488.826
770 0 58.0658 13.8291 803 69.5878 873.303 488.487
771 0 59.0514 13.2088 780 70.8051 873.579 488.144
772 0 60.0894 13.5798 816 70.3272 873.588 487.158
773 0 60.1692 12.3319 742 72.872 873.745 486.946
774 0 64.0273 14.5563 932 68.427 872.954 485.339
775 0 65.0443 13.3448 868 70.6382 872.963 484.295
776 0 65.1234 11.9619 779 73.4814 873.144 484.334
777 1 32.0413 9.67502 310 77.0839 872.961 500.055
778 0 34.0099 9.61484 327 74.3731 872.7 501.682
779 0 35.0448 10.244 359 76.1142 872.604 499.93
780 0 35.0458 12.1841 427 74.3419 872.703 498.855
781 0 38.0423 13.1433 500 71.706 873.264 497.744
782 0 41.0785 13.0969 538 70.829 873.435 496.662
783 0 41.0342 11.9169 489 73.8609 873.07 495.708
784 0 41.0574 13.1036 538 73.316 873.559 493.831
785 0 42.0494 12.9134 543 73.2468 873.365 494.665
786 0 44.0202 12.7896 563 73.556 873.149 493.13
787 0 46.0273 13.3182 613 72.3051 873.067 493.223
788 0 47.0226 12.8449 604 73.745 872.922 492.283
789 0 48.0514 13.7145 659 72.9332 873.024 491.404
790 0 50.0284 13.6722 684 72.7515 873.706 490.215
791 0 51.0309 12.7178 649 74.5732 873.194 488.664
792 0 51.0662 11.5732 591 77.0812 873.536 487.751
793 0 52.1451 12.7721 666 75.6021 873.836 488.246
794 0 54.0234 13.3831 723 74.7054 872.946 488.859
795 0 58.1088 14.1459 822 72.5827 872.94 486.103
796 0 57.0749 13.2107 754 75.679 872.595 486.125
797 0 61.0475 13.383 817 73.7209 872.912 487.006
798 0 62.1111 13.5403 841 74.2307 872.756 486.277
799 0 62.0413 14.1841 880 74.767 873.482 482.062
800 0 64.0301 12.3223 789 78.1356 874.003 483.086
801 0 67.0485 13.3187 893 76.6327 873.461 482.794
802 0 70.0789 13.9129 975 74.8 873.898 482.615
803 1 36.0246 11.4366 412 77.7524 874.42 497.76
804 0 38.0062 12.077 459 76.8453 874.257 496.893
805 0 38.0127 12.9694 493 76.4746 873.781 495.359
806 0 40.0204 11.1443 446 77.6906 873.859 496.159
807 0 43.134 13.1914 569 74.5888 874.009 494.436
808 0 43.0411 11.9188 513 75.9084 873.719 495.439
809 0 44.0817 12.1139 534 76.9775 873.476 492.955
810 0 47.0588 13.5788 639 73.4992 873.906 492.917
811 0 46.0503 9.81536 452 80.9978 874.257 493.427
812 0 48.0644 13.2322 636 76.2233 874.296 491.362
813 0 50.0353 13.1707 659 76.1624 874.351 488.689
814 0 52.0827 13.613 709 75.3329 874.808 487.528
815 0 53.0411 12.9522 687 76.6215 874.374 487.907
816 0 56.113 13.5976 763 74.3971 873.919 487.117
817 0 55.1225 13.2432 730 76.0507 874.173 486.079
818 0 58.0368 12.7678 741 76.6437 874.039 485.432
819 0 59.073 12.5099 739 77.9405 874.2 484.202
820 0 63.047 13.5772 856 75.5105 874.286 483.824
821 0 64.0852 13.5289 867 75.8558 874.264 482.814
822 0 65.042 12.6534 823 78.5589 873.646 483.676
823 0 68.0768 13.2057 899 77.7786 873.91 481.444
824 0 71.1184 14.7641 1050 74.3571 874.165 480.826
825 0 73.1009 13.3925 979 77.1195 874.232 479.627
826 0 76.1113 14.0584 1070 76.0421 874.007 475.934
827 0 78.2831 13.4001 1049 77.1992 873.669 476.918
828 1 43.068 12.817 552 75.5888 873.292 493.469
829 0 43.074 11.2829 486 78.716 873.848 491.862
830 0 45.0105 12.1749 548 77.6277 873.307 491.215
831 0 48.0205 12.7029 610 74.9459 873.546 491.415
832 0 48.0691 12.3364 593 76.5666 872.83 490.15
833 0 48.0644 12.3376 593 76.6745 872.531 490.939
834 0 52.0626 14.0024 729 73.786 873.082 488.483
835 0 54.0216 13.254 716 74.4316 873.119 488.131
836 0 52.0941 12.5158 652 77.1288 873.844 486.675
837 0 58.0614 13.3135 773 73.6365 873.644 486.515
838 0 57.0904 12.4189 709 76.3625 873.856 484.384
839 0 61.0871 13.7672 841 73.0214 873.683 485.321
840 0 60.0315 11.6106 697 77.7719 874.08 483.367
841 0 63.1536 12.9525 818 74.7127 873.841 482.407
842 0 66.0859 13.1647 870 74.9356 874.195 480.774
843 0 69.0616 13.611 940 74.0394 874.128 480.459
844 0 71.0967 12.2369 870 75.9908 874.363 479.469
845 0 73.0476 13.4022 979 74.0848 874.021 478.375
846 1 37.0195 10.2649 380 73.1342 873.882 498.047
847 0 37.0464 12.4169 460 72.0913 873.283 495.461
848 0 39.0187 10.5847 413 73.4964 873.041 495.392
849 0 39.0286 10.8638 424 73.6415 873.632 495.017
850 0 42.0211 12.0178 505 71.6535 873.388 494.762
851 0 43.035 11.6184 500 72.588 873.388 494.114
852 0 42.0224 10.9703 461 74.679 873.134 492.662
853 0 46.0932 12.0625 556 71.446 873.585 492.845
854 0 47.199 12.8604 607 70.4316 874.357 491.875
855 0 49.0641 13.411 658 70.2629 873.965 489.947
856 0 50.0257 14.0528 703 69.357 874.452 489.711
857 0 50.0325 12.352 618 72.3948 873.791 489.55
858 0 53.0551 13.6274 723 70.3873 873.88 487.054
859 0 56.0857 11.8212 663 72.4585 874.057 487.383
860 0 56.0336 13.1171 735 71.1701 873.833 486.041
861 0 58.0687 13.8801 806 65.5968 872.766 488.901
862 0 59.1755 12.1841 721 72.258 873.687 484.56
863 0 62.0879 12.1602 755 72.204 874.033 482.29
864 0 64.0788 13.6395 874 70.0343 874.572 482.4
865 0 66.0713 12.2897 812 72.5185 874.865 480.846
866 0 66.0483 11.6581 770 73.9766 875.053 479.657
867 0 70.102 12.382 868 72.8468 874.548 478.554
868 0 72.0989 11.3871 821 74.2363 874.597 477.685
869 1 35.075 11.6607 409 73.9535 874.477 494.222
870 0 37.0536 10.6063 393 74.5547 874.656 496.878
871 0 40.0979 12.3448 495 72.0182 874.701 494.873
872 0 39.057 10.9839 429 74.9464 874.594 495.21
873 0 41.1241 12.6933 522 73.6034 874.485 492.255
874 0 41.0101 11.5825 475 76.12 874.126 491.219
875 0 45.0821 11.9782 540 75.1056 873.567 490.198
876 0 46.0314 11.9701 551 75.3339 873.933 489.96
877 0 47.0393 11.6073 546 76.1758 874.427 488.804
878 0 48.0114 12.3929 595 75.005 874.148 490.543
879 0 50.04 11.6307 582 76.8385 874.524 488.711
880 0 52.0435 12.3166 641 75.4197 873.535 486.68
881 0 54.0433 12.2124 660 76.053 873.715 485.756
882 0 55.0374 11.6648 642 77.1947 873.707 486.058
883 0 57.058 14.0033 799 73.0163 874.085 484.788
884 0 57.042 11.8159 674 77.7463 874.185 484.985
885 0 60.1343 12.3723 744 76.7433 874.397 483.28
886 0 62.0335 12.2353 759 76.7694 874.209 483.589
887 0 65.0664 12.8945 839 75.8188 874.324 481.251
888 0 66.0313 12.2669 810 76.8753 874.253 482.543
889 0 68.0401 11.9929 816 78.0282 874.549 481.049
890 0 72.1523 12.2103 881 77.143 873.827 477.123
891 0 73.0435 12.3625 903 77.6733 873.866 479.542
892 0 77.065 13.9103 1072 75.4319 873.219 475.184
893 0 80.1312 12.8664 1031 76.9321 873.293 475.554
894 1 39.0428 11.3209 442 80.3688 873.066 496.217
895 0 41.12 12.3541 508 80.3031 872.913 492.793
896 0 43.016 13.4369 578 78.2076 873.372 492.446
897 0 44.034 14.239 627 77.9841 873.421 492.255
898 0 47.0348 13.118 617 79.2577 873.559 491.502
899 0 48.0284 12.6592 608 80.4013 874.03 491.691
900 0 50.0773 12.8402 643 79.5723 873.653 492.123
901 0 53.0501 14.0056 743 76.4482 873.69 492.219
902 0 54.0233 14.1976 767 76.927 873.284 489.398
903 0 53.0483 12.4226 659 80.6373 873.454 490.596
904 0 58.0256 15.2691 886 74.9831 873.143 489.279
905 0 59.0894 14.1988 839 76.3683 873.477 488.12
906 0 60.0548 13.4877 810 77.6593 873.086 487.625
907 0 63.0435 14.4503 911 75.5642 873.81 486.06
908 0 63.1874 13.9268 880 77.4136 873.523 484.808
909 0 66.0898 14.8737 983 75.1668 874.07 484.288
910 0 71.045 14.4134 1024 75.1436 874.155 482.351
911 0 69.0875 12.3032 850 79.5612 873.42 481.724
912 0 76.1327 15.0264 1144 74.167 873.269 480.676
913 0 77.0775 14.3751 1108 75.8583 873.119 478.066
914 1 39.1994 12.143 476 79.6807 873.206 496.485
915 0 38.0559 12.613 480 81.1271 873.252 494.587
916 0 39.0115 12.4835 487 80.2649 872.891 495.421
917 0 42.0744 13.0008 547 78.2523 873.505 495.633
918 0 45.2088 13.6036 615 76.2423 873.906 493.948
919 0 45.0227 12.6159 568 78.9525 874.085 494.065
920 0 45.0915 13.772 621 77.9485 873.908 493.494
921 0 45.043 12.0774 544 81.2132 874.274 492.513
922 0 48.0139 12.3506 593 80.3592 873.954 489.545
923 0 48.0837 11.2928 543 82.1676 874.252 488.227
924 0 50.122 11.472 575 81.993 874.077 486.598
925 0 49.0876 9.55435 469 85.0533 873.923 485.072
926 0 52.0801 12.0776 629 81.4054 873.925 486.189
927 0 60.1095 14.956 899 74.5495 874.008 488.724
928 0 61.0204 13.7659 840 76.5048 873.782 488.37
929 0 64.0969 13.8228 886 76.4571 873.872 487.08
930 0 66.2472 14.7931 980 74.15 874.333 487.388
931 0 67.0488 13.781 924 76.5011 873.562 483.85
932 0 70.0898 13.9535 978 76.8528 873.298 481.79
933 0 73.107 13.8564 1013 76.6792 873.249 480.577
934 0 78.0617 15.3084 1195 73.4787 873.216 481.065
935 0 79.0359 14.2214 1124 75.6753 872.978 479.636
936 0 80.1859 13.7306 1101 77.8937 873.881 478.144
937 1 39.1287 12.5994 493 78.645 873.187 497.905
938 0 40.0167 13.5943 544 78.2353 872.897 495.678
939 0 41.05 12.9111 530 78.8755 873.304 496.302
940 0 43.14 15.6931 677 63.1477 872.3 499.95
941 0 43.0347 12.9895 559 80.3918 873.127 493.03
942 0 45.183 13.5449 612 78.7418 873.528 493.466
943 0 47.0973 14.1409 666 77.5961 872.928 493.829
944 0 47.0961 14.7571 695 77.0029 873.44 494.412
945 0 48.095 13.4525 647 79.8423 873.445 492.779
946 0 51.0602 16.0203 818 75.2359 873.539 491.622
947 0 54.093 13.5877 735 78.5293 873.733 492.014
948 0 54.1178 15.1706 821 76.9756 873.175 490.692
949 0 55.1034 14.373 792 78.8308 873.298 489.606
950 0 59.0795 14.5736 861 77.1998 873.373 488.806
951 0 59.0465 14.3107 845 78.342 873.195 486.556
952 0 62.0238 13.4464 834 79.307 873.44 487.743
953 0 63.1061 15.4185 973 77.0164 873.298 484.917
954 0 65.0814 14.3052 931 78.5972 873.521 486.461
955 0 69.3255 15.0305 1042 76.3311 873.319 484.245
956 0 70.0398 14.0206 982 78.2882 873.508 482.734
957 1 32.1213 13.2934 427 79.4239 873.382 499.97
