time division length width area intensity CMx CMy
0 0 81.3275 11.5705 941 63.5515 803.76 419.692
1 0 81.2882 11.7729 957 63.4065 803.372 422.049
2 0 90.2513 13.4957 1218 60.7644 803.743 418.687
3 0 88.3544 11.8047 1043 64.1515 803.168 417.965
4 0 92.3222 14.7635 1363 60.2891 803.158 419.528
5 0 94.4313 13.7031 1294 62.3184 803.005 414.638
6 0 99.1719 12.7254 1262 62.5032 802.522 421.242
7 1 53.1916 12.1824 648 62.5556 802.585 436.86
8 0 56.2025 13.914 782 60.7941 801.923 438.353
9 0 54.3035 12.467 677 62.5657 801.467 438.189
10 0 58.1036 11.4795 667 63.8531 801.583 436.702
11 0 59.4903 14.5402 865 61.3873 801.277 432.955
12 0 62.3617 11.4654 715 64.6252 801.301 433.406
13 0 63.213 12.3392 780 63.7897 801.308 434.338
14 0 59.334 12.3707 734 65.3038 801.688 430.52
15 0 66.2979 12.7003 842 63.5618 800.356 432.257
16 0 66.205 13.3676 885 63.4102 799.932 432.145
17 0 71.4286 12.754 911 63.4621 800.892 432.65
18 0 72.3766 11.9928 868 64.9447 800.195 430.486
19 0 75.1301 13.8293 1039 63.1694 800.314 429.958
20 0 75.4344 12.7793 964 65.0021 800.616 428.822
21 0 76.3414 13.3217 1017 65.4956 800.019 425.35
22 0 78.3427 11.0029 862 68.0371 800.487 425.762
23 0 82.4412 12.4452 1026 66.1491 799.966 426.846
24 0 86.2251 13.6851 1180 64.3246 800.175 426.846
25 0 87.3952 12.6323 1104 67.0462 800.832 421.689
26 0 89.1609 12.9092 1151 67.1373 801.05 420.831
27 0 90.3188 12.8213 1158 68.0622 800.88 417.523
28 0 94.2281 14.0404 1323 66.5639 800.741 419.457
29 1 54.3747 10.9978 598 68.7676 800.577 439.945
30 0 52.1611 13.3816 698 67.1848 800.524 439.433
31 0 55.1896 12.2125 674 68.27 800.515 440.727
32 0 56.364 13.8564 781 66.5326 800.533 437.101
33 0 58.199 11.581 674 69.4303 800.521 438.528
34 0 61.1982 13.301 814 67.5049 800.759 436.71
35 0 66.1942 12.8863 853 66.9601 801.001 438.011
36 0 65.2074 12.6213 823 68.1203 800.931 436.601
37 0 63.1011 11.7748 743 70.3001 800.304 434.248
38 0 67.2293 11.4087 767 70.4863 799.673 432.72
39 0 70.1838 11.9116 836 69.7703 799.879 433.417
40 0 71.2033 13.1876 939 68.0288 800.027 434.001
41 0 74.2447 12.8629 955 68.9675 800.394 430.373
42 0 74.1985 13.2078 980 68.949 800.566 427.248
43 0 78.1983 12.123 948 70.3755 800.058 428.211
44 0 79.187 12.4768 988 70.0547 800.586 427.765
45 0 83.2759 12.4166 1034 69.9062 800.615 427.769
46 0 85.1717 12.9386 1102 69.7459 799.758 425.212
47 0 91.3885 11.5988 1060 70.3849 799.464 426.354
48 0 92.3165 12.5005 1154 69.6542 799.772 426.099
49 1 49.286 12.9854 640 67.9906 798.941 444.406
50 0 51.1377 11.2442 575 70.7287 799.4 441.69
51 0 52.1577 10.4874 547 71.7386 799.781 440.704
52 0 53.1488 11.8347 629 70.2035 799.809 440.507
53 0 56.353 12.1733 686 69.188 799.994 441.015
54 0 55.115 12.61 695 69.3209 799.843 440.678
55 0 57.0717 11.8272 675 70.2682 800.08 439.505
56 0 60.2552 10.8207 652 71.0245 799.478 437.873
57 0 62.2002 12.8617 800 68.69 799.596 435.93
58 0 65.1761 12.167 793 69.4124 799.937 434.385
59 0 66.159 12.4246 822 69.2287 799.584 434.726
60 0 68.0705 13.4126 913 68.0975 799.106 433.625
61 0 70.2638 12.8231 901 68.3785 799.527 434.933
62 0 73.0971 12.1209 886 69.9639 799.279 429.358
63 0 77.151 13.0134 1004 68.244 799.505 429.205
64 0 77.097 11.3104 872 70.8544 799.589 427.803
65 0 79.1989 12.0961 958 70.3591 799.089 425.938
66 0 83.1015 12.8638 1069 68.6118 798.702 427.65
67 0 86.1374 12.3872 1067 69.7816 798.862 423.841
68 0 90.1776 12.6306 1139 69.3661 799.35 422.187
69 0 91.0907 12.9541 1180 69.5195 800.076 419.358
70 1 44.0619 12.7548 562 69.0836 799.525 441.571
71 0 47.0804 11.0237 519 70.8343 799.528 440.108
72 0 47.0728 10.027 472 72.0212 799.898 440.693
73 0 50.1045 12.2344 613 68.708 799.708 441.199
74 0 52.0841 12.1918 635 68.7244 799.62 439.45
75 0 53.127 13.1195 697 67.7819 799.495 438.96
76 0 55.0697 11.5853 638 69.6364 799.125 437.219
77 0 57.0808 11.8253 675 68.9882 799.781 436.479
78 0 57.1196 11.6072 663 69.5943 800.029 434.949
79 0 59.0762 11.8153 698 69.4699 799.844 433.622
80 0 61.0906 13.0953 800 68.0012 800.242 434.271
81 0 64.1638 11.72 752 70.0572 799.816 432.128
82 0 66.0452 11.477 758 69.9116 799.327 431.821
83 0 71.1775 13.094 932 67.3873 799.103 430.4
84 0 72.0614 12.6004 908 68.6145 798.948 428.872
85 0 74.1195 12.3584 916 69.0873 799.717 426.413
86 0 78.1645 11.028 862 70.7703 800.129 427.447
87 0 79.153 12.5832 996 68.7912 799.663 427.335
88 0 84.1654 12.3923 1043 68.9875 800.028 425.686
89 0 85.1285 12.5222 1066 69.3874 800.135 424.765
90 0 89.208 12.8688 1148 68.9756 800.001 421.032
91 0 93.1254 11.9087 1109 69.8738 799.979 421.481
92 1 48.0534 12.0699 580 68.8569 800.214 442.703
93 0 50.0658 12.0841 605 68.3967 800.121 441.912
94 0 50.0504 11.8481 593 69.8988 800.042 440.449
95 0 50.0504 11.8481 593 130.465 800.042 440.449
96 0 56.1348 12.6303 709 68.0818 799.755 439.092
97 0 59.0702 12.2058 721 68.638 799.624 438.067
98 0 59.0858 13.4381 794 67.0982 799.967 436.145
99 0 60.0804 10.6358 639 69.8513 799.997 438.369
100 0 63.035 12.3582 779 67.7741 799.718 436.496
101 0 66.2426 12.9524 858 67.2867 799.91 431.795
102 0 66.2435 11.9408 791 69.0695 800.373 431.161
103 0 69.0285 12.053 832 68.5012 800.403 431.706
104 0 69.1583 10.6422 736 70.663 800.519 431.961
105 0 75.0723 13.5603 1018 66.4116 800.312 429.416
106 0 78.0892 12.1784 951 68.3838 799.938 430.792
107 1 42.1345 11.2022 472 65.5 799.788 450.714
108 0 44.1347 12.2353 540 66.2389 800.257 446.302
109 0 44.0899 10.9095 481 68.4012 799.996 446.343
110 0 44.1024 10.0675 444 70.286 800.628 444.153
111 0 47.2837 10.6379 503 69.0994 799.698 444.459
112 0 48.0775 12.2511 589 66.91 799.16 443.071
113 0 50.0178 12.8554 643 66.8274 798.799 441.529
114 0 52.0799 11.7704 613 67.54 799.235 440.15
115 0 51.0806 11.7266 599 68.0551 799.489 442.169
116 0 54.0309 9.75368 527 69.8937 799.602 438.871
117 0 56.0646 13.0742 733 65.2565 799.854 438.939
118 0 57.0713 11.4068 651 67.4992 800.186 437.339
119 0 60.0705 9.98827 600 68.7683 800.043 436.977
120 0 64.1014 12.0122 770 65.8987 800.357 436.623
121 0 66.1792 12.1337 803 65.8194 800.455 434.751
122 0 67.1082 11.3399 761 66.7306 799.708 431.191
123 0 70.145 11.4762 805 66.3205 800.222 430.552
124 0 71.1696 11.859 844 66.3318 800.205 427.775
125 0 75.0477 9.83375 738 67.649 800.798 429.847
126 1 39.1121 12.4258 486 62.4547 800.541 448.57
127 0 38.1356 11.0658 422 64.8957 800.315 446.519
128 0 39.0494 10.7812 421 64.3705 800.264 448.416
129 0 42.204 11.3022 477 63.4004 800.21 446.954
130 0 45.0587 12.3173 555 62.2036 799.962 445.049
131 0 45.0857 11.6889 527 62.4706 800.522 444.841
132 0 46.0403 10.013 461 65.128 800.542 443.247
133 0 47.1705 10.7058 505 63.4792 800.606 443.315
134 0 47.1072 11.0599 521 63.0038 800.372 444.954
135 0 49.1345 13.0255 640 61.0984 799.9 443.205
136 0 48.0377 11.2828 542 63.559 800.506 441.458
137 0 51.0569 13.3968 684 60.5906 800.265 439.855
138 0 52.165 9.73832 508 64.4823 800.898 438.012
139 0 54.1322 11.5643 626 61.7061 800.926 438.206
140 0 56.1339 12.5058 702 60.3034 801.014 438.533
141 0 58.0872 10.6392 618 61.932 800.443 436.343
142 0 60.0948 11.4985 691 61.1548 800.709 434.972
143 0 62.1078 11.3351 704 61.4077 800.53 434.104
144 0 63.0791 10.2728 648 62.2593 800.482 432.688
145 0 64.1783 10.4552 671 62.31 800.997 433.046
146 0 66.1544 10.0674 666 62.3964 801.129 430.074
147 0 69.1316 9.38789 649 62.4545 800.7 432.929
148 0 70.0701 10.2469 718 62.2131 800.759 427.602
149 0 73.0915 10.179 744 62.2003 800.632 426.597
150 1 37.0188 9.23855 342 61.617 800.705 444.471
151 0 36.1182 10.3826 375 60.8667 801.387 446.933
152 0 39.0362 8.29999 324 62.3488 801.506 443.534
153 0 41.1581 12.2698 505 59.0852 800.224 443.513
154 0 42.0503 10.4874 441 60.6009 801.302 441.066
155 0 44.0092 9.70252 427 61.2131 801.155 440.871
156 0 45.0884 11.045 498 59.8635 800.859 441.765
157 0 48.1204 10.0581 484 60.7583 800.998 438.583
158 0 44.079 6.69254 295 64.0475 801.241 438.427
159 0 50.0872 12.3385 618 57.9531 801.566 436.032
160 0 54.1871 12.0324 652 57.8666 800.563 435.741
161 0 64.0649 12.581 806 55.0161 800.622 438.331
162 0 57.0654 10.4967 599 59.1736 800.913 432.988
163 0 59.0718 10.4957 620 58.7613 800.711 433.247
164 0 62.1681 12.1123 753 56.9495 799.983 432.378
165 0 63.1839 13.7693 870 55.5092 799.82 429.533
166 1 74.272 11.3367 842 54.7838 799.973 435.792
167 0 64.1507 10.1947 654 58.9021 800.171 428.642
168 0 66.0868 10.0625 665 58.6256 799.986 427.487
169 0 70.0748 10.8028 757 57.8177 800.633 425.232
170 1 82.1922 13.9794 1149 51.5396 800.071 433.769
171 0 74.0409 10.1971 755 58.0066 800.383 423.491
172 0 75.2453 9.35606 704 58.7358 800.588 422.328
173 0 77.1308 8.12905 627 59.6858 800.247 418.19
174 0 79.0736 6.93025 548 60.9489 800.487 414.58
175 1 39.0263 7.17465 280 59.125 801.279 435.886
176 0 41.0287 8.79871 361 58.1468 799.997 437.075
177 0 41.0492 8.13657 334 58.4281 800.003 434.431
178 0 45.0982 11.8186 533 54.6435 800.197 431.818
179 0 45.0437 7.68144 346 58.4451 799.916 432.006
180 1 0 0 0 -nan -nan -nan
181 1 50.0366 9.87277 494 60.7146 800.099 380.982
182 0 54.0448 10.0102 541 60.6747 800.211 379.545
183 0 57.1127 11.346 648 55.4537 801.034 433.656
184 0 57.0854 10.8784 621 56.0193 800.824 432.961
185 0 58.0342 10.4766 608 56.0132 800.554 427.388
186 0 60.0663 9.37297 563 56.8064 800.123 427.213
187 0 61.1275 9.75011 596 56.5738 800.466 424.867
188 0 61.0561 7.37028 450 58.7089 800.456 424.031
189 1 76.4496 12.9235 988 51.751 800.348 434.611
190 1 65.0809 9.71099 632 56.7801 800.297 427.418
191 0 63.12 3.48543 220 61.5227 800.564 431.732
192 0 63.1088 6.25903 395 59.5797 800.167 429.22
193 1 32.1352 8.68208 279 58.1936 800.319 441.025
194 0 35.0156 11.909 417 55.3477 800.091 440.134
195 0 36.0251 9.77098 352 57.5824 800.057 440.665
196 0 41.0446 12.4011 509 55.1454 800.246 439.784
197 0 43.1866 11.3461 490 55.6286 800.565 439.9
198 0 44.1099 12.7409 562 54.6797 799.804 438.502
199 0 46.068 11.3528 523 56.434 799.314 439.499
200 0 51.0604 13.6505 697 53.779 799.409 437.885
201 0 47.05 9.58556 451 58.5078 799.94 436.592
202 0 51.1104 11.7589 601 56.6073 800.228 435.424
203 0 54.0266 14.5484 786 53.9402 799.677 433.322
204 0 57.1064 12.1878 696 56.2069 799.56 432.382
205 0 58.0759 13.5857 789 54.7757 799.548 431.384
206 0 59.0582 11.8019 697 56.4706 800.301 429.67
207 0 64.1107 12.6188 809 54.7664 800.262 431.224
208 0 66.0456 15.2925 1010 52.2109 800.274 428.219
209 0 68.0336 11.7589 800 55.1 799.435 427.392
210 0 72.0852 12.1384 875 54.7737 799.64 426.61
211 1 31.1252 10.5381 328 55.8902 799.802 443.524
212 0 33.0989 10.2118 338 56.713 799.79 445.237
213 0 35.0497 13.4095 470 53.6234 800.185 443.277
214 0 35.0171 10.2807 360 56.6806 800.392 443.464
215 0 36.0603 10.6766 385 56.452 800.221 444.358
216 0 37.0376 10.5298 390 56.9872 799.054 443.256
217 0 41.0359 11.2828 463 56.4471 798.983 442.315
218 0 40.2076 11.0676 445 57.4786 798.933 442.393
219 0 40.0706 10.0073 401 58.8803 799.12 441.676
220 0 42.0578 10.3429 435 58.8552 799.526 440.752
221 0 54.5311 14.6705 800 52.4525 799.256 441.971
222 0 45.0268 11.3044 509 58.5678 799.475 438.206
223 0 45.0336 12.0355 542 58.3007 799.446 434.55
224 0 48.1248 11.5325 555 58.2883 799.683 436.332
225 0 50.026 11.2342 562 58.9217 799.468 434.45
226 0 49.1902 10.7542 529 59.4896 799.896 435.008
227 0 51.131 9.85704 504 60.3254 799.752 434.163
228 0 54.0512 9.3985 508 60.3445 799.618 430.835
229 0 57.0872 10.8956 622 59.4807 800.127 433.27
230 0 58.0303 9.46058 549 61.0546 800.612 427.486
231 0 52.0412 6.53328 340 63.5588 800.432 419.465
232 0 53.0506 6.76712 359 63.7298 800.32 416.98
233 0 55.0414 7.61245 419 62.5179 800.303 415.635
234 1 38.0203 8.28506 315 63.5841 800.232 411.225
235 0 40.0308 12.7902 512 58.8223 800.486 407.365
236 0 39.0563 12.8276 501 55.976 800.09 448.341
237 0 41.2015 11.553 476 57.2038 799.716 447.126
238 0 41.0827 13.0468 536 56.3563 799.836 445.78
239 0 40.0923 12.7456 511 57.6419 800.573 444.348
240 0 42.0523 11.2479 473 57.8161 800.476 446.057
241 0 45.0988 13.1046 591 56.5432 800.832 442.777
242 0 44.103 11.4051 503 58.4354 800.457 441.74
243 0 45.0567 12.4288 560 57.4107 800.136 441.83
244 0 48.0616 15.1472 728 54.6387 799.933 440.879
245 0 49.1816 12.6877 624 57.1026 799.686 438.455
246 0 50.1249 13.626 683 56.4422 799.902 438.452
247 0 53.023 11.4667 608 57.8174 799.447 438.296
248 0 51.0689 11.8076 603 58.1874 799.696 435.453
249 0 54.2316 11.3402 615 58.3301 798.426 433.707
250 0 56.1019 12.3347 692 56.9451 799.238 433.068
251 0 59.1728 15.0238 889 54.081 799.778 434.314
252 0 62.054 12.1185 752 56.6184 800.105 432.919
253 0 61.0701 12.1008 739 57.5345 799.744 431.432
254 0 65.1019 12.611 821 56.9708 799.469 431.297
255 0 67.1199 12.4106 833 57.2533 799.071 427.397
256 1 33.0546 10.528 348 56.9942 799.279 448.428
257 0 33.0325 10.8681 359 57.6407 799.248 446.766
258 0 34.0397 11.3103 385 56.548 799.356 447.457
259 0 38.0816 12.9984 495 54.9172 799.4 445.592
260 0 38.0742 11.819 450 56.0156 799.509 445.811
261 0 38.1498 10.8258 413 57.3656 799.83 445.247
262 0 39.0684 10.5456 412 57.733 800.061 444.512
263 0 41.0951 12.1912 501 55.9661 799.671 444.513
264 0 42.0486 10.1311 426 57.8122 799.505 442.702
265 0 44.0536 10.5553 465 57.4344 799.108 442.57
266 0 46.27 11.541 534 56.3146 799.474 440.446
267 0 46.0509 11.053 509 57.0589 799.122 440.006
268 0 47.0207 12.4413 585 55.747 799.27 438.222
269 0 48.0333 9.20195 442 58.2262 799.595 439.81
270 0 50.1774 10.7618 540 56.8741 799.7 437.167
271 0 52.1225 11.2811 588 56.1599 799.549 438.4
272 0 53.0446 11.6883 620 56.1032 799.813 434.039
273 0 53.102 9.8678 524 57.5324 799.473 434.445
274 0 58.0903 12.1707 707 55.2871 800.042 433.276
275 0 58.0769 11.1576 648 56.4136 799.724 433.154
276 0 60.0477 11.3909 684 56.538 799.975 432.323
277 0 64.0697 10.473 671 56.7526 800.028 430.307
278 0 66.1264 12.2946 813 55.4133 800.08 430.047
279 0 70.1708 11.301 793 55.8033 799.743 432.333
280 0 71.0982 10.7035 761 56.8305 799.978 428.512
281 0 74.0322 10.9817 813 56.6125 799.528 429.289
282 1 38.0494 10.355 394 56.7259 799.345 444.876
283 0 38.0335 12.1735 463 55.3628 798.87 443.646
284 0 41.0299 11.4307 469 55.7356 798.812 443.708
285 0 44.0711 12.2075 538 55.0762 798.9 442.582
286 0 43.0302 9.57468 412 58.0995 798.765 442.097
287 0 47.0484 10.7761 507 56.6548 799.085 441.594
288 0 48.0757 9.33944 449 58.2695 799.091 441.546
289 0 50.0712 11.0043 551 56.8857 799.183 440.824
290 0 58.0378 14.8524 862 51.7564 798.512 443.273
291 0 50.0691 12.1632 609 57.087 798.222 439.245
292 0 52.0408 13.4126 698 55.8266 798.794 436.08
293 0 54.0253 9.25492 500 59.238 798.444 436.36
294 0 55.0863 11.6 639 56.8263 798.84 437.792
295 0 60.23 12.0206 724 56.0401 799.015 436.588
296 0 59.0447 11.1272 657 57.4475 798.578 434.785
297 0 62.1158 12.5572 780 56.5038 798.45 431.326
298 0 66.1842 12.6616 838 56.0823 799.132 428.511
299 0 67.0442 11.9026 798 56.6341 799.08 429.924
300 0 72.0617 11.6289 838 56.4057 798.526 428.592
301 1 36.0816 8.81335 318 57.5818 797.997 445.057
302 0 36.0808 11.8068 426 56.6596 798.815 441
303 0 40.0461 10.6877 428 56.9182 799.166 443.439
304 0 41.2024 11.4799 473 56.1839 799.359 442.562
305 0 44.1448 10.9186 482 56.0934 799.251 442.048
306 0 41.0996 11.3383 466 56.9378 799.348 441.974
307 0 43.0329 10.2712 442 57.8235 799.765 440.81
308 0 45.0849 11.068 499 57.0701 799.196 439.158
309 0 47.054 12.4113 584 55.5377 798.904 437.714
310 0 49.0424 12.479 612 55.2925 799.353 437.694
311 0 48.0929 9.50244 457 58.1204 799.002 438.359
312 0 53.0687 10.1943 541 56.9593 798.56 436.53
313 0 52.1856 12.3597 645 55.4899 798.681 434.388
314 0 57.1981 12.5529 718 54.3983 799.216 434.699
315 0 58.1199 12.1989 709 54.6798 799.437 434.302
316 0 58.2334 10.6468 620 56.4548 799.611 430.811
317 0 58.1352 9.3403 543 57.7624 799.431 429.134
318 0 62.0825 10.2928 639 56.3834 799.282 427.261
319 0 64.0987 10.1718 652 56.3221 799.213 426.411
320 0 70.0912 11.8845 833 54.3577 799.166 425.162
321 0 69.1596 10.1071 699 56.1788 799.123 422.14
322 0 72.1304 10.7306 774 55.8824 798.928 421.969
323 0 73.0754 7.30752 534 58.2097 798.487 424.356
324 1 88.0966 11.9982 1057 52.7294 798.419 427.296
325 0 89.1942 12.1645 1085 53.0719 798.626 424.148
326 0 92.0929 11.5753 1066 54.151 798.793 419.817
327 0 86.1191 11.217 966 55.7774 798.509 416.308
328 1 43.0648 9.19544 396 57.2803 798.422 436.811
329 0 43.0704 8.52093 367 58 798.64 437.46
330 0 47.0465 10.8616 511 55.6282 797.806 438.401
331 0 46.041 9.73045 448 57.1562 798.011 436.217
332 0 48.0724 8.75762 421 57.715 798.435 434.197
333 0 51.0718 9.55517 488 57.0635 798.889 435.953
334 0 53.0359 12.6141 669 54.3094 798.574 433.931
335 0 64.1755 10.6894 686 54.1676 799.258 436.472
336 0 56.1176 9.72956 546 56.9854 799.39 432.958
337 1 66.1861 10.7122 709 54.8801 799.825 434.52
338 0 62.2486 10.6508 663 55.9653 799.643 430.161
339 0 65.0998 10.0768 656 56.3887 799.13 429.608
340 0 66.0502 9.9167 655 56.3771 799.705 432.313
341 0 67.1743 9.27438 623 57.3178 799.475 429.152
342 0 72.0987 10.2498 739 56.4384 799.452 426.257
343 0 74.1243 12.3576 916 54.7838 799.058 422.66
344 0 76.054 10.6635 811 55.7879 798.785 426.816
345 0 80.0816 12.0003 961 55.0552 798.425 422.814
346 1 40.082 12.7738 512 54.3144 798.717 441.129
347 0 39.0719 8.85546 346 57.9595 798.934 440.069
348 0 42.0788 12.738 536 54.6399 798.34 438.702
349 0 43.0148 11.0427 475 55.8905 798.465 436.602
350 0 45.0689 9.78501 441 56.6757 798.771 434.161
351 0 45.0539 9.58852 432 57.3449 798.275 434.366
352 0 47.0324 12.6083 593 54.6712 798.305 433.212
353 0 48.1133 10.4753 504 55.8373 798.575 430.361
354 0 47.0665 10.4745 493 57.1744 798.264 431.834
355 0 53.0849 9.64493 512 57.0137 797.908 429.029
356 0 52.0847 11.0013 573 56.6597 797.557 428.637
357 0 54.0527 12.0438 651 55.768 798.777 426.714
358 0 55.0621 9.89791 545 57.6826 798.809 425.861
359 0 59.0615 11.5642 683 56.1318 798.997 424.486
360 0 61.1053 9.18087 561 58.5098 799.055 424.089
361 0 62.0722 10.5844 657 57.6317 799.362 422.234
362 0 67.1012 10.119 679 57.6495 799.3 423.436
363 0 69.1406 10.2689 710 58.0169 799.363 424.428
364 0 71.0548 10.9915 781 57.3572 799.099 424.224
365 0 78.0778 11.2196 876 56.6484 799.209 420.832
366 0 77.0707 8.83604 681 59.4978 799.408 418.693
367 0 80.1464 11.0173 883 58.026 799.019 417.829
368 0 85.1196 12.0536 1026 56.9366 798.842 418.83
369 1 41.0276 11.3095 464 57.3491 798.922 439.142
370 0 42.0584 12.4351 523 56.4532 799.136 441.113
371 0 42.0573 10.4381 439 58.943 799.226 434.287
372 0 47.1128 12.3958 584 56.8904 798.724 436.878
373 0 48.1267 11.2412 541 58.2144 799.486 434.684
374 0 50.0811 11.5013 576 58.4201 798.929 433.292
375 0 51.0296 13.11 669 56.9118 799.016 434.954
376 0 53.1474 13.3403 709 57.0099 799.399 428.863
377 0 54.0875 13.1639 712 57.5084 799.066 429.256
378 0 57.0359 12.799 730 57.6041 798.925 428.325
379 0 58.0864 13.4971 784 57.4617 798.883 429.839
380 0 62.1056 14.3304 890 56.2697 799.289 428.878
381 0 62.083 12.0001 745 59.0134 799.529 426.953
382 0 64.0933 13.5584 869 57.5708 799.092 427.678
383 0 67.1395 10.9176 733 59.8076 798.82 426.538
384 0 68.056 13.1656 896 57.442 798.362 427.385
385 0 71.2062 13.7348 978 56.9949 798.596 424.702
386 0 75.0674 15.7592 1183 54.716 798.688 424.584
387 0 77.1938 12.0865 933 58.0847 798.534 423.423
388 0 79.1418 11.789 933 58.567 798.72 421.02
389 0 81.2404 12.0999 983 58.5727 798.554 418.307
390 1 43.0646 12.3535 532 57.4756 799.274 439.622
391 0 42.1011 10.9973 463 58.8553 799.376 440.557
392 0 47.0444 13.3704 629 56.4674 799.814 439.285
393 0 45.1063 10.1538 458 60.679 799.498 437.823
394 0 48.0925 12.268 590 58.4288 799.507 436.327
395 0 51.0456 11.1469 569 59.4218 798.817 436.903
396 0 50.1469 12.1842 611 58.5925 798.89 434.545
397 0 50.0691 11.4042 571 59.7828 799.292 436.263
398 0 54.1898 12.7515 691 58.2504 799.495 435.427
399 0 56.138 10.3317 580 60.9448 799.921 431.309
400 0 57.1205 13.2702 758 58.5303 799.71 433.09
401 0 60.0465 12.7734 767 58.5958 799.193 430.016
402 0 63.1106 11.979 756 59.4974 799.724 431.069
403 0 62.1809 11.3057 703 60.9175 799.195 429.403
404 0 67.0564 13.69 918 58.464 798.987 427.028
405 0 71.135 12.3708 880 59.5568 798.834 427.956
406 0 77.1413 12.4836 963 59 799.556 428.805
407 0 75.0818 12.4264 933 60.3387 799.237 422.362
408 0 76.1417 12.6475 963 60.3738 799.64 423.63
409 0 79.0811 12.9614 1025 60.0761 798.978 423.742
410 0 83.057 12.8586 1068 60.4232 799.066 423.943
411 1 40.1116 12.3655 496 61.121 799.294 442.653
412 0 42.0906 12.7344 536 60.0616 799.843 443.257
413 0 45.081 11.5126 519 61.2505 799.761 441.214
414 0 46.2765 11.669 540 61.6241 799.335 440.52
415 0 47.0228 11.3562 534 62.1704 799.67 439.678
416 0 48.2133 13.1084 632 60.2373 800.157 439.628
417 0 51.4456 11.2546 579 61.7513 799.96 440.162
418 0 51.0694 14.3334 732 59.2869 800.052 438.467
419 0 55.0523 13.3873 737 59.7802 799.722 438.137
420 0 56.0769 12.9644 727 60.8872 799.41 434.803
421 0 58.1384 13.7087 797 59.5696 799.744 436.969
422 0 59.2196 14.3365 849 59.0459 799.31 436.117
423 0 61.2563 13.7945 845 59.8024 799.424 435.369
424 0 62.0664 12.245 760 61.7842 799.547 433.457
425 0 63.0934 14.1378 892 59.6626 799.468 434.065
426 0 68.2485 13.4362 917 60.3261 799.811 432.068
427 0 69.0611 12.4093 857 61.3384 799.649 433.523
428 0 72.0612 13.6689 985 61.2731 799.286 427.763
429 0 73.1021 11.9422 873 62.3666 799.621 429.703
430 0 77.1842 11.9714 924 62.802 799.64 425.839
431 0 79.0536 11.8021 933 63.0504 799.744 425.159
432 0 82.1043 12.4841 1025 62.5834 799.605 423.342
433 1 43.0492 11.0571 476 61.4076 799.126 443.899
434 0 45.1197 12.5887 568 59.6725 799.498 442.461
435 0 43.0613 11.9132 513 62.1793 799.589 441.127
436 0 44.0256 10.6075 467 63.4797 799.221 439.66
437 0 50.0394 12.3103 616 60.448 798.617 442.776
438 0 50.0895 12.1982 611 60.9607 799.08 440.224
439 0 52.0722 12.6747 660 60.1879 798.739 440.506
440 0 52.0311 13.1844 686 60.0466 798.952 439.115
441 0 53.0344 13.463 714 60.6316 799.076 435.088
442 0 56.049 12.3285 691 61.2533 798.974 435.359
443 1 65.1272 13.6041 886 57.3273 799.211 439.949
444 0 59.1594 13.844 819 60.1123 798.811 432.811
445 0 59.1027 9.86418 583 63.9606 798.804 433.34
446 0 64.2351 11.8315 760 60.8816 798.795 433.934
447 0 67.0383 11.7694 789 61.2953 799.684 428.49
448 0 68.0802 12.265 835 61.2802 799.595 427.12
449 0 72.0515 9.45157 681 63.9853 799.587 424.181
450 0 74.0497 12.9373 958 60.4948 799.937 424.774
451 0 77.0567 11.4331 881 61.9376 799.863 424.23
452 1 39.0166 8.15038 318 62.9843 799.824 445.491
453 0 41.0228 12.2615 503 59.5905 799.65 444.121
454 0 41.0084 11.0221 452 60.7677 799.201 442.684
455 0 42.1089 11.3753 479 60.4843 799.056 441.566
456 0 45.0249 14.4142 649 57.1572 799.136 439.837
457 0 45.0226 11.4387 515 60.2214 799.179 439.425
458 0 47.0576 9.35024 440 61.3477 799.252 439.793
459 0 48.0154 11.6004 557 59.781 799.187 438.774
460 0 52.0885 10.6165 553 60.2604 799.17 436.577
461 0 53.1491 12.4555 662 58.5861 798.847 433.597
462 0 55.0848 13.4338 740 57.5432 799.011 432.592
463 0 57.0824 10.9666 626 59.484 799.502 434.986
464 0 60.1307 12.872 774 57.4767 798.627 431.833
465 0 62.0898 12.8685 799 57.5056 799.38 432.206
466 0 62.1241 12.2336 760 58.4355 799.376 430.763
467 0 65.2056 13.097 854 57.6007 799.39 429.751
468 0 67.0492 13.4081 899 57.3337 799.369 427.741
469 0 69.1795 13.1831 912 57.7906 799.095 424.935
470 0 73.1723 11.6028 849 58.8115 799.158 424.332
471 0 76.1143 12.5338 954 58.2243 798.844 423.344
472 0 79.0948 12.0868 956 58.5586 799.015 422.367
473 0 80.0638 13.9639 1118 56.856 799.16 423.367
474 0 84.2671 12.6503 1066 58.3424 799.29 421.483
475 1 43.0625 12.2148 526 57.6787 799.629 441.77
476 0 48.1251 11.9896 577 57.5841 799.553 438.917
477 0 46.0868 12.0859 557 58.1149 799.952 439.889
478 0 48.0583 11.1739 537 59.0987 799.812 437.637
479 0 51.0949 11.1166 568 58.7113 799.769 438.357
480 0 52.0351 13.414 698 56.5759 799.404 438.319
481 0 55.1312 13.1142 723 57.0221 799.481 434.885
482 0 55.0928 13.1052 722 57.3075 799.748 435.934
483 0 57.0645 12.372 706 58.4518 799.078 433.822
484 0 57.1557 11.0925 634 59.2224 798.752 435.396
485 0 60.078 9.07153 545 60.7725 799.101 434.431
486 0 64.0797 12.937 829 57.3908 799.16 433.349
487 0 67.2059 13.0494 877 57.4686 799.197 431.353
488 0 66.095 12.0735 798 58.9223 799.177 428.991
489 0 70.2072 12.5913 884 58.1516 799.303 428.354
490 0 73.0633 12.8245 937 57.5262 799.732 429.451
491 0 75.1476 9.71422 730 60.8507 799.585 427.8
492 0 77.0691 12.3655 953 58.7775 799.558 426.844
493 0 81.2809 13.0412 1060 58.3849 799.215 422.549
494 1 43.0528 11.5672 498 58.237 799.044 443.243
495 0 42.0195 11.8516 498 58.99 798.374 440.542
496 0 44.0565 12.0527 531 58.3333 798.183 441.974
497 0 47.0482 13.7093 645 56.4434 798.092 440.864
498 0 46.1145 10.4956 484 59.8244 798.411 439.196
499 0 47.0753 13.4253 632 56.8687 798.6 442.525
500 0 49.0472 12.6001 618 58.1812 798.385 439.094
501 0 52.0968 12.6687 660 57.6879 798.197 438.73
502 0 53.0856 11.4532 608 58.8257 799.077 437.933
503 0 54.1381 12.8191 694 57.6657 799.268 438.797
504 0 56.0703 12.5022 701 57.8688 798.745 437.046
505 0 56.2061 11.6535 655 59.2443 798.574 435.484
506 0 60.0511 10.7742 647 59.8624 797.805 434.884
507 0 64.0372 13.0237 834 58.1055 798.078 433.638
508 0 64.1631 11.9695 768 59.1641 798.59 430.35
509 0 68.0846 12.3229 839 58.8451 798.839 433.118
510 0 69.1675 13.2432 916 58.5349 799.408 431.066
511 0 72.0941 11.4156 823 60.1397 798.665 430.038
512 0 73.0721 10.9618 801 61.2372 798.796 428.607
513 0 76.0985 13.4957 1027 59.5151 798.974 426.882
514 0 78.1413 11.2105 876 62.0183 799.31 427.691
515 0 81.1647 11.6923 949 61.8377 799.218 427.096
516 0 82.0922 11.95 981 61.6442 798.986 428.142
517 0 86.2192 10.6009 914 64.57 798.952 426.982
518 0 89.1015 11.6721 1040 64.4673 799.131 421.961
519 1 49.0345 12.8685 631 61.6292 798.648 442.087
520 0 50.0715 13.7403 688 61.5 798.932 440.411
521 0 52.056 11.1226 579 64.2003 799.195 439.349
522 0 55.0565 13.2954 732 61.8852 798.601 438.332
523 0 57.1717 12.6286 722 63.2271 798.834 439.048
524 0 65.0968 12.9192 841 60.503 798.63 442.391
525 0 67.1386 13.271 891 60.8272 799.162 440.884
526 0 62.213 12.1357 755 64.1722 798.866 433.623
527 0 64.09 12.5293 803 63.2354 798.973 435.976
528 0 66.1768 12.8444 850 63.6141 798.613 431.875
529 0 71.0378 12.43 883 63.1031 798.744 432.533
530 0 72.1524 13.2359 955 62.8387 798.957 428.674
531 0 75.1028 10.9983 826 65.0763 798.104 428.621
532 0 78.0825 12.0514 941 64.2795 797.997 428.356
533 0 78.0983 10.8581 848 65.6321 798.218 428.072
534 1 41.0869 9.37038 385 66.0961 798.86 445.558
535 0 42.0609 12.054 507 63.6489 798.777 445.168
536 0 40.0461 10.2881 412 66.5995 798.918 444.112
537 0 45.0942 11.3096 510 64.6471 799.4 442.796
538 0 46.0273 10.2982 474 65.5042 798.698 443.08
539 0 48.0443 12.6134 606 63.5974 798.246 442.177
540 0 50.1628 11.7218 588 64.6701 798.4 439.046
541 0 49.0756 11.6759 573 65.4171 798.283 440.714
542 0 53.0731 12.2284 649 64.3128 798.458 439.052
543 0 55.075 13.4725 742 63.0472 797.72 437.305
544 0 57.0371 13.5876 775 63.1832 797.96 435.306
545 0 59.0422 13.3803 790 63.6544 797.19 433.856
546 0 59.0477 11.9056 703 65.8065 797.906 432.398
547 0 61.021 11.8648 724 65.7887 797.638 434.992
548 0 65.0671 13.9548 908 63.1531 797.177 431.077
549 0 66.0748 13.7571 909 63.3883 797.616 431.403
550 0 69.0415 13.4412 928 62.9084 798.223 432.929
551 0 71.135 14.0999 1003 62.7667 798.525 430.504
552 0 73.1086 13.5962 994 63.7968 797.842 427.133
553 0 77.1179 13.3043 1026 63.5273 798.106 426.528
554 0 79.0827 14.5797 1153 61.9748 798.103 426.586
555 0 81.0956 11.7269 951 64.9012 798.733 426.675
556 0 83.0607 12.0514 1001 65.4086 798.383 423.009
557 1 43.0929 10.4426 450 66.6689 798.607 440.722
558 0 45.1688 13.0621 590 63.1864 797.937 442.147
559 0 45.0379 14.0548 633 62.7725 798.139 439.188
560 0 48.0541 12.3194 592 64.0355 798.287 439.89
561 0 50.0746 13.7595 689 62.4253 797.906 439.592
562 0 51.1671 13.153 673 63.0639 798.175 438.963
563 0 52.1374 11.3162 590 65.2203 798.092 438.986
564 0 56.0563 13.094 734 62.2875 798.059 437.816
565 0 57.1204 13.2702 758 62.5567 798.499 435.024
566 0 58.0471 12.9033 749 62.9332 798.2 436.056
567 0 59.0321 10.147 599 65.6544 798.332 433.369
568 0 62.0577 13.4713 836 62.171 798.681 432.161
569 0 62.0327 10.6557 661 65.3555 798.638 430.723
570 0 66.1305 13.549 896 61.7266 798.917 429.729
571 0 70.0719 13.8286 969 61.2095 798.767 427.805
572 0 71.2733 12.4591 888 62.7185 798.582 427.309
573 0 73.1642 13.8182 1011 61.5816 798.18 425.526
574 0 76.1642 13.7729 1049 61.5558 798.595 425.884
575 0 80.0739 14.5116 1162 60.4251 798.522 424.045
576 0 82.2414 13.2658 1091 62.1045 798.384 422.698
577 0 84.0845 11.7263 986 64.0122 798.26 421.998
578 0 87.2203 13.7239 1197 61.6533 798.688 419.328
579 0 97.5774 15.4646 1509 56.4241 798.443 432.363
580 0 84.0791 6.42252 540 68.0241 798 429.261
581 0 85.1154 7.57795 645 67.3287 797.794 426.257
582 1 56.115 13.7396 771 57.5629 798.232 445.35
583 0 58.4268 11.2448 657 61.0639 796.971 442.129
584 0 50.3076 11.3303 570 63.6754 797.346 436.532
585 0 52.1125 10.5733 551 64.1724 797.43 437.837
586 0 52.0181 10.7463 559 64.4293 797.521 436.522
587 1 122.255 11.4433 1399 62.5311 797.727 415.573
588 0 119.19 12.392 1477 62.1814 798.013 416.215
589 0 110.064 7.29578 803 67.3362 798.029 417.905
590 0 113.15 7.5475 854 67.1991 797.74 416.335
591 0 122.599 9.52701 1168 62.5428 797.887 422.725
592 0 121.28 8.57518 1040 63.3663 797.987 423.836
593 0 118.367 11.0251 1305 61.0015 797.714 422.53
594 0 111.235 9.7901 1089 64.6758 798.188 416.639
595 1 84.2102 14.0126 1180 57.9873 798.465 428.502
596 0 88.1855 14.1066 1244 57.9719 798.685 427.435
597 0 89.3525 15.6459 1398 56.2725 798.098 429.516
598 0 92.1652 13.6169 1255 59.553 797.955 423.681
599 0 95.277 16.3103 1554 56.1409 798.223 425.618
600 0 93.1035 12.1048 1127 62.3762 797.625 419.72
601 0 94.1087 14.0476 1322 60.8124 798.33 415.561
602 0 94.1749 11.022 1038 70.1012 798.175 363.594
603 1 64.1385 12.208 783 58.304 798.633 440.103
604 0 65.2413 11.8023 770 58.8039 798.586 439.048
605 0 59.07 12.5444 741 60.7206 798.644 435.645
606 0 68.089 11.9403 813 59.7589 798.573 436.381
607 0 69.2312 13.231 916 58.3908 798.724 435.311
608 0 71.4402 12.29 878 60.1071 798.423 434.294
609 0 65.1133 12.1788 793 61.9508 798.346 430.112
610 1 77.1435 12.1332 936 60.1667 798.184 430.147
611 0 80.0968 13.7958 1105 58.2226 798.681 432.63
612 0 74.1026 12.7526 945 61.3323 798.243 427.677
613 0 83.3367 13.3315 1111 59.9514 797.554 426.143
614 0 86.4111 18.007 1556 54.5958 798.028 430.449
615 1 46.244 10.077 466 58.3648 797.545 449.762
616 0 47.0714 11.8968 560 59.2804 797.298 445.466
617 0 49.0828 10.6555 523 60.8126 797.413 445.002
618 0 50.3096 13.3573 672 58.378 797.295 444.098
619 0 52.3798 13.0012 681 58.7298 797.586 443.68
620 0 55.0742 10.3315 569 61.652 797.429 442.116
621 0 55.2825 11.9025 658 60.2234 797.336 442.743
622 0 59.1695 16.2415 961 56.1353 798.142 441.125
623 0 59.646 15.2232 908 57.9108 797.805 439.206
624 0 58.2029 12.0269 700 62.8129 797.693 438.357
625 0 61.2111 14.4091 882 59.9943 797.622 438.571
626 0 64.076 11.9858 768 62.8164 797.901 437.536
627 0 65.2008 11.8403 772 63.2254 797.452 435.571
628 0 68.0794 13.0436 888 62.5011 797.575 435.569
629 0 71.2178 16.7093 1190 58.1454 797.812 433.371
630 0 71.1187 13.9485 992 61.6774 797.347 433.476
631 0 72.1664 10.9054 787 65.676 797.567 432.623
632 0 70.0462 13.0485 914 65.2024 797.026 428.109
633 0 79.2694 14.4066 1142 61.4877 797.501 430.93
634 0 82.3119 13.8012 1136 62.1127 797.578 430.962
635 0 85.2059 15.7853 1345 60.2669 798.035 430.235
636 0 80.0801 13.6613 1094 65.4653 798.367 422.202
637 0 88.1472 13.1371 1158 64.7703 797.874 422.921
638 1 43.0359 9.06219 390 72.8667 797.79 396.615
639 0 48.0565 9.94663 478 71.0753 797.636 395.586
640 0 49.2572 11.308 557 64.307 797.831 442.82
641 0 51.0779 12.3928 633 62.9147 797.712 442.634
642 0 56.5088 12.6706 716 61.2053 797.719 443.36
643 0 56.0994 13.0661 733 61.3602 796.97 444.491
644 0 58.0863 13.4283 780 62.4756 797.299 441.19
645 0 54.3582 12.6384 687 66.1077 797.619 435.496
646 0 55.0931 13.0143 717 65.8926 797.579 436.218
647 0 58.1351 11.7313 682 67.1906 797.71 433.076
648 0 68.103 12.7895 871 63.3685 797.09 435.598
649 0 62.1984 13.6659 850 65.0847 798.018 432.984
650 0 61.1209 12.8761 787 66.4892 797.905 431.71
651 0 71.383 13.3645 954 62.9748 797.797 433.671
652 0 67.4552 12.0673 814 66.3292 797.806 431.24
653 0 70.0637 12.6599 887 65.6922 798.085 429.975
654 0 72.1315 12.9208 932 65.7071 797.753 427.424
655 0 76.1297 12.991 989 64.7401 797.772 429.61
656 1 44.251 10.9602 485 62.6165 798.35 448.348
657 0 46.2464 11.9793 554 62.3032 797.895 445.986
658 0 48.2972 11.6984 565 62.2372 797.204 444.819
659 0 51.6164 11.9536 617 62.7212 796.757 440.561
660 0 50.0908 11.8784 595 63.8252 797.277 439.948
661 0 53.11 12.7283 676 61.4275 797.173 442.655
662 0 54.0556 12.6166 682 62.8739 797.028 439.086
663 0 57.3002 12.897 739 61.3938 797.064 440.713
664 0 58.5508 14.022 821 60.0755 797.337 440.24
665 0 60.2953 13.8983 838 59.6098 797.055 439.341
666 0 62.1519 14.5933 907 59.1488 796.632 437.427
667 0 65.4524 13.4907 883 60.4496 796.966 437.134
668 0 66.4841 12.4541 828 61.8792 797.106 435.397
669 0 67.1174 15.093 1013 58.769 797.02 436.095
670 0 70.4997 13.8582 977 60.3275 797.039 434.588
671 0 71.5788 13.7471 984 60.8323 796.813 433.075
672 0 71.3187 12.367 882 63.9569 796.78 428.9
673 0 75.2992 13.0413 982 63.0204 796.625 426.67
674 0 78.2302 14.4957 1134 61.127 796.98 428.711
675 0 81.3362 12.9217 1051 63.1665 796.704 426.99
676 0 80.2245 14.7212 1181 61.6368 796.716 428.199
677 0 83.198 15.5533 1294 61.3764 796.505 426.25
678 1 48.0888 13.7246 660 59.9076 796.391 445.432
679 0 53.3406 9.26124 494 64.9636 796.775 444.121
680 0 57.3899 10.4025 597 64.0871 797.075 443.134
681 0 58.3227 10.1676 593 64.602 797.327 443.347
682 0 57.1197 9.78647 559 66.1199 797.689 440.891
683 0 58.4175 14.0369 820 60.5988 797.593 442.982
684 0 60.258 10.3887 626 65.7508 797.409 436.891
685 0 57.1778 10.8609 621 66.7987 797.548 436.262
686 0 64.2114 11.1974 719 63.854 796.954 439.505
687 0 63.183 10.9207 690 65.4464 797.336 435.799
688 1 11.0175 5.35513 59 44.2373 796.712 465.39
689 0 12.0191 8.32011 100 44.68 797.21 468.07
690 0 11.0247 2.17693 24 47.9167 797.833 468.708
691 0 11.0073 8.63063 95 44.2632 796.19 466.547
692 0 12.0256 8.1493 98 44.1122 796.969 467.98
693 0 11.041 6.34003 70 45.1286 797.157 466.629
694 0 11.0085 3.63356 40 46.8 796.875 468.125
695 0 11.0116 3.45092 38 46.8947 796.474 468.895
696 0 11.0652 3.7053 41 47.8293 796.415 468.439
697 0 13.1074 6.10341 80 45.75 796.038 466.7
698 0 12.0061 7.07973 85 45.3294 796.929 467.753
699 0 13.0584 6.66238 87 46.4713 796.966 467.517
700 0 13.0639 9.87455 129 44.3566 797.876 466.682
701 0 12.0144 11.2365 135 44.7185 797.8 467.874
702 0 15.1248 7.07445 107 47 797.598 467.935
703 0 14.0354 11.5422 162 44.9198 797.84 468.154
704 0 13.083 6.80271 89 48.0562 797.584 467.753
705 0 14.0077 4.99727 70 49.6286 797.543 469.186
706 0 13.0028 8.69041 113 47.1416 796.823 467.204
707 0 14.1004 9.71604 137 46.0876 797.628 465.854
708 0 12.0119 11.3221 136 45.5882 797.566 466.493
709 0 14.0068 12.9936 182 44.8681 797.797 466.159
710 0 15.012 8.39328 126 46.7064 797.349 466.817
711 0 12.1079 5.2032 63 48.4603 797.349 466.032
712 0 14.0712 3.97977 56 49.4464 796.429 466.571
713 0 15.1559 5.9383 90 48.8444 797.022 466.811
714 0 15.2026 10.3272 157 45.8153 797.535 464.478
715 0 14.0206 7.63162 107 47.3178 797.084 464.692
716 0 17.0131 7.22972 123 47.7967 797.52 465.967
717 0 16.0249 7.17633 115 48.087 796.861 467.826
718 0 15.0888 8.35058 126 47.7778 797.786 466.556
719 0 15.0033 7.26509 109 49.1651 797.486 466.615
720 0 17.0587 7.85525 134 48.9552 797.261 466.179
721 0 15.0331 10.3771 156 48.5128 797.436 465.596
722 0 17.0516 9.38329 160 49.2875 796.862 467.65
723 0 16.0141 7.80564 125 50.536 797.48 468.144
724 0 16.0454 7.10486 114 51.8246 796.544 468.316
725 0 18.0959 11.3285 205 48.8098 797.254 465.122
726 0 16.0094 8.37006 134 50.0896 797.672 466.127
727 0 16.0526 9.65575 155 49.6968 797.697 466.626
728 0 17.0133 10.2273 174 49.4828 797.23 466.42
729 0 17.0288 8.86733 151 50.9603 797.397 467.093
730 0 17.0284 5.16785 88 53.1136 797.568 466.92
731 0 18.0542 6.53588 118 51.0932 797.466 465.39
732 0 17.0061 10.1728 173 49.7283 797.035 465.48
733 0 19.1384 12.0177 230 48.1217 797.409 464.987
734 0 19.0558 7.71418 147 52.0476 796.701 467.129
735 0 18.0041 8.1648 147 51.7551 797.007 468.789
736 0 18.015 10.0472 181 50.0497 797.431 466.431
737 0 22.0402 8.84749 195 51.5282 797.303 468.405
738 0 20.029 11.7829 236 50.6102 796.886 466.589
739 0 21.0263 6.9437 146 53.1233 796.644 467.925
740 0 23.0928 10.1763 235 51.0298 796.294 469.604
741 0 21.0266 10.891 229 50.5546 795.987 467.716
742 0 19.0019 7.05191 134 55.209 796.112 470.552
743 0 22.0663 9.51677 210 52.2333 797.181 470.495
744 0 21.1231 8.14275 172 54.5465 796.262 470.163
745 0 23.1143 7.57107 175 55.4514 796.223 471.274
746 0 22.086 7.15384 158 56.3797 795.734 470.24
747 0 23.062 9.92973 229 54.0262 795.712 469.245
748 0 25.0188 10.672 267 53.6292 796.528 470.367
749 0 23.1077 8.04927 186 57.0484 795.941 469.581
750 0 23.0219 9.51268 219 56.4064 795.776 470.292
751 0 24.2005 11.0328 267 54.573 796.936 470.438
752 0 24.0385 8.77758 211 57.5782 796.403 471.436
753 0 25.0079 11.5164 288 54.7639 796.51 469.792
754 0 23.0052 7.56351 174 58.5287 796.305 471.425
755 0 26.0362 9.56361 249 55.3052 795.835 470.273
756 0 25.0379 11.2629 282 54.0603 795.649 470.55
757 0 24.0817 11.5856 279 54.5663 796.401 470.014
758 0 26.0113 12.9559 337 53.1039 796.053 470.175
759 0 25.0182 9.67296 242 56.657 795.769 471.302
760 0 27.0174 10.1416 274 56.3212 796.46 470.175
761 0 28.0105 9.99625 280 56.5964 796.821 472.014
762 0 27.0391 9.72666 263 56.6844 796.696 470.958
763 0 25.0087 7.67733 192 59.2083 796.562 472.292
764 0 28.0188 8.95826 251 56.4462 796.892 471.892
765 0 29.0108 8.06596 234 57.2863 797.338 470.209
766 0 29.1353 9.09548 265 56.8868 797.147 470.366
767 0 29.0346 10.0225 291 56.0137 796.643 470.632
768 0 27.0217 7.91955 214 57.1495 797.154 466.486
769 0 29.0731 8.18625 238 57.6555 796.496 471.063
770 0 28.04 8.38087 235 57.8553 796.179 472.328
771 0 29.0161 9.54642 277 56.7328 796.715 471.22
772 0 28.023 7.85069 220 58.2727 796.741 471.3
773 0 30.0305 8.35816 251 57.6255 796.892 469.526
774 0 30.0323 9.15681 275 56.6218 796.251 469.058
775 0 31.0309 9.34552 290 56.6379 796.245 471.079
776 0 32.111 9.87202 317 55.7382 796.394 469.464
777 0 32.1116 10.5258 338 55.7367 796.252 469.133
778 0 31.0475 10.2101 317 56.3028 795.981 468.243
779 0 32.0382 9.5511 306 56.8889 795.912 468.51
780 0 31.0405 7.69961 239 58.4351 795.937 469.732
781 0 30.0227 10.159 305 56.3049 796.603 468.033
782 0 32.0913 10.3143 331 55.6858 797.03 466.154
783 0 32.0736 10.2888 330 56.0848 796.661 466.285
784 0 31.0252 7.86458 244 59.4836 796.885 467.689
785 0 32.0425 9.14412 293 57.3618 796.881 466.051
786 0 34.0766 9.86015 336 56.3155 796.744 465.429
787 0 33.0186 7.45035 246 58.7439 796.736 466.325
788 0 35.0142 8.45371 296 57.152 796.497 466.693
789 0 33.0522 10.9524 362 55.1216 796.779 464.235
791 0 36.1011 9.5288 344 55.2965 797.134 465.174
792 0 34.0748 6.25096 213 57.4554 796.793 461.981
793 0 29.0653 5.91771 172 59.7558 797.093 466.378
794 0 34.1114 8.91198 304 56.2204 797.266 465.773
795 0 36.2396 8.8577 321 55.2991 796.508 463.981
796 0 37.1651 9.90176 368 53.8016 796.671 462.617
797 0 37.2102 8.11606 302 56.0662 796.54 462.95
798 0 38.1617 7.93989 303 56.5941 796.485 467.333
799 0 39.0398 8.81152 344 56.093 797.081 466.073
800 0 39.2559 11.9727 470 53.5872 797.611 465.815
801 0 39.0173 9.71363 379 55.62 796.987 467
802 0 39.0997 9.76989 382 54.89 797.602 466.927
803 0 37.1169 8.51365 316 56.2278 798.165 466.804
804 0 38.087 7.79794 297 56.7003 797.737 465.929
805 0 40.1166 8.32573 334 55.4252 797.434 466.521
806 0 40.0757 8.68356 348 55.1609 797.514 468.736
807 0 38.0421 7.30769 278 56.0827 797.687 468.54
808 0 42.0575 10.0814 424 53.625 797.493 470.899
809 0 41.0694 8.13258 334 55.7665 797.015 467.784
810 0 42.1907 8.95932 378 54.918 797.421 469.222
811 0 43.0836 10.9554 472 53.0085 797.989 466.337
812 0 42.0882 10.5968 446 54.083 797.98 466.15
813 0 42.0971 8.81296 371 55.8086 797.995 467.598
814 0 44.0495 9.76174 430 55.114 798.309 467.246
815 0 43.0712 9.44947 407 54.7641 797.936 464.459
816 0 43.2236 5.43684 235 58.417 797.404 463.6
817 0 45.1118 5.58613 252 57.8254 797.964 464.881
818 0 46.0352 10.6223 489 54.411 797.675 469.247
819 0 46.1543 10.6816 493 54.3489 797.74 467.925
820 0 47.2166 10.9072 515 54.2058 798.122 467.868
821 0 45.0831 8.96123 404 56.7401 797.928 466.973
822 0 47.0865 7.87912 371 58.0431 797.499 466.531
823 0 46.0857 11.6088 535 55.1533 797.71 467.692
824 0 49.2842 10.5511 520 55.6654 797.773 468.848
825 0 44.0535 8.19459 361 59.0609 797.953 466.183
826 0 48.1405 8.72446 420 57.7619 797.9 464.931
827 0 49.0617 11.1085 545 56.1743 797.404 466.851
828 0 50.1369 10.0924 506 56.3044 797.31 465.012
829 0 51.1435 10.3434 529 56.3138 797.633 462.788
830 0 52.0651 9.02716 470 57.3915 797.138 464.838
831 0 46.1258 7.30611 337 59.9555 797.273 464.131
832 0 53.1591 8.93545 475 58.1347 796.678 465.901
833 0 53.1354 9.56047 508 57.6358 796.447 464.829
834 0 54.0839 9.79958 530 57.2679 796.928 463.858
835 0 55.1463 10.2999 568 57.5 797.023 465.736
836 0 54.1857 9.61508 521 58.5067 797.714 468.096
837 0 57.1406 9.99289 571 58.4466 797.532 464.077
838 0 59.1343 11.3132 669 58.1375 797.77 464.783
839 0 60.207 10.4639 630 59.7508 797.706 464.268
840 0 59.1452 11.1252 658 59.5745 798.135 463.123
841 0 60.2383 12.0023 723 59.2047 797.82 464
842 0 61.1605 10.0065 612 61.9265 798.258 464.673
843 0 62.0984 9.40442 584 63.6216 798.033 467.568
844 0 62.3591 12.1073 755 62.1272 798.543 465.681
845 0 62.1833 12.5275 779 63.199 798.257 463.905
846 0 62.2524 10.3129 642 66.9408 798.134 466.784
847 0 60.448 10.2237 618 68.0809 797.642 466.107
848 0 62.3515 11.2748 703 66.8663 797.309 466.314
849 0 63.2927 12.6397 800 65.7312 797.83 464.116
850 0 63.3412 12.5195 793 67.0845 797.705 465.682
851 0 66.4493 11.7383 780 67.768 797.62 463.986
852 0 67.3479 10.9135 735 69.8857 797.373 462.675
853 0 68.3258 10.5963 724 70.1423 797.765 463.747
854 0 69.2872 12.0513 835 68.2419 798.377 463.897
855 0 70.433 11.6707 822 69.5462 798.105 460.219
856 0 73.3088 12.8088 939 67.8019 798.702 460.991
857 0 73.5883 12.1215 892 69.4574 798 460.62
858 0 76.2885 12.4789 952 68.8782 797.89 461.526
859 0 74.3488 10.5314 783 73.4253 798.083 457.925
860 0 76.3399 11.8942 908 71.4615 797.779 459.874
861 0 78.2558 13.7626 1077 66.5933 796.866 457.25
