time division length width area intensity CMx CMy
0 0 71.0249 12.9673 921 83.4061 47.5244 458.288
1 0 72.0879 13.3309 961 82.461 47.512 457.041
2 0 73.1126 12.3508 903 84.8117 48.1905 454.929
3 0 77.0646 13.2746 1023 82.1574 48.4731 455.585
4 0 79.0592 12.4843 987 83.4772 48.1449 454.839
5 1 41.0188 11.2875 463 83.7819 48.3175 473.032
6 0 42.0229 11.4937 483 82.853 48.3002 474.106
7 0 45.0453 11.8769 535 82.2318 47.4467 470.993
8 0 45.0513 11.7866 531 82.8964 47.6403 469.497
9 0 47.0383 12.2241 575 81.5496 47.3826 468.59
10 0 47.0632 11.6864 550 82.7236 46.5418 467.96
11 0 51.0357 13.1673 672 78.811 46.0551 467.484
12 0 52.0589 13.0429 679 79.1753 46.3711 466.591
13 0 53.0432 12.6689 672 80.4568 46.5074 466.887
14 0 55.0595 14.112 777 76.9987 46.3205 466.022
15 0 56.1114 13.3663 750 79.2293 45.8013 464.545
16 0 57.1194 12.9553 740 79.6297 45.8189 465.143
17 0 59.0837 11.9322 705 81.2752 46.0156 461.445
18 0 62.0129 12.2394 759 80.6653 45.7128 460.93
19 0 62.0493 12.2 757 81.0092 46.2589 460.143
20 0 65.0874 11.9532 778 80.7982 46.6671 459.995
21 0 67.0624 12.0634 809 80.6131 47.0742 458.295
22 0 68.1426 11.4466 780 81.9628 46.6154 456.881
23 0 72.1122 12.3973 894 79.1667 46.2886 457.734
24 0 75.1141 14.1385 1062 75.677 46.3936 454.404
25 1 40.0139 10.7463 430 79.4372 46.614 473.581
26 0 41.049 11.4497 470 78.5106 46.434 472.068
27 0 43.0115 10.8111 465 79.7505 45.7505 470.68
28 0 46.0696 11.8733 547 77.4991 45.8154 470.453
29 0 46.014 12.5397 577 77.2149 46.0849 469.466
30 0 47.1167 12.0552 568 77.4912 45.5176 470.518
31 0 47.0128 12.3583 581 77.9828 45.6248 468.549
32 0 49.0645 12.5549 616 77.4107 44.8604 467.489
33 0 50.0594 11.3465 568 79.2183 45.4454 467.257
34 0 51.0458 12.4202 634 77.7003 45.8549 466.689
35 0 54.0272 12.6603 684 76.6009 45.6594 465.07
36 0 55.0602 12.0777 665 78.2647 46.1023 465.758
37 0 58.052 13.2123 767 76.0991 46.0613 462.679
38 0 58.0375 12.7504 740 76.7392 45.8041 461.339
39 0 61.016 11.5707 706 78.4518 45.745 459.966
40 0 63.0372 12.0246 758 77.8549 45.4657 460.889
41 0 66.0618 13.336 881 74.3564 45.849 460.874
42 0 66.0505 12.2179 807 78.0248 46.1363 458.42
43 0 69.101 11.6207 803 78.0797 46.0274 458.431
44 0 70.0373 12.065 845 77.1373 45.8367 458.641
45 0 72.1796 12.3027 888 77.0968 45.6363 457.479
46 0 75.0397 12.0603 905 77.2541 45.5481 455.652
47 0 79.0917 12.8711 1018 74.556 45.3271 455.174
48 1 38.0907 11.1313 424 77.6627 45.2052 472.377
49 0 39.0794 10.9776 429 77.0093 44.8741 473.259
50 0 40.081 10.8281 434 78.5069 44.6313 471.424
51 0 43.021 12.738 548 74.3996 45.281 470.46
52 0 44.0822 11.5693 510 75.6392 44.4471 469.569
53 0 45.0285 12.2811 553 75.132 45.2007 470.204
54 0 46.0163 12.0392 554 75.4224 45.1011 470.505
55 0 48.0305 13.1375 631 73.6038 45.1125 468.813
56 0 51.016 12.5451 640 74.4484 45.3625 467.934
57 0 51.0508 13.9273 711 72.7117 45.09 466.336
58 0 53.04 12.5 663 75.2112 45.2609 466.066
59 0 55.0235 13.1035 721 73.6172 44.5964 464.123
60 0 55.0412 13.2628 730 74.2781 45.0918 465.422
61 0 55.0434 12.1904 671 76.9672 44.7556 463.991
62 0 58.0404 12.7497 740 75.0892 44.5176 463.261
63 0 58.0863 12.0855 702 76.7892 44.584 462.407
64 0 60.0711 11.9359 717 76.9902 45.0251 462.591
65 0 64.1551 12.7504 818 74.8447 44.9694 460.824
66 0 66.0763 13.2725 877 73.3877 44.9829 462.872
67 0 67.0594 13.1227 880 74.3227 44.2773 460.497
68 0 69.0769 11.9722 827 76.2164 43.8549 458.268
69 0 72.0807 13.0687 942 73.9512 44.8938 458.376
70 0 74.115 13.3171 987 74.232 44.695 454.688
71 0 77.1022 14.604 1126 71.6412 44.7309 454.483
72 0 78.0764 13.2306 1033 74.2575 44.423 455.374
73 0 79.0603 12.0035 949 76.3909 44.9631 454.138
74 0 82.1336 12.7719 1049 75.205 44.9743 452.531
75 0 84.085 12.6539 1064 76.0742 45.7697 449.387
76 1 43.0435 10.5939 456 77.75 44.7741 471.289
77 0 46.0231 11.8636 546 75.6007 44.7216 470.423
78 0 45.0744 12.1355 547 76.3675 44.543 469.623
79 0 46.051 12.269 565 76.5292 45.331 467.699
80 0 48.0562 13.3385 641 74.2871 45.3885 468.891
81 0 50.0241 12.6539 633 75.4502 45.8183 468.575
82 0 51.051 13.8685 708 73.4054 45.8884 469.414
83 0 50.0225 12.7543 638 77.5972 45.7367 466.469
84 0 53.0486 12.8938 684 76.269 45.1506 466.918
85 0 54.0465 12.9148 698 76.5 45.202 466.897
86 0 55.0564 12.024 662 78.3625 45.6828 465.778
87 0 57.0415 11.9737 683 78.2621 45.0234 466.291
88 0 60.1332 14.4014 866 73.612 44.724 464.281
89 0 61.0646 13.4612 822 75.9708 45.2032 463.15
90 0 62.0567 13.4071 832 76.0228 45.0228 461.597
91 0 63.0637 13.3516 842 76.7102 45.3183 460.887
92 0 67.2145 14.3273 963 74.3396 45.3769 459.613
93 0 70.0522 13.9753 979 74.6374 45.619 459.133
94 0 71.068 13.4097 953 76.2791 45.7188 459.164
95 0 74.1978 13.4236 996 75.5964 45.4568 459.755
96 0 76.0565 13.6215 1036 76.168 45.4932 456.603
97 0 79.0964 13.7807 1090 75.8862 45.5972 454.812
98 0 82.0909 14.4961 1190 74.3395 45.5412 456.36
99 1 39.0094 10.9717 428 79.6565 45.3154 474.953
100 0 40.0172 11.695 468 80.2479 45.6047 473.047
101 0 41.0195 11.9699 491 79.8798 45.4929 473.183
102 0 46.0747 13.1091 604 76.0248 45.1175 472.343
103 0 44.0425 11.6024 511 80.6047 45.5949 472.346
104 0 45.0563 12.0516 543 80.5617 45.5322 470.606
105 0 46.0126 13.8875 639 77.2958 45.0704 470.094
106 0 48.0463 12.4672 599 79.0334 44.5209 470.427
107 0 50.0879 13.2966 666 77.8468 44.6321 470.339
108 0 51.0336 13.0502 666 78.6156 44.6547 469.332
109 0 53.0264 13.3518 708 77.5749 45.0777 468.958
110 0 54.1221 13.5434 733 78.0423 45.3042 466.883
111 0 54.0168 13.1996 713 79.1164 45.5442 466.86
112 0 56.0668 13.6266 764 77.8927 44.7461 467.438
113 0 58.0284 13.7346 797 78.5822 44.6412 465.925
114 0 61.0192 14.3725 877 76.6169 44.439 465.949
115 0 64.0428 14.3654 920 75.5674 44.55 466.248
116 0 63.0433 14.4187 909 77.5941 44.7756 463.47
117 0 66.0601 13.2758 877 79.3626 44.943 461.846
118 0 67.0469 12.4391 834 80.9892 45.1259 463.49
119 0 71.0369 13.2889 944 79.5275 44.7066 460.887
120 0 71.0527 13.2859 944 80.7871 45.1208 460.078
121 1 36.1168 10.3553 374 83.5722 45.4118 477.634
122 0 36.1083 11.6317 420 83.4143 44.7429 476.264
123 0 39.0671 12.4657 487 81.5914 45.1396 475.312
124 0 41.0455 11.2071 460 83.5087 45.4283 476.002
125 0 41.1751 11.1232 458 85.0197 45.4192 475.172
126 0 43.0724 12.3745 533 83.3321 45.1895 473.936
127 0 45.029 13.3247 600 81.8267 44.4033 472.845
128 0 45.0197 11.1062 500 86.164 44.592 474.1
129 0 47.0386 12.9468 609 83.0837 44.289 472.611
130 0 49.0205 12.1582 596 84.5805 44.255 471.465
131 0 48.0294 12.8047 615 84.8585 44.478 471.537
132 0 50.0508 12.9269 647 84.7558 44.8655 470.144
133 0 50.0142 12.6164 631 86.149 45.0745 470.04
134 0 54.0735 13.1303 710 83.4352 44.6901 470.066
135 0 54.0138 12.2191 660 85.8833 44.9091 468.639
136 0 55.1356 12.2063 673 86.3299 44.8678 468.275
137 0 59.0191 12.6569 747 84.4592 43.9692 466.307
138 0 61.0278 13.7478 839 81.9333 44.4911 467.887
139 0 63.0462 12.2133 770 84.5519 44.1403 466.699
140 0 62.0632 12.7451 791 84.8622 43.335 465.604
141 0 66.1196 13.6419 902 82.1308 43.7738 464.073
142 0 68.0631 13.1202 893 83.0504 43.9003 462.223
143 0 70.0837 12.5136 877 84.561 43.6055 461.261
144 1 35.0456 11.4422 401 84.0299 44.1322 477.172
145 0 36.0121 10.8852 392 85.7423 45.1403 476.809
146 0 38.0215 10.0733 383 85.8851 45.8094 477.423
147 0 37.0545 11.2537 417 84.6451 45.5731 476.813
148 0 38.0263 11.6235 442 84.6154 45.129 476.419
149 0 41.029 11.6747 479 83.5678 44.8413 475.447
150 0 42.0653 12.4331 523 81.3786 44.6864 475.635
151 0 43.0893 11.9287 514 83.0798 44.8658 474.498
152 0 44.0765 12.2514 540 83.1556 45.2074 472.844
153 0 45.0257 12.1708 548 82.281 45.2737 473.58
154 0 45.077 11.2031 505 85.5564 44.8158 472.038
155 0 48.0186 12.9533 622 80.3553 44.9196 473.458
156 0 49.0326 12.4407 610 82.1918 45.3951 472.339
157 0 50.0464 11.4294 572 84.0402 45.3584 471.056
158 0 51.0323 11.5809 591 83.8731 45.4399 472.041
159 0 52.0888 11.8644 618 83.2864 45.2605 471.018
160 0 54.0904 12.3682 669 82.2631 44.296 470.474
161 0 56.0581 11.1491 625 84.472 43.968 469.13
162 0 57.0351 12.2907 701 82.8902 44.7033 466.906
163 0 60.0364 11.1266 668 83.994 44.4671 468.479
164 0 61.0954 12.1122 740 83.0905 44.4095 467.211
165 0 65.1147 12.0864 787 82.249 43.7878 466.507
166 0 65.0721 11.8177 769 83.1886 43.9454 464.241
167 0 68.2266 12.3705 844 82.1528 44.6848 465.036
168 0 71.366 13.1855 941 80.2391 44.4846 463.252
169 0 71.2132 11.0373 786 85.5267 44.799 463.181
170 0 73.1683 11.6307 851 85.302 44.9213 458.17
171 1 35.2042 9.99879 352 83.1676 44.6165 478.653
172 0 37.084 10.4358 387 81.6744 44.0724 479.044
173 0 36.049 10.9573 395 82.9392 43.7089 476.815
174 0 38.0868 11.0537 421 82.3159 44.1544 476.758
175 0 38.1221 9.12855 348 87.6063 43.9943 475.885
176 0 39.1148 10.4308 408 84.6936 44.9534 475.591
177 0 41.0735 10.4204 428 85.2991 45.1098 473.222
178 0 41.0503 9.57362 393 87.4631 44.8651 474.774
179 0 42.1236 10.849 457 84.8534 44.7987 474.875
180 0 44.0951 10.0238 442 86.5407 44.0158 472.975
181 0 44.1175 10.268 453 85.7991 44.3422 473.159
182 0 46.0911 10.5877 488 85.3115 44.5902 470.418
183 0 48.1451 10.9045 525 83.6495 44.9619 472.705
184 0 49.1219 11.2577 553 84.255 44.6655 468.734
185 0 49.0538 11.253 552 84.6703 44.3279 468.942
186 0 51.1222 10.9346 559 85.0018 44.1896 467.37
187 0 53.0964 11.9029 632 82.5886 44.3275 466.578
188 0 52.089 10.1941 531 86.8192 44.6667 465.522
189 0 56.0803 11.5549 648 82.4614 44.8117 466.185
190 0 56.0893 10.2693 576 85.2622 44.6267 466.823
191 0 60.1448 10.5579 635 83.3984 44.5433 465.86
192 1 28.0244 9.99129 280 81.8821 43.85 481.529
193 0 30.0396 9.28773 279 83.1004 43.8495 480.692
194 0 29.0106 10.1687 295 82.6983 44.2644 481.437
195 0 32.0247 9.86737 316 81.7057 44.462 479.516
196 0 32.0161 10.7758 345 80.2986 44.3594 480.052
197 0 34.0406 10.7519 366 80.0301 45.1011 477.683
198 0 36.0661 10.6471 384 79 44.7474 477.883
199 0 36.0816 9.6448 348 82.1466 44.8707 477.261
200 0 37.1132 11.1281 413 79.2446 44.3995 475.932
201 0 38.1207 13.1425 501 75.3453 43.9401 475.495
202 0 40.0711 12.4529 499 76.3908 43.8737 475.128
203 0 42.0577 10.6996 450 79.5978 44.4356 474.244
204 0 41.1014 11.1918 460 79.6826 44.6239 474.43
205 0 42.0983 11.5919 488 79.7889 44.3135 471.916
206 0 43.0549 10.9395 471 81.3291 45.0212 471.711
207 0 45.0595 11.3406 511 78.7123 45.1213 472.701
208 0 47.1484 12.3016 580 76.281 44.5431 470.924
209 0 47.1215 11.6507 549 77.7978 44.4153 470.769
210 0 47.0678 10.8779 512 79.4688 44.2305 470.082
211 0 49.0993 11.3647 558 78.2366 44.8728 469.749
212 0 49.0574 10.8444 532 79.3929 44.985 469.761
213 0 51.0656 12.67 647 75.9861 44.8609 468.233
214 0 53.0872 11.0949 589 78.8761 44.9643 468.194
215 0 55.1284 12.7158 701 76.0257 44.9501 466.713
216 0 55.0489 11.6805 643 77.9844 44.647 468.435
217 0 59.0637 11.2421 664 77.6883 43.8268 466.22
218 0 59.2042 12.4147 735 76.8503 44.1306 464.687
219 0 60.0381 12.009 721 76.9778 44.2996 463.827
220 0 60.2625 11.2342 677 78.7651 44.2024 461.629
221 0 64.0437 12.3822 793 76.0126 43.5435 461.269
222 0 65.1901 11.1827 729 77.9342 44.1372 461.885
223 0 66.1681 11.7126 775 78.2529 44.0039 458.994
224 1 36.0878 9.72627 351 78.6581 43.3191 474.567
225 0 36.0657 9.45498 341 80.1554 43.3226 475.205
226 0 40.0924 10.0518 403 78.1811 44.067 475.504
227 0 40.098 11.5966 465 75.7161 44.3441 476.062
228 0 40.1154 10.4698 420 79.1524 44.1143 476.405
229 0 41.1049 9.9988 411 79.1898 44.5669 475.557
230 0 42.1331 10.6092 447 77.4966 44.9754 475.799
231 0 43.1816 11.9032 514 77.2724 45.0019 469.387
232 0 45.094 11.3319 511 77.5812 44.6908 471.575
233 0 46.055 11.1823 515 76.8311 44.3845 473.744
234 0 47.1566 10.9635 517 78.0928 44.7892 471.59
235 0 48.0701 12.2113 587 76.2181 44.954 470.235
236 0 50.0352 11.1521 558 77.7168 44.2258 469.459
237 0 50.0541 11.0481 553 78.9204 44.0579 467.618
238 0 52.1305 10.4354 544 79.6434 43.9871 468.164
239 0 55.0774 11.7653 648 76.642 43.875 466.298
240 0 56.0983 10.8203 607 78.0692 43.9572 465.906
241 0 59.1491 12.3248 729 74.7462 44.1852 466.163
242 0 60.0601 11.8048 709 75.426 44.1326 465.313
243 0 61.0878 11.3771 695 76.1813 43.5741 464.999
244 0 63.0885 12.3319 778 74.9563 43.5964 461.478
245 0 65.141 11.0683 721 77.6117 43.2261 462.301
246 0 65.1503 10.9286 712 78.4565 43.5801 462.989
247 1 35.061 9.4407 331 79.4592 43.3867 476.039
248 0 37.1522 10.0667 374 78.4358 43.0401 474.465
249 0 38.1107 11.0468 421 77.4038 43.3278 471.931
250 0 41.1165 10.1662 418 77.7775 43.5694 473.624
251 0 42.0995 11.5203 485 74.8722 43.932 474.227
252 0 42.1407 11.5328 486 75.5165 44.1831 473.053
253 0 43.0647 11.7033 504 74.7262 44.5099 472.637
254 0 45.0625 11.1401 502 75.4044 44.012 471.729
255 0 46.1246 12.4012 572 72.3059 43.4528 471.483
256 0 46.111 11.4506 528 74.6572 43.4886 469.1
257 0 47.0839 11.1715 526 73.8156 42.8194 471.629
258 0 50.1142 11.9926 601 71.9451 43.8652 468.794
259 0 50.0755 10.9235 547 74.3839 44.075 469.625
260 0 54.0623 11.4497 619 72.8869 43.8562 468.488
261 0 52.0814 11.2132 584 74.7449 43.9897 466.512
262 0 55.06 11.206 617 73.9433 43.6921 466.54
263 0 58.0999 12.6851 737 70.9145 44.1072 464.905
264 0 58.0977 12.6511 735 70.932 42.9238 463.698
265 0 59.1392 11.5998 686 72.5802 43.2507 465.076
266 0 61.1056 11.4392 699 73.2904 43.7668 462.249
267 0 63.114 11.2178 708 72.9986 43.2585 461.799
268 0 66.1042 11.6331 769 71.2588 43.0065 460.966
269 0 66.1293 10.3887 687 73.2547 43.7263 461.792
270 0 70.1311 10.9652 769 71.9181 44.1235 459.939
271 0 72.1011 12.635 911 68.9297 44.0735 457.181
272 0 74.1361 12.558 931 69.3061 44.1235 455.581
273 0 74.1073 11.5643 857 71.0502 43.8366 453.93
274 0 79.0678 12.0276 951 69.3407 43.8381 453.778
275 1 40.1246 9.52034 382 73.4476 43.5209 472.948
276 0 42.0463 12.2008 513 69.0916 43.7251 471.809
277 0 43.0529 10.8704 468 70.9252 44.1132 471.321
278 0 44.0982 10.8394 478 72.0607 43.569 470.527
279 0 45.097 10.9098 492 71.7033 43.2988 469.159
280 0 46.0227 11.9289 549 69.6539 43.4408 470.805
281 0 46.1032 12.4286 573 70.5916 43.2513 468.709
282 0 50.0578 12.0661 604 70.303 43.1937 466.427
283 0 51.1058 11.8382 605 71.1587 42.6777 465.881
284 0 52.0463 11.0286 574 72.8171 42.2544 465.239
285 0 52.0273 11.9745 623 72.4703 41.9904 464.088
286 0 55.1105 13.8631 764 69.1047 42.5694 465.36
287 0 57.1171 13.5511 774 69.845 42.8837 464.483
288 0 57.0196 12.2589 699 72.7382 43.6109 464.167
289 0 59.1321 12.2438 724 73.5608 43.6989 461.703
290 0 60.0605 12.5374 753 73.8924 43.8367 459.526
291 0 61.1475 11.7912 721 75.473 43.749 460.074
292 0 64.0285 13.9469 893 71.4065 43.9104 458.886
293 0 66.0666 12.9566 856 72.5187 43.7815 458.829
294 0 66.0919 12.755 843 73.8909 43.7438 457.127
295 0 70.0541 12.6616 887 72.8388 44.097 457.828
296 0 71.0763 12.986 923 73.1528 43.74 453.854
297 0 70.0971 11.6695 818 76.5147 44.0208 453.009
298 0 74.0528 12.275 909 74.8086 44.3784 451.769
299 0 77.0901 12.5697 969 74.031 44.7224 452.437
300 0 79.1846 13.4748 1067 72.8454 44.0328 447.634
301 0 82.1029 12.9594 1064 73.2152 44.5799 451.023
302 0 84.114 13.2439 1114 72.965 44.1391 446.924
303 0 87.1227 13.1653 1147 72.3139 43.816 448.771
304 0 89.2113 12.6217 1126 73.5986 43.9707 445.364
305 0 92.0631 12.6978 1169 73.7365 43.5441 443.416
306 1 48.0305 10.535 506 74.6186 43.9051 469.911
307 0 48.0178 10.9334 525 75.5848 43.9124 468.076
308 0 50.0212 10.2756 514 76.4339 43.9397 468.496
309 0 52.0659 12.0424 627 74.0845 44.0159 464.967
310 0 54.0329 12.1963 659 73.648 42.9757 466.225
311 0 54.0464 11.1571 603 76.063 43.8872 466.322
312 0 56.0332 12.7781 716 73.5349 43.8031 464.057
313 0 58.0897 11.8438 688 74.7326 43.7209 463.211
314 0 60.0698 12.8184 770 71.8104 43.3117 465.464
315 0 63.1061 12.5503 792 72.3371 43.3712 463.365
316 0 65.0328 13.3317 867 71.1396 43.2191 460.381
317 0 65.0954 12.6583 824 73.3362 43.1141 456.891
318 0 67.0462 12.3199 826 74.7651 43.1949 455.556
319 0 68.0573 12.7099 865 73.9665 42.9699 455.429
320 0 72.1198 12.4376 897 74.524 43.0056 454.614
321 0 74.1155 12.575 932 75.0848 43.0569 453.555
322 0 76.1036 13.0217 991 74.443 43.7225 453.655
323 0 79.1796 12.819 1015 74.4788 42.7931 454.231
324 0 79.1904 11.8701 940 77.0702 42.6723 453.034
325 0 86.1003 14.1928 1222 72.4599 42.856 452.234
326 1 42.1473 10.7243 452 78.0929 43.0199 470.192
327 0 44.0733 10.6867 471 79.7941 43.1486 469.69
328 0 47.0676 12.2802 578 76.263 42.7734 469.507
329 0 48.076 12.2098 587 77.5468 42.6865 467.269
330 0 48.0461 11.4265 549 79.4863 42.2842 469.004
331 0 49.0352 11.2572 552 79.5272 42.8732 468.399
332 0 52.0791 11.7898 614 78.3143 43.4577 468.366
333 0 54.0149 11.6449 629 78.399 42.9141 468.304
334 0 54.0606 12.56 679 78.5552 43.0987 465.981
335 0 56.1251 12.9176 725 78.1503 43.2014 465.815
336 0 57.1407 11.7429 671 79.9762 43.8227 468.06
337 0 59.0846 11.7966 697 80.9871 44.5753 466.74
338 0 60.1046 11.9458 718 80.8064 44.0641 464.694
339 0 63.1247 13.0535 824 78.4308 43.5352 463.973
340 0 63.0782 12.0961 763 81.1442 44.1153 463.527
341 0 64.062 12.0196 770 82.026 44.487 463.773
342 0 67.0654 12.1523 815 81.4601 44.6687 462.96
343 0 68.0487 12.5351 853 80.9308 44.2778 462.562
344 0 71.026 12.4884 887 81.345 44.3089 460.082
345 0 74.0595 11.7068 867 82.8708 44.2895 459.215
346 0 75.0417 12.1799 914 82.0197 43.7407 458.919
347 0 78.0716 12.322 962 82.3514 43.3233 455.416
348 1 37.0427 10.3664 384 81.9635 43.0469 474.974
349 0 38.0097 9.33972 355 84.769 42.5775 475.096
350 0 40.0332 11.7153 469 81.7676 42.9467 472.65
351 0 41.0609 11.1785 459 83.7037 42.6754 472.059
352 0 45.0794 11.757 530 81.1396 42.6604 470.713
353 0 46.0885 12.7798 589 80.1171 42.5993 470.022
354 0 47.0441 11.4361 538 82.7937 43.2156 468.608
355 0 47.0515 12.1994 574 82.2317 43.8519 467.794
356 0 49.0494 11.8248 580 82.6172 44.2776 466.84
357 0 50.0296 11.1334 557 85.1095 43.7038 466.637
358 0 53.1074 13.2938 706 79.4603 42.6275 465.501
359 0 53.0542 12.5344 665 82.2962 43.4632 465.665
360 0 53.0717 12.681 673 82.422 43.3254 465.525
361 0 56.0376 11.7243 657 84.7382 43.9193 463.954
362 0 57.0279 11.8539 676 84.2367 43.6598 464.081
363 0 57.078 11.7033 668 85.8802 44.1826 464.277
364 0 60.0853 12.216 734 84.4523 43.9578 463.525
365 0 62.0359 11.5901 719 85.9471 43.114 463.15
366 0 62.0227 11.3184 702 87.2066 43.6311 461.071
367 0 65.0352 12.7777 831 84.2551 43.6871 458.96
368 0 67.0328 11.4123 765 86.702 43.8275 459.54
369 0 69.0676 11.467 792 87.3283 43.8384 458.476
370 0 70.0462 11.421 800 87.1625 43.4237 458.752
371 0 76.0905 13.4182 1021 82.8002 43.0725 453.929
372 0 77.1075 12.4112 957 85.7994 43.2863 451.213
373 0 79.0744 11.6599 922 87.2202 43.0293 453.05
374 0 81.0972 11.5664 938 88.3849 43.1951 449.126
375 1 44.0754 11.3442 500 85.304 43.298 470.272
376 0 46.0305 11.4707 528 87.036 43.464 465.553
377 0 46.0447 10.2509 472 89.5911 43.2076 465.79
378 0 49.1055 11.9335 586 85.8191 43.0836 464.193
379 0 51.0739 10.9058 557 87.3178 43.3627 465.09
380 0 51.0671 10.9464 559 88.2415 43.8748 463.828
381 0 53.0966 12.0723 641 85.7192 43.7847 462.61
382 0 56.0675 11.6645 654 85.5168 43.0291 462.269
383 0 58.0948 11.6361 676 84.7885 43.2411 462.818
384 0 58.0362 11.3205 657 85.898 43.4795 461.431
385 0 59.0272 10.8425 640 86.9406 43.3703 460.637
386 0 63.0495 12.1492 766 83.3342 43.7245 459.653
387 0 64.0835 11.7971 756 84.3968 43.3519 458.72
388 0 66.0519 10.9459 723 84.816 43.4177 460.952
389 0 67.0272 10.6822 716 86.0852 43.6061 457.744
390 0 70.1075 10.9831 770 85.0208 43.5805 457.135
391 0 74.0421 11.0883 821 84.447 43.8197 454.542
392 1 36.0146 9.52391 343 84.7434 43.9067 474.306
393 0 37.0078 9.56556 354 84.5847 43.7542 473.107
394 0 40.0299 10.4921 420 82.4714 43.4214 471.836
395 0 42.0272 11.1118 467 81.3319 43.8608 472.028
396 0 43.035 11.2002 482 82.2946 43.5207 470.396
397 0 43.0487 11.5915 499 81.6693 43.9158 470.715
398 0 43.0391 11.1294 479 82.5992 43.38 471.182
399 0 46.04 10.1216 466 83.985 43.4721 468.446
400 0 46.0362 10.6438 490 83.7857 43.5878 467.855
401 0 47.0366 11.9694 563 80.5364 43.7211 469.801
402 0 51.0313 11.3656 580 80.4655 43.9828 468.269
403 0 52.0117 10.5553 549 82.337 43.4973 466.636
404 0 53.018 11.7884 625 80.016 43.5616 466.912
405 0 53.0303 10.8617 576 83.0278 43.7031 466.307
406 0 56.0359 11.9923 672 80.8333 43.7217 465.519
407 0 59.0654 12.5454 741 78.2024 44.0378 465.834
408 0 60.0485 11.1577 670 81.3284 43.9746 463.954
409 0 62.1517 11.7776 732 79.6585 44.1872 464.996
410 0 64.1322 12.1936 782 79.1266 44.0652 464.522
411 0 65.0867 12.1069 788 79.5419 44.5089 463.278
412 0 67.1017 11.7583 789 80.8403 45.2624 460.852
413 0 71.0759 12.5922 895 78.086 45.0872 458.698
414 0 74.148 12.0839 896 78.9475 44.5312 457.09
415 0 76.1156 12.954 986 76.3408 44.9006 456.505
416 1 38.0107 9.52363 362 81.9006 44.8315 474.58
417 0 39.0306 10.9914 429 79.5664 45.0023 472.669
418 0 41.021 10.5556 433 80.545 44.5797 472.478
419 0 43.0371 11.9896 516 77.1143 44.0039 472.225
420 0 44.0439 11.4431 504 78.5099 43.8611 469.76
421 0 46.0236 10.9726 505 79.4139 44.2495 469.469
422 0 49.0947 12.262 602 75.8223 43.5166 467.792
423 0 51.0309 11.2873 576 77.5851 43.6128 467.92
424 0 52.0827 13.1522 685 74.2555 43.7752 466.982
425 0 53.0262 12.1072 642 76.2679 43.3801 466.618
426 0 53.061 11.9108 632 77.443 43.6297 466.54
427 0 56.0418 11.9197 668 76.6287 43.5614 465.082
428 0 58.0421 11.7156 680 77.1235 43.7471 464.365
429 0 59.1148 11.8752 702 77.3689 43.6923 461.466
430 0 60.104 11.946 718 77.1838 43.8788 462.829
431 0 63.0351 12.8817 812 75.3695 43.7057 460.908
432 0 65.0515 12.3287 802 75.4875 43.6908 462.246
433 0 67.014 12.5944 844 75.5782 43.2595 458.601
434 0 70.0955 12.3403 865 75.289 43.8081 459.624
435 0 70.0578 11.3906 798 77.7118 43.2293 458.046
436 0 74.0513 11.7081 867 76.5433 44.0404 458.787
437 0 75.062 12.1899 915 76.3705 43.7705 455.788
438 0 78.1103 12.0855 944 75.5752 43.6737 456.744
439 0 78.0675 10.6702 833 78.8487 43.6939 455.044
440 1 41.0378 11.331 465 75.6022 43.8215 473.856
441 0 41.0432 11.8412 486 75.9877 43.535 471.881
442 0 42.0256 11.2312 472 77.3475 43.7097 470.856
443 0 44.0195 10.6998 471 77.5202 43.7665 471.469
444 0 46.0233 11.7549 541 75.9094 43.3845 469.102
445 0 47.0255 11.8021 555 75.9081 43.6162 467.919
446 0 50.0373 12.2908 615 74.3577 43.6976 466.459
447 0 52.0325 11.7811 613 74.6493 44.4127 467.117
448 0 53.0292 12.5214 664 74.3901 43.9608 465.327
449 0 52.0279 12.2819 639 75.4883 44.3192 465.905
450 0 55.1552 11.4767 633 76.4629 44.1975 466.923
451 0 56.0895 11.553 648 76.5694 44.2963 465.539
452 0 58.0448 11.7668 683 76.3646 44.8287 464.442
453 0 60.0554 13.2711 797 73.0615 44.192 464.536
454 0 62.0306 12.7518 791 73.4463 44.5904 463.377
455 0 61.0856 11.4921 702 75.9872 43.5142 461.614
456 0 63.0589 11.7509 741 76.2591 43.9771 458.911
457 0 65.0249 10.5806 688 77.1701 44.266 460.603
458 0 69.0726 11.3359 783 75.3257 44.2656 457.506
459 0 71.0527 13.2578 942 71.4087 43.8248 456.683
460 0 73.0476 11.3351 828 74.6365 43.9444 456.095
461 0 77.0793 12.6363 974 72.1828 44.4517 452.796
462 0 78.0412 11.4042 890 73.6618 44.5719 452.99
463 1 41.0632 11.6406 478 72.7113 44.3619 470.952
464 0 42.0237 10.1847 428 74.6893 44.3762 470.678
465 0 43.0163 10.7866 464 73.8103 44.2306 469.834
466 0 44.0194 10.768 474 73.7785 44.2996 469.086
467 0 47.0376 12.6069 593 70.1939 43.7656 469.723
468 0 49.0759 12.0629 592 70.6554 43.9189 469.27
469 0 50.067 11.4646 574 72.1028 44.1568 467.31
470 0 51.0266 11.9742 611 71.3224 43.3388 465.502
471 0 51.0566 12.0455 615 71.561 42.9805 463.374
472 0 53.0491 10.6317 564 73.4592 42.6294 464.695
473 0 55.0495 12.0619 664 70.6355 42.8012 464.655
474 0 55.0517 11.8616 653 72.1577 43.1225 462.381
475 0 58.0732 12.5359 728 70.772 43.544 461.525
476 0 61.0175 13.8157 843 68.5528 43.2195 460.781
477 0 63.0266 12.2171 770 70.6818 43.3818 460.306
478 0 64.1008 11.7627 754 72.0531 43.8316 458.905
479 0 67.0651 12.4804 837 70.497 44.2413 460.532
480 0 67.0566 11.796 791 72.5461 44.1454 459.083
481 0 70.112 12.9792 910 70.656 44.378 455.852
482 0 75.0505 12.6581 950 70.2442 44.2011 457.341
483 1 38.0675 10.2187 389 73.5553 44.7738 473.36
484 0 41.0375 10.8925 447 73.1119 44.1902 470.264
485 0 42.0551 11.5087 484 73.188 44.1674 470.184
486 0 43.0499 11.777 507 72.9803 44.0769 469.947
487 0 46.0253 11.3633 523 72.87 44.3308 469.205
488 0 44.029 10.7656 474 74.9831 44.4789 467.57
489 0 48.0182 11.2874 542 73.4188 44.524 467.098
490 0 48.0908 11.4991 553 73.4955 44.3526 464.515
491 0 47.0235 10.3991 489 75.5072 44.2249 465.489
492 0 51.014 11.4086 582 73.6375 44.1203 463.163
493 0 53.0374 12.2555 650 72.3785 44.6769 462.685
494 0 52.0848 10.5597 550 75.8564 44.4455 463.656
495 0 55.0296 12.5932 693 72.3665 44.86 458.899
496 0 55.0523 11.371 626 74.3994 43.8339 460.542
497 0 56.0532 11.0252 618 75.0421 43.5129 458.46
498 0 57.0392 9.923 566 77.0124 43.4982 455.724
499 0 59.0459 9.70432 573 76.9389 43.4869 454.455
500 0 62.0228 11.786 731 73.4473 43.8495 453.886
501 0 64.0516 10.1168 648 75.7006 43.7932 454.943
502 0 65.032 10.1181 658 76.3237 44.4407 453.384
503 0 69.0682 10.439 721 75.4785 44.7087 451.657
504 0 72.0726 10.7947 778 75.0283 44.5887 448.796
505 0 71.0575 10.1326 720 76.5847 44.4306 449.306
506 0 76.0855 10.3042 784 76.3342 43.9617 449.241
507 0 82.2719 10.3437 851 75.1187 43.9048 452.79
508 0 87.0824 12.7006 1106 71.7586 43.4801 448.653
509 0 89.2377 11.0155 983 74.3947 44.0468 448.895
510 1 47.0585 11.3901 536 71.2836 44.041 470.254
511 0 50.0389 10.8116 541 72.4898 44.6192 469.105
512 0 51.2333 11.6721 598 71.8027 44.5819 467.502
513 0 53.0754 11.7757 625 71.5392 44.6288 467.402
514 0 56.1395 12.9677 728 69.647 44.7926 466.33
515 0 56.0746 11.877 666 73.018 44.6997 464.38
516 0 59.0675 12.1048 715 71.0336 44.8462 466.397
517 0 59.0366 12.2297 722 73.8421 43.9488 462.216
518 0 62.1611 13.4328 835 71.1006 44.109 462.683
519 0 63.0579 12.3537 779 73.6072 44.0013 460.659
520 0 66.0878 12.8314 848 72.3644 43.9139 459.433
521 0 67.0859 12.7747 857 72.6056 43.8086 460.298
522 0 69.1846 12.3727 856 73.0783 43.8283 459.528
523 0 72.0735 11.7935 850 74.3071 43.7094 457.114
524 0 74.1304 13.0311 966 71.5766 43.6366 457.453
525 0 77.0987 12.8537 991 72.113 44.1907 457.437
526 0 78.1913 12.9042 1009 72.662 43.9832 453.331
527 0 82.1514 13.3656 1098 71.2577 44.0729 455.298
528 0 83.1327 12.6184 1049 73.0839 43.8398 453.123
529 1 42.031 10.1592 427 75.1194 43.9274 471.478
530 0 44.0801 11.5245 508 73.3386 43.7992 470.862
531 0 47.115 12.5862 593 70.9747 43.4688 471.091
532 0 47.023 11.6326 547 74.1389 43.1974 468.909
533 0 50.061 12.2451 613 72.5775 43.7308 468.574
534 0 48.079 9.56759 460 78.5522 43.0348 467.939
535 0 52.0378 12.3372 642 73.5421 43.1308 467.38
536 0 55.1253 11.4104 629 74.4579 43.1431 466.742
537 0 56.0665 13.0203 730 72.8014 43.5233 465.595
538 0 56.0997 12.0856 678 75.5295 44.4867 464.745
539 0 58.101 12.2545 712 75.0801 44.6573 464.412
540 0 62.1458 13.1626 818 72.7445 44.445 464.516
541 0 62.1152 12.8632 799 74.3317 44.0901 463.7
542 0 62.0777 13.5314 840 74.3167 44.0631 461.313
543 0 65.1338 12.6816 826 74.7458 43.9056 461.192
544 0 66.0922 11.8471 783 76.1801 44.0856 462.346
545 0 69.0616 13.669 944 73.5678 44.0466 459.776
546 0 70.1327 13.1893 925 75.2238 43.3286 456.632
547 0 75.1171 15.1497 1138 71.5132 44.1054 455.86
548 0 76.1826 13.4414 1024 74.5762 44.082 455.467
549 0 79.0673 13.4822 1066 74.0084 44.1726 455.411
550 1 40.0437 9.23991 370 79.4378 44.4405 470.822
551 0 43.123 11.4788 495 75.4323 44.2727 470.366
552 0 43.1837 11.1385 481 77.3139 44.2017 468.863
553 0 45.0376 10.9908 495 76.6303 43.8949 469.176
554 0 47.0648 11.3248 533 75.7467 43.94 468.456
555 0 48.1446 11.0293 531 76.3164 43.7363 468.597
556 0 49.0362 13.0312 639 73.9233 44.1408 465.397
557 0 51.1449 12.5917 644 74.0792 44.2205 466.248
558 0 53.1015 12.0335 639 74.5915 43.6526 464.973
559 0 52.0869 11.1928 583 77.6655 43.6655 463.628
560 0 55.0687 12.6206 695 74.5381 43.905 463.227
561 0 57.0576 12.6539 722 74.2313 43.5402 463.057
562 0 58.0265 12.8045 743 73.5195 43.6851 463.384
563 0 61.0992 12.7989 782 73.2941 43.266 461.821
564 0 62.0412 11.6374 722 75.3947 42.9515 460.091
565 0 66.0921 13.3904 885 71.7514 43.1729 459.615
566 0 65.0847 11.9844 780 74.6 43.0462 459.565
567 0 68.0611 13.1499 895 72.1598 43.0436 459.694
568 0 70.0422 12.5639 880 73.4261 43.3955 459.328
569 0 73.1547 12.8085 937 72.8709 43.0843 456.64
570 1 38.0095 9.65547 367 72.5668 43.1662 476.025
571 0 38.06 8.14503 310 77.329 43.6839 473.045
572 0 41.0652 10.9825 451 72.7073 44.0177 473.674
573 0 42.0687 10.0788 424 74.9929 43.4646 470.373
574 0 42.0567 12.4831 525 71.6686 44.0762 470.28
575 0 45.1312 11.6549 526 71.9087 43.846 469.81
576 0 47.0981 12.612 594 70.2694 43.9343 468.108
577 0 47.0862 12.0205 566 71.7155 44.0283 468.613
578 0 50.055 11.4674 574 71.9512 43.7282 468.315
579 0 52.0306 11.2626 586 72.3805 44.0392 467.143
580 0 54.1026 12.5687 680 69.5456 43.9441 467.088
581 0 53.104 12.146 645 70.7876 44.0124 465.907
582 0 56.0548 12.1845 683 70.1698 43.4949 464.483
583 0 56.0924 11.1245 624 71.851 43.3606 465.641
584 0 56.1006 11.0516 620 72.4597 42.8581 463.947
585 0 60.0989 12.5127 752 69.6316 42.7646 462.051
586 0 62.0937 11.837 735 70.6626 43.1728 461.513
587 0 64.2313 10.3999 668 72.7455 43.6078 459.328
588 0 67.2546 11.0327 742 71.6321 43.5094 459.943
589 0 70.1122 12.9792 910 68.7835 43.0637 458.196
590 0 70.1215 12.4213 871 69.9541 43.6682 457.627
591 0 73.1698 12.2045 893 70.0325 43.5722 458.701
592 0 76.0803 12.2502 932 70.6974 43.7339 454.239
593 1 40.0424 10.364 415 70.9398 43.5807 473.275
594 0 40.1067 8.80152 353 73.4278 43.6827 472.399
595 0 42.1488 10.4155 439 72.0866 43.4533 471.298
596 0 43.0595 9.38236 404 73.3465 43.6757 470.599
597 0 46.0695 11.4826 529 69.7505 43.5009 470.635
598 0 47.0882 11.5103 542 70.7583 43.5959 468.03
599 0 46.1066 10.8661 501 72.7166 43.3214 467.457
600 0 48.1154 11.5971 558 71.3961 43.4839 468.918
601 0 51.0318 12.4236 634 70.1893 44.1215 467.765
602 0 51.0846 12.0976 618 70.657 43.966 465.796
603 0 54.097 12.7364 689 68.7663 43.7736 467.723
604 0 54.0438 11.2316 607 71.4695 43.7661 467.402
605 0 57.0895 12.7169 726 69.7039 43.9408 464.642
606 0 58.0458 11.7321 681 71.3789 44.0675 463.302
607 0 59.08 10.6804 631 73.0824 44.1569 461.897
608 0 63.0902 12.0621 761 69.862 44.1997 460.708
609 0 63.0845 12.2693 774 69.916 43.6964 457.045
610 0 67.0764 11.2856 757 70.8547 44.1162 460.856
611 0 68.1228 12.5215 853 69.272 43.857 457.671
612 0 70.1671 11.3871 799 70.7322 44.1364 456.817
613 0 74.0675 12.0026 889 69.3768 44.2643 456.812
614 1 39.0678 11.2881 441 66.5986 42.9751 473.925
615 0 36.0636 9.73279 351 70.0285 43.2479 473.094
616 0 38.0599 10.0631 383 69.9661 43.1984 472.856
617 0 39.0667 11.2116 438 68.089 42.8311 472.676
618 0 40.0436 10.089 404 70.4604 43.1856 468.767
619 0 42.0844 9.40966 396 71.4571 43.3232 470.591
620 0 43.0512 9.10543 392 71.3724 43.4847 467.849
621 0 46.0449 10.9241 503 68.5845 43.0676 468.567
622 0 47.0763 11.0671 521 68.2457 43.3896 469.43
623 0 47.157 9.64862 455 70.8264 43.211 467.141
624 0 49.1087 10.4462 513 69.9864 43.3801 467.571
625 0 52.0568 11.6603 607 67.8418 43.0412 465.171
626 0 53.1019 10.4328 554 69.9801 43.2708 464.258
627 0 54.1102 10.9776 594 69.3451 43.2222 462.123
628 0 56.103 10.3916 583 70.1304 43.3842 463.384
629 0 59.1087 11.8764 702 67.8761 43.6695 461.726
630 0 61.1217 11.0926 678 69.2788 43.4646 458.586
631 0 61.1165 10.8481 663 69.997 43.0211 459.27
632 0 64.1282 10.6349 682 69.7698 43.4956 457.271
633 0 67.0994 11.4308 767 68.2047 43.5072 456.752
634 0 69.1122 11.0255 762 68.6667 43.7192 455.202
635 0 72.136 10.2168 737 69.483 43.7313 456.408
636 0 75.0988 10.8657 816 68.3946 43.9522 454.082
637 0 79.1949 10.9982 871 67.969 43.7015 451.126
638 1 41.1022 9.29391 382 68.2461 44.0916 468.919
639 0 43.1204 9.83293 424 67.8255 43.5472 467.3
640 0 47.1438 10.5422 497 66.7666 44.0322 466.487
641 0 49.1475 10.499 516 66.657 43.7519 466.713
642 0 51.261 12.0755 619 65.0517 43.4847 465.073
643 0 53.2685 10.9446 583 65.9691 43.6398 464.935
644 0 53.1132 10.9013 579 66.658 43.3627 462.219
645 0 55.1141 10.2152 563 67.3055 43.8472 461.499
646 0 56.2914 11.0852 624 66.7548 43.8381 458.096
647 0 58.2183 11.0618 644 66.9876 44.0155 457.98
648 0 61.2993 9.9838 612 68.3938 44.0131 457.127
649 0 62.402 10.3202 644 68.2158 43.6118 456.266
650 0 65.3469 11.7833 770 65.5455 43.6545 455.853
651 0 65.188 9.43425 615 69.2179 43.2293 456.607
652 0 70.3426 10.4631 736 67.3166 43.4674 453.683
653 0 70.2559 10.0774 708 68.3291 43.1723 454.815
654 0 76.3886 11.5986 886 65.6242 43.5937 452.703
655 0 77.1153 12.2284 943 65.2672 44.1145 451.797
656 0 80.2494 11.377 913 66.506 43.8784 451.03
657 0 83.1831 11.8774 988 65.9524 43.6852 448.403
658 0 83.3609 10.6765 890 68.1483 43.7079 447.464
659 0 88.3438 11.3873 1006 66.9861 43.3757 445.079
660 0 90.2301 12.0248 1085 66.7309 43.3438 443.35
661 1 48.0984 9.91717 477 69.7107 43.0734 462.289
662 0 51.1517 11.417 584 66.6421 43.3236 463.135
663 0 51.2261 11.1271 570 67.3965 43.8456 463.968
664 0 53.2148 11.1811 595 68.6101 43.1563 460.455
665 0 55.4128 10.7556 596 69.6158 43.5302 459.218
666 0 58.2777 10.9476 638 68.9671 43.5831 458.524
667 0 60.3885 12.4196 750 66.7107 43.7627 458.552
668 0 62.1559 11.0689 688 68.5465 43.6294 458.676
669 0 65.1747 12.9651 845 65.8249 43.6769 457.877
670 0 66.2693 11.8003 782 67.2864 43.5153 456.762
671 0 69.3029 11.8754 823 66.8943 43.4605 455.626
672 0 70.1237 13.6616 958 64.6044 43.3914 453.557
673 1 36.1085 10.1638 367 67.2207 43.3733 469.019
674 0 36.1654 10.369 375 66.6747 43.088 470.672
675 0 34.0554 9.33773 318 70.0157 43.0786 467.921
676 0 38.2697 9.09336 348 70.408 43.6667 467.178
677 0 41.0313 10.1386 416 67.6731 43.3798 468.726
678 0 41.0324 10.9913 451 68.3326 43.3259 466.769
679 0 44.0296 11.2197 494 66.8664 43.7854 466.569
680 0 44.0868 11.5908 511 66.1057 43.8571 467.922
681 0 46.0477 11.7053 539 66.9926 43.4842 463.727
682 0 48.1677 11.5845 558 67.5824 43.2724 464.172
683 0 50.0423 12.1697 609 66.1724 42.9787 464.632
684 0 51.027 12.8951 658 65.579 42.731 463.219
685 0 53.0437 12.2917 652 66.8129 43.0644 461.485
686 0 54.0751 11.8169 639 68.0579 43.2958 460.457
687 0 54.0934 11.9423 646 68.4876 43.5743 460.618
688 0 56.0579 10.5605 592 70.1419 43.6706 460.644
689 0 59.1706 11.526 682 69.1701 43.5718 455.859
690 0 61.1756 11.704 716 68.4344 44.2165 457.225
691 0 63.0667 13.1448 829 66.3245 43.5428 456.18
692 0 65.1592 11.541 752 68.8657 43.6888 454.71
693 0 68.0758 12.6183 859 66.6938 43.39 454.655
694 0 69.0629 12.1339 838 67.3652 42.9308 454.333
695 0 69.1625 12.0441 833 68.4526 43.5954 451.579
696 0 71.188 12.0807 860 67.7698 43.3488 452.364
697 0 76.2265 13.3549 1018 65.7132 43.3232 449.794
698 0 78.2264 13.0263 1019 66.6811 43.4053 447.944
699 0 81.2078 11.9447 970 68.232 44.2753 447.774
700 0 82.1653 12.414 1020 67.8039 43.65 446.449
701 0 85.2396 12.8461 1095 66.7708 43.4968 445.641
702 0 90.282 13.2806 1199 66.5563 44.2977 444.229
703 1 47.1169 11.4609 540 67.3685 44.3463 465.85
704 0 49.1688 11.2266 552 69.7029 43.7971 462.627
705 0 49.1958 11.5864 570 68.8544 43.786 463.042
706 0 51.0364 12.0698 616 68.9351 44.3929 459.904
707 0 54.0768 11.2803 610 68.941 43.8934 461.657
708 0 56.0888 11.7492 659 67.3642 43.2564 461.308
709 0 57.0613 12.7933 730 67.4027 43.8904 456.295
710 0 57.0862 11.9293 681 69.3891 43.6079 456.062
711 0 61.0802 12.2789 750 66.1133 43.856 456.677
712 0 60.1084 11.1133 668 68.6272 43.8219 456.449
713 0 61.1314 11.1399 681 68.7915 43.8429 455.881
714 0 65.1474 13.2469 863 65.6072 44.0718 454.05
715 0 67.193 13.677 919 64.8009 44.5136 453.322
716 0 68.0757 13.4262 914 65.8031 44.5055 452.567
717 0 71.1303 13.3698 951 65.5394 44.3375 452.58
718 0 73.0793 11.8365 865 68.1769 44.7006 450.175
719 0 74.2216 12.9612 962 66.8462 44.6331 449.152
720 0 75.1532 11.3634 854 69.5187 44.7119 447.279
721 0 78.1802 12.9828 1015 66.5084 44.6197 447.984
722 0 79.1839 12.2373 969 68.5501 44.4964 445.362
723 0 81.1673 11.7535 954 69.5262 44.2379 445.995
724 1 42.1452 9.32491 393 70.5038 44.2341 465.957
725 0 45.0309 11.8141 532 67.9342 43.6222 463.19
726 0 47.0844 10.6829 503 69.8469 43.7714 462.734
727 0 47.0579 11.4965 541 69.6802 44.244 460.967
728 0 48.0571 10.6748 513 71.5185 43.577 461.363
729 0 51.0419 11.4612 585 69.8376 43.4701 461.087
730 0 52.0939 11.3641 592 70.8953 43.3666 460.164
731 0 54.0535 12.0251 650 70.0431 43.4723 458.786
732 0 57.172 12.5586 718 68.9638 43.9652 458.462
733 0 57.1329 12.1121 692 70.1315 43.3107 459.422
734 0 60.0786 10.7359 645 72.2775 42.9271 457.845
735 0 60.0829 11.1513 670 72.5866 43.3537 456.367
736 0 62.1108 11.9625 743 71.039 43.6878 455.703
737 0 64.1203 12.383 794 70.432 43.6398 455.02
738 0 66.0908 11.2572 744 71.8831 43.3038 455.585
739 0 70.0853 12.6845 889 69.1946 43.2205 453.736
740 0 72.0424 11.8819 856 70.6507 43.1343 453.521
741 0 72.0667 11.5726 834 71.4904 43.1415 453.351
742 0 76.0708 12.5147 952 69.7342 43.0326 450.879
743 0 78.0768 12.7183 993 69.1652 43.3545 451.742
744 0 79.1047 11.6934 925 71.1124 43.493 449.706
745 0 82.1298 13.016 1069 69.1188 43.5996 448.859
746 0 86.1191 12.9356 1114 69.5126 43.6544 446.594
747 1 44.0425 10.944 482 71.971 43.4813 464.793
748 0 45.0628 9.27595 418 73.8708 44.433 466.014
749 0 45.0456 10.7003 482 73.0373 43.7884 464.089
750 0 48.0817 11.7716 566 71.3216 43.7367 462.731
751 0 53.0179 11.034 585 70.8496 43.3846 463.173
752 0 52.0501 12.7954 666 69.6907 43.3844 460.413
753 0 52.0378 11.9913 624 71.7212 43.6651 459.213
754 0 54.0771 12.4267 672 70.6548 43.4003 458.112
755 0 54.0417 12.5644 679 71.2135 43.4462 456.177
756 0 56.0616 12.8787 722 70.7548 43.2424 456.231
757 0 58.0595 12.0394 699 72.0601 43.6595 455.784
758 0 62.0531 12.8438 797 69.7478 43.2622 453.307
759 0 62.0868 13.0302 809 70.0952 43.5488 453.491
760 0 63.1159 12.2315 772 71.6956 43.5855 451.347
761 0 67.1183 12.6046 846 69.9811 43.7376 453.266
762 0 68.0341 12.5084 851 70.698 43.7286 451.006
763 0 70.2278 11.7332 824 70.7087 44.0231 448.212
764 0 72.0591 11.7126 844 70.0332 43.91 449.914
765 0 75.2107 11.4744 863 70.8714 44.2711 448.771
766 0 78.1428 12.6947 992 68.5948 44.3115 449.165
767 1 41.0385 10.4049 427 71.0023 43.63 465.466
768 0 40.0897 11.6489 467 71.2612 43.743 464.7
769 0 43.1148 13.754 593 66.828 43.6358 464.948
770 0 45.0199 12.239 551 68.8802 43.1053 463.499
771 0 44.0352 12.3992 546 69.7766 43.2473 464.313
772 0 48.0236 12.6813 609 69.1264 43.7521 463.02
773 0 49.0332 12.4609 611 69.1637 43.9689 462.998
774 0 52.1378 12.5629 655 68.6595 43.8901 461.386
775 0 52.0638 11.1018 578 71.5121 43.2872 460.599
776 0 54.0572 12.9122 698 69.0616 42.6318 459.361
777 0 57.0568 13.7933 787 66.2783 42.6925 458.987
778 0 58.0336 12.6995 737 68.1845 42.6038 458.427
779 0 58.0485 13.2648 770 68.3974 42.8571 457.626
780 0 59.0416 12.3472 729 70.1605 42.8066 455.152
781 0 61.0302 12.5184 764 69.8338 43.3665 455.071
782 0 64.012 12.9038 826 69.1465 43.2639 453.217
783 0 66.0157 12.4213 820 70.6646 43.5488 451.46
784 0 70.1422 13.5011 947 68.7782 43.4868 450.727
785 0 73.0918 13.2983 972 69.2973 43.5216 449.259
786 0 74.0909 12.6736 939 70.1076 43.443 449.164
787 0 76.0828 12.6573 963 71.4226 43.3448 446.033
788 1 41.0634 11.7136 481 69.4969 43.6778 466.031
789 0 42.0811 12.1432 511 69.3659 43.047 465.939
790 0 44.1082 11.3358 500 70.974 43.478 465.076
791 0 46.0824 12.4994 576 68.75 43.1927 463.113
792 0 44.039 11.1719 492 72.7846 43.4492 462.764
793 0 46.0783 10.6341 490 74.6898 43.7143 463.231
794 0 48.061 12.3801 595 71.4218 43.8655 463.04
795 0 49.0319 11.6863 573 72.9825 43.6963 462.904
796 0 52.0432 11.6057 604 73.1589 43.8907 460.879
797 0 52.0861 12.2874 640 72.0156 43.7484 461.023
798 0 56.1046 11.7816 661 71.7216 43.0182 460.982
799 0 58.0513 12.6612 735 70.7605 43.1592 458.358
800 0 60.0818 12.0502 724 71.3094 43.5345 459.725
801 0 61.0673 12.7237 777 70.1467 43.3874 458.282
802 0 64.1101 12.2602 786 70.7366 43.8766 457.651
803 0 65.0449 11.3306 737 72.076 43.8969 458.278
804 0 68.022 12.0402 819 71.4676 44.3394 453.786
805 0 69.0366 11.675 806 72.263 43.8672 454.301
806 0 72.0659 13.0852 943 69.6903 43.596 453.975
807 0 75.0463 13.565 1018 68.8124 43.7898 451.924
808 0 79.1267 12.8275 1015 69.6414 44.1034 450.008
809 1 40.0241 10.3688 415 71.7277 43.0554 469.513
810 0 42.0188 11.4473 481 71.2682 43.842 466.603
811 0 43.0281 12.8288 552 70.6504 44.3587 464.371
812 0 44.0422 11.489 506 72.6087 44.2391 465.585
813 0 45.0523 10.6987 482 73.6826 44.417 464.846
814 0 46.0544 11.8338 545 72.6037 44.044 462.969
815 0 48.0603 11.3607 546 72.967 43.7179 461.709
816 0 49.0466 13.2323 649 70.4099 43.8475 462.055
817 0 52.0563 11.622 605 71.9868 44.5818 461.268
818 0 54.0777 12.1122 655 71.5908 44.5252 460.58
819 0 55.0729 12.8557 708 70.4463 44.2924 460.4
820 0 56.0353 13.4201 752 69.8604 44.266 458.924
821 0 59.0848 13.049 771 70.2477 44.2503 458.393
822 0 60.123 12.6241 759 71.6166 44.4625 456.345
823 0 61.0324 12.3541 754 71.5862 44.0637 456.98
824 0 64.0231 12.3862 793 70.7793 44.29 457.948
825 0 64.0806 12.4999 801 72.1773 44.0899 452.868
826 0 68.0883 11.9551 814 72.3759 44.3575 453.563
827 0 71.0993 12.5599 893 71.5845 43.972 452.393
828 0 74.1037 13.2382 981 70.6911 43.685 449.965
829 0 76.1226 12.585 958 72.523 43.8403 448.95
830 0 78.1826 12.8417 1004 72.2849 44.253 446.891
831 0 82.0891 13.8143 1134 70.9356 44.4586 444.992
832 0 84.0819 12.3094 1035 73.5874 44.4889 446.416
833 1 43.0389 12.5933 542 71.9576 44.679 465.904
834 0 44.0214 11.9714 527 73.7989 44.334 464.647
835 0 45.0689 13.668 616 71.3945 44.5292 464.644
836 0 46.0181 11.9084 548 75.3668 44.6095 462.752
837 0 48.0502 13.6732 657 72.2694 44.6545 462.546
838 0 49.0252 11.6267 570 75.9123 44.3947 463.023
839 0 49.0408 12.1735 597 76.2864 44.2077 462.188
840 0 53.0742 12.4354 660 75.2727 44.4485 461.586
841 0 55.0691 12.8384 707 74.396 44.2221 460.332
842 0 56.0392 13.5976 762 74.6273 44.626 458.875
843 0 57.0789 12.5966 719 76.1168 44.4256 459.937
844 0 59.0298 13.3492 788 75.3388 44.2728 457.835
845 0 60.0434 13.4569 808 76.1485 44.7277 456.91
846 0 65.0281 13.1328 854 74.6253 44.4543 458.307
847 0 65.0582 13.0191 847 76.2149 44.3566 454.947
848 0 66.0269 13.6308 900 75.8411 43.9878 453.209
849 0 70.1214 12.6923 890 76.4708 43.3584 453.135
850 1 37.0248 11.2357 416 77.1034 44.0625 468.642
851 0 39.0127 12.9958 507 73.075 43.9349 469.294
852 0 36.008 11.9695 431 78.6821 43.8701 467.963
853 0 40.0102 11.5471 462 75.9524 44.0022 468.825
854 0 41.0837 13.1683 541 73.4288 43.9871 468.242
855 0 42.0411 11.3698 478 77.8703 44.1172 465.747
856 0 44.0069 12.5435 552 74.4891 43.4946 466.562
857 0 47.0482 11.4563 539 75.6753 43.616 464.373
858 0 47.0204 12.2925 578 75.0882 43.59 462.197
859 0 49.1027 12.7895 628 73.4013 44.0223 463.291
860 0 52.0178 12.8418 668 73.1647 44.747 462.781
861 0 52.1316 11.5669 603 75.9221 43.728 461.302
862 0 53.088 11.4527 608 76.023 43.602 461.299
863 0 57.0377 12.2025 696 74.5517 43.342 459.037
864 0 57.0485 12.3754 706 74.5864 43.415 457.856
865 0 61.0437 12.6631 773 73.1138 43.9004 457.607
866 0 62.0318 11.6876 725 75.0731 43.6303 456.484
867 0 63.0395 11.8656 748 74.6631 43.4184 455.124
868 0 66.0881 12.5892 832 73.5156 43.3774 453.989
869 1 32.0342 9.52109 305 77.1213 44.1672 468.243
870 0 36.058 11.3428 409 73.7531 44.132 467.284
871 0 37.0333 11.7732 436 73.3234 44.0665 466.819
872 0 38.0667 12.4518 474 71.5084 44.4072 466.344
873 0 40.0852 11.1013 445 72.2472 44.5101 466.56
874 0 42.0141 11.1867 470 72.0255 44.4766 465.77
875 0 42.0689 10.8869 458 73.8035 44.0895 463.445
876 0 43.0633 10.9142 470 73.1191 44.2191 464.887
877 0 47.0735 11.4714 540 71.0537 44.5759 463.926
878 0 47.1433 10.5635 498 72.994 44.5141 463.253
879 0 49.0171 12.0366 590 69.8983 44.3949 463.042
880 0 49.0264 10.9737 538 72.7268 44.7119 459.533
881 0 52.038 11.9912 624 70.2756 44.4936 461.454
882 0 52.0584 11.3142 589 71.8302 44.4975 458.552
883 0 55.0285 12.5753 692 69.3627 44.3887 459.838
884 0 57.0575 12.2859 701 69.5934 44.2696 459.227
885 0 59.0427 11.7881 696 69.9138 44.4612 455.737
886 0 61.0842 11.8689 725 69.5117 43.869 455.41
887 0 62.0509 11.7968 732 68.9918 43.8989 457.559
888 0 62.031 10.6721 662 72.148 43.6057 452.554
889 0 66.1404 11.0976 734 70.5027 43.2411 452.692
890 0 68.154 11.386 776 70.2603 42.8389 450.486
891 0 72.1047 13.5359 976 66.9621 43.1957 450.128
892 1 36.1236 9.82738 355 71.0366 42.7437 466.268
893 0 35.0242 11.7062 410 69.939 43.2878 466.015
894 0 36.0346 9.62964 347 72.3775 43.1816 466.937
895 0 40.0208 10.4945 420 70.0167 43.4238 465.262
896 0 40.0581 11.6581 467 68.439 42.985 464.857
897 0 42.0891 10.3827 437 70.3844 43.5606 463.295
898 0 44.0899 11.0683 488 69.2049 43.3525 461.465
899 0 46.1251 11.5338 532 68.1992 43.5 462.511
900 0 45.1151 11.6147 524 68.626 43.0172 462.849
901 0 47.1705 10.7906 509 69.556 43.7898 463.259
902 0 49.1491 11.048 543 69.2726 43.5009 461.832
903 0 52.1 10.9981 573 69.1728 43.4014 460.698
904 0 52.0434 12.0284 626 68.0351 43.1869 458.444
905 0 55.2317 11.66 644 68.1568 43.6429 456.348
906 0 57.0525 11.5508 659 68.2959 43.393 457.724
907 0 56.1878 10.4649 588 70.398 43.3622 455.381
908 0 60.1994 11.4785 691 68.6136 43.4747 454.182
909 0 63.1143 11.2019 707 68.5163 43.7157 453.922
910 0 64.0895 10.9378 701 68.7518 43.3994 454.961
911 0 66.0992 12.2997 813 67.0775 43.4121 451.015
912 0 70.2283 11.8471 832 67.4387 43.7704 450.315
913 0 72.0653 11.1565 804 68.4055 44.1741 448.595
914 0 74.2083 11.9798 889 66.4623 43.3228 449.688
915 1 38.0363 10.1482 386 68.5907 43.3394 466.65
916 0 42.2241 11.2258 474 66.3882 42.9451 465.791
917 0 41.0664 10.69 439 67.7335 42.246 466.214
918 0 46.2825 10.7816 499 66.7214 42.6513 463.956
919 0 45.0325 11.0365 497 67.6358 43.173 462.871
920 0 47.0522 11.6466 548 66.2664 43.0912 463.283
921 0 47.0643 10.73 505 68.8634 43.6139 461.139
922 0 49.0238 10.0767 494 69.1579 43.5304 461.899
923 0 50.0906 11.4193 572 67.4668 43.8077 461.003
924 0 52.0859 11.9034 620 66.9097 43.8742 458.981
925 0 55.0819 11.8369 652 66.8466 43.5629 458.29
926 0 58.041 12.6979 737 64.7843 43.6011 460.282
927 0 59.0766 11.7305 693 66.8543 43.8326 455.96
928 0 59.0367 11.9248 704 67.2344 43.6605 453.061
929 0 63.0708 12.05 760 66.2658 43.3632 453.833
930 0 65.0746 13.2156 860 64.5302 43.6919 452.023
931 0 67.1387 11.9752 804 66.1493 43.1219 451.883
932 0 68.1167 12.919 880 65.5057 42.3125 448.366
933 0 68.0924 12.0425 820 67.3756 42.5744 448.018
934 0 72.078 12.9721 935 65.8513 42.6086 448.585
935 0 76.1046 10.2622 781 68.7593 42.9654 449.549
936 0 76.0694 11.3055 860 68.8895 43.1105 447.408
937 0 80.042 11.7438 940 68.0915 42.6053 446.097
938 0 83.1872 11.961 995 68.0191 42.6302 446.832
939 1 43.0162 10.1822 438 70.3151 43.2123 465.473
940 0 46.0276 11.2541 518 69.1351 43.529 463.892
941 0 47.1088 12.1633 573 68.6998 43.082 461.052
942 0 48.0229 11.7236 563 69.4494 42.9254 462.469
943 0 50.1238 11.0925 556 71.3147 43.4155 460.718
944 0 52.0803 11.8855 619 70.0727 43.3893 460.509
945 0 55.0215 11.959 658 69.7462 42.845 459.143
946 0 54.0336 11.5669 625 71.9872 42.84 457.336
947 0 58.0603 12.1426 705 70.2411 42.5277 457.583
948 0 59.0653 12.4269 734 69.4237 42.6826 459.478
949 0 62.1015 12.9143 802 68.9514 42.9701 456.964
950 0 65.0512 12.1904 793 70.3493 43.0227 455.45
951 0 67.0597 12.8095 859 69.1118 42.3609 453.792
952 0 69.1376 12.0629 834 70.4868 42.4724 453.466
953 0 70.1998 12.151 853 70.8288 42.7362 451.58
954 0 73.1648 13.1757 964 69.5913 42.7593 450.345
955 0 77.1024 12.9308 997 68.9037 42.0983 449.67
956 0 78.105 12.2399 956 70.7542 42.7071 446.735
957 1 42.0737 9.26944 390 73.1897 42.5359 465.456
