time division length width area intensity CMx CMy
0 0 46.0643 11.6793 538 65.0985 501.342 407.125
1 0 49.0672 13.2879 652 62.7408 501.485 404.413
2 0 50.2073 11.5521 580 65.4655 501.909 403.516
3 0 52.0439 12.6624 659 63.8164 502.009 405.009
4 0 51.0537 10.4792 535 67.1869 501.91 403.875
5 0 54.0585 11.2101 606 65.7805 502.109 404.467
6 0 57.0464 13.6731 780 62.3859 502.046 403.677
7 0 57.067 12.424 709 64.1199 501.014 402.444
8 0 63.0189 13.0278 821 62.0621 501.268 401.904
9 0 63.1084 13.9918 883 61.1778 501.216 401.597
10 0 64.0287 12.51 801 63.1248 500.186 399.091
11 0 67.0833 13.4609 903 61.6578 499.769 398.688
12 0 69.0625 13.9294 962 61.1944 500.052 396.629
13 0 70.1914 12.0385 845 63.1314 500.243 398.122
14 0 71.0865 12.3511 878 63.3155 499.975 396.772
15 0 75.141 12.2703 922 63.2137 499.47 394.603
16 1 39.1006 11.2786 441 62.2721 499.624 413.746
17 0 40.1378 10.2895 413 63.1404 500.051 412.726
18 0 42.0535 11.9372 502 61.0319 499.797 410.042
19 0 43.0988 10.6268 458 63.2926 500.205 408.448
20 0 44.0486 10.3749 457 63.0722 500.521 409.109
21 0 47.0306 11.4606 539 61.564 500.785 408.388
22 0 48.0444 12.9047 620 59.4177 500.395 408.419
23 0 48.0566 11.5489 555 61.9604 499.908 405.732
24 0 51.0604 14.0618 718 59.1992 500.13 406.095
25 0 53.0444 14.3653 762 59.2087 500.673 403.747
26 0 53.0722 11.3619 603 62.6567 500.362 405.63
27 0 56.0795 11.0022 617 63.3306 499.627 403.509
28 0 57.0615 11.1459 636 63.7704 499.434 399.281
29 0 58.0733 11.4166 663 63.5852 499.775 401.866
30 0 59.0743 12.8313 758 61.8945 499.24 400.718
31 0 63.1478 13.4922 852 60.6913 499.241 400.34
32 0 65.1037 13.2251 861 61.2904 498.431 398.259
33 0 66.107 13.3118 880 60.9523 498.878 398.215
34 0 67.1076 12.7109 853 61.9719 499.327 397.892
35 0 68.1087 11.6578 794 64.0113 499.078 393.65
36 0 76.1081 11.6676 888 62.8367 499.732 398.698
37 0 75.1239 11.2747 847 63.9398 499.593 394.956
38 0 79.1722 12.5675 995 62.4754 499.434 392.727
39 0 81.1035 13.193 1070 61.9579 499.474 391.935
40 0 84.0366 12.1257 1019 63.5711 499.092 390.35
41 0 85.0449 11.829 1006 64.3598 499.487 390.019
42 0 89.1373 14.6628 1307 60.9686 499.732 388.748
43 1 45.0246 11.2383 506 62.4348 499.611 409.64
44 0 46.0906 11.2387 518 62.9923 499.481 408.201
45 0 47.0616 11.4956 541 62.6211 499.272 409.36
46 0 50.072 12.9414 648 60.6574 499.278 405.443
47 0 50.0205 11.1554 558 62.8638 498.9 406.69
48 0 52.0521 10.2782 535 63.7981 498.912 406.387
49 0 52.1705 10.4273 544 64.1526 498.603 404.382
50 0 54.0646 11.8007 638 62.6254 498.437 404.818
51 0 56.0794 11.0023 617 63.3938 498.916 404.066
52 0 58.0674 13.8632 805 59.8857 498.304 403.647
53 0 57.0825 12.298 702 63.0912 498.915 400.923
54 0 62.0702 13.2431 822 61.1338 498.83 401.81
55 0 61.1148 12.3211 753 63.3838 498.721 399.835
56 0 63.0477 12.0702 761 63.5322 498.908 400.899
57 0 66.0426 13.5519 895 62.1128 498.685 399.657
58 0 68.0514 13.5633 923 62.3954 498.724 396.824
59 0 69.0811 12.6084 871 63.9713 498.15 398.041
60 0 73.03 12.7071 928 64.1099 498.639 395.804
61 0 75.0825 13.1855 990 63.6212 498.284 395.779
62 0 76.1416 13.2516 1009 64.1427 498.12 393.364
63 0 78.1222 12.3268 963 65.7196 498.009 392.421
64 1 38.0606 9.09077 346 69.9855 498.584 410.049
65 0 45.0316 11.2144 505 66.6416 498.545 409.463
66 0 45.071 10.0508 453 68.4989 498.49 410.351
67 0 47.0595 11.5173 542 66.7048 497.83 409.723
68 0 50.0234 13.1339 657 64.6865 497.42 409.041
69 0 50.0314 11.7126 586 67.1672 498.584 408.363
70 0 50.0882 11.9988 601 67.4609 498.361 407.99
71 0 53.0556 12.8167 680 66.1853 498.319 405.888
72 0 55.0168 12.3235 678 66.0295 498.164 408.139
73 0 56.0341 11.7964 661 68.062 498.567 405.74
74 0 58.0757 13.1208 762 66.0157 498.516 404.755
75 0 59.0543 13.2759 784 66.4579 499.39 403.055
76 0 60.1426 12.1711 732 68.2063 498.093 401.796
77 0 60.0672 12.536 753 68.0239 497.83 399.911
78 0 65.0908 12.3366 803 67.1345 497.866 401.979
79 0 65.0951 11.5831 754 69.443 498.634 400.162
80 0 68.0538 11.6672 794 69.4685 498.618 398.898
81 0 69.1291 13.1059 906 68.0949 499.126 396.967
82 0 73.1205 12.8145 937 68.3479 499.206 396.46
83 0 75.0997 13.7417 1032 67.2393 498.951 395.213
84 0 77.0732 11.5864 893 70.3527 498.531 394.362
85 1 39.0157 10.5855 413 69.2082 498.719 412.799
86 0 43.1178 11.8976 513 66.9298 499.097 413.279
87 0 43.0959 10.9987 474 68.8502 498.614 411.382
88 0 44.0234 11.2895 497 68.668 498.35 412.189
89 0 45.0197 11.4839 517 68.8569 498.588 410.493
90 0 48.0342 11.8457 569 67.4341 498.561 409.239
91 0 45.0311 10.7481 484 70.6901 498.682 407.748
92 0 48.0242 11.4526 550 69.3636 498.898 408.462
93 0 49.0942 10.8159 531 70.3559 499.021 405.934
94 0 52.0736 11.4069 594 69.3316 499.259 406.559
95 0 54.0383 11.1958 605 69.2744 498.873 405.671
96 0 56.0683 10.8974 611 69.9705 499.036 405.029
97 0 58.0831 11.8279 687 68.2868 498.898 403.29
98 0 60.0823 11.5009 691 68.4645 499.029 402.433
99 0 61.0371 12.3531 754 67.4562 498.68 403.123
100 0 64.0309 13.2905 851 66.0165 499.022 401.033
101 0 66.1209 13.2938 879 65.9238 498.853 400.276
102 0 65.065 10.9583 713 69.7265 498.619 400.331
103 0 70.0643 12.2031 855 67.7977 498.832 398.526
104 0 69.0569 11.6426 804 69.352 499.05 397.571
105 0 71.0616 11.7926 838 69.5346 498.462 395.662
106 1 38.0304 10.1235 385 67.1221 498.421 413.569
107 0 36.046 8.26721 298 71.3389 498.534 413.215
108 0 41.047 12.3517 507 64.9034 498.535 412.341
109 0 42.1174 11.4679 483 66.4265 498.907 411.582
110 0 43.0749 10.9577 472 66.7627 499.059 411.735
111 0 44.0872 11.7494 518 65.3243 498.815 410.737
112 0 44.1215 8.83923 390 68.7872 498.223 411.887
113 0 46.1674 11.5666 534 66.2341 498.045 408.893
114 0 47.1277 10.6519 502 67.5916 497.757 408.645
115 0 48.1566 11.1304 536 66.8675 497.789 408.203
116 0 50.0881 11.0006 551 67.2559 498.181 406.39
117 0 50.0378 11.871 594 66.4108 498.19 405.577
118 0 53.0813 13.2815 705 63.7078 498.559 406.506
119 0 53.1721 10.1557 540 68.1574 497.95 402.835
120 0 58.0329 11.9415 693 64.342 498.567 405.903
121 0 57.169 11.7546 672 65.1696 498.594 404.707
122 0 59.0649 10.6832 631 66.2916 498.054 403.315
123 0 61.0658 11.5122 703 65.1038 498.489 401.885
124 0 62.0698 12.3571 767 64.382 498.73 400.559
125 0 63.1146 9.63328 608 67.6809 498.814 401.095
126 0 67.0361 13.0825 877 62.3843 498.503 399.195
127 0 67.0654 11.1235 746 65.1314 497.776 399.131
128 0 70.0734 10.118 709 66.4528 497.929 396.609
129 0 72.0786 10.5995 764 65.8482 497.644 395.559
130 1 38.1812 8.82634 337 65.6588 497.858 412.795
131 0 37.0298 9.37082 347 66.5014 497.841 411.36
132 0 39.128 10.0184 392 65.6633 498.39 411.485
133 0 42.052 10.1541 427 65.6721 498.836 412.201
134 0 41.1925 9.92898 409 66.9609 498.017 410.191
135 0 45.1164 10.7278 484 65.2645 498.322 409.558
136 0 46.1204 11.7302 541 63.8281 498.196 408.752
137 0 47.0613 12.0906 569 63.246 497.32 408.506
138 0 49.0776 10.7992 530 64.9 498.034 408.66
139 0 49.0953 10.3065 506 65.6087 497.808 408.794
140 0 52.1979 11.2073 585 64.4701 496.844 405.525
141 0 55.0688 13.2562 730 61.3548 497.156 404.137
142 0 56.0926 11.1601 626 63.7923 497.427 404.275
143 0 59.0654 11.2079 662 63.5106 497.068 401.699
144 0 59.1763 11.998 710 62.6268 497.644 402.165
145 0 61.1622 9.94077 608 65.0181 498.791 399.488
146 0 61.1823 9.05491 554 65.9116 499.394 398.46
147 0 65.2078 13.0353 850 60.6859 499.172 398.112
148 0 67.1532 9.88784 664 63.9157 498.926 400.197
149 0 70.1206 10.1111 709 63.2609 498.55 399.169
150 1 36.0265 10.0759 363 62.0275 498.843 414.711
151 0 37.0242 11.3169 419 60.179 499.06 415.325
152 0 41.0622 9.59519 394 61.2487 499.315 414.426
153 0 42.0352 10.063 423 61.6312 498.669 412.827
154 0 43.1509 11.6568 503 59.2664 498.473 414.6
155 0 44.115 12.8301 566 58.2138 498.41 412.42
156 0 46.0992 11.9308 550 59.0491 498.84 410.462
157 0 44.0845 10.3891 458 61.7402 498.797 409.843
158 0 48.139 10.5735 509 61.3183 498.972 409.438
159 0 50.0513 9.78995 490 61.4714 498.802 409.945
160 0 50.169 10.5842 531 61.0339 497.847 408.328
161 0 52.0524 10.9697 571 60.4641 497.552 407.532
162 0 53.1318 11.8008 627 59.2775 498.187 406.911
163 0 55.0461 10.4458 575 60.7165 497.922 404.746
164 0 56.0528 10.6685 598 60.6589 497.756 404.457
165 0 59.1609 11.3589 672 59.314 497.174 403.562
166 0 60.0676 11.9698 719 58.2851 497.236 402.346
167 0 61.0416 11.2382 686 59.2988 498.076 403.926
168 0 65.0892 11.8146 769 58.3537 497.836 400.494
169 0 65.1945 13.2527 864 57.6169 498.331 400.977
170 0 68.1141 12.0093 818 58.6284 498.101 398.159
171 0 68.1167 12.2584 835 58.9509 498.115 396.478
172 0 69.1589 12.2616 848 58.3573 497.618 397.902
173 0 74.1541 12.7168 943 57.5536 497.179 396.383
174 1 39.0793 8.64908 338 59.7485 497.873 413.453
175 0 39.1649 9.70256 380 59.1658 497.774 411.547
176 0 38.0447 9.09457 346 60.9422 498.757 411.879
177 0 40.1047 10.1235 406 59.3892 498.468 411.539
178 0 44.1031 10.226 451 58.878 498.191 410.069
179 0 43.0491 10.1047 435 59.154 497.989 407.966
180 0 44.1049 10.9512 483 58.2919 497.273 409.516
181 0 48.2328 9.93101 479 58.5115 497.8 408.605
182 0 50.0647 10.5464 528 57.911 497.975 409.055
183 0 49.1496 10.112 497 58.3421 498.457 408.258
184 0 50.089 11.1801 560 57.9089 497.959 404.354
185 0 52.0584 10.2385 533 59.0094 497.679 403.495
186 0 55.0925 11.1449 614 57.6889 497.564 402.422
187 0 54.0445 11.1205 601 58.2679 497.804 402.068
188 0 58.1193 10.5817 615 58.361 498.034 400.161
189 0 59.197 11.3688 673 57.841 498.324 400.541
190 0 59.0814 12.762 754 57.0477 498.208 398.18
191 0 63.0394 11.5007 725 58.1255 498.143 398.527
192 0 65.1078 11.6883 761 57.6334 498.12 397.325
193 0 68.0956 9.78037 666 59.4685 498.456 394.67
194 1 35.0372 11.2167 393 56.7328 499.321 414.191
195 0 37.0378 11.1238 412 56.9175 499.01 413.748
196 0 36.0144 8.96864 323 60.5356 499.204 413.003
197 0 37.0506 12.3615 458 56.7314 499.299 413.323
198 0 38.0409 11.0933 422 57.8436 498.571 412.618
199 0 40.1145 9.94652 399 59.3208 498.361 410.145
200 0 43.0431 11.1051 478 57.5084 497.877 408.734
201 0 45.0612 12.2056 550 56.2418 497.765 406.925
202 0 45.0618 11.0293 497 58.4588 497.588 408.427
203 0 45.0615 10.8518 489 58.7955 497.908 408.323
204 0 47.065 10.5599 497 58.8491 498.139 406.751
205 0 48.0984 10.9359 526 58.7966 497.747 406.914
206 0 48.0474 9.63632 463 60.7365 498.467 404.017
207 0 49.0381 12.8268 629 56.5564 498.63 404.847
208 0 51.0429 12.0683 616 56.7289 498.36 402.804
209 0 53.0332 10.6726 566 58.0866 497.839 400.572
210 0 53.0556 9.25445 491 59.723 498.031 400.878
211 0 58.0977 13.9765 812 54.3079 498.376 401.389
212 0 60.0876 11.0838 666 57.4429 498.611 398.428
213 0 60.0445 10.5755 635 58.6976 498.526 395.899
214 0 66.118 13.8238 914 53.5558 498.43 401.233
215 0 66.1439 12.1402 803 56.7746 498.387 396.999
216 0 68.1093 13.2875 905 55.5193 498.23 393.828
217 0 70.0938 11.8413 830 57.2843 497.518 395.514
218 0 72.2068 13.1982 953 55.7209 497.643 394.682
219 0 75.1258 13.1513 988 55.4575 497.7 395.866
220 0 78.1365 12.7597 997 56.7924 497.765 391.617
221 1 43.048 12.3583 532 57 497.139 408.558
222 0 44.1174 10.9934 485 59.3608 497.6 406.078
223 0 44.1734 11.0021 486 60.4403 497.183 405.813
224 0 48.1191 12.4898 601 58.0915 496.902 403.527
225 0 49.0516 12.2524 601 57.5358 497.366 406.875
226 0 54.0582 12.1906 659 57.8058 498.127 405.49
227 0 53.0953 12.5247 665 58.4692 498.332 404.424
228 0 53.1221 11.6901 621 59.5475 498.092 403.944
229 0 55.035 11.738 646 59.7879 498.602 404.085
230 0 58.0559 12.798 743 58.6258 498.896 401.977
231 0 59.0524 12.5651 742 59.0296 498.741 399.229
232 0 61.0393 12.9589 791 58.6751 498.386 400.128
233 0 61.0568 11.6121 709 60.4753 498.41 401.454
234 0 61.0361 11.3539 693 61.3564 498.727 398.16
235 0 65.1029 13.2559 863 58.4102 498.788 397.528
236 0 68.0274 12.8772 876 58.4795 498.234 398.874
237 0 69.0471 11.7456 811 60.0506 497.859 396.127
238 0 71.0979 12.5742 894 58.8166 497.828 393.206
239 0 71.0801 11.4237 812 60.5246 497.648 394.457
240 0 73.1448 10.9646 802 60.7232 497.693 394.825
241 0 77.082 13.6089 1049 57.7903 497.99 390.546
242 0 78.1079 13.0717 1021 58.3781 497.856 388.864
243 0 82.1605 12.9624 1065 58.2948 497.367 389.311
244 0 83.1272 12.3786 1029 59.171 497.225 390.768
245 0 86.0308 12.0422 1036 59.7249 496.98 388.51
246 1 40.0677 11.3807 456 59.1513 496.923 410.943
247 0 43.0231 10.8779 468 59.8376 497.034 407.803
248 0 44.0408 11.1942 493 59.856 496.854 407.763
249 0 45.0226 12.7491 574 59.0453 497.021 404.078
250 0 45.0559 10.7866 486 62.4671 497.451 406.13
251 0 49.0292 11.6665 572 60.8531 497.558 405.124
252 0 48.0313 11.0553 531 62.6798 497.968 404.465
253 0 50.0652 12.5436 628 60.5446 498.159 405.258
254 0 52.0947 13.4179 699 59.1416 497.601 403.931
255 0 53.1146 12.7272 676 59.4586 497.262 405.095
256 0 54.0173 11.6259 628 61.4761 496.981 404.535
257 0 57.0548 11.9885 684 60.7822 496.62 403.541
258 0 54.0327 10.7157 579 63.7012 497.389 402.207
259 0 59.0541 11.2609 665 62.0632 497.728 402.032
260 0 62.1812 13.9592 868 58.9147 497.574 399.297
261 0 62.0486 11.4265 709 62.409 497.669 399.267
262 0 65.0974 11.1372 725 61.8014 497.305 400.021
263 0 67.1456 12.108 813 61.369 497.48 396.164
264 0 71.2069 13.2571 944 59.0763 496.242 397.944
265 0 71.1712 12.4629 887 60.2345 496.626 398.065
266 0 77.1843 12.9301 998 59.476 497.102 394.759
267 0 78.1835 13.1741 1030 59.4223 496.498 392.184
268 0 81.1834 14.4488 1173 57.6138 496.32 392.955
269 1 43.04 11.803 508 60.1516 497.138 412.073
270 0 44.0868 11.8176 521 61.6372 497.42 407.411
271 0 46.1488 13.3264 615 59.3301 497.546 407.26
272 0 47.1211 12.0753 569 59.8735 497.575 410.12
273 0 51.0696 13.5893 694 58.1282 497.439 406.722
274 0 49.0169 11.2818 553 62.4014 497.533 406.752
275 0 50.078 12.6802 635 60.4898 497.545 406.11
276 0 51.0354 9.48362 484 64.8926 497.442 406.51
277 0 56.0565 11.6133 651 61.7174 497.84 405.722
278 0 58.0568 12.7289 739 60.3924 497.231 404.464
279 0 55.0634 11.4413 630 62.7937 496.768 403.362
280 0 59.0328 13.3485 788 59.5723 497.138 404.216
281 0 61.0954 13.5526 828 59.3285 496.896 403.268
282 0 64.1128 11.4954 737 61.5712 496.643 401.738
283 0 64.0529 11.8652 760 61.2158 496 400.074
284 0 64.1425 10.7729 691 63.2287 495.585 399.127
285 0 69.1019 12.5177 865 60.2555 495.4 400.057
286 0 70.1419 10.4075 730 62.3973 495.79 400.697
287 0 73.0833 12.6021 921 59.8447 496.469 395.155
288 0 74.0935 10.9051 808 62.1646 497.08 395.27
289 0 78.0923 12.8822 1006 59.3549 497.166 394.497
290 0 79.0922 12.732 1007 59.6792 497.354 391.738
291 1 41.0874 10.7089 440 61.3591 497.111 410.782
292 0 44.047 10.7158 472 60.5826 497.364 411.773
293 0 44.0736 9.30262 410 63.2756 496.939 410.317
294 0 47.0107 14.5073 682 56.4677 497.145 409.707
295 0 47.1183 10.9299 515 59.8485 497.528 410.563
296 0 51.0278 11.8171 603 58.2189 497.051 409.337
297 0 51.172 11.7056 599 59.212 497.391 406.012
298 0 51.089 11.0591 565 60.1593 497.639 404.158
299 0 54.0368 11.2886 610 59.3754 497.995 404.002
300 0 55.0567 11.915 656 58.5549 497.38 400.93
301 0 58.1109 12.4589 724 57.9807 497.902 402.772
302 0 60.0987 11.348 682 58.5806 497.556 403.367
303 0 62.0316 12.8322 796 57.2312 497.166 400.77
304 0 62.033 12.848 797 57.5056 497.423 399.679
305 0 64.09 12.3108 789 57.8226 496.975 398.991
306 0 68.0334 11.3768 774 58.761 497.293 395.532
307 0 70.0841 13.9119 975 55.5456 497.542 397.562
308 0 71.1016 12.0954 860 57.7302 497.429 395.591
309 0 74.1658 11.7709 873 58.0515 497.4 393.266
310 0 78.0398 12.4296 970 56.5 496.405 396.077
311 0 77.0622 9.62859 742 60.5889 497.147 395.423
312 0 83.1017 12.0936 1005 57.0577 497.334 391.509
313 1 41.0231 10.1894 418 58.3971 497.287 412.598
314 0 43.0304 11.1549 480 57.4583 497.167 411.848
315 0 46.0615 11.8103 544 55.9798 497.312 412.722
316 0 44.053 12.4169 547 57.2212 497.029 408.252
317 0 44.0885 12.4749 550 57.4527 496.8 405.369
318 0 47.0758 12.6392 595 56.6655 496.768 404.85
319 0 50.1213 14.2255 713 54.4853 496.597 405.362
320 0 50.1167 12.3512 619 57.0808 496.562 405.326
321 0 53.036 12.6141 669 56.9133 496.665 405.166
322 0 52.1344 11.2018 584 58.8904 497.171 406.296
323 0 52.2344 10.4337 545 60.556 496.172 403.36
324 0 55.074 13.4546 741 56.7503 496.22 402.493
325 0 57.0251 13.0995 747 57.6747 496.455 399.546
326 0 55.2233 12.0058 663 59.19 496.532 401.311
327 0 59.1214 11.4679 678 59.1962 496.516 401.013
328 0 62.0399 12.8304 796 57.5402 496.177 400.028
329 0 62.0641 12.616 783 57.9323 496.042 397.19
330 0 63.076 11.9855 756 59.0595 495.667 398.751
331 0 66.0788 13.4839 891 57.1021 496.2 396.997
332 0 69.1886 12.2853 850 57.9306 496.816 397.475
333 0 69.1505 12.8271 887 58.0383 496.281 395.621
334 0 71.1444 12.9455 921 57.7839 496.44 393.73
335 0 74.1191 12.9926 963 57.6906 496.671 391.954
336 0 77.1013 13.4239 1035 57.1005 497.27 391.62
337 0 79.1382 12.8257 1015 57.8256 497.875 390.975
338 0 83.1963 12.2962 1023 58.1544 497.582 388.8
339 1 42.0289 10.8497 456 59.3443 497.07 408.149
340 0 44.0911 11.6577 514 58.535 497.807 407.893
341 0 47.0963 10.6802 503 58.5268 498.336 407.362
342 0 48.1224 12.9462 623 57.2022 498.599 404.549
343 0 49.0646 9.72187 477 60.8176 498.132 403.377
344 0 50.0267 10.0546 503 60.6441 498.231 402.897
345 0 53.1032 11.826 628 58.6242 498.189 402.634
346 0 53.0468 11.7255 622 59.6752 497.658 399.963
347 0 55.0283 12.7571 702 58.4829 497.403 400.229
348 0 57.1581 12.4742 713 58.9972 497.187 399.02
349 0 61.0675 14.574 890 56.3562 496.846 399.431
350 0 61.042 13.0402 796 58.6495 496.995 399.712
351 0 63.1286 12.7201 803 58.5766 496.732 400.653
352 0 65.0939 13.2117 860 58.0907 496.605 397.457
353 0 65.098 12.4581 811 59.4587 496.478 397.952
354 0 70.0946 13.8384 970 57.3753 497.115 393.708
355 0 70.0774 13.1141 919 58.5071 497.662 394.024
356 0 73.2729 13.2655 972 58.0669 497.955 395.342
357 0 75.0833 13.1454 987 58.6434 497.294 391.818
358 0 76.192 12.8491 979 58.5914 496.298 391.235
359 0 78.1784 12.3308 964 59.7334 497.205 388.344
360 0 82.1156 12.4824 1025 58.8137 497.111 390.039
361 0 85.113 11.7256 998 59.8487 497.587 388.758
362 0 88.0673 11.4912 1012 59.501 497.289 389.383
363 1 45.0215 11.2169 505 58.5802 498.147 408.119
364 0 45.0215 11.2391 506 144.289 499.142 407.968
365 0 49.0273 11.9933 588 57.5102 496.991 407.461
366 0 50.0333 12.8914 645 56.9178 497.729 405.457
367 0 51.0284 12.738 650 57.7692 497.409 403.714
368 0 54.0783 11.095 600 60.2133 497.163 403.447
369 0 56.1222 12.4371 698 58.712 497.48 403.554
370 0 55.1247 11.6463 642 60.3053 496.922 403.47
371 0 57.0907 11.0176 629 60.3355 496.606 400.552
372 0 57.2182 11.4824 657 60.4825 496.77 398.632
373 0 59.054 11.3455 670 60.2716 496.527 398.834
374 0 61.0995 12.4224 759 58.9921 496.598 397.502
375 0 63.1434 12.6062 796 58.549 496.982 397.261
376 0 67.1959 12.9323 869 57.7215 497.045 394.597
377 0 69.1383 13.1042 906 57.2517 496.853 395.073
378 0 69.0517 10.9049 753 60.34 496.449 392.972
379 0 71.0956 11.9698 851 59.3655 496.858 393.231
380 0 73.2264 11.2528 824 59.8617 497.137 391.43
381 0 77.0847 13.6992 1056 57.1534 497.303 389.692
382 0 81.1502 12.5077 1015 58.3606 496.485 388.972
383 0 82.1354 12.3942 1018 58.8242 496.693 386.337
384 0 84.1177 13.0531 1098 58.0091 496.988 386.303
385 0 85.1475 11.6739 994 60.0976 496.824 383.308
386 0 91.0783 12.8681 1172 58.1783 497.035 382.694
387 0 91.1324 11.3242 1032 60.7413 496.914 383.363
388 1 45.0378 10.4579 471 60.4161 497.399 404.242
389 0 46.0256 12.1889 561 58.934 497.339 403.758
390 0 49.118 12.9891 638 57.826 497.094 403.345
391 0 49.0315 11.564 567 60.1058 497.504 402.113
392 0 52.0693 12.1377 632 59.1946 497.543 401.657
393 0 53.0394 13.1789 699 58.3505 497.456 403.552
394 0 55.1444 11.6422 642 59.7103 497.026 401.824
395 0 56.0996 12.5135 702 59.6581 497.426 399.499
396 0 60.0492 12.3232 740 58.8541 497.064 402.134
397 0 62.1561 11.5194 716 59.8352 497.527 401.684
398 0 63.1302 12.102 764 60.0052 497.168 399.537
399 0 65.0795 13.0763 851 58.9283 497.055 396.87
400 0 66.1773 11.6656 772 60.4495 497.276 397.937
401 0 67.1794 12.1764 818 60.5929 497.186 395.384
402 0 72.1108 13.5763 979 58.3555 497.506 394.444
403 0 74.1281 12.2086 905 59.7591 496.914 393.685
404 1 37.0302 10.1269 375 60.632 497.552 410.829
405 0 38.0649 11.349 432 58.963 497.648 411.586
406 0 41.0324 12.4292 510 57.8784 497.676 411.527
407 0 40.0281 10.7674 431 61.2645 497.94 409.749
408 0 44.1202 11.786 520 59.2058 497.881 409.865
409 0 43.0953 11.695 504 62.0635 497.69 406.762
410 0 44.033 12.2181 538 61.5558 497.651 407.734
411 0 46.1118 12.7083 586 60.8311 497.886 406.655
412 0 47.062 11.6442 548 62.1405 498.675 407.703
413 0 47.1265 11.9254 562 63.3043 498.482 406.105
414 0 49.0691 12.7371 625 61.9376 497.906 404.965
415 0 49.0881 11.0617 543 64.9466 498.319 405.309
416 0 52.1303 12.7565 665 62.2812 498.358 402.626
417 0 52.0948 12.7076 662 62.6118 498.421 403.633
418 0 54.1474 12.2444 663 63.2443 498.241 402.017
419 0 57.0785 12.3514 705 62.9915 497.626 400.132
420 0 58.0297 12.373 718 62.8928 497.403 399.429
421 0 58.1919 14.3319 834 60.4173 497.894 401.345
422 0 63.0727 12.8265 809 61.2892 497.241 401.576
423 0 63.1187 12.7379 804 62.2736 497.177 399.812
424 0 67.1986 13.5122 908 60.3469 497.731 398.753
425 0 65.0636 13.725 893 60.804 497.148 398.479
426 0 70.3213 12.4287 874 62.0892 497.34 395.42
427 0 71.1025 13.2907 945 61.0127 497.34 394.456
428 1 39.1584 10.981 430 63.7628 497.772 409.47
429 0 39.1163 10.3026 403 65.5533 497.499 408.73
430 0 40.0214 11.8187 473 63.7167 497.626 407.22
431 0 42.044 13.0577 549 61.4026 497.348 407.984
432 0 44.0212 11.8352 521 62.8349 497.226 406.38
433 0 48.025 12.7642 613 60.1223 496.853 406.047
434 0 46.0329 12.3173 567 62.388 497.406 405.016
435 0 46.0412 11.2942 520 63.9423 496.927 404.76
436 0 50.0905 11.5391 578 62.9585 497.578 405.971
437 0 52.0639 11.2746 587 63.2402 497.129 402.911
438 0 53.0955 12.1668 646 62.322 497.009 400.766
439 0 52.0619 10.7372 559 64.4848 497.077 402.084
440 0 57.0773 13.1926 753 60.9363 497.279 398.097
441 0 58.1666 12.8768 749 61.1415 496.996 397.718
442 0 61.0927 13.6841 836 59.3278 497.102 399.494
443 0 62.074 11.4058 708 62.476 497.188 399.295
444 0 65.1259 12.7753 832 60.3401 496.812 398.062
445 0 64.0769 11.8451 759 62.6838 497 394.007
446 1 35.0784 11.9161 418 61.9306 497.562 409.565
447 0 33.0601 10.8288 358 64.1788 498.251 409.698
448 0 40.0415 11.2883 452 61.2323 497.677 410.496
449 0 39.0198 11.02 430 62.6023 497.965 410.316
450 0 41.0177 13.0432 535 60.3458 497.832 410.043
451 0 43.0735 10.633 458 62.3908 497.797 409.703
452 0 45.0385 14.1879 639 57.6369 498.667 409.504
453 0 45.0476 13.6078 613 59.0701 497.759 407.767
454 0 52.0783 11.3867 593 59.3272 498.312 408.976
455 0 49.0369 14.3565 704 57.0341 497.365 406.645
456 0 50.0132 11.417 571 60.7951 497.576 407.562
457 0 53.0898 12.3376 655 60.2565 497.844 404.069
458 0 53.121 11.9162 633 61.0442 497.817 402.523
459 0 53.0902 13.2416 703 58.9317 497.492 405.828
460 0 54.0299 12.271 663 60.6033 497.469 403.563
461 0 57.0748 12.5975 719 59.8526 497.981 402.448
462 0 59.1315 12.1086 716 60.8254 498.142 398.749
463 0 60.0373 11.8759 713 61.5596 497.792 398.32
464 0 64.1534 12.7195 816 59.9841 497.804 396.217
465 0 66.1523 12.7282 842 59.4632 497.558 398.73
466 0 67.0952 13.9652 937 58.8762 497.655 393.381
467 0 70.049 12.9766 909 59.3982 497.128 394.193
468 0 73.0515 14.7841 1080 57.1407 497.357 392.019
469 0 74.139 12.6789 940 60.1862 497.524 389.893
470 0 78.1177 14.4397 1128 56.633 496.871 394.556
471 0 79.2088 12.5996 998 60.1653 496.361 388.611
472 0 82.0876 12.6816 1041 59.8866 496.011 387.405
473 1 39.0121 9.48424 370 61.9378 496.251 408.211
474 0 44.0634 12.0054 529 58.4802 496.599 408.047
475 0 44.0176 11.3136 498 59.9498 496.807 406.42
476 0 47.0711 12.2156 575 58.5896 496.769 405.889
477 0 49.0335 11.4819 563 59.7993 497.007 406.625
478 0 50.0919 10.9 546 59.8956 497.388 406.471
479 0 50.0406 10.8912 545 60.5028 497.978 405.488
480 0 52.0387 11.2801 587 60.2709 497.842 405.855
481 0 54.0976 10.7583 582 61.1357 498.091 402.851
482 0 56.084 12.0533 676 59.574 498 402.126
483 0 55.031 11.3027 622 61.5707 498.531 401.267
484 0 60.0343 12.2097 733 59.7121 498.026 399.089
485 0 60.0397 11.9255 716 60.8743 497.686 398.609
486 0 63.0528 10.8639 685 61.9197 497.908 398.083
487 0 62.1009 10.8694 675 62.8 497.982 398.071
488 0 69.0892 13.1279 907 58.4366 498.221 398.204
489 0 68.2256 13.001 887 59.1105 498.329 398.731
490 0 72.0576 12.4067 894 58.9911 498.142 399.007
491 0 73.1252 14.1401 1034 57.7921 497.783 394.457
492 0 74.1264 11.6558 864 61.2303 497.659 392.74
493 0 78.1218 11.9045 930 60.0505 498.312 394.547
494 0 79.0849 11.456 906 61.2903 498.108 391.763
495 0 83.0823 11.6631 969 60.7668 498.267 390.184
496 0 87.061 11.9457 1040 59.9317 497.316 389.517
497 1 41.0765 10.0301 412 60.2233 497.044 410.301
498 0 46.097 10.7599 496 59.1472 497.026 408.978
499 0 47.0805 10.5989 499 60.3768 496.9 408.355
500 0 50.0423 11.79 590 58.8102 497.151 406
501 0 51.0501 11.4789 586 59.0785 497.275 406.35
502 0 52.0509 13.5828 707 57.6945 498.045 402.167
503 0 53.1214 10.8619 577 60.6672 498.317 402.643
504 0 58.0729 11.916 692 58.0275 498.182 403.776
505 0 57.0882 10.2999 588 60.6667 497.81 402.338
506 0 60.0524 12.4225 746 58.1622 497.493 400.562
507 0 62.0427 12.2496 760 58.3763 497.441 400.267
508 0 65.0931 12.6281 822 57.7433 497.063 400.088
509 0 66.0196 14.0716 929 55.8741 497.509 400.126
510 0 68.0672 13.5895 925 57.2411 497.589 398.379
511 0 70.0952 12.8397 900 58.4844 498.168 395.118
512 0 71.0409 12.4013 881 59.0023 498.081 394.515
513 0 73.0396 10.9119 797 60.9624 498.056 393.793
514 0 75.1734 12.4911 939 59.311 498.218 393.407
515 0 77.1259 13.9383 1075 58.2912 498.167 390.874
516 0 79.2044 11.868 940 60.2691 498.307 391.25
517 0 81.1839 12.0837 981 61.3721 497.41 389.543
518 0 86.0743 12.4427 1071 61.1998 497.713 387.275
519 1 42.0488 10.9872 462 62.2251 497.506 408.79
520 0 41.024 12.2855 504 61.8036 497.333 407.45
521 0 42.0536 10.558 444 64.1261 497.394 407.921
522 0 45.0518 11.4535 516 63.3469 497.401 405.273
523 0 45.0374 11.1019 500 63.798 497.474 407.476
524 0 46.0237 11.9938 552 62.8496 497.384 403.226
525 0 48.0314 11.1802 537 64.2179 497.879 404.233
526 0 50.056 11.8267 592 62.7939 497.586 404.228
527 0 52.0444 11.9898 624 62.4071 497.917 401.941
528 0 52.0456 11.7781 613 63.1093 497.571 402.124
529 0 56.1086 12.0481 676 62.0651 497.68 399.883
530 0 57.0442 11.3771 649 63.0262 497.544 400.194
531 0 59.1139 12.6028 745 61.3356 497.27 399.046
532 0 62.0834 12.7731 793 60.8827 496.83 399.117
533 0 64.1413 11.5838 743 61.93 497.437 399.098
534 0 66.098 13.0261 861 60.5784 496.597 395.62
535 0 69.078 12.3194 851 60.6722 496.608 399.045
536 0 72.0619 12.6835 914 60.2473 496.779 396.526
537 1 37.0735 10.4118 386 62.9352 497.104 412.073
538 0 38.0598 11.5345 439 62.7813 498.26 409.385
539 0 40.042 11.8875 476 61.8676 498.235 409.691
540 0 41.0443 12.4987 513 60.8752 498.136 408.606
541 0 42.053 11.5093 484 62.0806 497.709 410.002
542 0 44.061 13.0274 574 60.5819 497.702 408.763
543 0 43.0369 12.2221 526 62.3612 497.464 406.582
544 0 48.0585 11.2571 541 62.4695 497.616 406.765
545 0 48.0215 12.1196 582 61.6134 497.584 406.311
546 0 50.1055 12.314 617 61.8833 496.823 403.431
547 0 51.0273 11.7976 602 62.3073 497.821 405.513
548 0 53.0596 12.0996 642 61.7741 497.593 403.706
549 0 54.0456 12.4524 673 61.8336 497.692 400.26
550 0 57.0479 11.727 669 62.1106 497.683 401.158
551 0 58.0591 14.4852 841 58.7705 497.763 400.625
552 0 61.0579 13.3152 813 59.877 497.718 399.146
553 0 64.0434 12.8038 820 59.7976 497.35 399.956
554 0 62.0704 12.4214 771 61.035 497.39 398.315
555 0 66.0878 12.6801 838 60.2888 497.362 398.218
556 0 70.1369 14.9422 1048 56.9666 497.664 397.618
557 0 71.0743 15.0406 1069 57.6249 497.774 394.364
558 0 73.0794 11.8775 868 61.3399 497.28 393.586
559 0 75.0472 11.8192 887 60.8343 497.253 395.375
560 0 77.0779 12.8571 991 60.0878 497.467 393.349
561 1 42.0499 11.0821 466 61.0794 497.036 411.378
562 0 42.0202 12.0656 507 60.2584 497.134 409.923
563 0 45.0449 12.1878 549 59.6466 496.829 409.403
564 0 44.0344 11.4683 505 61.7366 496.481 407.636
565 0 47.0562 12.6232 594 59.9579 496.781 405.769
566 0 48.0544 10.717 515 61.5223 496.598 409.076
567 0 49.05 12.3751 607 60.2768 496.496 407.148
568 0 49.0312 12.0943 593 61.7049 496.858 404.327
569 0 53.0448 12.103 642 60.486 496.665 405.265
570 0 52.0709 12.483 650 61.1877 496.715 404.928
571 0 52.0586 10.4498 544 63.4945 497.41 404.752
572 0 58.0368 14.0428 815 59.1988 497.428 401.077
573 0 60.0434 13.4569 808 59.6361 497.047 402.449
574 0 60.2253 13.8314 833 59.3842 497.46 400.371
575 0 61.0188 14.2251 868 59.5403 497.555 399.933
576 0 64.0838 12.234 784 61.1429 497.435 400.245
577 0 67.072 12.1362 814 61.1007 497.52 400.844
578 0 71.1288 12.9343 920 59.7837 497.28 399.946
579 0 70.0542 13.3325 934 60.4861 497.625 396.679
580 0 73.0513 11.7178 856 62.1577 497.297 393.653
581 1 35.0408 10.9872 385 61.2753 497.501 414.156
582 0 39.0959 11.2288 439 61.0319 497.1 412.579
583 0 38.0451 11.5915 441 60.6667 497.068 412.338
584 0 40.0613 12.406 497 60.6439 496.602 411.225
585 0 41.0949 12.2156 502 60.5259 496.422 410.709
586 0 43.0622 11.6575 502 61.5936 496.805 408.496
587 0 46.0869 12.5632 579 59.6494 497.212 407.722
588 0 46.0963 12.8427 592 60.0946 497.188 407.677
589 0 47.0294 10.7167 504 62.7837 496.528 406.355
590 0 50.0318 12.7119 636 60.173 497.319 407.075
591 0 51.2359 13.1939 676 59.7707 497.26 406.914
592 0 51.0354 12.9518 661 60.9985 497.36 405.549
593 0 53.123 11.5204 612 62.0082 497.217 405.444
594 0 56.0529 12.2384 686 61.207 497.399 404.125
595 0 56.1075 11.2997 634 62.817 496.989 401.191
596 0 58.075 11.7779 684 62.1637 497.241 398.393
597 0 62.0645 12.632 784 60.6633 497.029 396.435
598 0 64.1465 14.3266 919 59.2165 497.234 398.255
599 0 65.0603 11.6968 761 62.4744 497.011 396.694
600 0 67.0383 12.5152 839 61.6722 497.213 395.383
601 0 71.043 12.4009 881 62.042 497.602 394.964
602 0 73.0579 11.662 852 63.0188 497.431 391.809
603 0 75.1112 10.7174 805 64.0273 497.352 392.087
604 1 38.2094 9.8405 376 62.2261 497.479 411.894
605 0 38.0461 10.7501 409 62.3863 497.648 411.675
606 0 39.023 9.09719 355 64.5014 497.87 410.915
607 0 43.0951 12.2056 526 61.0627 497.922 408.129
608 0 42.1152 11.5873 488 62.0799 498.084 408.154
609 0 43.1055 10.0451 433 64.2286 497.628 406.122
610 0 48.0868 11.4168 549 61.5537 497.92 404.995
611 0 50.0723 11.2038 561 61.2424 497.531 405.968
612 0 50.0657 11.5049 576 61.9896 497.913 404.161
613 0 53.0542 12.3459 655 60.1374 497.992 403.676
614 0 55.0746 13.9992 771 57.8625 497.135 404.809
615 0 57.0743 11.8617 677 60.5406 497.484 403.312
616 0 59.0717 11.3591 671 61.9389 497.063 400.645
617 0 61.0238 12.0281 734 61.639 496.92 398.688
618 0 63.0735 12.6678 799 60.6758 497.058 397.308
619 0 66.1283 12.7479 843 60.6026 496.922 398.244
620 0 68.0794 11.7069 797 61.8808 496.956 394.289
621 0 70.0444 11.7782 825 62.463 496.594 394.299
622 1 34.0462 9.04653 308 64.961 497.12 411.071
623 0 40.0518 10.9858 440 61.3591 497.032 411.173
624 0 41.0705 12.7586 524 59.9103 497.013 409.866
625 0 42.0389 11.7272 493 61.0507 496.704 410.485
626 0 41.0151 10.4596 429 64.2587 496.767 406.566
627 0 46.1083 11.1477 514 62.3949 496.78 407.304
628 0 45.0756 10.9815 495 63.6646 496.846 406.974
629 0 45.0675 11.5382 520 63.2962 497.125 406.802
630 0 49.0824 11.3483 557 63.4075 496.935 404.882
631 0 50.0735 11.4631 574 63.7474 496.397 404.057
632 0 53.0928 12.3934 658 62.1976 496.85 403.339
633 0 54.1607 11.4844 622 63.2428 497.074 405.339
634 0 57.1265 13.2338 756 61.7606 497.083 402.073
635 0 58.0559 12.5741 730 62.663 497.197 401.788
636 0 61.0435 13.0235 795 62.1006 497.434 399.947
637 0 63.0698 12.0184 758 63.3694 497.28 397.416
638 0 66.1026 12.0419 796 63.1168 497.554 398.285
639 0 68.0991 12.5699 856 62.5829 497.195 396.36
640 0 68.1116 11.5252 785 64.9898 497.447 394.445
641 0 71.108 12.3615 879 63.7258 497.154 394.052
642 0 75.2397 12.7725 961 62.7263 496.546 393.887
643 1 37.1809 10.4893 390 64.7846 496.99 413.167
644 0 41.1423 11.6182 478 63.9247 496.72 411.322
645 0 37.0572 10.4433 387 67.2687 496.972 410.137
646 0 42.083 11.4535 482 65.666 496.975 407.015
647 0 43.039 13.2206 569 63.9051 497.156 406.589
648 0 47.1052 12.2492 577 63.9116 497.312 405.686
649 0 46.1701 12.6489 584 64.2774 496.836 404.522
650 0 48.0908 12.9547 623 63.2119 496.856 406.35
651 0 50.106 12.1343 608 64.3931 496.344 404.826
652 0 54.1462 11.3581 615 65.3268 496.53 403.6
653 0 54.1404 12.7262 689 63.5501 496.325 403.441
654 0 54.1757 11.2781 611 65.3404 496.674 403.73
655 0 55.0721 12.5109 689 64.3657 497.115 401.855
656 0 59.058 13.038 770 62.9584 496.806 403.097
657 0 58.1966 11.9079 693 64.9019 496.745 399.978
658 0 61.131 11.32 692 65.3338 496.711 395.267
659 0 63.0888 12.5537 792 63.2538 496.437 396.23
660 0 65.1125 10.981 715 65.4322 496.361 393.281
661 0 69.1042 12.5897 870 62.6586 496.39 391.82
662 0 70.3084 12.8007 900 62.4156 496.579 389.116
663 0 73.0917 10.8494 793 64.0063 497.206 392.165
664 0 76.1418 12.9758 988 61.5617 496.422 385.651
665 0 78.2249 11.6715 913 62.839 496.665 388.492
666 0 81.1333 11.9187 967 62.6536 496.753 386.346
667 0 85.169 10.9077 929 63.1141 496.882 386.882
668 0 89.1715 12.8741 1148 60.52 496.883 385.599
669 0 89.1602 11.4849 1024 62.9834 496.838 381.39
670 1 50.1587 12.5203 628 60.4331 496.748 402.389
671 0 52.1164 11.1481 581 61.9329 496.873 401.723
672 0 56.0425 12.3299 691 60.7091 496.76 400.849
673 0 55.0419 12.8993 710 60.7789 496.418 398.434
674 0 56.0956 12.0509 676 61.7559 496.12 398.173
675 0 60.1788 12.1305 730 61.5671 495.832 393.858
676 0 62.0822 11.5975 720 62.2625 496.451 395.156
677 0 65.1648 11.9543 779 61.5083 496.245 394.063
678 0 67.0924 12.8181 860 60.4058 496.207 394.752
679 0 69.1315 11.8759 821 61.9562 496.78 392.521
680 0 71.0596 11.3004 803 62.3748 496.88 393.542
681 0 74.0876 12.3772 917 61.7503 496.545 389.565
682 0 76.0976 12.1292 923 61.7465 496.725 388.2
683 0 81.204 12.1423 986 61.7617 496.306 386.929
684 0 82.1052 13.2878 1091 61.2154 496.115 384.856
685 0 85.1725 11.5882 987 63.2178 496.388 384.722
686 1 46.136 11.8563 547 62.4753 496.79 404.135
687 0 46.1124 12.8599 593 62.0219 496.777 403.46
688 0 50.1331 12.028 603 62.8574 496.988 403.139
689 0 49.2188 11.8248 582 64.177 496.954 399.11
690 0 52.1015 11.2857 588 64.8878 497.648 399.471
691 0 53.0651 13.5306 718 62.2047 497.031 399.092
692 0 56.0468 14.1311 792 61.6061 497.324 398.423
693 0 54.0519 11.4705 620 66.1468 497.034 397.282
694 0 57.1424 11.9176 681 64.7944 496.705 398.677
695 0 64.0588 13.6281 873 61.1615 497.189 396.967
696 0 65.0508 13.3281 867 61.6551 496.877 398.348
697 0 68.0913 14.2456 970 60.2897 496.756 396.891
698 0 69.0587 13.4234 927 62.2395 497.025 394
699 0 73.0878 12.4781 912 62.8476 497.859 394.08
700 0 75.0897 14.1564 1063 61.1214 497.021 391.788
701 0 77.129 13.8599 1069 61.362 497.033 392.007
702 0 77.1163 12.4098 957 64.5852 497.885 389.604
703 0 80.0865 13.2357 1060 63.2991 497.601 389.719
704 1 43.0434 12.4758 537 62.6648 497.453 406.92
705 0 46.1883 11.5181 532 64.2368 497.412 406.081
706 0 48.0479 12.9662 623 63.1027 497.976 404.822
707 0 49.0849 12.5497 616 63.961 497.523 404.023
708 0 50.0366 11.7914 590 64.7424 496.803 403.966
709 0 54.0751 14.073 761 61.5913 497.477 400.94
710 0 53.048 13.2333 702 63.2222 497.101 400.054
711 0 56.0573 14.5922 818 59.7152 497.265 398.874
712 0 57.1134 12.7466 728 61.4341 497.275 399.158
713 0 60.1278 13.0721 786 60.7786 497.398 398.59
714 0 62.0567 14.0517 872 59.7351 497.414 395.556
715 0 64.0823 12.7804 819 61.2186 497.928 394.534
716 0 66.0726 13.4398 888 59.8986 497.866 394.992
717 0 66.0326 13.3116 879 60.2651 497.647 393.402
718 0 70.0808 13.8412 970 58.7907 497.96 392.069
719 0 71.0611 13.2562 942 59.8418 497.876 391.451
720 0 73.0674 14.1239 1032 59.0407 497.983 388.117
721 0 75.0448 13.4586 1010 59.6218 497.912 388.505
722 0 79.0702 14.2279 1125 58.3244 497.773 388.574
723 0 79.0757 14.5683 1152 57.8403 497.451 389.646
724 0 82.1132 12.8359 1054 60.13 497.499 384.788
725 0 86.1071 12.4496 1072 59.6754 497.085 386.962
726 0 87.0617 12.5773 1095 60.7425 496.963 382.015
727 0 92.0521 13.2534 1220 59.677 497.462 382.052
728 0 94.1542 14.5718 1372 58.0503 496.853 381.13
729 1 51.0417 10.8147 552 62.192 497.053 399.728
730 0 52.0829 11.4625 597 62.3685 496.782 399.586
731 0 55.0663 12.2035 672 61.4077 496.82 397.744
732 0 59.03 12.4344 734 60.3842 497.297 397.864
733 0 60.0725 14.316 860 58.2872 496.674 395.659
734 0 60.2623 13.126 791 60.0354 496.316 392.78
735 0 65.0327 13.3164 866 58.9988 496.643 392.712
736 0 66.057 11.1873 739 61.8809 497.051 392.263
737 0 68.0632 13.6344 928 59.1541 496.909 390.084
738 0 71.0808 14.7016 1045 57.823 496.612 387.47
739 0 72.0707 12.4877 900 60.4178 496.664 387.93
740 0 75.0738 13.0538 980 60.1449 496.566 384.804
741 0 77.227 12.159 939 60.2854 496.469 389.718
742 0 82.0697 12.4894 1025 59.9805 496.44 384.687
743 0 84.0902 12.4152 1044 60.8008 496.801 383
744 0 87.2349 13.8821 1211 59.1792 496.897 381.464
745 1 47.0875 9.98141 470 63.0149 497.213 401.587
746 0 52.0383 12.8751 670 59.7806 497.373 400.904
747 0 51.0283 11.425 583 62.1715 497.365 400.497
748 0 56.1169 13.5966 763 59.3801 498.198 400.208
749 0 55.0239 11.9948 660 62.4712 497.388 393.542
750 0 58.0483 12.3173 715 61.8364 497.508 395.487
751 0 60.0577 13.1374 789 60.5615 497.008 394.878
752 0 63.0636 12.9393 816 61.0429 496.882 393.38
753 0 64.0788 12.9372 829 61.2907 497.205 389.472
754 0 67.0287 12.2783 823 61.7655 496.961 390.911
755 0 69.0773 12.8841 890 61.2854 497.137 389.487
756 0 72.1735 12.6085 910 60.9154 496.778 390.289
757 0 77.0228 13.6064 1048 60.1374 497.226 386.737
758 0 78.1418 13.1172 1025 61.2332 496.672 382.665
759 0 81.0811 12.9623 1051 61.352 497.139 383.099
760 0 83.1005 12.6955 1055 61.5431 497.165 384.76
761 0 88.1595 12.6022 1111 61.3249 497.317 385.043
762 0 92.1004 12.9641 1194 61.4305 497.249 380.246
763 1 50.142 9.0144 452 62.8827 497.701 402.367
764 0 53.0531 11.611 616 61.711 497.383 398.101
765 0 56.034 11.618 651 61.4685 497.786 397.035
766 0 56.0612 12.6469 709 60.5867 497.794 396.764
767 0 60.1025 13.3272 801 58.9963 497.174 396.009
768 0 62.1474 13.4841 838 59.327 497.174 394.329
769 0 63.0776 12.3182 777 60.8005 497.112 392.951
770 0 65.0848 12.3685 805 60.2969 496.425 394.005
771 0 69.0964 12.8516 888 59.0293 496.644 394.711
772 0 69.1007 12.3009 850 61.2918 496.941 389.572
773 0 73.2149 13.1257 961 59.4558 497.374 389.57
774 0 74.0556 12.2881 910 61.0593 497.186 385.659
775 0 77.0853 13.1413 1013 59.3416 496.725 390.007
776 0 81.168 11.6918 949 60.7871 496.018 387.877
777 0 83.0788 11.784 979 60.1736 496.054 389.072
778 0 85.1497 14.1868 1208 57.9925 496.04 385.935
779 1 46.0885 11.6081 535 58.9925 496.417 403.308
780 0 46.0356 10.4484 481 60.8649 496.181 403.279
781 0 48.0519 10.1765 489 61.2536 496.818 401.495
782 0 51.0637 13.4146 685 57.0613 496.734 401.453
783 0 53.1254 11.9717 636 58.8805 497.197 399.593
784 0 52.058 11.4872 598 60.0719 497.007 397.716
785 0 54.0976 12.1078 655 59.3099 497.024 397.298
786 0 57.1454 9.53708 545 61.1193 496.947 397.4
787 0 60.1135 13.2084 794 57.0353 496.802 396.521
788 0 64.112 15.5509 997 54.2688 497.045 394.232
789 0 64.0654 13.0648 837 57.718 496.769 391.041
790 0 66.1559 13.3775 885 57.0565 496.861 392.408
791 0 69.2291 12.3647 856 57.6963 496.482 388.869
792 0 70.1178 12.1367 851 58.0235 496.83 388.875
793 0 75.0491 11.6191 872 58.2569 497.233 389.944
794 0 77.1212 11.3976 879 58.9738 497.183 386.184
795 0 78.1686 12.4219 971 57.6612 497.135 386.802
796 0 82.1512 12.6231 1037 57.1794 497.268 384.259
797 0 85.2447 11.4377 975 58.2523 497.281 382.59
798 0 88.2097 11.2686 994 58.3129 496.339 382.202
799 0 92.1295 12.2762 1131 57.4103 496.468 380.306
800 0 96.1401 11.8057 1135 57.5815 496.811 378.271
801 1 54.1272 10.5862 573 55.3839 496.902 401.393
802 0 54.073 10.7632 582 56.9296 497.213 399.057
803 0 58.1139 9.29209 540 57.9056 497.381 398.852
804 0 58.0924 11.4989 668 56.5554 497.759 395.564
805 0 61.0703 11.9207 728 55.3503 497.317 396.345
806 0 64.0734 11.0498 708 55.8573 497.171 393.925
807 0 66.1915 10.9833 727 55.9202 497.275 392.514
808 0 69.0746 11.7554 812 54.4446 497.602 393.877
809 0 69.2065 11.7763 815 55.589 496.745 390.826
810 0 75.1799 13.1285 987 53.5491 497.51 391.544
811 0 76.1781 11.5913 883 56.1563 497.942 388.125
812 0 78.2599 11.1935 876 56.621 497.767 385.301
813 0 83.1777 13.2007 1098 54.0364 498.043 384.795
814 0 85.0798 12.5294 1066 54.4644 497.683 383.857
815 1 44.0765 8.93901 394 54.5736 497.495 405.665
816 0 45.0847 9.80377 442 55.3643 497.568 400.928
817 0 48.0425 11.6355 559 53.0537 498.234 400.422
818 0 49.1209 9.75144 479 54.785 498.061 399.789
819 0 52.2225 11.7574 614 52.5423 497.941 400.213
820 0 53.036 9.69153 514 55.1693 497.835 395.617
821 0 55.1609 9.37258 517 55.381 497.795 396.632
822 0 54.2007 10.1475 550 54.9964 497.773 397.213
823 0 57.1733 10.1796 582 54.4777 497.342 398
824 0 59.0783 11.9672 707 53.133 497.513 394.199
825 0 61.0579 7.9269 484 56.9814 497.225 390.145
826 0 67.1484 10.7076 719 54.3421 497.526 390.562
827 0 72.0561 12.6152 909 51.8361 497.345 390.634
828 0 73.2048 12.1304 888 52.545 496.943 388.139
829 0 74.1043 10.5392 781 54.0282 497.085 389.273
830 0 77.0988 12.8017 987 52.1094 497.495 387.007
831 0 81.1204 12.315 999 52.3834 497.676 383.145
832 0 83.0888 13.4314 1116 51.7419 497.676 382.703
833 0 86.1435 11.6666 1005 53.0667 497.826 381.795
834 1 44.0594 9.26023 408 55.4853 497.632 402.282
835 0 49.0691 11.4532 562 53.0712 497.906 398.53
836 0 51.047 10.4022 531 54.3107 497.766 397.772
837 0 53.1511 12.361 657 52.2664 497.793 398.553
838 0 52.0418 9.93432 517 55.3598 497.683 398.427
839 0 55.1295 11.8086 651 53.8402 497.567 393.573
840 0 56.0528 12.9164 724 52.6989 497.626 393.808
841 0 58.0328 11.3901 661 53.2118 497.481 395.861
842 0 59.038 13.9571 824 51.9527 498.017 392.959
843 0 64.0903 12.1235 777 53.2368 497.912 390.412
844 0 65.2348 12.0181 784 53.7985 497.777 389.501
845 0 70.1074 12.9801 910 52.5495 498.191 387.226
846 0 69.0527 11.5564 798 53.9486 497.981 389.965
847 0 73.0645 12.0989 884 53.6244 498.033 385.371
848 0 74.1532 10.33 766 55.5261 497.749 384.692
849 0 78.0345 12.1869 951 53.7319 497.169 383.502
850 0 81.2058 11.1568 906 54.8455 497.736 382.02
851 0 82.1847 12.8491 1056 53.9574 497.4 379.895
852 0 88.0883 10.5916 933 55.8489 497.283 377.779
853 1 46.0791 13.39 617 54.1361 497.277 397.081
854 0 47.0933 11.3392 534 56.3371 497.464 399.283
855 0 49.1549 10.4771 515 57.1592 497.557 397.645
856 0 51.0349 10.385 530 57.5849 497.042 394.909
857 0 52.053 11.4691 597 56.134 497.077 396.573
858 0 57.0982 12.207 697 54.9082 497.053 395.736
859 0 56.0567 11.1673 626 57.115 497.337 392.259
860 0 61.0731 12.1821 744 55.9503 498.242 389.798
861 0 61.0601 13.3148 813 55.3875 497.214 388.581
862 0 63.1573 12.0335 760 56.1 497.184 391.299
863 0 66.0779 13.9532 922 55.0195 497.022 387.196
864 0 72.1452 15.1223 1091 52.6581 496.989 389.718
865 0 73.2358 12.7806 936 55.6699 497.563 387.335
866 0 75.1491 13.1605 989 55.3529 497.209 386.177
867 0 79.2203 14.8447 1176 53.8844 496.913 382.177
868 0 82.0872 11.6705 958 57.119 496.861 382.102
869 1 44.2057 12.7812 565 53.7982 497.719 402.145
870 0 46.1258 11.5987 535 55.2449 497.994 402.391
871 0 46.1447 11.3773 525 56.8648 497.76 397.03
872 0 48.0609 11.0693 532 56.9474 498.139 398.017
873 0 50.3264 11.9222 600 56.2067 498.127 397.613
874 0 53.0495 12.7428 676 54.7781 497.93 399.454
875 0 54.0951 13.2729 718 54.8329 497.759 396.752
876 0 57.1215 12.8148 732 55.4221 497.734 395.478
877 0 56.1089 11.9589 671 56.9821 498.139 394.806
878 0 58.1199 14.6938 854 53.9438 498.144 392.948
879 0 60.1397 11.4068 686 57.1443 498.004 393.872
880 0 62.3279 11.3593 708 56.7669 498.418 394.147
881 0 63.1162 12.1205 765 56.6327 498.173 390.235
882 0 69.2589 13.6589 946 54.6205 498.163 389.293
883 0 70.1977 13.3195 935 54.9807 498.032 386.965
884 0 73.1987 13.2926 973 54.9856 497.815 388.717
885 0 75.1838 12.7953 962 55.8451 498.17 385.291
886 1 41.3248 11.2523 465 55.2172 497.744 405.045
887 0 40.1536 12.9254 519 54.3661 497.894 403.597
888 0 41.1784 11.3166 466 56.382 497.73 401.878
889 0 41.226 10.0422 414 57.3357 497.372 402.599
890 0 44.2273 13.4306 594 53.8973 496.82 402.963
891 0 44.2022 12.4202 549 54.9399 497.186 404.22
892 0 45.1713 15.4523 698 52.7894 496.415 399.713
893 0 48.1461 12.8152 617 55.3274 496.922 398.269
894 0 48.1741 13.3059 641 55.0952 496.788 400.212
895 0 51.1596 13.7609 704 54.2599 497.081 398.385
896 0 53.2276 12.9256 688 54.939 496.837 398.125
897 0 51.1162 11.5815 592 57.6098 497.24 394.596
898 0 55.1713 12.0534 665 56.4271 497.029 396.851
899 0 54.2204 12.0619 654 57.0657 497.209 394.099
900 0 57.064 15.4563 882 53.6361 496.797 392.84
901 0 60.093 14.9602 899 53.8443 497.333 396.037
902 0 61.2159 13.2972 814 55.9177 497.088 393.222
903 0 64.2514 12.5912 809 56.6502 496.881 389.754
904 0 66.2406 12.9377 857 56.6919 496.711 390.707
905 0 68.151 12.619 860 57.4965 497.114 387.571
906 0 71.2329 12.4521 887 57.2446 497.034 387.46
907 0 73.3152 11.9484 876 58.2785 496.938 390.019
908 1 40.2792 9.83139 396 59.7677 497.22 404.088
909 0 42.2412 10.1796 430 59.6395 497.456 405.4
910 0 43.1448 14.5556 628 55.7054 497.134 403.081
911 0 47.2136 12.3481 583 57.1321 497.038 402.906
912 0 47.1448 10.7541 507 59.6529 497.533 403.677
913 0 50.3529 11.5386 581 58.4613 497.986 402.313
914 0 50.1841 12.9722 651 57.619 497.18 400.966
915 0 52.2041 13.8495 723 56.5574 496.763 397.851
916 0 53.1954 11.8995 633 58.9384 496.679 397.333
917 0 56.328 14.0605 792 56.2551 496.141 396.941
918 0 57.1084 12.52 715 57.7091 496.58 398.931
919 0 57.1636 11.6508 666 59.5511 497.078 396.434
920 0 60.1508 13.9815 841 57.4209 497.03 395.005
921 0 62.2046 13.7771 857 57.8285 497.489 394.756
922 0 64.1797 13.3687 858 58.2681 497.319 394.22
923 0 64.1858 11.8562 761 60.3272 497.656 393.405
924 0 66.1386 12.2924 813 60.2718 497.76 392.327
925 0 69.0729 13.2324 914 59.3381 497.335 391.258
926 1 40.0578 11.4834 460 59.463 497.663 406.548
927 0 40.1821 12.294 494 58.7773 497.941 408.061
928 0 44.0999 10.9751 484 60.5702 497.568 404.911
929 0 45.1316 14.8455 670 56.5313 497.334 405.194
930 0 48.1543 13.3529 643 57.4603 497.681 406.418
931 0 46.0649 13.3724 616 58.7792 497.013 404.68
932 0 49.1975 13.5169 665 58.6015 496.356 403.132
933 0 50.2153 12.8447 645 59.9116 496.364 402.135
934 0 52.177 10.656 556 62.8579 496.435 400.532
935 0 53.1255 13.2516 704 60.8097 496.723 400.016
936 0 54.042 13.3415 721 61.387 496.975 399.735
937 0 56.0917 13.1035 735 61.0503 496.303 399.446
938 0 61.235 13.5054 827 60.445 496.478 397.988
939 0 59.0482 13.7176 810 61.8741 496.646 395.243
940 0 59.2131 13.0208 771 63.1881 496.944 396.121
941 0 63.0959 12.2353 772 63.6425 496.51 393.442
942 0 64.1951 12.9138 829 63.2738 496.425 393.907
943 0 67.0446 14.811 993 60.8912 496.737 394.945
944 0 69.091 12.8526 888 63.5912 496.713 395.036
945 0 74.1649 13.7666 1021 62.5612 496.113 392.343
946 0 77.1127 12.6309 974 64.2444 496.099 390.1
947 0 77.0761 13.2726 1023 64.3666 495.95 388.253
948 1 42.1647 11.7397 495 65.5354 496.368 406.467
949 0 43.0327 13.1063 564 63.3688 496.601 408.518
950 0 46.1408 16.3846 756 59.9312 496.854 405.835
951 0 47.1001 12.7176 599 64.5643 496.032 404.344
952 0 49.04 12.4592 611 65.0655 496.151 404.841
953 0 50.0471 13.6072 681 63.7239 496.3 404.916
954 0 51.0473 13.1838 673 64.74 496.407 405.486
955 0 54.0272 13.197 713 63.7672 495.819 404.216
956 0 53.0516 11.8564 629 65.7154 496.261 403.175
957 0 55.038 13.2817 731 64.5992 496.275 401.869
