time division length width area intensity CMx CMy
0 0 65.1438 12.4801 813 57.4194 386.091 509.611
1 0 64.0991 10.7178 687 60.0029 385.879 510.675
2 0 67.0886 13.6685 917 56.3359 386.266 506.779
3 0 70.1613 12.286 862 57.0012 386.176 511.012
4 0 71.1197 12.7953 910 56.9077 385.368 508.945
5 0 72.125 14.4471 1042 55.3743 385.938 507.278
6 0 75.1147 12.8736 967 56.8014 385.481 508.179
7 0 75.0917 13.1572 988 56.9383 385.085 508.296
8 0 75.1598 12.2672 922 58.6605 384.818 506.757
9 0 81.146 13.9132 1129 56.1674 385.708 502.9
10 0 83.3135 14.8115 1234 55.0267 384.964 503.386
11 0 87.2336 15.0401 1312 54.2744 385.312 505.386
12 0 87.2504 13.5701 1184 56.7956 385.316 502.417
13 0 88.1255 14.9446 1317 55.4176 385.005 501.566
14 0 91.1944 14.7816 1348 55.8479 384.145 499.473
15 0 93.0713 12.3131 1146 59.2984 384.689 497.111
16 0 97.0508 16.9293 1643 53.8789 384.534 499.612
17 1 53.0694 12.9453 687 59.4483 384.352 517.684
18 0 53.0365 11.6335 617 61.3436 384.561 517.81
19 0 55.0552 13.1868 726 60.1777 384.172 516.894
20 0 56.1246 12.5079 702 61.5456 384.56 517.333
21 0 58.0269 12.5459 728 61.4382 384.098 515.606
22 0 57.061 11.7068 668 63.0823 384.41 515.659
23 0 59.0985 14.0951 833 60.3986 384.387 511.043
24 0 62.0449 13.9093 863 60.5342 384.739 512.875
25 0 62.0306 13.4611 835 61.7904 384.702 512.392
26 0 63.1041 13.7709 869 61.2957 384.934 512.867
27 0 67.085 14.1164 947 61.0285 384.827 510.932
28 0 69.0515 13.5117 933 61.224 384.646 512.908
29 0 69.074 15.3024 1057 60.6367 384.995 509.079
30 0 70.0431 14.1627 992 62.3871 384.669 507.997
31 0 75.171 14.4205 1084 60.8967 385.598 509.692
32 0 76.0818 14.4713 1101 61.9183 384.636 505.295
33 0 79.0904 14.7679 1168 61.6918 385.136 505.913
34 0 81.1096 12.7605 1035 64.5053 386.245 506.425
35 0 80.2554 12.0366 966 67.0663 386.33 503.638
36 0 86.1062 15.1673 1306 62.3959 386.445 503.851
37 0 88.0532 14.8092 1304 63.4586 386.054 500.108
38 1 44.0588 10.5995 467 65.4604 386.76 524.163
39 0 45.0571 13.4052 604 63.207 386.22 522.977
40 0 44.0894 12.3839 546 65.793 386.78 521.822
41 0 45.0773 12.7559 575 64.7426 386.437 523.285
42 0 47.0339 11.7787 554 66.7509 386.59 523.458
43 0 49.0682 13.6341 669 64.864 386.958 521.063
44 0 50.0324 12.2121 611 65.8985 386.676 522.727
45 0 48.0275 11.5142 553 68.425 386.656 520.852
46 0 51.0507 13.6727 698 65.9742 386.723 517.52
47 0 51.0186 11.7016 597 67.9698 386.546 518.891
48 0 53.0591 13.1363 697 67.241 387.304 517.122
49 0 57.1019 12.4689 712 66.8708 386.626 518.968
50 0 57.1357 11.8315 676 68.5533 386.524 516.852
51 0 61.0852 12.8345 784 67.0982 386.971 515.957
52 0 61.0513 12.5632 767 67.2738 386.22 515.764
53 0 62.0443 12.6039 782 68.7711 386.535 513.355
54 0 64.0286 12.4788 799 68.4543 386.702 513.472
55 0 65.1177 11.5483 752 70.4269 386.664 512.84
56 0 68.1543 14.1884 967 67.4488 386.82 510.339
57 0 70.1008 11.8116 828 70.6184 387.193 510.818
58 0 71.159 12.9429 921 69.6156 386.709 510.483
59 0 72.1013 12.316 888 71.2883 386.838 507.13
60 0 76.0942 13.7461 1046 69.4388 386.744 506.204
61 0 77.094 12.5172 965 69.8725 386.723 509.419
62 0 78.1523 12.4628 974 71.8101 386.881 505.38
63 0 83.0465 13.2335 1099 70.051 386.091 505.51
64 0 82.0947 12.0958 993 72.2548 386.513 505.359
65 0 85.1679 12.5047 1065 71.9587 386.81 505.62
66 0 86.1825 13.0537 1125 72.5076 386.242 502.286
67 0 90.1412 14.1778 1278 69.7879 386.845 502.882
68 0 91.0629 13.2326 1205 72.6988 386.419 501.212
69 0 95.1004 13.1966 1255 72.2462 386.483 501.176
70 0 96.1299 14.1163 1357 71.2999 386.797 501.643
71 0 99.2406 12.3337 1224 74.5523 386.21 497.386
72 0 102.114 14.4152 1472 71.4402 386.74 497.961
73 0 102.126 12.0733 1233 74.9173 386.349 495.137
74 0 106.21 12.4847 1326 74.7655 385.96 495.753
75 0 110.097 13.4245 1478 73.4452 385.845 492.984
76 0 110.115 12.5687 1384 74.5173 386.134 494.668
77 0 108.092 11.7399 1269 74.844 385.769 496.902
78 0 111.268 12.1958 1357 73.3316 385.396 499.903
79 1 123.144 14.2191 1751 74.0223 385.999 484.875
80 0 124.104 11.9497 1483 77.4713 386.06 484.681
81 0 130.107 14.3881 1872 74.3045 386.429 480.958
82 0 134.141 14.6562 1966 74.0931 386.639 480.509
83 0 138.17 14.1058 1949 75.1673 386.894 478.631
84 0 141.136 14.2699 2014 75.3918 386.071 477.146
85 0 143.147 13.0705 1871 77.0086 386.302 477.583
86 0 148.362 13.6962 2032 76.4257 386.455 473.383
87 0 150.123 13.409 2013 77.8773 387.29 472.756
88 0 159.188 12.4758 1986 77.7875 386.43 475.16
89 0 159.131 14.3027 2276 76.9657 386.578 467.434
90 0 163.22 13.8647 2263 77.3283 386.781 466.98
91 0 169.121 14.871 2515 75.8946 387.225 465.006
92 0 172.236 14.5266 2502 76.2458 386.672 463.542
93 0 178.213 13.2931 2369 78.7176 386.618 457.273
94 1 135.116 13.8548 1872 77.398 386.952 477.277
95 0 140.201 13.7303 1925 77.3174 387.115 475.749
96 0 145.288 13.9792 2031 76.3959 387.119 477.132
97 0 148.08 13.5264 2003 77.0999 386.747 473.979
98 1 103.114 12.6559 1305 77.167 387.023 495.665
99 0 106.076 13.2358 1404 76.3362 386.28 493.068
100 0 108.164 12.5643 1359 78.0169 386.846 490.191
101 0 111.107 12.5645 1396 77.6612 386.847 492.161
102 0 114.09 12.6391 1442 78.3883 386.422 487.864
103 0 119.233 13.5869 1620 77.0901 387.189 485.015
104 0 123.164 13.957 1719 76.872 387.649 481.628
105 0 128.17 13.3573 1712 78.5812 386.752 479.033
106 0 133.27 13.6115 1814 77.2348 386.282 480.648
107 0 136.374 14.2769 1947 76.4961 386.965 478.45
108 0 140.408 13.995 1965 77.773 386.552 474.952
109 0 143.19 12.906 1848 79.3712 386.974 472.058
110 0 149.219 13.8321 2064 77.6453 387.218 473.091
111 0 152.275 13.2786 2022 79.1078 386.707 467.409
112 0 158.19 14.7418 2332 76.8199 386.697 468.648
113 1 123.106 12.8751 1585 78.8315 387.078 484.662
114 0 126.116 13.7889 1739 77.8143 386.96 483.023
115 0 129.169 14.1907 1833 78.4359 386.598 478.977
116 0 133.119 13.5442 1803 78.7377 386.774 478.948
117 1 48.0658 12.6493 608 76 387.638 520.128
118 0 51.0125 12.7224 649 77.0401 387.78 517.313
119 0 52.0246 11.7252 610 78.777 387.467 515.589
120 0 55.1219 13.1889 727 75.6135 387.516 515.744
121 0 57.0675 13.6855 781 73.9834 387.601 515.914
122 0 58.0468 12.5244 727 76.7607 386.323 513.256
123 0 57.0374 12.1324 692 77.9061 387.48 512.545
124 0 59.0862 11.9487 706 77.9575 387.378 511.984
125 0 64.0723 12.5639 805 75.9652 387.235 511.77
126 0 65.0525 12.8512 836 75.1866 386.975 512.628
127 0 67.1077 12.2192 820 76.9988 387.237 510.183
128 0 68.1349 11.9175 812 77.4495 387.112 508.541
129 0 71.0519 13.652 970 75.2227 386.784 504.662
130 0 74.1482 13.0549 968 74.9132 386.568 506.1
131 0 77.1586 11.9624 923 76.1473 386.861 505.256
132 0 80.1625 12.7366 1021 74.6983 386.099 501.109
133 0 83.0854 13.5523 1126 73.5266 386.039 499.377
134 1 42.031 11.325 476 73.1218 386.962 521.078
135 0 40.0524 11.0855 444 75.1757 387.896 519.773
136 0 44.0464 11.783 519 73.4432 387.366 517.927
137 0 42.0251 10.4937 441 75.9592 387.73 517.971
138 0 46.0447 13.3566 615 71.1382 387.641 517.943
139 0 47.0425 12.6056 593 71.8347 387.508 518.61
140 0 49.0449 13.4163 658 71.3359 387.169 516.869
141 0 51.0691 13.374 683 70.9224 387.404 516.975
142 0 52.0371 12.664 659 71.6601 387.944 515.511
143 0 54.0422 12.7678 690 71.0043 387.616 515.588
144 0 54.0428 13.3043 719 71.8303 387.833 512.641
145 0 56.0465 12.3469 692 72.4408 387.366 511.918
146 0 56.0611 11.9334 669 73.5351 387.828 512.06
147 0 58.0486 13.5231 785 70.9287 387.759 512.502
148 0 61.1119 13.238 809 70.8541 387.418 511.494
149 0 63.0321 13.3741 843 70.5469 388.114 510.349
150 0 65.0538 12.2207 795 72.4717 389.84 507.346
151 0 66.0673 13.4106 886 71.1377 389.09 504.898
152 0 69.0505 12.3243 851 71.7086 389.203 507.949
153 0 72.0804 14.3035 1031 69.4132 388.999 504.697
154 0 74.0662 13.3259 987 70.227 388.075 504.648
155 0 75.0537 12.511 939 71.6954 388.681 500.232
156 0 78.0716 12.6038 984 71.813 388.69 500.827
157 0 81.1214 12.4135 1007 70.7517 388.679 501.184
158 0 84.0842 13.4032 1127 68.9343 387.963 500.62
159 1 44.0127 12.5873 554 68.213 388.031 517.316
160 0 44.0273 10.6525 469 71.258 389.051 516.429
161 0 46.051 12.2473 564 70.156 388.241 514.222
162 0 49.0148 11.7312 575 68.8609 387.327 516.068
163 0 50.0622 11.6255 582 70.4072 387.61 512.998
164 0 53.1709 12.1495 646 68.887 388.184 512.311
165 0 53.0708 12.4362 660 68.8591 388.179 512.152
166 0 55.057 12.5688 692 68.3324 387.501 510.983
167 0 58.0485 12.9547 752 67.3856 387.945 510.927
168 0 57.1407 11.9179 681 68.7416 387.965 510.59
169 0 59.141 11.1767 661 70.4962 387.853 508.274
170 0 61.1112 15.1691 927 65.0852 387.799 507.076
171 0 62.069 13.8555 860 66.0849 388.107 508.493
172 0 66.0288 12.858 849 66.8822 387.538 507.594
173 0 65.0872 12.2758 799 69.3742 387.615 503.123
174 0 70.0428 12.0355 843 68.4935 388.114 504.83
175 0 73.0835 12.4378 909 67.8086 388.295 503.142
176 0 72.1006 11.8446 854 69.171 388.352 502.259
177 0 76.1041 12.9559 986 67.5538 387.981 500.79
178 0 78.0889 13.4718 1052 66.77 388.286 500.055
179 0 79.0778 12.9872 1027 67.816 388.073 497.692
180 0 84.0951 11.7367 987 69.0162 387.129 498.449
181 0 87.0674 12.8177 1116 67.7303 387.278 497.082
182 1 43.0257 10.9237 470 68.1213 386.526 518.245
183 0 45.0355 11.1246 501 69.2136 386.267 516.174
184 0 45.0589 11.5848 522 68.4234 386.511 517.387
185 0 45.0546 10.8979 491 69.9715 385.839 516.432
186 0 48.0592 11.7771 566 68.3693 385.956 515.551
187 0 48.046 9.61579 462 71.3658 385.87 514.87
188 0 52.1514 12.2911 641 67.4072 385.808 512.793
189 0 52.0511 11.4311 595 68.8134 384.422 513.439
190 0 52.1038 10.6518 555 69.8847 384.573 512.84
191 0 56.1339 13.0937 735 66.4789 384.204 511.709
192 0 58.2174 12.0583 702 66.7293 383.929 513.234
193 0 59.0408 10.8569 641 68.8128 384.304 512.68
194 0 62.0533 13.1177 814 65.6708 384.236 511.096
195 0 63.069 12.193 769 67.2484 384.107 511.114
196 0 64.1353 11.429 733 68.603 383.69 511.995
197 0 67.0929 10.8059 725 68.3379 384.539 512.389
198 0 70.0889 11.2286 787 68.4066 383.736 511.438
199 0 72.0746 14.5544 1049 64.2297 382.809 508.572
200 0 74.0709 12.9066 956 66.4299 383.245 509.146
201 0 78.2739 12.8906 1009 65.9118 383.321 507.235
202 0 78.1396 10.4173 814 69.2973 383.285 507.951
203 0 82.0869 11.8046 969 67.5026 383.043 502.618
204 1 43.0739 10.0061 431 68.174 382.768 523.234
205 0 44.1489 10.0795 445 68.182 383.065 523.971
206 0 47.0546 12.4324 585 63.6615 382.569 524.072
207 0 47.038 11.7777 554 65.1913 383.354 523.567
208 0 46.0414 9.36115 431 68.8863 382.787 522.311
209 0 51.0393 12.461 636 64.305 383.061 522.671
210 0 50.0545 11.028 552 66.3822 383.304 521.516
211 0 54.0759 11.3729 615 64.9675 382.691 521.728
212 0 55.1575 12.0564 665 64.397 382.409 520.012
213 0 57.0631 12.0042 685 64.1095 381.975 518.531
214 0 59.1719 11.2046 663 64.6003 382.196 520.738
215 0 61.0718 12.1169 740 63.6946 381.704 518.092
216 0 62.074 11.9857 744 62.9019 381.734 518.794
217 0 65.0767 11.9398 777 63.8687 381.129 515.497
218 0 65.1164 11.6561 759 64.3979 381.099 513.011
219 0 67.0589 10.7219 719 65.2406 380.784 511.88
220 0 70.1325 11.6209 815 64.0957 381.124 511.81
221 0 74.1276 12.1277 899 63.0745 381.138 509.766
222 0 75.1411 11.5649 869 64.6605 380.766 507.863
223 0 77.0903 12.1157 934 64.0075 380.756 506.584
224 0 80.1391 11.4925 921 64.4647 380.881 504.726
225 0 82.0985 12.6068 1035 63.086 380.9 504.629
226 0 85.2062 13.6258 1161 61.6115 380.921 503.875
227 0 88.1393 11.8676 1046 63.87 380.809 501.538
228 0 91.058 12.0583 1098 63.7905 380.603 499.716
229 1 44.131 8.81466 389 65.0643 381.201 522.789
230 0 48.0635 11.6304 559 61.3041 381.308 520.123
231 0 50.0195 11.8754 594 60.7626 381.365 520.123
232 0 50.1047 11.8352 593 62.4182 381.253 517.668
233 0 51.0429 10.5597 539 64.0501 381.809 517.809
234 0 53.1109 11.0147 585 63.5162 381.576 517.267
235 0 54.1183 11.4933 622 63.336 380.532 515.564
236 0 58.0855 12.3439 717 61.5774 381.018 515.838
237 0 57.1843 10.405 595 64.0134 381.634 514.387
238 0 58.08 11.5875 673 63.1516 380.721 511.16
239 0 61.1131 12.1087 740 62.4649 381.782 511.196
240 0 63.1322 11.0087 695 64.3482 382.338 510.286
241 0 66.2319 11.1729 740 63.5703 382.369 509.128
242 0 66.0719 11.0032 727 64.5076 381.912 508.803
243 0 71.1121 13.8514 985 60.2457 381.921 508.06
244 0 71.1068 11.7429 835 64.188 382.022 503.957
245 0 75.2059 12.1533 914 63.1641 382.162 505.025
246 0 78.1319 13.1572 1028 62.0029 382.469 503.485
247 0 79.2257 12.2561 971 63.5294 382.057 500.029
248 0 84.1457 13.5361 1139 61.1572 382.206 501.302
249 0 87.098 13.192 1149 61.8268 382.849 500.044
250 0 89.1864 13.0625 1165 61.9691 382.355 499.709
251 0 90.1076 12.3297 1111 62.7444 382.079 498.455
252 1 44.0849 9.52707 420 61.4643 381.964 522.983
253 0 44.1018 10.5438 465 61.0366 382.705 523.361
254 0 46.1011 11.4748 529 60.2817 382.527 521.159
255 0 46.0483 11.8354 545 58.9505 382.541 522.833
256 0 49.0174 10.5065 515 60.7689 382.233 520.4
257 0 50.1771 11.4395 574 59.3885 382.148 520.293
258 0 53.0908 11.3579 603 59.1244 383.141 518.418
259 0 54.0432 11.1577 603 59.2554 382.874 518.325
260 0 56.1498 11.8789 667 58.2204 382.763 516.682
261 0 57.1869 11.034 631 59.1743 382.631 516.119
262 0 59.0619 10.1588 600 59.545 382.42 517.627
263 0 59.1012 10.6935 632 59.6361 382.055 513.009
264 0 63.1612 10.307 651 59.4101 382.161 514.143
265 0 65.0993 12.3504 804 57.2537 382.068 512.585
266 0 67.2667 11.5064 774 57.6641 381.925 513.075
267 0 70.2773 11.6396 818 57.7885 382.033 511.521
268 0 74.1367 11.9914 889 56.9494 381.522 511.906
269 0 73.1271 11.227 821 58.8477 381.618 508.603
270 0 77.1978 12.9149 997 56.5717 381.456 507.835
271 0 78.2594 15.7297 1231 53.55 380.869 507.748
272 0 81.1396 13.6925 1111 56.063 381.137 505.486
273 0 83.1283 12.2341 1017 57.6618 380.576 503.772
274 0 87.2798 12.9583 1131 56.939 380.312 504.502
275 1 42.0627 8.98658 378 58.9815 381.019 526.299
276 0 44.0223 11.0171 485 56.9237 381 524.946
277 0 45.0742 10.3607 467 58.3833 381.375 524.636
278 0 44.0522 10.4875 462 58.7944 380.887 523.091
279 0 49.0466 11.5197 565 56.7858 380.876 523.195
280 0 49.1023 10.1421 498 59.6024 380.944 521.958
281 0 50.0254 11.9739 599 57.4558 379.72 521.763
282 0 50.0964 11.2583 564 59.6365 379.959 522.03
283 0 54.1173 11.0501 598 58.7425 380.52 523.301
284 0 55.0667 11.1864 616 59.2581 380.112 520.675
285 0 55.0692 12.4389 685 57.1679 379.607 522.047
286 0 56.0993 11.0697 621 59.6473 379.14 520.451
287 0 59.1162 11.7227 693 58.6306 379.333 516.6
288 0 62.095 10.7416 667 59.0885 379.756 514.58
289 0 63.0821 12.2063 770 57.6026 379.678 514.581
290 0 65.1255 11.593 755 57.5338 379.015 516.501
291 0 67.0817 10.9568 735 59.2408 379.048 513.03
292 0 67.0567 10.3495 694 60.1297 379.107 513.61
293 0 70.0969 10.9277 766 59.6358 379.546 508.913
294 0 73.1477 11.0188 806 59.1439 380.184 510.98
295 0 76.1316 11.2437 856 59.1729 380.422 507.806
296 0 80.2547 12.1239 973 57.7431 380.32 507.452
297 0 82.1627 12.1345 997 57.2828 379.65 506.758
298 0 86.1501 10.9344 942 59.1062 379.78 503.673
299 0 87.1706 11.8274 1031 58.4762 379.479 502.762
300 1 47.051 10.563 497 57.9115 380.473 523.056
301 0 48.0605 10.4036 500 59.132 380.32 520.432
302 0 49.025 11.1372 546 58.2912 379.621 519.837
303 0 52.0481 11.6431 606 57.1848 379.54 520.441
304 0 54.1014 11.423 618 57.5922 379.484 518.526
305 0 55.0546 10.6985 589 58.4975 380.002 517.604
306 0 55.113 11.1045 612 58.8644 379.657 515.683
307 0 58.1256 10.9246 635 58.4252 378.666 515.929
308 0 62.0807 11.2434 698 57.5287 379.297 516.345
309 0 61.107 10.4407 638 59.674 378.832 514.669
310 0 61.1345 9.7817 598 60.4064 379.149 514.773
311 0 67.0954 13.4435 902 55.582 379.275 512.715
312 0 68.1464 13.3243 908 55.3866 379.406 513.132
313 0 72.0772 11.3489 818 57.7494 379.671 511.468
314 0 74.2003 12.6819 941 56.1424 379.223 510.312
315 0 72.1726 11.3339 818 58.478 378.451 508.881
316 0 77.2092 13.2497 1023 55.5367 378.81 509.682
317 0 78.2214 10.8666 850 58.7047 379.132 507.289
318 0 81.1683 12.6281 1025 57.119 378.247 503.583
319 0 83.217 10.9833 914 58.8796 378.956 502.046
320 0 85.2917 13.5183 1153 55.5915 378.953 500.892
321 0 87.1427 12.164 1060 56.8189 379.086 504.222
322 0 88.2453 10.3802 916 59.3166 379.278 498.939
323 0 94.1703 11.6916 1101 57.2579 378.836 497.176
324 0 96.1737 12.8933 1240 55.8185 379.118 498.192
325 0 98.2216 12.5532 1233 56.8532 378.805 492.644
326 0 100.193 12.2464 1227 56.9894 379.368 490.766
327 0 104.18 13.1984 1375 55.6531 378.7 491.609
328 0 106.282 11.5166 1224 57.4763 379.137 492.01
329 0 110.253 11.0654 1220 58.2639 378.827 491.422
330 0 113.204 11.6251 1316 58.0046 378.379 486.619
331 0 118.323 12.4068 1468 56.6655 378.748 489.542
332 0 119.185 12.468 1486 57.1016 379.035 486.122
333 0 124.234 12.4523 1547 56.903 378.467 484.282
334 0 125.241 11.7533 1472 57.8207 378.679 482.672
335 0 128.34 12.1396 1558 57.7882 379.521 481.44
336 0 133.297 12.9185 1722 56.6841 378.49 476.71
337 0 137.13 12.3168 1689 57.0634 378.741 481.105
338 0 140.146 13.2291 1854 56.5636 378.744 480.653
339 0 145.183 14.492 2104 55.3279 379.216 475.925
340 0 147.261 13.8802 2044 55.9051 378.998 476.865
341 0 154.221 13.8438 2135 56.1536 378.783 473.089
342 0 157.228 14.5648 2290 55.7852 378.593 467.773
343 0 158.286 12.0036 1900 59.0368 378.555 466.681
344 0 165.235 14.1072 2331 56.2716 378.625 465.678
345 0 171.28 14.2807 2446 56.3528 379.763 466.192
346 0 173.17 12.531 2170 58.7691 379.068 465.288
347 0 176.282 12.8941 2273 58.9243 379.756 462.486
348 0 184.243 13.5908 2504 57.9014 379.757 462.87
349 0 187.232 14.239 2666 57.7318 379.844 453.461
350 0 190.313 13.4988 2569 59.485 379.537 449.588
351 0 196.212 14.1836 2783 58.4923 379.603 453.471
352 0 202.239 14.7054 2974 58.0188 379.644 445.728
353 0 205.393 11.8943 2443 61.6107 379.506 448.551
354 0 210.341 12.4084 2610 61.3383 379.89 448.055
355 0 217.337 13.6562 2968 60.0334 379.397 436.416
356 0 224.443 13.3219 2990 60.6839 379.416 438.539
357 0 230.39 14.1369 3257 60.6082 379.263 433.828
358 0 237.543 13.2902 3157 61.7241 379.405 434.733
359 1 182.201 12.9033 2351 64.1289 380.027 455.558
360 0 189.289 13.3183 2521 63.4359 379.85 455.359
361 0 193.188 13.9346 2692 63.581 379.604 451.872
362 0 199.215 13.9799 2785 63.4995 379.716 454.692
363 0 204.343 13.4578 2750 64.7204 379.171 447.036
364 0 208.265 13.5549 2823 64.8413 379.451 447.115
365 0 214.309 12.2487 2625 66.4533 379.842 444.117
366 0 223.586 14.5179 3246 64.0881 379.237 440.302
367 0 228.348 13.8166 3155 65.3119 378.862 437.779
368 0 236.45 15.1195 3575 63.5323 379.283 427.124
369 0 243.279 14.8595 3615 64.4722 379.379 432.408
370 1 196.193 14.552 2855 67.4746 379.103 451.308
371 0 204.245 15.4765 3161 66.143 379.68 447.874
372 0 210.223 15.5026 3259 66.7453 379.242 446.751
373 0 214.216 13.8271 2962 69.0381 378.922 444.132
374 0 223.188 16.2778 3633 66.0776 379.21 436.468
375 0 230.374 15.3576 3538 67.6122 379.53 435.508
376 0 237.221 16.0188 3800 66.7284 379.676 434.671
377 1 82.0961 12.2296 1004 71.8307 379.922 505.95
378 0 86.091 12.3939 1067 73.4011 379.448 504.589
379 0 90.1192 14.0259 1264 71.6756 379.456 504.718
380 0 92.1109 15.0688 1388 71.2507 379.7 499.816
381 0 95.2034 14.989 1427 71.5256 379.171 500.045
382 0 98.1223 14.7877 1451 71.3067 379.289 501.183
383 0 99.2063 13.8902 1378 73.9782 378.995 497.5
384 0 103.169 15.3049 1579 71.2001 378.87 499.006
385 0 104.089 14.3723 1496 74.0869 378.807 494.042
386 0 107.118 15.9637 1710 71.4573 378.994 493.149
387 0 110.432 14.6878 1622 72.4945 379.435 492.965
388 0 114.23 15.9853 1826 70.3593 379.671 494.327
389 0 118.282 15.7504 1863 70.7837 379.118 491.978
390 0 120.168 15.8362 1903 70.8917 379.783 490.991
391 0 123.209 15.2911 1884 71.6407 379.053 488.061
392 0 126.101 16.2092 2044 70.637 379.394 485.379
393 0 130.202 14.923 1943 71.9774 379.501 485.436
394 0 131.283 13.9774 1835 74.1586 379.514 483.054
395 0 137.202 15.3569 2107 71.8106 379.519 481.103
396 0 141.186 16.3685 2311 69.9437 379.585 480.471
397 0 142.142 15.365 2184 71.4831 379.489 480.066
398 0 144.121 14.3976 2075 73.6969 380.175 478.04
399 0 150.128 14.541 2183 73.2497 379.755 476.86
400 0 156.341 15.3191 2395 71.7804 379.639 474.71
401 0 159.252 14.9511 2381 72.2944 379.721 474.508
402 0 162.252 16.8688 2737 68.487 380.228 472.475
403 0 162.299 14.7074 2387 74.623 379.51 470.23
404 1 84.1235 14.3955 1211 72.8893 380.548 507.74
405 0 84.2018 14.4415 1216 73.9038 379.53 504.877
406 0 89.1639 13.8397 1234 73.4668 380.147 505.684
407 0 92.2278 13.7703 1270 74.0591 380.435 502.09
408 0 93.2251 12.8613 1199 74.8265 380.077 502.873
409 0 95.1213 12.8257 1220 74.9754 380.365 502.049
410 0 99.1418 13.5765 1346 73.899 379.483 501.924
411 0 101.212 12.4491 1260 76.8357 379.41 497.826
412 0 104.164 13.1235 1367 75.9298 380.17 497.424
413 0 106.201 12.8624 1366 76.4561 380.052 496.319
414 0 111.283 15.1505 1686 73.2177 379.923 494.276
415 0 112.245 14.7267 1653 74.4834 378.701 491.514
416 0 113.105 14.0931 1594 75.9969 379.287 493.029
417 0 119.103 14.0635 1675 75.4627 379.664 490.902
418 1 180.373 14.6419 2641 76.7808 379.365 463.241
419 0 184.251 14.1437 2606 78.0388 379.444 460.319
420 1 127.234 13.6835 1741 76.463 379.23 486.451
421 0 131.239 12.9687 1702 77.0623 379.921 486.118
422 0 135.246 14.0855 1905 76.5937 379.375 483.87
423 1 65.1512 13.154 857 75.9977 378.987 515.875
424 0 66.1486 13.0313 862 76.5162 379.097 514.741
425 0 69.1125 12.429 859 75.7683 379.123 516.867
426 0 74.1288 11.1967 830 76.7639 379.401 516.608
427 0 72.1042 12.8287 925 77.0195 379.486 512.014
428 0 76.1136 12.9412 985 76.1817 379.289 511.603
429 0 78.1251 13.3504 1043 76.2608 379.331 508.005
430 0 77.1323 13.3018 1026 77.2973 378.917 509.212
431 0 80.1144 13.0438 1045 76.3388 379.504 511.902
432 0 83.1164 12.0313 1000 78.157 380.041 509.886
433 0 86.1003 13.4146 1155 76.4372 379.62 509.736
434 0 88.1719 13.916 1227 76.1198 379.885 505.917
435 0 90.1445 13.3674 1205 77.9577 379.476 505.705
436 0 91.1357 12.7502 1162 78.6756 379.68 504.477
437 0 96.113 13.3801 1286 77.9463 379.101 500.948
438 0 98.2335 14.4859 1423 77.0639 379.049 499.49
439 0 102.127 14.0904 1439 76.713 378.887 500.345
440 1 54.0613 12.8928 697 76.3128 379.623 521.29
441 0 56.1066 11.4781 644 76.5093 378.894 523.849
442 0 58.1784 13.4242 781 74.822 379.551 521.242
443 0 60.0652 12.4365 747 76.9237 379.054 518.859
444 0 59.1517 10.1772 602 80.2392 378.947 519.458
445 0 64.1276 13.5511 869 75.5788 378.543 516.717
446 0 64.1355 12.6451 811 77.3292 378.826 516.762
447 0 66.2414 11.76 779 77.6457 379.28 516.843
448 0 69.0871 13.8376 956 74.8421 379.75 517.22
449 0 70.1608 13.4976 947 76.5723 379.78 515.051
450 0 73.0954 13.3935 979 76.4923 379.583 513.767
451 0 77.2073 14.4416 1115 74.5211 380.253 511.759
452 1 36.0844 10.3369 373 79.0804 379.879 529.861
453 0 37.1228 12.5799 467 78.7709 379.887 527.805
454 0 39.0741 11.5422 451 78.5876 380.71 528.169
455 0 40.1395 10.613 426 79.5728 380.099 527.488
456 0 42.1836 12.8012 540 78.137 379.926 526.231
457 0 43.0858 11.7208 505 78.2059 379.77 527.901
458 0 45.0727 12.025 542 76.9945 380.28 526.633
459 0 46.0814 11.8052 544 77.8272 380.575 525.373
460 0 48.1208 13.57 653 75.6922 380.028 524.534
461 0 48.0672 11.8376 569 78 379.993 523.641
462 0 51.054 12.7512 651 75.5069 379.859 524.372
463 0 53.0955 12.9013 685 75.2584 379.712 523.658
464 0 51.0646 11.3973 582 78.3333 379.589 523.076
465 0 55.0892 14.4493 796 73.0452 380.003 521.046
466 0 56.118 12.349 693 76.5541 379.723 519.02
467 0 59.116 12.8053 757 74.996 378.839 519.424
468 0 61.0459 11.7289 716 76.2025 379.652 519.029
469 0 63.1061 13.5169 853 73.9625 379.052 517.291
470 0 63.1378 11.7838 744 77.1196 378.992 516.534
471 0 68.1167 13.8292 942 72.8333 379.374 513.883
472 0 69.3809 12.6404 877 74.8871 379.036 514.226
473 0 72.0963 13.2878 958 74.3173 379.224 512.307
474 0 76.1129 13.4274 1022 73.3023 379.611 512.391
475 1 40.1931 12.4399 500 74.034 379.618 528.152
476 0 41.076 12.343 507 75.0434 379.371 525.458
477 0 44.0999 13.3107 587 72.029 379.603 527.264
478 0 44.0892 12.1118 534 75.9457 379.339 524.199
479 0 46.268 12.3844 573 74.63 378.721 524.307
480 0 48.0692 13.3557 642 72.6277 378.531 523.97
481 0 48.2016 13.2153 637 73.6641 379.342 522.819
482 0 49.096 12.2413 601 75.0832 379.586 522.3
483 0 50.1167 13.5085 677 73.3456 379.235 521.261
484 0 54.1454 13.7038 742 71.7143 379.558 521.368
485 0 56.0834 14.2645 800 70.8825 379.749 519.725
486 0 58.18 12.5816 732 72.8798 379.673 520.243
487 0 59.1558 13.6081 805 71.4385 379.297 519.616
488 0 62.3613 13.0049 811 72.4982 380.127 518.631
489 0 64.1188 14.0676 902 71.1718 380.175 517.006
490 0 65.168 12.6903 827 72.8005 379.881 516.562
491 0 68.0895 13.2913 905 71.2442 379.767 517.039
492 0 68.2224 12.5032 853 73.973 379.369 513.329
493 0 70.1914 12.4089 871 73.7313 379.171 511.853
494 0 74.2177 14.3901 1068 70.2322 379.284 510.427
495 0 77.1773 13.6439 1053 70.7949 379.28 512.183
496 0 78.1964 13.6579 1068 71.6348 379.15 509.563
497 0 80.1413 12.7525 1022 72.6399 379.25 509.48
498 0 82.1848 11.462 942 74.1146 379.239 508.689
499 1 40.1572 10.7328 431 74.7471 379.469 525.487
500 0 44.1894 10.8397 479 72.8727 379.864 525.048
501 0 44.1085 11.5624 510 73.5255 379.163 524.127
502 0 47.1142 12.5864 593 71.2563 379.725 523.442
503 0 48.1031 13.3671 643 70.3095 378.857 522.802
504 0 51.2062 13.3968 686 68.8703 379.173 523.481
505 0 51.1688 12.8985 660 70.7924 379.053 520.327
506 0 53.14 11.2345 597 72.0101 378.729 521.04
507 0 54.0491 12.2296 661 70.5825 379.325 520.431
508 0 56.1853 12.5656 706 70.8499 378.941 517.806
509 0 60.1875 13.0758 787 68.1995 379.14 519.745
510 0 60.1864 12.6773 763 70.1468 379.274 515.946
511 0 63.2294 12.6207 798 69.8233 379.231 516.63
512 0 64.131 13.3009 853 69.5909 378.614 513.09
513 0 65.1887 12.3488 805 70.9801 379.14 513.417
514 0 70.1553 12.7004 891 69.5836 378.709 513.385
515 0 70.2308 11.5476 811 72.0345 378.789 512.036
516 0 72.2123 12.1447 877 71.2737 378.854 510.352
517 0 76.166 12.9585 987 70.3972 378.882 509.369
518 0 76.2347 10.7038 816 74.6091 378.643 508.311
519 0 81.2199 13.1741 1070 70.7355 379.044 508.133
520 0 81.2297 11.9784 973 73.3063 378.538 505.746
521 1 39.1576 10.3173 404 73.495 378.725 525.943
522 0 41.0351 11.015 452 72.5088 378.973 525.038
523 0 42.1244 11.1099 468 72.5833 378.915 524.808
524 0 42.1302 10.6337 448 73.067 378.748 525.569
525 0 46.0518 11.4654 528 71.1515 379.233 524.909
526 0 45.0884 11.3555 512 73.0039 378.908 522.072
527 0 46.0452 11.3584 523 72.4455 378.914 523.18
528 0 50.1083 12.8122 642 69.7648 378.556 522.332
529 0 50.0611 13.6433 683 68.5081 378.77 522.561
530 0 51.1164 11.6597 596 71.8188 378.636 521.846
531 0 53.1146 11.8611 630 72.3206 378.494 518.91
532 0 56.0727 12.5908 706 70.0467 378.626 519.671
533 0 57.1035 12.1359 693 71.1717 378.537 516.939
534 0 59.1081 12.6379 747 69.6051 378.455 517.023
535 0 62.0931 13.2704 824 68.6238 378.738 515.698
536 0 63.0613 12.4482 785 70.5873 378.946 514.382
537 0 66.2098 13.2156 875 68.4731 378.249 514.85
538 0 69.1398 11.455 792 70.4179 377.869 513.423
539 0 70.1637 12.1715 854 70.2131 378.371 512.057
540 0 73.1167 13.4169 981 68.6137 378.303 511.219
541 0 75.0657 12.7222 955 69.8963 377.849 507.618
542 1 42.0356 10.4911 441 69.1066 378.667 526.662
543 0 44.053 11.7813 519 67.1522 378.549 526.062
544 0 43.0916 11.023 475 69.1621 379.276 524.217
545 0 48.0325 12.783 614 64.399 378.178 525.306
546 0 48.0573 11.9441 574 66.7526 378.566 524.084
547 0 51.074 12.9616 662 64.7266 378.304 523.045
548 0 50.058 10.4079 521 68.9155 378.384 522.328
549 0 52.137 11.6616 608 67.7352 378.079 520.355
550 0 54.0467 12.8963 697 66.3142 377.811 518.003
551 0 54.0846 11.519 623 68.0112 378.247 519.278
552 0 58.1885 12.0471 701 66.495 378.508 519.425
553 0 59.143 11.9033 704 67.5994 378.703 516.635
554 0 63.1258 13.2434 836 65.3636 377.964 516.472
555 0 64.1193 12.9914 833 65.7395 378.715 515.371
556 0 64.0657 12.5652 805 66.6472 377.948 513.297
557 0 66.1426 10.1599 672 69.6116 379.031 511.522
558 0 71.1287 11.9642 851 66.4759 379.004 513.533
559 0 74.1398 12.962 961 64.8533 378.3 512.027
560 0 74.0929 12.4573 923 66.1614 379.283 508.326
561 0 80.1734 13.8076 1107 63.5592 378.792 509.745
562 0 80.0893 12.6484 1013 66.1135 378.436 505.714
563 0 82.1142 12.4826 1025 66.3337 378.177 506.694
564 0 85.1366 13.1671 1121 66.0062 378.649 503.445
565 1 46.096 11.3242 522 64.1015 379.144 525.18
566 0 46.1511 11.3973 526 65.1597 379.259 524.466
567 0 49.0534 11.8646 582 63.5567 379.436 522.881
568 0 48.0241 11.7649 565 65.4796 379.173 521.237
569 0 52.0362 12.549 653 63.7749 378.772 521.346
570 0 52.0498 12.4688 649 64.1649 378.829 520.236
571 0 53.1764 10.8319 576 66.6163 378.533 518.427
572 0 53.1078 11.6179 617 65.5883 378.382 518.614
573 0 57.087 12.3145 703 63.8962 379.08 518.595
574 0 59.2231 13.3563 791 62.6561 379.446 517.281
575 0 59.168 13.2504 784 63.7092 378.421 514.679
576 0 61.0834 13.2933 812 63.3682 378.92 514.544
577 0 65.171 14.1781 924 60.9069 378.594 515.406
578 0 67.155 12.8211 861 62.8397 379.081 512.224
579 0 68.1736 12.5855 858 63.0361 380.14 513.269
580 0 71.2143 13.8877 989 61.2356 380.101 512.299
581 0 70.1965 12.1801 855 63.5836 380.16 511.871
582 0 75.1326 14.0951 1059 60.2672 380.534 510.992
583 0 75.3303 13.6997 1032 61.1366 380.812 507.255
584 0 77.179 12.1277 936 63.0385 380.172 506.213
585 1 41.117 11.5767 476 61.7563 380.023 525.901
586 0 44.1124 10.7679 475 63.6168 380.653 523.888
587 0 45.1569 12.0469 544 62.3713 379.835 524.099
588 0 45.0671 13.0472 588 61.9609 379.638 521.915
589 0 47.224 11.0537 522 64.4732 379.887 521.165
590 0 48.1203 12.0947 582 64.2354 379.62 520
591 0 50.1866 11.9354 599 63.9633 379.482 519.85
592 0 50.3198 12.5597 632 64.2816 379.418 518.816
593 0 52.2066 12.6612 661 63.056 379.345 520.723
594 0 51.305 11.227 576 66.1302 379.611 516.747
595 0 54.092 11.2216 607 66.1911 379.109 520.002
596 0 57.1538 12.5626 718 64.422 379.574 516.733
597 0 57.158 11.512 658 66.1368 379.027 515.552
598 0 58.1137 12.3207 716 65.5182 379.529 514.056
599 0 60.1419 12.803 770 65.4273 379.561 514.03
600 0 62.0925 12.5136 777 65.8919 379.582 516.021
601 0 63.1302 11.5159 727 67.1939 379.293 514.206
602 0 65.1426 11.59 755 67.4583 379.167 511.656
603 0 69.2172 13.5949 941 64.3518 379.214 512.787
604 0 70.1205 12.8208 899 65.1168 379.43 513.67
605 0 72.2299 11.5188 832 67.9567 379.744 510.081
606 0 75.1712 14.7796 1111 63.6058 379.801 509.402
607 0 78.3121 13.344 1045 65.3579 380 510.471
608 0 78.2238 12.95 1013 67.3011 379.652 506.832
609 1 43.1463 11.7507 507 66.1598 380.245 524.183
610 0 44.1547 12.7053 561 65.4777 380.374 523.362
611 0 46.1053 12.4932 576 65.1059 380.134 525.932
612 0 48.1611 13.621 656 64.3445 380.602 524.912
613 0 49.1745 13.3199 655 65.2687 379.064 524.409
614 0 49.1261 13.333 655 66.6504 380.215 522.229
615 0 51.2377 12.6079 646 67.7399 379.505 520.915
616 0 54.1514 15.0873 817 63.858 380.073 520.482
617 0 55.2228 14.0522 776 65.5064 380.406 520.102
618 0 56.1531 13.5344 760 66.8671 380.351 519.796
619 0 56.1882 14.1133 793 67.1778 380.15 517.85
620 0 60.1282 15.0678 906 64.7097 380.221 518.54
621 0 59.162 14.0293 830 67.6157 380.301 515.866
622 0 61.1368 13.0691 799 68.1527 380.025 516.738
623 0 62.1058 12.9456 804 69.5833 379.873 512.713
624 0 66.1365 13.3512 883 68.1495 380.766 514.086
625 0 67.1199 14.5858 979 67.2564 380.046 512.349
626 0 67.1394 14.2837 959 68.0959 380.498 512.754
627 0 71.2365 13.9395 993 68.2105 379.716 510.366
628 0 72.15 13.2779 958 69.3058 380.546 511.491
629 0 76.1836 13.5725 1034 68.6006 379.981 510.938
630 0 81.1205 14.9407 1212 66.6031 380.117 509.87
631 0 81.2146 13.3597 1085 69.6396 379.684 506.793
632 0 81.1118 14.0547 1140 69.4868 379.827 505.888
633 0 86.2013 13.9673 1204 69.9701 380.216 504.693
634 0 88.1685 12.9638 1143 71.3561 380.478 506.073
635 0 90.2281 14.5963 1317 69.7593 380.538 503.124
636 1 48.095 12.3714 595 69.8336 381.224 522.963
637 0 52.1389 12.3324 643 69.2613 380.826 521.166
638 0 49.1139 13.2549 651 70.3978 380.338 518.175
639 0 50.1809 12.8136 643 70.9751 380.677 519.77
640 0 54.1477 14.0726 762 68.6142 380.406 519.375
641 0 55.2722 13.4245 742 69.6011 380.435 519.039
642 0 57.1576 12.7892 731 70.7483 380.68 519.834
643 0 59.1856 13.7364 813 69.0369 380.76 519.724
644 0 58.1314 12.4373 723 71.7192 380.263 517.343
645 0 62.0835 12.902 801 70.8402 380.195 515.089
646 0 63.1863 12.7085 803 71.2466 380.034 514.689
647 0 65.4245 13.2978 870 70.0483 380.299 514.177
648 0 66.2103 12.415 822 71.5864 380.455 511.845
649 0 69.1437 12.4234 859 71.461 379.949 509.834
650 0 72.197 12.7152 918 70.6961 380.379 509.991
651 0 72.1254 11.9653 863 71.6593 380.74 510.38
652 0 76.2469 12.4595 950 70.8411 380.429 508.108
653 0 77.1843 13.0597 1008 69.9325 380.365 506.458
654 0 80.0675 11.0282 883 72.5062 379.713 506.154
655 0 80.2462 10.717 860 73.5256 378.858 504.103
656 0 83.0995 11.2275 933 73.4555 379.638 500.341
657 0 85.243 10.9335 932 74.0536 380.594 498.632
658 0 87.2563 10.3603 904 74.823 379.82 498.707
659 0 92.1564 11.7409 1082 72.8244 379.709 498.275
660 1 44.0902 8.73211 385 74.2831 380.665 520.636
661 0 45.135 9.72637 439 72.3895 380.704 516.342
662 0 48.3437 9.08081 439 73.0159 380.472 519.351
663 0 49.1143 9.87492 485 72.0186 379.992 517.342
664 0 49.1467 10.2754 505 72.1366 380.291 517.802
665 0 51.1086 9.45047 483 72.6915 380.135 516.014
666 0 48.1842 8.1562 393 73.7837 380.369 514.7
667 0 55.1699 9.86044 544 71.5974 380.015 514.836
668 0 55.1555 8.92024 492 73.063 379.988 512.579
669 0 55.1662 7.68586 424 74.2995 380.288 515.743
670 0 55.1872 8.93324 493 73.785 380.627 511.004
671 0 56.1688 6.71191 377 75.687 380.782 510.141
672 0 62.1493 6.951 432 75.0347 380.722 507.507
673 0 63.0966 7.70248 486 73.7387 380.401 501.226
674 0 65.3329 6.35209 415 74.9205 380.716 496.99
675 0 69.1914 8.70051 602 74.1844 380.92 505.894
676 0 72.3655 10.1153 732 72.638 380.404 504.492
677 0 71.1215 6.5381 465 76.7441 380.697 496.458
678 0 73.1762 5.28861 387 78.708 380.806 492.129
679 0 79.1444 7.74534 613 76.4682 380.935 494.998
680 1 37.0244 8.37286 310 74.4839 380.726 521.387
681 0 46.026 11.3197 521 69.5624 380.276 524.067
682 0 47.0419 11.7555 553 69.2007 381.277 523.703
683 0 49.0376 11.2159 550 70.7764 381.044 522.604
684 0 49.0639 11.7806 578 70.0242 380.291 522.398
685 0 51.1396 12.3192 630 69.4095 380.089 522.7
686 0 51.1139 11.132 569 70.7223 380.141 522.889
687 0 54.2069 11.5852 628 70.7118 379.737 521.252
688 0 54.2232 9.14738 496 73.7379 380.966 523.234
689 0 57.1935 12.4315 711 70.2264 380.662 521.063
690 0 56.2461 10.5252 592 71.9899 380.671 521.258
691 0 59.111 12.2312 723 70.8797 380.267 517.686
692 0 61.0791 11.1004 678 72.6593 380.706 517.807
693 0 62.0716 11.8412 735 72.1456 379.897 517.114
694 0 65.129 12.6672 825 70.8339 380.358 515.925
695 0 67.1028 12.4883 838 70.9296 380.455 516.28
696 0 69.1212 12.196 843 71.9751 379.497 514.253
697 0 71.1769 11.3801 810 72.6272 379.975 515.021
698 0 75.2485 13.9272 1048 68.6489 379.784 512.877
699 1 38.0146 9.99617 380 71 380.274 531.142
700 0 38.0271 11.3866 433 70.3949 380.39 528.236
701 0 41.056 10.1812 418 71.7488 380.278 526.533
702 0 43.0773 11.0035 474 70.4641 380.521 527.025
703 0 44.0434 11.8292 521 69.547 380.008 526.678
704 0 44.1388 12.8912 569 68.5483 379.824 526.06
705 0 47.0944 11.5088 542 69.9022 379.838 525.965
706 0 48.0527 12.6112 606 68.9967 379.417 523.833
707 0 51.0396 12.5001 638 68.1238 379.972 524.649
708 0 49.1151 12.0126 590 69.9288 379.173 524.446
709 0 51.0393 10.874 555 70.9802 379.506 523.595
710 0 54.0498 11.7114 633 70.2291 379.724 521.63
711 0 55.0908 12.1436 669 70.6442 379.581 519.371
712 0 56.0558 11.0961 622 72.2669 380.047 520.875
713 0 59.065 11.7328 693 70.4921 379.408 521.205
714 0 58.0978 9.7594 567 74.4021 379.824 519.053
715 0 61.0285 11.2734 688 72.5262 379.58 518.09
716 0 63.07 11.1622 704 72.1094 379.787 517.344
717 1 112.276 14.3219 1608 60.5877 379.57 499.964
718 1 94.1254 14.81 1394 56.1011 379.74 504.286
719 0 98.3496 13.9807 1375 57.5425 379.993 503.991
720 0 87.167 21.8202 1902 51.2424 378.924 501.617
721 0 85.2168 16.0062 1364 60.1488 379.961 505.281
722 0 84.4338 16.2731 1374 60.3726 379.525 501.98
723 0 87.1562 18.53 1615 57.9257 378.929 500.814
724 0 90.2456 22.0398 1989 53.7833 378.727 497.352
725 0 90.1023 17.7132 1596 60.1021 379.848 498.192
726 0 90.1808 14.7371 1329 66.31 379.698 503.121
727 0 91.2176 14.7121 1342 67.1461 379.098 503.815
728 0 91.287 14.7557 1347 68.3868 378.962 503.399
729 0 93.2591 14.2935 1333 70.1523 378.991 502.729
730 0 93.2726 12.6404 1179 74.0585 379.509 502.711
731 0 95.37 12.0583 1150 75.287 379.01 500.621
732 0 98.3691 12.9919 1278 73.5923 379.261 499.585
733 0 102.482 12.9779 1330 73.8241 379.499 498.702
734 0 105.346 13.5933 1432 72.6355 379.317 497.854
735 0 107.315 12.1978 1309 74.0924 379.288 498.984
736 0 109.342 11.7064 1280 74.793 379.565 498.984
737 0 113.292 12.1015 1371 74.3275 379.836 495.073
738 0 115.501 11.0648 1278 75.4687 379.887 495.306
739 0 118.331 12.0425 1425 74.5965 379.662 493.855
740 0 124.539 12.1087 1508 72.6996 380.351 497.131
741 0 123.402 12.4552 1537 73.5003 380.237 493.336
742 0 134.564 10.3668 1395 75.552 379.626 492.366
743 0 133.548 12.3776 1653 73.8482 380.101 486.533
744 0 138.412 12.0293 1665 73.9459 379.476 487.422
745 0 142.485 11.9381 1701 74.5708 378.838 483.076
746 0 146.483 12.5065 1832 73.5644 379.35 482.109
747 1 113.423 13.5422 1536 71.1152 379.554 498.703
748 0 113.416 11.2858 1280 75.5227 379.485 497.58
749 0 116.35 11.517 1340 76.0582 380.019 493.427
750 1 38.0789 10.2419 390 73.2051 379.733 530.8
751 0 41.0641 11.4212 469 71.1429 379.222 530.362
752 0 41.0413 11.4032 468 71.5919 379.199 530.147
753 0 42.0819 11.0261 464 73.5668 379.181 528.713
754 0 44.1418 12.1427 536 72.3806 379.287 526.347
755 0 46.1544 12.4582 575 71.8261 378.72 527.043
756 0 47.123 12.4355 586 71.5085 378.928 527.235
757 0 48.2001 11.1203 536 74.056 378.414 525.694
758 0 52.0688 12.5795 655 71.0336 379.519 525.38
759 0 52.1003 13.5892 708 70.0847 378.757 523.21
760 0 54.0902 11.3329 613 72.801 378.77 524.56
761 0 54.0705 11.7809 637 72.8854 379.176 523.857
762 0 55.1946 11.0337 609 74.6716 378.979 522.553
763 0 58.0596 12.935 751 71.3981 378.503 520.501
764 0 61.1242 13.9061 850 68.9153 378.919 520.245
765 0 62.0841 11.7582 730 73.3397 378.666 518.692
766 0 63.1025 12.1548 767 72.7327 379.666 515.945
767 0 65.0857 12.3069 801 71.613 379.187 518.336
768 0 70.0569 13.4462 942 69.4193 378.967 515.403
769 0 70.0435 12.3495 865 71.7584 379.258 513.8
770 0 74.0986 14.0758 1043 68.6184 379.532 512.398
771 0 73.0496 11.8139 863 73.0104 379.627 512.797
772 0 76.0895 12.6167 960 71.8677 379.507 509.27
773 0 81.0753 12.6549 1026 71.0858 379.591 508.827
774 0 82.1185 12.6403 1038 72.027 379.398 508.385
775 0 87.123 13.8884 1210 69.2521 379.719 507.807
776 0 86.0798 12.2909 1058 72.6966 379.209 504.699
777 0 92.0968 14.7236 1356 67.8658 379.069 503.426
778 1 49.0293 11.4625 562 71.6601 379.084 523.81
779 0 52.0983 11.8622 618 70.3269 379.27 524.131
780 0 52.1366 11.8343 617 71.2399 378.507 524.501
781 0 53.0538 11.4601 608 72.3273 378.975 522.762
782 0 56.0488 12.2572 687 70.4221 378.951 521.955
783 0 56.1119 11.5662 649 71.3837 378.549 519.507
784 0 59.0542 12.4462 735 69.2707 378.728 517.395
785 0 61.0618 12.1025 739 69.0528 378.459 517.333
786 0 62.0491 12.4901 775 68.5961 378.69 515.728
787 0 65.0751 12.8621 837 67.497 378.989 513.993
788 0 65.1741 13.1801 859 66.8964 378.75 515.607
789 0 71.1527 14.2229 1012 64.6304 378.673 513.482
790 0 71.1089 12.1785 866 68.0219 378.957 512.114
791 0 72.0265 12.1761 877 68.0992 378.553 511.179
792 0 76.0612 13.1604 1001 65.7353 378.556 508.957
793 0 78.1324 12.2868 960 67.3812 378.503 508.344
794 0 80.1627 13.9217 1116 65.0744 379.198 505.146
795 0 83.0408 12.6323 1049 66.7979 379.112 504.943
796 0 88.1323 13.6499 1203 64.8703 378.689 504.337
797 1 47.0459 11.6695 549 67.1749 378.678 523.404
798 0 50.0611 13.5035 676 64.0784 378.49 522.243
799 0 52.0573 11.0839 577 67.2062 378.664 522.582
800 0 52.071 12.5022 651 66.4316 378.654 518.605
801 0 55.0441 13.2258 728 64.6332 378.6 519.179
802 0 56.049 11.8289 663 66.9532 378.745 517.925
803 0 57.0593 11.7948 673 67.0773 378.446 516.174
804 0 60.0376 11.7593 706 66.3569 378.293 517.669
805 0 64.1761 13.9927 898 62.6091 378.577 513.941
806 0 64.0486 12.7091 814 64.8022 378.714 514.173
807 0 66.0965 13.1021 866 63.4861 379.05 514.289
808 0 68.0498 13.8575 943 62.8399 377.843 513.249
809 0 69.0474 11.789 814 65.6388 378.354 512.29
810 0 74.0827 15.3342 1136 59.2923 378.184 512.177
811 0 73.0652 11.3871 832 65.357 378.828 509.246
812 0 76.0939 12.616 960 62.8365 378.976 510.002
813 0 80.0261 13.0832 1047 61.447 379.33 508.15
814 0 82.2541 12.8261 1055 61.836 379.443 507.276
815 0 83.0528 10.8726 903 64.557 379.195 505.821
816 0 87.0638 11.4629 998 63.8367 379.043 503.899
817 0 90.1215 12.4166 1119 62.3914 379.051 501.951
818 1 48.0602 10.5076 505 61.2594 379.606 523.705
819 0 49.0543 9.3366 458 62.4847 379.729 523.055
820 0 50.0449 10.5106 526 60.3669 379.741 523.74
821 0 52.0503 10.1056 526 61.0779 379.772 522.494
822 0 53.081 9.73984 517 61.7505 379.861 521.006
823 0 54.0511 9.75004 527 62.2087 378.998 517.867
824 0 57.0891 10.8602 620 61.0274 379.131 518.09
825 0 58.0194 11.2721 654 60.9052 379.593 516.424
826 0 60.0902 10.3677 623 61.8716 379.074 515.653
827 0 64.0738 12.8446 823 58.0996 379.468 515.719
828 0 65.1467 11.1748 728 59.9492 379.136 516.501
829 0 68.2318 12.2377 835 59.0084 378.919 514.454
830 0 72.0703 12.5711 906 58.6302 379.236 513.646
831 0 73.0968 10.8076 790 61.0228 379.373 512.586
832 0 73.1049 10.697 782 61.5435 379.04 512.134
833 0 77.1413 9.34649 721 62.4341 378.345 511.463
834 0 79.1337 12.1314 960 59.4042 378.792 511.918
835 0 83.1402 11.9677 995 58.6422 378.812 511.222
836 0 86.1521 12.2806 1058 59.0132 378.604 506.986
837 0 86.1965 10.6269 916 61.5721 378.338 505.504
838 0 90.1028 11.2094 1010 61.4356 378.372 502.648
839 0 94.2903 10.3086 972 62.1512 377.866 502.137
840 1 50.2063 10.3573 520 59.7731 378.29 524.273
841 0 50.1055 10.8571 544 59.8033 378.406 524.425
842 0 52.086 9.40752 490 61.6878 378.441 524.847
843 0 54.1757 10.6875 579 60.6425 378.75 523.826
844 0 54.2041 11.4936 623 60.2456 379.161 523.596
845 0 58.0409 10.6649 619 60.8659 378.53 520.709
846 0 58.0868 10.6048 616 61 378.102 519.419
847 0 60.1428 10.8242 651 60.1598 378.582 521.399
848 0 60.0965 9.68442 582 62.1254 379.211 520.055
849 0 65.1218 10.7644 701 60.2625 378.272 520.583
850 0 65.1681 10.143 661 61.6657 378.628 518.3
851 0 68.1118 12.6557 862 58.9269 379.013 514.667
852 0 69.0403 12.2392 845 58.5183 378.451 514.291
853 0 72.1321 13.0039 938 56.7825 378.823 514.696
854 0 74.2673 11.3778 845 58.8663 378.809 509.298
855 0 75.0767 11.5482 867 58.5421 378.873 508.71
856 0 80.1532 11.6901 937 57.8986 378.391 511.561
857 0 81.1854 11.5538 938 58.307 378.271 508.795
858 1 40.0797 9.0819 364 59.7857 377.731 530.591
859 0 41.0117 9.58264 393 59.3944 377.924 529.267
860 0 45.0481 10.966 494 56.3907 377.8 531.213
861 0 46.071 10.2016 470 59.1064 377.577 530.211
862 0 46.0906 10.1105 466 60.2124 378.616 529.888
863 0 48.1157 11.9711 576 57.7344 377.413 528.672
864 0 47.0885 11.043 520 59.7058 377.594 527.256
865 0 49.043 11.1127 545 59.8183 378.062 524.558
866 0 50.0742 10.8239 542 60.5904 377.882 524.734
867 0 54.0545 11.5069 622 58.9437 377.595 524.55
868 0 55.0249 11.5947 638 59.2618 378.301 523.873
869 0 55.0563 11.352 625 60.3536 378.586 521.322
870 0 57.1252 10.6083 606 60.929 378.381 521.34
871 0 59.0795 10.9344 646 60.1997 377.827 521.113
872 0 61.1382 10.8443 663 59.7179 377.694 522.964
873 0 62.1236 12.1532 755 58.5152 377.521 519.126
874 0 69.1445 14.8385 1026 53.3509 377.861 512.231
875 0 70.1809 13.3797 939 55.3216 377.088 513.317
876 0 74.2121 14.1756 1052 53.7823 378.335 514.883
877 0 74.1813 14.141 1049 54.3251 378.724 512.015
878 0 75.3313 13.7393 1035 54.6184 378.843 515.187
879 0 75.1957 12.8465 966 56.7174 378.853 512.269
880 0 77.405 12.8674 996 57.2169 378.785 509.553
881 0 81.2122 11.9687 972 57.8879 378.72 511.828
882 0 82.27 11.2556 926 58.8175 377.987 511.498
883 0 85.2313 11.6037 989 58.5167 378.795 505.949
884 1 44.168 10.2563 453 59.521 378.044 528.064
885 0 45.0483 10.966 494 58.8704 378.206 527.49
886 0 46.0984 11.0633 510 59.6882 378.367 527.22
887 0 47.0671 11.0056 518 58.7568 378.048 527.647
888 0 51.0956 12.0558 616 57.25 378.354 526.17
889 0 50.1366 9.69353 486 61.2881 378.245 525.533
890 0 52.1204 10.706 558 59.6703 378.337 526.254
891 0 53.095 11.583 615 58.6748 378.351 524.977
892 0 57.0611 11.4439 653 58.3139 378.335 522.743
893 0 57.1988 11.6786 668 58.3219 378.249 523.156
894 0 58.0967 12.4792 725 57.5986 377.537 521.32
895 0 61.1127 11.9124 728 57.8201 377.493 520.909
896 0 60.1394 10.3426 622 60.5691 377.579 520.394
897 0 64.1194 10.8859 698 59.7693 377.203 519.974
898 0 66.1215 10.1782 673 59.9792 378.092 519.942
899 0 66.1317 10.7966 714 59.9496 378.304 517.076
900 0 70.256 11.9847 842 57.5451 378.156 518.089
901 0 69.0429 11.0656 764 60.0092 378.191 514.616
902 0 71.133 10.3187 734 59.9319 378.025 517.552
903 0 72.044 11.2709 812 59.0788 377.73 513.021
904 0 75.0875 11.8395 889 58.2407 377.478 510.242
905 0 77.2268 10.89 841 58.0737 377.463 513.944
906 1 39.0703 9.13738 357 59.1401 377.714 531.882
907 0 38.1157 9.70728 370 60.9459 378.224 528.808
908 0 40.0838 9.75456 391 60.7801 378.926 526.916
909 0 42.1417 9.37314 395 61.6203 378.511 528.008
910 0 45.0784 11.4467 516 57.9981 379.355 527.473
911 0 44.0498 10.4427 460 59.9978 379.73 527.963
912 0 46.085 9.93816 458 60.893 380.052 525.528
913 0 50.0397 12.2902 615 56.6081 380.189 525.473
914 0 49.0534 11.4569 562 58.5445 378.931 523.267
915 0 51.0642 10.1441 518 59.388 378.564 523.351
916 0 54.1241 10.3281 559 59.0304 378.336 523.565
917 0 53.0577 11.0446 586 59.0648 378.213 521.503
918 0 56.0836 11.0371 619 58.3603 378.076 524.267
919 0 59.0874 12.6592 748 56.1992 378.226 522.015
920 0 62.0789 11.5176 715 57.3706 378.779 522.343
921 0 60.0885 10.884 654 58.9587 378.696 519.703
922 0 61.0311 10.9125 666 58.997 377.997 519.959
923 0 64.048 12.1003 775 56.6155 377.169 519.341
924 0 68.1049 12.378 843 55.6216 378.122 516.03
925 0 67.1306 11.202 752 57.6449 378.326 514.375
926 0 71.1243 12.921 919 55.5626 377.898 515.678
927 0 72.0519 14.0732 1014 54.3057 378.738 514.635
928 0 73.0407 14.2386 1040 54.6519 378.138 511.297
929 0 75.0784 11.7477 882 57.534 378.737 512.821
930 0 77.0791 13.2591 1022 55.5675 379.479 509.664
931 0 79.0805 12.4177 982 56.8279 379.576 509.137
932 0 83.0731 13.3015 1105 55.3005 379.336 511.42
933 0 84.0914 12.6529 1064 57.0197 379.17 506.027
934 1 42.0475 9.56062 402 59.6219 380 528.644
935 0 42.0618 10.0566 423 59.3239 379.983 529.298
936 0 47.089 11.1916 527 58.4668 379.879 526.884
937 0 47.0536 12.6027 593 57.9663 378.825 525.563
938 0 48.0175 11.9748 575 59.1026 379.558 525.668
939 0 49.0244 11.0557 542 60.6993 380.284 523.937
940 0 49.0307 12.0945 593 59.5885 379.745 524.487
941 0 54.1028 11.7924 638 60.0549 379.519 521.737
942 0 55.0336 15.2816 841 56.1677 378.784 522.847
943 0 55.0378 13.518 744 58.9395 379.276 521.684
944 0 57.0409 14.0951 804 58.4527 379.637 521.973
945 0 57.0516 13.5141 771 59.4968 379.355 522.191
946 0 61.029 13.3379 814 60.1929 379.763 519.771
947 0 62.2024 12.0253 748 61.8275 379.604 520.353
948 0 63.0524 12.3865 781 61.8284 379.658 519.695
949 0 64.035 12.8992 826 62.3874 379.844 517.799
950 0 63.0209 12.5038 788 63.8985 379.464 519.103
951 0 67.0689 13.4489 902 62.7827 379.294 517.45
952 0 66.0818 14.1643 936 63.3387 379.335 516.254
953 0 68.0607 13.7671 937 63.8677 379.999 516.712
954 0 70.0501 14.9465 1047 63.5597 379.563 515.399
955 0 69.0575 13.7422 949 66.3604 379.478 514.825
956 0 73.0707 14.5612 1064 65.8741 379.197 514.117
957 0 73.1534 13.834 1012 68.5553 378.976 513.82
958 0 69.0831 15.7491 1088 65.6994 379.843 513.331
959 0 68.0331 14.8898 1013 73.7453 379.529 514.837
960 0 68.064 13.4579 916 77.3537 379.448 516.234
961 0 67.0752 13.5818 911 78.8661 379.895 515.814
962 0 72.0683 15.1107 1089 75.0083 380.04 516.409
963 0 67.0348 13.8137 926 82.6134 379.751 514.406
964 0 67.1056 15.4085 1034 81.4507 379.51 518.149
965 0 68.0709 15.4104 1049 82.8332 379.178 515.174
966 0 67.0656 14.7617 990 85.8616 379.329 515.671
967 0 68.0462 14.3138 974 87.5965 379.265 515.187
968 0 71.0825 16.2065 1152 83.1536 379.333 516.122
969 0 70.0509 16.3881 1148 84.5723 379.235 515.013
970 0 71.0628 14.3816 1022 89.0959 379.563 516.494
971 0 71.0935 15.5289 1104 87.8043 379.034 515.381
972 0 71.4295 16.8278 1202 86.5266 379.83 515.923
973 0 68.6469 15.8201 1086 91.5635 380.225 515.483
974 1 20.1139 11.5343 232 118.694 382.957 540.72
975 0 17.1153 11.6855 200 132.875 382.43 541.185
976 0 19.082 11.4768 219 130.26 382.461 541.84
977 0 18.2336 11.6817 213 135.521 382.023 540.624
978 0 17.0314 13.0348 222 133.955 381.586 542.491
979 0 18.1787 12.3771 225 136.596 382.604 542.173
980 0 17.0112 10.9927 187 146.102 382.364 541.385
981 0 17.0194 12.1626 207 141.652 381.478 541.855
982 0 19.0579 12.1734 232 135.655 381.181 541.444
983 0 19.0181 13.7238 261 129.349 381.211 541.586
984 0 23.4525 11.939 280 138.404 381.943 539.971
985 0 25.8041 13.0987 338 136.654 381.595 538.757
986 0 24.6863 13.6108 336 142.44 381.583 538.821
987 0 25.6708 12.7382 327 137.801 381.713 539.098
988 0 27.5785 13.3075 367 134.332 381.668 538.365
989 0 26.3557 14.3423 378 131.881 381.029 537.937
990 0 25.5917 13.5591 347 138.366 381.251 538.464
991 0 27.3485 13.5657 371 136.04 380.844 537.453
992 0 30.1128 13.4494 405 134.062 380.931 536.733
993 0 32.3409 14.9037 482 127.51 381.554 534.241
