time division length width area intensity CMx CMy
0 0 43.0324 11.5959 499 61.9279 280.818 469.629
1 0 44.0908 11.7031 516 61.7558 280.659 468.591
2 0 47.0571 10.7741 507 62.4418 280.868 469.785
3 0 49.1048 11.9337 586 61.2201 280.558 469.466
4 0 49.2257 11.5184 567 62.0247 280.771 468.691
5 0 54.0935 11.0549 598 61.8395 280.304 466.319
6 0 51.0311 10.5818 540 63.1222 280.1 467.887
7 0 55.1471 12.3669 682 60.3314 279.117 467.192
8 0 58.0762 10.4174 605 62.2744 279.296 463.681
9 0 59.1134 13.4487 795 59.3107 279.425 463.409
10 0 60.0311 11.8938 714 60.7647 279.665 464.335
11 0 63.2425 13.0608 826 59.5024 279.356 461.829
12 0 64.1215 13.0066 834 59.5336 279.109 460.023
13 0 65.2304 10.7159 699 62.2046 278.974 461.441
14 0 72.3368 12.8012 926 59.3391 279.305 457.951
15 0 74.208 12.438 923 59.6154 278.844 461.369
16 0 75.2532 12.4247 935 59.9166 279.112 458.737
17 1 39.1185 8.3081 325 63.5415 278.412 475.886
18 0 41.0199 10.2389 420 61.1405 278.693 476.345
19 0 44.3091 12.2097 541 59.5582 278.802 472.965
20 0 43.2157 10.1815 440 62.7341 278.995 472.418
21 0 44.2862 10.7257 475 62.5747 278.579 470.897
22 0 44.0827 10.1854 449 63.539 278.902 468.412
23 0 50.3059 12.583 633 59.4092 278.995 471.234
24 0 46.1288 10.2539 473 63.5476 279.159 469.44
25 0 51.1876 12.21 625 60.4512 278.285 471.282
26 0 51.0785 11.8837 607 61.9044 278.456 466.072
27 0 54.1965 11.3661 616 61.4562 278.508 469.44
28 0 56.0565 10.311 578 62.801 278.199 466.941
29 0 60.2536 12.4308 749 60.5274 278.39 464.562
30 0 61.0829 12.4749 762 60.5958 278.996 465.437
31 0 62.3136 13.1753 821 59.8453 278.778 462.934
32 0 64.0408 13.3196 853 59.1465 278.55 465.93
33 0 67.1746 11.939 802 60.3741 278.081 463.037
34 0 68.1765 11.2355 766 61.1527 277.693 462.899
35 0 71.1711 12.6175 898 60.1949 277.498 457.915
36 0 73.1135 12.0361 880 60.8432 278.102 457.874
37 0 76.1814 13.6779 1042 59.2668 278.331 457.638
38 0 80.2538 11.202 899 61.3037 278.514 457.575
39 0 85.2936 11.5718 987 60.7771 278.861 455.53
40 1 42.1837 8.60523 363 63.6777 278.835 474.3
41 0 47.1715 10.7904 509 60.6189 278.538 473.361
42 0 48.1792 11.0836 534 61.7154 278.813 470.837
43 0 50.1417 12.1655 610 60.1918 278.331 468.457
44 0 53.2354 13.6751 728 57.5604 278.413 473.309
45 0 52.3691 12.2973 644 60.3152 278.792 470.725
46 0 52.3577 10.6765 559 62.8873 278.227 468.911
47 0 54.1798 11.8494 642 60.8614 278.617 469.963
48 0 58.2524 13.1668 767 59.5111 278.866 466.142
49 0 61.2977 12.9695 795 59.1937 278.919 466.475
50 0 59.1986 13.5307 801 59.6429 279.179 465.538
51 0 60.3072 13.1328 792 59.9886 279.029 463.23
52 0 63.2331 11.5762 732 61.4235 279.12 461.301
53 0 65.2228 11.1157 725 61.7007 279.292 460.946
54 0 66.1507 13.3634 884 59.56 279.325 460.769
55 0 68.2739 11.5271 787 61.8247 279.316 459.346
56 0 69.0661 13.4654 930 59.771 279.425 456.386
57 0 74.2653 12.1591 903 60.608 279.002 455.086
58 0 74.1652 10.3013 764 62.623 278.658 457.631
59 0 77.1597 13.1416 1014 60.2643 278.641 453.37
60 0 82.2363 13.1815 1084 59.6661 278.219 453.846
61 1 41.321 10.7209 443 61.3025 278.35 472.212
62 0 41.0684 10.2512 421 62.3254 277.974 471.413
63 0 42.1153 11.0886 467 61.3919 277.884 472.099
64 0 45.0691 10.8056 487 61.6899 278.739 470.441
65 0 48.1972 11.9924 578 60.1194 278.367 469.851
66 0 51.2453 10.4985 538 60.4126 279.178 473.113
67 0 49.1797 11.6918 575 61.2139 278.979 468.871
68 0 51.2467 12.2154 626 60.7492 277.917 469.324
69 0 55.3119 11.2272 621 61.4944 277.96 470.572
70 0 56.2435 13.2104 743 59.6662 278.234 468.241
71 0 56.2724 11.2311 632 62.5095 277.853 466.913
72 0 59.1998 10.7095 634 62.9006 278.399 464.139
73 0 61.3686 11.5205 707 62.082 278.083 466.446
74 0 61.0927 10.4923 641 62.9735 277.649 466.839
75 0 66.4635 10.7126 712 62.6025 278.025 465.869
76 0 68.1819 11.5427 787 61.479 278.086 465.879
77 0 69.3671 10.812 750 62.7453 277.749 465.527
78 0 72.139 12.7809 922 60.8069 277.779 463.967
79 1 39.0814 10.4142 407 63.3047 277.484 477.253
80 0 35.0634 11.6076 407 62.9853 278.445 476.189
81 0 38.2071 10.8618 415 63.7301 278.289 476.935
82 0 38.1686 11.0562 422 64.1493 277.396 477.031
83 0 44.1801 12.2227 540 60.3426 277.472 476.73
84 0 43.2791 10.8597 470 63.0404 277.598 474.979
85 0 47.4449 11.1919 531 61.8211 277.614 475.377
86 0 50.3481 12.0163 605 60.5884 278.106 475.013
87 0 49.0848 10.6754 524 63.0706 278.37 473.679
88 0 50.2107 11.8501 595 62.4067 278.034 471.375
89 0 52.3428 10.4503 547 63.1243 277.371 474.272
90 0 54.1532 10.7473 582 62.988 278.349 472.581
91 0 51.094 11.1363 569 64.2654 277.975 469.402
92 0 55.2305 10.7911 596 64.0034 278.094 470.06
93 0 57.4787 10.543 606 64.0198 277.982 469.818
94 0 59.2106 10.7075 634 64.4937 278.227 467.754
95 0 62.5014 12.1117 757 62.7979 278.242 467.744
96 0 63.2697 12.992 822 61.1569 278.336 470.111
97 0 66.283 9.94221 659 64.2231 278.068 470.256
98 0 68.3862 11.8445 810 62.9148 277.785 467.251
99 0 72.3429 13.3807 968 60.2366 277.581 468.404
100 0 73.3087 12.8361 941 61.9809 277.722 463.973
101 0 75.4015 12.2544 924 63.0779 277.913 460.074
102 0 77.4272 10.9522 848 64.809 277.92 461.542
103 0 78.2269 12.3103 963 63.0187 277.626 462.595
104 0 83.3334 11.328 944 64.1716 278.197 458.406
105 0 85.2437 11.4026 972 64.3477 277.949 458.195
106 0 88.2923 12.3907 1094 62.7203 277.775 461.111
107 0 90.3631 11.1218 1005 64.795 278.678 458.067
108 1 47.1688 11.1302 525 64.3029 277.505 477.158
109 0 47.2464 10.7945 510 66.4451 278.037 475.286
110 0 49.1584 12.6123 620 63.8419 277.021 473.766
111 0 52.2721 12.6071 659 63.217 277.574 473.281
112 0 54.2171 12.0995 656 64.0564 278.194 471.864
113 0 54.3035 11.3621 617 65.4457 277.916 471.344
114 0 56.3349 12.5144 705 64.1475 278.006 471.342
115 0 59.353 13.4955 801 62.5818 278.86 469.462
116 0 60.2871 13.5352 816 62.1176 277.491 470.201
117 0 62.337 11.6945 729 64.6982 277.809 470.498
118 0 63.2488 12.4904 790 63.4418 278.01 470.872
119 0 66.3879 12.6529 840 64.244 277.107 465.431
120 0 66.3436 12.5257 831 64.3153 277.404 465.745
121 0 70.4122 12.1144 853 64.1477 277.61 464.964
122 0 71.432 11.8014 843 64.9265 277.362 462.558
123 0 74.3663 12.8284 954 63.217 277.667 462.192
124 0 76.3386 12.6934 969 63.2951 277.085 461.772
125 0 77.335 13.5902 1051 62.8801 277.402 457.781
126 0 79.3158 12.2674 973 64.2477 277.819 455.194
127 0 83.2694 11.5288 960 64.9313 277.516 455.721
128 0 84.2488 12.6767 1068 63.4607 277.589 455.69
129 1 43.2317 12.167 526 63.654 278.511 473.605
130 0 46.2851 9.4847 439 67.2688 277.604 472.239
131 0 46.1077 11.3647 524 65.0573 277.601 472.172
132 0 48.2648 13.3638 645 62.5969 277.788 472.338
133 0 50.3646 11.9131 600 64 278.057 471.382
134 0 51.4381 12.7921 658 62.921 278.833 470.014
135 0 53.3083 12.0432 642 63.8925 278.861 467.006
136 0 53.2255 14.091 750 61.4333 278.844 467.268
137 0 54.1049 11.0896 600 65.055 279.218 465.39
138 0 56.2307 10.9549 616 65.3815 278.677 464.779
139 0 59.0929 11.6935 691 63.8191 278.179 463.517
140 0 60.0611 13.5362 813 61.9164 277.972 463.621
141 0 63.1462 12.5423 792 62.4242 277.898 460.736
142 0 64.1708 11.2045 719 64.3449 278.217 460.804
143 0 65.237 13.8112 901 61.3718 278.242 460.09
144 0 70.1799 12.8099 899 61.9399 278.412 460.691
145 0 70.1834 11.1422 782 63.9693 277.986 459.6
146 0 73.1029 13.0227 952 61.9296 278.534 456.832
147 0 74.1527 13.7824 1022 61.3924 278.348 455.383
148 0 77.2157 13.2615 1024 62.0449 278.465 454.801
149 0 79.0717 14.3161 1132 60.7668 277.845 454.247
150 0 84.1074 12.9239 1087 62.1141 278.04 452.427
151 0 87.2478 12.7912 1116 62.3871 278.438 450.906
152 0 87.0519 11.7746 1025 64.1298 278.719 446.385
153 1 42.0734 12.2881 517 63.6809 278.605 470.588
154 0 43.0609 10.9844 473 65.1945 279.235 470.07
155 0 45.0774 11.7354 529 64.62 278.955 470.357
156 0 48.0334 12.1998 586 63.3362 278.648 469.568
157 0 48.177 11.9559 576 64.6059 278.432 469.726
158 0 50.0618 12.0251 602 64.289 278.527 469.13
159 0 51.1076 11.916 609 64.4483 278.609 469.327
160 0 53.1213 13.3845 711 62.9339 277.985 467.001
161 0 55.2629 12.2143 675 64.437 277.973 467.542
162 0 56.0632 13.3778 750 63.24 278.764 464.637
163 0 58.1328 12.0414 700 64.5971 279.223 466.121
164 0 59.0661 14.4922 856 62.4463 279 461.662
165 0 60.0682 11.7533 706 65.6501 278.693 462.37
166 0 61.1865 12.6008 771 64.6511 278.82 463.746
167 0 66.0614 12.3522 816 64.652 278.577 463.217
168 0 69.1572 12.9994 899 63.5873 278.638 460.403
169 0 70.1014 14.5931 1023 62.1388 278.197 457.303
170 0 75.2007 12.6329 950 64.0716 278.467 458.724
171 0 78.3331 12.6128 988 64.1569 278.78 458.251
172 0 77.1486 13.2212 1020 64.3882 279.02 455.861
173 0 82.0718 13.8903 1140 62.4763 278.641 458.352
174 0 83.0547 13.7018 1138 63.4912 277.962 452.853
175 1 43.0549 11.706 504 64.6131 277.966 475.415
176 0 45.2137 12.2308 553 64.953 278.42 473.797
177 0 45.0804 11.9786 540 65.3685 278.167 474.022
178 0 48.3091 12.8133 619 64.1357 277.814 473.192
179 0 50.167 12.1992 612 63.9477 277.812 474.163
180 0 50.2501 12.2786 617 65.1848 277.348 470.861
181 0 54.1209 12.546 679 63.7128 276.56 472.15
182 0 52.2226 13.7488 718 63.571 276.652 468.387
183 0 54.3974 12.3168 670 65.1791 277.088 470.066
184 0 58.2225 11.8854 692 65.2139 277.241 468.428
185 0 58.3769 12.7276 743 64.0067 277.003 469.892
186 0 59.1962 11.7744 697 66.3572 277.763 467.065
187 0 59.0591 12.8177 757 65.7054 277.943 465.357
188 0 61.0934 11.5233 704 67.1364 277.688 463.764
189 0 63.1592 13.4739 851 64.6945 277.891 464.253
190 0 66.1622 13.5274 895 64.6894 277.933 463.39
191 0 68.1978 12.3171 840 65.981 278.362 462.027
192 0 70.1489 11.8177 829 66.8468 278.435 459.562
193 0 72.0959 13.8704 1000 64.91 278.598 457.992
194 0 75.2152 12.8166 964 65.8039 278.78 460.093
195 0 78.202 13.2989 1040 65.7279 278.77 455.907
196 0 80.3075 14.7931 1188 64.3544 279.231 456.025
197 0 85.1469 12.7427 1085 66.3336 278.459 456.27
198 0 85.2153 12.2161 1041 67.4621 279.061 455.721
199 1 46.2736 10.654 493 69.0183 278.533 473.684
200 0 49.0717 11.9213 585 67.6564 278.812 472.957
201 0 51.1763 12.5644 643 67.3188 278.477 471.297
202 0 52.1049 12.6859 661 67.5189 278.318 469.463
203 0 55.136 11.7165 646 68.1238 277.757 468.508
204 0 56.1665 12.8724 723 67.3472 278.192 465.13
205 0 57.1259 12.6562 723 67.1729 277.983 467.69
206 0 61.27 14.8196 908 64.4504 277.791 465.301
207 0 61.17 12.4407 761 67.0197 277.587 462.489
208 0 66.1919 12.9774 859 65.5879 277.895 462.137
209 0 65.1416 13.6932 892 64.9226 278.093 462.895
210 0 69.1557 11.4524 792 67.1654 277.885 463.967
211 0 73.1227 13.6757 1000 64.742 277.47 460.775
212 0 74.2819 14.27 1060 64.5208 277.597 457.563
213 0 78.2058 14.1805 1109 63.9441 277.701 459.775
214 0 79.2248 11.5873 918 67.2854 277.759 458.182
215 0 82.0903 13.4486 1104 65.6621 277.799 453.766
216 0 84.0953 13.6868 1151 65.4214 278.014 456.399
217 0 86.1656 12.5224 1079 67.2447 278.101 452.672
218 1 46.328 10.6631 494 69.0628 277.796 473.101
219 0 49.0912 13.0981 643 66.2037 277.823 472.656
220 0 53.3615 12.4622 665 66.8526 277.519 470.782
221 0 53.1201 11.8034 627 68.5024 277.118 469.842
222 0 53.1562 13.2252 703 67.3684 277.45 467.312
223 0 55.1509 11.6589 643 69.4883 277.07 465.773
224 0 57.3082 12.3892 710 68.2831 277.43 465.086
225 0 59.2911 13.5602 804 66.7923 277.45 464.662
226 0 61.2315 12.4119 760 68.2039 277.592 464.393
227 0 63.2143 13.7944 872 66.0241 277.107 464.15
228 0 62.2055 13.3429 830 67.3627 277.119 464.022
229 0 66.2366 13.7084 908 66.511 277.095 460.416
230 0 69.1134 13.0221 900 66.84 276.866 461.452
231 0 72.1262 13.5041 974 66.1766 276.934 458.405
232 0 75.3349 12.4909 941 67.0999 276.77 459.201
233 0 75.3635 11.7298 884 68.2715 277.515 457.831
234 0 76.2114 13.8037 1052 66.2785 277.775 455.858
235 0 78.0612 13.5022 1054 66.2524 277.849 455.073
236 0 83.3082 13.408 1117 65.8263 277.795 455.586
237 1 42.1088 12.9902 547 65.351 278.022 474.135
238 0 43.1899 11.1369 481 68.1726 278.046 472.17
239 0 43.1168 12.7792 551 67.0726 277.926 472.211
240 0 47.3942 12.7442 604 65.1838 277.538 472.952
241 0 49.2633 13.032 642 65.4315 277.718 470.489
242 0 53.2961 12.9465 690 64.2565 277.557 471.104
243 0 54.6555 12.4964 683 65.2767 277.217 471.054
244 0 54.2017 13.542 734 64.188 277.525 471.034
245 0 53.2402 13.6927 729 64.9986 277.477 467.85
246 0 56.4024 11.8967 671 66.8763 277.72 467.894
247 0 60.2619 14.6361 882 63.1859 277.373 465.185
248 0 60.3242 11.8029 712 66.7514 277.233 465.499
249 0 61.1753 14.9897 917 63.2879 277.344 462.889
250 0 61.2437 14.1239 865 64.8347 277.358 461.348
251 0 65.1564 13.1223 855 65.6655 277.64 463.554
252 0 66.105 14.9459 988 63.6265 277.785 461.869
253 0 69.045 13.0784 903 65.8372 277.574 459.196
254 0 70.0219 12.8388 899 66.3548 277.241 461.306
255 0 72.1511 14.9409 1078 63.9239 277.434 456.807
256 0 76.1527 13.5386 1031 65.7342 277.316 458.225
257 0 80.2999 13.8107 1109 64.7638 277.28 458.332
258 1 40.14 10.6876 429 67.662 277.58 475.084
259 0 40.0393 11.0391 442 67.724 277.667 474.312
260 0 41.1383 11.4735 472 67.6822 277.633 473.896
261 0 44.0408 12.5792 554 64.8502 277.738 477.157
262 0 47.038 12.1179 570 65.9544 277.539 474.461
263 0 48.0999 11.6424 560 66.8054 277.646 473.554
264 0 53.0219 13.2021 700 64.6686 277.506 473.633
265 0 49.0633 11.475 563 68.5648 278.407 471.352
266 0 50.0364 11.4117 571 68.7128 278.312 471.764
267 0 53.0474 12.9695 688 66.9477 277.843 471.68
268 0 55.0676 12.1124 667 67.9295 277.903 471.124
269 0 56.0428 13.5254 758 66.2243 278.985 470.315
270 0 59.1494 12.5107 740 67.5635 278.803 468.704
271 0 60.0586 13.5534 814 66.6843 278.536 467.1
272 0 61.1723 13.3884 819 66.757 278.609 468.574
273 0 63.566 13.9855 889 66.3093 278.571 463.371
274 0 65.0583 14.0182 912 66.2522 278.883 464.116
275 0 64.0943 11.5767 742 70.3464 278.434 463.186
276 0 68.0555 13.0482 888 68.1295 278.463 462.131
277 0 70.1432 13.0305 914 68.2801 278.162 462.097
278 0 72.1778 12.5939 909 69.1463 277.799 460.243
279 0 74.1905 13.2227 981 68.4862 277.322 460.126
280 1 36.0858 9.06173 327 71.526 278.061 478.667
281 0 36.0302 12.7671 460 68.85 277.372 478.043
282 0 35.04 10.5023 368 71.9375 277.37 478.81
283 0 35.0172 8.31019 291 75.2234 277.966 478.9
284 0 39.0189 11.5329 450 70.3067 277.631 478.402
285 0 40.0579 10.4349 418 72.9091 277.758 476.919
286 0 41.029 13.2102 542 68.786 277.494 476.764
287 0 43.0463 11.5922 499 70.5952 278.681 477.551
288 0 42.0183 12.566 528 70.3504 277.911 475.521
289 0 44.0465 11.5106 507 70.7436 278.241 474.698
290 0 46.0344 12.8817 593 69.5329 277.685 473.272
291 0 45.0577 14.1152 636 68.2783 278.314 473.667
292 0 48.0396 13.9885 672 67.7872 278.037 473.629
293 0 48.0642 11.9423 574 71.5105 278.392 470.174
294 0 52.0265 11.8401 616 70.0081 278.532 472.735
295 0 53.0914 11.0752 588 71.1531 278.139 470.918
296 0 54.047 13.2847 718 67.9178 278.175 471.085
297 0 58.0265 13.1147 761 67.9264 278.099 468.405
298 0 57.1021 12.609 720 68.7889 278.137 466.646
299 0 61.0978 13.2247 808 67.4505 278.028 467.738
300 0 61.0255 11.0773 676 70.784 277.655 465.297
301 0 65.0623 12.2037 794 68.9345 278.437 464.966
302 0 67.1227 12.2313 821 69.4007 278.374 463.127
303 0 70.1732 12.2126 857 69.105 278.886 461.55
304 0 69.0744 12.8557 888 69.0293 278.838 461.864
305 0 73.0451 11.4861 839 70.4398 278.836 460.684
306 1 35.0439 10.1872 357 70.2521 277.905 478.669
307 0 38.1033 9.97288 380 70 278.139 477.5
308 0 39.0296 11.7091 457 67.4092 278.004 477.632
309 0 40.1158 11.6662 468 67.2115 277.985 478.784
310 0 44.1303 11.1941 494 68.3421 277.856 475.494
311 0 43.1716 13.0178 562 66.7687 277.368 475.838
312 0 45.0676 12.7808 576 66.9792 277.932 475.17
313 0 45.0885 12.6196 569 67.6415 278.947 474.376
314 0 46.0935 10.5221 485 69.9134 278.594 474.948
315 0 48.0929 11.0827 533 69.0713 278.364 473.373
316 0 49.1251 11.827 581 67.654 277.716 472.578
317 0 52.1702 12.6126 658 66.8875 277.293 470.056
318 0 53.1086 11.8625 630 68.0714 276.743 467.951
319 0 54.1124 11.7348 635 67.6126 276.887 469.123
320 0 55.0566 11.2793 621 69.1675 276.68 466.052
321 0 58.0617 11.3155 657 67.9619 277.306 468.638
322 0 60.1121 13.3916 805 65.4745 278.02 467.144
323 0 60.1057 12.6943 763 67.3801 278.127 463.56
324 0 63.1246 12.7842 807 66.6741 278.352 462.74
325 0 64.1289 10.245 657 69.9909 278.262 461.732
326 0 66.0907 11.1059 734 68.9837 277.689 458.839
327 0 70.2021 12.3501 867 66.9354 277.715 459.246
328 0 71.1667 11.9578 851 68.0881 278.095 459.545
329 0 74.0663 10.8416 803 69.2827 278.001 456.996
330 1 36.0845 9.42233 340 70.0706 278.6 476.768
331 0 39.0875 10.6684 417 67.8417 278.873 476.223
332 0 42.1326 11.3214 477 65.9937 278.885 476.463
333 0 44.1618 12.3863 547 65.6106 279.386 474.72
334 0 43.0574 10.5673 455 68.9121 278.468 473.635
335 0 46.037 11.6645 537 66.9218 278.557 472.737
336 0 48.1147 12.1792 586 65.971 278.418 473.179
337 0 49.0389 10.6242 521 68.1612 278.706 472.511
338 0 50.0275 13.6525 683 64.8155 277.936 471.215
339 0 51.1239 12.323 630 65.6349 277.519 473.132
340 0 51.1489 12.2388 626 66.7364 277.77 469.481
341 0 54.152 10.9691 594 67.3519 277.864 470.729
342 0 57.1041 14.1671 809 63.241 278.027 469.261
343 0 59.1762 13.4851 798 64.0213 278.173 467.497
344 0 59.0901 13.5048 798 64.1654 278.004 466.608
345 0 60.0624 12.2539 736 66.4633 278.14 463.052
346 0 63.3066 11.6418 737 66.5699 278.541 465.13
347 0 65.0984 11.521 750 66.8493 278.167 462.728
348 0 68.1371 13.1206 894 64.7718 277.659 461.859
349 0 70.1594 11.7589 825 66.3915 277.933 461.684
350 0 69.1177 10.6051 733 68.3915 277.548 461.323
351 1 32.1461 9.42572 303 67.3894 277.739 478.749
352 0 36.2014 10.0272 363 65.2424 277.518 478.78
353 0 37.0182 11.9401 442 64.2172 277.077 476.491
354 0 37.0382 11.3396 420 65.5048 277.583 474.81
355 0 39.039 11.5782 452 64.8473 277.938 474.027
356 0 40.0592 11.8575 475 64.6905 278.589 475.002
357 0 39.0682 11.0576 432 66.3449 278.303 473.676
358 0 40.1033 10.3233 414 66.7246 277.626 471.273
359 0 45.1867 11.5078 520 64.2269 277.3 471.831
360 0 45.1637 12.1558 549 63.5209 277.801 473.355
361 0 46.1768 10.5897 489 65.728 278.041 471.393
362 0 49.1089 12.3196 605 63.238 278.121 471.246
363 0 49.2511 12.2637 604 63.7765 278.884 469.406
364 0 51.2678 10.923 560 64.4607 278.607 472.168
365 0 53.0529 13.1567 698 61.7507 277.812 470.895
366 0 52.1018 13.2433 690 62.487 278.464 469.378
367 0 53.1077 10.8082 574 65.1899 278.559 467.164
368 0 56.1517 10.9347 614 64.8958 278.423 467.138
369 0 61.0994 11.8823 726 62.9945 278.209 467.218
370 0 62.0617 12.6165 783 62.2708 277.554 465.192
371 0 62.1147 11.028 685 64.8599 278.477 461.453
372 0 67.1491 13.6413 916 61.1921 277.975 461.664
373 0 66.1319 10.101 668 65.7231 278.364 461.609
374 0 69.0422 13.3107 919 62.8063 277.963 458.181
375 0 72.054 11.4636 826 64.9516 278.381 456.769
376 1 37.0826 9.97771 370 66.127 278.83 472.324
377 0 38.0647 11.1127 423 64.9054 278.463 471.929
378 0 41.0344 10.8446 445 65.227 278.133 473.557
379 0 42.0871 11.1673 470 65.5915 278.109 472.102
380 0 45.1058 12.8586 580 63.4879 277.541 471.195
381 0 46.1344 10.4477 482 66.7075 277.757 471.108
382 0 49.0711 12.2068 599 63.7896 277.745 469.461
383 0 48.0963 11.6225 559 65.5778 277.748 468.499
384 0 49.0326 12.1756 597 64.5863 277.683 469.941
385 0 51.1935 11.3686 582 64.9948 278.112 469.352
386 0 53.0462 12.7625 677 63.8996 278.322 467.064
387 0 56.0926 12.8003 718 64.2409 278.035 464.936
388 0 60.1175 12.775 768 62.5534 277.609 466.964
389 0 59.2036 12.3979 734 63.9619 277.905 465.52
390 0 60.0556 12.8548 772 64.1114 278.299 463.886
391 0 62.0537 13.7462 853 62.8839 278.203 462.523
392 0 66.2119 12.1428 804 64.2537 277.976 461.872
393 0 68.1245 12.5065 852 64.4531 278.45 460.358
394 0 70.2039 14.7143 1033 61.6641 278.328 458.931
395 0 72.1793 13.5219 976 62.8822 278.344 459.443
396 1 36.0589 10.6215 383 63.6371 277.334 477.013
397 0 38.2664 11.0279 422 63.5829 277.652 477.1
398 0 39.0866 11.7432 459 62.793 277.693 476.133
399 0 41.201 12.6453 521 62.0134 277.021 474.119
400 0 42.4003 12.5471 532 62.3759 277.549 474.31
401 0 42.1182 11.2778 475 63.8568 277.659 473.848
402 0 43.207 10.6464 460 64.75 277.726 473.733
403 0 48.1668 12.0623 581 62.1291 277.386 472.463
404 0 44.1189 10.6304 469 64.9552 276.561 470.241
405 0 47.3338 13.3309 631 61.9445 277.273 467.545
406 0 50.0785 11.2623 564 63.4433 276.906 471.968
407 0 51.0441 12.7733 652 62.5353 277.152 467.025
408 0 52.1461 11.7938 615 63.8862 277.207 467.065
409 0 53.0265 12.9935 689 62.0958 277.511 468.244
410 0 57.2101 12.0259 688 62.9084 277.369 465.767
411 0 59.1031 13.2988 786 61.5 277.891 466.754
412 0 58.119 11.9066 692 63.4913 278.292 466.275
413 0 59.046 11.1608 659 64.9985 277.715 462.751
414 0 62.1856 11.9159 741 63.8718 277.92 463.356
415 0 64.1315 10.9774 704 64.642 278.243 463.544
416 0 68.1777 13.1861 899 61.9422 278.284 461.765
417 0 71.1532 12.0725 859 63.7241 278.065 460.066
418 0 73.1086 12.4472 910 63.6055 278.03 459.056
419 1 38.052 11.3792 433 63.7436 278.3 474.721
420 0 39.1645 11.8219 463 63.4816 277.438 473.188
421 0 41.0858 11.6585 479 63.8706 277.63 473.065
422 0 41.0823 12.0977 497 63.5714 277.461 473.571
423 0 42.1428 11.6034 489 63.8323 277.896 473.755
424 0 45.0492 12.453 561 63.2888 277.79 472.763
425 0 47.1314 13.1971 622 62.1994 277.36 470.63
426 0 48.0889 11.8946 572 64.0892 276.804 468.867
427 0 51.1747 12.9752 664 62.5602 277.014 470.235
428 0 50.0656 12.3238 617 64.1799 277.186 466.348
429 0 51.1336 10.1694 520 66.6519 277.008 467.717
430 0 56.0811 13.0882 734 62.4932 276.687 465.82
431 0 56.0506 10.4013 583 65.446 276.655 467.602
432 0 60.0972 13.162 791 62.4539 276.501 463.91
433 0 61.052 12.2518 748 63.3757 276.512 462.229
434 0 63.1534 14.2985 903 60.9491 276.695 463.313
435 0 66.0609 14.5169 959 60.5839 276.984 461.588
436 0 68.1818 13.3613 911 62.1032 277.418 461.672
437 0 70.0472 13.5052 946 61.9873 277.799 460.932
438 0 73.1525 14.0938 1031 61.3046 277.815 457.743
439 0 76.1836 12.8243 977 62.9652 277.7 458.945
440 0 79.1497 11.6993 926 64.6177 277.891 454.481
441 1 37.1053 10.6993 397 64.5264 278.091 477.181
442 0 40.0666 10.7321 430 65.6581 277.726 476.019
443 0 42.1439 11.6743 492 64.9431 277.51 474.063
444 0 44.0769 12.2059 538 64.2045 276.706 471.292
445 0 43.1128 10.6697 460 66.8435 277.426 472.37
446 0 47.1075 11.357 535 65.2505 277.529 471.901
447 0 49.0828 11.2259 551 65.7042 277.69 471.851
448 0 49.0186 11.9138 584 65.6353 277.373 468.432
449 0 51.0956 12.1537 621 65.351 277.264 466.63
450 0 49.0233 11.4027 559 67.8801 277.47 467.767
451 0 54.0204 12.4582 673 65.416 277.53 465.355
452 0 58.0634 12.383 719 64.879 277.17 466.476
453 0 59.1178 13.0756 773 63.9909 277.246 466.849
454 0 60.0775 11.9013 715 65.6881 277.263 463.944
455 0 63.1599 12.2071 771 64.7523 277.358 462.767
456 0 65.0686 14.7076 957 61.9885 277.23 460.535
457 0 67.0409 12.2015 818 65.4132 277.707 459.276
458 0 72.0922 11.735 846 65.1407 277.531 459.804
459 0 74.0792 13.8905 1029 63.0418 277.874 456.562
460 0 74.0656 11.7328 869 66.3142 277.852 455.441
461 0 77.1304 12.0445 929 65.7008 277.82 454.279
462 1 39.0655 10.6232 415 66.9566 277.749 471.887
463 0 42.0868 11.6189 489 65.1984 277.973 471.943
464 0 44.0117 12.9284 569 64.348 277.858 470.601
465 0 45.0481 12.8307 578 64.4723 278.107 470.765
466 0 47.0406 11.8408 557 66.009 277.86 467.72
467 0 49.0417 11.4596 562 66.621 278.238 467.735
468 0 51.0809 11.5895 592 65.5557 278.24 469.806
469 0 51.203 14.1007 722 63.5665 277.438 464.584
470 0 60.2041 9.99932 602 67.0831 277.425 465.503
471 0 54.0231 12.5317 677 66.3058 277.356 462.916
472 0 63.3115 9.54013 604 67.7616 276.815 464.421
473 0 66.1584 11.8957 787 63.7001 276.16 466.644
474 0 67.0483 11.7378 787 64.8844 276.404 460.861
475 0 72.1648 9.57531 691 67.1404 275.931 461.329
476 0 73.0894 9.68677 708 67.4054 275.969 458.833
477 0 75.0757 11.2686 846 65.5154 276.969 461.056
478 0 80.0826 11.8503 949 63.8714 276.984 460.719
479 0 80.1608 10.192 817 66.9584 277.777 455.384
480 0 82.0547 11.6386 955 64.8984 277.168 456.786
481 0 84.1168 10.1882 857 67.2579 277.301 451.18
482 1 9.01189 6.21401 56 47.8393 277.964 493.714
483 0 10.0013 2.59967 26 50.8077 278.308 496.192
484 0 13.019 8.29559 108 47.4907 277.796 492.657
485 0 12.0088 7.32798 88 46.875 277.432 494.807
486 0 12.002 4.66589 56 49.1071 277.893 495.196
487 0 12.0019 6.83225 82 47.8902 277.683 495.122
488 0 13.0134 5.07168 66 49.4394 277.833 496.015
489 0 12.0043 6.99748 84 48.5595 277.488 494.702
490 0 12.0448 6.06069 73 48.8904 277.178 494.082
491 0 12.0177 4.24376 51 48.4902 277.353 495.627
492 0 11.0248 4.44451 49 49.898 277.531 493.98
493 0 11.0083 3.90614 43 49.6977 276.628 493.884
494 0 14.0211 5.63436 79 47.9873 277.873 495.532
495 0 13.0807 7.87418 103 46.4466 277.583 494.233
496 0 12.0205 9.15102 110 46.9727 276.836 493.518
497 0 13.0345 10.2804 134 46.8881 276.963 493.164
498 0 12.0062 4.99743 60 49.0667 277.083 492.917
499 0 14.0487 6.40629 90 47.1556 277.267 495.711
500 0 14.0114 4.92457 69 49.0725 276.464 495.29
501 0 13.0012 9.99904 130 46.5769 276.031 494.377
502 0 11.0073 6.99536 77 49.8701 276.519 495.805
503 0 14.0185 6.63411 93 48.6774 276.043 494.817
504 0 11.0309 4.5327 50 51.76 276.44 494.52
505 0 13.0994 9.00808 118 48.3475 275.805 494.712
506 0 14.0354 7.1961 101 50.2772 275.861 493.554
507 0 13.0075 10.4555 136 49.0588 276.257 495.074
508 0 15.0406 7.57948 114 49.6316 275.982 495.842
509 0 12.0021 3.91599 47 52.5532 276.872 495.021
510 0 14.0106 11.1344 156 48.5962 276.308 494.205
511 0 11.0121 3.63236 40 52.95 276.375 495.3
512 0 15.0373 8.91118 134 49.0672 276.709 494.754
513 0 14.0353 6.76865 95 50.8526 277.432 493.958
514 0 14.1067 10.775 152 47.9539 276.086 494.164
515 0 15.004 9.73075 146 49.1575 276.123 494.233
516 0 15.0603 8.83116 133 49.9624 276.398 493.82
517 0 12.003 3.99901 48 54.4167 276.979 495.146
518 0 16.0795 6.96539 112 52.0982 277.205 493.268
519 0 16.0044 8.62264 138 51.0507 276.246 493.92
520 0 14.0047 8.49715 119 52.3445 276.655 492.639
521 0 15.0035 9.99766 150 50.3867 276.52 492.667
522 0 15.0065 8.86283 133 52.4361 275.88 492.895
523 0 16.0081 7.37127 118 53.661 276.229 494.042
524 0 16.0135 5.68271 91 54.6374 275.901 493.835
525 0 17.0803 9.36752 160 52.3188 276.281 492.1
526 0 15.0238 8.38667 126 53.9365 276.683 492.786
527 0 18.0306 10.0385 181 52.5801 276.061 492.453
528 0 15.0149 4.32904 65 58.0308 276.138 493.8
529 0 16.0179 7.42921 119 54.7143 276.521 494.042
530 0 18.0274 11.3161 204 50.6176 275.779 493.804
531 0 17.0108 9.22945 157 53.7643 276.025 492.987
532 0 16.0312 8.54582 137 54.927 276.161 492.314
533 0 16.0156 9.80297 157 53.8726 276.236 491.713
534 0 16.0381 5.05047 81 59.8148 276.432 492.914
535 0 17.0287 9.51333 162 55 276.123 491.981
536 0 19.0143 10.4132 198 54.4141 275.985 491.414
537 0 20.0197 9.69045 194 54.0515 275.773 492.356
538 0 19.0084 7.78601 148 56.1014 276.703 494.061
539 0 17.027 6.87143 117 58.3761 276.812 493.368
540 0 19.0043 9.1032 173 56.0925 277.058 491.908
541 0 19.0035 8.15639 155 57.671 277.026 492.555
542 0 19.0304 10.7197 204 56.3775 276.775 490.897
543 0 21.0142 9.66012 203 56.7143 276.325 491.803
544 0 20.0288 8.93715 179 58.0223 276.894 490.235
545 0 20.013 7.34522 147 59.415 276.19 490.599
546 0 21.0264 8.60822 181 58.5912 276.182 491.37
547 0 19.0089 6.1024 116 61.3534 276.759 492.526
548 0 23.0178 10.6439 245 56.8 276.653 490.608
549 0 21.1053 8.24437 174 60.3391 276.747 490.615
550 0 20.0033 7.64873 153 61.6797 276.954 491.464
551 0 22.0242 10.8971 240 58.0708 276.512 490.65
552 0 21.0339 7.41658 156 62.609 276.654 491.179
553 0 21.0442 9.83645 207 59.5169 276.309 490.995
554 0 22.0256 7.9453 175 61.9086 276.651 488.851
555 0 22.0201 8.94638 197 60.4162 276.863 490.299
556 0 21.0103 7.7105 162 63.1235 276.352 489.235
557 0 22.0451 8.66408 191 60.3927 276.372 489.628
558 0 22.0118 7.54141 166 61.8072 275.97 489.151
559 0 23.0599 11.0148 254 57.5669 276.201 489.205
560 0 24.0171 11.1587 268 57.0448 275.94 489.597
561 0 22.0165 8.03942 177 59.6893 275.672 491.825
562 0 22.0077 8.76965 193 59.9067 275.85 490.264
563 0 22.0311 10.0767 222 57.8784 275.779 492.05
564 0 24.1438 9.8576 238 57.7773 275.685 491.286
565 0 23.0183 10.774 248 57.7581 275.851 489.641
566 0 23.0631 6.85076 158 60.7215 275.266 491.544
567 0 23.1136 8.22027 190 59.8 275.137 490.289
568 0 23.0252 7.33978 169 61.4201 274.964 489.272
569 0 22.2359 8.4548 188 61.4309 275.5 489.314
570 0 24.0529 10.6017 255 58.4118 275.443 488.941
571 0 24.0584 10.2667 247 58.9919 275.065 488.737
572 0 25.0064 9.3976 235 59.3021 274.881 489.336
573 0 25.0374 11.2631 282 58.2837 274.812 489.05
574 0 25.0803 9.96799 250 58.752 275.376 488
575 0 25.0039 12.4381 311 57.0707 274.791 487.878
576 0 25.0336 11.3048 283 58.6431 274.686 486.258
577 0 25.0193 10.7917 270 59.1556 274.019 487.63
578 0 27.063 11.233 304 58.2928 274.533 488.447
579 0 27.0885 9.96732 270 59.9815 274.996 487.144
580 0 27.0198 11.362 307 58.4951 275.987 487.814
581 0 26.0236 8.56916 223 61.2377 276.426 489.143
582 0 30.0955 10.2009 307 58.7459 276.358 487.033
583 0 27.0322 8.84132 239 61.3138 276.176 486.929
584 0 28.2707 10.541 298 58.8456 276.218 487.705
585 0 27.0297 9.36006 253 61.3083 276.814 486.901
586 0 29.0531 9.84403 286 60.6119 276.49 486.315
587 0 30.046 10.3508 311 59.8778 276.199 485
588 0 30.0543 10.2814 309 60.534 276.233 484.12
589 0 29.0105 8.72098 253 62.913 276.36 486.3
590 0 30.1016 9.20215 277 61.491 276.863 485.412
591 0 31.0949 9.90518 308 60.8312 276.633 487.159
592 0 32.0479 9.73541 312 60.9231 276.92 486.696
593 0 31.0608 8.56384 266 62.1617 276.613 486
594 0 31.0994 10.6433 331 60.6224 276.634 486.006
595 0 31.0308 10.5379 327 61.2385 276.263 484.199
596 0 30.1434 9.65384 291 62.4399 276.216 486.027
597 0 32.15 9.58008 308 61.6753 275.714 485.429
598 0 32.1517 10.2949 331 62.1631 276.057 484.088
599 0 33.0646 9.70826 321 62.567 275.779 485.589
600 0 33.1082 7.94364 263 64.3954 275.783 487.243
601 0 33.0427 10.2897 340 62.1265 276.268 485.018
602 0 34.0709 9.94984 339 62.4041 276.053 484.985
603 0 34.0716 10.0964 344 62.4971 276.029 484.14
604 0 36.082 8.53611 308 62.7565 275.646 486.052
605 0 36.295 10.8004 392 61.1862 275.638 483.523
606 0 37.1622 10.9789 408 60.8309 275.99 482.804
607 0 36.1696 9.64898 349 63.4355 275.547 483.003
608 0 38.1493 11.8482 452 61.1239 276.409 480.529
609 0 39.1161 10.7117 419 61.7279 276.399 480.644
610 0 38.1986 9.71239 371 64.3154 276.102 482.089
611 0 38.1007 10.5247 401 64.3342 275.791 480.683
612 0 39.1399 11.7272 459 62.1917 276.301 481.453
613 0 41.1275 9.57996 394 63.9137 276.023 484.284
614 0 41.1359 11.2797 464 63.7759 276.108 481.601
615 0 42.2098 10.282 434 64.5115 276.051 481.129
616 0 42.1964 11.8257 499 63.497 276.387 480.242
617 0 43.2202 10.8283 468 64.6923 276.066 479.667
618 0 43.1106 8.65217 373 67.9973 276.164 482.032
619 0 43.0997 10.2321 441 66.8345 276.032 479.127
620 0 44.1378 11.0789 489 65.7546 275.554 479.509
621 0 44.224 9.8589 436 67.2156 275.108 479.472
622 0 43.1365 10.2002 440 67.2045 275.102 479.264
623 0 45.2409 11.1846 506 65.919 275.573 477.275
624 0 47.145 10.0753 475 66.5137 275.051 480.629
625 0 47.2172 10.7588 508 66.6122 275.157 477.787
626 0 47.1856 11.6985 552 65.4348 274.87 476.984
627 0 48.106 10.3729 499 67.0301 274.988 477.475
628 0 49.6254 10.1964 506 67.3103 275.429 476.253
629 0 50.2415 10.2903 517 67.2843 275.253 478.012
630 0 51.1445 11.184 572 66.2762 275.014 473.451
631 0 52.2432 11.4465 598 65.7692 275.174 476.92
632 0 53.3347 11.9059 635 64.211 275.773 476.931
633 0 52.1406 11.258 587 64.7002 275.741 478.719
634 0 52.2174 9.80515 512 67.1777 275.555 474.525
635 0 52.1141 11.2254 585 65.7265 275.973 475.39
636 0 53.287 10.1713 542 65.6273 275.849 478.026
637 0 51.05 9.52008 486 67.4733 275.447 473.539
638 0 53.1213 9.54419 507 67.0572 276.034 476.452
639 0 53.0297 10.2018 541 66.207 275.847 475.37
640 0 53.0242 11.6551 618 64.6149 276.006 474.361
641 0 54.1379 10.0115 542 65.7417 275.552 476.496
642 0 54.1209 11.4004 617 64.6402 275.807 474.138
643 0 53.0826 9.98445 530 66.7396 276.185 476.304
644 0 55.1018 11.5604 637 65.1193 276.159 476.754
645 0 55.096 9.38362 517 68.2321 275.926 474.487
646 0 56.2937 9.16622 516 68.8004 276.122 476.417
647 1 66.0504 13.414 886 89.5282 275.332 284.967
648 0 67.055 13.1236 880 89.8886 275.361 284.587
649 0 72.0991 13.8698 1000 86.624 274.911 287.54
650 0 73.0689 13.4941 986 88.5497 274.859 286.195
651 0 74.0335 12.751 944 91.1324 275.236 287.552
652 0 77.064 13.7937 1063 89.3368 274.923 285.953
653 1 39.027 12.3248 481 88.2557 274.83 307.119
654 0 40.0115 13.0213 521 86.7774 274.749 309.027
655 0 41.053 12.1794 500 88.252 274.968 310.668
656 0 42.0184 10.9476 460 89.3826 274.909 312.061
657 0 43.0247 12.1558 523 87.5985 275.323 312.098
658 0 45.0533 13.2288 596 85.3876 275.044 310.787
659 0 47.0225 12.3345 580 86.3517 275.019 310.816
660 0 48.0544 12.4026 596 86.3372 275.034 311.431
661 0 50.0468 12.9279 647 84.4699 274.802 311.074
662 0 53.0556 13.6461 724 81.8398 275.366 311.778
663 0 54.0349 12.9176 698 83.5774 275.232 311.278
664 0 56.0638 12.575 705 84.1645 274.926 311.21
665 0 56.0447 14.0781 789 82.2877 275.195 309.507
666 0 61.0635 13.5597 828 80.9964 275.947 311.583
667 0 61.0676 13.4769 823 81.8177 276.097 311.34
668 0 63.0591 13.3526 842 82.0748 276.077 311.645
669 0 64.0851 13.2948 852 81.5739 275.971 312.813
670 0 68.0773 12.5886 857 82.8716 276.156 308.294
671 0 68.069 13.0162 886 82.0959 276.098 308.549
672 0 72.046 12.9917 936 81.0139 275.612 307.65
673 0 74.0563 11.8693 879 83.1763 275.456 303.768
674 1 37.0467 10.2303 379 80.5145 275.623 327.137
675 0 39.0324 10.3504 404 81.4059 275.399 323.869
676 0 40.0229 12.4679 499 78.7154 275.946 323.571
677 0 42.0534 13.0548 549 77.0255 275.701 325.53
678 0 44.0476 11.987 528 78.2708 275.259 326.773
679 0 45.0197 12.3502 556 77.2194 275.673 326.964
680 0 46.0716 12.4589 574 76.6307 275.991 327.747
681 0 47.0237 12.3555 581 76.5645 275.799 327.243
682 0 49.045 12.2133 599 76.1052 275.381 327.499
683 0 49.0362 12.7865 627 75.2727 274.458 328.596
684 0 52.2076 13.5996 710 73.7155 275.113 327.301
685 0 53.0895 13.0346 692 74.3237 274.663 328.451
686 0 56.075 12.6795 711 73.6329 274.437 329.664
687 0 56.0568 11.9522 670 74.7448 274.533 330.806
688 0 58.0314 14.0958 818 71.5978 275.065 328.847
689 0 60.0931 13.8618 833 72.3301 275.534 328.068
690 0 60.1653 12.9809 781 74.306 275.589 327.974
691 0 64.0972 13.1987 846 72.9267 275.643 330.359
692 0 64.0698 12.7673 818 73.9144 275.302 331.916
693 0 68.0733 13.8968 946 72.1998 275.217 330.169
694 0 69.0834 12.9698 896 73.0826 275.376 334.294
695 0 71.0799 12.4789 887 74.7351 275.506 332.977
696 0 72.0845 13.5952 980 73.2163 275.273 334.501
697 0 76.0982 12.9307 984 73.8039 275.651 335.083
698 0 83.1128 13.6441 1134 70.209 275.454 342.034
699 0 82.1513 13.0856 1075 73.5451 275.613 338.323
700 0 85.064 13.2841 1130 73.4195 275.764 339.663
701 0 89.1035 13.2879 1184 73.3404 275.897 338.519
702 0 89.1164 12.2088 1088 76.9384 276.407 338.327
703 0 93.132 13.1104 1221 75.0549 275.735 338.26
704 0 97.1058 14.1392 1373 73.882 275.948 335.179
705 0 103.12 13.9449 1438 73.2552 275.775 336.663
706 0 106.062 14.2841 1515 73.2614 276.504 333.623
707 0 109.218 14.3383 1566 73.0888 276.204 334.359
708 1 59.0568 10.9048 644 74.5124 276.213 358.72
709 0 61.0511 11.9736 731 74.0137 276.445 355.715
710 0 62.1463 12.3097 765 73.881 276.443 353.298
711 0 64.0572 11.5678 741 73.0688 276.745 350.204
712 0 64.0608 12.4101 795 71.8742 276.689 348.216
713 0 69.0705 12.6393 873 70.2829 277.12 347.566
714 0 73.1557 12.6989 929 70.0248 276.452 345.662
715 0 75.1184 12.9529 973 69.9363 277.169 342.893
716 0 77.1175 12.5912 971 71.0803 277.081 340.411
717 0 79.0992 12.1872 964 72.1598 276.532 336.781
718 0 83.1464 13.0132 1082 70.9399 277.052 335.957
719 0 86.1192 13.3652 1151 69.9748 276.972 337.436
720 1 48.0439 11.3022 543 69.9503 276.753 355.125
721 0 49.095 11.325 556 68.5719 277.263 355.514
722 0 49.0506 11.7837 578 69.564 277.258 354.822
723 0 52.1304 11.5288 601 70.4542 276.541 352.943
724 0 53.1391 12.5143 665 69.2707 276.75 350.857
725 0 54.08 14.7189 796 65.6922 275.905 350.587
726 0 59.1099 12.9589 766 67.7611 276.358 349.86
727 0 58.2259 12.4859 727 69.5681 276.213 348.503
728 0 61.1638 13.4557 823 67.4897 275.7 347.31
729 0 64.0899 11.8739 761 69.4415 275.876 348.418
730 0 65.1725 13.7788 898 67.1013 276.079 347.7
731 0 67.2004 13.0952 880 68.475 275.728 346.914
732 0 68.1417 11.1826 762 71.294 275.97 344.925
733 0 70.1426 10.778 756 71.7659 276.421 344.677
734 0 75.0988 13.9283 1046 66.0583 276.658 344.754
735 0 76.2205 12.9362 986 68.2961 276.353 341.354
736 0 79.2117 11.3872 902 70.7805 276.642 339.613
737 1 44.0925 10.546 465 68.286 276.772 355.688
738 0 44.0767 11.5254 508 68.3307 276.496 354.787
739 0 48.1197 10.9519 527 67.5769 276.767 355.37
740 0 48.0791 10.5035 505 68.305 276.877 355.879
741 0 50.0575 12.2259 612 66.2778 277.002 353.967
742 0 50.0537 11.6075 581 66.9673 276.83 353.184
743 0 53.0292 13.3323 707 64.4823 276.496 352.385
744 0 54.0401 11.732 634 66.5615 276.617 352.473
745 0 57.1555 11.9324 682 66.6628 276.529 349.969
746 0 58.2241 12.4347 724 66.0843 276.789 350.192
747 0 62.0958 12.9638 805 64.8894 276.917 348.198
748 0 61.1379 11.5477 706 68.2394 277.051 347.093
749 0 65.0612 12.7572 830 66.0386 276.353 344.984
750 0 65.0883 11.3384 738 68.3713 276.182 344.505
751 0 68.1046 11.5704 788 67.184 275.898 345.425
752 0 72.1836 13.4657 972 64.9815 275.997 340.437
753 0 74.1644 12.4184 921 66.3257 276.012 339.27
754 0 79.1573 12.6962 1005 64.5274 275.974 341.002
755 0 79.1629 11.1668 884 67.4333 275.552 339.576
756 1 40.0133 9.74676 390 66.4026 275.933 356.908
757 0 43.0196 9.62353 414 66.256 276.386 355.684
758 0 44.0357 10.0373 442 64.8575 275.923 355.335
759 0 44.0514 11.7363 517 62.087 276.861 355.658
760 0 45.0918 10.7115 483 63.5424 277.151 356.122
761 0 49.0698 11.4938 564 61.5213 276.729 356.645
762 0 48.1526 11.4636 552 63.3025 275.973 351.226
763 0 50.0985 10.5392 528 62.3011 276.841 355.021
764 0 53.1755 12.4682 663 60 276.538 353.038
765 0 57.1522 12.178 696 59.4569 276.749 354.157
766 0 55.1503 11.6953 645 62.0868 276.034 350.707
767 0 57.2198 11.4995 658 61.4939 276.348 349.719
768 0 59.0656 13.0025 768 60.0846 276.518 348.762
769 0 61.1243 12.2046 746 60.8592 277.042 349.74
770 0 61.097 11.6372 711 62.2433 276.062 346.665
771 0 65.0798 11.1863 728 61.3462 275.916 348.799
772 0 66.1091 10.8306 716 62.5335 275.947 347.594
773 0 69.1226 12.4127 858 60.8485 275.928 345.413
774 0 71.0558 12.3987 881 60.0045 275.909 345.838
775 0 73.247 11.2223 822 62.8418 275.637 343.328
776 0 77.2138 9.99822 772 63.978 275.418 343.276
777 1 41.0306 11.7961 484 60.5434 275.915 359.878
778 0 41.1014 12.019 494 60.9231 275.644 358.769
779 0 41.0328 10.6013 435 61.6391 276.253 358.14
780 0 43.0878 10.1421 437 62.2654 276.055 359.533
781 0 44.1554 9.91952 438 63.8356 275.308 356.742
782 0 47.152 12.6612 597 60.3685 275.459 355.816
783 0 47.124 11.7986 556 61.473 275.61 356.813
784 0 48.1216 10.328 497 63.7807 276.008 355.676
785 0 50.0593 10.8871 545 63.8697 275.886 353.908
786 0 52.1484 11.8508 618 63.0809 275.798 351.856
787 0 55.1358 12.2969 678 62.4853 276.09 351.308
788 0 57.1627 11.4235 653 63.9939 276.352 350.433
789 0 59.1617 11.6968 692 62.776 275.727 351.59
790 0 61.1215 13.285 812 61.0111 275.841 349.584
791 0 61.1997 12.1079 741 63.0108 275.756 347.908
792 0 64.0973 11.2953 724 63.634 275.82 346.686
793 0 67.1413 12.3769 831 61.5211 276.523 348.045
794 0 68.0882 12.0873 823 62.0194 276.604 346.988
795 0 71.0835 12.7596 907 61.9956 276.501 341.455
796 0 73.1864 15.1394 1108 58.8935 276.536 343.514
797 0 77.1279 12.2653 946 63.2569 276.823 340.892
798 0 77.1468 12.5734 970 62.6351 275.954 341.848
799 0 81.1047 11.8735 963 64.2461 275.69 339.474
800 1 43.1158 9.53247 411 64.5839 275.324 357.861
801 0 44.0737 10.5278 464 64.8987 274.929 355.858
802 0 46.0533 10.1404 467 64.4989 275.655 357.514
803 0 50.1439 10.4898 526 63.3802 275.517 356.152
804 0 50.0732 11.2835 565 62.8142 275.832 355.216
805 0 54.0965 11.1098 601 62.1364 275.72 354.178
806 0 54.1329 11.3794 616 63.0649 276.164 351.692
807 0 58.1742 12.3251 717 61.1492 276.319 351.59
808 0 58.1999 11.3059 658 62.3404 276.257 351.497
809 0 61.1149 12.7465 779 61.0167 276.126 348.191
810 0 63.1411 11.1496 704 62.7741 275.567 349.286
811 0 63.0974 12.2668 774 62.9819 275.751 348.039
812 0 67.0648 14.0014 939 59.4835 276.264 345.177
813 0 69.0865 10.4507 722 64.2299 276.825 344.472
814 0 69.0595 12.1924 842 62.6057 276.982 342.808
815 0 73.1207 12.6503 925 61.0238 276.783 343.924
816 0 76.1228 11.7179 892 63.0561 276.831 341.417
817 0 78.196 12.3791 968 61.4514 276.945 341.506
818 0 78.0259 10.8169 844 63.6682 276.345 337.647
819 0 84.108 13.9939 1177 59.452 276.41 340.418
820 0 86.1573 12.2102 1052 61.9392 276.568 336.079
821 0 89.1054 12.1878 1086 61.6409 276.554 334.993
822 1 46.0211 8.66993 399 64.0602 277.449 357.574
823 0 47.0869 11.4682 540 61.5796 276.8 353.665
824 0 49.0727 11.1671 548 61.5073 276.934 352.453
825 0 52.0496 10.1442 528 61.4299 276.763 354.233
826 0 53.0784 13.0938 695 58.7252 276.25 350.02
827 0 54.0744 10.2082 552 60.6268 276.875 351.223
828 0 57.023 10.9079 622 59.6977 276.225 348.408
829 0 58.1262 11.217 652 58.6472 276.118 350.439
830 0 63.1062 11.8847 750 57.5547 276.78 349.323
831 0 64.1435 11.256 722 59.7285 277.507 347.511
832 0 64.0456 11.8666 760 59.7684 277.05 343.539
833 0 68.0625 12.4151 845 58.1633 277.762 344.675
834 0 71.1245 10.8401 771 59.6031 277.538 343.387
835 0 71.1293 11.3174 805 59.0919 277.347 343.894
836 0 75.104 10.5587 793 59.0063 277.24 343.05
837 0 79.1396 11.3344 897 57.845 276.91 338.802
838 0 80.0881 11.4749 919 58.8629 276.965 337.008
839 1 43.1181 9.48557 409 57.3594 276.721 356.839
840 0 43.0874 10.8152 466 55.9227 276.794 357.453
841 0 45.1125 10.9947 496 55.0464 276.597 357.879
842 0 44.0921 10.7049 472 56.7203 276.367 357.299
843 0 46.0626 10.9199 503 56.4493 276.103 356.083
844 0 53.1793 11.8467 630 55.627 275.821 354.429
845 0 51.1162 10.662 545 57.7982 275.666 352.85
846 0 54.0854 12.3878 670 55.1463 276.525 350.245
847 0 54.2986 11.2342 610 56.8541 276.423 351.938
848 0 57.1004 10.753 614 57.1531 276.427 351.805
849 0 58.1353 10.6304 618 57.6181 276.961 347.678
850 0 60.1618 11.2197 675 57.2281 276.606 347.761
851 0 63.1376 12.3698 781 55.9142 276.761 347.565
852 0 65.1147 11.0267 718 57.1462 276.751 348.455
853 0 66.1637 10.4891 694 58.5331 277.444 346.641
854 0 70.0959 13.0107 912 55.2971 276.866 344.161
855 0 74.1424 12.3546 916 56.2478 276.77 343.087
856 0 75.14 10.9529 823 58.2454 276.566 339.352
857 0 80.1072 11.5096 922 57.4306 276.077 337.883
858 0 84.2937 14.9952 1264 52.7658 275.522 341.036
859 0 82.2481 12.1583 1000 57.387 275.214 332.543
860 0 87.3253 11.6232 1015 57.8089 275.741 333.962
861 1 46.0889 9.61186 443 58.1287 275.876 353.185
862 0 49.1085 10.7313 527 56.4345 275.651 355.235
863 0 52.2095 12.3732 646 56.0511 276.166 349.92
864 0 50.1226 10.3147 517 60.0832 276.18 350.443
865 0 53.1858 10.736 571 57.1349 277.399 353.191
866 0 59.0975 11.7264 693 55.0332 277.156 351.283
867 0 61.2054 12.5806 770 53.4506 276.413 351.297
868 0 59.1052 10.0668 595 57.7916 276.333 348.904
869 0 63.0581 11.5608 729 55.7092 276.912 349.694
870 0 66.0437 13.0065 859 53.929 277.051 348.055
871 0 69.0423 11.7899 814 55.8084 277.324 345.086
872 0 71.0441 12.2881 873 55.3517 277.252 343.871
873 0 71.0525 10.7667 765 56.8601 277.286 345.514
874 0 74.1403 12.1257 899 55.1746 276.482 345.802
875 0 77.1286 11.0594 853 56.7315 276.624 341.972
876 0 81.1307 11.2781 915 56.1454 277.01 341.597
877 0 79.0666 10.0042 791 58.9229 277.497 336.88
878 0 85.0468 13.0869 1113 53.7493 277.431 342.789
879 1 45.0156 10.0632 453 56.5938 277.254 357.32
880 0 45.0216 8.70694 392 57.3138 276.99 356.508
881 0 45.0861 12.465 562 53.0196 276.852 358.053
882 0 50.1448 10.2304 513 55.4561 276.472 355.862
883 0 50.0654 11.1654 559 56.3739 275.886 352.513
884 0 53.1505 12.1542 646 54.6347 276.204 352.067
885 0 53.0769 10.7391 570 56.3211 276.653 352.275
886 0 57.1208 10.5391 602 56.0548 276.259 352.395
887 0 58.1433 14.1547 823 52.6938 276.615 351.883
888 0 58.0207 12.0647 700 55.8257 276.143 347.444
889 0 62.0699 12.2604 761 54.9041 276.643 348.807
890 0 60.1477 9.89232 595 58.8034 276.333 345.978
891 0 65.1483 12.4946 814 54.8894 276.026 347.49
892 0 63.0933 9.90597 625 58.2368 276.531 343.818
893 0 70.0321 12.48 874 55.8032 276.224 342.347
894 0 72.0844 13.5674 978 55.2454 276.526 341.82
895 0 71.0992 10.4221 741 59.108 276.296 341.648
896 0 77.129 13.9895 1079 54.2558 276.46 342.349
897 0 79.1018 10.4296 825 58.7806 276.748 341.442
898 0 81.0742 12.5934 1021 57.1577 276.413 338.758
899 0 84.0375 12.3278 1036 57.9392 276.067 335.706
900 0 87.1385 13.6564 1190 56.6765 275.712 334.651
901 0 89.1262 12.4318 1108 57.8294 276.012 336.805
902 0 96.0935 13.1435 1263 56.9549 276.455 333.653
903 0 96.1651 11.657 1121 59.5076 276.533 331.174
904 0 100.135 12.603 1262 57.6823 275.508 332.208
905 0 105.156 11.2975 1188 59.3855 275.225 329.444
906 1 58.0825 10.9327 635 56.6724 276.748 353.792
907 0 58.0531 10.1287 588 58.5952 276.422 351.002
908 0 58.0439 10.9228 634 58.3202 276.358 351.451
909 0 60.0891 11.2167 674 58.6914 276.55 348.504
910 0 63.0608 12.702 801 56.8489 276.283 347.512
911 0 62.1354 11.2818 701 59.5121 276.029 347.351
912 0 67.168 12.238 822 58.1229 276.047 346.352
913 0 68.0503 12.3585 841 57.7111 276.231 348.967
914 0 70.0782 12.5574 880 58.4966 276.43 343.403
915 0 73.1425 13.713 1003 56.7198 275.92 345.548
916 0 76.0927 11.8934 905 58.9448 275.754 342.632
917 0 80.225 13.1879 1058 57.4187 274.861 341.228
918 0 82.1925 13.6144 1119 57.7015 274.465 338.473
919 0 84.0852 11.3932 958 60.4238 274.48 337.229
920 1 41.0689 9.66669 397 59.2443 274.756 358.662
921 0 43.0988 10.2323 441 58.7347 275.884 358.426
922 0 44.0263 11.425 503 59.0179 275.992 357.547
923 0 45.039 10.7906 486 59.7058 276.626 357.79
924 0 46.036 12.0123 553 59.5967 276.886 354.264
925 0 50.0404 10.7713 539 59.5826 277.085 357.187
926 0 49.0389 11.1952 549 60.5264 276.776 355.209
927 0 52.0494 12.4881 650 58.2738 276.38 355.866
928 0 52.0682 11.12 579 61.1675 276.261 353.789
929 0 54.0192 12.8843 696 58.6739 276.455 353.408
930 0 56.0379 13.4373 753 58.4675 276.611 350.406
931 0 56.065 13.7162 769 58.5696 275.761 350.54
932 0 61.1064 15.8248 967 54.91 275.625 352.21
933 0 64.0833 13.9974 897 56.4727 276.311 350.918
934 0 65.0849 12.8294 835 59.2862 276.189 347.146
935 0 65.0951 14.0564 915 58.3202 276.319 345.785
936 0 69.0946 12.2441 846 60.5095 275.479 344.98
937 0 70.0559 12.7327 892 60.0325 275.391 346.749
938 0 72.0611 12.3368 889 61.1856 275.511 343.847
939 0 73.0774 12.6852 927 60.8134 275.836 343.086
940 0 75.0409 12.6731 951 61.6498 276.548 340.364
941 0 80.1681 13.0351 1045 60.9148 276.839 338.062
942 0 84.1177 13.3741 1125 60.7449 276.368 337.895
943 1 46.0881 10.6101 489 59.865 277.102 358.305
944 0 49.0376 9.03389 443 62.0181 277.298 358.427
945 0 50.0432 11.8298 592 59.8649 277.1 356.529
946 0 50.0718 11.0441 553 61.7505 276.477 354.797
947 0 55.0861 10.7468 592 60.6959 276.154 355.867
948 0 53.1894 11.3932 606 61.8548 276.132 353.883
949 0 55.0856 10.7832 594 62.4848 276.044 352.503
950 0 59.2037 13.6985 811 57.291 275.946 354.771
951 0 59.2132 11.0448 654 61.5948 275.56 350.82
952 0 61.1572 11.7239 717 60.3863 275.301 352.459
953 0 65.1196 12.3312 803 59.5766 275.309 350.133
954 0 66.2061 13.1408 870 59.054 275.041 349.24
955 0 67.0726 11.7783 790 60.9848 274.651 347.181
956 0 69.1954 12.443 861 59.4832 274.911 346.264
957 0 72.0752 12.4037 894 59.7125 275.087 345.814
