time division length width area intensity CMx CMy
0 0 65.068 11.7723 766 74.017 583.833 487.615
1 0 65.0532 11.9133 775 74.6465 583.766 484.223
2 0 68.0509 11.4767 781 74.3739 583.872 485.654
3 0 67.0752 11.4648 769 75.2419 583.505 484.661
4 0 70.0696 11.5314 808 74.4975 583.687 484.13
5 0 72.0516 11.1864 806 75.2655 583.325 481.645
6 0 75.0454 12.0993 908 72.5826 582.979 484.95
7 0 76.0901 10.4481 795 75.5358 582.103 483.125
8 0 80.0811 13.6611 1094 70.9013 582.322 480.173
9 1 39.0109 10.3048 402 74.6741 582.403 497.607
10 0 41.0381 9.72266 399 74.8546 582.444 498.008
11 0 43.0634 11.3786 490 72.6776 582.167 497.167
12 0 45.0477 12.0539 543 71.4641 581.866 497.335
13 0 45.0483 9.98928 450 74.5889 581.793 498.284
14 0 47.0337 10.9709 516 73.5833 582.054 496.68
15 0 51.1116 12.3651 632 69.894 581.528 496.578
16 0 51.0488 11.6555 595 71.1059 581.652 496.963
17 0 52.0653 12.1386 632 71.4098 580.984 493.835
18 0 53.0326 12.0869 641 71.6817 581.29 492.53
19 0 54.0359 10.6596 576 74.184 581.533 492.547
20 0 55.0775 11.4203 629 73.1669 581.728 491.52
21 0 59.0875 11.5253 681 72.1615 581.47 491.295
22 0 57.0265 10.6617 608 74.5493 581.941 490.202
23 0 63.0649 12.6536 798 70.1516 582.023 489.508
24 0 64.0367 12.0087 769 71.7074 582.148 488.645
25 0 65.1226 10.5033 684 73.902 581.389 488.539
26 0 66.0608 11.6862 772 72.7021 581.516 485.885
27 0 68.0439 11.6395 792 72.8775 581.625 484.802
28 0 70.1236 11.8648 832 72.518 581.254 486.041
29 0 72.1185 11.5366 832 73.7957 581.481 483.644
30 0 74.0666 10.8011 800 74.075 581.805 484.56
31 0 78.058 12.4907 975 71.0236 581.524 482.019
32 1 40.0694 9.73311 390 71.5231 580.849 502.049
33 0 41.0166 10.8737 446 70.5381 580.439 499.599
34 0 43.042 10.0367 432 71.0278 580.208 500.419
35 0 43.0164 10.4611 450 70.5867 579.982 499.251
36 0 45.0312 9.4601 426 72.9812 580.667 498.974
37 0 46.0409 10.8165 498 71.3715 581.076 497.807
38 0 46.0403 10.0781 464 73.1034 581.306 496.823
39 0 46.0603 9.87836 455 73.8505 581.677 496.495
40 0 49.047 11.9681 587 70.3373 581.48 494.664
41 0 51.0474 11.7342 599 70.798 581.295 495.693
42 0 50.0806 11.5015 576 72.7049 581.172 493.684
43 0 53.0363 10.5023 557 73.7271 580.844 493.522
44 0 54.0675 11.8186 639 72.1862 581.103 493.121
45 0 56.0862 12.3738 694 71.7536 581.235 491.703
46 0 57.0802 12.7365 727 71.2366 580.618 491.547
47 0 60.0828 11.0514 664 73.9352 580.973 489.72
48 0 62.0892 12.2727 762 71.7717 581.231 489.333
49 0 61.0995 10.2128 624 75.6763 581.309 488.562
50 0 64.093 11.0152 706 73.7054 581.501 487.098
51 0 66.0874 9.71441 642 75.176 581.618 487.857
52 0 68.0728 12.3544 841 71.5386 581.773 482.765
53 0 71.0784 11.2692 801 72.6991 581.958 483.664
54 0 71.1284 11.2051 797 73.6386 582.107 483.432
55 0 75.1115 12.7011 954 70.3952 582.167 484.122
56 0 77.1032 12.1396 936 71.9135 582.351 481.067
57 0 78.0453 11.3908 889 73.8774 581.904 477.645
58 1 41.0451 9.33119 383 73.2977 580.932 498.95
59 0 43.0589 8.6161 371 73.9838 580.806 500.154
60 0 42.0451 12.0585 507 70.6114 580.669 495.988
61 0 45.0777 10.7148 483 72.3727 580.681 497.658
62 0 46.0552 10.6828 492 72.4411 580.217 497.598
63 0 48.1746 11.7697 567 70.7213 580.06 497.039
64 0 50.0807 10.2235 512 72.5605 580.879 497.682
65 0 51.0941 9.688 495 73.6545 580.628 497.64
66 0 52.0341 10.9159 568 72.9859 581.532 495.261
67 0 52.0341 10.9544 570 134.865 582.514 495.258
68 0 56.0417 11.7948 661 72.1634 580.513 493.077
69 0 56.1968 9.2532 520 76.6904 580.419 492.342
70 0 58.0723 9.66037 561 76.3815 580.788 493.169
71 0 61.1076 10.7024 654 74.9495 580.616 490.024
72 0 61.0286 11.4536 699 74.1288 580.873 490.246
73 0 64.0708 12.0804 774 73.1641 580.767 488.181
74 0 65.0739 11.802 768 74.4753 580.443 488.049
75 0 68.0986 11.3512 773 75.4023 580.9 488.393
76 0 69.1672 10.9734 759 76.2069 580.859 488.216
77 0 72.181 11.8314 854 74.7763 580.633 486.152
78 0 71.0975 9.97223 709 79.0889 580.65 484.283
79 0 75.162 11.9874 901 74.667 580.528 483.946
80 1 38.0315 10.8857 414 74.3188 580.986 501.304
81 0 40.0751 10.9544 439 74.1549 580.991 500.212
82 0 39.0231 11.1729 436 74.6216 580.298 501.509
83 0 42.0617 12.5054 526 71.903 580.082 499.975
84 0 43.0265 10.8538 467 74.4818 580.236 499.762
85 0 46.0785 9.91785 457 74.0853 580.319 501.431
86 0 45.0261 11.5266 519 74.1965 580.684 498.118
87 0 46.0494 11.4877 529 73.8752 580.769 498.267
88 0 47.0725 10.9406 515 75.3165 580.474 497.734
89 0 51.0832 11.6672 596 72.5101 579.921 497.148
90 0 52.0419 11.8558 617 72.4425 580.862 495.968
91 0 53.048 12.1023 642 72.3474 580.511 495.245
92 0 53.0244 12.2019 647 72.2117 580.612 493.13
93 0 54.0727 9.83862 532 75.7274 580.564 492.477
94 0 55.0502 9.3006 512 77.1523 580.725 492.322
95 0 57.0332 11.4495 653 73.4349 580.779 492.256
96 0 60.0393 11.3259 680 73.1647 581.043 490.591
97 0 59.0595 10.8027 638 74.4483 580.785 489.375
98 0 63.1075 11.0446 697 73.4677 580.542 489.593
99 0 65.088 11.9223 776 72.482 580.338 486.956
100 0 66.0625 11.8524 783 72.8531 580.344 486.917
101 0 68.0647 11.6654 794 73.1851 580.416 485.887
102 0 70.0821 9.75998 684 76.0804 580.671 486.015
103 0 72.0628 10.2133 736 75.6685 580.375 484.48
104 1 36.0039 9.55451 344 73.7645 580.939 501.666
105 0 37.0082 10.0248 371 73.0189 580.606 501.482
106 0 38.0389 10.5944 403 72.2978 580.722 502.69
107 0 39.0812 8.93012 349 75.6418 581.685 501.338
108 0 42.0492 12.1287 510 69.9451 580.678 499.798
109 0 43.0557 11.2645 485 71.5938 580.986 499.769
110 0 45.0138 10.4857 472 72.3644 579.426 499.064
111 0 47.0401 12.1386 571 69 579.984 500.135
112 0 47.097 11.5082 542 70.6937 580.469 499.277
113 0 48.02 11.5369 554 71.1065 580.294 496.502
114 0 50.0336 11.1125 556 71.0629 580.351 497.387
115 0 50.0428 10.3711 519 73.1079 581.204 495.734
116 0 51.0221 11.9164 608 70.898 579.946 493.362
117 0 53.0578 11.4969 610 70.4885 580.318 496.864
118 0 53.0099 11.2809 598 71.4515 580.528 494.079
119 0 55.0183 10.2693 565 72.8602 579.575 492.414
120 0 58.0478 12.2141 709 69.1594 579.834 493.659
121 0 59.1629 11.6796 691 70.1896 580.137 491.97
122 0 62.0382 11.5413 716 70.243 579.894 491.559
123 0 61.1028 11.7671 719 70.6175 580.09 490.387
124 0 63.1591 10.1806 643 72.675 579.669 489.989
125 0 63.1587 11.194 707 72.2532 580.151 489.294
126 0 67.1875 12.0856 812 70.4101 580.459 488.18
127 0 68.0711 12.0609 821 70.7929 580.211 488.068
128 0 71.1217 12.57 894 69.6018 580.28 486.792
129 0 72.1019 11.8305 853 71.2814 581.286 485.549
130 0 76.0955 12.5369 954 69.8449 580.596 484.748
131 0 76.0931 10.5397 802 73.6945 580.383 485.296
132 1 41.0558 12.0811 496 67.5665 580.079 501.431
133 0 41.0567 10.7656 442 70.9932 580.428 500.957
134 0 41.0119 9.87518 405 73.2691 581.309 500.012
135 0 41.0209 10.9944 451 73.5011 581.339 497.612
136 0 43.0236 11.2264 483 72.6335 581.085 500.284
137 0 45.0321 10.7701 485 73.7175 581.532 497.911
138 0 48.0346 10.5965 509 73.2672 581.134 498.756
139 0 49.0169 10.0782 494 74.1802 580.678 498.213
140 0 50.0288 11.9731 599 71.5659 580.366 497.013
141 0 51.1037 11.7604 601 71.9035 580.499 496.855
142 0 53.0302 11.5029 610 72.8672 580.808 496.584
143 0 52.0321 9.78243 509 75.9745 580.849 496.255
144 0 55.0713 11.0039 606 73.6304 581.007 495.777
145 0 56.0273 11.4052 639 73.4914 580.557 493.247
146 0 58.0834 11.2425 653 73.0643 580.953 494.198
147 0 57.0607 11.4439 653 73.6462 580.87 492.576
148 0 59.0197 10.7252 633 74.5324 580.964 491.499
149 0 60.0348 10.977 659 74.1305 580.338 490.446
150 0 64.1227 11.6339 746 72.5737 580.532 488.808
151 0 65.0662 10.7429 699 73.6767 580.878 489.296
152 0 67.0441 10.4856 703 73.7952 581.265 489.011
153 0 68.1071 11.2764 768 73.2604 581.254 488.758
154 0 70.0591 10.377 727 74.7263 581.832 485.38
155 0 73.0967 11.1359 814 73.6106 581.627 486.101
156 0 75.0571 11.6978 878 72.6219 581.273 485.777
157 1 39.0315 8.89027 347 72.7522 580.902 501.856
158 0 39.0523 10.7292 419 70.2816 580.647 502.31
159 0 40.0716 10.3065 413 71.2494 581.247 501.6
160 0 40.0625 10.5086 421 71.5463 580.599 498.76
161 0 42.0413 12.0596 507 68.7692 580.465 499.132
162 0 42.0668 10.2456 431 71.5174 581.258 499.276
163 0 42.0668 10.3645 436 119.179 581.241 499.158
164 0 43.0212 10.46 450 72.9267 581.471 497.673
165 0 45.0488 10.8549 489 72.683 581.18 497.012
166 0 49.025 11.28 553 71.4141 581.432 496.148
167 0 48.052 10.9465 526 72.5171 581.213 497.086
168 0 49.0724 10.78 529 72.9981 581.236 496.773
169 0 52.0318 10.6089 552 73.9601 580.649 494.484
170 0 51.087 11.1574 570 74.3789 580.96 491.928
171 0 54.0236 11.2173 606 74.0347 581.398 492.455
172 0 56.0301 12.4397 697 72.4706 581.633 490.811
173 0 56.0413 10.3674 581 75.6076 581.088 493.663
174 0 56.0766 9.98634 560 76.7089 580.464 492.861
175 0 59.0716 11.9008 703 74.1223 580.597 491.013
176 0 62.0324 11.6552 723 74.6667 581.176 491.775
177 0 62.12 11.0753 688 76.1323 580.862 491.721
178 0 63.0166 9.90215 624 78.5256 580.327 488.716
179 0 66.1121 11.8586 784 75.3622 580.332 487.677
180 0 67.0523 10.5888 710 77.2296 579.804 488.128
181 1 35.0578 9.64123 338 77.426 578.991 502.828
182 0 34.0196 10.1706 346 77.5925 579.078 502.434
183 0 37.1116 11.2633 418 74.9952 579.622 502.801
184 0 38.0247 9.09936 346 79.0983 579.815 502.393
185 0 38.0677 10.3237 393 78.2239 579.863 499.812
186 0 39.1279 10.8618 425 76.7271 580.407 500.165
187 0 38.093 10.1068 385 79.0961 580.577 499.597
188 0 42.0354 11.7996 496 75.5383 580.254 498.198
189 0 44.0594 11.1214 490 75.9184 580.463 498.476
190 0 46.1461 11.962 552 74.4167 580.793 497.96
191 0 46.0258 11.6456 536 75.4142 580.92 497.634
192 0 50.031 10.6534 533 76.2026 581.049 498.122
193 0 47.0256 10.4199 490 78.7388 581.259 496.471
194 0 49.0717 10.8617 533 78.0169 581.411 495.315
195 0 52.0712 12.0796 629 75.1606 581.496 495.668
196 0 54.059 11.7279 634 75.8754 581.973 494.522
197 0 54.0634 11.7825 637 76.2716 581.352 493.587
198 0 56.0275 12.4582 698 74.5014 581.713 495.034
199 0 56.0572 11.4526 642 76.8832 581.282 493.458
200 0 61.0279 13.584 829 72.69 581.344 491.56
201 0 61.0417 11.959 730 75.4137 581.166 491.83
202 0 60.1063 10.5979 637 78.6954 581.229 490.163
203 0 64.1506 12.3304 791 75.9899 580.602 487.498
204 0 66.153 11.3373 750 76.84 581.068 490.161
205 1 34.0367 10.283 350 78.5743 580.883 502.474
206 0 37.0322 12.3136 456 75.4145 580.586 501.991
207 0 35.0637 10.7804 378 77.6138 580.413 500.939
208 0 39.0124 12.6626 494 72.8279 580.796 500.628
209 0 38.0286 12.6221 480 74.1604 581.069 499.731
210 0 40.1034 12.6174 506 73.4012 580.704 499.289
211 0 40.0754 11.5033 461 75.7874 580.386 498.85
212 0 42.0193 11.4709 482 74.8942 580.529 498.539
213 0 44.0934 12.4508 549 73.2149 580.43 498.648
214 0 43.0537 11.776 507 75.4753 580.635 495.556
215 0 45.1247 12.7425 575 74.1183 580.673 494.923
216 0 46.0294 12.1879 561 75.0731 580.62 496.613
217 0 46.051 10.2712 473 78.6152 580.911 495.315
218 0 48.0189 11.0998 533 76.7711 580.713 493.75
219 0 50.0157 12.1562 608 75.3438 580.526 492.492
220 0 49.0233 10.0972 495 78.9535 580.339 492.762
221 0 51.0452 10.6376 543 78.5506 579.891 492.396
222 0 50.0284 10.2742 514 79.4514 580.282 486.856
223 0 50.0718 10.0855 505 80.4416 579.842 483.923
224 0 46.0381 8.53641 393 83.5242 580.267 482.692
225 0 42.0267 8.44702 355 81.8676 580.335 477.952
226 0 47.0894 5.90366 278 83.8633 580.734 476.68
227 0 48.0206 5.95578 286 83.9965 580.094 475.836
228 0 49.0291 8.66831 425 82.9365 579.911 480.621
229 0 51.0249 5.78149 295 81.7593 579.912 468.512
230 0 56.0258 9.8169 550 80.0655 579.6 475.578
231 1 27.01 8.18217 221 84.2986 579.606 495.068
232 0 28.0048 8.03434 225 84.16 579.409 495.569
233 0 31.0205 7.05985 219 85.2877 580.205 496.183
234 0 35.0201 8.96629 314 82.1624 580.497 494.608
235 0 38.0565 9.51217 362 79.8923 580.622 494.53
236 0 37.0077 7.78217 288 83.6424 580.448 497.142
237 0 44.0571 11.6213 512 75.2422 580.689 496.828
238 0 46.0501 13.3984 617 72.9157 580.788 494.005
239 0 47.029 11.5461 543 75.7145 580.597 495.136
240 0 48.0352 13.0321 626 73.5831 580.137 493.861
241 0 50.0356 12.2713 614 73.9772 580.295 493.458
242 0 52.0685 12.3107 641 73.3292 580.145 493.023
243 0 54.1069 12.0502 652 73.7991 579.87 492.472
244 0 54.049 11.8596 641 74.2746 580.028 493.039
245 0 57.0406 13.1135 748 72.1136 580.083 490.368
246 0 58.0834 12.6714 736 72.9647 580.455 490.257
247 0 58.059 11.9189 692 74.6951 580.223 488.736
248 0 63.0851 12.9508 817 71.7454 580.035 487.82
249 0 62.0476 12.297 763 73.8073 580.174 485.875
250 0 66.0939 12.9815 858 72.1783 580.374 485.132
251 0 67.0993 11.9971 805 73.8062 580.566 487.116
252 0 69.1756 12.2008 844 73.7879 580.661 485.286
253 0 72.0828 12.9851 936 71.9338 580.334 484.48
254 0 74.0922 12.5654 931 72.551 580.211 483.917
255 0 75.0612 12.0302 903 73.6833 580.343 482.667
256 0 77.0929 12.8157 988 72.9464 580.276 480.151
257 0 79.0398 11.4752 907 75.0265 580.33 479.286
258 1 41.0538 10.4497 429 73.7855 580.235 499.951
259 0 43.0557 10.08 434 72.9816 580.272 500.438
260 0 42.0718 10.9812 462 73.4069 580.351 499.353
261 0 43.1249 10.4348 450 74.92 580.527 497.333
262 0 45.2618 11.7759 533 72.2214 580.238 496.844
263 0 48.2005 11.6596 562 71.7011 580.356 495.05
264 0 49.0414 12.1122 594 70.7189 580.197 495.581
265 0 49.0738 10.9223 536 73.3918 580.985 494.543
266 0 53.0777 11.5114 611 71.5696 580.899 494.763
267 0 54.0709 11.8733 642 71.1449 580.492 493.907
268 0 54.0348 12.3809 669 71.0523 580.743 490.996
269 0 57.0764 12.1591 694 70.7507 581.556 491.853
270 0 58.0676 12.4338 722 70.2645 581.314 490.784
271 0 59.0983 10.9309 646 72.7988 581.18 489.734
272 0 62.0538 12.7631 792 69.5429 581.362 487.547
273 0 62.087 10.0665 625 73.2288 581.318 488.726
274 0 62.1069 12.3175 765 71.0301 581.62 484.888
275 0 66.0625 12.685 838 69.8246 581.03 483.971
276 0 66.0438 10.4628 691 73.7525 581.132 484.146
277 0 72.1296 12.3528 891 69.3973 580.902 485.019
278 0 74.1369 12.5444 930 69.7151 580.531 483.269
279 0 77.1485 12.3398 952 69.5819 580.166 481.5
280 0 79.078 12.6205 998 69.513 580.86 479.689
281 1 42.18 11.3561 479 69.6806 579.816 499.296
282 0 43.0929 12.1366 523 68.8375 579.753 497.793
283 0 43.0492 10.7551 463 71.1749 580.285 497.549
284 0 46.0513 12.0301 554 69.5578 580.004 495.274
285 0 47.0929 11.1057 523 70.7916 580.361 496.155
286 0 50.0372 12.2109 611 68.5728 580.034 496.155
287 0 47.0756 10.2813 484 72.8182 581.041 494.715
288 0 50.1094 12.5126 627 69.2169 580.407 492.89
289 0 52.0773 11.2909 588 70.665 580.713 493.434
290 0 53.0665 11.9661 635 70.1417 580.29 491.169
291 0 52.0823 10.2338 533 72.4878 580.91 493.216
292 0 56.0618 12.6468 709 69.2017 580.56 491.89
293 0 57.0534 11.9888 684 70.5029 580.944 490.434
294 0 58.1041 12.0473 700 70.65 581.157 490.683
295 0 57.041 10.7817 615 72.8033 580.665 490.79
296 0 61.0481 12.9406 790 69.6304 580.746 488.733
297 0 62.0686 11.9706 743 71.4253 580.735 488.124
298 0 64.1971 12.2435 786 70.8092 580.664 486.552
299 0 67.0816 12.5072 839 69.9285 580.582 488.826
300 0 67.1636 12.0154 807 71.5043 580.315 485.66
301 0 69.0879 11.1742 772 73.215 581.145 485.356
302 0 72.0582 13.2393 954 70.0786 580.995 482.66
303 1 37.0156 11.1575 413 72.7288 581.278 500.872
304 0 37.0367 9.9901 370 73.7649 581.232 502.676
305 0 39.0365 11.1178 434 72.0645 581.041 501.518
306 0 38.0852 10.319 393 75.5827 579.99 501.611
307 0 40.0586 12.0324 482 72.8838 580.367 500.355
308 0 44.0863 12.5889 555 70.3838 580.288 500.813
309 0 43.0603 12.4941 538 72.2584 580.649 498.257
310 0 46.0181 14.2335 655 69.0458 580.282 498.379
311 0 46.0558 13.6356 628 70.0589 579.664 499.129
312 0 47.0732 12.13 571 73.2627 580.347 497.609
313 0 50.0327 13.4312 672 70.6324 581.371 497.496
314 0 50.0259 12.7534 638 72.768 580.953 495.592
315 0 52.0867 13.6503 711 71.6006 580.72 495.727
316 0 53.0967 13.6167 723 72.0415 580.238 493.873
317 0 55.1091 13.3372 735 72.449 579.744 494.124
318 0 55.0743 13.7269 756 72.4325 579.229 491.737
319 0 56.0389 12.9196 724 74.9807 579.37 490.262
320 0 59.0385 13.9062 821 73.1194 579.156 490.428
321 0 60.0451 13.0402 783 74.9387 579.739 490.086
322 0 63.1422 14.6178 923 71.7118 580.66 491.18
323 0 63.0979 13.9783 882 73.7948 580.478 490.103
324 0 67.0873 13.7135 920 74.1011 580.848 487.082
325 0 68.0314 14.2581 970 73.7289 581.023 485.727
326 0 69.0902 13.7646 951 74.8591 580.22 484.177
327 0 72.0673 14.3338 1033 73.7919 580.44 484.927
328 0 73.0917 13.1205 959 76.1971 580.778 484.355
329 1 41.0529 11.8384 486 77.463 580.617 501.823
330 0 40.074 12.1026 485 78.5505 580.878 501.357
331 0 41.0303 12.4542 511 79.182 581.076 499.65
332 0 43.0473 12.4979 538 79.197 581.383 499.052
333 0 43.0175 12.5298 539 79.9425 581.781 499.82
334 0 47.1184 12.6702 597 78.0168 580.764 500.121
335 0 49.0283 13.5228 663 76.724 581.063 499.374
336 0 48.0693 12.2115 587 80.1652 580.816 499.215
337 0 50.0579 13.0649 654 79.7508 581.222 497.148
338 0 52.0352 14.7016 765 76.9412 580.412 496.418
339 0 53.0625 13.8893 737 78.5536 580.083 494.757
340 0 55.0534 13.387 737 79.5495 580.25 495.68
341 0 56.0261 13.6543 765 79.1085 580.149 494.716
342 0 58.0429 15.0406 873 77.1306 580.52 493.798
343 0 59.0531 13.6318 805 78.964 580.609 494.103
344 0 62.0137 14.0614 872 78.4794 580.521 492.128
345 0 64.1121 13.9911 897 78.9164 580.634 490.294
346 0 65.0833 12.461 811 81.5771 581.042 490.768
347 0 69.1127 13.7312 949 79.2634 580.754 488.295
348 0 71.0758 13.1128 932 79.7961 580.143 490.105
349 0 73.1302 13.1683 963 80.2409 580.41 488.396
350 0 75.2013 13.4572 1012 80.1077 580.093 486.6
351 0 76.0651 13.2781 1010 81.5089 580.182 484.911
352 1 38.0137 12.9164 491 81.2464 579.717 503.422
353 0 40.0431 12.2868 492 82.6423 579.207 503.398
354 0 41.028 12.9911 533 83.4972 579.841 499.795
355 0 44.014 14.8816 655 79.142 580.024 499.56
356 0 43.0132 13.3447 574 83.9477 580.716 499.723
357 0 43.0378 12.5239 539 85.6753 580.642 500.362
358 0 47.1483 14.0408 662 82.2749 579.805 498.122
359 0 48.0875 13.3714 643 82.6532 579.505 500.118
360 0 47.115 13.4777 635 84.5543 579.994 497.592
361 0 50.0878 13.656 684 83.8772 580.129 496.962
362 0 53.0764 13.5277 718 82.9791 580.308 496.833
363 0 54.0356 13.4541 727 83.9876 581.215 496.779
364 0 55.0306 12.9746 714 84.5714 580.894 497.136
365 0 58.0251 13.3735 776 83.2693 580.191 496.628
366 0 60.0521 15.037 903 80.4109 580.676 496.443
367 0 60.042 13.7237 824 84.2257 580.92 493.496
368 0 63.1473 14.0624 888 82.4775 580.858 493.132
369 0 65.1786 15.68 1022 79.6693 580.513 492.178
370 0 66.1086 13.9619 923 82.9577 579.998 491.485
371 0 68.0529 15.2088 1035 80.7807 580.926 488.899
372 0 68.0815 14.7176 1002 82.8653 580.366 487.718
373 0 72.0876 13.7333 990 83.8919 580.726 488.427
374 0 73.0587 13.5918 993 85.3364 580.561 486.397
375 0 77.1157 15.6648 1208 81.3833 580.955 483.841
376 1 38.0437 12.0125 457 88.7681 580.895 500.258
377 0 39.0613 11.9812 468 89.9722 580.665 499.107
378 0 42.0223 12.9931 546 86.9487 580.408 498.973
379 0 42.0704 13.1922 555 86.8505 580.33 499.195
380 0 41.0765 11.8072 485 91.4454 579.909 498.984
381 0 46.0422 12.6189 581 87.599 580.096 497.759
382 0 47.0533 13.7078 645 85.9395 580.101 495.681
383 0 47.0663 12.4718 587 88.4157 580.075 496.187
384 0 49.0957 13.9727 686 84.1268 580.096 496.828
385 0 52.0392 14.0855 733 83.5498 580.694 493.67
386 0 54.0197 13.8468 748 83.5227 580.777 493.829
387 0 54.1139 14.451 782 82.4987 580.4 493.802
388 0 57.0414 14.2177 811 82.127 580.081 493.122
389 0 57.0571 14.8097 845 81.916 580.381 492.431
390 0 59.1076 13.7376 812 84.2069 580.771 489.788
391 0 60.1109 14.9557 899 82.2002 580.644 488.518
392 0 62.047 13.9733 867 83.2584 580.451 490.062
393 0 63.1038 13.1529 830 85.653 581.012 488.118
394 0 67.0509 13.9894 938 83.2281 580.947 486.534
395 0 68.0828 14.5264 989 83.1456 580.987 485.274
396 0 70.0638 15.4859 1085 80.5613 579.745 486.053
397 0 74.0709 14.5806 1080 82.1537 580.244 483.371
398 0 75.1615 14.9279 1122 81.8948 580.266 482.232
399 0 76.0544 13.2142 1005 85.3353 579.497 481.166
400 0 80.1127 13.2813 1064 83.9774 580.112 482.409
401 0 82.0651 13.8792 1139 83.7498 580.148 478.334
402 0 85.0683 14.8116 1260 81.8992 580.176 478.088
403 1 42.0555 11.2233 472 87.6314 579.712 499.047
404 0 44.0617 12.7548 562 83.7473 579.014 498.005
405 0 46.0673 10.6366 490 87.7367 579.584 498.42
406 0 47.0945 11.53 543 87.1786 579.352 496.678
407 0 49.0926 13.1588 646 83.9381 579.647 494.971
408 0 49.0995 12.159 597 86.7035 579.729 494.178
409 0 53.1034 13.5961 722 83.0831 579.902 493.572
410 0 53.0867 12.0746 641 86.0562 580.12 493.778
411 0 55.0164 13.7595 757 83.2827 580.359 492.708
412 0 57.0138 13.1547 750 83.7293 580.859 492.409
413 0 58.1022 13.7344 798 82.1178 580.173 492.46
414 0 58.0456 12.4557 723 84.9959 580.444 491.462
415 0 62.087 14.1576 879 81.6473 580.667 489.281
416 0 63.0326 14.548 917 81.2933 580.905 486.953
417 0 64.0552 12.458 798 84.9712 580.613 488.905
418 0 69.1472 13.2182 914 82.6007 580.573 488.535
419 0 71.1522 14.3636 1022 81.5871 580.648 484.915
420 0 72.0558 13.212 952 83.9664 580.095 484.423
421 0 75.0488 13.6045 1021 82.5955 580.178 484.789
422 0 77.1316 13.9242 1074 82.6732 580.033 483.247
423 0 79.1091 13.5383 1071 82.6993 580.426 485.049
424 0 80.1559 13.1494 1054 84.7211 580.425 481.876
425 0 84.1053 13.602 1144 83.9869 580.082 480.289
426 1 41.084 10.8315 445 86.9326 579.31 499.387
427 0 43.0394 11.6637 502 85.5538 579.373 498.369
428 0 46.0325 11.5788 533 85.4597 579.67 497.593
429 0 47.0137 11.1244 523 86.4723 579.403 496.881
430 0 47.0855 12.0844 569 85.5747 579.293 495.38
431 0 49.1078 12.2791 603 83.7695 579.182 496.141
432 0 50.0305 13.3519 668 82.8204 579.013 495.036
433 0 51.0234 12.8373 655 84.8687 579.105 492.734
434 0 55.082 12.6539 697 82.8077 579.162 493.349
435 0 56.056 11.8453 664 84.4639 579.586 493.099
436 0 57.0884 12.4018 708 83.9774 580.054 491.304
437 0 61.0294 12.8299 783 82.2375 580.4 490.605
438 0 61.0542 13.0212 795 82.9006 580.358 489.713
439 0 62.046 13.1193 814 82.9496 580.268 489.568
440 0 66.0291 13.282 877 81.8426 580.439 488.553
441 0 67.0278 12.6515 848 83.316 580.709 487.033
442 0 70.0349 12.5223 877 83.3044 580.219 486.749
443 0 70.0667 11.8173 828 84.9952 580.151 485.993
444 0 74.0518 13.5986 1007 81.4767 579.378 483.301
445 0 76.031 13.1525 1000 82.333 580.07 482.37
446 0 78.0888 13.0236 1017 83.0944 580.211 480.726
447 1 41.0165 11.922 489 81.8487 580.162 499.9
448 0 43.0772 12.4428 536 80.8321 579.951 498.897
449 0 42.0972 10.7846 454 83.6167 579.637 498.881
450 0 43.0781 11.5836 499 83.4449 580.146 497.114
451 0 46.0206 12.7551 587 80.7359 579.988 496.193
452 0 47.0771 11.2581 530 83.5566 579.74 494.751
453 0 50.0698 11.6637 584 80.8596 579.697 496.842
454 0 51.0231 12.3474 630 80.081 579.762 494.713
455 0 52.0735 11.0613 576 82.5938 579.875 492.342
456 0 54.0563 12.339 667 79.7961 579.885 490.979
457 0 54.0813 11.0389 597 82.1625 580.209 492.07
458 0 58.0398 11.3198 657 81.4125 580.065 490.486
459 0 58.0301 12.4246 721 79.6741 580.419 490.343
460 0 61.0796 11.1821 683 81.3089 580.545 487.286
461 0 63.0557 12.3224 777 79.1441 580.393 486.09
462 0 63.0904 11.856 748 80.3155 580.095 486.596
463 0 68.0868 13.0716 890 77.536 580.566 483.49
464 0 69.0414 12.3404 852 78.9636 580.574 484.001
465 0 71.0794 12.268 872 78.672 580.864 482.789
466 0 75.0804 11.7341 881 79.5131 580.717 480.784
467 1 34.0378 9.57758 326 81.6258 580.748 501.466
468 0 37.1248 9.58928 356 81.5112 580.86 498.604
469 0 38.0425 10.5671 402 79.1592 580.012 498.868
470 0 39.1889 9.44144 370 81.3324 580.116 498.77
471 0 41.0946 10.488 431 79.645 579.995 498.647
472 0 42.0441 11.4879 483 78.2836 579.458 497.298
473 0 46.08 12.8038 590 74.6627 578.71 496.873
474 0 46.061 11.6367 536 77.3806 578.912 496.119
475 0 49.0701 11.5345 566 76.3816 578.433 496.641
476 0 49.176 11.347 558 77.4301 578.504 496.065
477 0 51.0431 11.7548 600 76.8 579.508 494.798
478 0 51.0704 11.0632 565 78.6673 579.504 492.152
479 0 52.0211 12.7256 662 75.9486 580.322 493.106
480 0 54.0127 12.1638 657 75.7686 579.659 492.959
481 0 57.0764 11.9839 684 75.7398 579.55 491.431
482 0 56.1237 11.5459 648 77.304 579.943 491.224
483 0 58.0552 11.3168 657 77.4505 580.556 489.731
484 0 62.2617 12.2226 761 75.1879 580.445 486.34
485 0 65.0839 12.3686 805 74.4522 580.317 488.239
486 0 65.0302 12.3789 805 74.1851 580.256 489.805
487 0 68.0873 12.2343 833 74.9604 580.351 485.715
488 0 70.1152 13.5491 950 72.6358 580.485 484.557
489 1 35.0495 9.55791 335 75.4537 579.857 503.719
490 0 38.0687 12.4249 473 71.315 579.112 501.926
491 0 39.0306 11.8881 464 72.4246 579.394 501.539
492 0 38.0292 10.7286 408 74.8873 579.245 501.01
493 0 41.0247 12.5778 516 72.1938 579.231 498.36
494 0 41.0699 11.9796 492 73.3089 580.008 498.154
495 0 43.0499 11.5912 499 73.7836 579.974 497.683
496 0 44.0353 12.1948 537 73.0298 579.601 498.367
497 0 43.0593 11.2635 485 74.6907 579.359 497.907
498 0 48.0408 12.6143 606 71.6667 579.017 496.477
499 0 49.0322 11.9717 587 73.4532 579.404 496.315
500 0 48.0555 11.5283 554 74.8682 578.738 496.222
501 0 51.1285 11.872 607 74.2949 578.287 495.301
502 0 52.0497 13.9098 724 70.8964 578.761 495.546
503 0 54.0518 12.9876 702 72.2151 578.464 495.856
504 0 54.0285 11.6235 628 75.0016 578.282 493.091
505 0 57.0458 13.4804 769 71.5501 578.484 493.763
506 0 57.0274 11.5559 659 75.2959 578.253 491.941
507 0 59.0712 13.1875 779 72.724 578.809 490.843
508 0 61.0539 13.6437 833 71.3121 578.73 492.533
509 0 63.0523 12.9258 815 73.4454 578.983 488.036
510 0 63.0627 12.7016 801 73.7566 579.019 490.705
511 0 67.1087 13.2174 887 72.9177 579.091 488.374
512 1 34.0238 10.4633 356 76.3848 579.154 504.632
513 0 36.0471 10.8746 392 76.023 579.615 503.663
514 0 36.0365 12.2931 443 75.2664 578.707 502.395
515 0 37.1243 10.9632 407 77.5725 578.526 502.428
516 0 38.0786 10.3733 395 78.6709 578.686 503.122
517 0 42.0701 13.5013 568 74.9049 579.1 499.891
518 0 43.0817 12.6736 546 76.5623 579.421 498.632
519 0 43.0318 12.4792 537 77.689 578.808 498.121
520 0 44.1644 12.8384 567 77.6772 579.224 498.476
521 0 47.0405 12.4574 586 77.5085 578.867 496.819
522 0 48.029 13.013 625 77.0368 578.301 496.782
523 0 49.082 12.3059 604 78.255 578.637 496.604
524 0 50.0375 12.8903 645 77.7488 578.067 495.161
525 0 50.0844 13.1179 657 77.4673 578.336 496.311
526 0 52.0342 14.5866 759 75.2121 579.075 493.672
527 0 55.1116 12.2116 673 77.1991 578.571 495.159
528 0 54.1164 12.9166 699 77.8069 578.359 491.342
529 0 56.1092 12.1549 682 78.2639 578.911 491.943
530 0 61.0685 14.2627 871 74.0654 578.344 490.232
531 0 60.0791 13.2658 797 76.2296 578.75 491.491
532 0 63.0585 13.1148 827 76.0762 578.657 489.36
533 0 64.0809 12.4842 800 77.2175 579.024 486.776
534 0 66.0681 13.698 905 75.8155 578.747 488.254
535 0 69.1185 12.9632 896 76.4967 578.596 486.998
536 0 70.1738 13.0961 919 76.9663 578.725 485.676
537 0 72.1272 13.5871 980 76.7755 578.52 483.944
538 0 75.0556 14.0296 1053 76.0237 579.436 483.036
539 0 78.1399 13.1303 1026 77.2437 579.71 484.347
540 1 41.0318 12.4781 512 78.6016 579.678 500.312
541 0 40.0178 12.5694 503 80.4632 579.708 498.763
542 0 41.0478 11.4501 470 81.4723 579.321 500.651
543 0 44.0113 13.2012 581 80.0947 579.045 496.843
544 0 46.0475 13.4209 618 79.1715 579.408 496.351
545 0 46.0716 13.11 604 79.8659 578.722 497.316
546 0 49.0682 12.5336 615 80.9268 578.634 497.132
547 0 50.0773 14.0982 706 79.3739 579.582 494.276
548 0 52.0837 13.4015 698 79.9986 579.428 494.278
549 0 54.05 13.728 742 79.1563 579.156 492.795
550 0 56.0945 13.8516 777 78.861 579.587 492.274
551 0 57.042 14.1124 805 78.8472 579.102 491.699
552 0 59.129 13.868 820 79.7134 579.262 490.062
553 0 61.0862 12.7525 779 80.8986 578.922 491.094
554 0 64.0388 13.6948 877 79.7674 579.309 488.951
555 0 66.1681 14.7654 977 78.5803 579.406 487.669
556 0 67.0839 14.5937 979 79.43 579.043 486.728
557 0 70.1175 15.2031 1066 77.8265 579.143 486.189
558 0 71.0415 13.8933 987 80.9463 578.788 484.612
559 0 74.074 13.797 1022 81.2446 578.872 482.085
560 0 77.0944 14.8908 1148 79.0183 578.747 483.209
561 0 79.0728 13.5951 1075 81.8502 578.727 481.664
562 1 39.0457 11.9347 466 86.5579 578.719 500.028
563 0 42.035 14.1549 595 82.8655 578.442 498.708
564 0 44.0576 12.2794 541 84.6174 578.545 499.708
565 0 45.0417 12.988 585 84.7692 578.532 498.993
566 0 45.019 12.4614 561 86.0838 578.089 499.704
567 0 47.0212 12.5688 591 86.181 577.873 497.795
568 0 49.0773 12.8777 632 85.9209 577.96 497.195
569 0 51.02 13.4653 687 84.0451 578.45 497.396
570 0 52.0237 14.0705 732 83.9631 578.247 495.182
571 0 55.0779 14.3252 789 82.4322 577.788 495.809
572 0 56.1242 14.5035 814 82.8784 577.797 493.821
573 0 56.0222 14.9048 835 83.3353 577.859 491.164
574 0 58.0414 14.5241 843 83.4377 578.358 492.94
575 0 59.0277 13.4005 791 85.6941 577.814 492.278
576 0 62.0702 13.3397 828 85.0145 577.644 491.037
577 0 63.0615 13.7802 869 84.7583 577.075 489.122
578 0 67.0613 14.5091 973 83.0144 577.674 486.768
579 0 67.0648 14.1058 946 84.2474 578.038 488.226
580 0 71.0607 13.5377 962 84.7994 579.079 485.935
581 0 72.0593 14.4326 1040 83.3981 579.608 484.529
582 0 76.1305 14.7247 1121 82.2266 579.343 485.126
583 0 76.1024 13.7315 1045 84.4785 579.164 484.49
584 0 79.0803 14.0237 1109 84.092 579.305 483.068
585 1 40.0669 11.5058 461 87.436 579.857 502.312
586 0 43.0596 14.0967 607 83.7463 579.484 499.384
587 0 44.0081 13.2248 582 85.1065 579.282 499.232
588 0 44.0278 12.8782 567 86.5203 579.259 500.162
589 0 43.0347 13.3148 573 87.2984 579.644 499.766
590 0 45.0505 14.0731 634 86.7382 579.934 498.74
591 0 48.0285 13.9084 668 86.3189 579.696 497.585
592 0 49.0401 13.7031 672 86.9598 580.018 497.54
593 0 51.0462 15.1627 774 84.1809 579.602 494.53
594 0 50.0528 15.0441 753 85.5113 579.811 495.219
595 0 54.04 14.5633 787 85.4574 579.381 493.893
596 0 55.0868 14.7404 812 85.1638 579.445 493.466
597 0 57.0678 15.4027 879 83.6257 578.751 491.782
598 0 58.075 14.4813 841 86.201 579.01 491.932
599 0 60.058 14.7857 888 85.7782 579.005 490.244
600 0 62.0549 14.4872 899 85.5428 579.151 491.659
601 0 64.055 14.0036 897 86.6656 579.621 491.279
602 0 65.1546 14.7495 961 85.4755 579.217 489.009
603 0 68.0675 15.9841 1088 82.2289 579.176 488.371
604 0 70.0675 14.1863 994 85.7616 579.067 488.173
605 0 71.044 14.5403 1033 86.1926 578.984 485.871
606 0 74.0368 15.2222 1127 84.1251 579.303 485.941
607 0 74.0484 14.5986 1081 87.4107 579.053 481.959
608 0 78.1077 14.3008 1117 86.4673 579.762 482.42
609 1 36.0124 13.0233 469 88.7079 579.731 500.512
610 0 39.037 12.501 488 88.4283 579.408 501.191
611 0 41.057 14.6625 602 85.2641 579.312 499.545
612 0 40.0159 10.9956 440 92.2795 579.568 500.745
613 0 44.1304 12.7123 561 87.6952 579.602 499.79
614 0 44.0237 13.4473 592 87.5 579.438 498.497
615 0 46.0267 13.0794 602 86.9718 579.465 498.211
616 0 48.0153 13.6623 656 86.2058 579.788 497.116
617 0 49.0307 13.93 683 86.0937 579.527 495.65
618 0 49.054 13.5361 664 86.8464 579.595 496.369
619 0 51.0551 14.5725 744 85.1183 579.46 494.005
620 0 50.0972 13.3141 667 88.0885 578.849 493.784
621 0 53.0794 12.811 680 88.0574 578.579 493.519
622 0 56.1252 14.3786 807 84.3569 578.554 492.786
623 0 57.0884 13.9958 799 84.7947 578.946 491.344
624 0 60.0366 14.0747 845 84.303 578.286 490.182
625 0 62.0691 13.5816 843 84.0356 578.452 490.203
626 0 66.0463 14.611 965 81.1005 578.11 488.743
627 0 66.1205 12.7646 844 84.7062 578.495 489.175
628 0 70.0547 14.2888 1001 81.6813 578.782 486.569
629 0 71.0446 14.0475 998 82.0591 578.534 486.006
630 0 72.0803 13.5543 977 83.7165 578.211 482.764
631 0 74.075 13.4998 1000 83.851 578.499 482.966
632 0 76.0434 12.243 931 85.6541 579.016 482.801
633 0 77.0521 12.5889 970 85.2536 579.015 483.443
634 0 82.0607 14.8427 1218 80.4943 578.877 481.357
635 1 42.0457 12.4388 523 83.2734 579.325 500.258
636 0 42.0325 12.6331 531 83.9944 579.089 499.584
637 0 44.0266 13.3101 586 81.9147 578.654 498.505
638 0 44.0216 12.6302 556 84.027 579.207 497.75
639 0 47.0476 12.4555 586 83.2099 579.044 497.362
640 0 47.03 12.9279 608 83.4161 578.97 496.618
641 0 49.0294 13.1962 647 82.6847 578.592 495.669
642 0 50.0438 13.1485 658 82.1033 578.845 495.453
643 0 51.077 14.1159 721 81.0083 579.244 494.143
644 0 53.0448 13.9128 738 80.1938 579.121 495.996
645 0 54.1503 14.5151 786 79.8804 578.748 492.851
646 0 57.0576 12.8116 731 81.6689 578.813 494.614
647 0 55.0215 13.0313 717 83.5356 578.858 491.98
648 0 59.0661 13.3241 787 81.9466 578.924 490.398
649 0 61.0322 14.0909 860 80.057 578.438 490.477
650 0 65.0342 13.7159 892 79.8531 578.448 488.276
651 0 67.1852 14.0061 941 79.0478 578.61 488.279
652 0 67.0642 13.2709 890 81.827 578.389 486.162
653 0 70.0722 13.8286 969 80.4118 578.238 486.783
654 0 70.0655 13.6729 958 81.6221 578.031 485.264
655 0 75.1431 15.3707 1155 77.9766 578.361 483.282
656 0 75.0494 14.164 1063 81.1863 578.245 482.501
657 0 79.0782 14.2644 1128 80.4681 578.512 483.116
658 0 80.1207 13.1801 1056 83.2992 578.42 480.07
659 1 43.1197 11.8971 513 85.1365 578.388 496.665
660 0 45.0185 12.0839 544 84.0662 578.329 497.237
661 0 45.092 12.8848 581 83.895 578.37 495.1
662 0 46.0927 12.0844 557 85.4183 578.806 494.709
663 0 49.1177 11.788 579 84.8653 578.563 494.556
664 0 50.0218 12.9344 647 82.425 578.261 494.127
665 0 53.0556 13.533 718 81.0975 578.593 491.951
666 0 55.0322 12.738 701 82.3894 579.274 491.267
667 0 57.1574 13.594 777 80.287 579.377 492.003
668 0 59.1549 12.7293 753 81.409 579.424 490.627
669 0 62.0801 13.6598 848 79.6557 579.34 489.866
670 0 62.0465 13.4738 836 81.4988 579.535 485.934
671 0 63.0457 12.6099 795 82.5811 579.566 486.597
672 0 67.1115 13.6936 919 80.1382 579.065 484.603
673 0 69.0922 13.7063 947 79.735 578.823 483.323
674 0 73.2773 13.3602 979 79.7385 579.03 482.967
675 0 74.1569 12.7972 949 81.1528 578.723 480.857
676 0 76.1008 12.628 961 81.7534 579.458 479.018
677 0 80.0358 14.9808 1199 76.7756 579.188 479.871
678 0 84.0923 13.0809 1100 79.5491 578.834 478.777
679 1 40.0412 11.688 468 80.515 579.284 497.825
680 0 41.0929 10.4154 428 81.3995 579.528 499.827
681 0 43.1054 12.0635 520 79.0423 579.425 497.3
682 0 44.0342 11.6046 511 80.4247 578.924 495.824
683 0 46.0846 13.2799 612 77.451 578.025 496.149
684 0 48.0462 12.4255 597 78.4807 578.625 495.151
685 0 49.0228 13.8711 680 76.7265 578.235 493.219
686 0 48.0644 13.3571 642 78.1246 577.984 491.766
687 0 51.0406 12.539 640 78.6234 577.987 493.039
688 0 53.0259 12.5976 668 78.5254 578.533 490.353
689 0 53.02 11.109 589 81.2105 579.185 490.711
690 0 56.1298 13.6826 768 75.5938 578.964 490.449
691 0 59.1182 14.0058 828 75.2186 578.955 487.913
692 0 60.0782 13.5657 815 75.9853 578.569 488.323
693 0 62.0487 12.2807 762 77.5669 578.622 488.686
694 0 64.0766 13.9677 895 74.8425 578.673 485.98
695 0 65.029 13.5939 884 75.9253 578.718 485.222
696 0 66.1681 13.6924 906 75.1104 578.57 487.187
697 0 68.047 12.5648 855 77.1251 578.867 485.074
698 0 70.1109 14.149 992 74.5917 578.751 483.019
699 0 70.1275 12.1208 850 78.7341 578.872 481.208
700 0 76.0324 12.2579 932 77.3101 578.988 480.235
701 0 77.0767 12.9611 999 76.1502 579.155 480.037
702 0 79.1622 12.3039 974 78.268 579.724 477.178
703 0 82.1467 12.5142 1028 77.5496 579.073 477.566
704 0 82.0789 14.413 1183 75.3238 579.271 475.982
705 1 45.0488 10.0336 452 77.6195 579.082 494.867
706 0 46.075 10.4829 483 76.9545 579.752 495.271
707 0 48.0427 12.1142 582 74.9656 579.376 493.026
708 0 48.0417 12.0312 578 75.0675 579.137 492.692
709 0 49.0255 12.6873 622 74.836 579.45 490.748
710 0 52.0765 12.52 652 73.9831 579.425 490.445
711 0 53.0967 13.7297 729 70.5377 579.704 488.18
712 0 54.0754 13.0743 707 71.8204 579.651 486.669
713 0 54.0546 11.3589 614 74.7362 580.015 486.863
714 0 56.1483 12.1998 685 73.3825 579.485 483.474
715 0 56.0297 11.8687 665 74.3865 580.057 484.859
716 0 60.1174 12.2094 734 72.8147 580.268 485.411
717 0 61.042 12.3685 755 72.6954 579.554 483.348
718 0 63.1732 13.0118 822 72.0876 580.044 483.282
719 0 67.0577 12.4669 836 71.4318 580.06 485.74
720 0 68.1213 12.2135 832 72.2897 579.846 484.12
721 0 70.068 14.6144 1024 69.0791 580.284 480.41
722 0 71.0923 13.2644 943 71.9088 580.31 478.855
723 0 73.0545 12.5933 920 72.4424 579.651 480.275
724 0 76.096 12.3265 938 72.8742 579.809 478.777
725 0 78.05 12.4536 972 72.9403 579.03 477.948
726 0 83.1518 12.7478 1060 72.1943 579.6 476.59
727 1 41.0564 11.2772 463 73.3737 579.337 495.393
728 0 44.0957 11.7925 520 72.5288 578.879 493.488
729 0 47.0784 11.8951 560 71.6429 579.089 494.686
730 0 47.0145 11.5071 541 74.2107 579.37 491.146
731 0 49.0454 11.7238 575 73.0209 578.953 491.449
732 0 50.112 12.7514 639 71.9358 579.133 490.23
733 0 51.057 12.2021 623 73.3258 579.599 489.437
734 0 54.067 11.3008 611 73.9444 579.656 488.466
735 0 55.1036 12.1952 672 71.756 579.57 489.545
736 0 58.0696 12.3472 717 70.9414 579.725 489.876
737 0 56.0936 11.0886 622 74.127 579.86 487.117
738 0 59.1133 13.3134 787 70.4816 579.499 486.005
739 0 61.0953 12.6524 773 71.2173 579.67 483.955
740 0 61.0461 12.2039 745 71.8483 579.584 484.695
741 0 65.1584 12.6307 823 71.2746 579.685 483.271
742 0 67.126 12.3499 829 71.1966 579.398 481.524
743 0 70.1731 11.9561 839 71.4994 579.12 480.884
744 0 72.0813 12.4027 894 70.8322 579.609 477.97
745 0 73.0953 10.8625 794 72.5416 579.754 479.718
746 0 78.0613 11.5294 900 71.4222 580.127 477.737
747 0 78.0647 12.2975 960 70.825 580.291 475.097
748 0 82.06 13.088 1074 69.1899 580.682 473.517
749 0 85.0831 12.2939 1046 70.3891 580.102 471.98
750 1 43.0875 9.30664 401 72.1845 579.494 493.127
751 0 44.1037 9.4323 416 71.4471 579.375 495.139
752 0 45.0377 11.124 501 71.4331 579.471 491.415
753 0 46.0916 10.9781 506 71.33 579.551 489.796
754 0 48.1792 10.7308 517 71.3926 579.511 490.014
755 0 50.0408 11.6705 584 70.5086 579.045 487.603
756 0 53.1089 13.0863 695 68.2906 579.718 487.643
757 0 55.0793 13.2899 732 68.0929 580.173 486.914
758 0 54.0836 11.6486 630 71.0587 579.681 483.81
759 0 58.0528 11.8685 689 70.1684 579.679 483.795
760 0 58.1004 12.3923 720 69.3861 580.112 484.203
761 0 61.0645 13.4284 820 67.5549 579.661 484.606
762 0 64.0735 12.6105 808 68.7933 579.087 482.194
763 0 66.0931 13.9651 923 65.6533 579.811 478.823
764 0 67.061 11.7803 790 68.4405 579.576 481.508
765 0 69.0464 12.8175 885 67.6972 579.628 479.475
766 0 73.0972 13.3794 978 65.8344 579.219 480.524
767 0 72.027 11.0098 793 69.8096 579.386 477.894
768 0 76.1018 12.8643 979 67.1532 579.686 477.653
769 1 40.0163 10.9456 438 68.3813 579.689 494.368
770 0 42.0908 10.9525 461 68.1952 578.872 494.325
771 0 41.0166 9.97157 409 70.3203 578.697 493.91
772 0 45.0529 12.0969 545 66.5706 578.723 493.811
773 0 48.0518 12.7571 613 66.0848 578.998 491.272
774 0 51.0726 11.9829 612 66.5441 578.833 490.618
775 0 48.0471 11.1557 536 68.8302 579.009 490.606
776 0 52.0467 12.8346 668 66.0494 578.713 488.85
777 0 53.0165 11.3738 603 68.3549 579.091 487.572
778 0 55.032 12.411 683 67.082 579.001 487.726
779 0 57.0324 11.9055 679 67.6451 579.303 485.882
780 0 59.1002 12.0473 712 67.8202 579.353 485.114
781 0 62.1668 11.823 735 67.0694 578.725 485.444
782 0 62.1046 11.3035 702 68.859 579.05 483.085
783 0 63.0918 13.0603 824 67.0825 578.924 483.069
784 0 68.1318 11.9474 814 67.8821 579.498 481.581
785 0 69.0986 11.4619 792 68.697 579.585 482.692
786 0 69.1031 12.0545 833 68.9184 579.449 479.172
787 0 72.1063 11.6633 841 69.5696 579.781 477.281
788 0 76.1038 11.5763 881 69.3019 580.023 478.079
789 0 79.0907 12.6564 1001 68.6054 579.475 473.467
790 1 36.0201 10.3831 374 69.6578 579.016 494.479
791 0 38.0368 12.1724 463 66.257 579.3 494.391
792 0 40.0481 11.0118 441 67.4898 579.24 494.474
793 0 41.0718 10.5425 433 68.6767 579.277 493.979
794 0 41.0516 10.7426 441 69.2834 579.587 491.878
795 0 44.1128 12.5814 555 66.5892 579.463 489.398
796 0 45.0859 11.2008 505 69.0713 579.632 488.313
797 0 49.0166 13.016 638 65.6787 579.793 489.315
798 0 48.042 12.156 584 68.1062 579.127 488.349
799 0 49.0351 12.2158 599 68.2771 578.935 487.608
800 0 52.0247 13.2629 690 66.5333 578.82 486.857
801 0 54.0691 12.5395 678 67.4705 578.518 487.162
802 0 57.0635 12.4072 708 67.6441 579.113 488.058
803 0 59.0625 14.4085 851 64.6557 578.937 487.387
804 0 59.1319 12.9541 766 67.2141 579.272 486.667
805 0 59.0303 10.9943 649 71.1972 579.193 483.29
806 0 64.0334 13.0713 837 67.6583 579.565 482.516
807 0 65.1294 12.9742 845 68.097 579.588 482.146
808 0 68.058 13.9587 950 66.6516 579.527 481.532
809 0 70.1085 13.151 922 68.2538 579.311 478.678
810 0 73.0638 13.016 951 68.4469 578.596 478.011
811 0 76.0427 11.6645 887 71.097 578.788 478.818
812 1 42.0424 11.203 471 69.1507 578.989 493.577
813 0 44.1087 12.0158 530 67.1509 579.704 493.808
814 0 44.0198 10.7679 474 69.7405 579.675 492.964
815 0 46.1347 11.7048 540 68.4519 579.661 490.839
816 0 48.0474 11.2389 540 69.5 579.556 490.515
817 0 49.0354 9.76845 479 71.2088 579.701 490.962
818 0 51.0502 11.7923 602 69.0714 579.641 487.57
819 0 54.0819 13.1837 713 66.23 579.801 489.71
820 0 54.1239 13.3582 723 67.3001 579.563 487.618
821 0 56.0598 11.0953 622 70.7428 579.514 485.884
822 0 56.0654 11.7184 657 70.5708 579.927 485.795
823 0 58.0547 11.0241 640 71.2766 579.641 484.794
824 0 61.0491 12.449 760 69.3026 579.621 483.649
825 0 61.0797 10.4126 636 72.5456 580.05 484.594
826 0 66.0659 12.8357 848 69.3208 579.827 481.31
827 0 66.0705 12.6229 834 70.3597 579.512 481.728
828 0 70.0851 11.8428 830 71.1361 579.269 479.157
829 0 70.0601 11.9754 839 71.7652 579.08 477.484
830 0 73.0337 11.1592 815 72.9791 579.859 479.156
831 0 74.0452 10.345 766 74.8603 580.238 475.35
832 0 80.0428 13.0555 1045 70.3139 579.898 475.417
833 1 39.0484 9.88517 386 71.5026 580.422 494.215
834 0 40.0658 10.2332 410 71.8341 580.295 493.234
835 0 42.0177 9.85298 414 72.8333 579.964 492.826
836 0 43.0989 11.114 479 71.2401 579.812 491.864
837 0 46.0517 11.6825 538 70.3829 579.952 490.045
838 0 48.0555 12.3191 592 69.8159 580.091 490.147
839 0 49.0685 12.6762 622 70.0643 579.736 488.653
840 0 51.0705 10.9652 560 72.6321 579.723 488.505
841 0 54.0471 11.416 617 71.9724 579.23 487.861
842 0 54.0491 11.6376 629 72.9921 579.318 487.448
843 0 56.1805 10.8935 612 74.5719 578.998 486.047
844 0 58.0656 12.0209 698 73.1905 579.305 483.567
845 0 59.0427 10.7041 632 76.0032 579.278 483.4
846 0 61.0572 10.9897 671 75.3472 579.896 483.399
847 0 64.0984 11.6696 748 73.9318 579.539 481.872
848 0 66.0402 11.5839 765 74.1673 579.635 481.558
849 0 68.1372 11.4622 781 74.7439 580.279 478.937
850 1 36.0147 9.7738 352 73.2983 579.324 496.009
851 0 38.0521 10.9324 416 72.3077 579.476 494.889
852 0 38.0212 11.4673 436 72.2454 579.505 494.018
853 0 37.0368 10.2331 379 74.343 580.121 494.723
854 0 40.1214 10.1691 408 74.0221 579.598 495.015
855 0 41.0982 9.87877 406 75.0739 579.663 490.167
856 0 42.0687 10.0788 424 73.8137 579.46 491.017
857 0 45.1539 9.4344 426 73.6808 579.251 490.056
858 0 46.0543 10.7265 494 71.998 579.093 489.176
859 0 48.0766 9.63047 463 72.7819 578.797 490.676
860 0 50.0824 11.6608 584 70.1678 579.205 488.438
861 0 50.0512 10.8489 543 72.488 579.42 486.414
862 0 53.1734 11.5095 612 70.4444 579.253 487
863 0 56.0492 10.9011 611 71.3633 579.424 485.211
864 0 58.0385 12.2677 712 69.3034 579.169 483.904
865 0 59.0533 12.7004 750 69.3533 579.92 484.909
866 0 60.0963 12.0307 723 70.5242 579.701 483.107
867 0 61.1416 10.6311 650 72.8415 579 481.994
868 0 64.093 10.984 704 72.6946 578.786 480.624
869 0 68.0936 11.4989 783 71.2197 579.521 479.778
870 0 69.0886 11.0148 761 72.0263 579.636 477.828
871 0 71.2259 11.4284 814 71.7899 580.119 477.274
872 1 36.0455 9.76545 352 71.0739 579.457 495.676
873 0 37.0905 8.54667 317 73.1514 579.385 495.249
874 0 38.0103 10.9707 417 69.8106 578.981 494.065
875 0 38.0441 10.225 389 71.1465 578.884 493.938
876 0 40.013 10.9714 439 70.4829 579.269 491.314
877 0 41.0245 11.0909 455 70.1363 579.738 490.89
878 0 44.0344 11.1731 492 68.5976 579.848 491.232
879 0 45.0173 10.8847 490 69.0633 579.845 490.647
880 0 46.0185 12.0169 553 67.0814 579.711 490.163
881 0 47.0713 9.66619 455 70.3363 579.879 489.18
882 0 49.0215 11.2196 550 67.6345 579.66 488.278
883 0 50.0385 10.1922 510 68.8941 579.347 486.28
884 0 54.1142 10.4778 567 67.9065 579.755 486.503
885 0 54.0749 11.9279 645 66.5535 579.905 483.225
886 0 54.0794 11.0208 596 67.9094 579.339 485.52
887 0 57.0858 11.0886 633 67.2938 579.834 484.79
888 0 59.1538 10.0754 596 68.5738 579.701 483.159
889 0 62.1128 9.69204 602 68.51 579.784 483.757
890 0 63.1419 10.6269 671 67.3234 579.502 482.686
891 0 64.063 10.8955 698 67.3868 579.305 480.815
892 0 66.0938 10.2582 678 68.3938 579.288 478.093
893 0 70.1009 10.7987 757 67.3897 579.507 475.975
894 0 72.1434 11.6573 841 66.2438 579.44 477.784
895 0 77.1018 12.036 928 65.2425 579.171 475.791
896 0 77.1285 10.4242 804 67.8669 579.532 475.109
897 0 80.0705 10.3784 831 68.5572 579.964 472.006
898 0 84.0812 12.143 1021 66.4172 579.68 468.86
899 0 87.0943 11.5277 1004 67.1863 579.2 470.782
900 1 42.0721 8.72313 367 68.6213 578.695 493.245
901 0 45.0715 9.85101 444 65.973 578.876 494.063
902 0 46.0395 9.81767 452 67.281 579.608 491.558
903 0 49.0349 10.0541 493 66.7911 579.613 491.872
904 0 48.0447 10.9689 527 66.7362 578.721 488.901
905 0 52.1372 12.1602 634 64.1672 578.402 489.039
906 0 54.0601 11.6167 628 65.457 579.288 487.349
907 0 54.0844 11.2232 607 66.1417 579.053 488.979
908 0 56.0667 11.1118 623 66.7737 578.974 487.799
909 0 59.0602 12.191 720 65.6472 579.226 485.299
910 0 61.051 12.0064 733 66.4898 578.96 484.966
911 0 61.0609 10.9563 669 68.6562 578.743 483.803
912 0 64.0588 12.4417 797 66.1029 579.045 482.336
913 0 64.0378 11.056 708 68.3376 579.318 483.686
914 0 69.0918 11.3183 782 67.257 579.405 484.189
915 0 71.1127 11.8685 844 66.7903 578.802 481.552
916 0 71.1463 11.905 847 67.6517 578.812 478.301
917 0 75.1092 12.4352 934 66.394 577.941 477.648
918 0 77.0841 11.2215 865 68.4127 577.436 474.439
919 0 80.063 12.9898 1040 66.4433 577.408 475.086
920 0 80.0655 11.8653 950 68.9337 577.344 472.851
921 0 85.1427 11.5336 982 68.8462 578.387 474.657
922 0 87.1789 12.5145 1091 67.516 578.385 472.544
923 1 46.1123 10.8865 502 67.5498 578.954 492.625
924 0 46.0716 10.5054 484 69.2087 579.438 491.043
925 0 49.026 10.2803 504 68.6448 579.329 490.754
926 0 51.0449 11.2842 576 66.3837 579.141 490.644
927 0 49.0195 9.81242 481 69.6299 578.597 490.636
928 0 53.0749 10.3816 551 68.882 578.515 489.183
929 0 56.0563 11.9166 668 65.9072 578.725 488.175
930 0 59.0837 12.0168 710 65.3408 579.197 486.996
931 0 59.0449 11.6521 688 66.4637 578.372 484.292
932 0 64.0648 11.5352 739 65.4926 578.149 484.674
933 0 64.0153 11.1848 716 67.0084 578.691 483.608
934 0 67.0419 13.0068 872 64.6204 579.092 481.619
935 0 67.0449 10.2469 687 68.2649 579.288 482.629
936 0 69.1087 12.4442 860 66.0116 578.774 481.872
937 0 73.102 11.7234 857 66.3512 578.313 481.655
938 0 73.2112 11.1322 815 67.9423 578.447 479.179
939 0 76.0986 11.945 909 66.703 578.817 479.726
940 0 76.0885 11.8678 903 67.5083 579.31 476.914
941 0 82.1755 12.2786 1009 66.0664 579.723 478.025
942 1 45.0375 10.3913 468 67.2821 579.329 495.598
943 0 41.0244 9.45778 388 70.7165 579.791 496.01
944 0 45.0317 10.3927 468 68.703 579.581 494.536
945 0 47.0667 11.3031 532 67.3947 579.526 493.936
946 0 49.0419 12.316 604 66.0149 579.003 493.613
947 0 52.0694 11.4463 596 67.0503 578.866 491.705
948 0 52.0211 12.072 628 66.949 578.594 490.631
949 0 55.0386 12.6457 696 66.1034 579.024 489.685
950 0 56.0737 12.0377 675 66.8963 578.899 488.853
951 0 59.0771 12.6783 749 65.3858 578.629 489.409
952 0 59.0768 13.2032 780 65.9846 578.467 487.455
953 0 57.0735 11.3888 650 69.2446 578.489 486.72
954 0 62.0606 12.6328 784 66.852 578.264 486.955
955 0 65.0688 12.5867 819 65.9915 577.88 484.684
956 0 65.097 12.4891 813 65.5474 578.188 487.718
957 0 68.1415 14.0149 955 64.6764 578.323 480.928
