time division length width area intensity CMx CMy
0 0 35.0174 10.0236 351 62.9658 505.205 525.789
1 0 37.1013 10.7274 398 61.5804 504.721 525.078
2 0 39.0457 13.1384 513 58.2554 504.287 524.4
3 0 39.0912 13.0208 509 58.3576 504.257 524.47
4 0 40.08 12.6497 507 58.211 503.166 525.789
5 0 42.033 13.0374 548 58.1004 503.67 524.606
6 0 42.0474 14.008 589 57.4516 503.484 525.078
7 0 41.0234 11.4812 471 61.2251 502.459 525.588
8 0 44.0248 11.6525 513 60.3938 502.365 524.041
9 0 46.0897 13.2134 609 59.0624 503.253 523.47
10 0 47.0877 12.9758 611 58.5794 502.584 524.635
11 0 45.0808 12.5552 566 60.9753 502.737 522.943
12 0 50.1411 13.4221 673 58.3314 502.767 523.99
13 0 48.0332 13.0118 625 61.1744 503.12 521.656
14 0 50.0351 12.2514 613 61.0277 502.111 523.55
15 0 51.011 13.056 666 60.6817 503.126 522.785
16 0 51.0191 12.3287 629 62.5803 503.458 521.645
17 0 55.1296 13.4229 740 59.677 502.93 521.872
18 0 54.1081 12.2163 661 62.5325 503.69 519.752
19 0 58.0477 14.2641 828 59.3539 503.444 519.401
20 0 57.0305 12.4319 709 62.2962 502.863 520.08
21 0 58.0471 12.7827 742 61.783 503.726 519.79
22 0 61.1554 14.1443 865 60.185 503.341 517.801
23 0 63.0656 12.9389 816 61.3848 502.716 518.483
24 0 64.0998 13.3386 855 61.2561 503.281 518.342
25 0 66.1993 13.0968 867 62.3368 503.64 516.228
26 0 67.1071 12.6812 851 63.8132 502.693 511.81
27 0 71.0672 14.3948 1023 61.5024 503.325 512.361
28 0 72.0509 14.3093 1031 62.3511 503.191 511.103
29 0 73.1011 13.8438 1012 63.3221 504.429 513.316
30 0 76.2077 12.794 975 64.7446 502.945 511.486
31 0 78.2224 12.9503 1013 64.9408 504.253 511.803
32 0 79.1723 12.5423 993 66.7764 503.938 508.279
33 1 42.2547 12.3773 523 63.3384 504.096 529.099
34 0 44.0715 12.0259 530 64.7151 504.436 527.085
35 0 42.0415 12.1784 512 66.752 504.688 524.885
36 0 46.0547 13.4405 619 64.4233 504.903 524.362
37 0 45.0975 11.3532 512 67.623 504.957 525.229
38 0 47.0629 11.9627 563 66.9414 504.751 523.931
39 0 48.08 11.8552 570 66.9 504.981 524.4
40 0 50.0976 12.3958 621 65.6135 505.385 524.469
41 0 52.089 12.7666 665 65.1323 504.973 522.955
42 0 55.1164 12.2468 675 65.9956 504.284 520.544
43 0 56.0838 13.3728 750 64.8613 504.112 518.541
44 0 56.0433 11.6874 655 67.4824 504.702 519.02
45 0 57.1558 12.1248 693 67.0115 504.658 516.527
46 0 60.0273 10.7784 647 67.7527 504.845 518.974
47 0 63.0395 12.9919 819 65.1551 505.359 517.535
48 0 64.0516 12.3026 788 66.4556 505.197 516.868
49 0 68.0282 13.3621 909 65.6656 505.054 513.573
50 0 69.0519 12.3965 856 66.604 505.165 514.319
51 0 72.1088 14.2701 1029 64.2789 504.74 511.986
52 0 74.0463 12.3841 917 66.807 505.132 511.327
53 0 76.061 12.8975 981 66.8899 504.78 509.446
54 0 80.0601 13.5148 1082 65.6839 505.173 507.648
55 0 82.1036 12.2772 1008 68.4841 505.361 505.162
56 1 42.0351 10.4674 440 68.2159 505.155 524.925
57 0 44.1426 9.87707 436 68.4656 506.197 525.548
58 0 45.16 11.426 516 66.9109 505.504 524.178
59 0 47.1326 12.9634 611 65.1768 505.313 523.033
60 0 49.0337 11.9102 584 67.3322 505.461 521.271
61 0 50.0721 12.5419 628 66.3662 505.546 521.175
62 0 52.0553 10.6425 554 68.6336 504.973 520.78
63 0 53.0387 12.3872 657 66.3059 504.971 518.25
64 0 54.1815 12.2182 662 66.1118 505.619 519.012
65 0 55.123 12.0458 664 67.2139 505.907 516.253
66 0 57.0726 11.0035 628 68.836 505.705 515.318
67 0 59.036 12.3992 732 65.4822 505.205 516.324
68 0 61.0492 12.236 747 66.4418 505.434 513.544
69 0 62.0911 13.2386 822 65.236 505.355 513.695
70 0 64.1694 13.2306 849 64.6537 505.092 513.984
71 0 64.1245 10.9474 702 68.1125 504.376 512.98
72 0 67.0924 12.1474 815 66.081 504.73 511.045
73 0 70.1501 12.0741 847 66.1972 504.485 508.718
74 0 75.1522 12.1354 912 64.6787 505.029 510.368
75 0 76.15 13.1714 1003 63.5643 504.839 508.412
76 0 75.2251 10.7278 807 67.9864 504.461 503.169
77 1 41.049 10.6702 438 62.8607 505.135 524.662
78 0 42.0837 9.64744 406 64.6576 505.451 525.123
79 0 44.0515 11.5547 509 62.4361 505.391 523.326
80 0 45.1589 12.0242 543 62.5635 505.597 521.696
81 0 46.084 9.78648 451 64.9645 505.659 523.685
82 0 44.1386 11.2373 496 65.3347 506.171 519.325
83 0 47.0577 11.2628 530 64.9642 505.415 518.768
84 0 48.1177 10.5782 509 65.7033 505.709 521.587
85 0 51.0384 11.9322 609 64.2102 505.681 520.151
86 0 51.0576 11.5947 592 64.9949 505.361 518.272
87 0 54.1098 10.6265 575 65.3948 505.428 516.72
88 0 57.0735 11.126 635 64.7984 505.984 514.945
89 0 59.0284 11.1811 660 64.3136 505.794 515.009
90 0 62.1773 13.3972 833 60.0948 506.03 517.689
91 0 61.1425 11.9884 733 63.1364 506.03 514.297
92 0 65.1967 11.3809 742 63.7318 506.617 512.387
93 0 66.1266 13.58 898 61.1871 506.635 511.111
94 0 69.0836 11.7249 810 63.3654 506.162 510.735
95 0 71.1079 12.2912 874 62.6659 505.928 509.511
96 0 72.2265 12.2808 887 63.1511 506.12 509.082
97 0 77.3792 12.1221 938 63.3987 505.974 506.881
98 0 78.1488 10.9279 854 65.2518 505.705 506.47
99 0 79.2047 10.8958 863 65.4994 505.216 502.9
100 0 81.1492 11.3741 923 65.1463 505.856 502.478
101 1 47.0296 8.93055 420 65.3929 506.21 519.898
102 0 47.057 9.90287 466 65.0687 506.232 518.676
103 0 50.0289 11.3734 569 63.5044 506.179 517.392
104 0 52.0628 12.0431 627 61.3285 506.641 518.703
105 0 52.1571 11.5804 604 63.3874 506.033 515.374
106 0 54.0886 11.4627 620 62.9952 505.918 516.724
107 0 54.1139 12.2889 665 62.8346 505.236 514.851
108 0 57.1102 11.8193 675 62.1748 505.683 514.538
109 0 59.0219 11.5889 684 62.769 504.551 513.414
110 0 61.1089 10.9313 668 62.9192 505.256 512.287
111 0 62.1358 11.2335 698 62.7822 504.963 511.299
112 0 64.2182 11.2741 724 62.4296 505.014 510.829
113 0 67.1302 11.4107 766 61.8603 505.375 508.906
114 0 68.0572 11.843 806 61.1154 505.598 510.124
115 0 70.0671 12.8306 899 59.9466 505.432 506.331
116 0 70.0997 10.5421 739 63.3166 505.552 505.49
117 0 74.155 12.3255 914 60.6575 505.149 504.718
118 0 77.1677 11.2742 870 61.7103 506.118 503.902
119 0 79.0963 11.1762 884 62.8801 505.964 501.809
120 0 82.1276 11.1899 919 63.197 505.85 502.273
121 0 84.1571 12.2628 1032 61.8731 505.882 501.056
122 0 86.2785 11.8454 1022 62.9599 505.914 498.092
123 0 89.2116 11.3774 1015 63.4148 505.738 498.603
124 0 92.172 11.4134 1052 63.0494 505.21 499.19
125 1 46.1682 11.0033 508 59.9567 505.713 519.884
126 0 46.0753 9.57129 441 62.6327 505.639 518.497
127 0 47.2329 10.5435 498 60.8454 506.114 518.974
128 0 50.154 11.0659 555 60.9351 506.371 515.586
129 0 53.1121 11.2404 597 59.6432 506.09 517.161
130 0 50.0513 11.2684 564 60.5195 505.427 513.922
131 0 53.2218 10.4093 554 60.852 505.464 515.338
132 0 56.1159 11.6901 656 59.3384 505.585 513.869
133 0 55.1495 9.32012 514 62.679 505.675 513.068
134 0 59.0475 11.3129 668 60.1123 505.707 512.129
135 0 60.2024 10.0827 607 61.7957 506.465 508.588
136 0 61.0717 10.5777 646 60.8947 506.186 509.704
137 0 65.1812 12.2581 799 59.0388 506.423 507.916
138 0 66.1242 10.5105 695 59.5281 505.669 508.43
139 0 66.0742 10.019 662 60.6677 506.199 506.489
140 0 70.1582 11.018 773 59.3079 505.907 504.904
141 0 74.068 12.313 912 57.5241 506.598 503.421
142 0 76.0661 10.6618 811 59.127 506.624 503.718
143 1 40.0634 10.708 429 54.8765 506.783 522.641
144 0 40.0278 10.2429 410 56.2171 506.395 522.01
145 0 40.0691 12.2039 489 54.8671 506.405 520.928
146 0 42.028 10.5406 443 58.0835 505.822 520.467
147 0 43.1151 10.6691 460 57.3652 504.974 521.298
148 0 46.0667 10.5716 487 57.7207 505.265 519.622
149 0 46.0972 9.54506 440 58.5295 505.261 520.83
150 0 48.0426 10.5115 505 58.0198 505.663 518.503
151 0 49.0491 10.4793 514 58.2685 505.996 517.696
152 0 50.0949 10.6997 536 58.3899 505.614 516.3
153 0 51.0455 11.9305 609 57.0608 505.816 514.627
154 0 52.204 10.0184 523 59.3231 506.157 516.576
155 0 55.0831 11.0379 608 57.8503 506.179 514.196
156 0 55.1334 10.6288 586 58.6246 506.423 513.918
157 0 59.1729 10.6299 629 58.2846 505.647 513.356
158 0 62.1261 11.7986 733 56.9768 505.546 513.46
159 0 62.1537 12.5495 780 56.3987 504.788 513.383
160 0 64.1437 10.913 700 58.5943 505.269 510.043
161 0 66.0887 12.1503 803 57.1507 505.565 509.812
162 0 69.1083 10.4474 722 58.7895 505.823 508.112
163 0 69.1965 12.6885 878 56.4784 505.585 509.005
164 0 70.1554 10.4482 733 59.2251 505.651 505.562
165 0 75.1668 10.4301 784 59.227 505.352 503.409
166 0 77.0582 11.0047 848 58.592 505.688 504.704
167 0 80.0877 10.501 841 58.2128 505.201 505.759
168 0 83.0866 11.2894 938 58.1162 505.786 502.346
169 1 42.1273 9.85109 415 57.2145 505.892 522.002
170 0 42.0722 9.79269 412 58.1845 506.114 519.971
171 0 45.0262 13.6143 613 53.0799 505.798 520.305
172 0 46.0629 10.8981 502 57.9243 505.892 518.93
173 0 47.2217 10.2919 486 59.1255 505.718 518.944
174 0 48.1563 9.67683 466 59.4742 505.528 518.732
175 0 50.1888 9.14547 459 59.9978 505.808 518.015
176 0 50.1373 10.2319 513 58.575 506.347 517.372
177 0 53.0628 10.497 557 58.6535 505.637 518.312
178 0 54.1214 10.5134 569 58.5817 505.529 515.942
179 0 54.2014 8.985 487 60.0554 506.292 516.585
180 0 57.1323 10.5194 601 57.9484 505.845 517.156
181 0 59.1621 10.7332 635 57.7622 505.227 512.491
182 0 60.161 9.37484 564 58.7713 505.296 512.996
183 0 61.1555 9.61483 588 58.9082 504.298 508.517
184 0 62.1427 11.2644 700 56.8157 504.616 511.151
185 0 64.1094 9.93614 637 57.8932 503.688 509.135
186 0 66.1419 9.32843 617 58.8541 504.64 510.084
187 0 67.1896 10.8945 732 57.1393 503.84 505.288
188 0 69.2174 8.09045 560 59.8482 503.986 507.057
189 0 73.1966 12.2683 898 55.471 503.606 507.906
190 0 73.1546 8.84428 647 59.0479 503.297 507.06
191 0 78.1096 10.8181 845 57.2615 503.391 505.652
192 0 78.2825 10.5515 826 58.3801 502.872 503.023
193 1 40.0469 8.96449 359 59.1811 503.721 524.777
194 0 42.2011 9.45473 399 58.6366 503.356 525.474
195 0 42.1081 9.87933 416 59.0288 503.56 524.567
196 0 42.0541 9.48778 399 60.1654 503.373 523.875
197 0 45.0838 10.0258 452 59.4757 503.4 525.042
198 0 48.1288 12.3419 594 56.5724 503.684 525.347
199 0 47.1326 11.0115 519 59.2389 503.274 524.027
200 0 50.0831 9.84363 493 60.2008 503.041 519.824
201 0 52.1008 12.0152 626 57.9744 502.636 522.692
202 0 54.1556 11.8178 640 57.9156 502.619 521.17
203 0 53.0801 10.7573 571 58.9895 502.426 523.504
204 0 56.2125 11.9013 669 58.5441 501.797 517.931
205 0 59.0872 13.1162 775 56.8942 503.356 520.217
206 0 58.0556 12.1263 704 58.1903 502.652 519.783
207 0 61.0868 12.4249 759 57.4954 502.485 519.743
208 0 60.0808 11.3847 684 59.057 502.763 518.901
209 0 63.2608 13.0413 825 57.1927 502.825 516.486
210 0 64.208 12.3661 794 57.9496 502.519 515.558
211 0 67.12 12.1722 817 57.6965 502.054 516.072
212 0 70.1968 13.5191 949 55.9926 501.776 516.537
213 0 71.2424 12.4926 890 57.4326 500.906 514.258
214 0 73.1811 12.107 886 58.1941 501.493 515.317
215 0 76.1978 14.213 1083 55.8042 500.038 512.554
216 0 74.1282 12.0062 890 59.064 500.149 510.044
217 0 78.1607 12.2568 958 58.1315 499.534 510.323
218 0 81.1574 12.2478 994 58.7586 500.683 507.683
219 1 37.0425 9.63757 357 58.9328 500.49 529.269
220 0 43.1288 10.1093 436 56.6858 500.365 530.856
221 0 43.1762 10.3529 447 56.8009 500.302 528.864
222 0 44.0473 11.2152 494 56.7024 500.532 526.966
223 0 44.0877 12.0215 530 55.7396 500.294 527.321
224 0 45.1735 11.157 504 57.0337 500.075 526.234
225 0 46.1566 9.87942 456 58.739 499.862 524.649
226 0 50.1672 12.0597 605 55.8678 499.817 521.927
227 0 49.1755 12.0792 594 56.7273 499.778 520.195
228 0 51.082 11.276 576 56.9132 499.342 519.825
229 0 56.3248 13.0316 734 53.688 500.458 521.542
230 0 56.1417 11.5066 646 56.1858 500.214 518.464
231 0 57.199 10.7869 617 56.5673 500.357 520.433
232 0 58.0671 11.4695 666 56.2538 500.622 517.92
233 0 58.2353 11.0414 643 57.154 499.914 517.068
234 0 59.0438 11.3814 672 57.1042 500.266 515.296
235 0 64.1237 11.7585 754 56.5 500.44 511.207
236 0 65.1009 11.8432 771 56.1842 499.826 514.241
237 0 67.0388 9.78537 656 57.6921 500.584 515.378
238 0 70.189 12.5946 884 55.5023 500.924 510.18
239 0 71.0356 12.6556 899 55.9232 501.118 511.699
240 0 74.1119 12.7105 942 55.8673 501.32 509.041
241 0 74.1136 11.0641 820 58.072 500.848 507.938
242 0 78.0979 12.5356 979 56.0163 501.034 507.934
243 0 78.077 11.8473 925 56.9373 501.358 507.434
244 0 81.1401 11.5479 937 57.9402 500.698 504.648
245 0 84.0506 11.9809 1007 58.9196 499.903 502.371
246 0 88.1974 13.0843 1154 56.4281 500.917 502.114
247 0 88.2389 10.1656 897 60.2876 500.479 502.781
248 1 49.0559 11.7621 577 55.9549 500.688 523.073
249 0 47.0895 10.2358 482 58.4564 501.722 521.396
250 0 49.0734 11.656 572 57.3951 501.33 520.736
251 0 51.0638 11.1037 567 57.8201 501.263 521.402
252 0 50.0579 10.4679 524 59.3912 500.697 518.975
253 0 53.0536 10.7062 568 58.4296 501.687 520.498
254 0 55.0823 13.4344 740 55.4608 501.65 515.461
255 0 59.1495 12.6121 746 55.4987 501.032 520.343
256 0 59.0915 11.8799 702 57.3276 501.597 517.443
257 0 59.1465 11.3954 674 57.9154 500.307 519.079
258 0 62.0359 11.2516 698 58.3725 501.12 516.751
259 0 65.0848 11.8 768 58.1797 500.714 516.297
260 0 68.1149 11.6861 796 58.4937 500.68 516.371
261 0 70.0409 11.7931 826 58.3753 500.976 515.508
262 0 71.0442 10.8665 772 59.1347 500.6 516.688
263 0 74.1282 9.86129 731 60.5718 500.721 516.754
264 0 78.1403 12.9639 1013 57.7483 500.479 512.514
265 0 80.0834 9.62746 771 61.3528 500.438 512.966
266 0 84.0843 12.0831 1016 59.1998 500.462 510.328
267 0 86.2008 12.0765 1041 59.6647 499.986 508.417
268 0 88.1774 12.8604 1134 59.2769 500.024 506.252
269 0 89.112 10.1333 903 62.6622 500.318 505.409
270 1 51.1179 12.3636 632 58.5222 500.062 524.674
271 0 51.0449 12.2833 627 59.1308 500.472 524.864
272 0 52.0746 11.4643 597 60.2111 500.039 524.251
273 0 51.0226 9.32921 476 63.0609 500.218 523.853
274 0 55.1573 11.857 654 59.8028 500.012 521.209
275 0 58.0819 11.2255 652 59.3451 499.331 524.291
276 0 60.0886 11.2667 677 60.1064 499.461 521.987
277 0 60.0677 11.9532 718 59.8315 499.446 520.11
278 0 62.1187 10.8502 674 60.7685 499.577 521.28
279 0 66.1015 12.1329 802 59.0374 499.605 521.176
280 0 66.0679 10.6254 702 61.2578 499.783 519.47
281 0 68.1217 11.1712 761 60.5637 498.942 519.05
282 0 70.0805 10.6734 748 61.746 498.451 517.275
283 0 75.1328 12.6842 953 59.2665 498.281 515.316
284 0 75.2337 11.0323 830 61.1952 498.049 512.249
285 0 79.0821 13.0118 1029 58.828 498.961 511.341
286 0 81.0631 12.4348 1008 59.3442 498.624 511.354
287 0 86.1132 10.9623 944 61.2076 498.493 509.085
288 0 87.0825 11.6901 1018 60.4028 498.858 508.171
289 0 88.2364 10.9705 968 60.7087 498.987 510.429
290 0 90.1642 11.8562 1069 60.6576 498.704 505.156
291 0 94.0971 10.3085 970 62.1443 498.906 504.403
292 0 99.1156 11.8145 1171 60.7771 498.611 501.515
293 0 101.246 13.9561 1413 58.1791 498.673 499.929
294 0 101.161 9.74681 986 63.7039 499.254 497.595
295 0 107.232 13.0092 1395 59.9398 498.737 495.842
296 0 108.083 11.4079 1233 61.7015 498.739 493.377
297 1 60.0542 11.0067 661 59.7126 498.738 521.163
298 0 60.0683 10.4381 627 61.8533 498.842 516.903
299 0 63.0837 11.8414 747 59.5917 498.94 517.341
300 0 66.0608 11.8679 784 59.5 498.501 515.195
301 0 64.0728 11.4401 733 60.6985 498.497 509.674
302 0 69.301 9.49482 658 61.962 498.767 513.287
303 0 71.0724 12.3536 878 59.1777 498.828 511.427
304 0 73.0913 9.44025 690 62.2913 498.42 507.936
305 0 75.1246 11.6739 877 60.0091 498.382 509.71
306 0 78.2301 11.7346 918 60.3072 498.741 505.91
307 0 81.0983 11.1963 908 61.0176 498.108 501.803
308 0 84.1693 11.3818 958 60.6326 498.479 505
309 0 88.0945 10.012 882 62.2868 498.105 501.984
310 1 47.0406 10.7779 507 58.5503 498.215 521.998
311 0 46.1388 9.77485 451 60.1264 498.789 522.255
312 0 50.085 9.70351 486 59.5494 498.44 520.409
313 0 50.0343 9.29362 465 60.572 498.645 519.826
314 0 54.1168 10.6621 577 58.9757 497.468 519.567
315 0 58.0631 10.5747 614 58.259 497.353 520.607
316 0 58.0935 11.5159 669 58.1106 497.266 516.978
317 0 59.0441 10.9749 648 58.8812 497.722 515.586
318 0 63.1491 10.5781 668 58.0269 497.431 516.832
319 0 65.1558 12.0787 787 56.676 497.478 513.901
320 0 66.0657 10.2625 678 58.4292 497.898 515.23
321 0 68.1132 11.9654 815 56.8049 498.541 514.145
322 0 70.1444 10.3786 728 58.897 498.83 510.889
323 0 74.2229 12.449 924 56.368 498.065 509.002
324 0 75.1486 10.4992 789 58.2383 498.113 509.446
325 0 80.1052 11.822 947 56.4456 498.377 506.43
326 0 83.0841 11.1213 924 56.8853 498.833 503.545
327 0 86.1294 11.5408 994 56.34 497.898 504.396
328 0 87.1682 10.1069 881 57.8036 498.782 502.72
329 1 42.0767 9.45893 398 55.8995 499.188 525.623
330 0 45.137 11.2103 506 55.0059 499.255 521.753
331 0 49.1349 12.1909 599 52.9983 499.354 522.29
332 0 51.0454 11.4016 582 52.3557 499.351 521.478
333 0 51.0439 9.81509 501 53.3313 498.613 522.623
334 0 52.1062 9.36549 488 54.5123 497.686 520.82
335 0 53.0642 8.70644 462 55.1861 498.208 518.922
336 0 56.0748 10.4682 587 53.2606 498.383 518.893
337 0 59.1166 10.4032 615 53.2927 498.546 516.862
338 0 61.2019 12.6957 777 50.8366 499.147 515.641
339 0 62.2358 11.3761 708 52.0621 498.997 515.273
340 0 63.0752 11.9381 753 51.3758 499.139 515.096
341 0 65.2375 9.45775 617 53.9352 498.347 512.083
342 0 67.0698 10.8544 728 52.7555 498.997 512.01
343 0 71.1211 10.1658 723 53.0581 498.896 511.768
344 0 73.0768 12.0421 880 50.6318 498.342 511.795
345 0 73.2826 11.1896 820 52.989 498.629 511.449
346 0 76.0811 10.5414 802 53.9015 498.213 509.845
347 0 83.2964 13.8061 1150 50.3426 499.334 508.452
348 1 42.0724 8.67551 365 54.063 499.132 524.359
349 0 44.1514 8.06316 356 53.1489 499.624 522.685
350 0 47.2833 10.9341 517 49.1992 499.553 524.847
351 0 50.2633 9.37066 471 42.1996 498.881 525.945
352 0 47.1456 8.84493 417 53.3909 499.247 520.127
353 0 53.0917 10.6043 563 51.4032 499.311 521.135
354 0 54.1784 12.2004 661 49.9682 498.905 521.113
355 0 55.1102 11.1595 615 51.2634 498.338 519.176
356 0 55.1548 10.8241 597 52.3049 498.846 515.43
357 0 59.1372 11.7185 693 50.9769 498.371 519.382
358 0 62.1011 12.1576 755 50.8384 499.339 516.371
359 0 62.0537 11.0388 685 52.0131 499.807 516.933
360 0 62.1478 10.5877 658 52.7219 499.041 516.403
361 0 65.1512 11.6191 757 51.8666 498.687 513.976
362 0 65.1499 9.60861 626 53.5879 499.072 515.827
363 0 71.0922 13.4614 957 50.139 499.213 512.03
364 0 72.1258 11.9097 859 52.213 499.842 511.268
365 0 73.2638 12.4755 914 51.2976 499.801 512.543
366 0 73.1576 9.62306 704 55.1847 499.516 508.737
367 0 76.0836 11.2771 858 53.6655 499.284 507.558
368 0 80.1616 12.5496 1006 52.503 499.29 502.287
369 0 82.3859 12.3443 1017 53.0895 499.289 506.036
370 0 84.0851 10.0137 842 55.4264 498.627 505.808
371 1 43.065 11.5639 498 52.9739 499.106 523.703
372 0 44.0877 8.32432 367 55.2534 499.166 524.651
373 0 45.1158 11.8584 535 52.671 498.964 522.374
374 0 47.0435 11.0536 520 52.8827 499.133 522.898
375 0 51.0285 12.738 650 50.96 499.52 521.814
376 0 49.0448 9.03257 443 54.8104 499.528 521.648
377 0 53.088 11.0194 585 52.6632 498.86 519.752
378 0 54.1423 10.8233 586 53.5034 498.797 518.597
379 0 56.0947 12.3185 691 52.1404 499.162 518.522
380 0 54.0954 9.26141 501 55.1457 498.661 517.144
381 0 60.1132 11.2455 676 52.7692 498.775 515.232
382 0 63.1098 11.4087 720 52.2681 498.557 516.536
383 0 64.1037 12.5422 804 51.5348 499.167 514.056
384 0 66.1278 12.8085 847 51.575 499.453 514.021
385 0 69.1883 12.5599 869 51.2854 499.018 515.252
386 0 70.1123 12.1805 854 52.2424 498.857 510.173
387 0 73.0632 12.4002 906 51.4371 499.025 511.116
388 0 76.2137 13.777 1050 49.6667 499.517 513.362
389 0 79.1077 13.5006 1068 49.6713 499.424 510.099
390 0 79.1561 10.7635 852 52.8509 499.631 509.094
391 0 82.1552 13.1824 1083 50.3869 499.465 504.295
392 0 85.1194 13.8746 1181 49.453 499.022 506.17
393 0 87.1061 12.6857 1105 50.8389 498.96 501.962
394 0 91.2086 11.545 1053 51.5556 499.126 499.122
395 0 94.1205 11.1984 1054 51.6869 498.616 502.144
396 1 49.0605 9.66153 474 51.384 499.498 522.694
397 0 49.0471 12.437 610 48.9393 499.592 523.667
398 0 48.1903 7.57414 365 53.074 499.89 522.666
399 0 49.0828 10.5943 520 50.6423 499.806 520.915
400 0 55.1604 10.2972 568 50.2852 500.046 520.07
401 0 52.0403 10.7417 559 50.9356 499.501 516.733
402 0 57.0515 13.6368 778 48.0398 499.967 516.712
403 0 57.1272 10.4504 597 50.5276 500.131 518.6
404 0 59.1133 11.1988 662 50.0408 499.918 516.888
405 0 62.317 11.1045 692 50.0838 499.879 513.988
406 0 65.0905 10.8618 707 50.3791 499.518 514.54
407 0 65.0765 12.2625 798 49.8634 499.526 511.756
408 0 64.1153 11.6821 749 50.6128 499.645 511.658
409 0 67.0413 10.9932 737 51.2877 500.21 507.693
410 0 70.0818 11.5151 807 51.4064 499.6 508.05
411 0 73.1265 12.4579 911 50.9451 499.308 508.278
412 0 74.1404 12.1256 899 51.8109 499.634 506.263
413 0 78.063 12.823 1001 51.1688 499.413 506.161
414 0 81.0871 11.2965 916 52.9116 499.398 503.95
415 0 78.1708 10.0165 783 54.894 498.884 503.699
416 0 85.068 12.7898 1088 52.261 499.051 500.247
417 0 89.0504 11.2296 1000 53.977 499.639 500.235
418 0 90.164 12.5882 1135 53.2546 499.723 503.594
419 0 96.1139 12.1939 1172 53.3029 499.277 503.508
420 0 101.149 13.0995 1325 52.7743 499.403 499.462
421 1 53.0516 11.272 598 53.3512 499.535 521.072
422 0 55.1185 13.2623 731 51.212 499.172 523.782
423 0 56.1108 12.6001 707 52.1301 499.655 523.441
424 0 58.0976 11.8249 687 53.6201 499.341 519.951
425 0 60.0414 11.8085 709 53.6361 498.918 518.326
426 0 61.0661 14.3451 876 51.1256 499.257 520.381
427 0 67.0536 11.7965 791 53.0872 499.226 519.295
428 0 67.0667 15.0894 1012 50.8231 499.582 515.715
429 0 68.1701 11.8967 811 54.037 499.66 514.443
430 0 64.0535 11.5372 739 55.4235 498.737 507.681
431 0 61.106 10.7845 659 57.0713 498.889 506.868
432 0 62.1813 7.5907 472 59.3157 499.314 499.131
433 0 71.0621 8.78105 624 59.5208 499.215 437.768
434 0 75.1531 11.3502 853 58.027 499.165 432.633
435 0 71.0431 7.95292 565 60.2991 499.308 495.51
436 0 68.0411 8.2891 564 60.8901 499.798 493.862
437 0 71.0442 5.54584 394 63.434 499.152 488.822
438 0 76.0617 9.05844 689 61.4935 499.142 492.668
439 0 82.1053 10.657 875 59.8526 498.931 492.022
440 0 87.2207 8.75938 764 62.195 499.134 494.843
441 0 83.1104 9.38511 780 62.0705 499.187 492.869
442 1 95.0667 11.2027 1065 60.138 499.424 491.76
443 1 42.1759 6.9471 293 62.6075 498.819 519.413
444 0 48.1695 7.95108 383 61.3107 499.35 517.021
445 0 43.1026 8.58416 370 61.0595 499.135 514.214
446 0 43.0571 11.6125 500 58.854 499.286 511.758
447 0 40.0453 6.96711 279 62.6667 499.158 510.341
448 0 41.0359 3.67971 151 65.4305 499.623 505.589
449 1 117.09 11.3502 1329 62.4327 499.935 428.843
450 0 108.087 8.35438 903 62.8505 498.278 461.647
451 0 113.134 7.69882 871 62.7922 498.997 452.727
452 1 62.0224 9.14186 567 65.6314 499.162 445.012
453 0 64.0681 10.2391 656 63.6448 499.349 446.944
454 0 54.0586 9.36022 506 60.5455 499.692 500.587
455 0 62.075 8.74748 543 60.011 499.484 499.387
456 0 58.0591 6.01112 349 63.3725 498.814 494.45
457 0 67.063 5.18915 348 63.5776 499.42 500.5
458 0 77.0615 7.94171 612 60.6078 498.745 497.219
459 0 82.0481 8.51939 699 60.578 498.944 499.901
460 1 42.0384 7.75482 326 60.0031 498.929 524.702
461 0 48.0683 11.9205 573 54.8045 499.805 526.825
462 0 52.0195 10.919 568 55.5511 499.752 524.792
463 0 51.1482 10.1079 517 55.7756 499.83 527.441
464 0 53.0728 13.6228 723 53.834 498.472 523.57
465 0 56.0874 13.0867 734 54.2098 499.059 522.567
466 0 60.1058 13.3265 801 53.0449 499.122 523.402
467 0 61.0691 10.5454 644 56.1351 499.323 523.191
468 0 60.0918 11.8319 711 55.6329 499.134 521.876
469 0 63.1448 11.0381 697 56.2238 499.1 521.473
470 0 67.125 11.3222 760 56.3803 499.236 519.208
471 0 65.1283 10.272 669 57.7892 499.339 518.199
472 0 69.0824 13.1871 911 54.9221 498.946 517.222
473 0 71.1326 11.7668 837 56.5137 499.257 515.207
474 0 73.1004 12.7222 930 56.0925 499.294 514.071
475 0 77.1753 10.5474 814 58.4693 499.033 512.913
476 0 79.1097 13.1969 1044 55.9693 498.568 512.162
477 0 82.0553 13.4665 1105 55.229 498.566 514.081
478 0 85.1438 12.9193 1100 56.9364 498.682 510.512
479 1 41.0779 10.0541 413 57.7215 498.729 529.787
480 0 45.0538 11.9857 540 55.7204 498.167 530.257
481 0 48.2754 10.5644 510 57.2765 498.857 528.847
482 0 49.028 10.7286 526 57.7624 498.966 528.213
483 0 52.037 10.8 562 57.3434 498.587 528.861
484 0 52.0823 11.7122 610 57.3852 498.675 526.951
485 0 50.1484 12.2237 613 58.3034 499.796 524.003
486 0 55.0318 11.775 648 57.966 499.208 523.898
487 0 57.0442 12.6919 724 57.2141 499.106 523.254
488 0 57.1467 11.8642 678 58.823 499.065 521.755
489 0 59.0773 11.4934 679 59.0133 499.769 521.119
490 0 60.063 11.5046 691 58.7496 499.671 522.385
491 0 63.0596 11.3226 714 59.0112 499.728 521.742
492 0 65.1002 11.4439 745 59.7262 499.451 516.055
493 0 67.1543 11.7491 789 59.3181 499.373 517.274
494 0 68.0637 12.2385 833 58.9592 499.179 516.264
495 0 69.1049 10.6794 738 61.0664 498.332 513.901
496 0 74.111 10.5922 785 60.6688 499.183 515.871
497 0 78.0839 11.2059 875 60.1874 498.631 513.809
498 0 78.2066 10.728 839 61.0763 499.074 513.728
499 1 42.085 11.3342 477 58.6499 498.826 529.895
500 0 45.0554 11.8965 536 57.7463 499.396 529.297
501 0 47.1292 12.7734 602 56.495 498.894 530.409
502 0 49.0569 11.293 554 58.4585 499.63 529.774
503 0 49.0985 11.0798 544 59.7059 499.382 525.596
504 0 51.0584 13.9448 712 55.8076 499.647 523.59
505 0 50.0892 9.42319 472 61.5932 499.532 521.496
506 0 52.1125 12.8952 672 57.9301 499.496 521.551
507 0 56.0819 10.3599 581 60.4578 499.079 520.806
508 0 58.0868 11.4484 665 59.4977 498.875 520.532
509 0 56.0603 10.0606 564 61.4255 498.801 520.378
510 0 59.1366 10.9746 649 60.4499 498.9 521.129
511 0 62.0358 11.8964 738 58.8957 499.371 520.394
512 0 63.0875 11.7139 739 59.5535 499.245 517.187
513 0 65.1366 10.24 667 61.1409 499.073 517.876
514 0 67.2143 11.441 769 59.762 499.554 516.68
515 0 66.2006 9.99991 662 61.9517 499.536 514.749
516 0 70.127 12.4203 871 59.3479 499.436 512.041
517 0 72.1089 11.3578 819 60.1819 498.396 509.516
518 0 72.1247 9.80246 707 62.1174 498.962 507.639
519 0 76.1053 10.1307 771 61.3515 498.615 508.345
520 0 78.088 11.2437 878 60.5023 498.704 506.509
521 1 36.0117 8.80268 317 61.1577 499.139 527.341
522 0 38.0601 7.12032 271 63.3063 498.97 525.351
523 0 45.0211 11.7723 530 57.3472 499.375 526.398
524 0 47.0229 10.2503 482 59.2718 499.405 526.278
525 0 48.0472 11.2598 541 58.2107 499.222 522.458
526 0 51.1363 10.8338 554 58.3502 498.717 524.108
527 0 51.0954 12.0167 614 57.4691 498.923 524.166
528 0 54.1566 9.8049 531 60.145 498.798 520.527
529 0 54.0324 9.34625 505 60.5089 498.618 522.651
530 0 61.0806 11.1492 681 57.3054 498.226 523.433
531 0 61.1139 11.3722 695 57.1266 497.347 521.298
532 0 62.0215 10.9478 679 57.7585 498.18 519.121
533 0 64.0846 9.48746 608 58.6414 497.587 520.454
534 0 67.1171 10.3699 696 57.8922 498.145 519.438
535 0 68.3743 10.6327 727 58.1362 498.3 516.198
536 0 71.1193 10.3488 736 58.7024 498.531 514.211
537 0 73.1186 12.6917 928 56.1972 498.176 512.704
538 0 76.0719 10.7398 817 57.7748 497.684 510.889
539 0 82.1664 11.0142 905 56.916 498.481 512.212
540 0 85.1066 10.6572 907 57.4741 498.679 509.454
541 0 86.1475 11.4455 986 57.0639 498.554 507.374
542 0 89.0785 12.3262 1098 56.2732 498.953 506.156
543 0 91.1886 13.1047 1195 55.9397 498.447 503.608
544 1 47.1049 11.6548 549 55.6138 498.865 528.246
545 0 47.124 11.2257 529 56.8922 498.741 525.807
546 0 49.1194 10.7493 528 57.7008 498.636 525.733
547 0 50.097 10.1603 509 58.3615 498.55 526.057
548 0 53.126 11.6515 619 56.7189 498.562 524.985
549 0 51.1293 8.84034 452 59.9381 498.17 525.5
550 0 55.0824 11.6371 641 57.3432 497.938 523.115
551 0 55.096 11.1079 612 58.4134 498.069 522.377
552 0 59.073 11.5958 685 57.7328 498.362 519.791
553 0 62.1098 14.0074 870 54.6345 498.718 521.577
554 0 63.2569 13.1685 833 56.2797 498.573 518.48
555 0 65.0947 12.9965 846 56.3286 498.522 519.145
556 0 68.1127 11.9508 814 57.2199 498.307 518.975
557 0 71.132 13.0743 930 56.029 498.427 518.817
558 0 71.1462 11.8629 844 58.237 498.514 514.839
559 0 74.3555 12.7765 950 57.3832 498.379 513.776
560 0 76.1283 11.3755 866 59.4376 498.851 512.758
561 0 79.0907 12.5046 989 58.7361 498.686 512.316
562 0 82.1495 12.1729 1000 59.374 498.835 511.44
563 0 82.0931 11.8768 975 60.4379 498.469 509.31
564 0 88.2304 12.0253 1061 59.9265 498.458 509.294
565 0 92.0937 12.205 1124 59.6637 498.106 502.569
566 0 94.153 12.2566 1154 59.6629 498.078 508.027
567 1 49.0777 10.6566 523 60 498.109 528.635
568 0 50.1479 12.6027 632 59.4193 497.476 525.274
569 0 52.1455 12.0432 628 60.0637 497.836 526.282
570 0 52.0447 12.6238 657 60.1644 498.551 526.361
571 0 53.0547 13.0997 695 60.3942 498.675 524.338
572 0 57.1325 11.9372 682 61.2023 498.55 524.023
573 0 58.1625 11.6226 676 61.9408 498.462 524.627
574 0 60.0636 11.7209 704 62.3793 499.233 523.227
575 0 62.0612 11.1664 693 63.5527 498.808 520.351
576 0 65.1669 12.1381 791 61.9254 498.937 521.559
577 0 67.1136 12.68 851 61.1857 498.717 520.153
578 0 70.1247 12.9056 905 61.3127 498.718 519.309
579 0 70.1789 12.2544 860 63.1628 499.774 516.191
580 0 72.0845 12.416 895 63.1184 500.666 514.697
581 0 76.1044 12.3252 938 62.3497 500.129 515.836
582 0 76.1937 12.7963 975 62.0513 499.985 516.552
583 0 80.103 12.4465 997 61.9208 500.581 513.534
584 0 83.2405 13.5391 1127 60.5501 499.653 511.939
585 0 84.1501 12.858 1082 62.3216 499.062 509.916
586 0 87.2711 12.7534 1113 62.1743 499.786 508.929
587 1 45.1461 10.0119 452 63.3186 499.542 529.845
588 0 50.0469 11.1096 556 61.8022 499.144 527.405
589 0 50.1414 11.5274 578 61.808 499.486 527.635
590 0 52.1212 11.243 586 62.0205 499.034 525.531
591 0 54.138 12.9484 701 60.1612 498.913 524.775
592 0 53.2129 11.7453 625 61.888 499.36 524.736
593 0 54.2407 11.7255 636 61.9969 498.783 523.344
594 0 57.0743 12.107 691 61.0362 499.265 522.061
595 0 57.1585 11.5993 663 62.5807 499.081 519.624
596 0 60.1129 11.362 683 61.9839 499.471 519.422
597 0 63.087 12.8394 810 60.6358 499.207 517.021
598 0 65.1041 13.4861 878 59.6173 499.531 514.872
599 0 67.0488 13.4081 899 59.3471 498.922 517.494
600 0 69.1965 13.8591 959 59.5287 499.035 512.906
601 0 70.1118 11.6813 819 61.9158 499.263 514.431
602 0 75.1787 12.1843 916 60.8755 499.295 514.528
603 0 77.1098 13.8763 1070 59.171 498.932 511.923
604 0 76.2337 11.4647 874 61.9291 498.844 511.563
605 0 81.1692 12.1475 986 61.712 500.098 508.773
606 0 84.2163 13.0853 1102 59.6924 499.589 509.455
607 1 44.2103 10.812 478 60.6172 500.368 527.408
608 0 44.119 8.90773 393 63.0534 500.15 526.636
609 0 43.1493 9.03838 390 63.0949 499.538 526.5
610 0 48.162 12.3749 596 59.2768 499.597 525.534
611 0 49.1217 9.44593 464 62.181 499.944 526.291
612 0 50.0821 11.7008 586 61.2133 499.901 522.003
613 0 52.1415 12.8113 668 59.3533 499.253 521.377
614 0 52.1507 12.0804 630 60.7984 499.716 521.251
615 0 53.1648 10.7966 574 62.2265 499.434 520.502
616 0 54.1092 10.5897 573 62.3805 499.672 521.176
617 0 59.0915 11.7276 693 60.0548 500.046 520.561
618 0 60.1 12.2296 735 60.0231 499.776 518.853
619 0 61.1135 10.8323 662 61.3414 499.634 519.048
620 0 65.194 11.6115 757 60.0806 499.741 514.629
621 0 64.1789 10.1435 651 61.4301 499.621 517.257
622 0 66.1156 10.6631 705 61.2965 499.427 513.391
623 0 67.0988 10.1045 678 61.708 499.761 512.053
624 0 69.2027 11.1123 769 60.5254 500.078 510.109
625 0 72.1196 11.3284 817 60.1714 499.901 507.204
626 0 74.1164 9.8089 727 60.9656 499.164 508.649
627 0 74.1659 10.2608 761 61.4915 498.85 507.02
628 0 81.1613 12.1856 989 58.6552 499.67 506.173
629 0 83.2407 11.0162 917 59.2301 499.698 505.567
630 0 84.1925 9.35951 788 61.1434 499.754 500.409
631 0 86.2684 10.618 916 59.321 499.619 501.709
632 0 88.1092 7.45665 657 62.5419 499.263 497.484
633 0 93.1315 10.5442 982 59.498 499.07 491.842
634 0 96.1679 9.37943 902 60.643 499.563 495.144
635 1 45.0329 6.72842 303 60.6271 500.142 515.502
636 0 48.1649 7.57813 365 59.7014 500.422 518.37
637 0 49.1539 7.32393 360 60.2167 500.453 516.792
638 0 56.1826 8.95295 503 56.8052 500.205 510.845
639 0 55.1771 11.454 632 56.0364 499.617 515.492
640 0 57.1466 10.0268 573 57.1065 499.928 512.272
641 0 58.139 6.82846 397 59.9849 499.305 507.708
642 0 60.2046 8.96942 540 58.8241 499.611 511.509
643 0 64.1967 9.78244 628 57.336 499.01 504.639
644 0 68.2167 9.55777 652 57.8819 499.064 509.268
645 0 69.1129 10.0705 696 57.3951 499.555 503.586
646 0 74.3021 11.0629 822 56.1253 499.13 508.277
647 0 76.2195 10.5616 805 57.0733 499.22 504.395
648 0 81.2873 12.5973 1024 54.8154 499.471 504.589
649 0 77.2896 7.58187 586 60.0085 498.98 501.42
650 0 86.2894 12.4117 1071 55.3305 499.434 503.118
651 0 90.3116 13.2763 1199 53.8899 499.703 504.626
652 1 44.1651 10.574 467 53.227 499.724 525.876
653 0 45.1757 10.1161 457 53.0635 499.836 527.912
654 0 47.058 8.96765 422 55.1256 500.107 524.635
655 0 48.246 9.36865 452 54.8473 500 525.546
656 0 48.2214 11.9242 575 53.9443 499.694 521.614
657 0 51.2831 11.1148 570 54.5175 500.465 522.312
658 0 53.1738 10.9264 581 54.5818 499.876 521.971
659 0 53.1018 10.1691 540 55.5815 499.583 521.209
660 0 55.0759 11.2935 622 54.8232 500.018 521.352
661 0 57.449 10.827 622 55.2186 499.683 521.611
662 0 57.1805 10.1608 581 56.6127 499.649 518.565
663 0 59.1325 9.84231 582 56.7921 499.77 517.239
664 0 61.2078 12.2697 751 54.474 499.16 515.708
665 0 65.1868 12.9781 846 53.1312 499.761 518.067
666 0 65.1945 10.7371 700 55.9043 499.347 514.916
667 0 67.1364 11.2309 754 55.4443 499.432 513.663
668 0 68.2402 10.4044 710 56.0944 499.21 514.604
669 0 69.1092 11.1852 773 55.6882 498.938 514.651
670 0 72.1648 11.3213 817 55.6316 498.974 514.881
671 0 75.2233 10.7414 808 56.7067 499.65 508.967
672 0 76.3455 12.2208 933 55.2272 499.977 510.02
673 0 76.1094 10.682 813 55.8303 499.402 510.673
674 1 40.2552 7.92444 319 56.2194 499.527 527.865
675 0 42.1352 10.1578 428 54.1285 499.811 527.276
676 0 43.0519 8.66397 373 55.1153 499.989 529.3
677 0 42.1818 8.53449 360 56.8944 500.233 526.606
678 0 42.0819 8.86367 373 56.8016 499.759 525.437
679 0 42.1502 6.7378 284 59.6338 500.025 526.134
680 0 46.193 7.16558 331 57.8459 499.915 528.356
681 0 49.1742 9.72055 478 56.0146 500.052 526.333
682 0 51.1102 10.2328 523 57.0727 499.704 522.126
683 0 51.1607 10.2618 525 58.3733 499.834 522.082
684 0 54.1325 8.92255 483 59.3499 499.364 519.954
685 0 54.1571 9.84174 533 58.8968 499.617 520.591
686 0 58.2276 10.7166 624 56.8413 499.454 521.162
687 0 58.137 9.87323 574 57.5122 498.929 522.713
688 0 60.1731 9.12368 549 59.0455 499.131 520.091
689 0 62.217 7.57027 471 60.5159 499.909 519.747
690 0 62.1517 9.81469 610 58.0475 499.643 519.902
691 0 67.1825 12.5479 843 54.5694 499.418 518.005
692 0 65.1249 7.98466 520 59.8288 499.267 516.55
693 1 36.1316 8.63511 312 56.9615 499.462 531.974
694 0 35.11 7.49075 263 58.0456 500.122 531.783
695 0 37.1187 9.24062 343 56.0292 499.446 532.408
696 0 36.2561 9.21224 334 56.8114 499.629 531.06
697 0 36.1726 9.39939 340 57.2676 499.535 531.153
698 0 39.1444 11.7003 458 54.8515 499.417 529.69
699 0 40.1315 11.5122 462 54.6407 499.868 531.608
700 0 41.1919 10.3418 426 56.3404 499.505 529.613
701 0 46.0772 9.96155 459 57.3682 499.342 529.479
702 0 44.188 10.048 444 58.1329 500.063 528.207
703 0 45.0393 10.7018 482 57.7573 499.222 526.9
704 0 47.1921 11.5485 545 55.9688 499.169 526.767
705 0 49.2876 12.6807 625 55.2976 499.195 525.259
706 0 51.0936 11.567 591 56.5448 499.096 524.367
707 0 51.0677 11.3379 579 56.7444 499.44 525.613
708 0 51.0577 11.6731 596 57.6644 498.773 523.21
709 0 52.125 11.2614 587 56.477 499.271 521.944
710 0 55.085 11.0738 610 56.8934 499.321 522.318
711 0 55.1343 10.7918 595 57.4454 499.084 522.618
712 0 57.0497 11.043 630 57.054 498.651 521.69
713 0 55.0797 10.2215 563 58.8508 498.915 518.52
714 0 62.0978 11.2725 700 56.1429 498.899 520.929
715 0 64.2025 12.0089 771 55.7017 499.398 517.875
716 0 66.0784 12.2582 810 55.5778 499.159 515.888
717 0 67.0649 12.6594 849 55.1154 499.256 516.524
718 0 67.0844 10.852 728 57.5673 499.172 515.86
719 0 70.1174 12.4791 875 55.736 499.558 516.365
720 0 71.1731 11.1138 791 57.3932 498.765 514.804
721 1 37.0628 10.064 373 56.6568 499.113 530.71
722 0 38.1497 10.1967 389 57.0386 499.632 528.815
723 0 38.1392 8.8885 339 58.3422 499.301 529.472
724 0 41.1385 9.31001 383 58.1462 499.548 528.217
725 0 42.0619 11.0551 465 56.3634 499.561 528.331
726 0 42.1514 10.486 442 58 499.609 527.602
727 0 45.0867 10.0695 454 59.2753 499.584 526.98
728 0 47.1848 10.851 512 58.2539 499.715 526.062
729 0 49.1708 12.6498 622 56.7444 499.257 524.042
730 0 46.2109 11.0147 509 60.6424 499.365 521.87
731 0 51.1191 10.3484 529 59.7599 499.69 522.569
732 0 52.1168 10.4381 544 59.9191 499.522 524.803
733 0 52.1051 9.69194 505 62.396 499.404 519.962
734 0 53.1073 10.8648 577 60.766 499.187 521.515
735 0 56.174 9.86222 554 60.6931 499.448 521.608
736 0 57.0957 10.964 626 59.0783 499.781 523.398
737 0 56.0768 8.93418 501 62.0319 500.251 519.661
738 0 63.1189 11.6922 738 57.8266 499.863 519.466
739 0 64.0898 12.2328 784 57.3048 499.93 519.242
740 0 65.084 12.0921 787 57.7255 499.784 516.371
741 0 66.1481 10.4916 694 58.9467 499.742 517.169
742 0 71.0711 12.2835 873 56.4662 499.353 515.399
743 0 71.2014 11.0251 785 58.1108 499.115 514.479
744 0 73.0719 11.6324 850 57.96 498.764 511.585
745 0 76.1209 11.4949 875 57.7474 498.231 511.463
746 0 77.0915 11.2594 868 58.3767 498.74 509.122
747 0 80.0912 11.412 914 58.4978 498.628 510.071
748 0 80.1121 9.88614 792 60.6869 498.504 507.355
749 1 43.046 8.57222 369 59.3469 499.691 526.789
750 0 45.1562 10.0318 453 57.7329 499.183 526.267
751 0 46.0625 9.37857 432 58.6644 498.715 525.391
752 0 47.0687 11.0902 522 57.09 498.477 523.239
753 0 50.1384 10.6106 532 57.1429 499.12 524.532
754 0 50.1121 10.9754 550 57.3073 499.1 522.151
755 0 51.0864 10.7465 549 57.235 498.909 522.803
756 0 52.0936 8.46553 441 59.1224 499.383 525.333
757 0 55.092 9.62028 530 58.4377 498.596 522.413
758 0 56.1321 11.5976 651 57.0353 498.324 518.114
759 0 56.0929 10.5361 591 57.9831 498.992 517.66
760 0 60.158 10.9212 657 56.9711 498.644 518.18
761 0 60.1525 10.8557 653 57.8622 498.816 516.593
762 0 64.1256 12.3664 793 56.0303 498.367 515.569
763 0 64.1208 9.10782 584 59.7534 498.139 515.017
764 0 68.1407 10.7278 731 57.6977 499.007 515.345
765 0 67.0852 10.3898 697 58.8723 498.336 512.994
766 0 72.1731 11.1537 805 57.2658 499.421 512.584
767 0 74.1756 11.7289 870 56.9414 498.263 510.27
768 0 76.1379 11.164 850 57.1506 498.815 511.508
769 0 80.2511 10.2179 820 57.6866 499.001 511.563
770 0 81.2068 12.0433 978 56.3865 498.476 508.053
771 1 41.1298 9.19042 378 56.8571 499.257 530.434
772 0 45.132 10.4139 470 56.1191 498.936 527.138
773 0 47.1189 11.1633 526 54.9011 498.69 527.734
774 0 46.1676 9.31389 430 57.5465 498.374 527.409
775 0 48.0976 10.0213 482 56.6909 498.317 526.635
776 0 50.1325 10.6318 533 56.2101 498.659 524.088
777 0 50.1726 11.6 582 55.7749 498.527 523.969
778 0 52.0766 8.5067 443 57.386 498.885 520.625
779 0 56.2236 10.9385 615 55.0146 498.455 521.044
780 0 54.1421 9.01332 488 57.0697 498.959 522.391
781 0 59.0978 9.83116 581 56.1515 498.733 520.737
782 0 59.0445 10.4497 617 55.4003 499.551 518.919
783 0 60.1454 9.69318 583 56.2967 499.367 519.024
784 0 62.1149 12.0583 749 54.2176 499.053 515.785
785 0 64.1313 11.5856 743 54.2059 499.526 515.818
786 0 67.1468 8.63779 580 56.1517 499.248 519.405
787 0 68.0986 11.454 780 54.2962 498.749 512.75
788 0 71.2673 11.2113 799 54.8686 498.587 512.63
789 0 72.17 9.89331 714 56.7745 498.293 511.381
790 0 75.237 10.7926 812 55.8424 498.094 511.039
791 1 42.1185 8.61855 363 55.8678 498.967 529.358
792 0 42.0556 9.36855 394 54.8096 499.315 531.081
793 0 45.2031 10.8842 492 53.3211 499.246 529.673
794 0 46.1682 10.9383 505 54.2911 499.725 526.327
795 0 44.0777 9.5967 423 56.5154 499.189 526.726
796 0 49.2506 9.4415 465 55.4817 499.176 524.312
797 0 50.0816 10.5228 527 54.7419 499.49 526.829
798 0 52.0257 10.2257 532 54.9474 499.519 526.041
799 0 53.0454 9.03 479 56.2923 499.727 524.843
800 0 56.245 10.0631 566 54.8304 499.451 526.625
801 0 56.0742 10.4861 588 56.0323 499.44 522.082
802 0 59.1278 11.9402 706 54.8909 499.712 521.523
803 0 58.1189 10.7538 625 56.552 499.618 519.554
804 0 63.0859 10.7631 679 55.9588 499.633 520.907
805 0 63.1564 10.0069 632 57.0427 499.38 518.169
806 0 62.1421 9.99322 621 57.4042 499.134 518.873
807 0 68.066 9.59363 653 56.9495 499.351 519.342
808 0 68.2496 10.4762 715 56.8699 498.909 515.717
809 0 70.1433 11.4908 806 55.8635 499.401 516.747
810 0 73.4363 12.2283 898 55.3029 498.974 510.918
811 0 75.1911 10.6529 801 57.2522 499.072 510.672
812 0 77.2289 10.7732 832 57.226 498.767 511.165
813 0 79.1031 10.9225 864 56.4537 499.766 511.35
814 0 83.1214 10.8636 903 57.1827 499.236 506.315
815 1 46.1056 10.0422 463 55.5572 499.713 528.436
816 0 48.0698 9.65262 464 55.9418 499.858 526.595
817 0 47.0992 10.2125 481 55.7568 500.42 527.096
818 0 49.0393 9.38024 460 57.0717 500.046 528.367
819 0 50.113 10.4564 524 55.9447 499.96 527.08
820 0 52.0849 9.23492 481 57.0728 499.933 525.509
821 0 53.2164 10.0533 535 56.0935 498.972 526.267
822 0 55.108 11.668 643 54.9082 499.142 523.673
823 0 56.2036 11.1203 625 55.7376 498.416 522.251
824 0 59.2142 11.0447 654 55.5994 498.347 520.355
825 0 60.148 11.7543 707 54.8034 499.12 521.033
826 0 62.2023 12.7166 791 53.3552 498.757 522.46
827 0 63.1997 12.1994 771 54.4669 498.795 517.855
828 0 62.1601 9.26639 576 57.9809 498.877 519.554
829 0 65.0763 10.2649 668 56.5599 498.424 516.561
830 0 65.2438 9.50282 620 57.6161 498.998 513.919
831 0 70.1316 8.66942 608 57.9688 497.938 516.484
832 0 70.0517 9.06474 635 57.8819 498.346 512.306
833 0 75.1491 9.19506 691 57.3169 498.349 511.527
834 0 76.1508 10.2297 779 56.6264 499.067 511.306
835 0 80.1777 11.2999 906 55.5828 498.708 505.791
836 0 83.2 9.27885 772 57.5285 498.793 503.855
837 1 43.1914 8.61282 372 56.0215 498.852 528.621
838 0 45.0992 10.5767 477 54.2558 498.553 527.549
839 0 47.0955 9.76738 460 54.8043 498.396 527.248
840 0 49.0372 10.1555 498 54.6667 498.795 524.295
841 0 53.1006 11.6383 618 52.8916 499.189 525.613
842 0 52.0451 9.43412 491 55.1813 499.275 526.024
843 0 56.056 12.2913 689 52.4427 499.44 524.099
844 0 57.0991 12.6096 720 52.6986 499.353 523.953
845 0 56.0699 9.57733 537 56.4935 499.387 524.136
846 0 60.1593 11.9516 719 55.3227 498.437 521.303
847 0 59.1697 11.4755 679 58.7953 498.913 522.056
848 0 59.1681 12.0673 714 59.9398 499 521.636
849 0 60.179 11.6486 701 59.6819 498.623 523.235
850 0 62.1491 11.939 742 60.3827 498.469 520.807
851 0 63.0985 12.1239 765 59.9765 499.339 521.956
852 0 64.1189 10.4337 669 61.2825 498.75 519.2
853 0 68.1378 12.6215 860 58.6 498.645 517.715
854 0 69.1473 13.3049 920 58.5022 498.392 517.747
855 0 71.2535 11.8029 841 60.195 498.578 516.962
856 0 72.164 11.3353 818 61.0575 498.477 515.878
857 0 78.1664 13.4713 1053 58.0817 498.44 516.292
858 0 78.0878 12.0121 938 61.3635 497.805 513.488
859 0 81.0812 11.2233 910 62.1582 498.01 513.503
860 0 84.1527 12.3585 1040 60.6115 498.591 514.06
861 0 84.1815 13.1145 1104 62.4909 498.045 509.925
862 1 44.0962 10.4544 461 62.1735 498.816 532.774
863 0 44.0718 11.2771 497 61.8149 497.926 530.881
864 0 44.0828 9.59558 423 64.1939 498.3 528.631
865 0 45.0334 9.54847 430 64.6791 498.36 527.349
866 0 48.061 10.0705 484 62.9917 499.114 529.079
867 0 49.0714 10.1689 499 63.4589 498.607 527.17
868 0 50.1137 11.0549 554 62.426 499.036 526.832
869 0 52.1842 12.1876 636 60.0818 499.204 527.423
870 0 53.0939 10.7922 573 61.9127 498.763 525.386
871 0 56.0716 11.2713 632 60.6851 498.533 525.929
872 0 57.0979 10.806 617 61.8995 498.791 522.344
873 0 58.0961 11.5154 669 60.8221 497.81 521.632
874 0 59.0706 11.7148 692 60.1618 498.325 522.247
875 0 63.1176 12.548 792 58.6793 498.652 523.107
876 0 63.0537 12.0691 761 60.226 498.622 517.913
877 0 63.11 10.9333 690 61.5072 498.329 518.954
878 0 68.0798 12.3385 840 59.7095 497.865 514.314
879 0 70.1654 12.2853 862 59.3979 498.176 517.972
880 0 71.0832 11.7187 833 60.4538 498.283 518.023
881 0 76.0437 13.8079 1050 58.881 498.599 512.611
882 0 79.1701 12.7321 1008 59.8343 498.382 513.238
883 0 79.0815 13.1004 1036 60.2654 498.251 510.889
884 0 84.0613 12.8359 1079 60.7442 498.311 509.105
885 0 84.0786 11.7271 986 62.068 498.566 511.132
886 0 88.064 13.5015 1189 60.2145 498.606 510.653
887 1 45.1005 11.5298 520 60.8288 498.571 528.694
888 0 48.0555 10.1965 490 62.4102 498.733 529.602
889 0 49.0582 12.0469 591 61.2318 498.711 527.269
890 0 50.068 11.2647 564 62.8599 498.856 525.378
891 0 52.0338 12.3189 641 60.7598 498.596 528.117
892 0 51.0363 11.4036 582 63.5928 498.868 525.17
893 0 55.0219 13.3038 732 60.1038 499.21 527.067
894 0 57.0324 12.6244 720 60.8264 498.547 527.183
895 0 58.0503 12.1963 708 62.0508 498.579 524.804
896 0 58.0323 12.1829 707 62.8303 498.498 522.849
897 0 60.0857 12.0994 727 62.9326 498.4 522.059
898 0 62.0868 13.5617 842 61.101 498.417 520.162
899 0 65.0464 11.9146 775 62.3226 498.854 523.209
900 0 66.1166 12.6292 835 62.3641 498.854 518.57
901 0 66.2334 12.1842 807 62.8017 498.575 520.378
902 0 71.0643 13.3541 949 61.1243 498.266 519.326
903 0 73.1428 11.1563 816 63.1642 498.047 518.913
904 0 75.0713 12.588 945 62.5545 497.986 515.708
905 0 77.0634 12.0161 926 62.7408 498.427 516.104
906 0 80.0649 12.7272 1019 61.5682 498.196 515.141
907 0 83.13 13.0278 1083 61.349 498.324 513.683
908 0 86.1191 12.4014 1068 62.3848 498.657 511.101
909 0 87.0575 12.6238 1099 63.3421 499.136 510.369
910 0 91.0515 11.9383 1087 63.9788 499.906 509.632
911 1 47.0894 14.3344 675 59.8444 499.794 529.929
912 0 46.0823 11.2841 520 63.7288 499.971 529.723
913 0 48.062 12.1302 583 62.9846 500.057 529.405
914 0 50.1247 12.3691 620 62.7532 499.934 528.753
915 0 50.0418 12.8892 645 63.0527 499.138 527.045
916 0 52.0306 13.1077 682 61.8446 499.29 528.411
917 0 54.0144 12.5152 676 63.4571 499.104 526.244
918 0 56.1511 12.965 728 62.0755 499.082 526.545
919 0 57.0396 12.2196 697 63.8407 498.661 524.674
920 0 58.2158 10.9936 640 65.2688 498.642 522.55
921 0 60.0378 12.0757 725 64.2331 498.545 521.516
922 0 63.0855 11.2229 708 65.5325 498.9 520.737
923 0 65.0414 12.8687 837 63.8268 498.284 519.523
924 0 68.065 11.9004 810 65.2086 498.773 518.089
925 0 68.0536 10.2125 695 67.5237 499.016 517.632
926 0 74.0862 14.1727 1050 63.5781 498.58 514.754
927 0 73.0763 11.878 868 67.9839 499.131 511.567
928 0 77.1061 11.9964 925 68.0714 498.67 512.968
929 0 79.1133 12.2609 970 68.8124 498.613 513.527
930 0 82.0735 11.5384 947 70.4034 498.588 511.932
931 0 84.099 11.8789 999 71.1331 498.818 508.565
932 1 44.0144 10.7238 472 70.3199 498.818 530.326
933 0 44.0419 10.5354 464 71.4375 498.987 530.612
934 0 46.0324 12.2305 563 70.5826 499.35 529.371
935 0 48.0704 13.0642 628 69.4602 499.296 527.691
936 0 48.0405 11.6985 562 72.1085 499.657 527.714
937 0 51.1474 12.8452 657 70.6591 499.635 526.298
938 0 51.05 13.0264 665 71.2 499.358 524.668
939 0 49.0291 10.3408 507 76.2702 498.972 523.753
940 0 55.0571 12.1147 667 72.976 498.438 522.522
941 0 57.034 13.413 765 71.2039 498.992 522.498
942 0 59.0637 12.9521 765 72.0458 499.416 520.719
943 0 61.0727 11.9693 731 72.7264 499.144 520.534
944 0 63.0622 11.7662 742 73.7951 499.652 519.953
945 0 63.1288 13.4804 851 71.3067 499.725 520.062
946 0 68.1389 11.9902 817 72.6242 499.488 518.885
947 0 68.1288 13.3864 912 71.5987 499.867 516.182
948 0 72.1363 12.1853 879 72.3367 499.523 515.992
949 0 74.0551 12.5717 931 72.0945 499.989 513.961
950 0 78.263 13.1352 1028 70.2461 499.345 514.46
951 0 79.0527 12.8901 1019 71.4956 499.465 512.264
952 0 81.1235 13.1651 1068 70.9785 498.876 508.984
953 1 44.069 11.0736 488 69.9283 499.508 528.365
954 0 43.0951 11.6486 502 70.0418 499.57 528.145
955 0 44.0831 12.6806 559 69.3327 498.519 526.301
956 0 47.0695 13.1083 617 67.6791 499.423 527.956
957 0 47.0917 12.7836 602 68.6013 498.724 525.957
958 0 49.125 11.6845 574 69.3118 499.395 526.801
959 0 52.0672 13.4634 701 66.1897 498.703 526.308
960 0 52.1396 12.2747 640 68.9 498.958 524.014
961 0 54.1333 12.3769 670 68.5791 499.578 523.709
962 0 57.106 13.3086 760 67.1842 499.154 521.879
963 0 58.0982 11.515 669 68.7205 499.803 523.647
964 0 60.0873 12.9645 779 67.1515 498.774 520.461
965 0 62.1152 12.3158 765 67.7333 499.103 521.175
966 0 64.1097 13.3209 854 66.9567 499.493 518.4
967 0 66.0913 13.3452 882 66.9025 499.137 517.692
968 0 69.0472 12.7449 880 66.9636 499.403 517.009
969 0 71.1078 13.2334 941 66.7726 499.122 517.335
970 0 73.1331 13.578 993 66.6073 499.431 514.598
971 0 77.1092 13.9802 1078 65.7987 499.191 513.292
972 0 80.2017 13.6531 1095 65.8849 499.404 513.955
973 0 82.1028 13.8729 1139 65.8806 499.464 512.152
974 0 81.1035 12.8601 1043 68.0288 499.253 510.596
975 0 86.243 12.5112 1079 68.1196 499.108 510.929
976 0 86.125 11.3324 976 70.665 499.092 508.651
977 1 43.0778 10.6783 460 68.313 499.204 530.957
978 0 45.0847 11.2899 509 69.1277 499.02 529.075
979 0 47.0505 13.0711 615 66.6098 498.886 528.024
980 0 49.137 11.7223 576 68.2378 499.347 527.057
981 0 50.1558 12.0225 603 67.7463 498.992 526.453
982 0 53.071 12.5681 667 65.7241 499.55 527.484
983 0 51.0358 11.6389 594 68.7997 499.433 526
984 0 54.1324 12.1739 659 67.8316 499.622 524.094
985 0 57.0368 12.7462 727 66.1541 499.82 525.161
986 0 56.0585 12.487 700 67.3214 499.459 524.147
987 0 59.1196 13.2782 785 66.4841 499.916 522.15
988 0 60.0715 11.5862 696 69.0201 499.476 521.815
989 0 63.0524 13.1795 831 66.3357 498.679 521.639
990 0 66.1189 12.3112 814 67.9459 499.595 518.95
991 0 69.0404 12.4565 860 67.014 499.153 518.928
992 0 70.2646 12.2537 861 68.1731 499.387 517.103
993 0 73.0534 14.4552 1056 65.2585 499.264 515.111
994 0 74.1048 12.064 894 68.9128 499.545 515.081
995 0 76.1172 12.6384 962 68.0946 499.088 513.589
996 0 79.0596 12.5601 993 68.7482 499.659 510.63
997 0 83.1601 12.6864 1055 68.49 499.421 511.983
998 0 84.0616 13.9897 1176 67.4243 498.875 508.777
999 0 88.122 12.3011 1084 69.5544 499.226 509.42
1000 0 90.1221 12.6606 1141 69.5653 498.926 506.897
1001 0 92.1701 13.334 1229 68.6103 498.898 505.742
1002 1 49.0865 9.7379 478 69.818 499.178 527.437
1003 0 51.0257 10.5437 538 67.9888 498.833 528.307
1004 0 53.0265 11.9563 634 67.3565 498.934 525.218
1005 0 54.1314 11.1765 605 68.6116 498.236 525.093
1006 0 54.0926 12.4601 674 67.819 498.656 522.709
1007 0 58.1348 12.0066 698 67.4986 498.974 523.095
1008 0 59.0691 10.6147 627 68.9139 498.589 522.907
1009 0 62.0327 12.171 755 66.7417 498.432 521.775
1010 0 62.0513 12.5864 781 65.5647 498.702 523.14
1011 0 66.0809 12.6966 839 66.081 498.876 519.666
1012 0 67.0609 12.6005 845 66.6284 498.07 518.341
1013 0 71.1285 13.4123 954 64.8302 498.354 518.578
1014 0 74.0715 12.1909 903 66.3765 498.431 518.045
1015 0 77.1376 11.6545 899 65.9177 498.285 517.929
1016 0 78.0757 10.5026 820 67.3134 498.909 518.802
1017 0 81.1123 12.119 983 66.8993 498.986 511.355
1018 0 83.0757 11.5918 963 67.4984 498.899 513.144
1019 0 85.0734 10.92 929 68.6319 498.527 510.143
1020 1 45.0337 10.2368 461 65.2169 498.837 530.751
1021 0 45.1091 10.131 457 65.7768 498.632 530.726
1022 0 47.0405 10.1615 478 65.5858 498.676 529.389
1023 0 47.1147 10.9944 518 65.1197 498.38 527.992
1024 0 49.0336 11.8082 579 64.6805 498.864 525.078
1025 0 50.0911 11.0399 553 65.6546 498.53 526.058
1026 0 51.0635 10.1442 518 66.4807 498.788 526.542
1027 0 53.0518 10.2164 542 65.714 498.089 526.727
1028 0 56.0539 10.5256 590 65.6288 498.188 525.269
1029 0 59.1181 11.587 685 63.6905 497.832 524.345
1030 0 60.0286 12.0609 724 64.1146 497.565 522.185
1031 0 63.113 12.2637 774 62.9716 497.647 523.083
1032 0 66.0649 10.3535 684 64.4371 498.168 523.594
1033 0 67.0782 12.1053 812 63.3855 498.325 517.272
1034 0 67.0913 11.1937 751 64.3555 497.951 519.8
1035 0 68.3007 10.4538 714 65.2689 498.297 516.982
1036 0 74.0759 13.0137 964 61.0975 497.77 517.727
1037 0 75.1173 11.3556 853 63.034 498.007 518.489
1038 0 79.2466 10.3979 824 64.0498 497.102 516.521
1039 0 80.0804 11.8631 950 63.2421 497.092 511.28
1040 0 84.1611 11.7275 987 62.3364 496.571 515.392
1041 1 43.1579 8.64269 373 62.2145 497.448 534.507
1042 0 44.0627 9.19145 405 62.1062 497.388 533.933
1043 0 45.127 11.1685 504 60.1825 497.597 532.712
1044 0 46.1739 9.59417 443 62.1941 497.269 531.713
1045 0 44.1064 9.86252 435 63.1126 497.308 529.333
1046 0 50.1313 10.1334 508 61.7323 497.037 529.148
1047 0 50.205 10.736 539 60.8089 496.963 530.399
1048 0 51.1227 11.3061 578 61.4671 498.145 526.609
1049 0 55.1154 12.8276 707 58.338 497.955 527.389
1050 0 55.1324 11.681 644 60.3975 497.641 527.12
1051 0 55.1104 10.5062 579 62.4318 497.411 525.547
1052 0 58.1814 10.6907 622 62.1029 497.32 525.899
1053 0 59.0695 9.98823 590 62.4746 497.466 525.697
1054 0 59.1141 10.5559 624 63.1106 496.92 520.615
1055 0 65.1052 11.0897 722 60.8172 497.615 524.267
1056 0 66.0997 9.90928 655 62.6626 497.203 521.435
1057 0 65.1091 9.07707 591 64.2098 497.201 519.526
1058 0 69.1729 11.8543 820 61.05 497.054 517.156
1059 0 73.1206 10.7494 786 61.369 497.492 517.648
1060 0 74.1212 10.3614 768 61.6823 497.388 518.706
1061 0 79.0738 12.2417 968 59.6529 497.718 516.741
1062 0 79.1018 10.733 849 61.3887 497.696 515.457
1063 1 43.0288 7.64603 329 61.4134 498.608 535.918
1064 0 46.0586 9.63988 444 59.6036 498.043 532.869
1065 0 46.0807 11.5667 533 58.4972 498.141 532.634
1066 0 46.0343 9.73188 448 59.9018 497.844 533.172
1067 0 50.0624 11.1461 558 57.8513 497.466 530.204
1068 0 49.0809 11.4097 560 59.1286 497.823 528.911
1069 0 52.1269 9.03564 471 61.0106 497.539 530.293
1070 0 53.1011 11.0732 588 59.7738 498.345 527.939
1071 0 52.1211 9.19014 479 62.501 497.695 526.528
1072 0 54.0952 10.0748 545 61.2477 498.095 526.598
1073 0 59.0596 10.8873 643 59.9549 497.179 524.636
1074 0 57.1933 9.16191 524 62.4332 498.321 523.947
1075 0 59.0933 10.3565 612 60.7451 498.036 526.631
1076 0 63.0748 10.7016 675 59.8252 498.009 525.407
1077 0 64.0629 11.6916 749 59.0561 498.13 523.842
1078 0 66.0766 9.0955 601 61.9135 498.458 523.507
1079 0 68.2173 12.3429 842 58.8777 498.33 520.552
1080 0 72.0912 10.7225 773 60.5692 498.122 519.3
1081 0 72.1653 9.38125 677 61.9911 498.544 519.588
1082 0 75.1027 11.5575 868 59.3514 498.168 518.108
1083 1 42.0448 9.46609 398 60.103 498.648 534.889
1084 0 41.0432 8.81998 362 60.2459 497.906 536.061
1085 0 42.1216 9.70998 409 60.0758 499.093 531.122
1086 0 45.0577 10.653 480 58.4833 498.212 532.331
1087 0 45.0314 8.90489 401 60.1072 498.394 531.234
1088 0 48.1172 10.3705 499 58.5952 498.599 531.034
1089 0 50.1399 11.6674 585 57.0239 497.684 530.06
1090 0 55.1939 12.3021 679 56.1841 498.828 529.719
1091 0 53.1869 11.2246 597 58.603 498.188 528.873
1092 0 58.2278 12.0904 704 56.7045 499.483 528.689
1093 0 56.206 10.1413 570 59.4404 498.716 528.449
1094 0 59.1402 9.89175 585 59.9282 498.597 527.487
1095 0 61.0806 10.7399 656 59.7729 499.444 524.032
1096 0 61.1467 11.0227 674 59.8932 498.737 523.472
1097 0 64.099 9.87535 633 60.5308 498.141 524.716
1098 0 66.1096 11.1633 738 59.5678 498.458 521.94
1099 0 68.1362 12.3429 841 57.8252 498.197 519.875
1100 0 71.1883 11.2799 803 59.1644 498.391 519.888
1101 0 74.1631 11.9197 884 58.3043 498.676 516.184
1102 0 75.1387 12.244 920 58.2717 498.262 517.073
1103 0 79.2066 11.4384 906 58.3521 498.838 517.278
1104 0 80.0792 12.5126 1002 57.6976 498.507 516.24
1105 0 82.1012 11.3518 932 59.4292 498.458 512.461
1106 0 86.1137 12.797 1102 57.7278 498.381 509.965
1107 1 45.0656 10.1851 459 60.2375 499.19 532.351
1108 0 45.038 9.39206 423 61.9243 498.957 530.664
1109 0 48.0595 10.5494 507 60.4201 499.304 529.872
1110 0 51.102 11.2129 573 58.6719 499.175 529.18
1111 0 52.0285 10.8787 566 59.606 499.488 528.938
1112 0 54.109 11.3105 612 59.7435 498.433 525.663
1113 0 56.0927 10.7144 601 59.3644 498.875 528.672
1114 0 59.1331 13.3428 789 57.1077 498.447 523.005
1115 0 59.1174 9.77715 578 61.4567 498.67 522.069
1116 0 59.1674 10.5802 626 60.8435 499.123 523.398
1117 0 63.125 12.7525 805 57.3789 498.657 521.898
1118 0 64.1712 10.0201 643 60.3981 498.785 523.048
1119 0 68.1124 12.3766 843 57.3286 498.305 520.566
1120 0 69.123 12.8467 888 57.3378 497.895 517.865
1121 0 68.1068 9.99901 681 60.9046 498.633 517.68
1122 0 71.1283 9.70078 690 61.1232 498.754 515.412
1123 0 75.0886 11.2001 841 59.4019 498.64 514.824
1124 0 75.244 9.47584 713 61.8429 498.881 513.381
1125 0 78.1008 11.2931 882 59.8458 498.893 512.099
1126 0 83.1741 11.7224 975 58.9549 498.961 512.605
1127 0 87.0931 12.2742 1069 57.8438 499.024 512.604
1128 0 88.1252 13.1064 1155 57.6372 498.804 507.01
1129 0 93.1745 12.5356 1168 58.6053 499.217 507.542
1130 1 50.0834 9.44424 473 59.1755 499.674 531.693
1131 0 53.1233 10.0521 534 59.5487 499.348 528.039
1132 0 52.0943 10.9225 569 59.3761 499.111 527.281
1133 0 53.0971 11.4507 608 58.9227 498.85 524.222
1134 0 58.1229 11.8542 689 56.8433 498.647 526.663
1135 0 59.0942 11.2532 665 57.785 499.131 526.056
1136 0 60.0625 10.7388 645 58.5411 498.822 524.803
1137 0 62.0705 11.938 741 57.2551 498.019 521.36
1138 0 64.1818 10.4547 671 58.5797 498.875 520.602
1139 0 66.0855 12.7562 843 56.3357 498.974 518.134
1140 0 68.0525 12.0642 821 57.0731 499.248 520.385
1141 0 70.1543 11.0186 773 57.4062 499.444 519.889
1142 0 71.1176 11.7974 839 58.0489 499.398 514.179
1143 0 74.1192 11.5355 855 57.7883 499.204 517.129
1144 0 78.186 12.9563 1013 56.5173 499.158 512.715
1145 0 77.2112 11.1253 859 58.8126 499.154 513.966
1146 0 80.1902 11.0487 886 59.4526 498.638 509.781
1147 0 85.1589 12.095 1030 57.865 498.202 511.671
1148 0 86.1358 11.2845 972 59.2654 498.806 508.201
1149 0 90.4609 12.3368 1116 58.2348 499.047 509.578
1150 0 94.2621 11.8499 1117 57.8809 499.137 509.654
1151 0 96.3231 12.2504 1180 57.7559 499.288 508.714
1152 1 46.159 9.7489 450 59.42 498.842 526.058
1153 0 49.1479 10.1327 498 57.8755 499.183 528.225
1154 0 51.1074 11.0747 566 57.0777 500.113 526.995
1155 0 54.1885 10.9986 596 56.9513 499.832 525.562
1156 0 55.2247 12.3858 684 55.0132 499.64 525.845
1157 0 55.1969 11.0332 609 57.8851 499.197 521.598
1158 0 57.1171 11.1875 639 57.2926 499.689 521.765
1159 0 58.0824 10.0891 586 58.6365 499.606 523.99
1160 0 59.0498 11.0923 655 57.0214 498.889 520.656
1161 0 61.151 11.4471 700 56.3243 499.349 522.919
1162 0 65.0959 14.3173 932 53.1459 499.492 519.416
1163 0 66.2291 12.3058 815 55.2515 499.774 519.348
1164 0 66.0929 12.3916 819 55.9035 498.973 516.437
1165 0 68.1081 10.3512 705 56.9035 499.159 517.826
1166 0 70.1219 11.6084 814 56.0688 499.061 515.828
1167 0 71.0848 12.2952 874 55.8032 499.438 515.706
1168 0 76.0496 11.7292 892 55.5617 499.459 516.735
1169 0 77.2285 12.2623 947 56.208 499.087 510.732
1170 0 79.1649 10.5855 838 57.8437 498.752 510.168
1171 0 82.1829 11.1824 919 57.4951 498.782 510.109
1172 0 86.2099 13.8383 1193 54.2934 499.113 508.184
1173 0 87.1917 11.9736 1044 56.7854 498.498 506.807
1174 1 47.0732 11.0254 519 54.8786 499.052 528.037
1175 0 46.0979 8.67718 400 56.93 499.075 529.488
1176 0 48.2015 8.2985 400 57.045 499.292 527.335
1177 0 48.1266 11.3451 546 54.685 499.526 525.685
1178 0 53.118 11.0321 586 55.8874 499.788 524.606
1179 0 53.1053 10.6769 567 55.8042 499.384 525.249
1180 0 55.1418 11.4976 634 54.8423 498.798 524.744
1181 0 55.0359 8.73975 481 58.3368 499.173 521.917
1182 0 59.0617 11.1578 659 55.9074 498.486 520.162
1183 0 59.0944 11.4224 675 55.8652 499.393 520.569
1184 0 64.2883 11.9151 766 55.3081 499.149 520.142
1185 0 65.0787 11.4016 742 56.2507 498.596 516.933
1186 0 68.0658 11.1657 760 56.3066 498.957 518.639
1187 0 67.0884 10.2104 685 57.946 498.909 514.53
1188 0 71.2297 11.5682 824 55.9927 498.819 516.064
1189 0 74.0611 10.6669 790 57.5987 498.425 516.203
1190 0 78.1304 12.9399 1011 54.9426 498.886 513.469
1191 0 76.1449 10.4669 797 58.3312 498.744 512.832
1192 0 78.1783 11.397 891 57.4489 499.204 511.889
1193 1 41.0425 11.1104 456 55.875 499.686 529.138
1194 0 43.0474 9.84961 424 56.7689 499.116 529.019
1195 0 42.0369 10.0864 424 58.1863 499.099 527.502
1196 0 48.0297 11.5553 555 55.5495 498.809 527.553
1197 0 45.0147 12.507 563 55.1385 498.153 528.401
1198 0 48.0546 13.339 641 54.2605 498.944 527.902
1199 0 49.1341 10.4408 513 57.6082 499.181 526.612
1200 0 51.1303 10.6982 547 56.8775 498.786 528.346
1201 0 53.1396 11.1781 594 56.7104 498.438 526.48
1202 0 54.0913 10.7041 579 57.3282 499.047 526.178
1203 0 53.2035 10.8264 576 57.2448 498.651 524.085
1204 0 55.1329 10.8647 599 57.3239 498.556 522.583
1205 0 54.0267 8.6994 470 59.4617 498.357 521.757
1206 0 59.0817 12.1865 720 55.6611 497.815 522.043
1207 0 59.0374 10.3494 611 57.329 498.309 519.656
1208 0 61.0435 9.97649 609 57.9245 498.404 518.921
1209 0 66.0775 11.2595 744 56.4462 498.43 517.801
1210 0 66.0577 11.1569 737 56.8155 498.248 515.676
1211 0 71.0546 12.5115 889 54.7728 498.415 516.507
1212 0 72.0432 11.9095 858 56.2284 498.934 513.626
1213 0 75.1729 12.7306 957 55.6708 498.47 514.737
1214 0 77.1185 11.7092 903 57.2458 498.006 510.816
1215 0 80.1539 11.1161 891 57.5342 498.293 512
1216 0 82.1918 10.9135 897 58.1405 498.878 511.268
1217 1 44.058 9.28321 409 57.489 498.841 531.015
1218 0 46.068 9.2255 425 58.36 498.944 529.459
1219 0 46.1496 8.60245 397 59.6146 498.975 528.977
1220 0 48.1705 9.57017 461 58.8178 498.866 527.145
1221 0 50.1393 10.6503 534 57.9738 498.131 525.242
1222 0 49.0647 11.7396 576 57.8854 498.203 524.359
1223 0 53.1685 10.3633 551 58.5154 498.497 523.77
1224 0 56.1096 11.7092 657 56.9209 499.142 523.318
1225 0 56.2487 10.8802 612 58.335 499.044 523.817
1226 0 58.0934 11.3782 661 57.941 498.938 520.994
1227 0 61.0506 10.7288 655 58.7679 499.035 519.423
1228 0 63.1485 12.1935 770 57.0104 499.273 519.596
1229 0 63.1259 13.3384 842 56.6105 498.767 517.496
1230 0 66.1048 11.3456 750 59.1293 498.615 515.255
1231 0 67.0717 11.4653 769 58.9207 499.194 514.209
1232 0 66.1815 10.2899 681 60.837 499.347 514.382
1233 0 72.0837 10.9872 792 60.4091 498.688 510.42
1234 0 77.1851 11.1809 863 59.9757 498.56 512.961
1235 0 78.1861 11.0506 864 61 499.025 510.013
1236 0 81.3008 11.316 920 60.7087 499.54 510.473
1237 1 42.0141 9.87763 415 58.5663 500.282 532.535
1238 0 42.1977 10.83 457 58.2845 499.932 530.764
1239 0 41.0486 9.15987 376 60.3777 499.824 532.359
1240 0 45.1314 10.5248 475 59.0716 499.912 530.545
1241 0 47.0918 11.1909 527 57.9374 499.899 530.85
1242 0 48.0867 12.0823 581 57.716 499.713 527.752
1243 0 46.1404 9.90456 457 61.5427 500.098 526.648
1244 0 51.1567 10.5949 542 59.6494 500.369 527.179
1245 0 51.1627 11.5123 589 58.9457 499.506 525.723
1246 0 52.1799 10.9621 572 60.0192 499.107 525.654
1247 0 55.1692 11.9088 657 58.6956 500.003 524.368
1248 0 55.2309 10.5376 582 60.6168 499.373 523.081
1249 0 58.1047 11.8063 686 59.0466 499.58 522.573
1250 0 60.1621 12.0508 725 59.4014 499.926 519.677
1251 0 63.1403 10.8013 682 60.1173 499.419 519.069
1252 0 64.2093 10.8396 696 60.1624 499.891 519.754
1253 0 67.1716 11.2101 753 59.5259 499.55 516.887
1254 0 69.2155 11.587 802 59.1895 499.559 518.465
1255 0 69.0913 10.7105 740 60.1608 499.701 516.827
1256 0 75.2492 13.4088 1009 56.331 499.427 515.99
1257 0 76.1573 10.5702 805 59.3441 499.783 514.945
1258 0 78.2494 11.7828 922 57.6909 499.584 513.628
1259 1 41.0773 10.2246 420 57.4595 499.955 532.302
1260 0 41.0812 10.3697 426 58.0657 500.016 530.31
1261 0 46.1861 11.2588 520 56.7615 499.225 529.238
1262 0 44.1996 9.43448 417 59.8129 499.309 529.477
1263 0 45.0849 8.58381 387 59.4548 499.597 526.855
1264 0 49.2078 12.2745 604 54.5414 499.118 526.743
1265 0 50.1916 11.0975 557 55.9479 499.715 524.743
1266 0 52.0793 12.1353 632 55.0696 499.343 523.884
1267 0 54.1478 11.2285 608 55.3882 499.525 526.24
1268 0 54.1289 12.4333 673 55.2184 499.514 523.935
1269 0 57.1824 10.9999 629 56.682 499.434 523.712
1270 0 57.1087 11.1016 634 56.8707 498.803 522.88
1271 0 58.1147 10.9095 634 57.4984 499.131 518.891
1272 0 61.0937 10.6885 653 57.6172 498.959 520.743
1273 0 61.1125 9.99795 611 58.5761 499.193 520.162
1274 0 64.2131 11.384 731 56.9576 499.577 519.395
1275 0 66.1112 11.0874 733 57.8909 499.973 518.314
1276 0 67.1119 10.6687 716 58.6578 499.137 517.941
1277 0 69.1471 10.6006 733 58.6917 500.172 516.988
1278 0 72.0633 11.8229 852 57.6667 499.596 515.194
1279 0 76.1573 12.2247 931 56.7916 499.502 513.445
1280 0 76.0501 10.7561 818 58.6638 499.29 513.664
1281 0 79.1048 12.5782 995 57.2302 499.96 509.705
1282 0 82.0574 10.6267 872 59.3509 498.133 512.966
1283 0 85.2983 11.5594 986 58.7647 499.421 507.447
1284 0 87.0635 11.3595 989 58.4611 499.403 511.464
1285 1 46.0732 10.2446 472 58.4237 498.574 528.157
1286 0 47.0714 9.47497 446 58.6211 498.85 528.327
1287 0 48.0615 9.57108 460 59.4435 499.241 526.265
1288 0 50.1085 11.5549 579 57.8169 499.434 525.23
1289 0 54.1081 12.3272 667 56.2729 499.135 527.205
1290 0 53.0275 9.20276 488 59.0471 498.291 524.74
1291 0 58.1088 11.2892 656 56.8689 498.933 520.396
1292 0 58.168 11.0026 640 57.4281 498.739 520.455
1293 0 59.0678 10.7673 636 57.6462 498.409 521.956
1294 0 62.1292 12.5062 777 55.3462 499.245 521.408
1295 0 64.0576 13.082 838 54.4141 498.195 518.272
1296 0 63.182 11.0949 701 57.3823 498.786 515.121
1297 0 70.0774 11.1305 780 55.991 498.317 515.847
1298 0 70.1482 12.887 904 54.5365 498.848 513.18
1299 0 72.1331 14.4594 1043 52.4756 498.212 512.869
1300 0 76.1059 12.8374 977 54.1668 499.193 512.631
1301 0 75.0635 12.989 975 54.6164 498.413 512.213
1302 0 80.1053 11.4974 921 56.0499 498.845 509.342
1303 0 83.0972 13.057 1085 54.3207 499.182 510.644
1304 0 85.288 10.0014 853 57.5135 499.035 508.219
1305 0 88.1926 12.0078 1059 55.3824 498.971 505.375
1306 0 87.1063 11.2621 981 56.6962 498.746 505.249
1307 0 95.1747 13.0917 1246 54.0762 499.245 507.585
1308 0 95.1471 9.29088 884 58.2489 499.014 502.9
1309 0 95.1118 8.83171 840 59.3393 499.417 497.685
1310 1 49.1754 10.371 510 55.8588 499.614 524.582
1311 0 51.0653 8.87099 453 57.0971 499.486 525.121
1312 0 53.0332 10.9177 579 55.6528 499.641 521.073
1313 0 56.0745 11.8057 662 54.9411 499.211 523.14
1314 0 58.0547 12.5054 726 54.292 498.745 519.989
1315 0 61.0827 12.1638 743 54.2032 499.587 521.121
1316 0 63.0865 11.7141 739 54.6252 499.277 517.092
1317 0 61.1187 10.226 625 56.2432 498.638 518.36
1318 0 65.1906 11.1212 725 54.9614 499.171 520.054
1319 0 66.0872 11.2427 743 55.3607 499.008 514.673
1320 0 71.0735 11.3122 804 55.0386 498.478 514.134
1321 0 71.0918 10.7326 763 56.1861 499.204 513.275
1322 0 74.2299 10.5348 782 55.8951 498.783 515.826
1323 0 76.07 10.6612 811 56.5092 498.716 515.646
1324 0 79.0915 13.4401 1063 54.318 498.347 512.836
1325 0 81.1009 10.5054 852 57.0164 498.776 511.926
1326 0 86.1585 12.3842 1067 55.2596 497.903 508.329
1327 0 89.1041 11.3238 1009 55.884 498.797 509.392
1328 0 90.167 10.2366 923 56.1051 498.609 510.512
1329 0 95.1734 12.472 1187 55.0177 498.355 504.053
1330 0 97.1402 11.8283 1149 55.7972 498.248 502.08
1331 0 101.18 12.5124 1266 54.9021 498.159 502.608
1332 0 106.119 13.2587 1407 53.5657 498.382 502.131
1333 0 110.184 12.3611 1362 54.8935 498.853 497.455
1334 0 111.135 11.5085 1279 56.3706 499.285 497
1335 1 56.055 10.0437 563 56.7069 498.927 524.599
1336 0 61.09 12.7353 778 53.7044 498.837 522.715
1337 0 60.0628 11.1217 668 55.8907 497.933 520.082
1338 0 65.0677 12.8943 839 53.5888 498.417 518.958
1339 0 67.1379 12.9286 868 53.4366 498.515 519.942
1340 0 66.0777 12.334 815 54.7963 498.356 514.709
1341 0 72.2271 9.76088 705 56.7362 498.529 517.674
1342 0 73.0912 13.7226 1003 53.7149 498.72 515.15
1343 0 75.0944 13.3832 1005 53.7711 498.47 514.161
1344 0 77.2491 12.5827 972 54.5669 498.634 512.185
1345 0 83.1719 13.418 1116 53.9668 499.073 512.597
1346 0 84.1281 12.3859 1042 55.4741 498.836 510.714
1347 0 85.0908 10.2596 873 57.5819 498.32 508.901
1348 0 89.149 13.068 1165 54.9983 498.918 507.286
1349 0 89.0399 12.0283 1071 56.6452 499.163 505.388
1350 0 94.1054 13.0598 1229 55.5297 499.022 504.343
1351 0 97.1974 10.741 1044 57.9579 498.346 501.706
1352 0 98.2129 9.91723 974 58.9507 498.496 499.736
1353 0 100.134 12.4134 1243 56.5213 498.385 501.075
1354 0 104.421 12.4209 1297 56.4788 498.633 498.651
1355 0 105.176 12.5314 1318 56.7322 498.496 495.215
1356 0 107.164 11.1605 1196 58.4833 498.821 492.809
1357 1 57.2132 10.7493 615 55.7268 498.743 520.133
1358 0 59.1343 10.9074 645 54.9008 499.589 519.482
1359 0 61.1117 11.389 696 54.7256 499.343 520.159
1360 0 64.084 10.8763 697 54.9885 499.161 518.663
1361 0 66.1331 10.0404 664 55.5226 499.455 519.84
1362 0 65.0685 10.7733 701 56.077 498.528 513.956
1363 0 68.1768 11.3968 777 55.1699 499.059 511.515
1364 0 69.1298 9.74978 674 56.9407 498.685 510.231
1365 0 69.0797 10.5096 726 56.5413 499.371 510.16
1366 0 73.1 9.98632 730 57.0507 498.537 507.003
1367 0 78.1511 10.902 852 55.7019 499.085 511.248
1368 0 81.106 14.2899 1159 52.9784 499.139 506.964
1369 0 86.1071 13.4135 1155 53.5913 499.157 508.387
1370 0 87.1943 11.7095 1021 56.3408 499.456 504.299
1371 0 89.1397 9.86092 879 57.6052 499.54 505.688
1372 0 95.3424 13.4043 1278 54.4679 499.094 501.94
1373 0 96.2303 11.6491 1121 56.4683 498.873 502.802
1374 0 99.2636 12.7741 1268 56.0315 499.024 497.877
1375 0 104.105 12.6122 1313 55.112 498.673 502.806
1376 1 52.227 12.5988 658 51.9711 498.503 524.971
1377 0 56.2089 10.6745 600 53.8617 499.62 523.333
1378 0 58.0439 8.71754 506 55.9407 499.684 523.004
1379 0 59.1311 10.0455 594 54.7205 499.667 524.907
1380 0 60.0817 10.4358 627 55.6587 499.56 522.734
1381 0 63.0218 10.9645 691 55.1331 499.512 522.823
1382 0 64.0987 10.5306 675 56.3141 499.046 521.884
1383 0 68.112 10.9526 746 55.7976 499.239 520.528
1384 0 70.0492 11.8774 832 55.6502 498.851 518.922
1385 0 72.1145 12.0919 872 55.8945 499.087 516.718
1386 0 73.128 11.5551 845 56.3243 499.134 518.782
1387 0 71.1076 10.4349 742 59.1725 499.317 512.836
1388 0 78.2779 11.4847 899 57.0011 499.179 514.72
1389 0 83.1516 12.0743 1004 56.1703 499.234 515.023
1390 0 83.1874 11.3839 947 57.6959 499.059 513.365
1391 0 84.1338 10.2812 865 58.9075 498.742 511.867
1392 0 86.1256 11.8432 1020 58.3725 498.332 507.363
1393 0 89.0975 11.7175 1044 58.4741 499.521 507.819
1394 0 93.2253 10.3191 962 60.3181 498.558 505.23
1395 0 95.0803 9.17119 872 60.8142 499.378 508.14
1396 1 52.0238 7.30435 380 59.1658 499.179 529.108
1397 0 52.0774 9.15945 477 57.8092 499.44 528.52
1398 0 53.0662 9.29028 493 58.3387 499.619 526.239
1399 0 55.0293 9.72209 535 57.7645 498.697 527.693
1400 0 58.0934 9.74293 566 58.7827 499.101 522.21
1401 0 59.124 11.163 660 57.2667 499.5 523.055
1402 0 62.07 10.8104 671 57.8808 498.981 523.665
1403 0 64.093 11.5769 742 57.5 497.885 523.439
1404 0 65.0456 10.4542 680 58.375 498.382 523.975
1405 0 66.0769 10.8056 714 58.7185 498.308 520.238
1406 0 69.1403 11.2236 776 57.7113 498.265 521.196
1407 0 71.2026 9.94346 708 59.6653 498.243 516.75
1408 0 70.0785 10.0459 704 60.5114 498.628 516.318
1409 0 74.1064 12.3741 917 57.8888 498.463 515.492
1410 0 76.1001 11.0775 843 59.3547 498.827 512.081
1411 0 79.0916 9.77347 773 60.8512 498.551 509.172
1412 0 84.1247 9.96141 838 60.7243 498.267 512.504
1413 0 84.1459 10.7432 904 61.2976 497.994 508.985
1414 1 46.0549 10.6829 492 58.2703 497.486 530.927
1415 0 47.0666 13.6827 644 56.3385 498.368 530.157
1416 0 49.0561 11.6397 571 58.6532 499.257 531.622
1417 0 52.059 9.56606 498 60.6245 499.048 531.384
1418 0 52.0747 11.3107 589 60.8336 498.031 527.148
1419 0 54.0592 11.4689 620 60 497.924 529.521
1420 0 56.0535 12.3275 691 58.7945 498.698 528.975
1421 0 57.0454 10.9211 623 61.2873 498.388 526.151
1422 0 59.1083 11.2167 663 61.4314 498.463 523.354
1423 0 62.0824 13.321 827 58.3458 499.306 524.901
1424 0 63.1526 11.3851 719 61.1836 499.113 520.897
1425 0 67.1418 12.7342 855 59.7825 498.949 522.291
1426 0 68.1443 11.1675 761 62.2405 498.662 520.878
1427 0 72.1277 13.5316 976 59.9211 499.127 519.756
1428 0 73.1033 11.5043 841 61.9417 498.688 519.913
1429 0 75.1049 11.1045 834 62.9508 498.618 518.908
1430 0 76.1501 10.0328 764 63.9254 498.694 517.151
1431 0 80.0766 9.79062 784 64.162 498.658 514.727
1432 0 82.1267 11.9206 979 62.4964 498.868 514.362
1433 0 83.2466 11.0515 920 63.9815 498.441 513.021
1434 1 46.0487 9.98942 460 59.6848 499.174 534.943
1435 0 47.0315 10.2484 482 59.1017 498.809 534.301
1436 0 45.0101 10.4865 472 60.9725 499.305 531.269
1437 0 46.0389 9.64402 444 60.8739 498.705 534.074
1438 0 49.0957 10.3471 508 60.065 498.917 531.99
1439 0 48.1003 10.2494 493 60.9594 498.822 527.866
1440 0 51.0884 11.4703 586 59.0017 498.514 528.218
1441 0 55.094 11.2353 619 58.811 498.733 528.906
1442 0 55.0191 11.287 621 58.971 498.863 527.792
1443 0 55.0888 12.6523 697 57.6758 498.549 525.792
1444 0 55.0408 10.5921 583 60.4168 498.642 522.794
1445 0 57.1972 9.68579 554 60.9567 498.534 523.572
1446 0 61.1024 9.83594 601 60.4043 498.273 523.256
1447 0 63.0758 10.3051 650 59.9723 498.174 521.771
1448 0 65.2228 10.9778 716 59.2584 498.663 519.802
1449 0 65.074 10.4035 677 60.5391 498.319 519.207
1450 0 68.1613 12.7785 871 58.1079 498.749 516.677
1451 0 71.1475 11.3145 805 59.2087 499.04 518.85
1452 0 70.212 11.1519 783 60.2478 498.314 517.263
1453 0 74.1585 12.7699 947 58.7751 498.426 512.61
1454 0 76.1115 10.8394 825 60.5964 498.444 513.928
1455 0 79.0442 11.0951 877 60.1391 498.777 513.356
1456 0 83.109 12.249 1018 59.1857 498.805 511.866
1457 0 83.2181 10.106 841 61.7776 498.886 507.361
1458 0 86.1326 10.5535 909 61.0264 498.378 508.242
1459 0 89.2957 9.70931 867 62.1672 498.426 506.287
1460 0 93.156 9.88664 921 60.8274 499.355 508.535
1461 0 98.186 12.7819 1255 57.8861 498.978 503.739
1462 0 100.218 11.2455 1127 60.2396 499.237 501.245
1463 1 50.1324 8.47755 425 60.9176 499.374 524.814
1464 0 54.1536 8.86367 480 59.7771 498.881 525.523
1465 0 56.0515 11.0791 621 57.7762 498.924 523.23
1466 0 55.1059 8.74679 482 60.1846 498.72 523.45
1467 0 59.1449 9.85715 583 58.6998 499.286 522.237
1468 0 63.0978 11.8546 748 56.1297 498.691 522.18
1469 0 65.1811 10.7853 703 56.6344 498.511 521.954
1470 0 68.1681 13.7014 934 53.6242 498.604 521.024
1471 0 67.1135 12.0393 808 56.1931 499.067 517.212
1472 0 69.1682 12.607 872 55.1376 498.995 519.283
1473 0 72.1506 11.5037 830 56 498.441 519.481
1474 0 74.1664 12.0135 891 56.367 498.86 514.691
1475 0 75.0598 12.2702 921 56.2899 499.358 512.155
1476 0 77.1437 10.5906 817 58.1983 498.814 513.398
1477 0 79.1269 11.0708 876 57.766 499.096 512.318
1478 0 83.2544 12.696 1057 56.1523 498.698 508.681
1479 0 85.1703 11.1189 947 57.7455 499.043 511.105
1480 0 88.0834 11.3302 998 58.0651 498.548 509.91
1481 0 91.1741 11.5274 1051 57.8221 498.537 509.648
1482 0 95.2903 12.3937 1181 57.2413 498.674 505.808
1483 0 96.1617 11.699 1125 58.5262 498.257 501.207
1484 0 100.259 12.2284 1226 57.9144 498.399 502.786
1485 0 102.332 10.3096 1055 59.963 498.634 503.795
1486 0 107.21 11.8739 1273 58.2255 497.805 501.01
1487 0 109.239 11.6442 1272 59.0134 498.811 499.066
1488 0 112.166 11.697 1312 59.1555 498.487 496.886
1489 1 63.1129 11.2021 707 58.7115 498.775 519.597
1490 0 64.1274 11.9138 764 57.3338 498.293 520.384
1491 0 66.1265 10.2682 679 58.8689 498.483 517.704
1492 0 70.1421 12.5887 883 56.5164 497.737 516.216
1493 0 71.1264 10.3056 733 58.7422 498.296 515.709
1494 0 72.151 10.7275 774 58.8243 497.902 512.335
1495 0 75.2418 13.2639 998 55.7295 498.666 516.268
1496 0 76.1615 11.8433 902 57.9812 498.277 512.294
1497 0 81.2373 11.6818 949 58.1834 498.36 510.995
1498 0 83.2742 11.7804 981 58.317 498.489 508.849
1499 0 87.1579 12.4372 1084 57.5452 498.22 509.542
1500 0 89.173 13.1318 1171 57.187 498.102 503.813
1501 0 93.1 12.5134 1165 57.8378 497.87 503.386
1502 0 99.2735 12.2993 1221 58.05 498.75 503.235
1503 0 99.3677 12.6299 1255 58.4916 498.031 498.578
1504 0 104.116 13.4177 1397 57.1331 498.495 500.812
1505 0 107.14 13.3284 1428 57.8789 497.897 496.543
1506 0 110.154 12.5733 1385 58.5762 498.323 495.965
1507 0 114.102 10.0612 1148 60.5026 498.647 498.927
1508 0 116.176 12.8598 1494 58.8025 498.017 491.748
1509 1 61.2408 11.7569 720 57.1069 498.246 519.14
1510 0 64.0298 12.2755 786 56.9644 498.295 517.046
1511 0 66.265 12.5104 829 56.6345 498.332 515.255
1512 0 66.1427 11.7322 776 57.6044 498.075 516.78
1513 0 71.0615 12.1866 866 56.8891 498.464 514.843
1514 0 73.196 12.2548 897 55.9431 498.385 516.548
1515 0 76.1106 12.3504 940 56 497.694 515.169
1516 0 78.1831 11.0766 866 57.7991 498.863 510.604
1517 0 78.1031 9.70512 758 58.942 498.483 512.372
1518 0 82.2528 11.8172 972 57.2397 497.877 510.145
1519 0 85.0904 11.6229 989 57.6967 498.059 504.916
1520 0 88.1028 11.0212 971 58.2606 498.108 505.568
1521 0 91.1906 12.9619 1182 56.7716 498.157 505.997
1522 0 92.1174 10.7146 987 59.3171 498.544 504.513
1523 0 96.1077 11.331 1089 58.4169 498.308 504.212
1524 0 100.182 12.5372 1256 57.9403 498.287 499.692
1525 0 103.116 12.5295 1292 57.9628 498.293 499.317
1526 0 107.201 13.0222 1396 56.9785 498.119 499.669
1527 1 55.0667 9.69733 534 57.8895 497.966 525.434
1528 0 55.0744 10.3859 572 57.7378 497.837 521.664
1529 0 59.0838 9.47806 560 57.9429 497.848 523.005
1530 0 60.0791 10.353 622 57.9727 498.167 519.04
1531 0 63.1082 11.4407 722 55.9626 498.382 521.071
1532 0 61.0987 10.2621 627 58.3014 498.343 516.762
1533 0 66.099 12.799 846 55.1229 498.381 517.837
1534 0 71.2128 10.3212 735 57.2027 497.898 518.959
1535 0 70.1783 10.9721 770 57.3052 497.626 515.455
1536 0 73.4839 11.5672 850 56.7082 498.102 517.601
1537 0 76.1757 12.1692 927 56.5631 498.124 513.852
1538 0 80.1226 12.5058 1002 55.8772 497.625 513.718
1539 0 83.0843 12.5535 1043 56.0489 497.761 513.014
1540 0 79.1171 9.87145 781 59.9475 496.969 509.507
1541 0 86.0704 11.8856 1023 56.5435 497.075 512.238
1542 0 90.1427 11.027 994 58.0966 497.049 508.232
1543 0 94.1378 12.2799 1156 56.0882 497.723 511.177
1544 0 94.2139 11.6331 1096 58.4243 498.175 505.286
1545 0 98.1591 11.8889 1167 57.6401 497.64 505.54
1546 0 100.204 12.8637 1289 57.5516 498.062 502.875
1547 0 104.083 12.442 1295 57.8656 497.974 504.442
1548 0 105.233 11.2513 1184 59.6917 497.5 499.057
1549 1 52.1024 10.9784 572 56.6906 498.467 527.234
1550 0 52.0479 10.279 535 58.5402 498.316 522.368
1551 0 55.2543 11.257 622 56.6463 498.119 525.24
1552 0 60.0758 11.0194 662 55.6722 498.353 527.429
1553 0 62.2003 11.3504 706 56.4943 497.737 524.122
1554 0 66.1126 13.0837 865 53.4439 497.636 525.071
1555 0 63.04 13.3725 843 54.917 497.656 521.356
1556 0 66.1383 11.1282 736 56.3179 497.781 523.628
1557 0 69.1808 10.9568 758 57.0145 497.898 519.061
1558 0 70.1624 13.6255 956 54.8839 497.866 519.326
1559 0 75.123 11.7807 885 56.7435 497.618 519.207
1560 0 77.1653 12.6222 974 56.7731 498.027 514.072
1561 0 77.0871 10.8449 836 58.9725 498.367 514.258
1562 0 82.1339 11.4447 940 58.1585 497.74 514.168
1563 0 83.1371 11.7156 974 58.614 497.875 511.513
1564 0 84.0982 14.3166 1204 56.6005 497.68 509.96
1565 0 87.0874 11.7468 1023 59.3236 498.29 510.396
1566 1 44.0808 9.66408 426 59.5235 498.258 530.761
1567 0 46.0203 10.039 462 59.5801 497.913 527.721
1568 0 46.0354 9.7968 451 60.7916 497.741 528.605
1569 0 48.0576 10.3626 498 60.6044 498.458 526.59
1570 0 51.0959 10.0791 515 59.9126 497.849 527.303
1571 0 54.0725 10.301 557 58.9785 498.135 527.465
1572 0 55.0687 10.496 578 59.4533 498.6 525.915
1573 0 57.0443 10.0448 573 59.3298 498.485 525.677
1574 0 60.1104 12.161 731 56.3762 498.294 526.364
1575 0 62.1404 12.2947 764 57.0851 498.729 523.298
1576 0 63.1836 11.5536 730 58.3671 498.181 523.533
1577 0 64.1543 10.9891 705 59.5844 498.26 519.363
1578 0 66.1363 10.8564 718 59.7674 498.252 521.533
1579 0 68.1247 11.3322 772 59.7098 498.244 518.554
1580 0 71.1884 10.7321 764 60.1414 498.102 518.555
1581 0 71.1831 11.4212 813 60.1181 498.14 516.882
1582 0 76.134 12.8326 977 58.3951 498.206 516.884
1583 0 77.1231 11.4103 880 61.0307 497.824 512.234
1584 0 82.2997 12.2115 1005 59.8517 498.292 512.285
1585 0 84.2154 11.4112 961 60.6004 498.896 513.441
1586 0 86.1145 11.8563 1021 60.1743 498.217 511.773
1587 0 90.1889 11.4759 1035 60.6512 497.754 510.381
1588 0 89.1026 10.8976 971 62.2575 497.507 505.926
1589 0 98.2486 12.1732 1196 48.1363 497.11 505.582
1590 1 50.0938 11.2789 565 58.6973 498.085 529.074
1591 0 50.0432 11.2103 561 59.0731 498.144 524.727
1592 0 54.1553 11.0423 598 58.7375 498.211 526.681
1593 0 53.1313 11.4434 608 59.0345 498.099 523.464
1594 0 55.0676 11.2044 617 59.4668 497.519 524.329
1595 0 57.2314 10.5012 601 59.3727 496.7 524.845
1596 0 60.1167 11.1616 671 58.9016 497.182 520.68
1597 0 60.0287 11.8777 713 58.5414 497.3 519.903
1598 0 65.0751 11.3407 738 57.8198 496.949 523.82
1599 0 64.0642 11.1919 717 59.1953 496.89 517.679
1600 0 66.0956 12.1642 804 58.4975 497.544 518.795
1601 0 68.1455 11.901 811 58.1788 497.783 522.673
1602 0 73.0667 11.5785 846 58.5189 497.235 520.511
1603 0 72.1935 12.5219 904 58.3208 497.433 515.929
1604 0 75.1407 11.2456 845 59.8059 497.918 512.961
1605 0 77.2266 12.6122 974 58.6468 497.818 513.771
1606 0 79.0737 12.2418 968 59.2025 497.477 514.822
1607 1 40.0537 11.2349 450 59.3933 497.389 534.578
1608 0 41.1466 10.1831 419 60.5298 497.537 532.967
1609 0 44.0168 11.95 526 58.7414 497.627 531.848
1610 0 45.2057 11.0606 500 60 497.576 530.806
1611 0 49.132 11.8456 582 58.4811 498.129 529.875
1612 0 50.0572 12.1062 606 59.0033 497.814 528.64
1613 0 51.0437 12.3816 632 59.1361 497.462 529.579
1614 0 51.0537 12.4183 634 59.2587 498.45 528.453
1615 0 51.0505 10.8324 553 60.9982 497.807 528.514
1616 0 53.0454 11.9709 635 60.2756 497.589 526.907
1617 0 55.124 11.0297 608 61.0707 497.988 525.765
1618 0 59.1668 13.9605 826 56.6332 498.242 527.424
1619 0 59.0416 11.2463 664 60.5286 497.935 524.721
1620 0 59.1314 12.616 746 59.6957 498.052 523.066
1621 0 64.0449 12.5225 802 58.7955 498.324 521.155
1622 0 68.0511 14.8859 1013 56.1619 497.995 520.476
1623 0 68.1594 12.4268 847 59.3991 498.08 520.465
1624 0 69.0396 12.8332 886 59.2799 498.225 518.786
1625 0 72.1934 13.5469 978 58.9785 498.401 517.784
1626 0 76.0997 13.5874 1034 58.4023 497.948 517.348
1627 0 77.2516 12.4917 965 59.3202 497.923 518.792
1628 0 79.0852 13.5423 1071 59.3371 497.919 514.688
1629 1 41.0218 11.2867 463 61.0691 497.54 534.19
1630 0 44.0433 14.236 627 58.2759 497.796 532.196
1631 0 45.073 12.6462 570 60.6667 497.223 531.518
1632 0 45.0171 12.262 552 61.2953 497.639 531.362
1633 0 49.0284 13.278 651 59.7189 498.419 529.955
1634 0 49.1618 12.3266 606 60.6914 497.87 531.465
1635 0 53.0774 11.9825 636 61.3019 498.215 527.901
1636 0 55.1139 13.3723 737 59.8833 498.073 527.081
1637 0 53.0545 12.7793 678 61.7124 498.36 525.885
1638 0 54.0909 12.5714 680 62.2029 498.45 524.865
1639 0 56.0354 10.654 597 64.536 498.136 522.786
1640 0 58.079 12.6724 736 62.2038 498.389 523.312
1641 0 63.2435 13.4243 849 59.9011 498.303 522.913
1642 0 64.2076 13.1137 842 61.3052 498.064 522.371
1643 0 63.1114 11.1866 706 64.187 497.615 519.385
1644 0 66.2149 12.6256 836 62.2596 498.093 517.764
1645 0 71.1435 13.4095 954 61.021 497.922 515.979
1646 0 72.0456 13.1445 947 61.5544 497.441 517.352
1647 0 77.0943 12.582 970 61.8103 498.424 516.252
1648 0 77.1413 13.391 1033 61.3485 498.083 512.073
1649 0 82.0606 13.3072 1092 61.2097 497.975 513.214
1650 0 84.1001 13.151 1106 61.321 498.273 513.071
1651 1 46.0294 12.4703 574 62.6516 498.239 528.296
1652 0 44.0524 10.5556 465 65.4258 497.523 529.783
1653 0 47.0431 11.6702 549 64.592 497.148 527.302
1654 0 49.0873 11.3064 555 63.9387 498.025 527.55
1655 0 50.0412 12.3098 616 63.4075 498.256 526.979
1656 0 55.0709 12.2025 672 62.3259 498.077 527.552
1657 0 54.0743 13.6294 737 61.8318 498.372 525.427
1658 0 55.0398 9.86559 543 65.0589 497.996 525.82
1659 0 59.1183 13.5491 801 60.9625 497.797 524.925
1660 0 61.0592 12.9219 789 61.7212 497.691 523.395
1661 0 61.0994 12.6679 774 62.0788 497.891 522.062
1662 0 64.0975 12.7462 817 62.1652 497.798 520.059
1663 0 66.129 11.8102 781 63.0999 498.163 518.277
1664 0 69.0994 11.7367 811 63.2861 497.781 517.64
1665 0 73.1409 12.8792 942 61.8907 497.482 517.384
1666 0 74.0419 14.4513 1070 60.4393 497.646 516.109
1667 0 74.1841 12.4959 927 63.5156 497.482 517.824
1668 0 77.0966 13.1004 1010 63.7614 497.523 515.961
1669 0 77.0982 12.5554 968 64.9494 497.395 516.656
1670 0 77.0901 13.2961 1025 65.4068 497.768 514.377
1671 1 38.0984 11.7853 449 64.9042 497.546 533.192
1672 0 39.0595 12.673 495 63.9899 497.923 532.285
1673 0 41.0748 10.8095 444 65.286 498.223 534.275
1674 0 43.0213 12.2498 527 64.9564 498.531 531.698
1675 0 43.0962 11.5555 498 66.1486 498.313 530.821
1676 0 44.1264 11.875 524 65.7729 497.895 531.198
1677 0 47.0339 12.9906 611 64.0556 498.193 529.753
1678 0 46.0568 11.7246 540 65.7556 497.469 529.259
1679 0 49.0436 12.8253 629 63.9777 497.293 528.564
1680 0 51.0883 11.8814 607 64.6606 497.552 528.077
1681 0 53.1292 13.0249 692 63.0448 498.225 527.788
1682 0 54.078 13.1107 709 63.7997 497.615 525.247
1683 1 14.0024 8.71278 122 58.4918 500.73 550.443
1684 0 17.0501 10.909 186 70.8602 499.694 549.774
1685 0 18.0098 11.1051 200 69.815 500.045 550.82
1686 0 16.0466 10.0333 161 77.1863 499.814 551.528
1687 0 19.0141 11.1496 212 72.7264 498.943 551.061
1688 0 19.0136 11.1499 212 70.75 498.698 551.25
1689 1 197.281 8.92635 1761 67.5145 497.187 464.609
1690 0 197.204 8.75235 1726 71.3946 498.087 442.994
1691 0 203.581 14.0337 2857 64.5982 497.709 442.91
1692 0 206.217 11.6528 2403 67.9168 497.752 438.264
1693 1 150.111 6.82829 1025 78.5239 498.273 425.822
1694 1 58.3335 9.37712 547 53.5155 497.585 514.678
1695 0 52.1497 10.1439 529 54.2306 496.915 511.805
1696 0 56.0814 10.5561 592 52.9493 497.49 513.208
