time division length width area intensity CMx CMy
0 0 53.0435 12.1221 643 70.3795 42.6065 402.257
1 0 53.0395 12.2173 648 71.1157 41.838 399.395
2 0 54.1228 11.8989 644 71.1134 41.6708 400.081
3 0 55.0596 11.8417 652 72.2209 41.2224 400.112
4 0 58.1049 11.8406 688 71.0538 41.3328 400.603
5 0 59.1214 12.7365 753 70.0199 40.915 401.078
6 0 61.1055 13.5012 825 67.8764 40.5709 401.846
7 0 62.0616 12.8904 800 69.965 40.625 398.745
8 0 63.0815 12.2698 774 71.0181 40.3747 396.952
9 0 67.1168 13.4542 903 68.1728 40.2447 396.633
10 0 69.2036 13.9299 964 67.4409 40.5778 396.439
11 0 70.0708 13.2152 926 68.987 40.8445 394.442
12 0 70.2035 13.2045 927 69.4142 40.5717 394.063
13 0 73.2458 12.6151 924 69.9589 40.1245 393.036
14 0 76.1737 13.0754 996 69.1677 40.2028 392.142
15 0 79.1282 13.0927 1036 68.3591 39.9257 393.857
16 1 43.0307 9.99286 430 70.514 40.586 409.921
17 0 44.0652 10.5752 466 69.2275 40.1009 413.101
18 0 46.3056 11.8992 551 68.0998 40.4918 409.96
19 0 47.0435 13.3493 628 67.4395 39.8376 407.226
20 0 50.2189 13.6403 685 66.3445 39.2102 406.161
21 0 47.0212 9.82536 462 73.0671 39.5996 405.92
22 0 51.0844 12.9785 663 67.9261 39.4314 405.555
23 0 49.0836 12.1018 594 70.8535 39.729 402.732
24 0 55.3012 13.2004 730 67.3356 39.763 405.821
25 0 56.3707 14.6885 828 65.1196 40.1655 406.702
26 0 58.1652 13.049 759 68.0237 39.3992 404.839
27 0 58.0976 13.9248 809 66.958 39.1397 404.347
28 0 61.1655 12.8994 789 68.3435 39.0811 402.826
29 0 60.0947 12.5302 753 70.3227 39.4887 401.56
30 0 64.0239 12.5734 805 69.6534 39.6012 401.789
31 0 65.0881 13.8121 899 68.7108 39.3471 399.138
32 0 68.0435 14.5201 988 66.7804 39.7126 402.207
33 0 70.1536 13.8268 970 68.6732 40.9155 396.815
34 0 72.0636 13.1967 951 69.3533 40.8465 396.935
35 0 74.1424 14.0945 1045 69.1742 40.999 392.921
36 0 75.2831 12.526 943 71.1824 40.5875 396.462
37 0 77.0828 13.1287 1012 70.5099 40.4338 395.299
38 1 41.1515 11.3726 468 71.6068 40.1838 411.073
39 0 44.0917 12.2472 540 70.3889 40.4796 411.752
40 0 47.064 12.9186 608 70.0214 40.2714 410.503
41 0 44.0722 10.4601 461 75.3341 40.436 408.33
42 0 47.1926 12.4172 586 72.186 40.256 408.606
43 0 49.0396 12.9895 637 71.898 39.9608 407.473
44 0 51.0727 12.9815 663 71.1765 39.7466 407.769
45 0 50.0805 11.5015 576 74.625 40.1007 406.924
46 0 53.079 14.5255 771 69.8042 40.2503 407.243
47 0 56.1594 12.5001 702 72.9402 40.4046 405.688
48 0 55.0809 12.1821 671 74.0477 39.9896 404.669
49 0 59.2361 13.9611 827 70.2781 39.7086 405.359
50 0 58.1399 12.6763 737 73.2252 39.8589 404.06
51 0 63.0904 12.3949 782 72.6317 40.4719 403.151
52 0 61.119 12.402 758 73.2691 39.2612 401.208
53 0 64.1279 12.5842 807 73.2007 39.6444 401.54
54 0 68.0755 15.3506 1045 68.2421 38.8737 402.341
55 0 67.0931 12.6541 849 73.702 38.8598 399.291
56 0 71.1189 14.1734 1008 70.3353 39.5923 400.577
57 0 72.1967 12.1335 876 74.1473 40.1849 397.726
58 0 74.0699 12.0697 894 74.1342 39.7919 395.372
59 1 41.114 11.9424 491 70.613 39.7719 413.597
60 0 41.0424 12.9622 532 71.6504 39.7556 412.237
61 0 39.1179 10.4811 410 76.2512 39.7049 411.58
62 0 44.0338 13.6486 601 70.7637 39.9418 410.323
63 0 41.0951 11.6559 479 74.9645 39.9165 410.177
64 0 44.1779 12.5402 554 72.731 38.8177 409.433
65 0 47.0605 11.4958 541 74.4104 38.7542 408.181
66 0 49.1093 13.3987 658 70.8207 38.9514 408.751
67 0 51.1718 15.3796 787 67.7332 39.0457 407.618
68 0 52.1775 13.6266 711 70.609 39.0717 407.045
69 0 52.0762 12.6929 661 72.6293 38.5023 406.702
70 0 54.1227 13.1738 713 72.1655 38.3422 405.767
71 0 55.1043 11.1425 614 75.772 38.228 403.92
72 0 56.1586 13.2126 742 71.4771 38.1941 406.582
73 0 59.1695 13.2839 786 71.5407 38.631 405.668
74 0 61.1064 12.8137 783 72.5109 38.401 403.499
75 0 60.0879 13.6134 818 72.5905 38.5672 400.999
76 0 65.0698 14.6919 956 69.932 38.4456 400.588
77 0 63.0549 12.4336 784 74.7385 38.1314 399.518
78 0 67.1011 13.9491 936 71.4893 38.4605 400.196
79 0 70.1813 13.5506 951 72.3523 37.428 396.664
80 0 73.0509 14.6063 1067 70.4836 37.3196 396.507
81 0 70.0615 12.5889 882 75.398 38.3333 394.012
82 0 72.1189 13.7551 992 73.8659 38.3508 392.445
83 0 79.1077 14.1958 1123 71.2627 38.2885 394.719
84 0 79.1669 13.7684 1090 72.9761 38.4422 391.869
85 0 84.2419 14.3278 1207 71.3173 38.8393 392.708
86 0 85.2467 12.7512 1087 74.172 39.2263 391.459
87 0 88.1021 13.2346 1166 73.6106 39.2298 387.736
88 1 34.0242 10.5219 358 76.0754 39.1704 410.994
89 0 42.0674 12.5988 530 69.8075 39.234 412.57
90 0 41.0421 11.5735 475 73.44 38.8295 409.358
91 0 43.0523 11.7996 508 72.1496 38.8858 410.331
92 0 43.0559 11.5431 497 72.6539 39.2716 412.131
93 0 46.0605 11.6586 537 72.0987 38.5978 409.194
94 0 49.0476 13.334 654 69.1911 38.396 409.142
95 0 49.0304 13.1143 643 69.8865 38.9316 408.437
96 0 49.0547 12.3128 604 71.8593 38.846 406.331
97 0 49.0706 11.8197 580 72.8655 39.1138 404.591
98 0 52.0807 12.0582 628 71.8646 39.0064 405.078
99 0 55.0553 13.4229 739 69.1055 38.6969 404.494
100 0 55.0681 13.2745 731 69.8865 38.4159 403.286
101 0 58.0568 13.5212 785 68.2497 38.7223 404.061
102 0 58.0963 12.4276 722 70.8255 38.8393 402.233
103 0 61.1621 12.1154 741 70.1484 38.9055 402.807
104 0 62.0522 12.1511 754 71.0358 39.0385 399.902
105 0 64.0382 13.2265 847 68.8383 38.5466 401.191
106 0 68.1061 14.4921 987 66.8531 38.5552 398.631
107 0 71.0545 11.8641 843 69.9597 38.7794 401.402
108 0 69.1198 11.6465 805 71.6037 38.8261 398.108
109 0 72.0472 13.1997 951 68.8948 38.5089 397.759
110 1 35.0625 10.9804 385 69.0935 37.7922 414.813
111 0 37.021 10.2644 380 69.4737 38.2158 414.982
112 0 36.0232 10.9652 395 70.1696 38.5316 413.57
113 0 39.1058 11.942 467 68.3276 38.3019 411.899
114 0 40.0269 12.8164 513 67.8129 38.6589 410.934
115 0 43.1169 11.5964 500 67.202 38.98 412.952
116 0 43.0293 12.6193 543 67.1363 38.9613 409.908
117 0 45.0728 11.3594 512 67.9102 38.9375 409.889
118 0 44.0799 11.9556 527 67.9374 38.5598 410.603
119 0 47.0848 11.9996 565 66.4761 38.7186 410.411
120 0 47.0284 12.7795 601 66.2479 38.0433 408.534
121 0 46.0474 12.6174 581 67.5904 38.2151 405.32
122 0 49.0443 10.3172 506 69.7292 37.6739 408.028
123 0 53.139 11.4417 608 67.5757 38.1316 406.952
124 0 54.0161 12.4778 674 66.8279 38.3101 406.45
125 0 55.0457 11.9355 657 67.7047 38.1887 405.03
126 0 55.0322 12.7017 699 67.6438 38.9299 402.107
127 0 59.0658 13.4596 795 65.7824 39.1358 402.614
128 0 60.0335 12.8595 772 67.2785 38.5738 400.189
129 0 61.0426 13.253 809 66.6663 39.2695 398.923
130 0 63.0447 12.7211 802 67.7718 39.4439 397.939
131 0 62.0764 12.7263 790 68.4392 39.6747 394.328
132 0 66.0978 13.7221 907 66.0077 39.8611 397.918
133 0 67.0706 13.2398 888 67.58 39.3029 393.896
134 0 71.109 13.2191 940 66.9819 39.4468 393.487
135 0 72.0839 14.6773 1058 65.3762 39.4839 391.169
136 0 75.0713 13.7469 1032 66.1163 38.8246 394.075
137 0 78.2536 13.4946 1056 66.5227 39.2557 391.322
138 0 80.0581 12.2786 983 67.6572 39.5605 392.905
139 0 84.0988 13.2344 1113 66.5049 39.2183 389.358
140 0 88.1478 14.2148 1253 65.1325 39.0519 387.865
141 0 91.2195 15.3366 1399 63.802 39.3846 385.504
142 0 93.1641 13.5675 1264 66.3046 39.3956 383.82
143 1 51.1253 12.8508 657 63.3531 39.2527 406.32
144 0 52.1192 9.80445 511 67.9628 39.2857 404.157
145 0 55.2751 10.2759 568 66.1039 39.0088 405.908
146 0 57.0642 13.1256 749 63.1495 38.8825 404.708
147 0 59.0323 12.4678 736 63.841 38.231 402.696
148 0 56.0396 11.1707 626 66.7827 38.7093 402.192
149 0 59.0459 10.3987 614 67.829 38.8518 401.039
150 0 63.2155 12.7817 808 64.2871 38.8775 400.844
151 0 66.1968 13.5958 900 62.3878 38.9811 400.987
152 0 68.1045 12.1578 828 64.3611 38.6123 399.751
153 0 69.0212 12.3295 851 64.5276 38.8778 399.226
154 0 70.1485 11.7323 823 65.9137 39.7473 395.471
155 0 73.0447 11.4724 838 66.1885 39.7434 392.55
156 0 73.0875 13.0528 954 64.1656 39.5482 394.975
157 0 77.143 12.6777 978 64.7515 38.4274 392.047
158 0 78.2303 11.6707 913 66.5487 38.9474 390.632
159 0 83.178 13.8618 1153 63.229 39.0061 393.511
160 0 85.0819 12.4938 1063 65.1251 39.1656 390.236
161 1 43.0345 10.7123 461 62.0976 39.5401 411.666
162 0 43.0572 11.8679 511 62.4305 39.9746 410.368
163 0 46.0481 9.70724 447 64.2752 40.1633 409.944
164 0 47.1426 12.2607 578 61.7595 39.6107 408.18
165 0 49.1203 12.4592 612 61.6667 40.2647 407.683
166 0 49.0633 10.7208 526 64.9715 39.9829 408.23
167 0 50.0557 10.788 540 64.2019 40.237 411.026
168 0 51.0361 11.9327 609 63.8818 40.1806 408.908
169 0 52.0941 11.3641 592 64.8057 40.9122 407.071
170 0 53.0578 13.0801 694 62.7911 39.562 406.576
171 0 52.1372 11.3738 593 65.946 39.7218 404.137
172 0 57.1552 13.1222 750 62.556 40.1853 406.753
173 0 57.0655 10.7771 615 66.0634 39.6065 404.446
174 0 61.0745 12.4766 762 63.2493 39.7467 403.627
175 0 61.1024 11.8326 723 64.6846 39.9751 401.678
176 0 62.0935 12.9482 804 63.8159 39.0348 400.42
177 0 67.1348 11.961 803 63.7684 39.4471 398.66
178 0 67.0958 12.1617 816 64.4804 39.4669 398.341
179 0 68.0832 13.0135 886 64.053 38.8826 394.629
180 0 69.2184 12.2655 849 65.6207 39.1814 393.519
181 0 76.1372 11.4924 875 65.6606 38.9406 395.834
182 0 77.1463 13.3513 1030 63.5301 39.4272 392.54
183 0 76.2315 11.2421 857 67.0852 39.6278 391.662
184 0 81.1628 13.8241 1122 63.6141 39.5437 388.999
185 1 41.0576 9.10915 374 66.8503 40.5642 407.96
186 0 43.0267 11.2256 483 63.4265 41.0207 409.236
187 0 43.1097 10.6009 457 64.7987 40.6783 409.376
188 0 45.0382 11.3015 509 64.2967 40.7741 404.214
189 0 46.0711 9.74581 449 66.5412 40.1069 405.06
190 0 47.1122 11.9078 561 63.7344 39.6756 403.597
191 0 49.0633 12.2291 600 64.2233 39.2033 403.682
192 0 50.069 11.7238 587 64.3049 39.3526 403.809
193 0 53.0642 12.0986 642 63.5732 40.4424 401.994
194 0 55.0794 12.7997 705 62.7376 40.3986 401.288
195 0 58.1112 12.2007 709 62.7884 40.2511 401.034
196 0 58.0909 11.5164 669 63.9791 40.151 399.64
197 0 62.1481 12.3093 765 62.7542 39.8562 399.927
198 0 61.1831 10.9998 673 65.3596 39.6256 397.629
199 0 60.1792 11.2996 680 65.8294 39.6235 395.644
200 0 66.1512 15.0413 995 59.6673 39.4392 394.304
201 0 65.1556 12.7848 833 63.7719 39.6759 395.421
202 0 69.0814 12.174 841 63.5018 39.6587 396.918
203 0 70.1679 11.9855 841 64.591 39.5719 393.63
204 0 71.0832 11.8171 840 65.169 39.8464 392.55
205 0 74.3748 12.195 907 64.516 39.0761 392.996
206 0 77.2692 14.003 1082 61.8512 39.1359 390.965
207 1 43.2108 9.71979 420 64.1881 38.9714 407.079
208 0 44.0863 10.2073 450 62.9133 38.8978 406.856
209 0 45.1057 10.686 482 62.5975 39.9149 407.865
210 0 43.0931 9.42147 406 66.133 39.8522 403.631
211 0 48.1106 12.0763 581 61.9415 39.9552 404.627
212 0 49.0651 11.7803 578 62.192 39.6505 404.964
213 0 52.0593 12.7547 664 61.6325 39.1145 401.437
214 0 55.0491 12.171 670 61.403 39.1358 403.436
215 0 54.1899 10.9984 596 63.4715 39.6443 402.168
216 0 55.1996 12.2102 674 62.2285 39.3902 401.309
217 0 59.0387 15.0918 891 58.2536 39.5309 401.796
218 0 59.1155 13.3129 787 61.1055 39.8895 399.867
219 0 59.0876 10.8483 641 64.7098 39.8877 398.301
220 0 64.2297 13.4829 866 60.3741 39.3279 399.002
221 0 62.164 12.4188 772 63.0687 39.4352 397.108
222 0 66.2346 13.6484 904 62.0465 39.2035 395.554
223 0 66.2198 11.9451 791 64.6005 39.2566 393.139
224 0 68.1524 12.1933 831 64.4428 39.4922 391.746
225 0 74.058 14.9342 1106 59.7071 39.4195 394.52
226 0 74.1094 13.3316 988 63.335 40.0385 391.752
227 0 76.1914 13.5973 1036 63.472 39.7172 389.752
228 0 78.1859 14.5678 1139 61.6839 39.597 392.066
229 0 82.1884 13.0919 1076 63.9638 39.1803 388.506
230 1 40.1573 10.4589 420 67.2786 38.9571 407.907
231 0 44.0646 12.4363 548 64.2847 38.5566 406.255
232 0 44.0722 12.7745 563 65.2948 38.0977 405.801
233 0 49.0612 14.9609 734 60.7534 38.4128 406.282
234 0 49.191 12.7259 626 63.7396 38.7268 406.385
235 0 49.1038 13.1151 644 64.9084 39.4472 403.376
236 0 50.1712 13.2546 665 65.3699 39.2075 402.235
237 0 52.1876 12.7425 665 65.8466 39.6902 403.347
238 0 55.1481 12.947 714 65.1078 39.7535 403.141
239 0 56.1925 12.5817 707 65.8953 40.1584 401.27
240 0 57.0682 13.9132 794 63.8791 40.0831 401.919
241 0 56.0779 12.34 692 66.8049 40.3887 400.058
242 0 57.1401 11.8481 677 68.4298 40.1152 398.319
243 0 60.0806 13.432 807 65.9207 39.8885 397.271
244 0 64.0549 12.7235 815 65.919 39.9681 398.399
245 0 65.0313 12.3172 801 66.6067 39.9338 396.005
246 0 68.1298 12.6817 864 65.3947 39.7095 396.556
247 0 68.236 13.7757 940 64.4957 40.2298 395.74
248 0 71.1848 13.7529 979 64.7467 40.0797 391.563
249 1 40.0579 12.0825 484 64.2293 39.6983 408.514
250 0 39.0793 12.2827 480 65.2854 39.8062 407.706
251 0 40.0525 12.4586 499 64.7315 39.9259 407.727
252 0 43.1132 13.0818 564 63.6046 39.8085 409.043
253 0 43.122 11.2935 487 66.3491 39.4271 408.238
254 0 44.0292 12.2873 541 64.3974 39.6784 410.27
255 0 45.0823 13.2868 599 63.3589 39.8264 409.289
256 0 45.0701 13.2017 595 65.0084 39.4034 405.23
257 0 50.1756 12.9744 651 63.9217 39.5975 406.072
258 0 50.1885 13.0707 656 64.5274 40.0625 403.686
259 0 52.2163 11.7205 612 66.6797 40.2582 404.049
260 0 52.0345 10.3201 537 68.2253 40.7561 404.927
261 0 55.1033 13.3749 737 64.1343 40.194 404.896
262 0 55.0338 14.1731 780 64.0359 39.9192 400.153
263 0 58.0355 12.4579 723 65.6224 39.823 401.112
264 0 60.2394 12.3175 742 65.9178 40.0889 399.743
265 0 60.0521 13.1053 787 65.2973 40.4943 399.677
266 0 64.2065 13.1918 847 64.9906 40.3943 399.126
267 0 64.326 11.877 764 67.0065 41.0812 396.988
268 0 68.1805 12.9069 880 65.0602 40.642 395.514
269 0 68.1105 12.6706 863 65.9096 40.2399 392.979
270 0 68.0632 10.9457 745 68.055 40.5664 390.966
271 0 77.2336 12.7147 982 64.7077 40.6212 392.098
272 0 75.171 12.5846 946 65.3615 39.8499 389.738
273 1 44.0259 12.2428 539 64.4471 40.6327 406.315
274 0 43.0849 10.8855 469 67.2217 41.0938 403.691
275 0 46.1576 11.2657 520 66.2846 40.7404 404.223
276 0 49.3035 12.0478 594 64.9781 40.8838 404.512
277 0 52.1526 11.543 602 66.2126 40.7226 402.098
278 0 51.0369 11.2468 574 67.9408 40.392 400.544
279 0 55.1591 14.2316 785 63.3911 40.1554 400.864
280 0 56.2008 13.2916 747 64.7162 40.2999 398.988
281 0 58.2185 12.2298 712 66.2486 40.0351 396.976
282 0 59.1109 12.3328 729 66.4513 40.1235 397.394
283 0 62.1398 11.9408 742 66.0863 40.0283 397.623
284 0 65.2313 13.2758 866 63.7529 40.3245 399.08
285 0 65.1219 12.7146 828 65.657 40.5254 396.221
286 0 70.1179 13.7768 966 63.1253 40.1853 396.34
287 0 72.1556 13.2214 954 64.1017 40.0964 394.149
288 0 74.3211 13.9799 1039 63.7344 39.5525 392.26
289 0 75.2643 12.8481 967 65.3785 39.5088 391.027
290 0 77.1123 13.7462 1060 64.0896 39.5038 389.304
291 0 81.2099 13.9146 1130 62.8416 39.7814 393.816
292 0 82.3665 13.0636 1076 64.5883 39.9545 391.137
293 1 42.0562 10.486 441 65.1293 40.2358 410.465
294 0 44.1676 11.8639 524 65.8149 40.313 407.382
295 0 49.1285 13.3935 658 62.4362 39.9909 406.995
296 0 46.1785 11.932 551 66.2432 40.0236 405.336
297 0 49.0849 12.3052 604 65.947 40.4354 402.437
298 0 52.0901 12.3824 645 65.4233 40.9302 401.412
299 0 52.1819 12.0923 631 66.4136 40.8922 401.973
300 0 56.0703 12.6627 710 64.1972 39.8817 401.93
301 0 57.2651 14.4591 828 62.2174 40.2077 401.504
302 0 58.1145 14.0068 814 63.1179 40.2641 399.342
303 0 60.1416 13.435 808 64.2834 40.5347 398.764
304 0 60.1414 12.8863 775 65.3045 40.1252 397.373
305 0 60.1008 13.5938 817 65.1224 40.1212 396.764
306 0 65.243 13.9019 907 63.462 40.4542 396.078
307 0 65.2219 13.1858 860 65.1314 40.5116 395.369
308 0 67.0951 13.0114 873 65.2497 40.8866 393.613
309 0 70.1484 12.7729 896 65.2098 40.4308 394.225
310 0 72.1036 14.7427 1063 62.8297 40.7037 392.725
311 0 78.2438 13.5602 1061 62.7766 40.8586 395.153
312 0 79.4018 12.909 1025 64.5102 40.681 392.258
313 0 80.2411 14.3069 1148 63.0314 40.4443 390.642
314 0 84.26 13.3041 1121 63.8555 40.6325 391.712
315 1 42.1051 11.1863 471 65.1168 40.4735 408.89
316 0 43.1265 12.4054 535 64.8561 40.671 405.677
317 0 46.0758 13.3259 614 63.7036 40.1107 404.997
318 0 47.109 13.4369 633 63.9147 39.7536 403.164
319 0 47.0335 13.9475 656 63.9345 40.2409 403.264
320 0 47.0595 12.5373 590 66.6 40.1966 403.419
321 0 49.2014 12.6622 623 66.9326 40.3628 400.783
322 0 52.1652 15.125 789 62.4005 40.1356 403.962
323 0 53.0856 14.5614 773 63.8266 40.2406 402.692
324 0 56.097 13.5658 761 65.0788 40.3259 401.189
325 0 56.0789 13.9446 782 64.6841 40.491 400.251
326 0 57.0441 12.6744 723 66.8672 39.7358 398.606
327 0 59.1909 13.9042 823 65.6148 40.5638 396.128
328 0 61.1824 13.4679 824 66.0813 40.4442 395.709
329 0 63.1452 13.3502 843 66.1447 41.2028 395.278
330 0 65.1125 13.6072 886 65.4763 41.3059 395.953
331 0 68.1905 13.9756 953 64.6852 41.2151 395.362
332 0 71.063 13.2136 939 65.8754 41.2407 393.714
333 0 71.1055 13.4308 955 66.4031 41.3759 391.759
334 0 73.1364 13.9876 1023 65.4985 41.0049 391.507
335 0 75.0833 13.1321 986 66.8976 40.9371 390.569
336 0 77.1057 14.2661 1100 65.8536 41.0809 389.276
337 0 80.2086 13.627 1093 66.0311 41.0457 390.023
338 0 84.155 14.6991 1237 64.5069 40.5869 387.774
339 0 86.3075 15.0972 1303 64.0453 40.4359 387.225
340 0 87.1081 13.1561 1146 67.1527 40.4049 385.922
341 1 55.0542 11.3525 625 68.4256 40.4064 402.051
342 0 53.0613 12.0804 641 68.429 40.6989 402.944
343 0 58.0738 13.7756 800 65.745 40.325 400.618
344 0 59.1776 13.789 816 65.935 40.9265 399.901
345 0 58.0533 11.0933 644 70.6165 40.646 397.826
346 0 61.0343 13.8774 847 66.8713 40.4486 396.93
347 0 63.1817 13.295 840 67.7107 40.569 396.074
348 0 64.1667 13.5117 867 67.3126 40.4694 397.675
349 0 66.1664 12.7104 841 68.8157 40.8014 395.798
350 0 71.1601 13.9966 996 65.6396 40.004 396.582
351 0 69.132 12.9462 895 67.8648 39.5151 396.285
352 0 74.0562 15.0021 1111 64.7714 40.1566 393.108
353 0 74.3962 13.1727 980 68.402 39.9122 389.852
354 0 78.2234 13.0907 1024 67.6602 39.9453 390.154
355 0 81.2034 15.6274 1269 63.6359 39.9984 392.63
356 0 82.1204 13.7603 1130 66.4637 40.8796 391.777
357 0 86.0989 13.3103 1146 66.9031 40.6143 389.983
358 0 88.2215 14.9963 1323 65.1973 40.619 386.717
359 0 89.246 14.925 1332 66.0691 40.8303 383.417
360 0 93.2358 12.7955 1193 68.0595 40.6806 385.547
361 0 97.0966 14.3774 1396 66.2607 40.1103 384.712
362 0 101.309 15.1812 1538 65.4324 39.5462 381.713
363 0 102.117 12.9949 1327 69.2155 39.6993 379.855
364 0 107.116 14.0782 1508 67.7706 39.9105 380.751
365 0 110.127 14.3743 1583 67.5414 39.4801 378.266
366 1 48.0482 11.9463 574 67.8223 39.7317 409.65
367 0 47.1146 11.61 547 71.128 40.1718 406.221
368 0 50.0436 12.5091 626 68.1358 40.9281 407.506
369 0 55.0429 14.5886 803 65.1582 41.4022 407.719
370 0 54.046 14.2656 771 66.1064 41.4488 407.362
371 0 58.039 13.3703 776 67.866 41.4356 403.481
372 0 57.2078 14.2638 816 66.3088 40.9069 405.913
373 0 60.0316 13.0764 785 68.6369 40.7401 402.604
374 0 60.0508 12.7559 766 70.2311 40.8094 401.074
375 0 64.1706 13.2304 849 68.8563 40.5241 399.264
376 0 66.0339 13.3719 883 68.9185 40.4915 396.431
377 0 67.145 12.9124 867 69.8651 40.0727 395.82
378 0 69.2757 13.0637 905 69.7072 40.1293 394.45
379 0 73.1564 14.0111 1025 68.3961 39.8429 394.176
380 0 76.1174 13.7157 1044 68.8065 40.0287 393.752
381 0 77.1209 13.3038 1026 68.8684 39.6881 395.087
382 1 38.0154 10.9166 415 71.1831 39.5181 410.214
383 0 42.0245 11.065 465 69.8129 39.9677 410.297
384 0 42.1454 11.579 488 68.752 39.8033 410.311
385 0 43.3004 12.0091 520 68.3423 40.05 409.275
386 0 45.3751 12.7823 580 68.4466 39.8397 406.721
387 0 47.2422 11.7691 556 69.6421 39.9712 406.692
388 0 48.184 14.1956 684 66.7105 39.864 406.205
389 0 49.3864 13.1413 649 68.5932 39.3374 405.667
390 0 50.0926 12.2373 613 69.9282 39.7276 404.184
391 0 50.0785 12.7799 640 69.7938 39.4125 402.639
392 0 53.1573 13.5259 719 68.8248 39.6161 403.537
393 0 52.0639 10.6408 554 73.8069 39.417 400.995
394 0 57.1292 12.9356 739 69.4696 39.4817 401.26
395 0 58.3837 12.8118 748 69.8182 40.1765 399.967
396 0 60.1252 13.6216 819 69.0244 40.4933 399.606
397 0 61.1205 11.1092 679 72.7923 40.9985 398.19
398 0 65.1157 13.0691 851 69.6275 40.9988 396.437
399 0 70.0897 13.3828 938 68.1983 40.7122 397.051
400 0 69.0378 12.6742 875 70.3086 40.4274 394.808
401 0 72.0851 12.291 886 70.8612 40.658 392.418
402 0 73.2874 12.3623 906 70.4746 40.2848 393.838
403 0 77.0488 14.4324 1112 67.6448 39.9254 392.557
404 1 40.0141 12.2457 490 69.8571 40.2796 406.888
405 0 42.1503 10.8421 457 71.7133 39.8337 405.663
406 0 45.0595 12.1617 548 69.3394 39.7208 407.392
407 0 47.1409 12.6217 595 69.5244 40.2521 405.434
408 0 47.2217 12.9178 610 70.0377 39.5311 402.441
409 0 50.1439 13.7205 688 68.3081 39.9593 402.461
410 0 50.058 12.6453 633 70.2464 40.436 402.223
411 0 53.0541 12.5721 667 69.9655 40.7106 401.493
412 0 54.0975 13.7899 746 69.0858 40.3968 398.26
413 0 55.0405 11.7731 648 72.3071 40.0077 397.327
414 0 60.0821 13.3151 800 68.4575 39.9275 397.79
415 0 60.1209 12.6079 758 70.2665 40.1293 397.069
416 0 61.122 13.0722 799 69.5695 40.6458 396.686
417 0 60.1282 12.5399 754 71.6684 40.5769 393.638
418 0 63.1555 12.2396 773 71.6792 40.9056 393.542
419 0 68.0543 13.8713 944 68.2733 40.1663 392.947
420 0 70.2353 14.8358 1042 66.7927 40.7418 390.973
421 0 69.1986 12.8615 890 70.682 40.8888 389.045
422 0 75.1535 13.825 1039 66.8104 40.3272 392.735
423 0 76.0395 13.1642 1001 69.5445 40.0609 388.623
424 0 78.0916 13.4714 1052 68.6065 40.1987 388.106
425 0 80.0684 14.5376 1164 67.1976 40.104 384.674
426 1 43.0112 12.1131 521 69.0461 40.4107 403.614
427 0 46.0389 12.1854 561 68.6506 40.5811 402.727
428 0 47.0773 14.7842 696 64.8721 40.1681 403.955
429 0 47.0344 11.7148 551 69.9819 40.6025 401.771
430 0 49.0319 12.5837 617 67.8979 40.5397 402.264
431 0 51.1126 12.8735 658 67.9392 40.1231 399.508
432 0 55.0876 13.8688 764 65.3901 39.9306 399.779
433 0 55.1687 13.1234 724 67.2127 39.2942 397.286
434 0 56.0409 12.5979 706 67.7805 39.1799 397.397
435 0 56.0498 12.6852 711 68.173 39.3854 396.298
436 0 59.1483 12.5447 742 67.4811 39.6442 398.593
437 0 62.1077 13.2995 826 66.5738 39.8874 394.953
438 0 63.1465 14.3476 906 65.1336 40.0927 395.328
439 0 62.0916 12.7393 791 68.7105 39.5828 392.139
440 0 67.0631 13.0623 876 67.0183 39.7295 393.403
441 0 70.3052 12.8013 900 67.7722 40.1478 391.432
442 0 72.1356 12.629 911 67.4391 40.1218 391.692
443 0 75.0418 12.6596 950 67.4126 40.0105 391.566
444 1 40.0474 12.3354 494 67.6053 40.0729 405.364
445 0 43.0528 12.6356 544 65.9669 39.9982 405.108
446 0 45.0551 11.7412 529 67.1588 39.9924 405.491
447 0 47.1102 12.0993 570 66.2596 40.2123 405.609
448 0 48.1154 13.3221 641 66.0031 39.9953 402.039
449 0 50.0796 13.0193 652 66.0644 39.8865 401.962
450 0 53.0556 13.533 718 64.9875 39.9916 401.696
451 0 54.1887 13.5453 734 65.2561 40.1526 400.764
452 0 54.0514 14.3567 776 64.5567 40.0399 401.305
453 0 57.2357 11.8807 680 67.3574 40.2368 399.313
454 0 59.03 11.977 707 66.7058 40.4837 399.679
455 0 64.1169 12.524 803 64.4508 40.2304 399.603
456 0 63.0778 13.3169 840 64.9452 39.519 395.907
457 0 62.13 12.0715 750 67.1533 39.6547 394.945
458 0 67.1236 12.991 872 65.5011 39.1606 393.878
459 0 67.1073 11.4891 771 67.3243 38.9053 395.611
460 0 72.1572 12.5836 908 65.0507 39.3227 394.162
461 0 73.0686 13.4531 983 64.3286 39.4323 393.354
462 0 76.1061 13.1921 1004 64.5946 39.3576 391.414
463 0 76.1085 14.0063 1066 64.2073 39.6144 389.666
464 0 81.1334 11.5859 940 66.4096 39.4404 390.58
465 0 84.0672 12.8112 1077 65.6342 39.2813 387.784
466 1 45.041 12.2111 550 65.3055 40.1727 405.165
467 0 46.1676 12.3896 572 64.986 39.5769 406.1
468 0 47.1263 13.1349 619 64.5363 39.7334 403.766
469 0 50.032 11.5926 580 66.2207 39.8069 403.94
470 0 52.057 13.101 682 64.1569 39.6584 403.798
471 0 53.248 12.1131 645 65.6946 40.1457 402.394
472 0 52.0378 11.2995 588 67.7925 39.7568 401.871
473 0 57.0566 12.4788 712 65.125 39.5843 402.133
474 0 61.0839 13.4569 822 63.4453 39.3966 400.335
475 0 63.2358 13.7106 867 62.7336 38.9469 399.569
476 0 63.0521 13.2906 838 64.6969 39.3616 398.681
477 0 65.1283 12.0224 783 65.4649 39.1098 400.465
478 0 67.0816 14.2364 955 63.6262 38.4681 395.62
479 0 69.1426 15.374 1063 62.1684 38.8899 394.995
480 0 71.3315 12.4349 887 65.8771 39.2593 394.381
481 0 73.0713 13.2473 968 64.8378 38.6839 393.055
482 0 75.1755 14.2999 1075 64.2707 38.614 390.233
483 0 78.2637 11.5379 903 67.4186 39.0033 390.79
484 0 86.0887 13.9623 1202 63.3203 39.0158 387.869
485 0 88.2461 13.5417 1195 63.8293 38.8669 387.767
486 0 90.2802 14.2113 1283 63.7631 39.6282 383.537
487 0 92.1697 12.9544 1194 65.7052 39.1616 383.13
488 1 49.0644 12.29 603 63.2736 39.5075 407.206
489 0 50.0316 12.672 634 65.6183 39.4227 402.732
490 0 49.0256 11.8102 579 68.019 39.6477 402.349
491 0 53.101 12.1278 644 66.1149 39.5109 404.399
492 0 53.0258 13.2577 703 64.3912 39.4822 402.627
493 0 54.0791 14.5158 785 64.0102 39.6675 399.557
494 0 59.0513 12.1928 720 65.0319 39.6806 400.722
495 0 62.0767 13.8699 861 62.3031 39.065 399.836
496 0 62.0755 13.9024 863 62.2433 39.0371 400.362
497 0 64.179 13.5558 870 64.0023 39.0425 394.963
498 0 62.0834 12.1127 752 66.1981 39.5173 393.503
499 0 64.1399 11.8803 762 66.4488 39.4593 393.444
500 0 70.0611 13.06 915 63.6743 39.388 394.227
501 0 70.0754 13.6567 957 63.768 39.0637 390.508
502 0 74.1678 13.7121 1017 63.3648 39.5988 391.154
503 0 74.0956 12.1735 902 65.6996 39.3814 392.268
504 0 78.1066 13.1743 1029 63.5199 38.862 392.522
505 0 79.1638 12.3415 977 65.6203 38.2917 388.024
506 1 44.0528 11.5316 508 62.3661 38.813 406.321
507 0 45.1257 11.191 505 63.6218 39.0238 405.42
508 0 43.071 10.5407 454 64.3855 39.2357 407.225
509 0 44.0592 11.4618 505 64.4198 39.2931 403.642
510 0 46.1087 11.2126 517 63.6228 39.1431 403.919
511 0 49.0575 12.1694 597 62.6114 38.9581 402.003
512 0 51.1365 11.3031 578 62.8356 39.282 404.346
513 0 51.3444 11.7832 605 63.3388 38.238 403.271
514 0 54.0403 11.8985 643 63.2939 38.339 399.658
515 0 57.0189 11.9259 680 63.0926 38.275 399.256
516 0 56.1202 12.1525 682 64.2933 38.5543 397.974
517 0 58.0334 13.0959 760 63.3263 38.3329 397.37
518 0 59.1331 12.3619 731 64.5527 39.1847 395.557
519 0 63.1484 12.7477 805 63.7118 39.2484 394.796
520 0 64.0587 13.2847 851 63.2773 39.1504 393.019
521 0 64.0909 12.5135 802 64.2656 39.1534 393.511
522 0 68.0942 12.6149 859 64.2026 38.6601 391.469
523 0 69.1173 13.2962 919 63.8966 38.5125 391.013
524 0 71.0556 11.1603 793 65.4451 37.7667 391.153
525 0 77.2346 12.9087 997 62.5868 37.1755 390.951
526 0 77.1105 13.1111 1011 62.9189 37.3897 389.476
527 0 78.0963 11.7547 918 64.9477 37.829 385.84
528 0 83.0942 13.4787 1120 62.3848 37.3223 386.951
529 1 43.0863 10.978 473 62.7928 37.6638 404.118
530 0 46.0702 10.0933 465 63.6237 38.3871 402.66
531 0 47.0553 12.0284 566 61.7085 38.4064 402.244
532 0 50.1108 11.3349 568 61.713 39.1708 402.799
533 0 50.0448 11.7095 586 62.9386 38.9386 403.155
534 0 50.3436 12.8318 646 61.8498 39.1269 400.991
535 0 50.1076 10.3178 517 63.9768 39.3133 400.758
536 0 56.0326 12.2964 689 60.6139 39.0029 399.44
537 0 57.1094 12.6424 722 60.7992 39.2784 397.465
538 0 60.1597 13.8963 836 57.6543 38.5993 399.722
539 0 60.1439 12.071 726 60.916 38.6309 396.304
540 0 64.1061 12.5417 804 59.9366 38.2637 394.556
541 0 64.1657 12.343 792 60.1503 38.1174 392
542 0 68.0693 12.0612 821 59.486 37.5822 392.611
543 0 70.1562 12.8285 900 58.5256 37.8056 390.362
544 0 69.1616 12.4057 858 59.7949 37.9429 390.537
545 0 72.1609 12.0841 872 59.6755 37.883 388.804
546 0 75.2314 13.1993 993 58.8338 38.142 384.085
547 0 79.0957 11.7453 929 59.2906 38.2013 387.801
548 0 80.1124 10.66 854 60.7541 38.0656 385.396
549 0 84.2252 11.4336 963 59.5109 37.8359 384.318
550 0 87.2518 12.8479 1121 58.1133 38.8573 380.475
551 1 45.0986 12.3507 557 56.7379 38.3896 402.284
552 0 44.2011 10.6332 470 58.6 38.2723 402.849
553 0 47.0623 11.3892 536 57.7687 38.528 402.916
554 0 48.0739 10.1302 487 59.4168 38.7721 402.16
555 0 48.0324 11.6172 558 58.5484 38.0394 400.749
556 0 53.1097 10.2806 546 59.0733 38.1685 399.934
557 0 55.0897 11.9442 658 57.4134 38.3359 398.474
558 0 55.1669 11.2386 620 58.7726 38.0258 397.413
559 0 58.0966 12.5997 732 57.2363 38.1667 397.351
560 0 61.093 13.4385 821 56.2448 38.8039 395.441
561 0 62.1328 13.0205 809 56.4289 38.445 395.445
562 0 65.098 11.3214 737 57.8141 38.8195 396.21
563 0 67.1514 12.8516 863 56.292 39.0707 394.455
564 0 68.156 10.9748 748 58.3596 39.2848 392.789
565 0 71.0884 10.9441 778 57.8792 39.3355 391.878
566 0 75.0949 11.6253 873 56.9565 39.0641 392.073
567 0 78.0703 11.5537 902 56.8137 39.1785 392.966
568 1 38.0267 11.9916 456 56.0965 39.2171 407.739
569 0 43.0172 11.3443 488 55.4939 38.3975 408.207
570 0 41.0108 9.63162 395 59.7544 38.3544 405.577
571 0 44.0307 11.7191 516 57.0756 38.1182 403.525
572 0 46.0685 11.5046 530 57.1075 38.0038 402.734
573 0 45.099 13.7919 622 55.6624 37.9437 400.759
574 0 47.1282 11.9037 561 57.3066 37.6791 401.278
575 0 49.094 11.2437 552 57.6703 38.1739 400.246
576 0 49.0264 12.5647 616 56.8539 36.9643 398.722
577 0 52.1141 13.3361 695 55.6964 37.4561 398.905
578 0 54.1882 12.8995 699 55.9471 37.7396 397.96
579 0 55.0654 13.3478 735 55.9401 37.7007 395.933
580 0 56.1091 11.941 670 57.2209 37.8358 395.143
581 0 58.0511 13.3848 777 56.1094 37.8829 394.099
582 0 57.0497 10.9729 626 58.738 38.2204 391.728
583 0 61.0999 10.8838 665 58.6391 38.3654 393.117
584 0 65.1106 11.4728 747 57.747 38.6412 391.862
585 0 63.1836 12.0443 761 58.2681 38.9987 387.495
586 0 67.0919 12.5649 843 57.1637 38.8221 390.546
587 0 72.2143 13.82 998 55.3908 38.6232 388.348
588 0 71.0893 11.3941 810 59.2444 38.6543 383.611
589 0 74.1364 11.6002 860 58.9047 38.6 384.734
590 0 77.3402 12.0377 931 58.5081 38.9678 383.511
591 0 84.1897 12.9351 1089 57.1598 38.7888 382.883
592 0 84.2409 11.752 990 58.6333 38.7394 383.385
593 1 43.0357 13.2681 571 57.338 38.8179 400.366
594 0 48.0785 12.2924 591 58.5499 39.2081 396.054
595 0 50.0347 11.0523 553 59.3743 39.0307 398.316
596 0 54.026 12.9382 699 57.0959 38.5694 396.933
597 0 56.201 13.9143 782 56.2724 38.4079 394.074
598 0 59.153 14.2005 840 55.4345 38.3929 397.287
599 0 60.1407 12.0883 727 57.2586 38.3673 397.314
600 0 61.0783 12.3939 757 58.3435 38.498 393.259
601 0 66.2075 15.3608 1017 54.1603 38.6283 394.664
602 0 64.0869 12.4675 799 58.8874 38.2165 390.393
603 0 68.2372 13.9367 951 56.5237 37.7361 391.166
604 0 71.1474 14.1818 1009 56.338 38.7393 390.175
605 0 73.1033 11.8189 864 59.169 37.7812 388.013
606 0 75.0412 12.5664 943 58.9491 38.052 388.083
607 0 78.1406 13.9108 1087 57.23 38.2751 387.185
608 0 82.1645 13.7407 1129 57.1399 37.9008 385.95
609 0 83.1077 13.2599 1102 58.2241 37.8575 384.231
610 0 86.1053 12.0318 1036 60.0618 37.89 381.56
611 0 91.1551 12.6268 1151 58.9826 37.7576 381.567
612 0 96.2296 12.7092 1223 58.8357 38.2175 377.2
613 0 97.1958 11.6775 1135 60.1789 37.8687 379.156
614 0 99.1689 14.6518 1453 57.4425 37.6421 376.013
615 0 104.145 13.0108 1355 58.7225 37.972 375.92
616 0 105.131 11.5855 1218 61.3309 37.7479 372.61
617 0 110.124 13.1307 1446 59.6362 37.8859 370.203
618 0 114.125 11.391 1300 61.02 38.1269 371.342
619 1 63.0659 11.9557 754 58.4655 38.5093 396.509
620 0 62.1216 11.6868 726 59.938 38.0303 394.54
621 0 68.1924 12.8313 875 58.704 38.112 390.986
622 0 70.1193 13.4485 943 57.9703 38.1092 390.12
623 0 74.1223 13.0595 968 57.624 38.2779 390.844
624 0 77.2061 13.8979 1073 57.1109 38.1911 386.791
625 0 78.1192 12.9034 1008 57.9742 38.3849 386.571
626 0 77.0988 11.6474 898 60.3096 38.2283 382.075
627 0 84.1621 13.6879 1152 57.4401 38.0747 381.191
628 0 87.1101 12.2489 1067 58.5258 37.9934 383.664
629 0 89.1179 12.2534 1092 58.9396 38.5907 381.212
630 0 95.0698 14.3368 1363 56.4483 38.1137 375.8
631 0 97.1667 13.5129 1313 57.4661 38.0815 375.997
632 0 100.277 12.8943 1293 58.1052 37.5785 374.803
633 0 103.382 12.3909 1281 58.2162 37.9859 373.489
634 1 54.2851 13.0423 708 56.6596 38.2839 397.59
635 0 57.0817 11.0719 632 58.5823 37.9573 399.016
636 0 63.0816 10.6529 672 59.3646 38.4613 394.725
637 0 59.2202 11.567 685 60.4423 37.9766 393.15
638 0 63.1287 14.4467 912 57.1579 38.2171 391.55
639 0 66.1148 12.8867 852 58.75 38.1244 390.234
640 0 67.0958 13.5627 910 58.0758 38.3 392.19
641 0 68.2458 13.9789 954 58.2935 38.1667 388.34
642 0 71.1255 14.6502 1042 57.0749 38.2217 387.198
643 0 73.121 13.0605 955 58.5707 38.1393 391.087
644 0 77.1608 14.4374 1114 57.1975 38.0987 389.056
645 0 76.2039 12.9915 990 59.1576 37.6465 387.239
646 0 84.1596 14.2824 1202 56.2912 38.2704 389.676
647 0 87.1538 14.2048 1238 56.874 38.9564 386.44
648 0 88.1604 15.3243 1351 56.3013 38.4619 383.226
649 0 91.3492 14.0997 1288 57.1328 38.6957 383.291
650 0 94.2215 13.4152 1264 57.678 38.6218 383.262
651 0 97.3725 13.8437 1348 57.7322 38.6706 378.241
652 1 48.1197 11.4506 551 58.441 38.1543 404.808
653 0 53.1025 11.5626 614 57.0521 38.5358 405.436
654 0 55.188 11.3612 627 58.1499 39.0463 405.882
655 0 57.1854 12.5382 717 57.742 38.3947 403.584
656 0 60.2202 13.8492 834 56.3058 38.6823 401.305
657 0 57.3633 11.9414 685 59.1985 38.3212 400.869
658 0 62.1169 13.4102 833 58.0876 38.5858 395.939
659 0 62.1702 12.884 801 59.3571 37.97 394.081
660 0 64.2746 12.8355 825 59.2994 37.5103 394.417
661 0 73.3114 15.6047 1144 54.3243 37.3969 395.328
662 0 70.223 13.1296 922 58.5868 37.3362 391.245
663 0 72.078 13.0553 941 58.712 37.4081 392.221
664 0 75.2635 13.0874 985 59.4254 37.6508 388.519
665 0 77.3309 13.4616 1041 58.3372 37.4918 389.797
666 0 78.0856 11.3337 885 61.0927 38.087 391.676
667 0 81.1736 13.8469 1124 59.2794 38.2482 388.096
668 0 86.1765 14.7024 1267 58.1681 38.1586 385.84
669 0 87.279 12.2481 1069 61.1319 37.8606 384.685
670 0 90.1801 11.9539 1078 61.9091 37.8043 378.829
671 0 97.3362 14.229 1385 58.3538 37.9957 381.407
672 1 51.0615 11.2609 575 60.5235 37.9965 400.81
673 0 52.1476 11.64 607 60.0544 37.8666 399.194
674 0 57.0553 11.9708 683 59.3426 38.0732 400.379
675 0 56.0537 13.0767 733 58.839 38.1801 398.336
676 0 55.1556 12.22 674 60.9347 38.6246 395.226
677 0 57.394 12.7888 734 60.0245 38.3542 395.308
678 0 62.1642 13.2069 821 58.5018 38.0731 395.43
679 0 64.1085 12.7596 818 59.4988 38.2127 394.742
680 0 64.1051 11.1224 713 61.3198 38.0182 394.642
681 0 66.1823 12.798 847 59.693 37.8442 392.071
682 0 71.1595 15.4301 1098 55.8798 38.326 392.829
683 0 69.2934 12.3533 856 61.271 37.9393 387.034
684 0 74.1902 14.0315 1041 58.8338 38.6061 388.099
685 0 76.2541 12.5633 958 59.2965 38.2443 391.859
686 0 78.1398 12.5416 980 60.902 37.8888 386.347
687 0 82.1612 14.0577 1155 59.5074 37.5714 381.919
688 0 81.471 12.5075 1019 60.95 37.7134 384.592
689 0 85.2222 12.6728 1080 61.1963 37.812 382.424
690 0 89.1597 13.8515 1235 60.0996 37.6138 378.208
691 0 91.2151 13.6271 1243 60.2108 37.5334 379.552
692 0 99.1224 13.1655 1305 60.4621 37.5471 377.567
693 0 99.2555 13.4804 1338 60.9238 37.5426 377.031
694 0 100.21 12.7033 1273 62.465 37.5679 369.802
695 1 51.1388 11.9088 609 61.3514 38.3202 396.673
696 0 57.0687 11.2496 642 60.7679 38.7336 397.86
697 0 60.1477 12.7187 765 59.0444 38.6876 395.603
698 0 55.1091 10.2524 565 64.7062 38.7894 392.041
699 0 60.0957 13.362 803 59.944 38.7547 389.933
700 0 62.1588 13.562 843 59.8327 38.0249 387.665
701 0 65.3075 13.2297 864 60.2025 37.9005 386.234
702 0 67.1012 12.5482 842 61.4311 37.3349 386.629
703 0 70.2717 11.9109 837 61.8172 38.2258 386.374
704 0 70.2251 12.9299 908 61.3645 37.8778 384.463
705 0 74.1981 12.7631 947 61.1373 38.0454 383.617
706 0 76.183 12.0237 916 62.0819 38.1965 382.771
707 0 81.2813 12.9427 1052 59.9886 38.4686 381.857
708 0 83.3248 11.8452 987 62.0344 38.7305 377.747
709 0 88.2376 13.271 1171 59.9342 38.6157 377.313
710 0 86.0849 11.3725 979 63.3177 38.4872 373.733
711 0 92.3912 12.0358 1112 60.0854 38.902 375.979
712 1 50.0373 12.7305 637 59.6499 39.1099 394.488
713 0 50.1939 11.615 583 61.7684 39.7581 393.005
714 0 51.104 12.6213 645 61.2047 39.4822 391.014
715 0 53.1711 14.3687 764 58.5955 39.3128 391.035
716 0 53.1573 11.2684 599 62.5993 39.5459 390.573
717 0 57.3432 13.393 768 59.8424 38.7318 389.251
718 0 58.1782 13.4758 784 59.9681 38.5434 387.628
719 0 62.1473 12.5991 783 60.41 37.9349 388.037
720 0 64.1885 14.1147 906 58.5938 38.0519 388.021
721 0 65.1749 11.8911 775 61.4206 38.8477 386.145
722 0 66.1068 13.5992 899 60.4171 38.5217 382.515
723 0 68.1453 12.9576 883 60.6149 38.5232 384.965
724 0 70.217 11.8205 830 62.5542 38.7482 382.269
725 0 73.2943 13.6163 998 60.2826 38.0962 380.415
726 0 77.0556 12.77 984 61.9817 38.3303 376.389
727 0 78.1689 12.5625 982 62.0509 38.4369 378.643
728 1 37.0636 9.44324 350 64.6686 37.8314 395.683
729 0 44.1748 11.6356 514 62.1537 37.9553 395.615
730 0 47.0584 13.0901 616 60.1802 37.8831 394.115
731 0 44.1292 13.0752 577 62.6586 37.4298 393.123
732 0 47.064 13.0461 614 61.6368 37.785 392.331
733 0 51.1552 13.332 682 60.2346 38.4545 393.889
734 0 52.1954 13.6794 714 60.5938 38.8053 392.408
735 0 53.1954 12.9147 687 61.2533 38.7409 392.726
736 0 53.0996 11.6197 617 63.9984 38.7715 391.078
737 0 55.0534 13.0964 721 61.8599 38.9903 391.521
738 0 57.1135 13.4819 770 61.6208 38.6584 389.704
739 0 56.142 12.1834 684 63.0599 38.8845 391.086
740 0 60.0559 13.7705 827 61.0024 39.1125 389.965
741 0 59.0749 11.7816 696 64.0115 39.0805 388.302
742 0 60.089 12.2485 736 63.3899 39.1372 386.951
743 0 65.1251 13.0057 847 61.2161 39.4321 389.954
744 0 67.197 14.9709 1006 59.4771 39.3539 387.059
745 0 68.2218 13.4121 915 61.7137 39.6066 385.846
746 0 71.1615 13.3218 948 61.3924 39.3333 385.612
747 0 71.1445 11.6945 832 63.9195 39.3365 385.175
748 0 77.0559 13.7043 1056 60.857 39.6165 384.721
749 0 77.1242 14.5739 1124 60.3301 39.1254 383.299
750 0 82.0872 14.7282 1209 59.5707 38.8238 381.84
751 0 84.0843 13.3556 1123 61.4915 38.9243 379.19
752 0 87.211 12.0971 1055 62.7744 39.5602 379.575
753 0 93.2342 12.2273 1140 61.8237 39.3096 380.089
754 1 52.2435 11.8292 618 62.966 39.1796 394.346
755 0 53.0558 11.2523 597 63.5126 38.928 395.305
756 0 57.0376 11.7466 670 63.0254 38.9239 392.382
757 0 58.1133 12.2347 711 62.2658 39.1899 390.913
758 0 61.1453 11.4809 702 63.1866 38.9558 390.407
759 0 66.081 13.6045 899 59.9666 39.2948 390.67
760 0 65.1107 13.9608 909 60.7448 39.4642 388.52
761 0 68.0802 13.8219 941 60.4474 39.6036 390.82
762 0 68.2429 14.0381 958 61.0689 38.9175 386.368
763 0 72.1153 11.8421 854 62.1581 38.5445 386.691
764 0 78.2023 12.2886 961 61.4443 38.2726 384.415
765 0 79.2892 13.9742 1108 60.0478 38.1823 382.721
766 0 85.0383 13.6527 1161 60.1128 39.0965 382.821
767 0 83.1807 12.7674 1062 61.8682 39.2524 380.734
768 0 90.114 13.2943 1198 60.7604 38.9015 381.871
769 1 45.0623 11.8946 536 61.1101 38.9179 400.61
770 0 48.0853 11.1053 534 62.5337 39.2528 398.457
771 0 47.0257 14.4602 680 59.6588 38.9809 396.616
772 0 54.122 14.3565 777 58.7761 38.6152 396.333
773 0 53.0967 11.658 619 62.6769 37.9855 394.36
774 0 53.0425 11.2551 597 63.1809 38.67 395.358
775 0 60.397 12.9311 781 59.6338 39.0166 395.154
776 0 61.1857 13.8594 848 59.2807 38.921 392.603
777 0 65.3694 12.5288 819 59.9548 38.4505 392.391
778 0 66.2218 12.443 824 59.9757 38.9502 394.527
779 0 67.1921 13.4093 901 59.3585 39.1421 392.982
780 0 68.2815 12.3313 842 61.8884 39.3349 387.593
781 0 69.0828 13.6937 946 60.2875 39.2199 387.294
782 0 72.4885 11.3397 822 63.4088 38.7908 386.712
783 0 77.2185 15.1648 1171 58.4253 38.5884 386.307
784 0 77.1092 12.3072 949 62.8767 38.5975 382.65
785 0 83.1081 14.0901 1171 60.1136 38.5295 381.442
786 0 82.1248 11.7261 963 63.8245 37.9429 378.147
787 0 87.3098 13.5953 1187 61.7767 38.1651 376.997
788 0 93.0993 14.6403 1363 59.6222 37.6882 377.015
789 0 95.46 14.3306 1368 60.6462 38.0819 376.392
790 0 98.2066 13.2272 1299 61.7829 38.147 374.271
791 0 99.1882 13.0661 1296 62.0872 37.6597 373.398
792 1 56.2975 11.3149 637 61.7708 37.8854 393.799
793 0 59.2064 11.975 709 61.0748 37.8322 395.265
794 0 61.1222 11.8124 722 61.9501 38.6579 391.445
795 0 63.1567 12.1286 766 61.705 38.4269 390.406
796 0 65.0562 12.4661 811 60.8224 38.6942 391.37
797 0 68.3325 12.9367 884 60.7624 38.7692 387.75
798 0 70.2826 13.9722 982 59.168 38.0428 386.597
799 0 73.1142 12.5283 916 61.0218 38.8755 385.414
800 0 75.0779 13.6791 1027 59.6738 39.149 386.358
801 0 78.1697 11.9228 932 61.7747 38.7886 382.991
802 0 80.0776 12.5254 1003 60.8824 39.1147 383.338
803 0 82.1057 12.3865 1017 61.7699 38.6588 379.334
804 0 87.3284 13.2145 1154 59.9185 38.2149 379.957
805 0 91.1385 12.7498 1162 60.2788 37.8434 379.424
806 0 92.1803 13.9075 1282 59.5764 37.8206 375.441
807 0 93.1436 11.6916 1089 62.7576 38.5179 374.051
808 1 54.0434 14.3403 775 58.4658 38.7497 395.159
809 0 55.1722 12.035 664 61.9759 39.0105 392.955
810 0 57.2316 12.2485 701 62.3495 38.7104 391.164
811 0 60.2049 13.2879 800 61.6325 38.645 390.535
812 0 62.2045 12.5071 778 62.5964 38.2198 388.762
813 0 65.1992 14.0646 917 60.4013 38.1232 388.352
814 0 68.1169 14.1375 963 60.4839 38.6874 386.077
815 0 67.1423 11.9597 803 64.3574 38.4234 382.651
816 0 70.1658 13.5679 952 62.3908 38.5494 381.22
817 0 74.3046 12.7718 949 62.2687 38.5753 382.893
818 0 76.2804 12.4803 952 63.0095 38.7689 382.913
819 0 79.215 13.7979 1093 61.6157 38.7649 381.382
820 0 84.1464 12.7991 1077 61.688 38.8877 382.886
821 0 84.0864 13.2483 1114 63.3259 38.9901 375.994
822 0 88.2763 12.982 1146 63.4284 38.9066 376.876
823 0 90.2408 12.9985 1173 63.4416 38.6598 376.716
824 1 51.2168 13.2964 681 63.1982 39.2423 391.743
825 0 54.1802 13.3813 725 62.5545 38.8179 394.699
826 0 52.1708 12.7274 664 64.8464 38.9729 391.071
827 0 55.0172 10.2332 563 67.6963 38.8419 389.14
828 0 59.4366 13.4597 800 61.88 38.5825 392.294
829 0 60.2868 13.1704 794 63.1247 38.7859 390.213
830 0 63.291 13.7618 871 62.6648 39.5775 388.355
831 0 64.2562 12.6369 812 64.4557 39.6207 387.893
832 0 66.1656 12.3025 814 64.9767 39.2236 387.521
833 0 70.1279 13.1189 920 63.0239 39.3946 387.811
834 0 70.1737 13.1103 920 64.2989 39.3598 383.648
835 0 75.2653 12.901 971 62.7055 38.93 386.895
836 0 77.1438 13.5332 1044 62.637 38.6533 383.575
837 0 79.1136 13.9799 1106 62.2143 38.1682 380.989
838 0 80.147 12.9013 1034 64.1354 39.0164 379.144
839 0 85.1853 14.1574 1206 62.2711 38.6899 377.624
840 0 86.2792 12.9232 1115 63.9516 38.8493 376.535
841 1 44.1777 10.9105 482 65.778 39.305 396.28
842 0 46.2465 12.5199 579 65.6356 38.8048 394.646
843 0 48.1862 11.6838 563 65.6696 38.6057 396.561
844 0 51.1622 11.8838 608 65.949 38.3816 394.066
845 0 51.1483 11.9652 612 66.799 38.8088 393.913
846 0 55.1427 13.4379 741 64.7746 39.0864 392.653
847 0 57.1278 14.0212 801 63.5493 38.7116 394.039
848 0 60.2044 13.5704 817 63.8568 38.3831 392.214
849 0 62.1793 15.4714 962 61.7505 39.2173 390.827
850 0 65.3244 14.5581 951 62.1262 38.7024 390.685
851 0 67.2005 15.4463 1038 61.4162 38.395 389.485
852 0 66.2297 14.2836 946 64.1195 38.6776 387.776
853 0 68.2159 14.4834 988 63.4798 39.0992 385.318
854 0 73.2564 15.1113 1107 61.8862 38.9494 387.487
855 0 74.3179 15.2857 1136 62.2042 39.103 384.52
856 0 76.2068 13.752 1048 64.6784 39.2538 381.079
857 0 78.1984 15.7676 1233 62.0284 39.2287 381.202
858 0 83.1278 15.6626 1302 61.4731 38.7058 379.568
859 0 83.1579 13.5405 1126 64.5844 39.1732 378.158
860 0 87.1777 14.1206 1231 63.8587 39.2794 378.49
861 1 47.2015 12.2666 579 64.8756 39.4439 396.639
862 0 48.1813 12.2247 589 65.2683 39.3769 398.161
863 0 50.2411 13.3954 673 64.7949 38.3655 395.972
864 0 50.2813 13.0864 658 65.5258 38.9012 397.392
865 0 55.3106 14.4457 799 62.3542 39.5081 395.782
866 0 55.3027 13.4351 743 65.109 39.3203 394.217
867 0 56.3843 13.5144 762 65.4265 38.8333 393.459
868 0 57.4388 13.2489 761 65.9908 38.8673 391.919
869 0 62.1758 14.3303 891 63.3973 38.8171 393.176
870 0 61.1234 13.4809 824 66.0097 38.8968 390.124
871 0 64.2086 13.5807 872 65.1892 38.719 391.886
872 0 67.1518 14.4449 970 63.8124 38.3103 390.697
873 0 68.1481 15.2022 1036 63.1544 38.694 388.855
874 0 71.234 12.9292 921 65.911 38.3963 388.648
875 0 74.2015 13.6655 1014 65.7682 37.9615 385.884
876 0 72.3906 13.4962 977 67.087 38.3367 383.723
877 0 79.1171 14.0425 1111 65.7588 38.5554 384.08
878 0 81.3483 13.4606 1095 65.9653 38.2776 383.824
879 1 43.14 12.7492 550 66.5 38.5709 399.844
880 0 42.2521 11.5497 488 68.3648 38.9652 401.031
881 0 47.238 12.4264 587 65.971 38.7445 399.647
882 0 47.1488 11.9197 562 67.3007 38.9146 399.333
883 0 49.0949 11.9972 589 68.3497 39.0374 397.486
884 0 51.2108 13.298 681 65.8649 39.3906 396.577
885 0 53.1517 12.2856 653 67.3338 39.3063 395.825
886 0 56.0474 13.9525 782 65.0831 38.6675 394.871
887 0 60.2277 13.7312 827 64.2467 38.7545 395.443
888 0 60.155 12.9166 777 66.1725 38.6795 393.219
889 0 62.1557 13.8684 862 65.0128 39.0951 393.679
890 0 61.2955 13.2636 813 66.9434 38.9164 392.234
891 0 66.2419 13.345 884 65.681 39.2794 393.225
892 0 66.1491 13.8173 914 66.314 38.8982 388.739
893 0 70.0964 14.4087 1010 64.4535 39.295 389.252
894 0 73.2382 13.1352 962 65.6227 39.5031 390.804
895 0 73.1849 13.3224 975 66.3703 39.0123 386.546
896 0 78.2 15.4604 1209 62.5418 39.1596 388.063
897 0 79.2852 13.0541 1035 66.3043 39.3643 387.311
898 0 81.121 13.2025 1071 67.0233 39.4641 384.607
899 0 86.1363 14.6048 1258 64.1296 39.5636 385.68
900 1 44.1818 10.4568 462 68.671 39.2532 404.195
901 0 45.059 12.0287 542 65.3967 39.6384 407.042
902 0 48.1028 12.4317 598 65.7375 39.3294 404.973
903 0 51.0758 13.2548 677 64.1595 39.8257 404.388
904 0 50.0543 11.3677 569 67.58 39.3533 404.114
905 0 53.0421 13.6495 724 64.6202 39.1809 400.488
906 0 50.241 10.7482 540 70.5148 39.2167 400.235
907 0 54.0899 13.6255 737 65.4695 38.772 400.278
908 0 56.1086 11.9768 672 67.6458 38.5893 399.335
909 0 58.2568 13.5263 788 64.6294 39.1827 400.845
910 0 61.1285 14.0033 856 63.5935 39.2138 399.512
911 0 63.1997 12.7374 805 65.5391 39.518 397.447
912 0 63.0722 13.6669 862 64.5012 39.4362 397.329
913 0 63.1833 11.8386 748 67.115 39.4425 395.85
914 0 68.0934 13.7311 935 63.8182 39.1604 395.234
915 0 71.1368 13.959 993 63.3283 38.3797 395.064
916 0 68.133 13.1948 899 65.3648 38.2759 392.902
917 0 74.1775 13.3733 992 63.6764 38.4929 393.764
918 0 75.1607 12.9722 975 65.2472 39.0092 389.801
919 0 78.1842 13.2508 1036 64.3108 38.6129 391.17
920 0 82.1781 13.702 1126 63.1128 38.1625 390.214
921 0 84.1759 14.1371 1190 63.1185 38.7176 387.03
922 1 46.2388 10.9432 506 66.1126 38.6719 404.927
923 0 48.2507 10.6734 515 64.1806 38.9631 407.833
924 0 51.2306 12.0826 619 62.6026 39.2149 406.42
925 0 51.263 12.0165 616 64.1477 39.4334 403.565
926 0 54.1485 13.2044 715 61.9944 39.0322 402.534
927 0 55.1803 13.1206 724 62.2044 38.4227 401.124
928 0 55.2273 11.6428 643 64.0249 38.7916 400.516
929 0 60.1374 13.386 805 61.1801 38.5491 398.25
930 0 60.1098 12.4439 748 62.8115 38.262 396.247
931 0 63.2396 12.0652 763 62.5885 38.5505 397.248
932 0 64.1799 14.0231 900 60.5967 38.5056 394.894
933 0 70.1538 13.114 920 60.6424 38.7304 392.486
934 0 69.1812 12.8214 887 61.5998 38.6144 391.778
935 0 73.1672 11.7539 860 62.536 38.6698 390.31
936 0 77.1546 13.4146 1035 60.0464 38.2734 390.634
937 0 80.2924 13.0647 1049 60.9962 38.0734 386.204
938 0 81.1316 13.7061 1112 60.4478 38.2257 386.343
939 0 83.172 13.43 1117 61.1119 38.1513 383.197
940 0 88.161 12.7381 1123 61.569 38.4693 380.319
941 1 44.079 10.6854 471 61.8705 38.7113 402.382
942 0 44.0461 10.8977 480 61.85 39.0125 401.262
943 0 47.0383 12.4579 586 59.7031 38.5068 402.689
944 0 51.0373 13.2844 678 57.5914 38.3997 400.765
945 0 51.0437 11.304 577 60.7626 38.3934 398.055
946 0 54.0649 12.6515 684 58.924 38.4532 397.488
947 0 55.0561 12.2602 675 59.5674 38.5304 395.935
948 0 58.1312 12.4374 723 58.3651 38.6127 396.932
949 0 57.1451 12.967 741 58.0432 38.3387 396.154
950 0 61.154 13.3434 816 57.2733 38.4179 396.906
951 0 62.1642 11.8557 737 58.9701 38.213 395.145
952 0 65.0873 12.9979 846 57.6596 37.9492 392.606
953 0 68.1126 11.7012 797 58.8419 38.2108 389.547
954 0 68.2289 12.2675 837 58.9462 38.2772 387.389
955 0 73.0686 12.413 907 58.1577 37.8776 386.409
956 0 73.2167 12.4152 909 57.802 38.055 388.229
957 0 78.2707 12.5462 982 57.6049 38.2108 383.831
