time division length width area intensity CMx CMy
0 0 67.0641 14.1506 949 60.7334 194.851 435.699
1 0 70.0646 12.4028 869 62.6801 194.045 434.826
2 0 71.0642 11.8766 844 63.5936 193.858 432.181
3 0 74.0416 12.6415 936 62.0673 193.459 434.714
4 0 73.1358 12.0051 878 63.5626 193.691 432.992
5 0 77.0905 12.401 956 63.159 193.103 431.191
6 0 82.125 13.3455 1096 60.1551 192.62 434.443
7 0 82.2313 12.8661 1058 61.9442 192.698 430.519
8 0 85.2098 12.4164 1058 62.5 192.294 427.827
9 1 44.0289 11.7196 516 61.3236 192.694 450.103
10 0 46.0447 10.555 486 62.7757 193.193 448.068
11 0 46.0455 9.57748 441 64.2222 193.54 448.036
12 0 49.0469 12.2536 601 60.2729 193.16 447.151
13 0 50.038 12.9302 647 59.9428 192.767 445.589
14 0 49.0293 10.5651 518 63.4228 192.857 445.643
15 0 49.1218 11.1356 547 63.2578 192.45 443.709
16 0 53.0409 12.349 655 61 193.096 443.678
17 0 54.0283 11.1608 603 61.4113 192.597 446.476
18 0 56.148 13.1438 738 59.8808 192.836 440.94
19 0 56.123 10.477 588 63.1871 192.07 439.787
20 0 59.1168 11.435 676 60.5888 191.598 443.022
21 0 60.1444 11.0567 665 62.0406 191.714 439.42
22 0 63.1116 12.4224 784 60.2054 191.71 434.46
23 0 66.0407 11.3869 752 60.8152 192.049 437.4
24 0 67.0657 13.5091 906 58.4547 191.957 435.678
25 0 70.0853 13.6691 958 58.237 192.348 436.21
26 0 72.0583 10.7829 777 60.861 191.695 437.627
27 0 74.1261 11.3051 838 61.1038 191.288 434.865
28 0 76.1237 12.1644 926 60.8564 191.297 434.215
29 1 40.0698 10.5815 424 60.6887 191.712 450.84
30 0 43.0618 11.2629 485 59.1546 191.827 449.835
31 0 44.0508 10.1701 448 60.8906 191.569 449.353
32 0 45.0849 12.3988 559 58.8086 191.88 448.864
33 0 48.0668 12.2746 590 58.939 193.259 446.276
34 0 49.1418 11.4973 565 60.0301 193.166 445.657
35 0 54.0584 15.8717 858 53.2809 193.267 439.643
36 0 53.0854 11.9242 633 59.6351 192.76 443.425
37 0 52.0752 12.5588 654 60.0902 192.671 442.404
38 0 55.0542 11.6067 639 61.0548 192.49 442.08
39 0 56.0701 12.6092 707 59.9859 192.597 440.866
40 0 57.072 10.8284 618 63.089 192.406 439.82
41 0 59.0525 11.5321 681 61.7298 192.457 439.435
42 0 62.0355 11.4289 709 62.0945 192.385 438.862
43 0 61.0529 11.2853 689 62.5951 192.051 438.225
44 0 63.2103 11.7544 743 62.5316 191.813 436.19
45 0 66.0449 12.764 843 60.6323 192.005 439.11
46 0 66.1915 11.5876 767 63.7093 192.319 436.256
47 0 72.261 12.2057 882 61.4966 192.407 438.295
48 0 72.0781 13.4715 971 61.518 191.919 434.125
49 0 74.1466 12.3134 913 63.4195 191.703 434.319
50 0 76.13 13.3456 1016 62.7697 191.92 433.239
51 0 78.1577 11.5792 905 65.1094 192.418 431.316
52 0 81.1354 13.1262 1065 62.7174 191.195 429.261
53 0 84.0962 13.8175 1162 62.0439 191.565 428.902
54 1 47.0653 9.92239 467 63.0707 191.306 448.576
55 0 50.0753 12.5411 628 59.3328 191.253 448.344
56 0 50.0422 11.3304 567 62.1305 191.744 444.827
57 0 52.143 12.3123 642 61.1012 192.092 444.643
58 0 52.1279 10.5318 549 65.2259 191.834 440.361
59 0 54.1846 9.43073 511 66.0294 191.546 442.888
60 0 58.049 11.4731 666 62.985 191.697 440.796
61 0 59.0778 12.8813 761 60.7963 191.535 442.852
62 0 59.0894 11.728 693 63.4069 191.801 439.31
63 0 63.0608 12.9716 818 60.9963 191.489 440.328
64 0 61.1726 10.7401 657 65.0776 190.67 437.451
65 0 64.1128 11.1522 715 64.2699 190.583 437.59
66 0 67.1401 13.1218 881 61.4858 190.822 437.447
67 0 68.0555 11.5935 789 63.5209 190.987 437.504
68 0 69.1694 12.6501 875 61.528 191.424 439.605
69 0 71.083 13.3787 951 60.9737 190.752 437.27
70 0 74.0859 12.526 928 62.7619 190.531 433.293
71 0 77.1409 14.7263 1136 59.9657 190.186 431.33
72 0 81.0997 13.8718 1125 61.0587 190.277 433.086
73 0 81.1236 12.3762 1004 63.7829 190.795 433.414
74 0 83.1721 11.9151 991 64.9304 190.477 430.075
75 0 87.1302 13.0035 1133 62.4466 190.679 432.663
76 1 43.1047 10.3469 446 64.5919 191.049 449.899
77 0 47.0504 11.3495 534 63.7472 190.545 446.38
78 0 49.105 12.2187 600 61.9883 191.083 446.82
79 0 49.0174 12.2813 602 61.907 189.965 446.301
80 0 51.0723 12.3159 629 61.558 189.884 445.712
81 0 50.0797 9.80437 491 65.7963 190.815 444.385
82 0 51.0736 10.6513 544 64.8364 190.877 444.985
83 0 55.0501 12.1162 667 62.9535 190.693 442.487
84 0 59.0717 12.6456 747 61.3922 190.9 442.277
85 0 58.1011 10.4645 608 64.6036 191.196 443.179
86 0 59.0822 10.8154 639 64.6745 191.463 441.7
87 0 61.1048 11.9794 732 61.7623 191.537 440.432
88 0 63.1489 12.7952 808 61.5916 191.183 437.828
89 0 63.1597 10.9564 692 64.4032 191.329 436.928
90 0 67.1391 11.1708 750 63.6747 190.801 435.721
91 0 69.0333 11.6031 801 63.0649 190.896 435.343
92 0 71.0931 11.8296 841 62.8288 191.151 435.308
93 0 73.0735 10.8795 795 63.9484 190.39 428.039
94 0 75.1176 13.0861 983 61.296 190.033 429.343
95 1 41.0398 10.0634 413 61.9007 190.63 449.126
96 0 37.1561 8.2086 305 66.4525 190.325 446.308
97 0 44.0876 10.6152 468 61.8077 190.647 446.37
98 0 43.0902 10.8145 466 61.9485 190.687 446.85
99 0 46.077 9.89648 456 60.1272 190.579 448.443
100 0 47.0448 10.2881 484 60.4607 190.326 443.298
101 0 49.0569 11.0076 540 59.4037 190.633 443.406
102 0 50.0666 11.4048 571 58.9317 191.082 442.266
103 0 53.0659 11.4198 606 58.2426 191.109 441.865
104 0 53.112 12.8408 682 57.0997 191.368 441.185
105 0 52.0504 11.5465 601 59.7587 190.767 438.899
106 0 54.069 11.6148 628 59.1274 190.892 439.156
107 0 58.0953 9.50163 552 61.212 191.034 440.67
108 0 59.1014 11.218 663 60.4223 191.318 438.027
109 0 61.0316 10.8468 662 60.6571 191.151 437.293
110 0 62.0546 12.3923 769 59.0936 190.131 435.68
111 0 64.0894 11.2655 722 60.6025 190.579 431.363
112 0 66.0666 9.86883 652 62.6764 190.603 431.663
113 0 66.1083 10.3013 681 62.4361 190.441 432.567
114 0 70.1986 11.4675 805 60.9913 190.717 432.827
115 0 72.1458 10.8807 785 61.4917 190.967 429.754
116 0 73.1154 12.3367 902 60.0377 190.908 429.463
117 0 78.1445 11.9266 932 59.7639 190.676 427.42
118 0 80.1389 12.5532 1006 59.0427 190.378 425.431
119 0 83.0844 11.2416 934 60.454 190.619 424.123
120 0 84.2609 10.6336 896 61.4554 189.914 426.34
121 1 42.0976 8.29025 349 64.1576 189.648 442.923
122 0 46.1464 9.31817 430 63.0047 189.091 442.002
123 0 49.165 9.05116 445 63.4854 189.465 441.13
124 0 50.0265 10.9542 548 60.5967 189.755 441.447
125 0 51.0619 10.027 512 61.6211 189.867 441.574
126 0 51.0551 9.36244 478 62.5732 190.649 438.454
127 0 55.1315 9.99428 551 61.6007 190.84 438.211
128 0 57.1344 10.7466 614 60.8013 190.381 438.537
129 0 58.0393 9.71755 564 62.2695 191.074 436.172
130 0 63.1168 11.344 716 59.3478 191.446 436.747
131 0 62.0916 13.2224 821 57.9781 191.44 435.206
132 0 63.0702 11.5744 730 59.7808 191.596 437.479
133 0 65.2154 11.1017 724 60.9392 190.971 433.04
134 0 67.4048 11.3345 764 61.0524 191.171 431.484
135 0 70.2067 11.4519 804 60.4838 191.061 434.001
136 0 73.194 11.4354 837 60.2234 190.624 431.38
137 0 76.2183 13.4351 1024 57.7383 190.938 432.908
138 0 75.1695 11.3876 856 61.1051 191.297 431.364
139 0 81.1478 12.6436 1026 58.885 190.933 429.839
140 0 83.2711 10.5799 881 60.6061 190.881 431.204
141 0 84.1591 11.3 951 60.5973 191.301 428.287
142 0 88.1395 10.6536 939 61.4356 191.228 425.386
143 0 90.1981 10.6322 959 61.3493 191.033 424.707
144 0 92.1407 11.7321 1081 60.5486 190.945 420.643
145 0 96.2261 10.8183 1041 61.5985 190.673 422.817
146 1 47.0995 7.98309 376 62.8112 191.141 445.146
147 0 52.0726 9.31393 485 60.8227 190.548 445.21
148 0 51.0859 10.8249 553 60.9584 191.262 444.852
149 0 55.0611 11.3329 624 59.4583 191.239 444.135
150 0 58.1476 12.2619 713 57.9621 191.335 443.666
151 0 60.0981 12.1801 732 58.235 191.324 441.885
152 0 60.0868 11.1172 668 59.7784 191.016 442.564
153 0 61.0933 12.6691 774 58.9457 191.181 438.349
154 0 65.1184 11.3486 739 59.5724 192.014 438.667
155 0 65.1495 11.5887 755 59.6053 191.91 438.356
156 0 68.2794 11.1014 758 60.3931 191.796 435.693
157 0 66.2203 11.4466 758 60.686 190.64 436.625
158 0 71.0992 13.6007 967 57.8925 191.069 436.391
159 0 73.1128 13.1988 965 58.7617 190.99 434.21
160 0 75.2044 12.4594 937 60.1633 191.118 436.09
161 0 76.1549 13.9059 1059 59.3494 191.393 432.299
162 0 78.1744 12.2035 954 61.4528 192.388 433.875
163 0 81.246 13.5145 1098 60.0993 192.653 432.451
164 0 84.4581 12.3375 1042 60.7869 192.15 433.409
165 0 86.1767 12.2771 1058 62.1985 192.64 429.706
166 0 90.2985 15.3712 1388 58.4402 192.455 430.096
167 0 90.2943 12.3485 1115 63.3937 192.647 428.159
168 0 94.2607 13.2505 1249 61.9015 192.506 426.555
169 1 53.1645 11.1352 592 62.8818 192.769 447.213
170 0 52.0523 10.9121 568 64.1479 191.597 445.827
171 0 56.0946 12.3898 695 62.7568 191.909 443.983
172 0 58.1318 12.9705 754 62.1088 192.454 443.958
173 0 60.1744 12.4472 749 63.227 192.148 442.115
174 0 61.2256 13.4748 825 62.3224 192.144 440.95
175 0 62.0765 13.3062 826 63.2603 192.437 440.481
176 0 63.2879 11.8506 750 65.4947 191.477 439.633
177 0 67.2275 13.075 879 62.8146 191.916 441.48
178 0 67.1914 12.7546 857 64.8413 191.901 438.484
179 0 70.1263 13.6325 956 63.0377 191.271 439.028
180 0 73.303 13.7239 1006 63.1928 191.74 436.256
181 0 72.0976 13.2043 952 64.9832 191.471 435.503
182 0 74.1056 12.8465 952 65.937 191.717 433.363
183 0 77.1571 13.0902 1010 64.9653 192.122 434.376
184 0 81.1058 12.1816 988 66.1842 191.8 431.761
185 1 45.1075 11.4837 518 64.0598 192.683 449.45
186 0 46.0714 12.1116 558 63.1613 193.238 448.21
187 0 46.0519 11.8345 545 63.9743 192.727 447.09
188 0 44.0789 10.572 466 65.0601 192.605 444.292
189 0 50.1565 11.5439 579 62.525 191.907 444.453
190 0 49.1526 12.0441 592 62.5135 191.438 443.485
191 0 52.1272 11.4144 595 62.2824 191.513 445.37
192 0 53.068 11.5135 611 62.6596 191.599 443.164
193 0 51.0613 10.2426 523 65.6023 192.329 443.061
194 0 56.0411 10.8313 607 64.0758 192.394 443.25
195 0 56.0586 12.0945 678 63.1858 192.361 440.434
196 0 59.1845 11.4557 678 63.1814 192.316 440.521
197 0 60.2728 10.917 658 64.3936 192 440.486
198 0 62.2641 10.5839 659 64.4886 191.683 440.222
199 0 63.2631 11.6656 738 63.5136 191.688 437.896
200 0 64.1072 13.0407 836 62.39 191.526 436.371
201 0 68.1539 13.6309 929 60.8956 191.84 437.958
202 0 69.1302 12.8453 888 62.7038 191.725 435.989
203 0 71.1173 10.6303 756 65.3532 191.75 435.802
204 0 74.1887 12.9265 959 62.6309 191.928 434.808
205 0 75.1528 13.8385 1040 62.1644 191.213 433.348
206 0 78.1816 13.0593 1021 62.5495 191.2 433.427
207 0 81.248 13.8957 1129 60.3392 190.888 433.3
208 0 82.247 13.0217 1071 61.9057 190.574 430.983
209 0 85.1177 12.3476 1051 62.5442 191.453 430.083
210 1 49.254 10.5778 521 61.4357 191.655 447.716
211 0 48.0871 10.2314 492 63.1016 191.752 448.199
212 0 49.0606 12.2705 602 61.8621 191.517 446.472
213 0 50.0492 9.71045 486 65.0679 191.344 445.683
214 0 55.1111 12.3024 678 61.7006 190.67 444.5
215 0 54.0517 11.1375 602 62.814 191.053 445.776
216 0 55.0744 11.4391 630 63.2635 190.975 443.41
217 0 59.0954 11.9806 708 61.928 191.328 442.986
218 0 59.1841 11.0334 653 63.3675 191.462 443.199
219 0 63.0921 13.9162 878 59.3303 191.787 441.891
220 0 64.0742 13.6092 872 59.7878 191.532 440.075
221 0 63.0486 11.2612 710 63.5606 191.69 439.1
222 0 64.0926 11.8266 758 63.3285 191.434 436.789
223 0 68.1496 13.1476 896 61.548 191.528 432.935
224 0 70.2873 12.2497 861 61.8258 191.705 434.798
225 0 71.1792 10.5087 748 64.0481 191.718 436.099
226 0 71.1763 10.9306 778 63.7622 192.013 433.902
227 0 75.1064 11.4771 862 63.0673 191.697 430.997
228 0 78.2035 12.6081 986 61.57 191.6 429.961
229 0 82.0747 14.4502 1186 58.8035 191.286 432.389
230 1 43.1779 10.2136 441 62.288 191.132 447.887
231 0 46.3965 10.087 468 62.3462 190.622 446.547
232 0 47.0249 11.1218 523 61.7132 190.04 446.878
233 0 47.061 11.262 530 62.1962 190.417 447.236
234 0 48.0933 11.644 560 62.0375 190.871 444.143
235 0 51.0211 11.3286 578 62.2855 191.445 442.882
236 0 52.1249 12.2782 640 61.0406 191.286 443.503
237 0 53.0626 11.8351 628 62.1051 191.946 443.831
238 0 55.1248 12.8617 709 61.4965 191.708 441.714
239 0 55.0921 10.7638 593 64.4317 192.347 442.589
240 0 58.0457 12.6797 736 61.9511 192.065 441.41
241 0 59.0262 12.486 737 62.5984 192.43 438.775
242 0 60.0849 12.1495 730 63.1219 192.212 436.342
243 0 60.0221 11.0126 661 64.7005 191.989 435.811
244 0 64.1358 11.2729 723 64.3707 192.015 435.058
245 0 65.0258 11.9645 778 63.5051 191.891 436.964
246 0 67.0924 11.2084 752 64.9548 191.872 436.467
247 0 68.1217 11.2152 764 64.9895 192.274 435.421
248 0 70.0809 11.2727 790 66.0405 192.129 429.586
249 0 72.0654 12.7384 918 64.0752 191.961 429.584
250 0 77.0524 12.5369 966 64.1418 191.877 427.731
251 0 78.1501 12.1305 948 64.8091 191.639 428.572
252 0 82.1421 12.4419 1022 64.1027 191.534 427.413
253 1 40.0136 10.5464 422 65.0806 191.133 446.685
254 0 45.0324 11.6139 523 63.1052 191.138 445.633
255 0 44.0553 12.4616 549 62.7177 191.39 445.521
256 0 47.1401 10.4158 491 64.613 191.267 446.092
257 0 48.1243 12.343 594 62.6801 191.246 442.604
258 0 49.0583 11.3538 557 64.2029 191.853 444.67
259 0 50.0263 11.414 571 65.2224 192.016 441.548
260 0 53.1279 11.5758 615 64.265 192.463 443.569
261 0 54.0981 11.3497 614 64.9137 191.91 440.66
262 0 54.0681 12.2438 662 63.8489 191.764 441.677
263 0 57.0974 10.8061 617 65.4959 191.736 440.52
264 0 59.1075 12.2489 724 63.6119 191.968 437.974
265 0 61.0981 12.4881 763 63.3408 192.406 438.484
266 0 63.0953 12.6951 801 63.372 192.439 437.446
267 0 66.1297 14.0935 932 60.7296 193.133 437.496
268 0 68.0478 12.5647 855 62.9883 192.813 437.149
269 0 67.1306 12.6917 852 63.8427 192.462 434.419
270 0 69.0572 11.7294 810 64.6407 192.88 434.472
271 0 72.0578 13.1561 948 61.9314 192.95 436.118
272 0 76.1248 13.7537 1047 61.021 191.881 433.372
273 0 76.0554 11.8203 899 64.9622 192.25 430.952
274 0 78.1719 13.6622 1068 61.867 192.617 432.854
275 0 80.2023 12.1194 972 64.7078 192.419 429.377
276 1 46.0475 10.8149 498 62.506 192.484 448.084
277 0 44.0995 9.20646 406 64.7365 192.404 448.059
278 0 45.0501 10.4772 472 64.7818 192.106 446.231
279 0 46.0134 10.0406 462 64.5022 192.264 444.944
280 0 50.0617 12.4846 625 61.2384 192.392 444.411
281 0 50.0451 11.0101 551 63.1815 192.24 444.788
282 0 53.0957 12.0349 639 62.1768 192.189 442.16
283 0 53.0547 10.0462 533 64.349 192.017 443.685
284 0 57.0198 11.3294 646 62.9489 192.262 441.912
285 0 54.0289 11.3828 615 64.8325 192.789 438.865
286 0 58.1971 12.114 705 63.0284 192.313 440.006
287 0 60.1449 10.9403 658 64.3754 192.318 439.038
288 0 62.1078 11.8826 738 62.6911 191.885 440.767
289 0 62.0906 11.145 692 64.7023 191.88 438.395
290 0 65.0536 11.0985 722 64.2964 191.737 437.62
291 0 67.0993 13.1894 885 61.8418 192.168 436.319
292 0 69.1066 12.9221 893 62.1747 192.157 435.801
293 0 70.0852 12.442 872 62.6032 192.06 435.917
294 0 73.0618 12.51 914 62.9891 192.102 432.63
295 0 76.0531 11.5577 879 63.2912 191.551 434.477
296 0 75.0551 10.2458 769 65.2328 191.853 434.205
297 0 81.0642 12.0645 978 62.9029 192.337 431.051
298 1 47.0762 9.75016 459 63.8497 192.63 446.192
299 0 46.0306 11.0579 509 63.721 192.806 445.99
300 0 49.0204 11.5258 565 62.5168 191.74 446.055
301 0 50.0462 12.2687 614 62.8274 192.145 443.319
302 0 50.0233 10.675 534 64.9794 192.011 443.195
303 0 54.0286 11.4569 619 63.4459 192.299 442.507
304 0 54.1059 11.8656 642 63.6184 191.91 441.252
305 0 57.0893 12.4016 708 62.3955 191.822 440.419
306 0 57.0313 10.3803 592 64.8378 192.093 442.353
307 0 61.0696 12.1828 744 63.2392 192.278 438.086
308 0 61.1105 12.6165 771 62.9287 192.538 438.259
309 0 64.0637 12.1285 777 63.6499 192.163 436.45
310 0 66.1205 13.0368 862 62.5673 192.317 436.124
311 0 66.1835 10.6824 707 65.1174 192.427 439.143
312 0 69.0619 11.5404 797 64.6236 192.46 436.015
313 0 73.0628 12.9067 943 62.4411 192.124 435.103
314 0 74.0782 12.6218 935 63.4011 192.276 433.445
315 0 75.1461 11.3379 852 65.4718 191.934 431.914
316 0 78.0819 11.6416 909 65.0165 191.968 431.002
317 0 80.1894 11.9093 955 65.244 191.387 428.335
318 0 83.1457 12.2315 1017 64.6637 190.985 426.626
319 0 86.1127 10.823 932 66.5998 191.436 427.08
320 0 87.1515 11.5775 1009 66.2874 191.43 424.733
321 1 50.1238 10.1549 509 65.0511 191.9 445.432
322 0 51.0332 12.0902 617 62.5559 191.585 445.632
323 0 54.168 11.5751 627 64.5821 191.668 442.604
324 0 57.0914 12.0158 686 63.5539 191.774 441.243
325 0 59.0983 12.0139 710 63.6775 191.944 439.346
326 0 59.0513 11.9726 707 64.5248 190.984 437.354
327 0 64.1023 12.4332 797 63.1882 191.814 438.794
328 0 64.0697 11.8933 762 64.2664 191.718 436.404
329 0 66.3146 11.4153 757 64.8864 192.473 436.456
330 0 65.0735 11.5562 752 65.3843 192.753 434.562
331 0 68.1301 11.1258 758 65.5831 192.611 435.244
332 0 71.1225 12.6261 898 63.7973 192.587 432.207
333 0 73.1401 10.5824 774 65.9199 192.966 435.286
334 0 76.1964 10.5254 802 65.5574 192.483 434.904
335 0 78.135 13.1311 1026 62.8908 192.493 432.408
336 0 79.1171 11.6031 918 65.4444 192.611 430.596
337 0 82.1506 12.5866 1034 63.9226 192.603 429.053
338 0 84.1361 12.765 1074 63.6061 192.211 431.023
339 1 44.0132 11.7919 519 62.1753 192.085 449.563
340 0 45.0658 11.4721 517 63.9865 192.195 446.565
341 0 48.061 11.2357 540 64.1407 192.107 445.233
342 0 49.2292 11.5785 570 63.5649 192.346 446.04
343 0 50.065 11.1855 560 64.2929 192.307 444.205
344 0 53.0721 10.269 545 65.3761 192.701 443.433
345 0 54.1639 11.0036 596 64.094 192.545 444.396
346 0 55.0983 13.4669 742 62.2264 192.249 440.485
347 0 56.254 12.088 680 64.2809 192.312 440.093
348 0 60.0846 12.8652 773 62.5576 192.365 441.288
349 0 60.1564 12.3511 743 64.4495 192.661 436.996
350 0 62.1403 13.8397 860 62.3965 191.899 437.43
351 0 65.2436 11.48 749 65.1562 191.569 437.485
352 0 65.1598 12.0166 783 65.4904 192.089 432.996
353 0 68.1786 12.1886 831 64.562 192.063 435.124
354 0 70.1254 11.893 834 65.5827 191.92 431.544
355 0 73.2145 11.5961 849 65.1119 192.132 433.087
356 0 75.1389 12.3372 927 64.3506 192.86 433.462
357 0 78.145 11.6962 914 64.3326 192.586 432.946
358 0 79.1359 11.9668 947 64.3633 192.653 431.225
359 0 82.1215 12.3719 1016 64.0059 193.015 431.646
360 1 45.2986 9.77955 443 63.4289 192.926 449.314
361 0 43.0963 9.95446 429 65.3124 192.359 446.161
362 0 48.066 10.3816 499 62.8878 192.006 447.932
363 0 50.1578 12.7597 640 60.8375 191.939 447.938
364 0 50.069 13.2217 662 60.4758 192.282 448.066
365 0 52.1817 10.3868 542 63.4686 191.891 447.91
366 0 54.0922 13.3476 722 60.7368 191.661 446.172
367 0 56.0481 11.3652 637 62.9058 192.121 445.928
368 0 57.1202 11.8872 679 62.3373 192.987 445.58
369 0 59.1346 12.2433 724 62.8287 193.349 443.265
370 0 61.2355 11.5619 708 62.8912 193.429 443.24
371 0 60.0886 10.2182 614 64.93 193.528 443.044
372 0 65.0949 12.4587 811 61.6658 192.868 441.375
373 0 64.0493 11.7878 755 63.7589 192.57 439.645
374 0 67.1219 12.6933 852 62.3603 192.6 439.65
375 0 70.1391 11.0637 776 64.6289 192.415 439.726
376 0 71.1253 12.1195 862 63.4316 192.439 435.993
377 0 73.1149 11.0374 807 64.5093 192.105 434.786
378 0 74.1666 10.7056 794 66.2028 191.879 433.081
379 0 78.1474 10.8257 846 65.3097 191.612 433.764
380 0 81.1645 12.0126 975 63.9128 191.689 433.769
381 0 83.207 12.1144 1008 64.3194 191.495 430.358
382 0 83.2026 10.5886 881 67.0511 191.199 429.269
383 0 88.2474 12.1137 1069 65.1946 191.641 427.857
384 0 91.1962 12.9282 1179 63.4292 191.5 427.241
385 1 48.4149 11.2156 543 63.6335 191.68 444.556
386 0 48.1424 11.1129 535 64.1084 191.604 443.548
387 0 50.175 10.862 545 63.8294 191.574 444.497
388 0 52.2355 11.5247 602 63.1362 191.387 443.146
389 0 52.1968 11.9548 624 63.1875 190.888 441.804
390 0 56.0848 11.857 665 62.6857 191.423 441.773
391 0 58.2248 11.7647 685 63.0978 191.188 438.651
392 0 58.0759 10.6757 620 64.7952 191.463 439.584
393 0 62.1194 12.637 785 62.2484 191.366 437.724
394 0 62.0792 11.6464 723 64.1604 191.419 437.451
395 0 63.0892 10.4772 661 65.3147 192.162 437.365
396 0 66.1133 10.6938 707 64.6167 192.372 436.997
397 0 68.1633 11.6192 792 63.5896 192.894 435.63
398 0 70.0894 12.7266 892 62.4081 192.961 433.461
399 0 73.1276 11.8423 866 63.1178 192.792 433.246
400 0 75.0939 11.8518 890 62.9472 192.306 432.963
401 0 75.0792 10.8818 817 64.2778 192.707 432.722
402 0 78.1119 11.5731 904 63.7013 192.301 429.824
403 0 80.0464 9.33209 747 66.332 192.04 432.016
404 1 45.0675 9.80751 442 63.181 192.335 446.762
405 0 46.0357 9.38402 432 64.4676 191.701 443.792
406 0 49.1673 10.1287 498 62.9116 191.791 445.894
407 0 49.1624 11.757 578 61.1972 192.438 446.232
408 0 52.0305 11.4356 595 62.4403 191.655 442.968
409 0 53.0445 10.4629 555 63.5892 191.888 442.764
410 0 54.0857 10.9456 592 63.8294 192.454 442.086
411 0 58.0678 11.3832 661 62.4766 192.477 442.021
412 0 59.0735 11.7142 692 61.5578 192.256 442.396
413 0 60.1064 9.84921 592 65.0929 191.693 436.639
414 0 61.0691 11.6425 711 62.9297 191.786 437.892
415 0 64.1622 11.7515 754 62.1552 191.785 437.883
416 0 68.1635 11.6778 796 61.593 192.426 438.049
417 0 70.1466 12.9728 910 60.3099 192.378 434.488
418 0 72.1171 10.8989 786 62.944 192.659 434.094
419 0 72.087 11.7497 847 62.4699 191.678 432.803
420 0 78.1754 12.2417 957 61.1327 192.394 430.883
421 0 79.1576 11.3571 899 62.2436 192.376 430.964
422 0 81.168 11.6056 942 61.8843 191.821 430.841
423 1 45.0369 9.85859 444 62.7342 191.68 446.3
424 0 47.1125 10.0186 472 62.2097 191.835 449.068
425 0 46.0564 10.2483 472 62.5297 191.854 447.278
426 0 49.0386 10.9913 539 61.7384 191.846 446.777
427 0 50.1048 10.6577 534 61.6592 192.309 446.251
428 0 53.0798 12.4906 663 59.8658 192.452 444.336
429 0 53.1824 11.9024 633 61.654 192.555 443.204
430 0 56.1573 11.4856 645 61.8899 192.312 441.746
431 0 58.1456 12.4859 726 60.2466 191.982 443.311
432 0 58.1727 12.4113 722 61.6454 191.821 439.877
433 0 61.1732 11.8516 725 62.16 191.524 442.119
434 0 61.1857 10.5417 645 64.907 191.254 439.437
435 0 64.0966 12.3096 789 62.4829 191.43 440.125
436 0 67.2532 12.3117 828 62.3213 191.566 439.325
437 0 69.1753 13.3718 925 61.2022 191.874 436.681
438 0 67.2076 11.5314 775 65.2942 192.143 433.79
439 0 70.1165 11.8089 828 64.4372 191.733 435.814
440 0 74.1576 12.824 951 63.0904 191.861 434.249
441 0 77.2154 12.0183 928 64.0075 192.288 435.019
442 0 78.1268 13.9389 1089 62.3012 192.028 431.803
443 1 41.1184 10.944 450 62.7822 192.747 452.682
444 0 42.1132 10.2581 432 63.8241 192.475 451.745
445 0 42.181 11.4981 485 63.4619 192.27 447.911
446 0 44.1539 11.6864 516 63.1453 192.242 448.428
447 0 47.16 10.1357 478 63.7678 192.287 450.421
448 0 49.1526 11.1286 547 63.2962 191.925 446.938
449 0 49.1576 10.4765 515 64.6388 191.697 447.367
450 0 49.1075 10.3243 507 65.7318 191.838 446.98
451 0 51.0859 10.864 555 64.7766 192.121 446.694
452 0 53.1659 11.4359 608 64.4243 191.832 443.377
453 0 56.1503 11.7898 662 63.1752 192.257 445.124
454 0 58.1878 11.6691 679 63.7172 192.359 443.152
455 0 58.1721 11.3628 661 63.9123 192.328 442.911
456 0 61.2005 11.9443 731 63.1628 191.447 440.96
457 0 62.1598 11.9691 744 64.0766 191.468 439.88
458 0 63.1246 13.9724 882 61.7086 190.912 437.522
459 0 67.1606 12.5371 842 62.8515 190.833 440.292
460 0 69.166 13.5616 938 61.6876 191.205 438.77
461 0 70.1225 11.594 813 65.0074 191.188 435.956
462 0 73.122 11.6381 851 65.282 191.109 434.317
463 0 74.1062 13.6831 1014 63.289 191.716 432.189
464 1 41.1366 7.90051 325 67.8708 191.868 450
465 0 43.1882 9.72487 420 66.1167 191.769 449.088
466 0 44.1207 9.29269 410 67.2634 192.42 449.38
467 0 45.0993 11.9292 538 65.6896 191.814 446.565
468 0 49.0965 11.4468 562 64.8203 191.815 446.523
469 0 51.0864 12.332 630 63.1841 191.995 446.884
470 0 51.2358 12.8036 656 63.2591 191.718 445.578
471 1 95.1293 12.0257 1144 67.299 191.765 421.871
472 1 54.0618 11.5238 623 65.549 191.663 444.14
473 0 55.2914 11.9006 658 65.2994 191.451 441.269
474 0 56.1609 10.826 608 66.3503 191.235 443.179
475 0 58.0533 11.6789 678 64.7493 190.847 443.667
476 0 61.0735 12.4113 758 64.2203 191.198 441.858
477 0 62.2582 13.7171 854 62.4461 190.89 442.378
478 0 62.231 13.1446 818 63.5733 190.377 440.537
479 0 63.1644 12.3804 782 65.5767 190.882 438.668
480 0 65.0768 13.7069 892 63.9204 191.169 436.279
481 0 67.1456 12.1229 814 65.9115 190.568 433.224
482 0 70.0735 13.0434 914 64.5263 190.685 435.296
483 0 71.164 12.6047 897 65.2074 191.068 435.517
484 0 72.1028 12.4544 898 65.2528 191.19 434.658
485 0 74.2086 12.5457 931 65.5295 190.924 432.605
486 0 77.1362 14.3901 1110 63.0414 191.877 431.476
487 1 41.1027 9.09915 374 68.0749 191.334 446.35
488 0 43.1803 9.40244 406 66.9631 191.547 447.741
489 0 47.1074 12.8642 606 62.3927 191.512 447.389
490 0 49.0485 11.9066 584 64.2277 191.884 445.361
491 0 48.086 11.7082 563 64.9272 191.719 445.657
492 0 50.0545 11.7672 589 64.7521 191.569 444.542
493 0 50.2176 12.3463 620 64.9226 191.568 444.266
494 0 51.2677 11.1181 570 66.4105 191.682 444.496
495 0 57.1292 12.603 720 62.9403 191.057 444.268
496 0 57.248 12.6817 726 63.5565 191.183 442.966
497 0 59.224 13.508 800 62.3563 191.264 442.574
498 0 61.1886 14.5779 892 61.2623 191.595 442.686
499 0 61.2161 13.2318 810 63.5605 191.51 441.138
500 0 62.2466 12.2095 760 64.5763 191.507 441.9
501 0 64.1455 12.0196 771 64.4643 191.122 441.92
502 0 69.117 14.7431 1019 60.2934 191.718 442.593
503 0 70.0808 12.4 869 63.5754 191.392 440.129
504 0 70.1168 11.1671 783 66.2299 190.957 436.672
505 0 73.2505 12.191 893 63.9485 190.545 441.627
506 0 75.1543 11.9088 895 64.6559 190.848 439.964
507 0 80.1225 13.2672 1063 62.7291 191.108 438.926
508 1 44.0553 10.6684 470 64.3043 191.387 455.915
509 0 47.223 12.4516 588 61.8878 191.383 454.634
510 0 49.1053 12.5037 614 62.0733 191.275 454.57
511 0 47.1149 13.2654 625 61.848 191.229 452.005
512 0 49.0672 13.1249 644 61.5745 191.317 454.065
513 0 51.1043 13.9323 712 60.7008 190.468 452.385
514 0 53.0361 12.4443 660 63.5076 190.436 450.342
515 0 53.3263 11.0452 589 65.3039 190.626 451.716
516 0 55.2538 12.4516 688 63.5945 190.781 452.651
517 0 55.0607 11.4964 633 66.7583 190.39 449.526
518 0 56.0345 10.4222 584 69.1164 191.264 447.522
519 0 61.2195 12.4143 760 65.3987 191.367 448.413
520 0 64.2597 12.9319 831 64.6125 191.351 447.448
521 0 65.1588 12.5693 819 65.2613 191.137 446.535
522 0 67.0746 13.239 888 65.152 190.858 446.223
523 0 66.0875 11.1973 740 68.4986 190.865 445.946
524 0 70.1622 12.4996 877 66.4515 189.738 444.387
525 0 72.1096 13.5072 974 65.8994 189.186 445.761
526 0 74.1604 13.727 1018 65.7259 189.543 443.141
527 0 80.1038 13.6198 1091 64.7938 190.066 446.445
528 0 79.1057 12.0851 956 67.9236 189.394 444.878
529 0 83.1989 12.2478 1019 67.5996 189.6 446.942
530 0 84.1959 13.1004 1103 67.553 190.306 446.305
531 0 87.1651 13.572 1183 67.0254 190.116 448.16
532 0 90.176 13.6844 1234 67.5324 190.796 445.97
533 0 91.1373 11.8503 1080 70.5019 190.774 450.101
534 1 50.1187 9.63712 483 69.3458 191.176 471.631
535 0 51.0701 12.3752 632 67.3718 191.182 468.193
536 0 53.0808 11.4354 607 68.0923 191.11 469.672
537 0 55.0799 10.6936 589 69.8421 191.216 466.582
538 0 57.0859 11.3163 646 68.2399 190.7 468.193
539 0 58.0814 12.0693 701 68.7889 190.66 464.924
540 0 61.1874 11.7671 720 68.6528 190.428 465.008
541 0 63.0599 13.0828 825 67.24 190.379 462.627
542 0 64.1139 11.2768 723 69.3444 189.819 463.754
543 0 67.1128 10.7878 724 69.6961 189.961 463.174
544 0 69.1084 11.6628 806 69.4603 189.995 459.533
545 0 70.0255 11.0817 776 70.3608 190.071 457.644
546 0 71.042 11.7114 832 70.2933 190.362 454.863
547 0 75.107 11.7166 880 69.3659 190.382 456.665
548 0 80.2404 13.5468 1087 66.7323 190.467 453.247
549 0 81.1131 12.4641 1011 68.5134 190.209 452.543
550 0 85.1675 11.9294 1016 68.8642 191.097 451.518
551 0 86.1707 12.6261 1088 68.3998 190.485 450.279
552 0 89.128 12.0164 1071 69.6377 190.272 449.522
553 0 93.2825 11.7278 1094 70.0951 190.697 445.48
554 0 94.1592 12.3514 1163 69.9295 191.01 445.648
555 1 58.0822 10.0031 581 69.6713 190.444 464.928
556 0 61.2143 10.9942 673 69.6612 190.377 461.816
557 0 62.1325 11.2663 700 69.4271 190.551 460.827
558 0 63.1438 11.3709 718 69.2632 190.253 461.063
559 0 67.112 11.5181 773 68.7063 190.441 459.846
560 0 69.1597 12.1458 840 67.956 191.052 459.164
561 0 71.1327 11.7949 839 68.3099 190.839 459.352
562 0 72.0891 11.0419 796 69.7349 190.992 457.799
563 0 74.0748 12.2714 909 67.9912 191.131 458.954
564 0 74.1572 12.6488 938 68.4019 191.194 455.182
565 0 77.085 11.7403 905 69.0751 191.097 456.766
566 0 82.1433 14.0243 1152 65.4106 190.794 453.722
567 0 82.2809 11.7038 963 68.7736 191.179 453.631
568 0 87.1987 13.7846 1202 66.2013 190.927 449.494
569 0 87.1103 11.7208 1021 69.4055 190.459 449.369
570 0 93.188 12.5231 1167 67.168 190.494 450.098
571 0 94.2464 11.5654 1090 69.6633 190.274 445.586
572 0 100.206 12.8436 1287 66.6985 190.024 444.838
573 0 102.198 12.2605 1253 68.5491 189.762 442.331
574 1 61.066 10.1366 619 68.2811 190.121 463.997
575 0 62.1409 10.4118 647 69.4575 190.544 459.383
576 0 66.0477 11.8551 783 66.8812 189.467 458.359
577 0 67.0588 11.8254 793 66.6129 190.048 459.256
578 0 69.1433 12.5681 869 65.7468 190.189 457.555
579 0 69.0452 10.5873 731 69.4665 190.174 452.802
580 0 75.1182 11.7016 879 66.5222 190.132 455.544
581 0 74.1335 10.7374 796 68.8128 190.107 453.092
582 0 77.0716 12.1186 934 66.8769 190.603 452.198
583 0 80.1229 11.4075 914 67.5438 190.641 451.488
584 0 82.1004 11.1936 919 67.6202 190.882 450.348
585 0 85.1026 12.2088 1039 66.0799 191.281 448.545
586 0 88.1272 13.0493 1150 64.5452 191.162 449.137
587 0 91.1532 12.5722 1146 65.6501 191.048 444.406
588 0 92.2014 12.2015 1125 66.4427 191.081 443.358
589 0 95.1745 11.5157 1096 66.8951 191.023 443.585
590 0 99.1412 13.7481 1363 64.1753 191.431 442.029
591 0 101.15 12.7633 1291 65.952 191.321 439.445
592 0 103.2 10.7752 1112 68.8201 191.218 438.746
593 0 109.22 12.1864 1331 66.6161 191.157 436.021
594 0 111.241 13.0797 1455 66.1979 191.575 432.783
595 0 112.281 11.6226 1305 68.6352 191.175 431.872
596 1 62.0589 11.4085 708 65.613 191.222 457.975
597 0 64.0407 11.8518 759 65.137 190.931 457.011
598 0 64.0373 12.7113 814 64.8575 190.925 456.281
599 0 65.0848 11.462 746 66.8271 190.902 456.756
600 0 68.0534 12.7841 870 64.5425 191.022 453.372
601 0 71.0674 11.7635 836 65.6471 191.08 452.366
602 0 73.1128 12.5833 920 64.2576 190.657 452.757
603 0 75.0399 10.6477 799 66.1164 190.239 454.279
604 0 76.1555 12.9603 987 63.6413 191.075 448.453
605 0 78.1666 12.2303 956 64.9592 189.959 449.406
606 0 82.1387 13.4407 1104 63.6132 190.119 445.917
607 0 86.2032 13.3638 1152 63.1172 190.306 446.184
608 0 87.3447 12.8457 1122 64.3761 189.899 443.017
609 0 90.2735 13.6585 1233 62.4477 189.912 445.105
610 0 94.2966 12.5243 1181 63.9263 189.793 442.61
611 0 97.276 11.7809 1146 64.9703 189.542 439.726
612 0 100.351 12.8748 1292 63.281 190.305 437.954
613 0 105.262 13.4046 1411 62.5074 189.758 436.656
614 1 53.1404 10.0112 532 65.485 189.855 464.449
615 0 55.1905 11.5237 636 62.25 189.967 465.403
616 0 56.0918 11.392 639 64.3865 189.839 462.521
617 0 57.1989 11.0317 631 64.0444 189.857 463.935
618 0 60.1428 11.4893 691 63.191 189.978 463.693
619 0 61.1376 10.7135 655 63.4611 189.928 464.846
620 0 61.1896 10.8025 661 64.8442 189.717 463.752
621 0 63.1123 11.0913 700 64.3843 189.856 461.437
622 0 64.0621 11.2235 719 64.2726 189.875 463.175
623 0 65.0862 10.924 711 65.7468 190.315 458.059
624 0 68.0504 13.299 905 62.0939 190.023 458.115
625 0 71.1529 12.4521 886 63.3047 190.214 457.638
626 0 71.163 10.2581 730 66.1397 190.074 458.063
627 0 75.1013 11.7042 879 64.5427 189.939 455.901
628 0 77.1087 12.4629 961 63.8481 189.682 455.35
629 0 80.0797 12.6749 1015 62.9911 190.351 457.5
630 0 83.1863 12.8386 1068 63.5009 189.959 450.901
631 0 85.1281 13.0392 1110 63.4676 189.769 452.699
632 0 86.3245 12.8585 1110 64.5126 189.252 448.975
633 0 89.1815 12.2447 1092 65.0266 189.684 452.704
634 0 94.1937 13.8969 1309 63.3422 189.5 448.093
635 0 96.1701 13.4345 1292 63.9698 189.433 448.243
636 0 99.2683 12.1993 1211 66.1594 189.837 444.151
637 1 50.0543 10.5685 529 67.5406 189.187 468.115
638 0 50.1082 11.4752 575 67.153 189.43 466.903
639 0 54.0376 12.3248 666 65.7703 189.422 466.827
640 0 55.071 11.7666 648 66.8796 189.971 465.383
641 0 58.1029 14.2334 827 62.7037 189.936 464.463
642 0 59.0699 11.8673 701 66.3367 189.96 464.76
643 0 61.0716 14.6877 897 62.1784 189.776 463.269
644 0 61.0543 12.3824 756 65.5595 189.874 465.517
645 0 62.0763 11.9853 744 66.4005 189.528 463.62
646 0 66.0283 11.6617 770 66.1221 189.994 465.569
647 0 65.0289 12.4714 811 66.5277 191.104 461.983
648 0 67.0649 11.6753 783 67.788 190.801 460.648
649 0 70.0669 12.3168 863 66.7404 190.871 458.915
650 0 73.0781 12.5482 917 66.3413 190.677 458.796
651 0 76.1179 12.3098 937 66.6596 190.79 457.201
652 0 78.0588 13.003 1015 65.5576 190.148 456.969
653 1 37.0344 9.39666 348 70.1695 190.305 474.414
654 0 41.05 11.0597 454 67.5947 190.747 473.425
655 0 44.0129 9.65625 425 68.5506 190.113 475.249
656 0 43.0519 10.4293 449 69.6169 190.503 473.773
657 0 45.1426 13.2691 599 65.9199 189.893 472.053
658 0 45.0093 11.5087 518 69.2394 190.355 470.583
659 0 48.0115 12.6011 605 67.9306 189.645 468.107
660 0 49.0319 12.0534 591 69.2267 189.225 468.413
661 0 51.0967 12.995 664 67.4157 189.122 467.788
662 0 49.0475 11.0505 542 72.3506 189.218 466.701
663 0 53.0487 12.8373 681 68.2937 189.178 466.855
664 0 52.0264 12.1285 631 70.7607 189.319 466.453
665 0 54.111 12.77 691 69.2214 189.318 466.223
666 0 56.0562 13.0762 733 69.5512 189.918 465.965
667 0 57.0374 12.5356 715 70.8154 190.207 464.319
668 0 58.0713 13.0874 760 70.2039 189.942 465.401
669 0 62.1922 12.59 783 69.5096 189.696 465.077
670 0 63.1386 13.0665 825 70.1273 189.627 459.784
671 0 65.0409 12.6382 822 70.4891 189.877 459.725
672 0 67.0923 14.9048 1000 67.198 189.873 459.128
673 0 69.0478 13.44 928 69.4494 189.848 456.706
674 0 71.088 13.2793 944 69.9407 189.868 457.226
675 1 34.0113 9.93786 338 74.6716 189.973 472.355
676 0 38.0143 10.3645 394 72.4442 190.223 472.32
677 0 39.0389 12.2954 480 69.3792 190.169 472.517
678 0 41.0369 10.4784 430 71.4674 189.663 472.995
679 0 41.0525 11.1564 458 72.262 190.162 469.572
680 0 43.1189 11.4103 492 71.1057 189.931 471.801
681 0 43.0616 11.8435 510 71.8627 189.778 468.316
682 0 45.0602 10.8522 489 72.4806 190.229 469.994
683 0 49.046 11.7033 574 70.7003 189.8 468.455
684 0 49.0935 12.0179 590 70.8644 190.625 468.025
685 0 51.03 12.0909 617 70.5284 190.258 467.525
686 0 53.1178 12.2369 650 70.2585 189.835 465.538
687 0 53.1415 12.0621 641 70.7363 189.711 467.306
688 0 53.1117 11.843 629 71.814 189.722 464.612
689 0 56.103 13.8495 777 68.2741 189.865 462.798
690 0 58.0599 11.9876 696 70.5647 189.717 462.397
691 0 60.0624 12.3871 744 69.7876 189.335 462.391
692 0 60.0214 11.9457 717 70.6583 189.505 461.803
693 0 61.1095 10.9967 672 71.5565 189.318 462.305
694 0 65.1159 13.1612 857 67.727 189.303 460.796
695 0 67.0393 12.1421 814 69.769 189.995 457.69
696 1 34.0842 10.7088 365 70.2795 190.332 473.46
697 0 37.0391 10.5834 392 69.8393 190.372 472.867
698 0 37.0239 9.45336 350 71.3743 190.631 474.171
699 0 35.0327 8.76324 307 74.1922 190.336 472.15
700 0 39.0587 10.3946 406 70.1576 189.916 471.638
701 0 42.1214 12.2503 516 66.6957 189.752 470.55
702 0 43.0814 12.5576 541 67.1442 189.037 470.368
703 0 41.0479 11.5718 475 70.2716 189.867 468.813
704 0 45.0604 13.0269 587 66.661 189.683 468.102
705 0 45.0663 11.6051 523 69.3098 190.017 467.298
706 0 46.0681 11.8303 545 69.811 190.506 466.631
707 0 49.0146 13.3226 653 66.7198 190.642 464.968
708 0 47.0405 11.2669 530 70.9528 190.787 464.011
709 0 52.0747 11.9252 621 68.9388 190.802 462.639
710 0 54.1303 11.2691 610 69.6557 190.613 461.889
711 0 52.0356 11.4729 597 69.1022 191.166 460.705
712 0 57.071 12.318 703 66.2304 190.991 459.267
713 0 57.1562 10.795 617 68.8558 191.874 460.37
714 0 60.1354 11.6404 700 67.0871 191.473 458.439
715 0 61.2355 11.8559 726 66.8127 191.095 457.472
716 0 62.1763 11.4352 711 67.4444 191.397 455.143
717 0 65.1634 12.062 786 65.4377 190.606 458.13
718 0 66.2176 10.541 698 67.8696 190.524 456.636
719 0 68.2463 11.6343 794 67.495 189.827 453.693
720 0 71.096 11.2243 798 67.7218 189.986 453.132
721 0 73.2355 10.8964 798 67.8158 190.833 452.233
722 1 38.1184 9.89024 377 67.8276 190.268 470.578
723 0 41.0906 10.4647 430 67.3 190.365 469.065
724 0 44.0479 9.94371 438 66.8059 190.726 468.479
725 0 45.2164 10.3945 470 66.7638 190.049 467.145
726 0 44.1268 10.7418 474 67.789 190.228 466.542
727 0 48.1306 10.9494 527 67.3378 190.507 464.256
728 0 49.0794 11.2471 552 66.9312 189.757 462.54
729 0 52.1132 11.8588 618 65.5162 189.841 462.458
730 0 54.1405 11.7841 638 65.0862 189.893 461.715
731 0 56.1565 11.4323 642 65.7368 189.559 461.927
732 0 57.1524 11.3906 651 66.5284 189.873 459.438
733 0 59.0902 11.474 678 65.8717 190.54 460.087
734 0 60.0536 12.4889 750 65.1533 190.936 457.021
735 0 62.1359 11.4748 713 66.108 190.868 458.874
736 0 63.0487 12.1018 763 65.8231 190.894 455.316
737 0 65.0392 12.3618 804 64.4925 191.328 456.529
738 0 69.094 13.2428 915 62.682 191.011 454.922
739 0 67.0616 10.7215 719 66.7524 190.982 454.389
740 0 70.0629 12.8171 898 64.1971 191.125 452.764
741 0 74.2799 11.5778 860 66.0767 190.997 451.063
742 0 76.1161 11.1015 845 66.7314 191.189 448.612
743 1 41.1156 9.70435 399 68.5915 191.013 466.446
744 0 42.1177 9.66339 407 67.0344 191.133 469.059
745 0 44.0774 9.09763 401 69.5885 191.252 467.092
746 0 47.1443 10.7118 505 66.6238 191.168 467.099
747 0 48.1048 9.70797 467 69.4968 191.118 464.627
748 0 50.0979 11.8568 594 66.2811 191.5 464.197
749 0 50.0802 11.7012 586 66.9676 191.497 462.792
750 0 54.1695 12.1471 658 65.7736 191.202 462.439
751 0 53.0741 10.2875 546 70.0018 191.059 459.429
752 0 55.2045 11.3034 624 68.2596 191.55 460.228
753 0 56.1049 11.9954 673 67.581 191.306 459.79
754 0 58.2085 11.9055 693 67.7691 191.126 458.983
755 0 59.159 11.1395 659 69.1578 190.672 458.596
756 0 62.1477 12.8243 797 66.7039 190.738 456.506
757 0 66.0872 13.2401 875 65.5109 191.134 456.566
758 0 67.2685 11.9521 804 68.4925 190.78 453.067
759 0 69.1094 13.2688 917 66.6336 191.122 453.125
760 0 71.1653 11.4944 818 68.9535 191.384 454.565
761 0 75.1088 12.8347 964 66.6878 191.48 454.116
762 0 75.1419 12.2036 917 68.6685 190.881 451.713
763 0 77.2376 14.0864 1088 65.0377 190.449 448.25
764 0 80.1077 12.6455 1013 66.6269 190.235 449.301
765 0 82.3 12.5395 1032 66.7074 190.226 451.202
766 0 84.0858 13.3078 1119 66.5264 191.074 447.855
767 0 89.1949 13.5322 1207 64.6089 191.37 449.047
768 0 90.1914 11.8304 1067 68.1368 190.958 447.093
769 0 94.131 12.472 1174 66.7206 190.589 445.463
770 0 97.1392 12.6519 1229 66.5151 191.216 443.255
771 0 99.1195 14.4169 1429 64.0392 190.987 442.399
772 1 53.1002 11.5442 613 67.5563 190.811 461.768
773 0 58.1223 11.407 663 66.0483 190.359 462.397
774 0 56.0516 10.9899 616 68.1039 190.774 462.052
775 0 59.1042 11.1667 660 67.5758 191.323 460.706
776 0 63.051 12.6088 795 64.9296 191.313 460.53
777 0 64.0387 11.0714 709 67.5331 190.939 456.956
778 0 68.1425 11.5933 790 65.9456 191.32 457.566
779 0 69.1097 11.7639 813 65.5055 191.611 456.932
780 0 70.0461 11.3354 794 66.7179 191.807 454.689
781 0 73.0726 11.427 835 65.4275 191.686 454.937
782 0 75.0513 12.8179 962 64.5572 191.232 450.409
783 0 78.0611 12.5799 982 64.4124 190.956 449.331
784 0 81.1288 10.6128 861 66.3484 191.048 449.725
785 0 84.0371 12.1018 1017 64.7109 190.752 448.346
786 0 84.2026 12.5887 1060 64.9453 190.377 445.232
787 0 91.1099 12.5014 1139 64.568 190.493 444.365
788 0 90.0782 11.046 995 67.4794 189.959 441.637
789 0 95.0495 11.8885 1130 65.8761 190.568 441.63
790 1 51.0872 10.3744 530 63.0679 190.877 465.515
791 0 53.0579 11.61 616 62.9367 190.49 460.406
792 0 53.0127 10.4692 555 65.3405 190.24 460.175
793 0 55.0806 10.6753 588 64.5476 190.105 459.588
794 0 57.057 10.8839 621 64.4155 191.11 459.548
795 0 60.1299 11.0927 667 64.4093 190.936 457.703
796 0 61.0381 12.5332 765 62.8641 191.149 456.359
797 0 59.0287 11.1302 657 64.5632 191.266 454.355
798 0 65.0465 12.0529 784 62.6199 190.602 455.529
799 0 66.047 12.6425 835 62.291 191.228 455.267
800 0 69.0743 11.7555 812 63.4865 191.676 457.799
801 0 69.1648 11.9425 826 64.8426 191.355 454.282
802 0 71.1137 11.7136 833 65.3493 191.533 454.701
803 0 72.1358 10.6189 766 67.7768 191.247 453.668
804 0 76.0325 12.2842 934 64.5193 190.604 453.096
805 0 80.0797 13.062 1046 63.4063 190.13 449.67
806 0 81.0749 12.951 1050 64.6476 190.282 447.627
807 0 85.1194 13.2285 1126 64.5231 190.816 446.155
808 0 88.082 11.7958 1039 66.5669 190.956 446.807
809 0 89.1334 12.2289 1090 67.044 191.237 444.48
810 1 50.0363 11.4117 571 66.9422 191.294 464.124
811 0 53.0162 11.1475 591 67.0186 191.139 463.343
812 0 53.0633 10.5346 559 68.3775 190.698 462.388
813 0 56.0214 10.3532 580 68.5569 190.771 461.233
814 0 57.077 10.5296 601 69.8319 191.571 459.869
815 0 59.0277 11.1643 659 67.8786 191.164 459.206
816 0 61.0571 12.693 775 66.3006 191.182 457.622
817 0 61.0646 11.2668 688 67.6439 191.366 457.052
818 0 66.0254 11.9802 791 65.8445 191.402 457.04
819 0 68.0477 11.9622 814 65.4668 191.398 455.851
820 0 70.0999 11.2839 791 65.5954 191.584 455.807
821 0 73.0936 11.6152 849 65.0389 191.557 454.999
822 0 74.1091 11.4966 852 65.9308 191.413 452.702
823 0 77.0387 12.1238 934 65.0942 191.12 450.465
824 0 80.0424 11.7063 937 65.2519 191.601 449.599
825 0 80.0719 11.2774 903 66.5249 191.061 446.455
826 0 85.1073 12.3021 1047 65.0831 191.238 444.305
827 0 90.1506 14.4203 1300 61.2885 190.733 447.324
828 0 91.192 11.5909 1057 66.4711 190.737 444.253
829 0 93.225 11.424 1065 67.4582 190.854 442.808
830 1 45.0711 8.98581 405 69.2494 192.116 465.546
831 0 51.0432 10.7752 550 65.4873 191.938 466.253
832 0 51.091 11.6067 593 65.5042 191.818 463.543
833 0 52.089 11.154 581 66.5921 192.114 464.723
834 0 55.0685 11.749 647 66.0634 191.929 462.368
835 0 55.1364 12.1335 669 66.287 191.471 461.114
836 0 56.0923 10.9462 614 67.6075 191.179 459.769
837 0 58.11 11.6331 676 66.2278 190.689 459.133
838 0 63.0829 12.3013 776 64.0825 191.5 458.649
839 0 64.0871 11.4688 735 65.6912 191.219 457.713
840 0 64.0719 11.5807 742 65.3491 191.562 458.376
841 0 66.0545 10.6579 704 67.1761 191.43 456.226
842 0 69.0406 12.384 855 64.7766 191.105 456.754
843 0 71.0567 11.1038 789 66.801 190.854 454.853
844 0 75.0852 12.0796 907 65.4366 190.393 451.37
845 0 76.1198 11.2192 854 66.1101 190.913 451.685
846 0 79.0873 11.6454 921 65.5505 191.307 450.53
847 0 81.0825 11.4821 931 65.8754 190.839 449.753
848 0 83.0832 11.6149 965 66.714 190.415 445.244
849 0 85.0956 11.9043 1013 65.9447 191.263 445.429
850 0 91.0911 11.3952 1038 66.3786 190.817 444.633
851 0 93.1586 12.1728 1134 66.4365 190.624 441.802
852 0 95.1616 10.8657 1034 68.5948 190.925 439.231
853 1 54.0292 8.93961 483 67.4265 191.778 462.137
854 0 54.0803 10.4844 567 66.4621 191.487 459.399
855 0 56.0334 9.83342 551 66.078 191.726 461.354
856 0 58.0535 10.5592 613 65.6656 191.949 459.778
857 0 61.0412 10.2226 624 65.117 191.724 456.38
858 0 64.043 11.7421 752 62.7713 191.259 455.59
859 0 63.1206 10.1393 640 65.0578 191.844 455.772
860 0 65.1198 10.2887 670 65.309 191.969 453.67
861 0 70.1602 11.8586 832 62.4579 191.627 450.895
862 0 72.0572 12.2542 883 61.8618 191.51 452.725
863 0 73.0795 10.2491 749 64.4419 190.712 451.223
864 0 75.1233 11.2748 847 63.8689 191.043 451.555
865 0 79.0832 12.9231 1022 60.9305 191.453 448.586
866 0 81.1424 11.6462 945 62.9079 191.295 448.608
867 0 83.1046 11.9729 995 62.9216 190.645 445.65
868 0 84.1889 11.5455 972 64.0916 190.568 443.082
869 0 87.2204 10.8346 945 65.1545 190.542 443.145
870 0 91.1362 12.388 1129 63.4225 190.608 438.835
871 0 96.3187 11.9707 1153 63.961 190.434 438.722
872 0 98.1656 11.4908 1128 64.2952 190.145 439.729
873 1 51.0198 9.52571 486 64.2202 190.63 460.763
874 0 56.0779 11.5732 649 61.1325 190.615 460.199
875 0 56.1181 11.7075 657 62.4977 190.187 458.097
876 0 59.068 11.4444 676 62.2929 190.425 458.572
877 0 60.0464 12.5237 752 60.9215 190.67 456.195
878 0 61.1591 10.0721 616 63.2045 190.544 458.549
879 0 61.0259 10.1924 622 64.5836 190.622 454.418
880 0 65.0688 12.1103 788 61.231 190.901 455.004
881 0 66.0762 11.4867 759 62.4559 190.794 453.864
882 0 70.0627 10.6048 743 62.8506 191.019 452.829
883 0 71.0525 12.7652 907 60.6736 191.023 453.093
884 0 73.1897 12.3651 905 60.9094 191.269 452.4
885 0 74.1427 11.6802 866 62.4815 191.234 450.443
886 0 78.1627 11.3097 884 62.6131 190.535 451.214
887 0 80.1033 12.5338 1004 62.1882 190.634 447.77
888 0 83.1152 12.4646 1036 62.6081 190.493 445.918
889 0 83.2947 10.6369 886 66.3138 191.021 443.817
890 0 88.1873 13.2332 1167 62.8201 190.854 442.228
891 1 45.136 7.99805 361 69.0693 191.474 462.08
892 0 53.0279 10.1456 538 64.2379 191.314 462.074
893 0 55.0998 11.3068 623 62.7287 192.016 461.462
894 0 57.1138 11.3283 647 62.6491 192.053 460.603
895 0 59.0619 11.7673 695 59.7971 191.269 460.39
896 0 60.0441 11.3417 681 61.37 191.332 457.463
897 0 61.0546 11.3996 696 61.852 191.53 454.925
898 0 64.0643 11.426 732 61.1776 191.791 456.954
899 0 64.0319 11.0414 707 62.1839 191.917 453.54
900 0 68.0631 11.4453 779 61.2221 191.525 455.822
901 0 67.0489 10.813 725 62.52 191.879 454.072
902 0 72.0393 12.3127 887 59.8005 191.551 454.591
903 0 75.0547 12.4709 936 60.1624 192.037 451.875
904 0 77.1463 11.2384 867 61.9896 191.55 452.21
905 0 78.0414 11.417 891 63.3861 191.448 447.217
906 0 84.1864 11.4745 966 61.8913 191.183 448.488
907 1 45.0214 8.86245 399 63.3158 190.972 466.764
908 0 46.0518 11.6608 537 60.0838 190.48 467.035
909 0 50.1291 11.7896 591 60.489 191.01 463.428
910 0 50.0696 11.6638 584 61.012 191.058 462.928
911 0 50.1039 10.4184 522 62.887 191.205 463.657
912 0 53.0163 10.4685 555 62.4306 191.22 462.459
913 0 54.0751 10.9662 593 60.6526 191.292 465.506
914 0 55.0612 11.0786 610 62.3115 191.336 459.062
915 0 58.0547 10.938 635 61.9638 190.717 460.249
916 0 60.0271 11.6947 702 61.5556 190.484 457.805
917 0 62.1101 12.3168 765 60.1346 190.708 458.207
918 0 64.028 10.9015 698 62.1862 191.221 456.539
919 0 64.047 10.5235 674 63.0074 190.859 455.172
920 0 69.0677 11.9593 826 60.6513 190.511 455.048
921 0 70.0401 12.5928 882 60.5794 190.898 453.618
922 0 74.0795 12.0276 891 60.6263 190.66 454.956
923 0 72.0965 10.9021 786 62.4695 190.812 450.863
924 0 79.0692 12.9633 1025 59.602 191.078 450.31
925 0 82.0901 11.999 985 60.5178 191.053 451.196
926 0 83.0897 12.2398 1017 59.9813 190.897 450.776
927 1 44.0988 10.5899 467 61.1006 189.919 466.854
928 0 45.06 9.56502 431 62.5151 190.153 465.752
929 0 46.1087 10.7138 494 60.915 189.909 465.911
930 0 49.0816 11.3281 556 59.554 189.489 465.871
931 0 50.0487 9.37088 469 62.1258 189.855 465.548
932 0 51.0487 10.3235 527 60.6414 190.252 465.192
933 0 54.0496 10.1388 548 60.6953 190.73 463.004
934 0 56.13 11.5446 648 59.7407 190.867 460.84
935 0 56.0746 10.914 612 61.2745 190.271 459.632
936 0 58.1983 11.1515 649 60.5162 190.225 460.364
937 0 61.0581 10.9732 670 61.0164 190.224 458.49
938 0 64.1068 12.8691 825 58.3358 190.362 456.295
939 0 65.0538 11.821 769 60.052 190.463 455.419
940 0 67.0784 10.7039 718 61.2312 190.776 455.352
941 0 71.0824 11.5781 823 60.1616 190.706 453.072
942 0 71.1455 11.1321 792 61.2109 190.732 453.183
943 0 74.0588 10.8832 806 61.3598 190.388 453.431
944 0 78.1552 12.7951 1000 59.575 190.226 451.216
945 0 79.131 12.0307 952 61.3708 190.329 448.284
946 1 39.0327 8.1214 317 64.3628 190.079 468.959
947 0 41.0285 10.6268 436 61.2385 189.862 468.2
948 0 42.0508 8.77509 369 63.7615 190.081 468.274
949 0 45.0388 11.8786 535 60.3364 189.774 466.591
950 0 48.0695 11.3794 547 59.9324 189.995 466.881
951 0 49.0395 11.4194 560 59.8179 189.518 464.823
952 0 50.067 11.225 562 60.4644 189.367 465.167
953 0 50.0606 11.6858 585 60.0598 189.521 463.132
954 0 53.04 14.178 752 56.6184 189.707 462.566
955 0 54.0903 12.2573 663 59.0875 189.419 462.211
956 0 54.0343 12.307 665 59.1669 189.478 460.549
957 0 56.0309 10.6548 597 60.6968 189.737 461.168
