time division length width area intensity CMx CMy
0 0 45.1034 11.7508 530 77.5585 877.626 503.853
1 0 47.0585 13.1751 620 75.7258 877.061 500.271
2 0 48.0645 14.4389 694 73.4207 876.749 501.412
3 0 51.1345 13.6894 700 73.6914 876.307 502.969
4 0 51.0422 13.0284 665 74.9368 876.405 500.603
5 0 53.13 12.8176 681 75.1865 876.112 501.178
6 0 54.0419 12.9714 701 74.7746 875.755 500.371
7 0 58.0943 15.1478 880 71.2068 876.01 498.077
8 0 58.0913 13.7714 800 73.0362 875.654 497.156
9 0 59.0934 12.861 760 75.2855 875.478 495.055
10 0 62.1639 14.687 913 71.9288 876.114 493.023
11 0 63.0926 12.7907 807 74.8439 876.233 492.03
12 0 63.1862 14.3544 907 72.9934 876.004 492.809
13 0 67.1537 14.0275 942 72.8981 875.768 491.856
14 0 68.0911 14.1575 964 72.75 875.842 492.578
15 0 72.2062 14.2231 1027 72.0623 875.395 489.154
16 0 74.1276 14.7988 1097 71.8669 876.171 487.717
17 0 77.1436 13.3128 1027 73.1723 875.482 488.486
18 0 79.1556 14.3515 1136 72.2905 875.993 484.96
19 1 38.0824 10.6086 404 70.953 874.953 507.765
20 0 39.1192 12.4236 486 68.8601 874.566 507.134
21 0 39.0609 8.72995 341 74.2815 874.496 505.305
22 0 42.0475 11.8675 499 70.501 874.487 504.204
23 0 42.0689 10.2689 432 72.8356 874.727 503.38
24 0 42.02 11.4231 480 71.4667 874.946 503.363
25 0 46.0736 11.7638 542 70.3506 875.325 503.745
26 0 47.0982 12.1024 570 69.9632 874.528 502.667
27 0 47.0267 12.4185 584 70.3271 874.288 501.646
28 0 48.1113 11.2863 543 70.4586 874.232 503.674
29 0 50.0432 11.53 577 71.182 874.73 501.437
30 0 52.251 11.3873 595 71.5076 874.783 500.716
31 0 52.0234 11.8793 618 71.0696 874.448 500.383
32 0 56.1254 11.2427 631 71.3867 874.756 500.71
33 0 55.0332 10.2302 563 72.6092 876.11 499.307
34 0 59.0528 11.5659 683 70.9868 876.124 497.786
35 0 61.0532 11.3508 693 72.0794 876.294 493.03
36 0 64.0834 10.2211 655 72.7557 875.876 494.966
37 0 63.0565 10.6413 671 72.5604 875.732 493.504
38 0 68.4175 12.2922 841 69.9275 875.602 492.886
39 0 68.4036 9.80942 671 73.4605 875.836 490.55
40 0 74.1961 11.3079 839 70.9046 875.769 489.204
41 0 75.2302 12.7209 957 69.4336 875.716 488.32
42 1 38.0274 10.5976 403 66.6973 875.556 509.241
43 0 39.0585 9.85701 385 68.4234 875.153 506.545
44 0 40.0263 9.96844 399 68.594 874.957 506.917
45 0 43.0621 12.1917 525 65.9848 875.044 505.813
46 0 41.1187 10.6764 439 68.5308 875.51 505.205
47 0 45.1825 10.026 453 68.6004 875.488 504.766
48 0 46.091 9.61141 443 68.8081 875.203 504.619
49 0 46.0546 9.66244 445 68.8652 874.894 503.425
50 0 49.1704 10.4738 515 68.0214 875.076 501.169
51 0 52.1957 10.6714 557 66.6679 875.79 500.587
52 0 54.1295 12.8211 694 63.7161 874.608 499.589
53 0 55.1362 10.991 606 65.8185 874.913 500.457
54 0 54.1915 8.94975 485 69.4763 874.258 496.986
55 0 57.1348 10.939 625 67.136 874.229 496.883
56 0 59.1843 9.64782 571 68.345 874.909 496.921
57 0 61.1281 11.206 685 66.8131 875.587 493.603
58 0 62.1338 10.5579 656 67.9436 875.384 489.823
59 0 66.1373 10.3875 687 67.9199 875.173 490.834
60 0 67.0699 10.4965 704 67.5739 875.058 492.541
61 0 69.2263 9.76507 676 68.284 875.089 488.302
62 0 70.1588 11.5595 811 66.4723 875.316 486.35
63 0 72.0777 11.2656 812 67.2586 875.075 487
64 1 36.0405 7.68579 277 64.9314 874.415 509.339
65 0 38.0919 6.53681 249 66.8273 874.112 505.249
66 0 39.049 9.62894 376 62.9362 874.468 507.662
67 0 41.1309 10.2599 422 62.8626 874.351 504.405
68 0 42.0378 8.53992 359 64.4039 874.37 503.883
69 0 43.1005 5.56838 240 67.6208 873.758 502.854
70 0 41.0746 8.52108 350 64.44 873.509 503.409
71 0 46.1217 8.69438 401 63.5611 873.334 499.426
72 0 45.0436 6.194 279 66.7599 873.434 496.864
73 0 50.0586 9.64869 483 63.4658 873.611 501.553
74 0 49.0761 8.13023 399 65.3333 873.19 496.559
75 0 52.2027 8.54362 446 63.7825 873.713 499.128
76 0 47.0788 6.01119 283 66.6855 873.47 492.604
77 0 55.0622 9.44386 520 62.5385 873.2 494.381
78 0 58.0673 9.40288 546 62.5604 873.625 494.934
79 0 59.058 6.1465 363 65.0634 872.402 493.256
80 0 61.0573 8.02525 490 63.7286 872.41 489.135
81 0 62.1143 8.40386 522 62.9636 873.328 488.138
82 0 64.0844 6.0077 385 65.3974 873.405 485.304
83 0 69.1332 7.46385 516 63.5446 873.329 485.225
84 0 72.1073 8.77858 633 62.1643 873.837 484.147
85 0 76.0957 9.55376 727 61.3122 874.283 484.458
86 1 33.064 6.74449 223 59.7354 874.623 507.942
87 0 39.1098 7.41503 290 59.4138 874.476 506.279
88 0 38.1173 8.57878 327 58.6758 874.294 502.893
89 0 43.1032 7.70245 332 59.1114 874.425 506.154
90 0 43.0477 8.71127 375 58.352 873.84 503.504
91 0 45.1275 10.5479 476 56.4979 873.817 501.979
92 0 47.0894 10.3208 486 56.5658 874.179 504.078
93 0 47.0931 8.96097 422 58.2322 873.486 500.799
94 0 47.0513 9.56402 450 57.5778 873.156 496.698
95 0 51.0782 9.55397 488 58.2152 873.652 499.041
96 0 51.11 8.56976 438 59.0068 873.692 499.409
97 0 52.1217 8.05806 420 59.7667 874.01 496.443
98 0 56.1463 8.26413 464 58.8944 873.918 496.03
99 0 58.1647 9.26679 539 58.6067 873.753 493.698
100 0 61.1176 9.5717 585 59.1556 873.359 493.147
101 0 60.0787 10.8358 651 58.6928 873.868 492.845
102 0 64.211 9.68682 622 59.9775 873.807 491.051
103 0 67.1102 9.59616 644 59.896 873.989 488.177
104 0 68.1346 10.0977 688 59.6817 874.206 490.299
105 0 70.1239 10.1249 710 59.9155 873.513 486.558
106 1 35.0193 9.65181 338 57.9467 873.778 508.837
107 0 36.0504 10.735 387 57.6382 873.85 507.641
108 0 36.0774 10.1726 367 58.6921 873.88 507.038
109 0 36.0509 9.84719 355 59.5606 873.828 508.592
110 0 39.1094 10.5857 414 58.9106 872.848 504.326
111 0 41.1661 10.7127 441 58.5351 873.066 505.218
112 0 42.2109 11.0398 466 59.2897 872.8 504.238
113 0 43.1459 9.75759 421 60.715 872.758 504.665
114 0 44.0786 9.73261 429 60.4592 873.242 505.562
115 0 46.041 9.18746 423 60.8818 873.392 503.454
116 0 45.1012 9.17935 414 61.6715 873.314 500.287
117 0 48.0774 10.0255 482 60.6494 873.647 502.645
118 0 49.0562 8.64315 424 61.7075 873.014 499.413
119 0 54.096 11.1838 605 59.0694 873.383 498.043
120 0 57.1447 11.3221 647 58.2148 872.726 498.522
121 0 56.1104 9.90904 556 60.1583 872.862 495.928
122 0 57.1192 10.1017 577 60.0035 872.539 496.47
123 0 60.1688 11.2683 678 58.2537 872.782 495.972
124 0 64.2254 9.73135 625 60.2864 872.966 496.41
125 0 64.418 12.7759 823 57.243 872.96 494.094
126 0 65.1377 10.6083 691 59.7178 873.658 492.465
127 0 66.2194 10.9333 724 59.3978 873.756 491.949
128 0 68.1207 11.5237 785 58.9363 873.311 492.66
129 0 69.0937 10.8259 748 59.7794 874.059 490.201
130 0 71.153 9.52876 678 61.1681 874.273 488.941
131 0 74.1977 11.4155 847 59.3329 874.434 488.864
132 0 77.1659 8.70851 672 62.0863 874.518 487.161
133 1 38.1501 8.38791 320 61.1781 873.928 507.475
134 0 41.2535 11.7323 484 57.436 874.215 505.32
135 0 45.268 10.5814 479 58.1837 874.2 507.401
136 0 45.194 10.3996 470 58.7489 873.702 504.543
137 0 47.2752 12.1417 574 57.1533 873.915 505.118
138 0 49.0752 12.1446 596 57.5436 874.362 504.733
139 0 49.0505 12.0896 593 58.4503 873.987 502.261
140 0 50.1779 10.7418 539 59.885 873.835 504.599
141 0 52.0937 10.5963 552 60.375 874.216 502.726
142 0 54.3385 11.4284 621 59.6957 874.185 501.359
143 0 56.1546 12.6793 712 58.1362 873.947 503.23
144 0 56.2704 13.5951 765 58.2026 873.809 499.346
145 0 58.2082 12.0773 703 59.7809 873.606 499.393
146 0 59.1438 12.1399 718 59.9373 873.684 499.953
147 0 61.1415 11.9886 733 60.5689 873.076 497.914
148 0 62.2434 12.917 804 59.3408 873.703 497.331
149 0 63.1797 13.2163 835 59.4575 874.055 495.101
150 0 66.166 13.4359 889 59.0731 873.944 494.81
151 0 67.1225 11.993 805 60.4907 873.97 495.589
152 0 70.1864 13.9058 976 58.1455 873.839 491.758
153 0 69.2315 11.9021 824 61.483 874.107 492.005
154 0 73.0679 12.3584 903 60.5692 874.901 490.957
155 0 74.2884 13.5418 1006 59.66 874.986 490.504
156 0 80.2054 13.5278 1085 59.1917 874.958 489.528
157 1 41.0668 10.6169 436 62.4197 873.408 504.422
158 0 48.2115 11.2421 542 59.8653 873.878 508.166
159 0 47.2158 12.9406 611 59.1113 873.902 508.169
160 0 48.0893 12.1857 586 61.1962 874.058 505.811
161 0 50.2554 11.6604 586 62.0119 874.52 504.087
162 0 51.1017 13.1894 674 60.6691 875.139 503.834
163 0 53.137 13.2111 702 60.0598 875.533 504.699
164 0 54.0347 11.9368 645 62.3907 874.887 500.18
165 0 55.3116 12.9991 719 61.2462 875.426 502.203
166 0 56.1812 12.1571 683 62.1816 875.357 501.862
167 0 60.0366 14.4079 865 59.6671 875.775 499.639
168 0 61.1057 12.9775 793 61.633 875.462 498.75
169 0 63.0468 13.4979 851 61.3196 875.7 496.813
170 0 64.0833 12.6554 811 62.217 874.52 497.339
171 0 65.1147 14.3593 935 60.893 875.042 496.374
172 0 69.1431 13.6673 945 61.3058 875.395 495.728
173 0 68.2776 12.083 825 64.1127 874.95 494.332
174 0 68.1016 12.0996 824 64.8422 875.18 493.038
175 0 72.3277 10.5077 760 66.2092 875.545 493.074
176 0 76.1184 13.387 1019 62.8597 874.658 492.016
177 0 77.072 12.2223 942 64.6518 875.215 487.441
178 0 79.1432 13.1028 1037 63.8949 875.238 487.284
179 0 83.1014 13.1767 1095 63.8155 874.551 487.95
180 1 43.1896 12.9661 560 63.4482 874.57 506.707
181 0 41.0223 10.994 451 66.3415 874.455 507.095
182 0 46.0131 11.5837 533 65.8086 874.668 503.43
183 0 45.1147 11.8587 535 65.8467 874.873 506.107
184 0 47.0252 12.5039 588 65.5442 874.69 503.821
185 0 49.0574 14.7175 722 62.9515 875.343 501.688
186 0 49.0385 12.2965 603 65.5854 875.778 502.148
187 0 50.0744 11.7825 590 66.3305 875.354 502.82
188 0 53.1877 13.2173 703 64.4182 875.445 499.549
189 0 57.0549 12.9875 741 64.1646 874.522 500.502
190 0 57.0623 12.8631 734 65.1022 874.323 497.609
191 0 56.0902 14.4232 809 63.7639 874.459 497.027
192 0 60.0685 13.0018 781 64.7939 874.357 497.604
193 0 60.0279 13.4604 808 64.646 875.26 495.806
194 0 63.0855 12.808 808 65.0681 875.228 496.295
195 0 65.1756 12.4893 814 65.4201 875.226 493.441
196 0 66.1262 11.8259 782 66.2097 875.17 493.729
197 0 68.0599 12.3127 838 65.3807 874.896 493.366
198 0 72.216 14.0412 1014 63.2347 874.893 490.975
199 0 74.1389 13.8659 1028 63.4854 874.855 488.977
200 0 73.0522 11.3617 830 66.4265 874.804 488.529
201 0 78.2519 12.038 942 64.6423 875.003 490.731
202 0 82.1251 12.9071 1060 64.267 875.18 484.269
203 1 40.0164 9.9709 399 65.7769 874.749 507.376
204 0 42.069 10.1738 428 65.729 875.164 505.757
205 0 42.0499 11.7955 496 64.123 874.306 506.643
206 0 44.0745 13.8629 611 62.4321 874.37 504.584
207 0 46.0244 10.9072 502 64.5757 873.819 503.876
208 0 48.1527 15.4508 744 59.3481 873.891 502.637
209 0 47.1295 11.7761 555 63.4739 874.541 500.701
210 0 50.1679 11.0031 552 64.2591 874.471 499.69
211 0 52.1583 12.1553 634 62.4353 874.68 500.519
212 0 54.0609 12.6709 685 62.3226 874.39 499.093
213 0 52.4166 13.3164 698 62.1676 874.103 499.248
214 0 54.0851 12.9241 699 62.4521 874.004 496.941
215 0 56.0485 13.185 739 62.2977 874.528 495.346
216 0 56.0721 13.4291 753 62.2377 874.271 495.591
217 0 58.1644 12.1208 705 63.8028 874.692 492.296
218 0 58.0961 11.1023 645 65.5116 875.014 493.719
219 0 59.1225 11.6876 691 65.2417 875.09 491.402
220 0 62.1613 13.7545 855 62.5099 874.598 491.654
221 0 60.1102 10.2312 615 67.5317 874.675 488.337
222 0 67.2105 12.4832 839 64.7366 874.652 490.327
223 0 69.147 13.4785 932 64.0429 874.77 484.155
224 0 71.1339 12.4413 885 65.4655 874.872 483.124
225 0 73.0974 14.3781 1051 63.7355 874.858 483.345
226 0 76.1683 12.8662 980 65.2847 875.26 483.339
227 0 78.1189 11.4697 896 67.1395 874.846 483.037
228 0 79.1374 12.2951 973 66.9692 874.942 482.551
229 1 36.1516 10.2623 371 67.3881 874.197 504.601
230 0 40.0255 9.91868 397 67.6499 873.834 502.015
231 0 39.0953 8.92692 349 69.1433 873.324 499.542
232 0 41.0678 10.8114 444 67.6577 872.921 500.376
233 0 42.0427 9.84713 414 67.3865 873.116 498.3
234 0 43.073 11.3296 488 66.4221 873.709 496.738
235 0 43.0695 9.33374 402 69.2886 874.022 498.729
236 0 44.0994 7.1883 317 71.3312 874.306 498.593
237 0 46.1811 10.4372 482 67.7884 874.589 493.299
238 0 46.0307 9.64573 444 69.705 874.682 495.608
239 0 46.0731 9.46323 436 69.4427 875.271 491.289
240 0 51.0957 7.67188 392 70.6964 874.939 490.334
241 0 52.0976 9.92368 517 68.3733 875.42 487.317
242 0 52.0891 9.98289 520 69.6173 875.19 487.877
243 0 54.1898 10.4817 568 68.8345 875.03 486.539
244 0 57.1258 9.26027 529 70.6295 875.025 488.439
245 1 72.13 13.2677 957 70.9049 875.682 422.78
246 0 74.1329 14.1233 1047 70.1968 875.571 419.309
247 0 77.0638 11.9122 918 73.2702 876.09 418.113
248 0 79.1184 10.3137 816 76.0662 875.961 410.657
249 0 80.0785 11.5761 927 75.1748 875.798 408.232
250 1 39.1366 9.76069 382 71.9869 875.408 465.353
251 0 41.1556 11.5416 475 75.6211 875.598 422.918
252 0 40.0383 9.31609 373 72.8365 875.507 460.271
253 0 48.1671 13.0795 630 64.946 874.49 504.61
254 0 49.3057 11.4997 567 67.7601 874.453 503.845
255 0 51.1774 10.6688 546 68.0696 874.599 505.386
256 0 48.2817 10.9151 527 70.3188 874.203 500.746
257 0 52.1553 12.5203 653 67.8392 874.413 502.002
258 0 53.0936 12.4121 659 67.8437 874.879 502.942
259 0 58.1882 12.8548 748 66.3824 875.311 503.483
260 0 55.1089 13.5368 746 68.4772 875.59 499.062
261 0 59.3215 12.9801 770 67.9169 875.323 500.366
262 0 59.2014 13.3274 789 69.3295 875.123 496.659
263 0 63.4213 14.0331 890 67.3056 874.944 499.563
264 0 65.1753 13.8856 905 68.516 875.306 495.454
265 0 68.2491 13.4947 921 68.9533 875.793 494.266
266 0 69.1555 13.0142 900 70.2578 875.752 493.239
267 0 71.3071 12.4392 887 71.6178 876.463 492.12
268 0 73.2001 12.4863 914 70.4617 876.162 494.265
269 0 75.2865 12.9904 978 70.9192 875.875 490.416
270 0 76.1987 12.8086 976 71.6219 876.184 491.282
271 0 82.1896 12.2035 1003 72.4666 876.342 488.969
272 0 84.3194 14.3976 1214 69.2249 875.598 488.864
273 0 87.2644 13.2586 1157 71.7978 876.039 483.975
274 1 43.2873 11.0194 477 72.0147 876.122 507.671
275 0 43.2903 13.3517 578 70.6263 875.81 505.735
276 0 44.2516 12.8809 570 72.2246 875.963 504.653
277 0 48.3107 12.4403 601 71.8869 875.912 506.16
278 0 48.3388 12.5158 605 72.4132 875.579 505.031
279 0 49.3646 14.1599 699 70.6724 875.468 503.379
280 0 51.1149 11.8165 604 73.0447 875.535 503.816
281 0 52.1418 13.5975 709 71.6403 875.425 501.701
282 0 54.5785 12.2942 671 72.7973 875.447 501.116
283 0 54.367 13.8503 753 71.2523 875.369 499.904
284 0 57.3572 15.4819 888 68.5113 875.652 499.565
285 0 57.2139 12.462 713 73.0813 875.926 499.895
286 0 61.174 14.14 865 70.1723 875.65 497.205
287 0 63.236 12.8882 815 71.854 875.575 495.318
288 0 64.3117 12.8903 829 72.2774 875.283 495.752
289 0 67.4398 13.4045 904 71.1084 875.042 495.479
290 0 67.2313 13.5354 910 71.1901 875.04 492.999
291 0 70.3075 13.9103 978 69.9284 875.596 494.225
292 0 72.278 13.6003 983 70.7955 875.513 491.951
293 0 77.3356 14.4435 1117 68.8326 875.594 493.173
294 0 76.3389 11.6716 891 73.9764 875.511 490.571
295 0 78.2357 12.6285 988 72.8907 875.174 489.119
296 1 36.1745 11.721 424 74.7005 875.375 508.755
297 0 37.1766 11.9699 445 76.227 875.672 505.088
298 0 38.162 9.90515 378 78.2222 875.937 506.209
299 0 41.1295 12.5214 515 73.5495 876.064 507.101
300 0 41.1039 12.6265 519 74.9615 875.058 502.867
301 0 43.1695 12.3004 531 75.855 875.55 504.307
302 0 46.3969 13.3199 618 73.9045 875.426 502.128
303 0 47.2133 13.1743 622 74.1495 875.838 502.846
304 0 48.0832 14.0382 675 72.8163 875.323 503.815
305 0 52.1893 14.1983 741 72.1633 875.447 501.725
306 0 52.1503 14.4774 755 72.1576 875.812 499.407
307 0 52.4239 12.8567 674 75.684 875.743 499.433
308 0 55.2196 13.4191 741 73.7233 876.35 499.884
309 0 57.1269 13.8814 793 73.7251 875.874 497.067
310 0 55.175 13.2306 730 75.9699 876.06 496.362
311 0 61.1163 14.9224 912 71.9518 876.123 498.067
312 0 61.2146 12.8727 788 76.151 876.085 496.213
313 0 63.1767 11.9506 755 77.9841 875.873 495.392
314 0 66.1767 13.328 882 75.8855 876.096 494.467
315 0 67.2085 12.6323 849 76.9411 875.78 492.676
316 0 74.3598 14.3491 1067 74.2887 876.03 488.078
317 0 75.1798 15.0838 1134 74.0194 875.495 486.997
318 0 78.1612 15.6727 1225 72.8571 875.283 484.847
319 0 77.3092 12.8833 996 78.8956 875.448 484.235
320 0 81.2439 12.4563 1012 79.6621 875.508 483.559
321 1 40.0361 10.6404 426 79.2934 875.232 503.446
322 0 41.1312 10.6002 436 79.7569 875.128 502.876
323 0 42.1401 9.89557 417 81.012 875.329 502.508
324 0 49.0623 10.9656 538 77.0279 875.281 502.552
325 0 48.1325 13.0889 630 75.4778 875.39 499.467
326 0 48.0449 10.9689 527 79.5579 874.533 497.306
327 0 52.0867 13.2087 688 74.2297 875.538 499.372
328 0 54.1851 11.8667 643 76.2722 875.523 497.89
329 0 56.1357 12.2204 686 74.8309 876.089 499.777
330 0 58.1148 12.3204 716 75.5279 876.302 496.138
331 0 59.0762 12.9324 764 74.0406 876.251 496.588
332 0 60.1734 13.2617 798 73.9486 876.284 493.716
333 0 62.1612 12.4515 774 74.5904 876.633 494.031
334 0 66.16 12.6965 840 73.4131 876.258 493.189
335 0 69.1022 11.0561 764 74.801 876.153 493.75
336 0 70.139 13.1596 923 71.9577 876.476 491.651
337 0 72.2175 12.2823 887 72.6798 876.45 491.297
338 0 74.1486 12.3805 918 71.7255 875.944 491.827
339 0 77.2637 13.4216 1037 70.4947 875.921 489.89
340 0 78.0992 11.2933 882 73.8186 875.856 487.223
341 0 82.2133 12.796 1052 71.8622 875.881 484.81
342 0 84.1995 11.4846 967 73.817 876.005 482.603
343 1 45.1136 10.662 481 68.4262 875.383 503.237
344 0 45.052 11.0317 497 68.6801 875.811 502.439
345 0 47.0404 11.1819 526 67.7947 875.627 501.578
346 0 50.0404 11.3109 566 66.894 875.433 502.362
347 0 50.0867 11.6997 586 67.6399 875.355 499.812
348 0 51.0826 11.041 564 68.617 875.53 499.277
349 0 52.1391 10.4912 547 69.7623 875.761 498.057
350 0 53.0762 11.5494 613 68.5595 874.974 497.48
351 0 57.1105 10.9962 628 68.0111 874.564 496.562
352 0 58.0647 12.4172 721 66.2885 875.204 495.857
353 0 61.095 10.8192 661 67.6868 875.068 495.067
354 0 63.0441 12.4992 788 66.1472 874.996 491.487
355 0 63.0833 10.399 656 68.1433 875.387 491.941
356 0 64.0737 10.8313 694 67.755 875.931 491.269
357 0 67.1529 11.9429 802 66.4663 875.714 488.459
358 0 71.1316 11.9497 850 65.6024 875.825 487.726
359 0 70.0196 10.7113 750 67.8867 876.269 483.749
360 0 74.0624 10.5722 783 67.5032 876.011 486.549
361 0 77.1423 10.9668 846 67.1241 875.482 483.983
362 0 77.0387 9.99498 770 68.2312 875.081 485.074
363 1 37.1727 10.4109 387 62.8088 874.922 506.804
364 0 37.0354 10.5845 392 64.1633 875.122 503.758
365 0 41.0971 9.7087 399 64.0551 874.837 503.038
366 0 40.0541 9.08772 364 65.2308 874.5 503.654
367 0 42.095 9.69237 408 65.5833 874.922 501.767
368 0 44.0404 9.15068 403 65.3598 875.797 500.69
369 0 44.0472 10.012 441 64.4399 876.261 500.998
370 0 47.105 9.51067 448 64.9911 876.415 496.685
371 0 47.1416 10.0336 473 64.5243 876.332 495.973
372 0 50.1385 9.81281 492 64.2683 875.813 494.055
373 0 51.0162 9.62439 491 64.7434 875.519 493.301
374 0 52.0492 7.53133 392 66.3903 875.653 490.857
375 0 56.0455 9.56366 536 63.9795 875.373 489.127
376 0 55.0353 7.97669 439 65.4009 875.567 489.686
377 0 56.0654 7.29505 409 66.0098 875.22 484.765
378 0 62.1082 8.95212 556 63.9173 875.399 482.356
379 0 61.0456 7.89574 482 65.5726 875.253 483.394
380 0 65.0984 9.96953 649 63.0231 875.348 483.552
381 0 67.1488 10.2459 688 62.3735 875.262 479.997
382 0 69.1046 10.2743 710 61.8549 875.028 480.786
383 0 73.0506 8.52834 623 62.992 875.329 483.429
384 0 75.1479 10.1932 766 61.3616 875.26 480.416
385 0 79.0892 10.8864 861 60.6063 875.588 475.519
386 0 83.1703 9.72703 809 61.3053 875.234 476.501
387 0 86.1347 10.0308 864 60.5081 875.311 477.602
388 0 89.1599 10.2737 916 60.9672 875.301 473.358
389 1 43.0556 6.82839 294 59.0918 874.204 495.497
390 0 43.0804 9.21532 397 56.7229 874.504 499.393
391 0 46.0231 11.1249 512 56.3145 874.338 492.6
392 0 46.0321 8.1465 375 58.1093 874.579 496.389
393 0 49.0871 8.61733 423 56.9031 874.279 494.82
394 0 50.0441 8.47252 424 57.4104 874.45 494.455
395 0 51.0954 8.72878 446 56.8363 875.168 489.576
396 0 54.1029 6.61703 358 58.2374 875.246 489.17
397 0 50.063 7.11104 356 58.3455 875.73 491.671
398 0 54.0903 8.5043 460 57.0109 875.9 491.041
399 0 59.062 10.7175 633 54.3649 875.675 488.956
400 0 60.0599 9.19082 552 55.6703 875.123 489.683
401 0 61.037 9.91202 605 55.2628 875.628 489.256
402 0 63.1181 9.4743 598 55.5468 875.341 485.885
403 0 66.0605 9.53671 630 55.1921 875.233 487.233
404 0 70.1349 8.84011 620 55.5274 875.477 484.35
405 0 72.047 9.5632 689 55.5718 874.925 483.083
406 0 75.1497 9.92685 746 54.9584 874.902 485.985
407 0 79.1361 9.99543 791 54.8913 875.74 478.585
408 0 79.1956 9.72277 770 56.0494 874.965 480.539
409 0 83.1678 11.9036 990 53.9182 875.419 476.86
410 0 82.0528 8.96983 736 57.2283 875.94 477.754
411 0 90.2003 12.4722 1125 53.7849 876.101 476.645
412 0 91.0452 10.8518 988 55.7358 875.746 476.506
413 0 93.1628 9.70345 904 57.0531 875.293 474.098
414 0 99.2929 12.1056 1202 55.0266 875.304 474.02
415 0 102.188 11.244 1149 56.2855 875.52 471.83
416 0 105.329 10.8043 1138 57.3357 875.736 471.524
417 0 107.266 9.31329 999 59.3734 876.099 468.058
418 0 114.237 12.4653 1424 56.3111 876.471 465.633
419 0 118.246 12.9307 1529 55.4912 875.589 466.281
420 0 120.136 12.0197 1444 56.6468 876.206 462.837
421 0 124.258 10.3172 1282 58.4782 876.161 465.737
422 0 126.223 10.2834 1298 58.5092 875.794 459.767
423 0 131.207 9.99181 1311 58.6903 875.463 459.262
424 0 136.245 11.883 1619 57.908 875.835 452.887
425 1 57.0787 10.4943 599 56.0835 875.329 493.917
426 0 60.1175 10.729 645 55.631 875.326 494.637
427 0 61.0663 11.3483 693 55.2944 875.719 493.977
428 0 62.0352 9.99432 620 57.1758 875.244 491.352
429 0 66.0896 10.9851 726 55.4821 875.873 490.231
430 0 67.1837 11.5802 778 55.6221 875.572 488.47
431 0 69.0729 11.6978 808 54.604 875.166 489.547
432 0 73.0826 12.4106 907 54.1433 875.158 488.252
433 0 73.1633 13.5724 993 53.6062 874.918 484.093
434 0 76.1313 10.5738 805 55.9081 874.632 489.481
435 0 80.204 10.6354 853 56.381 874.974 483.913
436 0 82.2429 10.8702 894 56.594 875.091 484.607
437 0 83.1954 11.3107 941 56.5749 875.494 481.577
438 0 86.2433 10.6791 921 56.734 875.73 485.63
439 0 89.12 12.096 1078 56.0288 875.241 483.374
440 0 91.1105 11.4806 1046 57.0382 875.522 479.745
441 0 94.2379 10.9828 1035 57.8502 875.878 479.524
442 0 95.1739 11.4947 1094 57.8053 875.803 473.836
443 1 48.0972 10.8322 521 57.952 875.399 498.937
444 0 52.1103 11.8403 617 57.013 875.29 498.692
445 0 54.1365 12.8933 698 55.5788 875.049 498.827
446 0 56.0904 12.8186 719 55.8484 875.341 496.933
447 0 57.0743 11.9318 681 55.4905 875.467 497.844
448 0 58.0629 10.1786 591 57.2149 874.9 495.514
449 0 61.104 11.194 684 55.7208 874.854 494.879
450 0 63.1328 10.2482 647 56.5193 875.122 496.076
451 0 64.1352 13.035 836 54.0586 875.449 493.264
452 0 67.0686 11.7939 791 54.8951 875.263 491.454
453 0 69.2095 11.2557 779 54.5584 875.44 494.3
454 0 70.1473 11.1337 781 55.6197 875.617 490.078
455 0 74.1877 10.743 797 56.1957 875.562 485.394
456 0 74.0947 10.9859 814 55.769 874.856 487.832
457 0 77.0669 14.3641 1107 52.7715 875.136 483.092
458 1 37.0503 9.66253 358 55.5503 874.564 504.497
459 0 40.2033 9.25296 372 55.5403 874.134 504.901
460 0 44.1255 9.9489 439 54.0068 874.453 503.92
461 0 44.119 12.0583 532 52.9135 874.492 502.915
462 0 47.0869 12.6362 595 51.9395 874.508 501.941
463 0 47.0526 11.4978 541 53.8706 874.712 500.207
464 0 47.0318 11.8005 555 53.8468 874.42 500.589
465 0 50.1048 12.893 646 52.9737 874.443 500.655
466 0 52.1467 12.2347 638 54.0313 874.895 496.839
467 0 56.1874 12.7075 714 52.6148 874.606 500.408
468 0 55.1736 15.1522 836 51.1651 874.804 496.621
469 0 55.1335 11.4994 634 55.0647 874.645 496.047
470 0 58.0591 12.8145 744 53.4651 874.538 496.054
471 0 58.0812 14.9446 868 51.6843 875.118 495.985
472 0 58.0702 10.074 585 56.4444 874.644 495.014
473 0 61.1206 11.7309 717 54.7936 874.589 494.727
474 0 62.097 10.7091 665 55.8556 874.317 493.603
475 0 65.2353 11.0983 724 56.0097 874.211 491.731
476 0 66.1055 12.3439 816 55.2169 874.554 490.936
477 0 68.1897 11.7466 801 55.3458 874.218 492.491
478 0 69.1745 11.724 811 56.3958 873.878 486.672
479 0 72.0696 12.5989 908 55.6652 874.316 488.323
480 0 74.208 13.4217 996 55.4187 874.646 485.708
481 1 39.1017 10.9714 429 56.1608 873.809 504.429
482 0 39.1374 11.498 450 56.5444 873.687 505.224
483 0 43.2558 12.7382 551 55.5735 874.238 502.722
484 0 41.1438 10.1109 416 58.6442 874.221 502.596
485 0 46.1167 11.3842 525 57.0152 874.067 501.31
486 0 47.1996 11.9704 565 56.6832 875.016 502.404
487 0 47.0347 12.5439 590 56.4322 874.475 501.342
488 0 46.1129 11.0381 509 58.1454 874.405 501.536
489 0 47.0221 11.6754 549 58.3807 874.417 498.024
490 0 48.192 10.9354 527 59.1537 874.657 499.427
491 0 50.2392 13.7144 689 56.1959 874.695 499.309
492 0 53.2254 12.0056 639 57.5587 874.584 496.576
493 0 55.027 12.1213 667 57.4873 874.528 495.61
494 0 56.0686 12.3955 695 57.3122 874.632 496.224
495 0 57.1328 13.2148 755 56.9113 874.201 495.438
496 0 60.1437 12.3039 740 57.5784 874.149 493.241
497 0 62.1737 13.5427 842 56.2304 874.189 492.897
498 0 62.1558 11.616 722 58.4972 874.582 491.776
499 0 63.0924 13.3614 843 57.0949 874.548 491.682
500 0 67.2308 12.2117 821 57.6614 874.693 490.555
501 0 69.0901 13.5186 934 56.6263 874.347 488.374
502 0 70.0911 14.8806 1043 55.5839 874.966 487.071
503 0 73.117 11.3653 831 58.9242 874.711 488.909
504 1 36.1235 11.9313 431 57.8121 874.125 504.155
505 0 39.1381 11.4978 450 57.6867 873.516 505.758
506 0 40.204 12.8097 515 56.7515 873.829 505.283
507 0 41.2722 11.8724 490 57.9286 874.206 505.471
508 0 42.111 12.6095 531 57.7137 874.241 502.667
509 0 44.0605 11.1665 492 58.9919 874.201 503.008
510 0 46.1936 12.4909 577 57.7695 874.156 501.716
511 0 44.0131 12.3827 545 58.3817 873.932 500.763
512 0 45.1143 12.5459 566 58.871 874.194 500.696
513 0 46.0531 10.2056 470 60.9319 873.349 500.474
514 0 49.2379 11.4952 566 59.9965 873.254 498.553
515 0 51.0954 10.7642 550 60.4691 873.447 497.847
516 0 53.1391 11.7051 622 59.6206 873.669 498.516
517 0 51.0216 10.5054 536 62.9627 873.304 496.405
518 0 55.2196 13.2743 733 59.8486 874.308 494.256
519 0 56.0984 12.7098 713 60.683 874.334 493.945
520 0 58.2246 10.2362 596 63.2399 874.3 491.091
521 0 61.0741 11.8708 725 61.931 874.316 491.161
522 0 62.1318 11.3147 703 62.367 873.945 491.091
523 0 64.0979 12.0597 773 61.7283 873.948 490.398
524 0 66.1346 13.8354 915 59.9421 872.996 487.823
525 0 68.1492 14.7324 1004 59.2849 872.551 489.83
526 0 71.1684 12.6742 902 61.8182 872.912 485.236
527 0 71.1638 11.86 844 62.577 873.312 483.576
528 1 34.0246 10.2573 349 62.7966 872.398 502.052
529 0 36.0432 8.71176 314 64.0637 872.538 502.433
530 0 39.2237 11.4472 449 61.1715 873.339 502.915
531 0 40.2451 12.6226 508 60.2697 873.238 503.069
532 0 39.0762 9.98051 390 64.2333 873.956 502.097
533 0 42.0887 10.6442 448 62.7009 873.585 505.098
534 0 38.0635 10.2723 391 64.8133 873.936 499.535
535 0 45.3011 11.9865 543 61.9816 874.352 499.147
536 0 45.0965 12.8391 579 61.3644 873.991 498.083
537 0 47.2364 11.6224 549 62.6302 874.095 497.204
538 0 47.0982 11.614 547 62.777 873.55 497.611
539 0 49.2458 11.8589 584 63.214 873.457 495.488
540 0 51.0899 10.9415 559 64.3202 873.436 496.676
541 0 54.0894 13.3298 721 61.6533 873.359 494.105
542 0 55.1152 12.2108 673 63.1233 872.844 493.21
543 0 56.1525 10.3112 579 65.5216 872.933 490.311
544 0 58.0539 10.6969 621 65.2383 873.061 488.398
545 0 60.0731 11.2696 677 64.678 873.154 487.219
546 0 61.2691 12.845 787 63.8145 873.511 488.386
547 0 64.2437 12.079 776 64.1134 873.557 489.255
548 0 66.2146 12.5199 829 64.1496 873.665 485.338
549 0 69.1834 12.0116 831 64.0493 873.486 485.481
550 0 73.2372 12.5073 916 63.5928 874.386 484.83
551 0 74.0588 12.9222 957 63.209 873.766 481.939
552 0 77.1375 11.123 858 64.9942 873.619 483.867
553 0 79.1557 12.6333 1000 63.377 874.018 483.946
554 1 42.0827 12.0715 508 62.4016 873.986 502.309
555 0 42.1096 11.85 499 63.3287 873.317 500.289
556 0 42.0944 11.8306 498 63.739 873.291 499.727
557 0 44.0779 9.09753 401 66.6309 873.399 498.207
558 0 44.0591 10.6675 470 65.8298 873.238 498.189
559 0 47.1046 11.6337 548 64.2007 873.431 495.83
560 0 49.1629 13.14 646 61.8839 874.033 497.023
561 0 51.21 11.6579 597 63.0737 873.869 495.322
562 0 54.2946 10.8666 590 63.3729 874.159 495.775
563 0 57.3342 11.9301 684 61.7208 874.244 495.409
564 0 59.2028 11.638 689 61.9681 874.376 493.688
565 0 59.0508 12.7687 754 61.1804 874.154 491.837
566 0 62.1475 11.3118 703 62.2589 874.055 490.923
567 0 63.0766 11.7318 740 61.8135 874.335 488.927
568 0 69.2644 11.7665 815 60.9632 874.223 487.751
569 0 70.2252 11.2638 791 61.2819 873.609 488.817
570 0 72.1347 10.1199 730 62.6562 873.548 485.323
571 1 35.0879 11.9699 420 58.5857 873.14 505.769
572 0 36.037 11.6547 420 59.131 872.798 505.729
573 0 37.1043 12.3166 457 59.1204 872.899 504.698
574 0 37.0637 12.1413 450 59.8311 872.576 502.54
575 0 41.1075 11.847 487 59.2485 873.191 501.076
576 0 41.013 12.4351 510 58.9549 871.957 499.184
577 0 42.2447 12.2382 517 59.7099 872.573 501.547
578 0 44.1145 13.7143 605 58.0628 872.85 499.582
579 0 44.1394 10.5575 466 61.1631 872.721 501.227
580 0 48.1959 13.0509 629 58.2146 872.744 499.348
581 0 48.2102 12.6737 611 58.9182 872.817 497.804
582 0 50.1013 14.1314 708 57.4647 873.366 498.877
583 0 49.0299 12.3802 607 59.8451 873.372 498.463
584 0 54.0848 14.9025 806 56.0707 873.663 498.315
585 0 57.1921 12.8864 737 58.7802 874.123 494.54
586 0 58.0622 14.1056 819 57.0183 874.077 494.775
587 0 59.0453 14.1586 836 57.1364 873.908 494.715
588 0 61.1525 11.1361 681 60.6388 874.104 490.254
589 0 64.1316 16.1543 1036 55.0145 874.278 493.571
590 0 65.1215 13.5439 882 57.8413 874.367 490.219
591 0 64.154 12.6259 810 59.816 874.496 489.991
592 0 67.2283 11.3791 765 61.0824 874.149 489.342
593 0 69.0563 13.9162 961 58.4568 874.308 490.543
594 0 71.0424 13.8931 987 58.9159 874.812 485.506
595 0 74.0697 13.9733 1035 59.114 874.422 483.199
596 1 38.1367 10.2788 392 61.0026 873.814 503.296
597 0 39.0214 12.0703 471 58.6391 873.588 503.892
598 0 40.1486 11.4823 461 60.5879 873.662 500.957
599 0 42.1179 11.7527 495 59.9333 873.517 501.044
600 0 43.1112 11.7139 505 60.8574 873.695 499.832
601 0 45.1141 12.1026 546 59.6685 873.921 501.634
602 0 45.102 13.5692 612 59.2418 873.448 499.309
603 0 48.0957 11.789 567 60.5891 872.991 497.649
604 0 47.0714 12.7254 599 59.6561 874.097 499.097
605 0 51.0937 14.8355 758 57.1504 873.102 495.458
606 0 53.2409 14.5189 773 57.5511 873.428 495.743
607 0 53.0769 12.2652 651 60.2504 873.702 493.393
608 0 55.0668 14.8002 815 57.7521 873.14 492.018
609 0 56.1123 13.865 778 59.2853 873.281 489.505
610 0 59.0684 14.4239 852 58.1925 873.136 490.689
611 0 61.0537 15.3471 937 57.3244 873.293 491.122
612 0 64.0475 13.1933 845 59.2284 873.838 491.095
613 0 61.1502 11.3164 692 61.935 873.321 484.345
614 0 63.1198 8.2383 520 64.725 873.344 481.671
615 0 71.1065 13.5993 967 59.2472 873.533 485.812
616 0 73.1627 12.397 907 60.7762 873.452 486.293
617 0 75.1653 12.8916 969 60.7926 873.402 480.913
618 0 78.0683 12.5787 982 60.8534 873.64 483.221
619 1 40.0615 12.8802 516 60.2771 873.291 499.537
620 0 42.1322 12.0336 507 60.7594 872.998 500.067
621 0 44.0116 12.5649 553 60.4774 872.973 499.521
622 0 44.0544 14.1189 622 58.9887 873.238 499.693
623 0 46.0687 14.066 648 58.9738 873.414 498.699
624 0 46.2009 14.0473 649 59.5193 873.367 496.502
625 0 48.0649 12.6288 607 60.71 873.61 495.321
626 0 52.1987 13.257 692 59.4928 873.276 495.592
627 0 50.0321 14.7505 738 58.9932 873.233 494.9
628 0 53.0719 14.1694 752 59.5532 873.189 494.513
629 0 54.0537 11.8956 643 61.8756 873.708 494.036
630 0 56.0972 12.8527 721 61.1928 873.257 490.44
631 0 57.0853 13.2959 759 60.8801 873.379 489.336
632 0 60.0447 12.0743 725 62.0952 872.877 490.01
633 0 60.0874 12.332 741 62.0972 873.463 488.499
634 0 62.0837 12.6442 785 62.2739 873.385 485.757
635 0 65.142 13.8467 902 61.051 873.251 489.953
636 0 68.2732 12.6404 863 62.4832 873.648 484.787
637 0 69.1225 13.1072 906 62.8135 873.342 484.306
638 0 73.1401 12.4282 909 63.4389 873.454 480.905
639 0 75.2732 14.2946 1076 61.9424 873.425 480.204
640 0 77.094 12.4912 963 64.5337 873.643 481.645
641 0 79.1794 14.8776 1178 62.3523 873.635 478.975
642 1 38.0098 8.89245 338 66.9675 873.192 501.601
643 0 40.0426 8.69075 348 67.9138 872.968 499.624
644 0 43.0605 11.9599 515 64.5515 873.049 500.557
645 0 44.1035 12.6067 556 64.009 872.707 498.951
646 0 45.1032 8.58033 387 68.4703 873.08 500
647 0 49.0171 12.363 606 64.104 873.823 495.068
648 0 50.1032 11.8555 594 65.4832 873.598 494.645
649 0 49.1093 11.5864 569 66.4974 873.719 493.96
650 0 54.0906 11.9059 644 64.9394 873.352 495.491
651 0 56.0788 11.9475 670 64.7478 873.585 494.063
652 0 57.0429 11.8507 676 65.1509 873.007 493.16
653 0 59.1437 11.9539 707 64.8048 873.291 489.859
654 0 62.0772 14.0792 874 62.3066 873.771 491.151
655 0 63.1709 11.6668 737 64.81 873.164 491.106
656 0 66.205 14.9535 990 61.098 873.555 488.762
657 0 68.0924 13.5111 920 62.725 873.173 488.284
658 0 71.1138 12.8948 917 63.0218 873.556 488.105
659 0 72.1148 11.7313 846 65.0035 872.957 483.831
660 0 77.2 12.5777 971 63.826 872.591 480.1
661 0 78.1821 11.8825 929 64.704 872.501 481.96
662 1 38.0334 8.83435 336 66.0536 872.021 501.47
663 0 43.1535 11.7951 509 62.5226 872.2 499.764
664 0 43.0213 9.34421 402 65.5025 872.42 500.132
665 0 46.1555 12.1546 561 63.0624 872.31 496.102
666 0 45.1507 10.321 466 65.8798 873.015 496.532
667 0 47.0559 13.2821 625 61.6576 873.277 499.07
668 0 50.1527 12.123 608 62.8602 873.049 497.84
669 0 50.0631 11.8451 593 63.2901 872.675 496.233
670 0 56.0869 13.4078 752 60.8989 872.614 491.138
671 0 57.1787 13.0468 746 61.1984 872.997 491.991
672 0 59.0357 12.0436 711 62.0492 872.979 491.806
673 0 60.0539 12.9717 779 61.4146 873.172 487.813
674 0 57.0738 11.0208 629 63.9857 873.156 488.119
675 0 64.0556 10.1006 647 64.1499 873.298 488.811
676 0 66.0548 12.1869 805 62.3304 873.717 485.055
677 0 68.0542 11.2851 768 63.2135 873.538 483.089
678 0 70.142 13.3301 935 61.0759 873.32 483.39
679 0 74.1403 13.5958 1008 60.506 873.602 484.011
680 0 75.1094 11.0506 830 63.4976 873.428 483.384
681 1 36.0478 7.73972 279 65.4373 872.821 500.287
682 0 39.0837 11.3346 443 61.2528 873.474 499.393
683 0 41.0587 10.1075 415 62.4265 872.865 496.648
684 0 43.0977 9.8149 423 63.1324 873.567 498.988
685 0 42.045 11.3212 476 62.084 873.288 496.504
686 0 44.2161 10.8558 480 62.3104 872.892 496.252
687 0 46.0317 13.23 609 59.2742 872.819 497.425
688 0 48.0731 13.6251 655 58.6198 872.944 493.295
689 0 49.0529 13.5364 664 58.7304 872.887 491.739
690 0 50.033 13.0913 655 58.913 872.797 493.954
691 0 53.0671 12.4748 662 59.9698 872.64 491.23
692 0 53.1131 10.8071 574 62.0174 872.639 490.406
693 0 54.0619 14.1319 764 58.8115 872.817 488.814
694 0 58.1192 11.1839 650 61.2431 872.715 488.64
695 0 58.1793 13.6475 794 58.8778 873.374 486.84
696 0 60.0339 12.7928 768 59.7214 873.725 488.029
697 0 63.1353 11.6258 734 60.2452 873.729 489.53
698 0 65.0989 12.2429 797 60.1179 873.861 486.262
699 0 66.0865 13.2705 877 59.5975 873.902 482.751
700 0 69.0662 11.3514 784 61.5293 873.213 483.327
701 0 72.0906 12.6646 913 60.1687 873.08 481.483
702 0 74.0832 12.1755 902 60.8426 872.535 483.62
703 0 74.0815 11.0824 821 62.944 873.387 478.395
704 1 38.0454 10.908 415 60.9639 872.508 496.619
705 0 39.0653 9.39453 367 61.4469 872.97 500.392
706 0 42.0461 10.988 462 60.632 873.1 498.147
707 0 45.1153 12.058 544 59.6213 873.408 497.688
708 0 43.1052 10.9732 473 61.9556 873.698 497.571
709 0 46.0276 13.8178 636 59.0173 873.621 494.877
710 0 49.0824 13.5079 663 58.73 873.816 495.538
711 0 50.0472 13.7271 687 57.2678 874.201 492.821
712 0 50.1822 10.5615 530 60.4868 873.949 493.019
713 0 52.0531 12.7754 665 58.0767 874.935 492.454
714 0 54.0969 10.9618 593 59.8398 874.58 490.813
715 0 55.1327 11.1186 613 60.0408 874.227 490.657
716 0 56.1089 13.0995 735 58.317 874.479 489.18
717 0 59.1525 13.947 825 57.1758 873.828 486.767
718 0 61.102 13.5184 826 57.2797 873.76 486.984
719 0 61.121 13.6614 835 58.0982 873.184 486.657
720 0 63.2077 10.8689 687 60.9418 873.236 484.904
721 0 64.214 11.0568 710 60.3944 874.104 485.017
722 0 65.0772 10.7411 699 61.3033 873.778 481.877
723 0 68.1039 12.1873 830 59.6602 873.965 482.851
724 0 71.105 11.6166 826 59.7954 874.111 481.68
725 0 74.1537 13.6608 1013 58.2083 873.582 478.508
726 0 76.1687 11.1069 846 61.0816 873.862 479.054
727 1 36.0123 11.4406 412 59.3277 873.541 498.568
728 0 37.1268 10.7469 399 59.8145 872.82 497.318
729 0 39.2629 11.9197 468 58.7436 872.94 494.35
730 0 41.0446 10.4277 428 60.0584 872.757 494.03
731 0 40.0368 10.2406 410 60.9098 872.483 494.671
732 0 43.1112 10.2526 442 60.5271 872.81 493.382
733 0 44.0212 11.4036 502 59.5518 873.472 492.992
734 0 45.0126 11.5968 522 59.6398 873.875 490.464
735 0 48.0293 12.2842 590 58.0831 873.753 491.078
736 0 50.0397 10.7115 536 59.0765 873.8 492.812
737 0 51.214 12.2428 627 57.89 874.093 489.738
738 0 51.1202 12.6173 645 57.862 873.946 487.439
739 0 54.0476 10.4908 567 59.1623 874.009 485.668
740 0 52.0696 11.0429 575 59.6348 874.125 487.391
741 0 58.0836 14.8923 865 55.652 874.398 484.723
742 0 61.2073 12.5148 766 57.799 874.43 484.996
743 0 62.059 13.0521 810 57.1654 874.757 483.43
744 0 63.0876 11.9516 754 58.6963 874.505 482.061
745 0 67.3103 15.124 1018 55.6778 875.052 483.071
746 0 70.1556 13.6411 957 57.3197 874.69 480.933
747 1 35.1055 10.9385 384 58.5651 874.362 500.25
748 0 33.1405 8.75061 290 61.4448 874.679 499.134
749 0 37.1581 10.6572 396 58.8788 874.306 500.768
750 0 40.0359 12.6636 507 57.4655 874.099 498.856
751 0 39.1233 10.403 407 60.9582 873.973 498.656
752 0 39.2838 10.386 408 61.5196 874.498 498.054
753 0 41.1647 13.0451 537 58.7244 874.339 496.642
754 0 42.0273 13.5864 571 57.9352 874.128 496.277
755 0 42.0326 10.6822 449 61.6526 873.791 494.608
756 0 44.1194 11.6275 513 60.1754 873.667 494.784
757 0 45.0954 11.9524 539 59.8868 874.297 494.347
758 0 44.0244 9.47201 417 63.7842 873.952 491.436
759 0 50.2305 11.9449 600 59.9017 874.208 493.065
760 0 52.1658 13.0929 683 58.7028 874.483 492.43
761 0 53.0657 11.5329 612 60.6977 874.627 491.44
762 0 54.1247 10.9192 591 61.3739 873.978 491.052
763 0 56.3087 12.2184 688 59.3343 873.775 486.478
764 0 56.1072 12.2266 686 59.2638 873.497 486.888
765 0 60.0321 12.0935 726 58.9435 873.439 489.278
766 0 60.2631 12.3791 746 59.4504 874.444 485.279
767 0 67.0379 14.4694 970 56.3052 874.631 484.516
768 0 66.1761 13.449 890 57.9461 874.19 483.724
769 0 69.2662 12.0116 832 59.6058 873.917 483.968
770 0 71.3271 11.9029 849 60.0895 874.303 481.947
771 1 35.0364 10.8744 381 59.7087 873.738 499.407
772 0 35.1838 11.1415 392 60.2168 873.571 497.375
773 0 35.034 10.447 366 59.9399 872.918 500.842
774 0 40.1873 12.4915 502 58.4283 873.612 497.217
775 0 39.1325 11.8572 464 59.3427 874.009 496.265
776 0 41.0457 11.5237 473 59.723 873.827 495.848
777 0 41.1122 12.1132 498 59.0361 873.456 497.024
778 0 44.1134 10.7904 476 59.9244 873.742 494.966
779 0 44.013 10.1561 447 60.7025 874.141 496.427
780 0 47.0351 12.7564 600 57.98 874.402 493.525
781 0 47.0916 11.8068 556 59.6133 874.183 493.169
782 0 48.0379 12.7816 614 59.1531 873.819 490.197
783 0 51.1095 11.3286 579 59.9793 873.636 490.159
784 0 53.2245 12.6446 673 58.8187 873.912 490.455
785 0 52.1107 11.3988 594 60.5404 873.465 489.593
786 0 53.0748 11.5874 615 60.5171 873.21 489.047
787 0 58.0311 12.6139 732 59.6352 873.488 487.204
788 0 61.1173 13.1223 802 59.3865 873.044 485.887
789 0 62.2359 12.0991 753 60.2178 873.428 486.843
790 0 65.0837 13.2598 863 59.2375 873.56 482.574
791 0 68.1799 11.807 805 60.2037 873.111 482.466
792 0 70.2624 13.2503 931 59.2095 872.967 480.445
793 0 72.0918 12.4286 896 60.1886 872.948 480.039
794 1 38.0644 10.9026 415 60.2506 873.255 496.733
795 0 42.0769 11.1938 471 59.38 873.208 495.928
796 0 39.0575 12.2896 480 59.5604 873.6 496.538
797 0 42.0624 10.3893 437 61.151 873.565 495.384
798 0 44.098 10.0458 443 61.8916 873.242 491.641
799 0 45.0624 11.828 533 60.1388 873.874 493.023
800 0 45.1483 13.6882 618 58.9693 874.199 493.005
801 0 49.1565 12.0228 591 60.269 873.746 490.836
802 0 50.1328 13.0852 656 59.4558 873.985 492.038
803 0 50.1264 11.0321 553 62.038 873.826 490.134
804 0 53.1808 13.2755 706 59.4292 873.237 489.697
805 0 55.2109 11.3383 626 61.1118 872.81 486.66
806 0 57.1329 10.2218 584 61.9041 872.99 487.978
807 0 59.1086 11.6227 687 61.0582 873.744 483.501
808 0 62.1476 12.8887 801 59.7066 873.82 486.513
809 0 61.0992 10.933 668 62.5135 874.22 484.253
810 0 64.1167 10.6369 682 62.9531 873.912 483.11
811 0 70.151 11.8601 832 62.2692 873.849 483.244
812 0 72.1332 14.3623 1036 60.1631 873.662 480.493
813 0 73.1609 11.9873 877 63.1904 873.631 477.757
814 1 38.1457 10.2764 392 61.4311 873.765 499.293
815 0 40.0694 10.382 416 60.9543 873.377 498.675
816 0 41.0688 12.613 518 60.2104 873.6 495.508
817 0 41.08 13.3155 547 59.7971 873.622 495.366
818 0 45.109 9.57681 432 62.456 873.657 496.164
819 0 43.1047 10.8573 468 62.8098 873.684 492.637
820 0 45.0433 11.278 508 61.8898 873.921 493.612
821 0 46.0663 12.6991 585 61.3385 873.969 490.689
822 0 47.063 10.0504 473 63.8668 873.962 491.782
823 0 49.1035 12.0969 594 62.0219 873.759 491.045
824 0 51.1207 10.798 552 63.1322 874.304 488.404
825 0 52.2043 11.7998 616 62.1558 873.86 488.534
826 0 55.0897 11.3451 625 62.3808 874.157 487.237
827 0 56.1499 9.72398 546 64.5403 873.733 484.929
828 0 60.1016 10.4157 626 63.5671 873.704 486.035
829 0 59.0417 10.5519 623 64.4173 873.854 483.162
830 0 63.0553 9.64233 608 65.1612 874.84 480.232
831 0 64.1314 11.5388 740 63.3459 874.751 481.891
832 0 67.0797 9.82414 659 64.9772 874.343 483.094
833 0 71.14 11.8499 843 63.2242 874.732 480.133
834 0 72.144 11.5741 835 64.5449 874.589 476.061
835 1 37.1023 9.10996 338 63.145 873.725 495.34
836 0 36.0359 9.51828 343 62.6181 873.586 497.525
837 0 39.0418 11.603 453 61.1148 873.155 493.702
838 0 38.0865 7.85056 299 65 873.856 495.291
839 0 42.0974 12.8037 539 60.295 873.711 491.788
840 0 45.0572 11.4299 515 60.9709 873.812 492.087
841 0 46.0379 10.2524 472 62.5847 873.941 488.017
842 0 48.0956 10.0425 483 63.4886 873.567 489.733
843 0 48.041 11.0114 529 62.9698 873.533 489.631
844 0 51.076 9.84806 503 63.8489 873.342 485.497
845 0 54.1509 10.2676 556 62.7662 873.721 487.255
846 0 55.1395 10.7908 595 62.6168 874.094 484.565
847 0 57.1193 10.3993 594 62.7576 873.761 485.889
848 0 59.0451 11.1271 657 62.5145 873.624 484.078
849 0 62.0787 11.4049 708 62.3559 874.558 478.561
850 0 63.0529 10.2295 645 64.0884 873.957 478.918
851 0 66.0652 10.8075 714 63.2633 873.536 480.661
852 0 69.0456 11.152 770 63.3831 873.962 476.118
853 0 71.1027 10.5059 747 64.0776 874.631 475.594
854 1 36.0673 7.76327 280 64.1 873.725 494.875
855 0 39.0347 11.0927 433 61.3095 874.025 493.344
856 0 39.0374 8.2485 322 64.9658 874.146 492.475
857 0 42.0439 10.0133 421 62.2755 874.261 494.553
858 0 45.1101 12.3476 557 59.474 873.727 491.883
859 0 47.0568 9.41415 443 62.4108 874.199 491.4
860 0 47.0713 10.346 487 63.117 874.331 487.53
861 0 48.0467 11.2807 542 61.6956 874.227 486.483
862 0 50.0179 11.096 555 61.5676 874.09 487.043
863 0 51.0528 10.3226 527 62.3738 873.068 485.438
864 0 54.0388 12.5466 678 59.2065 873.726 488.115
865 0 56.0982 10.8916 611 60.9918 874.321 485.987
866 0 56.0664 11.3972 639 61.1878 874.171 482.673
867 0 59.0959 12.4374 735 59.5619 873.872 482.996
868 0 60.0843 12.6489 760 59.9921 873.957 480.034
869 0 65.1344 11.4993 749 60.2977 874.154 480.729
870 0 65.1219 11.7472 765 60.2824 874.341 479.341
871 0 68.2076 10.7026 730 61.911 874.012 476.241
872 0 72.1924 10.5274 760 61.8658 873.88 474.613
873 0 73.1587 11.0171 806 61.4739 874.135 474.042
874 0 75.3533 9.43556 711 64.0591 873.885 472.814
875 1 40.0269 10.393 416 59.6274 872.911 491.522
876 0 40.0423 10.9384 438 59.7557 873.183 491.929
877 0 40.0313 9.36767 375 61.5547 873.309 490.659
878 0 42.1422 9.30184 392 61.4668 873.258 490.615
879 0 44.0561 10.9406 482 59.7801 873.421 487.967
880 0 44.0632 9.19135 405 60.8667 873.691 487.417
881 0 48.2166 10.515 507 59.0513 873.809 486.197
882 0 49.0867 10.3694 509 59.1061 873.921 485.466
883 0 52.1156 10.1697 530 59.4 874.043 483.775
884 0 54.1859 11.3129 613 58.2643 874.55 483.1
885 0 56.0751 11.0923 622 58.4421 874.399 484.169
886 0 57.1174 10.8898 622 58.9421 873.794 479.725
887 0 59.0614 10.9039 644 58.6242 873.966 482.534
888 0 59.0936 10.1703 601 59.6323 873.892 478.917
889 0 63.0994 11.6483 735 58.3497 874.28 477.453
890 0 65.0819 8.02067 522 61.5709 873.764 479.019
891 0 67.0667 10.8101 725 59.2524 874.332 475.357
892 0 69.0949 10.2612 709 59.5769 873.725 475.102
893 0 73.1985 10.8335 793 58.5259 874.329 472.917
894 0 76.2594 10.1627 775 59.0477 874.494 472.79
895 0 78.172 9.96521 779 59.0359 873.996 468.014
896 0 84.1647 12.7963 1077 55.5682 874.301 469.903
897 0 84.1425 10.4347 878 58.9134 874.336 465.925
898 0 90.2369 12.3896 1118 56.2871 874.699 467.816
899 0 95.1378 11.2679 1072 56.8974 874.681 466.494
900 0 95.2647 11.0429 1052 57.4971 874.253 462.317
901 0 101.154 11.0129 1114 56.9659 874.581 463.152
902 1 51.0551 7.67798 392 56.375 874.122 488.268
903 0 52.0641 7.0298 366 57.1339 874.609 483.727
904 0 58.054 11.1104 645 53.676 874.172 485.284
905 0 61.0857 9.49486 580 55.0138 873.99 484.166
906 0 63.1424 8.56793 541 54.9039 873.832 486.205
907 0 65.1061 12.4719 812 52.165 874.293 482.44
908 0 65.074 10.6187 691 54.4284 873.537 482.482
909 0 68.0789 9.43024 642 55.7555 874.227 478.604
910 0 71.2103 11.3888 811 54.1245 874.289 478.785
911 0 74.2077 11.2926 838 54.5036 874.326 479.255
912 0 75.0735 9.85701 740 55.9135 874.393 477.555
913 0 79.2588 11.759 932 53.5869 874.348 478.222
914 0 83.1772 10.2192 850 55.3047 874.181 476.378
915 0 81.0689 9.60911 779 56.6496 873.488 472.086
916 0 86.1585 12.8136 1104 53.5018 873.412 471.706
917 0 90.3045 10.0881 911 56.4742 873.384 469.8
918 0 93.3843 10.9012 1018 55.8291 873.9 470.733
919 0 96.2171 10.2581 987 56.386 873.68 466.447
920 0 98.1986 9.07345 891 57.2727 873.295 466.131
921 0 103.118 10.0855 1040 56.65 874.087 460.395
922 0 110.167 13.3797 1474 53.2585 873.745 463.812
923 1 53.1303 8.58267 456 54.9693 873.478 493.276
924 0 56.2189 11.4019 641 53.2839 873.984 490.273
925 0 59.0319 11.9596 706 53.3159 873.891 486.847
926 0 62.1091 12.945 804 52.245 873.673 488.254
927 0 60.3298 12.2493 739 53.7686 872.951 488.725
928 0 65.0443 12.3301 802 53.3803 873.388 488.742
929 0 65.257 11.7076 764 55.1662 873.329 483.619
930 0 72.1332 11.5897 836 54.3373 873.032 487.451
931 0 70.3981 12.8697 906 54.3698 873.529 483.268
932 0 73.1885 11.8735 869 55.3947 873.488 481.331
933 0 76.3784 13.5248 1033 53.8625 874.034 479.071
934 0 80.1086 11.8589 950 55.5158 873.775 481.783
935 1 42.2056 12.5576 530 55.2396 873.702 498.54
936 0 43.0882 10.9775 473 56.7061 873.313 499.907
937 0 45.0278 12.7477 574 55.1742 873.24 499.678
938 0 47.1307 12.8791 607 57.0198 873.44 493.853
939 0 49.3569 13.8785 685 55.5153 873.521 494.428
940 0 49.1642 11.5938 570 58.2561 873.521 494.307
941 0 49.1613 12.1233 596 58.1309 873.485 493.617
942 0 51.1527 12.1988 624 58.7756 873.736 489.864
943 0 53.1018 13.2199 702 58.1695 873.256 490.293
944 0 56.033 13.0102 729 57.8038 873.257 489.591
945 0 57.0406 12.8856 735 58.2871 873.176 489.151
946 0 59.1796 12.8761 762 58.1325 873.203 489.849
947 0 61.2282 13.2455 811 57.9951 873.349 486.482
948 0 62.1103 11.1576 693 60.4517 873.475 488.38
949 0 64.1697 13.1838 846 58.4291 873.19 485.305
950 0 66.1179 12.5987 833 59.1224 873.447 483.498
951 0 71.186 13.4718 959 57.4411 873.114 484.172
952 0 70.212 14.1144 991 56.664 872.883 485.016
953 1 34.0867 11.8815 405 59.3802 872.965 498.928
954 0 38.0714 12.1613 463 58.1469 872.864 499.525
955 0 42.2485 13.61 575 55.3513 872.694 500.603
956 0 43.0994 13.2021 569 56.3093 872.622 497.304
957 0 45.1162 11.9691 540 57.0241 873.076 496.069
