time division length width area intensity CMx CMy
0 0 97.6857 5.92717 579 28.7807 827.585 443.705
1 0 102.07 1.09728 112 35.4286 829.286 459.402
2 0 100.6 5.78527 582 28.9158 825.636 449.057
3 1 83.1143 0.782056 65 40.3692 830.862 516.077
4 0 81.9789 1.53698 126 31.2302 829.008 462.032
5 0 82.2956 1.02071 84 36.4286 828.905 484.238
6 0 91.4468 1.27943 117 34 828.761 465.889
7 0 94.6499 1.10935 105 36.5619 829.495 489.333
8 0 94.0017 0.755306 71 39.9296 830.211 499.352
9 0 96.5184 2.3208 224 32.4018 826.768 464.594
10 0 93.587 0.683856 64 39.4062 827.797 491.812
11 1 174.458 3.66277 639 64.4335 826.512 396.432
12 0 174.222 3.71365 647 65.5054 826.577 385.461
13 0 177.551 3.40747 605 66.6942 826.248 387.25
14 0 177.496 3.94375 700 65.6743 826.02 383.917
15 0 184.748 4.48177 828 64.2246 825.624 386.289
16 0 190.682 4.636 884 63.9502 825.706 384.923
17 0 190.767 4.5553 869 65.794 825.682 386.04
18 0 191.914 4.10079 787 68.155 825.698 382.249
19 0 190.375 4.51215 859 68.39 825.921 382.905
20 1 153.343 2.47158 379 67.7889 826.427 413.013
21 0 152.23 1.64882 251 71.3147 826.406 409.45
22 0 156.357 3.57514 559 64.653 826.188 405.964
23 1 100.142 0.758923 76 40.5526 830.289 482.566
24 0 105.091 4.22491 444 30.3739 825.545 446.671
25 0 90.2952 0.753085 68 44.25 830.044 510.397
26 0 97.0611 2.10177 204 34.0196 828.015 461.907
27 0 103.019 0.504763 52 49 830.288 513.365
28 0 94.4223 1.44034 136 38.0882 828.199 480.294
29 0 103.08 0.659683 68 45.2941 829.647 505.779
30 0 103.835 1.04975 109 41.844 829.578 496.321
31 0 102.619 0.906265 93 41.9677 829.57 495.785
32 1 96.0457 1.62423 156 35.9423 826.09 473.641
33 0 93.6183 2.5636 240 32.6625 829.454 461.775
34 0 93.4674 2.24677 210 33.8238 825.948 467.257
35 0 101.49 0.413835 42 46.5 826.643 489.881
36 0 93.3969 1.14565 107 38.6168 830.925 479.421
37 0 97.3188 4.48012 436 30.8647 827.154 456.94
38 0 98.3781 4.28957 422 31.41 826.417 459.953
39 0 96.3522 1.51527 146 35.5068 824.808 462.534
40 0 93.9079 2.33207 219 34.7215 826.479 476.79
41 0 98.6144 8.02114 791 29.1176 825.756 453.77
42 0 98.6644 2.11829 209 32.1148 826.34 447.957
43 0 97.8597 3.22911 316 30.6329 825.377 448.892
44 1 80.3523 1.40631 113 40.1681 829.053 502.31
45 0 7.00014 5.85703 41 51.4878 829.512 526.098
46 1 103.616 6.15734 638 29.8871 827.188 455.083
47 0 101.881 2.88571 294 32.0306 829.231 451.759
48 0 94.6875 4.29835 407 30.3243 825.926 454.093
49 0 95.8244 1.01227 97 42.2268 828.216 504.619
50 0 100.379 2.51048 252 33.5516 825.96 455.786
51 1 91.5521 4.65309 426 30.1549 825.07 457.495
52 0 95.2621 0.734815 70 43.0429 827.757 494.186
53 0 93.6691 0.90745 85 40.4824 830.259 484.612
54 0 88.2474 6.52711 576 28.3438 823.007 461.347
55 0 87.7946 1.33266 117 39.7521 827.863 494.436
56 0 84.5772 2.89676 245 31.7714 824.241 465.988
57 0 91.1247 9.8217 895 28.2391 823.611 457.999
58 0 89.4279 3.2652 292 32.411 825.428 466.305
59 0 86.5607 7.93662 687 28.6201 825.333 460.47
60 0 91.2846 1.66512 152 36.7368 826.25 475.467
61 0 94.5835 3.93303 372 33.1747 825.57 483.57
62 0 88.2992 2.70671 239 31.0753 825.146 456.473
63 0 88.0992 0.499437 44 44.6136 827.545 495.136
64 1 81.2885 2.0052 163 35.6074 825.81 481.35
65 0 95.071 4.63864 441 30.8707 823.778 463.853
66 0 89.6303 0.903712 81 40.5679 825.852 488.889
67 0 88.6022 2.31371 205 33.6244 824.41 463.449
68 0 89.4353 4.47251 400 30.92 824.217 461.118
69 0 96.5024 4.15534 401 31.586 823.165 458.012
70 0 85.5126 1.85937 159 36.3648 826.189 479.698
71 0 87.505 1.69133 148 34.3176 826.399 463.459
72 0 86.7284 1.91402 166 33.8855 824.627 466.596
73 0 89.8299 1.75888 158 37.3165 826.62 489.728
74 0 86.0086 5.32505 458 30.0197 824.122 460.884
75 0 88.0821 1.40778 124 37.4355 826.565 476.282
76 0 86.6856 1.36124 118 37.339 826.364 478.763
77 0 90.1192 5.48163 494 30.5304 824.565 459.739
78 0 86.12 1.26568 109 34.5505 824.67 465.248
79 0 79.68 5.72289 456 29.5789 823.432 465.246
80 0 85.2842 2.97828 254 32.5906 824.898 466.894
81 0 83.7622 4.91869 412 30.2476 823.988 463.097
82 0 86.7 3.87543 336 30.9613 823.381 463.363
83 0 84.0543 0.428294 36 49.6667 826.583 520.972
84 0 88.0912 1.06708 94 38.5638 824.564 477.755
85 0 84.833 3.3949 288 31.1389 820.806 468.931
86 0 88.6723 4.22906 375 31.6373 823.957 465.739
87 0 92.0855 1.314 121 37.8099 826.876 477.099
88 0 93.2338 3.6253 338 31.6391 823.183 458.512
89 0 88.6406 0.74458 66 43.9848 826.333 511.485
90 0 90.4833 5.20538 471 29.9278 821.794 460.48
91 0 84.1553 4.82441 406 30.0419 823.786 463.544
92 0 85.917 1.99029 171 34.5146 827.83 475.912
93 0 90.0879 0.732618 66 39.5606 825.5 472.485
94 1 151.222 4.23881 641 72.7598 823.8 415.48
95 0 153.249 4.29367 658 72.8009 824.103 413
96 0 156.433 4.81996 754 71.2095 823.751 410.598
97 0 159.337 4.88902 779 71.294 823.594 410.297
98 1 79.3958 1.2973 103 36.4951 824.68 483.777
99 0 87.0309 1.49372 130 34.7154 822.269 472.731
100 0 84.8916 2.06145 175 34.1143 825.057 472.034
101 0 87.0276 0.505587 44 45.0455 826.795 503.114
102 0 87.707 3.24945 285 30.407 822.926 454.639
103 0 80.0462 0.599654 48 45.8542 827.604 511.542
104 0 80.2906 3.20087 257 30.9183 824.848 464.054
105 0 93.6295 0.875793 82 38.8537 824.427 483.354
106 0 86.3387 0.532786 46 45.8261 827.13 511.391
107 0 88.1865 0.759753 67 39.1194 827.015 482.716
108 0 87.6964 2.63409 231 32.0043 824.286 462.437
109 0 87.8018 2.39175 210 33.6048 826.238 466.367
110 0 81.4049 0.872184 71 41.7183 826.183 502.099
111 0 86.0358 2.05728 177 33.6102 823.785 472.751
112 0 82.274 0.522644 43 43.814 824.558 498.512
113 0 81.2314 3.5208 286 30.5909 824.329 462.5
114 0 89.7024 1.01447 91 39.5495 825.846 484.89
115 0 90.4967 1.21551 110 35.9636 826.527 474.8
116 1 69.2414 0.635458 44 41.9091 825.659 504.705
117 0 78.2815 6.32333 495 27.6869 822.172 464.612
118 0 87.9026 2.35488 207 32.5749 823.135 468.623
119 0 76.0644 1.27524 97 31.6907 826.753 464.186
120 0 84.2806 2.20691 186 31.871 823.683 463.489
121 0 85.2805 1.73545 148 36.0811 826.986 489.541
122 0 84.3904 2.19219 185 34.0324 823.881 480.497
123 0 85.5657 2.53606 217 30.4931 824.189 456.696
124 0 92.206 6.64816 613 28.7194 822.436 463.044
125 0 84.3877 6.33979 535 28.4299 825.422 461.166
126 0 86.9357 3.96845 345 29.6145 825.632 456.455
127 0 87.9003 3.08304 271 30.1181 823.413 458.753
128 0 81.2535 1.26764 103 38.0097 825.99 489.922
129 0 80.7603 0.606734 49 39.4898 824.837 482.347
130 0 81.8242 2.15095 176 32.9432 824.506 470.557
131 0 82.491 0.715229 59 42.0169 826.305 504.356
132 0 86.2595 5.99354 517 28.5068 823.913 457.251
133 0 85.5719 1.33221 114 35.307 824.833 475.368
134 0 85.0591 1.83402 156 34.7179 824.16 478.141
135 0 93.3462 0.653482 61 43.082 827.426 508.852
136 1 76.4224 1.87118 143 34.0699 825.58 479.105
137 0 77.2007 5.02586 388 28.1082 823.995 465.807
138 0 76.6267 4.68505 359 30.2033 825.34 471.883
139 1 88.6301 1.89552 168 33.9226 825.357 473.089
140 0 90.2856 0.68671 62 39.9355 826.419 484.823
141 0 88.7447 2.35507 209 33.3971 826.311 474.88
142 0 77.4295 0.891134 69 38.7246 826.841 492.087
143 0 79.5103 0.804927 64 38.3906 826.203 488.703
144 0 88.0192 3.55604 313 30.3387 824.425 461.073
145 0 87.0681 1.14853 100 35.92 828.98 475.79
146 0 92.6321 3.81077 353 30.1048 824.218 455.686
147 0 91.7864 2.36419 217 31.7742 823.498 456.806
148 0 83.0826 1.05919 88 37.25 827.17 485.648
149 0 81.377 0.798752 65 39.3692 825.923 493.631
150 0 85.8061 0.920681 79 37.0886 826.392 481.785
151 0 90.696 4.97266 451 29.1264 821.929 457.665
152 0 84.8788 1.22528 104 33.3077 824.615 464.154
153 0 85.0636 1.493 127 31.3386 822.354 462.071
154 0 83.3498 0.647872 54 38.4444 826.093 480.093
155 0 89.3485 1.91385 171 32.6374 822.175 466.819
156 0 76.0769 0.525784 40 44.975 827.85 517.375
157 0 88.6704 1.91721 170 32.2882 823.065 462.035
158 0 90.2462 0.709171 64 39.7812 826.781 489.047
159 0 87.6086 0.467991 41 42.9756 826.415 505.171
160 0 94.0392 2.6691 251 31.49 824.331 462.215
161 1 83.1636 3.4871 290 29.6448 823.331 466.924
162 0 82.9156 4.24528 352 28.5341 825.224 458.25
163 0 86.8599 3.5114 305 30.2131 825.439 459.37
164 0 84.4439 2.65265 224 30.1786 826.478 459.683
165 0 83.0541 0.36121 30 43.6 828.3 500.6
166 0 73.0768 0.588422 43 44.6279 828.326 513.837
167 0 77.9084 2.04086 159 32.1447 824.912 472.629
168 0 77.2064 6.67043 515 27.0194 823.497 465.841
169 1 90.0111 4.64387 418 30.0263 825.718 462.134
170 0 86.4389 3.94498 341 30.8152 824.868 470.774
171 0 80.1041 2.33446 187 32.6684 827.235 474.513
172 0 85.4741 3.81402 326 30.7485 825.528 462.531
173 0 88.7943 3.60383 320 30.1812 824.097 461.856
174 0 76.124 0.44664 34 44.6176 828.324 512.588
175 0 77.7895 5.05209 393 28.3461 824.104 467.112
176 1 93.078 3.9107 364 31.0247 825.093 463.192
177 0 85.84 0.582479 50 40.92 825.52 494.02
178 0 85.2625 1.32532 113 33.6637 828.469 467
179 0 85.8709 2.87641 247 31.0081 825.348 460.895
180 0 84.8481 0.495003 42 37.119 824.143 475.333
181 0 86.045 0.441629 38 42.3684 830.553 499.211
182 0 80.855 2.04069 165 29.8909 826.285 459.061
183 0 74.3302 1.92385 143 30.5315 827.392 466.734
184 1 85.0845 1.97451 168 31.6548 828.339 461.655
185 0 87.2524 1.58162 138 31.0652 830.101 461.377
186 0 88.9228 3.47493 309 30.699 825.748 459.333
187 0 89.929 3.56948 321 30.1807 825.24 456.505
188 0 88.1386 2.48472 219 32.4977 823.717 469.525
189 0 88.4507 2.54379 225 31.4978 823.658 462.596
190 0 87.7003 5.19952 456 29.2785 826.616 458.235
191 0 91.8889 1.41475 130 32.8385 826.723 456.938
192 0 83.6773 3.52545 295 30.739 825.034 467.563
193 0 84.2217 1.42481 120 31.55 825.442 458.65
194 1 0 0 0 -nan -nan -nan
195 1 91.1263 0.921797 84 36.3333 826.095 477.119
196 0 86.8094 1.61273 140 32.5429 826.864 459.293
197 1 7.01554 8.69498 61 27.3279 815.525 440.607
198 1 92.6659 1.35972 126 32.4603 823.746 457.23
199 0 79.1631 0.707401 56 40.4286 830.554 498.286
200 0 86.6046 7.70167 667 28.039 827.1 460.438
201 0 85.2118 1.72511 147 34.4218 827.776 474.755
202 0 80.6535 1.56224 126 34.6667 825.46 479.492
203 0 82.0634 0.414314 34 41.4118 829.912 493.147
204 0 85.1028 1.08105 92 30.9022 821.087 457.87
205 0 82.0265 0.572985 47 42.383 828.915 504.511
206 1 93.0235 3.14974 293 31.273 825.935 456.99
207 0 90.4856 5.14999 466 29.0901 825.592 455.822
208 0 81.5787 3.16259 258 30.1667 823.457 466.178
209 0 92.597 1.36074 126 32.9206 823.175 462.468
210 0 86.2008 1.10208 95 32.1684 825.947 458.326
211 0 83.7666 11.926 999 58.4785 825.281 399.261
212 0 87.6834 6.26116 549 27.5209 824.319 455.43
213 0 92.7652 3.34177 310 29.729 823.839 455.329
214 0 87.5874 1.99801 175 32.1543 826.874 465.68
215 0 93.1508 1.825 170 32.9294 826.406 466.9
216 0 89.2481 2.20733 197 30.8528 825.294 456.721
217 0 90.3756 2.3347 211 30.7346 825.403 454.706
218 0 89.2925 1.69107 151 32.5563 826.139 462.185
219 0 86.3208 6.49901 561 28.8271 824.941 464.102
220 0 88.401 7.70353 681 27.6314 823.649 457.631
221 0 90.1823 0.831649 75 33.7467 825.56 457.16
222 0 90.115 2.1861 197 31.264 823.827 461.386
223 0 85.8705 1.46733 126 31.8254 823.825 460.643
224 0 88.2221 3.61587 319 29.3511 824.254 453.063
225 0 87.5767 1.99825 175 32 823.903 465.069
226 0 80.6054 3.4613 279 28.9319 823.796 464.194
227 0 68.095 13.1874 898 59.8575 825.614 405.969
228 1 158.208 4.20966 666 69.5871 825.44 398.92
229 0 162.193 4.32201 701 69.2268 825.374 403.204
230 0 160.149 4.45834 714 70.2815 825.445 395.899
231 0 164.337 4.37516 719 70.1196 825.17 398.618
232 0 165.316 4.43392 733 70.7654 826.195 397.915
233 0 168.21 5.03538 847 68.8973 825.671 395.344
234 0 168.166 4.10903 691 73.2185 826.012 392.045
235 0 170.284 5.87255 1000 67.21 826.34 391.452
236 0 173.077 4.76666 825 71.4497 825.703 391.897
237 1 92.4482 2.47706 229 30.4192 823.913 450.777
238 0 86.6697 1.6384 142 30.2042 826.606 455.803
239 0 92.9587 1.57059 146 32.4247 825.637 459.562
240 0 85.1406 3.80547 324 28.1543 824.321 452.957
241 0 81.9093 4.54161 372 28.164 824.22 457.438
242 0 85.7009 1.37688 118 33.6102 826.89 467.127
243 0 86.5993 4.5035 390 29.6256 824.615 464.877
244 0 94.0868 1.91313 180 32.3389 824.056 460.467
245 0 92.2889 1.08355 100 35.76 828.52 480.91
246 1 79.1028 0.758506 60 34.8833 822.667 476.883
247 0 82.4015 1.50483 124 30.9516 824.855 459.573
248 0 89.2579 3.27142 292 30.7466 824.956 465.747
249 0 90.017 6.2877 566 29.2173 824.55 459.534
250 0 89.2003 2.13004 190 30.7474 824.142 453.179
251 1 0 0 0 -nan -nan -nan
252 0 0 0 0 -nan -nan -nan
253 1 83.9805 2.88162 242 29.6942 825.368 455.669
254 0 88.1245 0.521989 46 35.8913 828.239 463.891
255 0 84.5123 1.31342 111 32.1171 829.279 460.27
256 0 93.4071 0.64235 60 39.4 827.317 489.95
257 0 90.0799 1.18783 107 33.7196 825.028 459.009
258 1 170.312 4.29799 732 72.8825 825.249 397.042
259 0 171.167 4.4109 755 73.5709 824.979 391.918
260 0 174.359 5.24781 915 70.2645 825.301 394.421
261 0 176.332 4.91118 866 71.8695 825.312 394.134
262 0 178.342 5.03526 898 71.4688 825.431 394.228
263 1 143.265 3.02935 434 69.9217 825.753 414.058
264 0 144.129 2.84468 410 72.8659 824.915 404.32
265 0 147.174 3.60117 530 68.6868 825.545 412.653
266 1 85.3004 8.8159 752 27.3564 824.052 459.279
267 0 88.8946 4.92718 438 28.7694 825.865 456.635
268 0 81.0823 0.394661 32 34.8438 826.938 466.781
269 0 86.5357 1.44449 125 33 825.56 465.112
270 0 86.4371 4.5698 395 28.924 825.028 454.952
271 0 87.4642 1.00613 88 32.1591 824.795 457.75
272 0 88.0033 4.52256 398 28.9397 826.063 454.563
273 0 87.233 1.23806 108 32.3056 827.472 455.75
274 0 92.3364 2.33927 216 31.6204 826.296 455.204
275 0 90.5936 2.51674 228 30.5044 824.829 450.877
276 0 82.5924 2.31256 191 29.4869 824.571 456.183
277 1 0 0 0 -nan -nan -nan
278 1 82.1066 0.426275 35 41.1429 828.629 499.429
279 0 80.2725 0.311439 25 38.28 825.28 486.2
280 0 80.7453 0.569692 46 37.3696 826.696 485.826
281 1 0 0 0 -nan -nan -nan
282 1 81.6807 1.67726 137 30.7299 823.256 462.54
283 1 92.5348 3.1988 296 29.5709 823.818 447.405
284 0 87.5221 5.21012 456 27.8596 823.23 450.643
285 0 97.7038 3.17285 310 29.2581 819.932 451.339
286 0 82.7836 1.365 113 31.0796 825.513 458.734
287 0 86.8779 0.56401 49 38.1837 825.816 486.265
288 0 84.8838 1.59041 135 31.163 824.504 459.785
289 0 85.6968 3.45404 296 29.6047 825.699 457.159
290 1 0 0 0 -nan -nan -nan
291 1 4 3 12 26.6667 826.333 445.083
292 1 90.7501 2.14876 195 30.7385 821.508 459.282
293 0 77.1668 1.69762 131 31.0916 825.45 465.992
294 0 82.5251 11.9842 989 62.6451 824.603 407.731
295 0 89.6689 2.84379 255 29.3882 823.741 453.2
296 1 270.603 14.5896 3948 68.7667 824.206 333.386
297 1 254.326 11.2021 2849 77.444 824.531 325.576
298 1 345.597 18.4145 6364 58.8286 825.191 291.178
299 1 238.433 12.0957 2884 79.1047 824.986 314.136
300 1 87.3505 0.54951 48 39.625 827.333 497.833
301 0 94.1273 0.679931 64 34.2812 828.656 451.234
302 0 91.1598 12.1325 1106 69.6655 825.062 393.947
303 1 0 0 0 -nan -nan -nan
304 1 88.7872 3.35634 298 29.8389 824.621 455.755
305 0 92.6044 0.842292 78 34.4744 826.526 455.513
306 0 92.0668 0.738594 68 35.3824 828.515 460.191
307 1 42.0165 9.09167 382 84.4267 824.793 361.686
308 0 43.0238 12.8301 552 74.5779 825.647 404.042
309 0 44.0339 11.6501 513 76.7914 826 403.784
310 0 47.1022 12.717 599 74.025 825.828 403.427
311 0 48.066 13.1694 633 73.2306 825.433 403.335
312 0 48.0211 11.4949 552 77.0634 825.536 401.288
313 0 50.0826 13.4178 672 73.5283 825.434 398.932
314 1 65.0539 11.6211 756 69.4497 825.91 403.725
315 1 50.2054 12.3692 621 75.219 826.266 401.027
316 1 72.5287 9.84437 714 67.4496 825.686 407.639
317 1 148.126 2.44386 362 83.7072 825.992 397.832
318 1 0 0 0 -nan -nan -nan
319 1 78.0458 0.563771 44 37.2273 829.955 481.591
320 0 82.3303 15.9965 1317 58.7107 825.838 406.607
321 1 63.0419 13.5941 857 71.818 825.258 396.429
322 0 66.1224 12.8398 849 72.6796 825.787 396.298
323 1 88.5004 1.37852 122 29.582 820.992 447.279
324 0 76.7191 1.30346 100 30.89 827.75 462.15
325 0 73.0948 13.6398 997 71.3581 825.44 392.727
326 1 99.25 11.4156 1133 66.3204 825.724 399.839
327 1 71.149 10.4991 747 77.5301 826.262 391.023
328 1 75.0746 11.4819 862 73.9374 826.287 396.326
329 0 76.1326 0.761829 58 32.3448 825.155 465.224
330 1 0 0 0 -nan -nan -nan
331 1 76.3844 1.76738 135 31.4815 825.682 466.948
332 0 76 0.131579 10 40.9 827 487.8
333 1 150.066 8.12307 1219 76.6103 825.791 380.675
334 0 150.112 9.40629 1412 76.9872 825.506 372.096
335 1 163.349 18.237 2979 60.8009 825.694 380.941
336 1 242.216 5.18959 1257 80.7741 825.537 361.835
337 1 0 0 0 -nan -nan -nan
338 1 82.2092 1.71514 141 29.766 826.617 451.468
339 1 0 0 0 -nan -nan -nan
340 1 72.8707 5.73619 418 27.8804 825.421 465.376
341 0 75.1438 15.8895 1194 57.4539 825.858 416.249
342 1 60.0801 12.0007 721 71.1775 826.157 405.702
343 1 2 13.5 27 25.5185 838.074 458.37
344 1 68.2504 0.7619 52 31.4038 830.115 470.038
345 0 69.2645 12.8782 892 68.9282 825.904 406.487
346 0 77.8364 1.81149 141 30.7021 825.17 463.17
347 0 72.0884 13.1089 945 69.4275 825.495 404.467
348 0 74.0908 12.8356 951 71.0263 825.258 402.032
349 0 76.182 13.0608 995 70.8121 825.622 398.176
350 1 40.1643 12.673 509 68.5304 825.354 417.401
351 0 40.0925 12.2467 491 69.8554 825.088 416.762
352 0 41.1246 10.9667 451 71.4656 825.024 416.044
353 1 132.32 3.66535 485 71.0495 825.336 415.94
354 1 42.149 11.6254 490 70.7041 825.498 415.91
355 0 38.1117 10.2069 389 73.946 825.697 414.188
356 1 55.0594 9.29905 512 68.0859 825.324 418.74
357 0 47.0776 11.0456 520 71.2923 825.04 413.85
358 0 49.0728 12.7769 627 69.2887 824.896 410.939
359 0 51.1322 14.0225 717 66.8954 825.404 413.141
360 1 66.634 12.5312 835 63.1174 825.999 417.983
361 1 88.2978 9.56989 845 63.6497 824.856 418.408
362 1 56.1963 11.62 653 70.3538 824.657 413.522
363 0 57.1733 12.121 693 69.4098 825.13 416.798
364 0 60.2112 12.4395 749 69.3311 824.748 415.724
365 0 62.288 13.566 845 66.6651 824.933 418.998
366 1 147.261 16.9631 2498 58.8078 824.326 406.802
367 1 125.341 9.0154 1130 75.5858 823.896 394.451
368 1 108.637 9.63759 1047 58.767 824.566 432.5
369 0 114.826 8.883 1020 61.6588 823.967 426.934
370 1 72.1179 11.5089 830 70.2398 825.571 410.105
371 0 74.1206 12.709 942 69.4947 825.125 404.212
372 0 68.1685 6.73331 459 67.1656 825.418 422.366
373 0 70.9333 3.69361 262 27.6565 823.553 463.71
374 1 44.0563 13.5054 595 65.8034 825.666 416.415
375 0 43.035 11.5023 495 70.2626 825.196 415.065
376 0 43.1087 11.297 487 71.0596 824.575 414.201
377 0 48.0974 13.3479 642 66.9439 824.799 411.6
378 0 46.0367 11.7298 540 70.6037 824.565 411.394
379 0 51.1082 12.2094 624 68.3269 824.731 411.542
380 0 51.0375 12.7945 653 68.5299 825.93 410.426
381 0 52.0398 13.1822 686 68.4636 825.716 410.147
382 0 55.0386 12.2278 673 68.9792 825.23 410.893
383 0 54.1017 12.1253 656 70.2088 825.396 411.838
384 1 135.675 17.8368 2420 55.4165 825.379 406.046
385 1 113.056 12.852 1453 70.1383 824.651 385.326
386 1 135.426 11.5118 1559 64.204 825.047 402.424
387 0 134.673 13.7963 1858 61.0619 823.952 403.706
388 0 123.263 10.2302 1261 70.2887 824.333 396.375
389 0 132.251 12.8317 1697 69.1438 824.663 382.541
390 1 155.26 13.326 2069 62.3084 824.62 399.456
391 0 158.394 13.2076 2092 61.5512 824.661 402.842
392 0 147.249 12.489 1839 69.286 825.02 383.128
393 0 152.14 13.0997 1993 68.157 824.957 383.979
394 1 185.662 19.1369 3553 53.1342 823.858 412.42
395 1 208.214 13.6542 2843 55.9413 823.614 419.41
396 1 57.2056 15.2782 874 53.484 823.986 449.505
397 1 41.0708 12.1254 498 65.747 824.691 444.207
398 0 41.0483 12.059 495 66.4222 825.537 443.24
399 0 42.0716 10.292 433 68.0508 825.141 443.529
400 0 47.0668 13.109 617 63.41 825.475 444.214
401 0 46.195 11.4298 528 66.1155 825.299 445.186
402 1 60.2272 13.831 833 57.4466 825.067 448.256
403 1 75.1851 9.74927 733 61.0041 824.79 446.269
404 1 0 0 0 -nan -nan -nan
405 1 72.5173 8.99096 652 62.3328 824.282 449.998
406 1 52.0252 12.3209 641 65.1529 824.997 446.027
407 0 55.1073 10.6882 589 67.4346 825.477 447.105
408 1 75.149 17.5385 1318 50.981 824.945 461.366
409 1 101.066 6.86678 694 66.072 825.718 452.499
410 1 77.2525 18.0577 1395 50.9419 825.152 467.509
411 0 83.5466 10.6767 892 61.4327 824.981 462.397
412 0 94.0744 11.0126 1036 58.2288 824.687 467.002
413 1 76.3379 12.7722 975 61.278 824.968 461.94
414 0 87.3945 12.3921 1083 58.8984 824.654 465.093
415 0 98.5486 18.3666 1810 48.8039 823.857 473.822
416 1 44.0916 7.0535 311 67.7942 824.965 474.283
417 0 42.096 8.5994 362 67.2514 825.141 472.942
418 0 43.0699 10.4481 450 63.6533 824.984 474.3
419 0 39.0897 8.51886 333 68.4685 824.949 470.991
420 1 56.153 12.27 689 54.2583 824.933 478.981
421 1 41.0636 11.2021 460 64.9609 824.809 470.102
422 1 64.9064 9.13624 593 57.0236 824.924 478.59
423 1 188.39 9.9793 1880 67.8053 825.38 415.248
424 0 189.277 9.17173 1736 70.083 825.864 412.169
425 1 153.211 8.50461 1303 70.5503 825.437 427.421
426 0 153.198 7.03012 1077 70.0956 825.467 435.771
427 1 244.151 11.927 2912 67.7126 825.319 398.828
428 0 238.602 10.7837 2573 63.7 825.419 421.215
429 0 245.595 8.53438 2096 67.4814 825.223 417.882
430 1 258.252 6.06771 1567 76.0542 825.326 397.733
431 1 243.95 12.1582 2966 61.4703 824.894 421.943
432 1 224.461 8.22861 1847 74.614 825.354 395.382
433 0 221.922 12.3827 2748 67.2042 825.314 402.037
434 1 238.705 13.4894 3220 65.1366 825.345 400.98
435 0 243.653 14.3565 3498 63.2116 825.098 404.328
436 1 181.429 9.27635 1683 67.7356 824.725 419.253
437 0 170.567 14.8036 2525 59.1679 824.467 429.396
438 0 173.727 14.0968 2449 59.8914 824.645 429.724
439 0 177.521 12.6182 2240 62.3714 824.425 425.931
440 0 182.577 12.6577 2311 62.4167 824.187 424.631
441 1 132.167 9.45772 1250 67.188 824.183 434.586
442 1 57.4241 10.5008 603 59.4643 824.405 471.939
443 0 69.0765 15.0992 1043 47.4573 823.587 484.5
444 0 64.312 12.2217 786 54.1781 824.673 476.201
445 0 69.2949 9.46678 656 60.5259 824.534 468.96
446 0 74.8187 9.79701 733 58.0027 824.727 471.79
447 0 81.9197 10.3028 844 55.1102 824.406 475.642
448 1 101.352 9.20553 933 67.865 824.848 443.512
449 1 118.382 11.9359 1413 59.3574 825.499 453.95
450 1 103.204 8.62371 890 67.1292 825.551 450.987
451 0 103.294 8.31606 859 67.4668 825.476 451.034
452 1 126.253 12.1423 1533 54.028 824.714 466.349
453 1 136.176 4.70715 641 70.5179 825.434 449.223
454 1 66.151 12.3505 817 62.1848 825.245 460.862
455 0 64.1593 5.82924 374 70.5107 825.366 423.5
456 0 66.1005 8.04835 532 68.3008 824.857 424.474
457 1 85.1281 13.838 1178 55.9397 825.112 465.009
458 1 102.443 13.3148 1364 51.5762 824.084 473.157
459 1 74.3254 10.6155 789 64.891 824.672 456.517
460 0 78.2075 13.3363 1043 61.4113 824.533 454.109
461 0 80.2392 11.8645 952 63.4559 825.138 451.756
462 1 68.4404 13.5593 928 51.2328 824.601 479.079
463 1 44.0391 11.5352 508 64.0591 825.033 471.1
464 0 48.0269 12.3056 591 62.9239 825.523 467.305
465 0 46.0159 11.7785 542 64.7011 825.317 467.932
466 0 49.0394 11.1543 547 64.9982 825.969 467.082
467 1 80.4305 12.1969 981 51.421 824.04 481.811
468 1 55.0395 7.84891 432 68.5856 825.368 468.854
469 0 58.1163 11.6146 675 63.9822 825.136 464.707
470 0 58.0777 10.4515 607 65.3212 825.486 466.138
471 1 78.0727 11.9632 934 57.5064 825.28 470.598
472 0 76.3145 19.1445 1461 48.7228 824.634 476.675
473 0 65.1989 11.3806 742 64.4973 825.845 462.756
474 1 89.6512 13.6529 1224 54.0964 825.16 471.767
475 1 64.2687 11.9654 769 64.6658 825.417 462.603
476 0 66.1695 11.9239 789 65.4423 825.682 458.997
477 0 71.1018 12.7704 908 63.3381 825.329 459.216
478 0 74.0994 11.66 864 64.5845 825.434 458.677
479 0 74.1657 11.6091 861 64.5772 825.535 457.726
480 0 75.0992 11.2118 842 66.0297 825.024 454.903
481 0 79.1194 11.3247 896 65.3415 824.945 451.854
482 0 81.1481 10.906 885 65.5537 824.374 452.191
483 1 105.719 11.3036 1195 59.2318 825.139 461.429
484 1 80.0808 7.59233 608 68.7566 825.183 460.485
485 1 57.4756 16.0068 920 51.6402 824.7 479.443
486 0 58.1344 11.439 665 59.9744 825.402 474.832
487 0 46.1351 11.1845 516 65.6686 825.126 472.163
488 0 50.084 12.0797 605 65.2314 824.964 469.521
489 1 66.905 15.3202 1025 52.4888 824.941 479.802
490 0 57.1787 9.75888 558 66.9337 825.516 470.737
491 0 56.0391 11.028 618 66.5016 825.922 467.461
492 1 69.2469 19.6543 1361 49.8846 826.174 477.24
493 1 56.0267 12.851 720 65.0403 825.914 465.643
494 0 57.0557 11.6027 662 66.6571 825.934 465.576
495 0 59.0507 13.4291 793 64.43 825.864 463.992
496 0 62.0545 12.7469 791 64.8989 826.029 463.679
497 0 66.0742 13.2881 878 63.8952 825.812 461.146
498 0 66.0925 12.4825 825 65.6642 825.653 459.966
499 0 69.1214 12.9048 892 64.741 825.688 459.09
500 0 72.0701 12.0161 866 65.5254 825.506 456.566
501 0 75.135 13.8417 1040 62.8019 825.767 457.318
502 0 76.0575 12.1224 922 65.5575 826.426 457.396
503 0 77.1016 12.4641 961 65.1415 825.991 453.798
504 1 40.0428 10.5637 423 66.6407 825.998 473.6
505 0 41.0352 10.2839 422 67.3578 825.765 473.014
506 0 42.0407 10.4898 441 66.907 825.481 473.379
507 0 44.0199 11.0859 488 66.7541 825.787 471.227
508 0 47.0368 11.9268 561 65.4474 825.677 469.763
509 0 49.0427 12.4585 611 64.2668 825.941 470.293
510 0 50.0274 13.8924 695 62.6993 825.672 468.306
511 0 50.1174 12.0517 604 66.1225 826.566 465.95
512 0 54.0676 12.2069 660 64.9 826.009 467.085
513 1 2 8.5 17 28.1176 828 505.647
514 1 0 0 0 -nan -nan -nan
515 0 21 0.142857 3 37 830 512.667
516 0 0 0 0 -nan -nan -nan
517 0 21.0796 8.01722 169 29.7278 824.077 510.408
518 0 28.0299 6.06495 170 29.5882 827.135 502.688
519 1 3 11.3333 34 29.0294 831.5 501.441
520 0 4 10 40 28.725 829.575 500.375
521 1 28.126 6.96863 196 29.9541 823.985 504.918
522 0 29.2399 2.15459 63 31.5238 823.889 504.27
523 0 29.4439 2.1057 62 34.2903 823.661 513.935
524 0 24.0011 1.20828 29 41.3448 826.31 525.345
525 1 0 0 0 -nan -nan -nan
526 1 118.149 7.00809 828 67.2476 825.065 454.144
527 1 80.1062 10.4736 839 65.9201 825.782 455.869
528 1 96.7852 8.78234 850 61.5341 825.568 464.259
529 1 80.1479 9.15807 734 65.5613 826.312 460.643
530 0 91.1443 9.36976 854 61.7119 826.697 464.225
531 1 118.017 3.60118 425 71.3153 825.744 463.153
532 0 119.209 5.25968 627 69.5199 825.88 457.74
533 1 51.0807 11.8048 603 65.1891 826.224 466.688
534 0 52.1154 10.9373 570 66.686 826.416 466.296
535 0 52.1408 11.9292 622 65.6945 826.666 465.193
536 0 55.2077 12.6069 696 64.5503 826.532 464.106
537 0 58.0976 13.8732 806 62.3759 826.731 464.113
538 0 61.1615 12.606 771 64.1569 826.361 460.444
539 0 63.2455 12.8072 810 63.0691 825.752 461.999
540 0 65.0587 13.1112 853 63.646 825.6 458.968
541 1 90.1082 11.697 1054 58.8605 825.887 465.011
542 0 92.3074 12.7292 1175 55.2026 825.74 470.443
543 1 72.1067 13.1611 949 63.7229 825.604 456.399
544 0 72.1295 11.5764 835 66.8479 825.22 452.529
545 0 77.088 14.0489 1083 63.1625 825.432 450.85
546 0 79.193 12.3369 977 66.1576 825.161 449.776
547 0 81.2444 14.2287 1156 63.9377 825.555 448.76
548 0 85.1895 13.1237 1118 65.0483 825.608 448.554
549 1 41.119 10.9195 449 66.5501 826.27 470.013
550 0 41.2278 9.48388 391 69.6343 826.701 468.465
551 0 46.0307 12.0355 554 64.4206 826.105 468.776
552 0 46.1544 10.5949 489 66.8221 826.252 468.738
553 0 49.0814 12.0412 591 65.2318 826.193 467.592
554 0 52.1441 12.1586 634 63.9117 826.282 467.284
555 0 53.1325 10.5397 560 67.3661 826.084 464.498
556 1 75.909 11.4611 870 57.4977 825.569 472.239
557 0 67.2111 9.6859 651 63.5453 825.98 468.349
558 0 58.0907 11.9124 692 66.3251 825.747 460.958
559 0 60.2384 11.8695 715 65.8196 826.08 460.915
560 0 60.0402 11.5922 696 66.4224 826.649 461.18
561 0 62.1764 11.5639 719 66.1878 826.128 462.975
562 0 65.0984 12.0587 785 66.0166 826.132 458.871
563 0 67.2564 11.5528 777 65.8147 826.393 459.541
564 0 66.1535 10.5966 701 68.2011 825.84 456.926
565 0 73.0838 12.342 902 64.1375 826.149 458.987
566 0 74.1246 12.0068 890 64.5191 825.958 456.728
567 0 77.0209 5.08953 392 65.2219 825.987 471.411
568 0 80.0472 4.92209 394 66.6396 825.774 471.195
569 1 44.0574 10.1231 446 64.3386 825.578 471.274
570 0 46.0611 11.767 542 62.4041 825.078 468.908
571 0 46.0551 10.8566 500 64.764 825.288 466.444
572 0 49.0124 11.0788 543 63.4162 825.541 467.654
573 0 49.0377 10.7468 527 64.1632 825.095 464.916
574 1 62.1977 14.6147 909 52.7899 825.641 474.462
575 0 54.0259 12.2534 662 61.9502 825.873 463.426
576 0 57.0708 11.4244 652 62.1748 825.457 463.112
577 0 57.0951 10.9466 625 62.904 825.344 463.504
578 0 57.1026 12.031 687 62.163 825.574 462.194
579 0 60.053 10.907 655 62.8931 825.357 462.191
580 0 62.134 12.0224 747 61.8809 825.236 459.324
581 1 83.1409 12.0879 1005 54.5124 824.713 468.085
582 0 93.5484 8.10276 758 60.2071 824.732 465.149
583 0 92.2449 8.88938 820 60.9244 823.976 460.349
584 1 70.1562 11.9163 836 62.0024 824.36 455.65
585 0 73.2066 12.3213 902 61.9024 824.15 452.499
586 1 90.8084 16.9478 1539 49.4958 823.828 468.218
587 1 71.1854 10.8309 771 64.1556 824.464 452.28
588 0 60.344 5.8498 353 61.966 824.445 473
589 1 36.1066 8.80726 318 64.4025 824.481 471.079
590 0 36.0939 9.30905 336 65.8333 824.899 468.571
591 0 47.1386 8.40075 396 68.7803 824.073 422.533
592 0 42.0762 11.289 475 62.1642 825.208 469.893
593 0 41.0731 10.2257 420 64.7 825.05 467.848
594 0 44.0425 11.557 509 62.7151 825.42 466.485
595 0 45.0771 11.9351 538 62.0762 825.136 465.615
596 1 69.9372 11.1672 781 52.9347 824.638 475.722
597 1 46.028 9.79838 451 65.1885 824.834 465.333
598 1 69.8837 7.26922 508 63.5512 824.602 467.27
599 1 53.103 12.052 640 62.6125 824.778 463.18
600 0 55.0812 11.9278 657 62.7184 825.102 462.374
601 0 55.0606 9.68025 533 66.2533 825.323 464.231
602 0 56.0505 11.1863 627 64.6252 824.893 458.651
603 0 60.0868 12.4653 749 61.9773 824.629 459.455
604 0 60.0454 12.2074 733 62.8731 824.49 461.048
605 0 63.1102 11.4878 725 62.9048 824.577 458.043
606 0 65.0223 11.9805 779 62.7137 825.273 459.291
607 0 68.0589 11.1521 759 63.6614 824.54 456.545
608 0 71.1044 12.109 861 62.4042 825.274 452.341
609 0 73.1284 11.1448 815 63.2528 825.422 451.51
610 1 38.026 10.6506 405 62.9457 824.874 468.375
611 0 41.0716 10.786 443 61.9752 825.115 467.345
612 0 42.057 11.9124 501 61.0798 824.419 468.303
613 0 43.038 12.1056 521 60.7198 824.292 468.424
614 0 45.0235 11.5273 519 61.42 824.484 466.584
615 0 44.0352 9.99201 440 63.8932 824.443 465.591
616 0 47.0712 11.7482 553 61.8137 824.289 464.409
617 0 48.0453 12.0928 581 61.8038 823.795 463.234
618 0 50.0547 12.3065 616 61.0666 823.672 464.151
619 0 51.1843 10.6283 544 63.3566 823.724 464.482
620 0 54.0517 12.7286 688 60.8968 824.041 460.456
621 0 54.0245 11.9946 648 62.8287 824.356 460.261
622 1 85.2267 9.5158 811 58.9914 824.528 464.621
623 1 61.0548 11.9073 727 62.1073 824.37 459.673
624 0 61.1318 11.2707 689 64.357 824.856 456.951
625 0 62.2564 11.019 686 64.6006 824.561 457.254
626 0 64.0918 12.1544 779 63.4018 824.825 455.625
627 0 67.0265 12.1295 813 63.3948 824.428 456.219
628 0 69.2444 11.5244 798 64.3246 824.802 453.858
629 0 69.0744 12.4648 861 63.5029 824.298 454.453
630 0 73.2495 11.9045 872 64.0034 824.495 450.094
631 1 39.0479 9.85969 385 65.0805 824.486 468.844
632 0 40.1134 10.6698 428 64.5748 824.706 468.652
633 0 42.0991 10.6891 450 63.3667 824.762 470.184
634 0 42.0129 10.2112 429 64.8345 824.909 468.862
635 0 46.1072 10.519 485 63.901 824.847 468.548
636 0 46.1897 10.9981 508 63.815 824.854 468.303
637 0 48.0706 11.3791 547 63.8665 825.075 464.581
638 0 50.0827 11.9403 598 62.3946 825.314 466.935
639 0 51.0519 12.5167 639 62.8779 825.05 462.886
640 0 52.066 11.1781 582 63.9089 824.935 465.297
641 0 54.0645 12.966 701 62.0999 825.088 463.214
642 0 55.0626 11.7139 645 64.2977 824.895 461.699
643 0 55.0374 10.5928 583 65.6501 824.736 463.715
644 0 60.0743 11.4691 689 64.1335 824.595 461.833
645 0 62.1022 13.0591 811 61.7953 824.75 461.324
646 0 63.0897 13.1242 828 61.9505 824.443 461.35
647 0 66.1609 14.2531 943 60.6267 825.001 461.388
648 0 66.0648 11.9882 792 64.2298 825.178 460.79
649 0 68.1302 12.1532 828 64.3394 825.337 457.083
650 0 70.2044 12.2215 858 64.4417 824.733 456.331
651 0 73.1432 12.2636 897 63.8495 824.808 456.68
652 0 74.0586 11.3019 837 65.4815 824.154 455.86
653 0 76.0894 12.3145 937 64.2102 823.928 454.678
654 0 79.1833 12.5279 992 63.5312 823.874 455.806
655 0 81.1365 11.8812 964 64.7095 824.706 455.002
656 0 85.144 13.2599 1129 62.6466 824.763 451.283
657 0 85.1175 13.0173 1108 63.4946 824.544 451.63
658 1 46.0649 11.245 518 66.0483 824.535 469.18
659 0 50.0821 13.5578 679 62.3358 824.772 466.485
660 0 48.0236 11.5568 555 66.8667 824.299 464.868
661 0 53.1102 13.0672 694 63.6787 824.746 464.239
662 0 54.04 12.6758 685 64.4146 824.793 461.804
663 0 55.0881 10.3834 572 67.3741 824.778 463.977
664 0 56.0646 12.4321 697 64.8508 824.917 463.356
665 0 58.0183 11.8411 687 66.1528 825.067 459.502
666 0 59.0429 11.3477 670 66.797 825.125 461.252
667 0 61.0537 12.2843 750 65.6387 824.841 460.721
668 0 64.0751 12.3293 790 65.5861 824.443 459.967
669 0 65.089 13.3202 867 64.4683 824.028 458.202
670 0 67.1564 12.2699 824 66.2379 823.854 455.881
671 0 70.1572 12.3437 866 65.9169 824.26 454.796
672 0 73.1027 13.0091 951 64.9148 823.978 454.128
673 0 75.1295 13.3902 1006 64.8032 823.786 449.508
674 0 76.061 12.0167 914 66.3972 823.998 453.294
675 0 83.1495 13.7583 1144 48.6757 823.823 454.126
676 0 83.0708 11.9175 990 66.2242 825.11 449.563
677 0 84.1373 11.5288 970 67.8979 824.337 444.571
678 0 88.272 12.79 1129 66.0319 824.4 445.402
679 1 46.135 12.0949 558 65.2616 824.903 465.667
680 0 49.0456 10.8063 530 66.4679 824.485 467.081
681 0 50.1357 11.1896 561 66.2264 824.562 466.014
682 0 53.1525 11.8527 630 66.1349 824.311 462.467
683 0 54.0537 12.5986 681 65.2305 824.151 463.501
684 0 57.0535 12.4445 710 65.3648 824.032 463.034
685 0 57.096 10.316 589 68.9151 824.041 462.604
686 0 59.0959 13.0804 773 65.1552 824.225 460.538
687 0 61.0496 10.9419 668 67.6033 824.698 460.421
688 0 62.0984 11.5301 716 67.074 824.729 460.383
689 0 65.1379 11.6522 759 66.3689 824.601 457.671
690 0 66.1507 12.018 795 66.361 824.878 456.894
691 0 69.0751 13.2899 918 64.5218 824.904 457.466
692 0 70.0931 12.7973 897 64.9309 824.623 456.663
693 0 72.0693 12.932 932 64.9678 824.821 453.504
694 0 74.2018 12.8164 951 64.7508 825.05 453.922
695 0 77.1162 12.2931 948 64.9219 824.031 455.285
696 0 81.2123 12.141 986 65.5375 824.028 449.01
697 1 44.0958 11.3389 500 66.062 824.388 467.776
698 0 44.0784 12.2736 541 64.9686 824.481 467.88
699 0 45.0399 10.413 469 68.2196 824.514 466.849
700 0 49.1517 10.6609 524 67.0477 824.599 466.809
701 0 51.0692 12.2383 625 65.096 824.501 464.288
702 0 51.0234 12.9548 661 65.1437 824.581 465.035
703 0 53.0842 12.8287 681 65.536 824.376 464.429
704 0 54.0302 12.4005 670 65.9239 824.302 466.582
705 0 58.0429 12.7664 741 65.695 823.776 462.652
706 0 58.0717 13.8794 806 64.1749 825.689 463.584
707 0 55.0748 11.2211 618 69.7443 825.744 460.12
708 0 61.0766 12.6562 773 66.6895 825.83 460.82
709 0 63.0839 13.379 844 66.1386 825.826 457.152
710 0 66.0671 13.1533 869 65.8377 825.684 459.069
711 0 66.1182 12.1298 802 66.1658 825.585 456.273
712 0 67.0551 12.527 840 65.694 825.362 457.589
713 0 70.0952 13.3961 939 64.1896 825.652 455.16
714 0 73.0615 13.427 981 63.9898 825.451 455.554
715 0 77.0744 13.8178 1065 63.0714 825.664 454.786
716 0 78.0635 13.0663 1020 64.548 825.652 454.12
717 0 82.1056 12.0455 989 65.3074 825.273 452.303
718 1 42.0482 11.3441 477 65.0776 825.344 472.755
719 0 42.041 11.1558 469 66.1578 825.038 473.979
720 0 44.0833 12.431 548 64.5164 825.179 473.712
721 0 46.0632 13.5032 622 62.4904 824.844 474.799
722 0 46.0351 11.9691 551 64.98 825.437 472.855
723 0 47.115 13.223 623 63.3483 825.912 472.644
724 0 49.071 12.5532 616 63.8036 825.015 473.334
725 0 51.0343 12.6386 645 63.4543 824.105 476.653
726 0 53.0285 13.389 710 63.5634 824.942 474.09
727 0 55.1093 12.2665 676 64.3328 824.683 475.324
728 0 56.0608 12.4329 697 64.1937 825.079 474.544
729 0 60.087 11.8661 713 64.6774 824.61 472.532
730 0 60.1194 12.8577 773 64.1772 824.957 471.758
731 0 62.0667 12.4704 774 64.0879 825.37 471.35
732 0 61.0576 12.218 746 65.1005 825.276 469.302
733 0 65.0467 11.8223 769 65.1756 825.644 467.895
734 0 65.0995 12.5193 815 64.9386 825.578 466.831
735 0 68.1359 12.9007 879 64.0944 825.609 465.007
736 0 72.1054 13.716 989 62.7968 825.512 465.86
737 0 75.0861 13.651 1025 62.7229 825.382 464.053
738 0 79.1002 14.1845 1122 61.5713 825.627 463.271
739 0 80.1206 12.4437 997 63.9208 825.435 462.319
740 0 83.0528 11.8599 985 65 825.304 458.081
741 0 85.1242 13.5097 1150 63.1478 825.098 457.785
742 0 87.0466 14.0385 1222 62.2807 825.405 456.272
743 0 92.1302 11.9722 1103 64.7996 825.642 455.266
744 1 49.0448 12.1522 596 61.1544 826.018 478.961
745 0 52.1155 10.8221 564 63.0053 826.312 477.094
746 0 52.044 11.8169 615 62.9041 826.026 476.496
747 0 54.0654 12.0595 652 62.3206 825.679 474.727
748 0 55.0283 11.1034 611 64.3486 825.301 471.894
749 0 58.0919 12.3253 716 61.4386 824.754 475.351
750 0 59.1017 11.7425 694 62.928 825.39 472.794
751 0 61.1103 11.2256 686 63.7974 825.598 470.041
752 0 62.0315 12.7838 793 62.0656 825.719 467.865
753 0 65.0379 12.4235 808 62.4171 825.446 466.427
754 0 69.0937 11.6074 802 62.7419 825.551 466.878
755 0 71.059 12.3278 876 61.8425 824.908 466.892
756 0 73.114 13.8414 1012 60.248 825.105 462.843
757 0 73.1478 11.6476 852 62.8674 825.411 464.567
758 0 78.0886 11.1028 867 63.1223 824.717 463.685
759 0 79.1847 12.515 991 61.9849 824.621 462.441
760 0 86.082 12.4881 1075 61.5777 825.02 458.998
761 1 43.1067 8.97773 387 64.1266 826.008 478.375
762 0 47.0663 10.2409 482 61.8299 825.494 481.187
763 0 49.0764 10.881 534 60.912 825.236 476.375
764 0 49.0777 11.5327 566 60.0336 824.984 475.613
765 0 51.1052 10.7425 549 61.0692 824.781 475.53
766 0 55.0538 11.843 652 59.138 825.328 476.248
767 0 54.0591 11.0805 599 60.995 825.254 473.187
768 0 56.1035 12.0313 675 60 824.633 472.876
769 0 58.0573 11.7298 681 60.0837 824.849 471.752
770 0 60.1295 13.0053 782 58.454 825.088 471.284
771 0 62.0531 10.8456 673 60.627 824.939 470.606
772 0 63.1426 13.0023 821 58.7978 824.708 468.62
773 0 65.0348 11.2555 732 60.3934 824.475 468.658
774 0 68.2094 11.7579 802 59.9726 824.621 466.82
775 0 72.0987 12.6493 912 58.2171 824.601 465.122
776 0 70.1014 10.656 747 61.7082 824.684 462.111
777 0 75.1418 11.7777 885 59.6249 824.947 464.224
778 0 76.0419 11.1912 851 61.0717 824.951 460.941
779 0 81.1374 10.9074 885 61.0215 825.389 460.911
780 0 84.1387 11.2196 944 60.7616 824.972 459.006
781 0 86.1774 11.5111 992 60.4506 825.22 459.04
782 1 41.0815 9.37161 385 61.2442 825.306 476.901
783 0 42.1787 8.46399 357 62.4062 824.555 478.045
784 0 44.0434 10.3988 458 60.4236 824.424 476.295
785 0 46.0208 10.191 469 60.4478 824.173 474.742
786 0 47.1233 11.7988 556 59.3489 824.306 473.36
787 0 49.1174 13.1318 645 57.8326 824.713 474.043
788 0 49.0833 11.6944 574 59.669 823.693 473.97
789 0 52.0422 13.1432 684 57.7734 824.427 470.575
790 0 55.1047 11.3058 623 59.2729 824.404 470.913
791 0 55.1189 11.5206 635 59.3449 824.244 470.535
792 0 58.1062 10.5841 615 60.1968 823.515 466.979
793 0 58.1457 14.4293 839 56.1013 824.54 467.335
794 0 60.0324 12.2434 735 59.0449 824.061 466.675
795 0 66.1725 13.9031 920 56.8326 824.502 463.895
796 0 66.1304 13.2919 879 58.0171 823.795 461.785
797 0 68.0782 11.8687 808 59.354 823.661 464.301
798 0 71.0942 10.9432 778 60.3728 823.4 463.621
799 0 75.0974 12.9965 976 58.335 823.921 459.643
800 0 76.1349 11.3745 866 60.8949 824.728 459.482
801 0 78.0434 12.0702 942 59.8769 824.791 461.434
802 1 41.1274 10.5526 434 59.212 825.613 481.152
803 0 44.1728 10.5947 468 58.9188 824.697 480.816
804 0 44.0651 12.4362 548 58.3631 824.958 479.128
805 0 46.0481 11.8789 547 58.8026 824.589 479.137
806 0 49.3139 11.2342 554 58.5144 824.41 480.576
807 0 52.063 15.001 781 56.0563 824.704 475.908
808 0 53.0405 12.4433 660 59 824.697 475.623
809 0 54.0275 12.8268 693 59.5325 824.713 473.17
810 0 57.0748 12.2821 701 59.4679 824.652 473.489
811 0 57.1674 11.1252 636 62.6211 825.064 471.253
812 0 61.0503 11.4987 702 61.9729 825.642 470.765
813 0 60.1393 13.186 793 60.5359 825.58 470.845
814 0 63.118 12.342 779 61.3954 824.944 470.326
815 0 64.0352 11.4937 736 62.5829 824.353 468.908
816 0 69.0876 13.302 919 60.3896 824.49 465.461
817 0 71.1105 13.6267 969 59.838 824.142 465.93
818 0 70.0589 11.6331 815 62.9301 824.417 465.121
819 0 75.0808 13.3323 1001 60.6084 824.122 465.785
820 0 76.1915 11.6155 885 63.0249 824.642 460.258
821 0 82.1136 15.0888 1239 58.5561 824.784 463.228
822 1 42.1084 9.57053 403 64.2655 825.32 480.045
823 0 42.1503 10.4626 441 63.907 824.753 479.712
824 0 43.0746 10.5863 456 64.9057 825.406 480.572
825 0 44.0727 10.8684 479 65.0877 825.351 478.979
826 0 50.1229 12.8883 646 61.144 825.053 479.18
827 0 52.1412 12.5812 656 61.7485 824.916 478.331
828 0 53.0849 11.8301 628 63.4602 824.954 475.971
829 0 53.1152 12.0305 639 64.0798 824.859 472.653
830 0 55.0518 13.4601 741 62.2335 824.87 473.043
831 0 59.0537 12.2262 722 62.7271 825.022 475.472
832 0 59.075 13.322 787 62.1919 824.957 473.072
833 0 60.0317 12.8266 770 62.8208 825.566 474.226
834 0 62.1959 13.0394 811 63.0752 824.889 470.31
835 0 65.0619 12.6802 825 63.3636 824.808 469.594
836 0 66.1164 11.9184 788 64.17 824.702 471.485
837 0 70.0662 13.4302 941 62.8108 824.624 468.283
838 0 74.1155 13.0202 965 63.4446 824.538 467.515
839 1 38.1631 10.4027 397 64.7985 824.448 484.159
840 0 39.0992 9.2585 362 67.279 824.414 482.202
841 0 41.169 11.4892 473 64.0972 824.218 483.421
842 0 40.0627 11.1575 447 66.9754 825.065 482.709
843 0 44.1869 12.9676 573 64.8953 825.576 482.414
844 0 48.0561 12.6727 609 64.289 825.417 481.882
845 0 46.1245 13.0733 603 65.5174 825.539 477.937
846 0 51.1945 12.5599 643 64.7916 825.655 481.034
847 0 51.0308 13.0705 667 65.4213 824.448 479.541
848 0 51.2455 11.5913 594 67.9764 824.801 478.476
849 0 54.2965 13.5552 736 65.2649 824.757 477.103
850 0 56.1239 14.7352 827 63.7557 824.398 477.127
851 0 58.0641 12.7445 740 66.3541 824.408 477.65
852 0 59.1402 12.9015 763 67.249 824.581 474.914
853 0 63.0974 16.4983 1041 61.4063 824.964 474.785
854 0 63.192 13.2612 838 66.3198 824.558 473.671
855 0 65.1551 13.982 911 66.0077 824.707 471.805
856 0 66.143 14.5745 964 65.1089 824.084 470.589
857 0 69.1201 12.5723 869 68.0575 824.526 469.442
858 1 36.0635 12.6166 455 64.9736 824.976 487.323
859 0 38.0463 12.3008 468 65.7457 825.152 486.216
860 0 38.1526 11.9258 455 68.5143 825.374 482.435
861 0 40.0519 11.2854 452 68.5199 824.752 482.484
862 0 43.0314 11.3638 489 69.2127 825.106 481.151
863 0 44.1221 10.6296 469 69.3753 824.638 482.26
864 0 47.0695 12.1522 572 67.3234 825.409 481.205
865 0 48.0412 13.5509 651 65.3456 826.766 481.081
866 0 50.0225 12.0546 603 67.5406 826.26 478.357
867 0 52.1022 12.3219 642 66.9984 825.958 477.872
868 0 52.225 10.876 568 69.5493 825.225 475.532
869 0 57.0849 12.5953 719 66.5522 825.613 477.097
870 0 57.132 12.4624 712 66.5815 825.18 475.343
871 0 58.1557 12.415 722 66.5679 824.968 472.821
872 0 59.0701 11.1901 661 68.6067 824.551 472.537
873 0 62.0801 12.8544 798 66.005 824.48 471.642
874 0 64.2138 13.3616 858 65.3462 823.979 469.148
875 0 66.0924 11.0905 733 68.2783 824.175 468.412
876 0 66.1932 11.4664 759 68.0501 824.207 468.478
877 0 70.1488 11.7892 827 67.7449 824.429 464.304
878 0 72.1769 11.7766 850 67.6459 824.422 463.66
879 0 74.0678 11.341 840 68.1429 824.682 463.625
880 1 42.1854 10.5961 447 65.7025 825.541 480.993
881 0 42.1681 11.5016 485 64.7278 825.033 480.784
882 0 45.1299 10.4587 472 66.142 825.218 480.273
883 0 44.0558 10.6456 469 66.5928 824.814 480.049
884 0 46.0529 10.8354 499 66.3968 825.126 476.954
885 0 49.048 9.72517 477 67.7149 824.828 475.975
886 0 48.063 11.5473 555 66.3315 825.132 473.906
887 0 52.0814 10.1188 527 67.2543 825.973 472.873
888 0 52.1089 10.67 556 66.5683 825.489 472.327
889 0 57.1165 12.3082 703 64.2262 825.354 471.407
890 0 59.1265 10.9426 647 65.6399 825.335 470.961
891 0 57.0871 11.1233 635 66.085 825.439 470.772
892 0 62.128 12.4903 776 63.8518 825.061 467.496
893 0 62.1299 10.3976 646 66.5929 824.963 467.05
894 0 64.1384 10.8983 699 65.7825 825.083 463.717
895 0 68.0796 12.9554 882 62.9501 824.656 463.607
896 0 69.0546 10.5713 730 65.6479 824.677 463.673
897 0 74.1446 11.2753 836 64.6483 824.933 461.377
898 0 74.0361 10.8731 805 65.2385 825.2 458.928
899 0 76.0721 12.7905 973 63.075 825.114 457.552
900 0 80.0331 11.2703 902 64.2118 825.159 458.499
901 0 81.0998 13.4526 1091 61.9716 825.635 457.825
902 0 87.3509 12.6272 1103 62.2593 825.978 456.546
903 0 90.0779 12.578 1133 62.2383 825.56 453.604
904 0 93.0781 11.2164 1044 63.9186 825.46 451.372
905 0 93.1043 12.0725 1124 63.0863 825.387 450.433
906 1 43.0202 8.92603 384 61.987 825.354 477.612
907 0 45.0145 11.263 507 59.8087 824.805 475.888
908 0 45.0751 9.584 432 62.5903 824.648 474.847
909 0 50.0671 9.90671 496 61.6714 824.962 474.044
910 0 48.0911 9.19089 442 63.3484 824.774 472.697
911 0 52.0391 11.5874 603 60.6982 824.934 470.531
912 0 56.0983 9.10901 511 62.9883 825.012 471.462
913 0 57.0621 11.2684 643 60.6734 825.25 468.914
914 0 58.0944 11.6879 679 60.6024 825.287 467.987
915 0 62.1549 11.4552 712 47.5646 824.456 468.369
916 0 65.0481 11.699 761 60.3154 824.359 466.059
917 0 69.1605 10.5841 732 61.5082 824.598 463.444
918 0 71.1476 10.7664 766 61.3525 825.274 463.533
919 0 73.1523 9.70578 710 63.1549 824.928 462.542
920 0 77.0864 12.4406 959 59.1814 825.982 463.172
921 0 80.1498 11.8778 952 60.2479 825.634 460.674
922 0 84.1322 13.039 1097 58.6381 825.031 461.698
923 0 85.1508 11.8965 1013 60.3435 824.715 461.524
924 0 89.1864 11.9637 1067 60.4948 824.823 457.033
925 0 91.0969 13.096 1193 59.7033 825.136 456.001
926 0 94.0807 11.9472 1124 60.2883 825.217 457.741
927 0 98.2131 11.9841 1177 60.0323 825.133 457.353
928 0 98.2041 11.3335 1113 61.9416 824.886 450.593
929 0 101.14 11.8351 1197 61.1804 824.466 452.434
930 0 105.216 12.4981 1315 60.5285 825.218 450.278
931 0 109.13 13.5251 1476 59.0027 825.174 449.345
932 0 114.149 11.5726 1321 61.7555 824.482 448.603
933 0 116.269 12.0497 1401 61.9971 824.156 441.44
934 0 120.17 12.3908 1489 61.6844 824.316 441.905
935 0 123.202 11.8099 1455 62.8062 824.619 440.344
936 0 129.254 11.9609 1546 62.5537 825.261 439.169
937 0 134.171 12.8046 1718 61.518 825.07 437.917
938 1 87.2094 10.6984 933 62.0836 824.63 461.707
939 0 89.1083 10.6275 947 62.265 824.776 461.792
940 0 93.1293 12.1337 1130 61.4301 824.689 458.191
941 0 96.1277 12.3898 1191 61.8925 824.378 451.875
942 0 100.14 11.6537 1167 62.3813 824.406 453.802
943 0 103.114 10.4641 1079 64.0213 823.868 449.703
944 0 108.106 13.496 1459 60.1892 824.268 450.051
945 0 112.189 12.2829 1378 62.2888 823.782 445.241
946 0 117.174 12.0078 1407 62.1372 823.6 446.231
947 0 121.236 12.4056 1504 61.6775 823.35 445.802
948 0 125.105 12.9731 1623 61.1787 823.394 443.042
949 0 129.112 13.1746 1701 61.1288 823.339 437.483
950 1 70.0597 11.7186 821 60.6638 822.849 469.504
951 0 74.0378 9.91386 734 62.4428 823.031 468.777
952 0 74.0648 9.69421 718 63.3969 823.26 466.831
953 0 77.1078 11.5942 894 61.5011 823.81 463.081
954 0 81.0845 11.6052 941 61.0956 823.937 463.033
955 0 85.1404 11.8393 1008 60.1339 823.691 462.709
956 0 87.0762 13.2298 1152 58.605 823.81 459.927
957 0 91.0357 11.8305 1077 59.3463 823.953 460.817
