time division length width area intensity CMx CMy
0 0 90.0791 11.6231 1047 66.3142 430.668 467.872
1 0 95.1168 12.0273 1144 65.3846 430.13 465.743
2 0 94.2035 10.8276 1020 67.0902 430.298 467.648
3 1 52.0249 10.0913 525 67.6667 430.371 485.604
4 0 53.0755 10.1742 540 66.9019 430.457 485.519
5 0 55.0605 9.64394 531 68.5895 429.586 484.171
6 0 58.0514 11.1797 649 65.3005 428.435 485.39
7 0 64.1207 10.0903 647 66.3988 429.056 484.264
8 0 61.0732 11.8383 723 65.5906 428.387 480.793
9 0 64.0714 13.0792 838 63.6587 429.054 479.856
10 0 67.0908 11.7155 786 64.7443 429.363 479.763
11 0 67.3636 12.3212 830 64.4217 428.365 477.357
12 0 70.1152 13.4208 941 63.2136 428.37 476.216
13 0 71.1109 11.4047 811 65.8434 427.991 475.818
14 0 75.1109 12.0355 904 64.3131 428.251 477.431
15 0 76.1797 13.0612 995 63.5407 427.758 475.93
16 0 79.1643 11.2045 887 65.5896 426.877 474.324
17 0 81.1132 12.2791 996 65.004 427.229 469.898
18 0 83.3604 11.6722 973 65.2199 426.994 472.453
19 0 86.1845 11.2897 973 66.26 427.279 468.547
20 0 87.1156 10.5492 919 67.0849 427.541 470.627
21 0 90.0947 11.388 1026 66.6423 428.18 466.303
22 1 48.0307 9.84788 473 65.3319 428.364 488.729
23 0 49.0226 10.8725 533 63.6229 427.79 490.242
24 0 49.0799 10.432 512 65.6055 427.672 486.074
25 0 52.1071 9.57644 499 66.8136 428.495 488.074
26 0 52.0849 9.48452 494 68.4717 428.976 484.03
27 0 54.018 11.5147 622 65.5691 427.82 482.707
28 0 56.0849 10.7516 603 66.6915 427.896 482.519
29 0 61.1642 11.2648 689 65.2874 427.901 484.985
30 0 61.1965 10.8176 662 66.2145 427.929 482.474
31 0 63.1266 12.9739 819 63.5812 427.783 482.435
32 0 65.1372 12.4813 813 64.4551 427.835 481.905
33 0 65.1514 12.7856 833 64.467 427.431 478.696
34 0 68.1146 11.5541 787 65.7929 427.324 478.764
35 0 70.2164 11.0231 774 66.4845 427.212 478.625
36 0 72.1795 11.8178 853 65.3494 427.202 477.002
37 0 73.143 11.9765 876 65.6393 427.404 476.491
38 0 76.08 9.91062 754 68.0756 427.281 475.139
39 0 79.1306 13.4209 1062 63.3324 427.348 472.215
40 0 83.0699 12.2668 1019 64.3013 427.302 472.105
41 0 85.2029 11.1733 952 66.167 427.526 470.999
42 0 88.2601 11.874 1048 65.3635 427.48 468.649
43 1 46.0455 10.6417 490 65.6816 427.451 489.09
44 0 47.1337 9.65338 455 67.389 427.945 487.215
45 0 50.1011 10.9978 551 64.6207 427.857 486.599
46 0 51.0818 11.7459 600 63.0667 427.18 488.04
47 0 52.0604 11.698 609 63.5665 426.821 485.016
48 0 56.1544 11.7355 659 62.7936 426.889 485.138
49 0 56.0581 11.5594 648 63.7068 426.856 485.708
50 0 58.0761 12.277 713 63.2272 426.303 483.236
51 0 58.0531 11.7823 684 63.883 426.447 483.132
52 0 60.0947 12.1142 728 63.614 426.889 483.321
53 0 64.1881 11.9025 764 64.0209 426.809 481.627
54 0 66.0628 12.473 824 63.4345 427.13 481.511
55 0 65.1806 10.8468 707 66.1528 427.091 480.912
56 0 68.1153 11.3631 774 65.553 426.906 477.987
57 0 70.0931 12.6831 889 64.3307 427.125 477.494
58 0 72.2968 12.9743 938 64.2644 427.145 475.272
59 0 73.1451 11.3883 833 67.0324 427.37 476.269
60 0 76.1439 11.9642 911 66.2975 427.609 473.984
61 1 42.0495 11.1535 469 65.1962 427.064 491.456
62 0 45.03 9.99333 450 65.7356 426.809 491.516
63 0 45.0649 11.3392 511 65.3718 426.573 489.773
64 0 46.1835 12.4503 575 64.0852 426.377 488.83
65 0 47.0751 10.4726 493 66.57 427.272 489.434
66 0 47.0098 11.2955 531 65.9341 426.516 486.637
67 0 51.0921 10.9802 561 65.8021 426.18 487.234
68 0 50.089 10.3616 519 66.8902 426.524 487.973
69 0 52.2374 11.0074 575 66.447 427.144 486.386
70 0 53.1606 12.4528 662 64.6767 426.39 484.881
71 0 56.0399 10.9922 616 66.3734 426.602 482.032
72 0 55.0327 9.79417 539 67.9963 426.299 483.904
73 0 57.0897 11.9286 681 65.3568 426.896 481.391
74 0 58.0988 11.6526 677 65.4934 426.86 484.612
75 0 60.1877 11.3977 686 65.8397 426.637 481.827
76 0 64.1091 13.7734 883 62.4983 426.643 480.067
77 0 65.0997 12.6268 822 63.5231 426.684 481.662
78 0 68.2145 12.4167 847 64.2326 427.276 477.065
79 0 68.0818 12.6906 864 64.4606 427.137 476.905
80 0 71.0554 11.7795 837 65.6487 427.192 476.033
81 0 72.1404 10.0637 726 68.0579 427.259 475.083
82 1 35.0643 8.12792 285 66.9228 426.154 493.144
83 0 38.0267 10.9397 416 63.4808 426.243 492.041
84 0 40.075 11.179 448 62.1071 426.049 493.69
85 0 41.088 11.95 491 61.4399 426.289 492.273
86 0 42.1079 11.3043 476 61.9223 426.792 491.347
87 0 43.0535 11.869 511 60.9628 427.068 491.924
88 0 42.0183 11.4236 480 63.0062 426.706 489.929
89 0 44.0749 10.4595 461 64.2863 427.351 490.262
90 0 44.0326 9.5611 421 65.5083 427.451 488.549
91 0 46.0998 10.8677 501 63.8842 427.537 488.739
92 0 46.1095 9.88951 456 65.6316 427.34 487.066
93 0 49.2217 10.2394 504 65.121 427.145 485.742
94 0 48.0247 11.2858 542 64.9391 427.352 486.884
95 0 51.2517 11.7265 601 63.8702 426.857 486.106
96 0 52.0327 11.2237 584 64.6575 427.336 485.572
97 0 55.0727 10.3318 569 65.3972 426.571 483.121
98 0 56.2216 12.2729 690 63.3101 427.006 483.87
99 0 57.048 12.1477 693 63.811 426.996 482.234
100 0 59.0416 10.9753 648 65.2006 427.262 483.443
101 0 59.1336 13.2412 783 63.2018 427.506 479.427
102 0 63.0526 13.7187 865 62.615 427.591 480.924
103 0 64.0507 12.8648 824 63.3459 427.147 479.766
104 0 66.0891 10.9549 724 66.2348 426.881 477.327
105 0 69.09 12.1146 837 65.0227 427.143 476.976
106 0 70.137 11.8625 832 66.0036 427.669 476.279
107 0 74.0639 12.6647 938 64.5981 427.312 476.096
108 1 37.0629 8.76887 325 67.9846 426.978 493.88
109 0 40.0178 11.6698 467 63.8158 427.203 492.208
110 0 40.0542 10.9602 439 65.3462 427.886 491.913
111 0 42.0302 10.7304 451 65.7051 427.579 490.557
112 0 43.0703 10.3552 446 66.1906 427.794 490.843
113 0 44.0907 10.297 454 66.4339 427.194 489.022
114 0 48.035 11.0128 529 64.7221 427.25 490.335
115 0 47.0504 9.64922 454 67.5308 427.626 487.932
116 0 50.0323 11.0529 553 66.1555 428.116 487.613
117 0 51.024 11.5828 591 65.1794 427.785 487.569
118 0 51.1382 11.6547 596 65.797 428.054 487.221
119 0 56.0945 11.3202 635 64.9039 427.784 487.362
120 0 53.1215 11.8784 631 66.1537 428.094 484.818
121 0 57.0863 12.4724 712 64.934 428.499 484.416
122 0 61.0933 12.7019 776 64.0296 427.463 485.041
123 0 61.1021 11.8326 723 65.1687 427.187 485.559
124 0 60.0934 11.0328 663 67.3831 427.448 481.124
125 0 65.1369 12.942 843 63.2135 428.367 485.05
126 0 65.0609 12.0964 787 65.4625 428.094 482.475
127 0 67.075 11.8822 797 65.9611 428.519 478.93
128 0 68.1717 13.4073 914 64.0952 428.056 479.362
129 0 72.1572 11.8907 858 65.7716 427.65 479.15
130 0 72.1304 12.5744 907 64.9129 427.192 479.442
131 0 76.3104 11.6105 886 66.0113 426.796 476.405
132 0 77.1215 12.0848 932 65.97 426.697 475.58
133 1 40.0452 9.31448 373 66.756 427.08 494.836
134 0 39.0403 9.42615 368 67.1658 427.791 494.285
135 0 43.0761 11.352 489 65.2802 427.427 492.503
136 0 44.0517 13.0075 573 64.0384 427.798 490.504
137 0 43.1239 10.2495 442 67.8077 427.335 491.163
138 0 45.1159 11.1269 502 66.7171 427.494 491.022
139 0 46.1205 12.0771 557 65.6697 427.684 488.851
140 0 48.0332 12.3665 594 65.5943 427.939 489.313
141 0 49.2241 9.99511 492 68.6016 429.065 486.567
142 0 50.0408 11.011 551 67.5354 428.352 486.14
143 0 52.1479 11.3332 591 66.7496 427.768 485.826
144 0 52.095 10.9032 568 67.3873 427.474 485.412
145 0 56.0749 11.4311 641 65.9298 428.144 485.181
146 0 55.0382 10.52 579 67.6701 428.036 483.218
147 0 58.1087 10.8934 633 66.7978 428.646 481.22
148 0 60.1203 10.7119 644 66.6879 428.851 482.927
149 0 61.0777 9.9709 609 67.6043 427.98 480.213
150 0 64.1148 11.3858 730 65.3959 428.074 480.632
151 0 66.1554 11.5939 767 65.528 428.237 477.082
152 0 69.127 12.7302 880 63.2205 428.33 479.312
153 0 70.0782 12.7429 893 63.6495 428.043 474.471
154 0 71.1446 10.8511 772 66.0609 428.374 473.712
155 0 74.1184 11.765 872 64.2546 427.995 474.956
156 0 76.1276 10.7977 822 65.7762 427.747 471.612
157 0 79.1884 9.84992 780 66.1731 428.222 473.532
158 0 82.0869 12.2553 1006 63.4145 428.391 468.16
159 0 84.0811 12.1192 1019 63.3523 428.586 470.191
160 0 87.1031 13.6734 1191 60.8741 428.358 468.223
161 0 88.1443 11.2543 992 63.8659 427.789 464.583
162 0 91.1543 10.027 914 64.3195 428.039 465.74
163 0 95.0852 12.1891 1159 62.3132 428.603 462.521
164 0 99.1345 11.9434 1184 62.8708 427.701 457.889
165 0 102.131 10.7411 1097 63.7493 428.129 459.513
166 0 103.125 10.7151 1105 63.0787 427.703 460.211
167 0 107.137 10.5192 1127 63.7968 426.918 452.548
168 0 111.089 11.7563 1306 61.9257 426.871 456.485
169 0 113.193 10.8575 1229 63.3466 427.644 453.813
170 0 118.136 11.3006 1335 62.8187 428.146 447.947
171 0 122.27 10.3787 1269 63.3341 427.829 449.637
172 0 126.188 11.6334 1468 62.1294 428.161 445.088
173 1 53.0968 8.94593 475 60.9284 428.941 482.619
174 0 55.0708 8.18946 451 61.9468 429.153 481.106
175 0 57.0696 8.76124 500 61.674 428.892 481.96
176 0 60.0996 10.05 604 59.9487 428.464 481.727
177 0 61.0468 11.827 722 57.7396 429.247 481.817
178 0 62.077 9.89095 614 58.9283 429.463 479.445
179 0 64.0882 10.6416 682 57.8988 429.374 476.412
180 0 64.0666 10.3954 666 58.3483 428.239 475.182
181 0 66.1078 9.60553 635 58.8142 428.351 474.441
182 0 71.1145 11.4182 812 55.9002 428.826 477.767
183 0 73.0881 11.3288 828 55.9227 428.703 473.079
184 0 77.052 12.5889 970 54.4794 428.943 473.829
185 0 76.0855 8.64817 658 58.5821 428.19 468.865
186 0 79.2084 10.7059 848 56.4976 428.124 467.239
187 0 81.1878 10.3957 844 56.3175 427.489 467.107
188 0 83.101 9.92768 825 56.8764 428.051 468.448
189 0 85.1162 11.5254 981 55.4546 428.062 463.759
190 0 88.2245 9.45315 834 57.3933 428.261 464.155
191 0 90.2944 8.38369 757 58.3593 428.407 459.016
192 0 92.2236 9.74805 899 57.2369 428.11 462.941
193 0 95.1899 9.63337 917 57.2988 428.053 459.859
194 0 98.2864 11.263 1107 55.9566 428.566 457.631
195 0 100.324 12.2603 1230 54.9203 428.223 456.792
196 0 104.125 11.6782 1216 55.5378 427.99 454.531
197 0 107.26 11.5234 1236 55.3147 427.75 454.513
198 0 111.235 10.716 1192 55.6862 427.836 455.026
199 1 63.0458 9.23138 582 55.5034 427.68 477.966
200 0 65.1024 9.0012 586 55.5939 427.814 478.172
201 0 65.0895 10.3703 675 54.8993 428.159 478.384
202 0 69.1799 12.1856 843 52.8909 427.721 477.643
203 0 70.1616 11.1885 785 54.2395 427.526 475.389
204 0 74.1203 12.7226 943 52.5175 426.998 473.909
205 0 70.0806 9.03245 633 57.6509 427.215 473.539
206 0 77.1103 13.6039 1049 52.5891 427.245 471.22
207 0 79.2665 11.8587 940 53.55 427.64 469.382
208 0 82.175 11.8893 977 53.219 427.696 472.409
209 0 83.0965 12.4434 1034 52.9168 427.285 468.047
210 0 87.2669 13.579 1185 51.6616 427.37 470.708
211 0 88.2309 13.1133 1157 52.6309 427.646 469.134
212 0 90.1645 12.9874 1171 53.2579 427.707 465.342
213 0 93.198 12.232 1140 53.793 427.899 466.297
214 0 96.1483 11.8047 1135 54.1181 427.468 463.505
215 0 98.1723 11.4493 1124 54.871 427.065 461.358
216 0 100.095 10.8297 1084 55.8109 427.22 461.291
217 0 103.247 12.0197 1241 54.6019 426.181 459.325
218 0 105.123 12.5281 1317 54.6029 426.033 457.121
219 0 109.167 12.6137 1377 54.7509 426.002 458.911
220 0 113.217 13.8496 1568 53.6709 426.082 456.829
221 0 117.079 12.8204 1501 54.8674 426.352 451.531
222 1 57.0681 11.46 654 56.2431 427.39 481.098
223 0 59.1365 11.0761 655 57.0794 427.727 478.264
224 0 61.0971 10.246 626 57.5895 427.278 480.064
225 0 64.1023 11.2632 722 56.6884 427.262 478.409
226 0 65.2436 12.1851 795 55.7296 427.564 479.367
227 0 69.1626 10.9018 754 57.2997 427.423 475.975
228 0 71.2192 11.2329 800 56.6538 427.659 475.996
229 0 74.222 10.8728 807 56.3643 427.804 478.232
230 0 73.1089 9.68419 708 58.8531 427.816 475.295
231 0 78.2906 12.2748 961 55.5609 427.622 472.03
232 0 75.3368 8.8403 666 60.4279 428.514 469.778
233 0 77.1502 9.1121 703 59.9331 428.046 467.374
234 0 81.4185 10.8575 884 58.1923 428.029 465.952
235 0 83.2564 9.44072 786 59.4211 427.845 459.463
236 1 33.0371 9.38339 310 59.5258 426.706 486.126
237 0 33.0544 7.77506 257 60.9883 426.786 482.961
238 0 37.0206 9.40017 348 59.0603 426.94 485.195
239 0 37.053 7.31385 271 61.4539 427.277 482.011
240 0 40.071 9.50813 381 59.0236 427.226 483.675
241 0 41.0625 8.47488 348 60.2098 427.417 483.109
242 0 44.0914 7.59785 335 61.5104 426.719 481.994
243 0 45.0417 9.59111 432 59.4861 426.84 481.944
244 0 45.0968 9.26894 418 60.634 426.895 482.677
245 0 46.07 10.1368 467 59.4904 426.572 483.124
246 0 48.0809 7.92415 381 61.5827 426.651 482.549
247 0 50.0248 9.93507 497 59.1831 426.105 482.616
248 0 51.0387 8.13108 415 61.9253 425.414 475.764
249 0 48.0788 7.00933 337 63.5193 424.955 476.145
250 0 53.0261 8.73155 463 61.6631 425.51 474.067
251 0 59.0435 8.50221 502 60.9203 425.934 481.048
252 0 56.0147 9.33684 523 61.4532 426.075 478.052
253 0 60.05 8.27644 497 61.6881 426.294 475.905
254 0 60.0794 10.1865 612 60.9248 426.99 473.953
255 0 64.1274 10.0269 643 61.1291 427.061 475.63
256 0 67.0561 10.0662 675 61.2311 426.884 474.145
257 0 70.1009 10.9842 770 60.1584 426.597 471.948
258 0 73.0414 10.4735 765 60.7072 426.71 471.046
259 0 77.2073 12.0325 929 58.775 426.685 470.538
260 0 77.0804 9.89876 763 61.7379 427.267 467.67
261 0 80.1264 10.9826 880 60.7114 427.388 467.428
262 0 81.2213 10.0466 816 62.6348 427.866 462.806
263 0 85.0829 10.6837 909 61.8163 427.821 464.131
264 0 89.1141 11.5582 1030 60.7262 427.341 464.422
265 0 90.099 10.3553 933 62.6538 427.648 463.82
266 0 95.0957 10.6629 1014 62.3402 427.015 463.345
267 0 97.2062 11.5425 1122 61.7799 426.934 460.736
268 0 101.162 11.2196 1135 61.6062 426.596 461.61
269 1 51.0441 11.0884 566 62.1078 426.793 482.864
270 0 52.0604 11.3522 591 61.5431 426.932 482.291
271 0 52.0855 9.83 512 64.2324 427.252 479.748
272 0 54.0823 10.2991 557 63.6571 428.314 479.941
273 0 56.1374 12.2556 688 60.8183 428.065 480.669
274 0 59.0437 10.6531 629 61.1574 428.099 478.825
275 0 60.0836 12.0332 723 59.6279 426.869 479.383
276 0 62.0858 11.2425 698 60.8481 427.345 478.433
277 0 62.2331 10.2357 637 62.4176 427.308 477.286
278 0 63.1411 10.136 640 62.3547 427.022 475.103
279 0 66.0682 10.5346 696 61.569 427 473.444
280 0 67.048 9.66472 648 62.5864 427.361 474.921
281 0 69.0748 11.017 761 61.2168 427.739 470.841
282 0 70.1905 11.1981 786 60.6667 427.702 472.466
283 0 75.1301 11.6065 872 59.0619 426.999 472.47
284 0 77.1084 11.0105 849 60.0283 427.166 471.443
285 0 79.0631 10.4221 824 61.176 426.636 467.193
286 0 81.1748 11.9126 967 59.1613 426.8 466.475
287 0 84.0757 10.4073 875 61.1623 427.349 464.313
288 0 85.1874 9.6141 819 62.4701 427.212 464.19
289 1 46.0196 8.5833 395 63.1797 427.033 484.519
290 0 48.0275 9.84853 473 62.2304 426.998 482.742
291 0 48.0222 10.2244 491 61.3747 427.255 486.314
292 0 50.0294 10.4339 522 62.2088 427.515 481.598
293 0 52.0601 10.68 556 61.5234 427.124 483.644
294 0 55.0184 10.342 569 61.9525 427.346 483.197
295 0 55.0705 10.2414 564 62.9645 427.479 478.746
296 0 58.0939 10.8617 631 61.8526 427.062 479.954
297 0 59.0979 10.5757 625 62.2736 426.802 480.39
298 0 60.0439 11.4083 685 62.0277 427.231 477.569
299 0 64.1224 11.8523 760 60.9487 427.358 473.383
300 0 65.0577 11.0517 719 62.2378 427.417 475.331
301 0 67.1456 11.1846 751 62.5925 427.055 473.009
302 0 71.1282 12.0205 855 60.917 427.92 472.627
303 0 70.0281 11.9238 835 61.6419 427.869 472.232
304 0 73.0625 10.1009 738 63.8808 427.751 469.603
305 0 75.0542 10.086 757 63.3884 428.034 469.086
306 0 80.0756 11.3643 910 62.2648 427.775 468.445
307 0 81.045 11.0679 897 62.5251 427.305 467.552
308 0 88.2231 11.4482 1010 61.8248 427.486 467.126
309 0 87.0917 9.67945 843 64.6026 427.992 461.815
310 0 91.0822 11.3853 1037 61.974 428.04 462.636
311 0 93.0783 11.4527 1066 62.0056 427.355 463.636
312 0 96.3026 10.5501 1016 63.5276 427.63 460.945
313 1 54.0938 10.3894 562 61.863 427.278 483.292
314 0 54.1745 12.4597 675 60.9822 427.407 480.696
315 0 57.0397 10.6768 609 62.7209 427.488 481.353
316 0 58.1311 11.0784 644 62.7609 427.533 478.534
317 0 60.1522 11.421 687 62.5648 427.45 473.748
318 0 61.1234 12.712 777 61.4273 427.073 474.955
319 0 64.1388 11.0386 708 63.5155 427.418 473.034
320 0 68.0568 12.8569 875 60.7886 427.393 471.429
321 0 67.1289 10.9491 735 63.268 427.853 473.75
322 0 70.1499 12.3165 864 61.8333 428.036 472.049
323 0 72.055 12.4766 899 61.2436 426.991 473.204
324 0 74.1101 13.1291 973 61.1254 427.246 468.602
325 0 77.1431 11.8611 915 62.4328 427.246 467.419
326 0 78.133 12.21 954 62.3008 427.061 466.872
327 0 84.0934 11.404 959 62.2388 427.094 469.475
328 0 85.0569 13.5086 1149 60.5178 427.368 466.178
329 0 87.1491 12.8974 1124 61.8781 427.519 463.771
330 0 90.1131 11.8851 1071 62.5528 427.276 464.359
331 0 93.0424 12.2525 1140 62.4386 426.564 461.04
332 0 95.094 13.6496 1298 60.782 426.682 461.133
333 0 98.1718 12.8958 1266 61.9818 426.371 456.009
334 1 52.0336 10.6085 552 60.9293 427.248 484.871
335 0 55.1023 10.544 581 62.5422 427.382 480.422
336 0 58.0561 11.7645 683 61.224 427.414 481.332
337 0 58.0307 11.4767 666 61.9174 427.542 481.623
338 0 60.0742 11.1695 671 62.7988 427.298 478.051
339 0 63.1153 12.7386 804 60.9938 427.031 476.766
340 0 63.0457 11.0238 695 64.0719 427.56 475.282
341 0 64.0732 11.0967 711 63.5162 427.495 477.959
342 0 69.1131 13.0221 900 61.3744 427.356 474.823
343 0 70.1595 11.6876 820 63.0695 427.679 473.374
344 0 72.0736 11.9739 863 62.3129 427.286 472.971
345 0 75.0878 11.5598 868 63.0806 427.286 470.368
346 0 78.1085 12.7515 996 61.7811 427.198 468.622
347 0 79.0282 11.6794 923 63.0553 427.671 470.361
348 0 84.0899 13.8067 1161 60.4505 426.695 468.827
349 0 82.0899 11.792 968 63.8471 426.476 466.573
350 0 87.0843 13.2745 1156 61.673 426.539 464.866
351 0 90.1819 13.3064 1200 61.3825 426.501 466.218
352 0 92.1456 12.0245 1108 63.8114 426.42 460.687
353 0 94.0857 11.5427 1086 64.3867 426.999 463.304
354 0 98.168 12.5703 1234 63.4076 426.78 458.848
355 1 53.0779 12.0201 638 60.6176 426.821 483.096
356 0 54.0151 11.7375 634 61.1514 426.674 483.617
357 0 55.0569 11.9149 656 61.4497 426.366 481.729
358 0 54.0477 12.1929 659 61.9742 426.156 479.81
359 0 57.1175 10.9599 626 62.377 426.272 481.265
360 0 61.0565 11.3174 691 62.288 427.155 479.781
361 0 60.1493 9.11066 548 65.2737 427.095 480.181
362 0 64.0928 11.9982 769 61.2354 427.222 478.276
363 0 65.1588 11.449 746 63.1971 427.531 475.617
364 0 66.0786 11.1837 739 64.0731 427.432 476.081
365 0 70.1794 11.4279 802 61.9526 427.498 478.358
366 0 70.071 11.0317 773 63.0906 427.58 475.97
367 0 72.1139 10.6221 766 63.7285 427.427 475.127
368 0 75.1998 10.8511 816 63.6998 427.136 472.403
369 0 77.0966 10.8046 833 63.7131 426.475 470.286
370 0 79.0678 10.3456 818 64.0929 426.66 469.579
371 1 40.0194 7.94616 318 61.5818 426.94 489.365
372 0 39.0332 7.91633 309 62.5307 426.615 489.236
373 0 39.0641 9.98359 390 62.6205 427.931 487.713
374 0 42.0507 10.202 429 61.9231 428.023 487.627
375 0 42.1253 10.0415 423 63.2104 428.21 487.749
376 0 43.1749 8.80141 380 68.2895 428.824 483.855
377 0 44.1761 8.96412 396 68.0328 428.823 484.275
378 0 44.1485 9.94372 439 68.0843 428.328 481.239
379 0 49.0727 11.269 553 65.2568 428.118 481.935
380 0 47.0782 9.38864 442 69.4118 428.64 481.011
381 0 51.0782 10.9244 558 66.3584 428.122 482.143
382 0 53.0998 11.6196 617 65.1605 427.929 480.593
383 0 55.0603 11.6781 643 65.5832 427.849 479.82
384 0 57.1635 10.7761 616 65.8425 427.859 479.192
385 0 60.1209 12.3418 742 63.0741 428.16 477.988
386 0 60.1847 10.4844 631 66.6529 427.902 475.8
387 0 61.0982 11.3424 693 65.013 428.215 476.208
388 0 61.1561 9.77825 598 67.7977 428.142 476.918
389 0 64.1186 10.3246 662 67.0015 428.426 473.47
390 0 65.0921 10.5235 685 66.9036 428.327 471.401
391 0 69.1221 11.6027 802 64.914 428.158 472.163
392 0 69.1032 11.5624 799 64.8348 428.16 475.469
393 0 73.0746 11.7962 862 64.5522 428.194 471.132
394 0 75.0838 10.4816 787 66.3431 427.693 469.64
395 0 79.1199 11.5774 916 64.5033 426.736 466.383
396 1 42.1244 10.3503 436 65.0092 426.839 485.878
397 0 44.044 9.80837 432 66.0995 426.296 485.433
398 0 45.0283 9.99372 450 65.6422 427.004 485.638
399 0 47.0466 11.563 544 63.2812 427.539 484.006
400 0 48.0907 11.7278 564 62.883 428.223 485.661
401 0 50.0923 11.8381 593 62.253 426.248 483.04
402 0 51.0604 11.3983 582 62.8265 426.706 482.565
403 0 53.0151 10.5442 559 63.5617 426.188 482.174
404 0 55.0051 10.6899 588 62.8214 426.061 482.774
405 0 55.057 10.9341 602 63.6013 426.118 480.286
406 0 57.007 10.3496 590 64.422 426.097 478.971
407 0 60.052 11.1903 672 62.6324 426.354 478.277
408 0 62.1099 10.7551 668 62.7545 426.271 478.493
409 1 122.226 11.7487 1436 63.5188 426.306 450.463
410 1 66.0471 9.56893 632 64.1946 426.47 474.073
411 0 68.0752 10.4003 708 64.1977 426.884 473.311
412 0 69.1681 11.2769 780 63.3462 427.377 471.71
413 0 73.1758 12.0805 884 61.7817 427.537 471.087
414 0 76.1373 12.0834 920 61.6663 427.509 469.758
415 0 78.1327 10.6742 834 63.1463 427.562 471.194
416 0 76.1496 12.2653 934 61.9347 427.673 464.057
417 0 82.0562 11.4677 941 62.7651 428 467.903
418 0 84.0672 12.4305 1045 61.4325 427.367 465.93
419 0 87.1117 11.1696 973 63.1922 427.56 464.471
420 1 44.0147 10.5192 463 63.0929 427.019 485.575
421 0 47.0208 10.506 494 63.9372 427.18 484.14
422 0 48.0365 11.179 537 63.473 427.099 483.19
423 0 50.0511 11.6081 581 61.8244 427.752 484.907
424 0 51.0673 11.2988 577 62.3969 427.858 483.769
425 0 51.1784 10.8053 553 64.2387 427.43 481.96
426 0 55.1707 11.1472 615 64.1512 428.016 481.333
427 0 56.0748 11.2707 632 64.068 427.709 480.111
428 0 58.1236 11.3207 658 64.0927 428.111 478.147
429 0 61.1076 12.748 779 62.1823 427.873 475.951
430 0 63.0893 11.0795 699 63.5637 428.109 478.742
431 0 64.1188 12.0869 775 63.0761 428.319 475.206
432 0 65.169 11.8308 771 63.8029 428.717 474.702
433 0 68.1198 11.01 750 64.26 428.065 475.297
434 0 71.1242 11.6838 831 62.769 428.055 473.913
435 0 73.1293 12.3617 904 61.8628 428.018 474.742
436 0 75.1246 11.4077 857 63.2474 427.574 471.168
437 0 78.1526 12.45 973 62.1655 426.742 468.291
438 0 81.1325 12.6337 1025 61.7815 426.726 469.361
439 0 83.2482 13.1294 1093 60.9323 426.904 468.552
440 1 40.0261 11.0178 441 64.4444 426.839 488.619
441 0 40.1047 11.0211 442 64.4208 426.885 487.891
442 0 44.0309 11.6736 514 63.0272 426.874 485.988
443 0 43.1434 11.0098 475 64.0105 427.16 486.147
444 0 46.1104 14.4436 666 59.0511 427.047 485.452
445 0 46.1211 11.5999 535 62.5364 426.432 484.095
446 0 48.1208 13.383 644 60.3634 426.415 483.211
447 0 50.0746 11.9222 597 62.0369 427.482 484.067
448 0 49.0908 11.8963 584 62.7003 427.159 483.736
449 0 55.0923 12.5789 693 60.7763 427.088 481.225
450 0 57.1084 12.3975 708 60.8927 427.095 480.521
451 0 58.1053 13.2174 768 59.7161 427.07 480.424
452 0 55.1094 10.833 597 64.0385 426.91 477.325
453 0 61.0634 11.9875 732 62.0055 427.154 476.227
454 0 61.0809 12.2952 751 61.3182 426.493 476.393
455 0 65.1256 12.6678 825 60.1539 426.989 476.982
456 0 66.11 12.8574 850 60.3176 426.693 475.586
457 0 69.1095 13.891 960 59.3427 427.001 473.422
458 0 72.2109 12.2835 887 60.9132 427.186 474.786
459 0 74.0695 13.4198 994 59.3501 427.077 475.769
460 0 75.1426 13.9202 1046 59.6883 426.813 472.465
461 0 76.1524 11.5032 876 62.6872 426.662 470.992
462 1 38.0676 10.1661 387 62.9018 426.783 488.165
463 0 41.0892 9.90528 407 62.8796 426.767 487.656
464 0 42.1083 11.2329 473 62.0338 427.831 486.558
465 0 44.1006 12.1087 534 61.2116 428.403 486.052
466 0 45.0913 12.7297 574 61.0505 428.481 484.301
467 0 49.1055 12.4426 611 60.5417 428.223 485.336
468 0 49.108 11.7496 577 61.974 428.263 484.213
469 0 48.135 12.922 622 61.1383 427.912 480.92
470 0 51.0928 12.5262 640 60.7625 427.912 482.355
471 0 52.0624 11.7551 612 61.7451 427.44 479.662
472 0 53.0772 12.3028 653 60.7243 427.331 481.089
473 0 56.1225 13.8091 775 58.9729 427.471 477.817
474 0 58.1002 12.0309 699 60.6137 427.461 479.077
475 0 60.0785 13.3159 800 59.4638 427.664 475.65
476 0 63.1559 13.4588 850 58.8365 427.718 475.624
477 0 65.0554 14.0342 913 57.6922 427.886 475.803
478 0 65.1183 12.5157 815 59.6933 428.351 474.145
479 0 69.1051 13.0381 901 58.6593 428.555 474.081
480 0 73.1462 13.1107 959 58.0031 428.612 473.033
481 0 74.1426 11.1272 825 60.9855 428.348 467.939
482 0 79.1167 13.1831 1043 57.9808 428.93 469.81
483 0 80.0686 10.9406 876 60.6347 427.656 468.411
484 0 83.1163 11.8148 982 59.9919 427.837 465.872
485 0 88.1381 14.8971 1313 56.4402 428.006 465.184
486 1 44.0921 9.29871 410 61.8878 427.854 488.156
487 0 47.0736 12.3636 582 59.1134 428.229 484.978
488 0 50.0355 14.2699 714 56.7675 427.979 483.801
489 0 51.0584 11.4575 585 60.2684 427.882 483.292
490 0 51.068 11.6707 596 60.7164 427.282 481.943
491 0 52.0939 12.4967 651 59.9693 427.584 481.959
492 0 57.0274 11.9942 684 59.6711 427.953 481.278
493 0 58.0795 13.5676 788 58.0203 427.473 479.784
494 0 57.0556 11.1996 639 60.8717 427.089 477.318
495 0 59.0535 12.8019 756 58.4722 426.677 478.497
496 0 61.1345 12.3335 754 59.5517 426.908 476.509
497 0 64.0939 11.764 754 60.0279 427.397 474.618
498 0 65.1856 11.6283 758 60.1953 427.6 473.525
499 0 69.0538 13.6995 946 57.4778 427.225 472.177
500 0 73.146 13.8627 1014 57.1972 426.518 471.433
501 0 74.1774 13.3464 990 58.0596 426.708 471.003
502 0 77.2455 12.3114 951 59.0652 427.341 470.549
503 0 82.1208 13.9185 1143 57.4059 427.608 468.16
504 1 38.0429 9.22642 351 62.3561 427.41 486.393
505 0 41.1238 12.0612 496 58.6028 427.149 487.232
506 0 42.051 13.4361 565 57.9788 426.83 485.57
507 0 44.1294 12.0101 530 59.6396 427.092 484.334
508 0 46.0491 11.8786 547 59.5978 427.426 484.856
509 0 45.0501 12.6304 569 60.2179 428.158 483.401
510 0 49.0261 11.6469 571 60.1576 427.704 482.813
511 0 51.0486 11.5184 588 60.4745 427.74 482.541
512 0 51.055 11.3407 579 61.4698 427.746 481.682
513 0 54.1354 10.8247 586 61.7867 428.15 482.099
514 0 57.059 12.2855 701 59.9986 428.136 480.591
515 0 57.1484 11.1639 638 62.0361 428.252 479.437
516 0 58.1621 11.1413 648 63.3272 427.796 478.065
517 0 63.1932 13.9888 884 59.5102 428.018 475.264
518 0 64.0659 12.5184 802 61.2955 427.613 475.591
519 0 66.0692 13.5161 893 60.2016 427.171 475.389
520 0 67.019 12.2652 822 62.3783 427.324 472.13
521 0 71.0246 11.7565 835 62.6048 427.431 471.163
522 0 70.3039 11.877 835 63.2611 426.68 469.356
523 0 79.0797 10.4199 824 63.6857 426.767 471.873
524 1 36.0173 9.19003 331 63.7734 426.767 487.728
525 0 41.0546 9.8649 405 62.0346 427.195 488.654
526 0 44.1182 9.79189 432 61.4144 426.951 486.681
527 0 42.0738 11.3372 477 61.1551 427.482 485.449
528 0 44.0914 12.4061 547 60.0274 427.623 485.7
529 0 47.1066 12.4399 586 60.2765 427.729 483.206
530 0 50.4095 10.871 548 61.4672 428.223 482.495
531 0 48.1889 10.8946 525 62.3886 427.002 481.979
532 0 52.0547 10.4698 545 62.4569 427.215 480.494
533 0 51.0167 11.9569 610 61.4295 427.487 481.875
534 0 56.1277 11.9193 669 61.5321 427.951 477.949
535 0 58.0377 11.2513 653 62.807 427.729 476.997
536 0 60.1878 11.3478 683 61.2152 427.77 479.218
537 0 61.1051 11.0302 674 62.9599 427.819 475.681
538 0 64.1564 10.1471 651 63.6989 427.445 477.123
539 0 65.2357 11.6807 762 62.878 427.017 473.469
540 0 68.2873 11.7591 803 62.0162 426.944 473.376
541 0 71.1684 11.0864 789 62.7807 427.005 472.592
542 1 32.0872 8.47689 272 64.5846 427.169 487.732
543 0 35.2107 10.0254 353 61.5042 427.354 489.003
544 0 37.0657 9.36177 347 62.1153 426.741 488.602
545 0 37.131 9.2645 344 62.7558 426.712 487.064
546 0 39.2449 10.3198 405 61.9432 426.832 486.319
547 0 40.1919 10.2259 411 63.3723 426.226 486.922
548 0 40.1555 11.4804 461 63.1475 425.996 484.291
549 0 43.1342 10.2007 440 61.2295 426.625 483.116
550 0 39.0714 8.06217 315 68.2698 427.06 483.581
551 0 47.1379 11.9649 564 60.8972 427.371 483.342
552 0 46.0323 11.9699 551 61.7659 427.439 482.59
553 0 47.2215 12.219 577 61.9411 426.91 482.338
554 0 48.1927 11.454 552 63.3297 426.833 481.056
555 0 48.0621 12.6919 610 61.2967 426.985 480.351
556 0 49.2372 12.389 610 62.1311 427.067 479.839
557 0 52.208 11.2435 587 63.3373 426.763 477.528
558 0 51.1469 10.0495 514 65.2685 426.564 476.774
559 0 53.1074 11.7874 626 62.4281 426.478 474.698
560 0 54.1557 10.2482 555 64.6541 426.346 475.126
561 0 57.2986 11.7629 674 62.4718 426.344 476.282
562 0 58.1426 11.1106 646 63.5774 426.712 474.311
563 0 60.1595 10.921 657 63.7823 426.394 474.892
564 0 61.3243 11.5452 708 62.8757 426.609 474.695
565 0 63.0487 12.6252 796 61.309 426.665 472.626
566 0 63.1234 10.1547 641 64.2871 426.32 471.473
567 0 64.1401 11.2098 719 62.9054 426.645 469.193
568 0 64.2944 10.9963 707 63.4526 426.772 468.306
569 0 67.2395 10.3659 697 64.0129 427.128 471.232
570 0 67.1308 10.7402 721 64.7836 427.275 466.508
571 0 69.185 11.144 771 64.358 427.353 467.733
572 0 73.2172 11.8278 866 62.7506 427.253 469.221
573 0 72.127 11.5213 831 63.9639 426.706 467.841
574 0 73.2144 11.3912 834 64.97 427.489 463.588
575 0 77.1035 11.7634 907 63.4465 426.846 463.377
576 0 76.2423 10.165 775 66.2529 426.948 461.805
577 0 77.2295 9.98323 771 66.3113 427.331 464.187
578 0 80.2249 11.3431 910 65.0011 427.474 460.542
579 0 80.2621 11.3503 911 64.7629 427.814 460.463
580 0 82.2495 10.1885 838 66.2542 427.538 458.897
581 0 83.2109 11.0082 916 65.8865 427.741 458.947
582 0 82.2377 9.7279 800 68.09 427.515 460.145
583 0 84.1249 8.29719 698 70.361 426.742 459.576
584 0 87.2954 9.75997 852 68.9014 426.842 458.615
585 0 89.147 9.87134 880 69.0011 426.58 454.942
586 0 91.174 11.1216 1014 67.6016 426.208 455.54
587 0 91.3215 10.3152 942 69.4904 426.559 455.185
588 0 93.2936 9.79703 914 70.6357 426.616 453.793
589 0 96.3386 12.508 1205 66.7535 426.601 451.353
590 0 98.5131 11.2574 1109 68.7223 426.703 453.61
591 0 98.1639 10.3093 1012 70.4022 426.475 455.203
592 0 100.393 9.83132 987 71.9797 426.705 451.028
593 0 100.419 9.94836 999 71.7758 426.32 451.153
594 0 103.273 9.25702 956 73.3107 426.718 450.84
595 0 106.24 10.401 1105 71.1014 426.746 450.335
596 0 109.309 10.9323 1195 69.9841 426.885 449.488
597 0 109.222 9.78742 1069 72.7746 426.558 450.169
598 0 113.223 10.5367 1193 70.741 426.505 454.487
599 0 114.24 11.756 1343 70.0827 426.751 447.439
600 0 116.224 11.4434 1330 70.8639 426.532 447.186
601 0 116.47 10.9299 1273 72.5208 427.41 443.618
602 0 118.376 10.0612 1191 73.5071 427.132 449.165
603 0 119.451 9.99577 1194 75.1977 427.104 445.513
604 0 120.24 10.0881 1213 75.0371 426.409 443.787
605 0 125.334 10.9308 1370 73.4058 426.988 445.128
606 0 124.314 8.74402 1087 77.1932 427.112 449.503
607 0 127.292 10.5741 1346 74.9681 426.563 443.826
608 0 124.35 8.62888 1073 79.2684 426.918 440.717
609 0 129.361 9.94888 1287 77.885 427.36 438.133
610 0 130.277 9.44141 1230 78.6683 426.661 439.224
611 0 133.398 10.7573 1435 77.1422 426.638 438.431
612 1 258.657 11.985 3100 82.4052 426.004 373.288
613 0 260.635 12.1703 3172 82.7349 425.997 372.455
614 0 264.65 12.6922 3359 82.0726 426.244 375.494
615 0 267.89 13.6325 3652 80.1375 426.428 372.497
616 0 268.862 12.3074 3309 84.7168 426.185 368.031
617 1 296.196 17.3027 5125 71.2714 425.598 337.534
618 0 304.315 30.0051 9131 53.1261 425.117 340.039
619 0 301.1 19.1465 5765 69.2605 425.831 331.724
620 0 297.173 22.5559 6703 65.3537 425.21 324.417
621 0 302.075 18.459 5576 71.2635 425.201 320.942
