time division length width area intensity CMx CMy
0 0 50.063 12.8238 642 67.9579 47.8209 442.824
1 0 51.1578 12.0803 618 69.7832 47.3738 439.472
2 0 55.0694 13.7463 757 66.7041 47.5456 441.285
3 0 56.1632 14.1374 794 66.6599 47.9018 441.139
4 0 57.1844 14.4795 828 66.5471 47.8116 439.133
5 0 58.1467 13.1736 766 68.2141 47.1097 439.084
6 0 58.1604 12.2592 713 69.8485 45.676 437.861
7 0 62.2479 13.1089 816 68.19 46.3909 437.924
8 0 62.0753 13.8864 862 67.6148 45.5708 437.643
9 0 65.1534 11.8336 771 70.5759 45.9948 436.022
10 0 68.1655 13.8046 941 68.1201 46.3921 432.817
11 0 69.0614 12.8726 889 69.0382 45.2992 433.429
12 0 72.0759 12.4452 897 69.9944 45.2397 431.236
13 0 75.1395 14.4531 1086 67.4576 44.9383 429.218
14 0 78.2699 13.479 1055 67.9403 45.3412 429.562
15 1 39.1423 10.8834 426 70.5751 44.8545 448.005
16 0 41.0751 11.7346 482 69.2178 43.9398 448.164
17 0 40.1068 11.4694 460 71.2457 44.3435 448.052
18 0 41.1495 10.3768 427 72.7799 44.0422 446.986
19 0 43.0752 12.0255 518 70.7259 44.2722 444.405
20 0 46.0885 15.0797 695 65.2777 44.5453 444.46
21 0 47.1199 12.9669 611 68.4386 45.2668 443.183
22 0 49.134 12.6593 622 68.5466 44.9855 443.095
23 0 50.1865 12.9118 648 68.1296 44.1327 442.664
24 0 51.164 13.6229 697 67.3989 44.066 441.184
25 0 53.1577 13.4693 716 67.345 45.0321 441.212
26 0 55.0956 14.3932 793 65.9559 45.4918 441.184
27 0 56.1175 13.3648 750 67.132 44.916 440.399
28 0 58.1365 13.3995 779 67.1386 44.9037 439.159
29 0 59.1398 12.8171 758 67.748 45.0132 440.521
30 0 59.0874 12.7946 756 68.4974 44.9762 439.134
31 0 63.1662 14.0265 886 65.544 44.8702 437.587
32 0 63.2187 13.1923 834 66.5492 44.8621 439.898
33 0 66.1843 12.7674 845 66.9456 44.5148 437.488
34 0 69.204 13.453 931 65.7154 44.4683 436.976
35 0 71.259 14.5385 1036 65.0898 44.2934 432.999
36 1 40.15 10.9091 438 67.0251 44.242 450.011
37 0 41.1691 12.8008 527 65.8254 44.7362 448.357
38 0 40.0708 13.1268 526 65.3137 44.4183 449.538
39 0 44.1545 12.9772 573 64.7696 44.5026 448.67
40 0 44.1188 14.325 632 63.9335 44.4478 447.169
41 0 46.1244 12.8999 595 65.5092 44.8168 447.388
42 0 46.1001 12.8199 591 65.5871 44.6971 447.983
43 0 47.1482 14.0833 664 65.1295 44.5136 444.482
44 0 51.2001 14.707 753 63.1806 44.9894 445.398
45 0 49.1673 12.5286 616 67.5422 44.7906 443.037
46 0 53.1056 14.4241 766 63.9321 44.3316 444.428
47 0 55.1337 13.295 733 65.3424 44.0246 443.34
48 0 56.1946 13.3821 752 64.4495 44.2912 444.451
49 0 58.2228 13.6544 795 64.8742 44.3396 440.966
50 0 61.1101 12.9111 789 65.5374 43.7414 441.361
51 0 63.0652 14.2709 900 63.7033 44.0567 440.396
52 0 64.1542 13.2026 847 64.7686 44.3554 440.734
53 0 67.1306 13.1088 880 65.508 44.1989 437.603
54 0 67.1675 11.7468 789 67.526 44.3232 437.138
55 0 72.1059 14.2984 1031 63.9544 44.2726 437.993
56 0 74.108 12.9001 956 66.5063 44.0167 434.982
57 1 40.108 12.7905 513 65.4425 44.2846 450.836
58 0 43.1183 12.2918 530 65.0358 44.4453 451.321
59 0 42.1019 11.8047 497 67.3461 44.7243 450.594
60 0 43.095 12.136 523 66.7075 45.0497 449.048
61 0 44.0525 12.5759 554 66.3195 44.778 449.119
62 0 47.1335 11.6902 551 66.441 44.3103 450.151
63 0 49.1994 12.2969 605 65.4099 44.2711 448.559
64 0 49.0942 12.0992 594 66.3401 44.0623 447.931
65 0 50.1068 12.3137 617 66.7861 44.8525 446.632
66 0 54.1096 12.5671 680 65.1794 44.1971 446.294
67 0 54.156 12.187 660 66.2197 43.6606 445.832
68 0 57.0955 12.7506 728 65.2706 43.75 445.165
69 0 56.058 11.9519 670 67.0866 44.0776 445.519
70 0 60.1099 12.211 734 66.3869 43.4605 443.482
71 0 60.1303 12.4895 751 66.2317 43.6458 443.55
72 0 62.1275 12.41 771 66.6667 43.5058 442.371
73 0 65.193 13.6671 891 64.6296 44.0651 441.774
74 0 66.2448 13.0727 866 65.5104 44.1085 441.977
75 0 70.1952 13.6761 960 64.4771 43.774 442.176
76 0 70.1691 11.4438 803 68.5554 43.746 437.783
77 0 72.2121 10.6492 769 69.3563 43.7152 438.492
78 0 78.1976 14.3994 1126 64.7753 44.3979 436.505
79 0 78.1628 13.4847 1054 66.6679 44.4402 436.946
80 1 41.081 11.7572 483 68.6211 44.3789 453.447
81 0 40.1987 11.8163 475 69.3011 44.3074 453.514
82 0 44.1481 12.4128 548 67.6131 43.6241 452.759
83 0 46.0636 12.9603 597 67.2931 43.6281 452.268
84 0 47.1446 13.1935 622 67.5595 43.2026 451.093
85 0 48.1125 11.8888 572 69.4108 43.6189 451.934
86 0 51.0746 14.6257 747 65.4605 44.0415 451.36
87 0 51.1261 12.7528 652 69.0675 44.2684 449.788
88 0 51.3253 12.6643 650 69.5662 44.0754 450.554
89 0 56.08 14.1049 791 66.7042 44.6081 450.68
90 0 58.1021 12.4436 723 68.8852 44.4523 449.361
91 0 58.1696 13.134 764 69.0668 44.6113 446.993
92 0 59.1654 12.6594 749 69.7797 44.5274 446.833
93 0 62.1827 13.8784 863 68.2352 44.1727 445.158
94 0 62.1964 12.4284 773 71.2678 44.4049 445.567
95 0 65.2703 14.4783 945 68.6868 44.0042 444.344
96 0 68.1996 14.4722 987 68.3343 44.4326 443.605
97 0 70.1507 14.8395 1041 68.1816 43.8079 440.591
98 0 72.1582 13.5813 980 70.8459 44.1449 438.766
99 0 76.134 15.0918 1149 68.0792 44.0392 439.448
100 0 78.2709 15.1781 1188 68.138 44.2433 439.535
101 0 80.2113 13.9881 1122 70.9332 44.5971 437.201
102 0 83.3621 14.587 1216 70.1373 44.5164 436.076
103 0 84.3712 13.3932 1130 71.9142 44.1248 434.88
104 1 42.2851 11.9191 504 69.9583 43.8433 456.347
105 0 41.1137 11.9912 493 71.2211 44.0446 456.083
106 0 42.1203 12.7492 537 70.3501 44.7207 457.142
107 0 44.0617 13.7308 605 69.195 44.2231 456.669
108 0 45.2 13.3628 604 70.1142 43.9801 454.599
109 0 46.0529 11.5954 534 72.8876 44.3034 454.691
110 0 46.0536 10.9655 505 74.3485 44.8158 453.978
111 0 47.2334 12.3218 582 72.0137 44.6375 453.735
112 0 49.117 13.3355 655 70.9267 44.8 451.47
113 0 51.1086 13.305 680 70.975 44.2853 451.109
114 0 50.1822 13.172 661 71.4024 44.0151 451.269
115 0 55.1637 14.2122 784 68.8431 44.4286 450.323
116 0 53.0835 12.0753 641 73.6178 44.8986 446.998
117 0 55.1847 12.3404 681 72.4082 44.5844 449.327
118 0 56.1298 12.8809 723 72.6611 44.9488 446.647
119 0 62.1397 12.7777 794 70.8854 44.7418 448.393
120 0 63.1235 13.2756 838 70.5644 44.9737 446.926
121 0 65.239 13.7648 898 70.0958 45.343 445.282
122 0 67.0753 13.4327 901 69.869 44.2575 446.818
123 0 67.2441 14.0087 942 69.62 44.0085 445.326
124 0 69.1912 12.3282 853 71.7233 44.1887 444.787
125 0 72.2795 13.2818 960 70.7667 44.9958 442.875
126 1 43.0675 10.9363 471 70.138 44.7941 458.924
127 0 42.0789 10.4328 439 71.8087 45.3052 457.929
128 0 41.0455 10.8173 444 72.4775 44.9842 455.858
129 0 44.0701 11.6179 512 70.4492 44.5801 454.857
130 0 44.1412 11.1914 494 70.8725 44.1194 454.69
131 0 46.107 11.0178 508 69.9252 43.622 456.815
132 0 48.1601 12.5 602 68.0382 43.6512 454.337
133 0 49.0555 12.1291 595 69.037 44.2168 452.802
134 0 50.0374 11.6313 582 69.2526 44.7869 452.749
135 0 52.0386 13.1825 686 67.0918 44.6662 451.418
136 0 54.0876 11.8696 642 68.2445 44.9174 451.343
137 0 56.0778 11.6802 655 68.5344 44.4244 449.371
138 0 56.0758 11.7163 657 68.6895 44.5205 449.694
139 0 61.1455 13.5905 831 65.3032 44.8183 448
140 0 60.071 12.3188 740 67.9068 44.7446 449.396
141 0 61.0518 11.8752 725 69.4455 45.949 445.012
142 0 65.0432 12.0074 781 68.3431 45.2548 447.474
143 0 65.1011 11.582 754 69.5212 44.5743 446.956
144 0 68.1268 12.5061 852 68.5223 44.3251 443.842
145 0 72.0519 12.6992 915 67.7967 44.8831 446.421
146 0 73.0845 12.0545 881 69.4041 45.0023 444.835
147 0 72.0879 11.1253 802 71.8392 45.5885 444.318
148 0 78.0888 11.1412 870 71.1448 45.8667 445.418
149 1 41.071 9.98272 410 69.739 44.9195 461.776
150 0 43.0638 9.26532 399 70.3158 45.1078 462.521
151 0 45.0344 10.4809 472 69.1059 45.2458 462.11
152 0 46.0146 9.49698 437 71.2906 45.2471 461.524
153 0 48.024 11.3693 546 68.7692 45.0092 461.24
154 0 46.02 9.7349 448 72.4219 45.3192 459.712
155 0 51.146 11.7702 602 67.2791 44.6462 462.299
156 0 52.0922 11.6524 607 67.9819 44.3641 462.104
157 0 53.0661 9.89333 525 71.8438 44.7029 460.768
158 0 55.0225 11.0319 607 69.4959 44.8353 461.53
159 0 55.1163 10.2329 564 70.445 45.1064 463.147
160 0 58.0803 9.55573 555 72.1153 44.8144 459.477
161 0 58.0447 10.3885 603 70.8905 44.4229 458.857
162 0 62.2123 10.8982 678 69.5487 45.0236 458.027
163 0 60.0239 11.3955 684 70.3158 45.3962 456.591
164 0 65.1625 10.8191 705 70.4312 44.383 455.867
165 0 65.1362 11.545 752 70.3085 45.0279 454.488
166 0 66.1418 9.79713 648 72.3318 44.5972 456.012
167 0 69.2581 10.598 734 70.8597 43.8706 457.298
168 0 72.1971 10.4298 753 71.4874 43.8619 454.948
169 0 72.2534 10.8507 784 72.1862 44.6199 453.485
170 0 74.1533 10.4918 778 72.5964 45.1838 453.383
171 0 79.2477 11.7227 929 70.4381 44.7287 452.953
172 1 41.0404 9.21044 378 68.9497 45.0344 473.712
173 0 42.0279 9.16057 385 70.0571 45.0078 472.109
174 0 43.1111 9.81185 423 70.5863 45.3428 471.589
175 0 46.0555 11.3993 525 69.301 45.2514 469.453
176 0 48.1157 10.8281 521 69.405 45.0192 473.568
177 0 50.123 10.3745 520 71.6462 45.8712 473.612
178 0 51.1426 11.419 584 70.5308 46.1712 473.455
179 0 50.1132 11.8332 593 72.1501 46.1518 472.13
180 0 52.0946 10.9224 569 73.7083 45.2039 470.656
181 0 55.0459 10.9182 601 72.7504 45.0982 472.551
182 0 55.2126 11.7364 648 71.8519 45.6898 472.148
183 0 57.1024 12.2937 702 72.1311 45.7464 468.915
184 0 59.0639 11.1574 659 73.9757 46.1745 469.014
185 0 63.2128 11.4534 724 72.1561 45.2735 468.747
186 0 62.1065 10.5786 657 74.5845 45.2207 467.967
187 0 66.1128 10.9812 726 72.8347 44.9545 468.482
188 0 69.215 11.6015 803 72.5691 45.4047 465.171
189 0 72.1458 11.4075 823 73.4435 45.3985 462.513
190 0 74.1075 12.0366 892 71.7926 45.6222 462.325
191 0 76.1328 12.5045 952 71.8834 45.7101 459.392
192 0 78.1138 11.4833 897 72.7926 45.6132 461.893
193 1 41.0274 10.3346 424 72.2925 44.5896 476.517
194 0 43.0416 8.99131 387 74.7778 45.0103 476.326
195 0 45.0061 11.5096 518 70.4633 44.6467 474.224
196 0 45.0318 11.9027 536 70.1325 44.4515 469.479
197 0 47.1169 11.6519 549 70.6539 44.9144 468.862
198 0 49.101 11.8531 582 70.3093 45.1082 465.612
199 0 51.0609 11.4569 585 70.0239 44.7009 465.316
200 0 50.0703 10.4253 522 73.205 45.1801 463.561
201 0 53.1468 12.6442 672 69.8929 45.8824 461.378
202 0 55.1981 12.1562 671 70.5857 45.4054 458.604
203 0 56.145 11.9156 669 71.1719 45.2287 458.453
204 0 58.1467 11.7978 686 70.5729 44.4198 458.206
205 0 60.0462 12.1073 727 70.4801 44.6149 454.667
206 0 60.1059 11.8458 712 71.3708 45.1222 456.01
207 0 62.2154 12.0549 750 69.588 45.1293 453.68
208 0 65.1573 11.8022 769 68.6047 44.935 453.182
209 0 68.1219 12.874 877 67.0148 44.5507 452.478
210 0 69.1762 12.0995 837 68.3381 44.7288 450.778
211 0 71.128 11.6551 829 68.8444 45.316 451.548
212 0 74.1687 10.4357 774 70.7403 45.2997 450.115
213 0 75.1695 11.3078 850 69.9435 45.5541 445.764
214 0 78.1516 12.7189 994 66.1469 45.334 448.222
215 0 81.1148 11.3419 920 68.7967 44.3837 444.765
216 1 44.1472 10.0573 444 68.5653 44.795 463.376
217 0 45.0727 10.361 467 67.4433 43.9122 459.679
218 0 46.1679 11.3499 524 67.2519 44.0019 462.42
219 0 45.1309 10.1483 458 70.0655 44.1485 461.096
220 0 47.0186 10.3151 485 68.3814 43.5732 461.175
221 0 49.0438 11.398 559 66.6064 43.9356 461.19
222 0 51.042 12.1077 618 66.5566 44.6246 458.231
223 0 52.0629 11.7934 614 67.2394 45.1303 456.572
224 0 55.021 12.8315 706 65.0751 44.6686 455.412
225 0 54.0334 10.438 564 69.1312 43.8174 455.096
226 0 55.0562 12.0241 662 67.2009 44.0483 454.11
227 0 58.0428 11.1297 646 68.243 43.8793 454.379
228 0 60.0245 12.0784 725 66.6262 44.2745 453.328
229 0 62.049 11.8455 735 67.0707 44.4844 452.184
230 0 63.0246 11.8367 746 67.8378 44.3981 453.13
231 0 65.1311 13.5419 882 65.881 44.1361 449.319
232 0 67.0702 10.7798 723 70.148 45.1162 449.494
233 0 70.0444 12.3493 865 67.3075 44.7422 449.347
234 0 73.0911 11.3694 831 67.769 45.3032 450.064
235 0 74.0542 11.8967 881 68.0318 45.0352 446.15
236 1 38.0315 10.1232 385 68.9377 44.3455 463.356
237 0 39.071 12.2086 477 65.3061 44.2411 463.704
238 0 40.0798 10.3044 413 68.2785 44.5932 462.915
239 0 38.0514 10.5121 400 68.6225 45.21 461.44
240 0 41.1372 10.7688 443 68.9752 45.3205 458.381
241 0 44.0625 10.3489 456 67.1732 45.5066 460.27
242 0 45.1259 12.5205 565 64.5327 45.0743 457.517
243 0 47.1031 14.0118 660 62.4848 45.0197 458.432
244 0 46.1012 11.2362 518 68.1023 45.3127 456.913
245 0 48.0586 12.7137 611 65.9771 45.1637 457.483
246 0 47.0614 10.7732 507 69.9467 45.2288 458.538
247 0 50.1236 12.1899 611 67.365 44.8592 455.126
248 0 53.0587 13.3437 708 65.3079 44.1992 454.065
249 0 51.0875 11.9403 610 68.8361 43.659 450.949
250 0 54.185 12.3281 668 68.4611 44.2874 452.446
251 0 58.0607 12.2458 711 67.9044 44.6864 451.855
252 0 56.0322 12.011 673 69.2808 44.8262 451.279
253 0 60.2137 12.4058 747 67.7979 44.8554 451.027
254 0 60.1051 12.3118 740 68.7878 45.0811 448.214
255 0 62.0877 13.3199 827 67.7993 45.2684 447.886
256 0 64.0652 12.8931 826 67.9358 44.9806 448.046
257 0 66.1234 13.7924 912 66.8311 44.6261 447.095
258 0 70.1108 13.2362 928 66.7349 44.7414 445.735
259 0 69.095 12.2006 843 69.3784 44.7058 445.027
260 0 73.2026 13.6471 999 66.6827 44.9379 444.769
261 0 75.0432 12.8859 967 68.3713 45.2203 444.174
262 0 77.131 13.0168 1004 68.6086 45.7221 444.555
263 0 80.1704 12.5982 1010 68.7535 45.5376 445.542
264 0 80.0456 14.4293 1155 67.0147 45.0996 443.463
265 1 41.1305 10.8435 446 71.5157 45.2691 461.751
266 0 44.1252 10.6968 472 70.2352 44.7055 462.038
267 0 43.1432 10.0827 435 73.2529 44.708 459.501
268 0 48.0673 12.9402 622 67.4518 44.3055 458.17
269 0 46.1032 11.9297 550 72.0182 44.6473 455.327
270 0 50.0399 12.1503 608 70.1283 44.6595 455.061
271 0 51.1089 13.7941 705 67.0284 44.495 455.292
272 0 53.159 12.3591 657 69.3623 45.586 454.536
273 0 52.0637 11.9469 622 71.6463 45.3344 452.285
274 0 56.0892 12.1592 682 70.7302 45.6334 451.257
275 0 58.103 13.4244 780 68.2372 44.5179 451.268
276 0 59.0447 12.0587 712 70.7275 44.9565 451.126
277 0 59.0303 12.519 739 70.5399 45.0189 448.11
278 0 61.0978 12.5536 767 70.502 44.6597 448.368
279 0 63.1178 11.6766 737 71.5292 44.4545 447.202
280 0 67.063 13.9272 934 67.5043 44.6617 447.307
281 0 69.2541 12.9523 897 69.1137 44.9877 445.65
282 0 69.2466 12.5349 868 70.0012 44.9896 441.662
283 0 72.0561 12.9344 932 68.9367 44.0494 441.189
284 0 75.0642 11.9231 895 69.8335 44.2782 442.85
285 0 78.1372 12.1325 948 69.1751 43.6445 442.009
286 0 80.1062 12.2837 984 68.8882 43.7825 440.898
287 1 42.0103 10.7831 453 68.5828 43.9868 457.439
288 0 43.0645 12.7483 549 65.2423 44.0674 457.031
289 0 42.0269 10.1126 425 69.6118 44.2 457.096
290 0 46.1296 12.0096 554 66.1679 44.5072 456.606
291 0 47.1053 11.124 524 67.5 44.6832 456.408
292 0 48.1064 10.7678 518 68.5135 45.027 455.423
293 0 49.0855 10.6956 525 68.461 44.6381 454.122
294 0 54.0653 12.9288 699 63.9886 44.6738 454.861
295 0 53.1771 9.74104 518 69.9421 44.9517 453.035
296 0 55.1868 10.1836 562 68.5569 44.3826 452.397
297 0 57.0898 11.5257 658 66.9286 44.2584 449.24
298 0 60.2074 11.3109 681 66.6711 44.4449 450.238
299 0 60.1214 11.2439 676 68.1701 44.6553 447.598
300 0 63.1127 12.0103 758 66.7084 44.8404 447.179
301 0 65.174 11.9066 776 66.8827 44.4626 444.925
302 0 68.081 11.4129 777 67.2831 45.4878 443.91
303 0 70.268 11.5558 812 66.718 45.3005 445.161
304 0 73.0853 11.685 854 67.6335 45.1663 442.379
305 0 72.1943 10.0008 722 70.6814 45.6219 440.51
306 0 77.2565 10.9376 845 68.9266 45.3728 437.951
307 1 40.1687 7.04529 283 67.7597 44.5654 461.286
308 0 41.1699 9.42437 388 67 44.8144 457.387
309 0 42.112 9.16603 386 67.3627 45.5725 456.891
310 0 42.0358 9.68223 407 67.828 45.4029 456.086
311 0 48.062 12.0261 578 61.9723 44.4152 457.735
312 0 48.077 11.5648 556 64.2608 45.1223 455.067
313 0 49.1319 10.1563 499 66.3808 45.0381 455.148
314 0 50.1864 9.24553 464 68.3448 45.2414 454.61
315 0 53.1486 11.5902 616 64.5341 45.2419 452.917
316 0 54.1665 11.7047 634 64.8659 45.1972 449.599
317 0 55.0833 10.6021 584 66.7158 45.2586 448.062
318 0 58.1033 11.3074 657 65.0518 44.7686 447.199
319 0 59.1204 9.96273 589 66.9643 45.1562 446.44
320 0 62.1335 11.3143 703 65.2418 44.9957 445.684
321 0 65.1764 12.4278 810 62.8432 45.4988 446.791
322 0 68.1934 11.5554 788 64.4911 45.6916 445.949
323 0 70.0823 12.257 859 62.7905 44.56 446.334
324 0 73.1086 12.7208 930 62.2613 44.7548 444.18
325 0 73.101 11.6004 848 64.4375 44.7535 441.08
326 0 73.1467 10.8412 793 65.686 44.681 440.923
327 0 76.1542 10.3999 792 65.7601 44.6768 441.024
328 1 44.0543 10.6232 468 62.515 44.4209 457.78
329 0 46.0776 11.307 521 62.142 44.9923 455.305
330 0 46.0658 10.5718 487 64.3347 44.4805 454.967
331 0 49.1208 12.7848 628 60.4793 44.4904 454.559
332 0 49.1397 11.6403 572 62.3444 44.7238 455.304
333 0 50.1915 11.476 576 63.3976 44.3681 453.469
334 0 52.0698 11.427 595 63.3345 44.9479 453.383
335 0 54.1235 11.7694 637 62.5871 45.2433 452.403
336 0 53.0336 11.3702 603 64.5506 45.257 453.605
337 0 55.0626 10.5335 580 66.2983 45.4172 451.845
338 0 59.0548 13.1403 776 61.4253 44.7848 451.396
339 0 60.0953 10.5998 637 66.0722 44.7582 448.631
340 0 60.0446 10.9752 659 65.7724 45.2413 447.546
341 0 62.1757 11.4675 713 64.8738 45.0533 444.773
342 0 66.0602 12.1858 805 62.9453 44.7168 446.88
343 0 68.1412 12.6355 861 62.3298 44.9292 446.066
344 0 70.1843 12.6097 885 62.0136 44.5254 444.297
345 0 72.0886 12.4153 895 62.7028 44.5844 440.518
346 0 74.2218 13.298 987 61.1864 44.6049 440.459
347 0 74.1751 11.2841 837 63.9152 45.0442 442.119
348 0 78.0857 10.6037 828 64.779 44.1534 439.005
349 0 82.1127 12.7508 1047 61.9465 44.1394 437.221
350 0 82.1034 12.0336 988 62.8644 44.0789 438.357
351 1 44.1471 11.7561 519 61.4855 44.1098 455.597
352 0 46.1289 9.71192 448 63.6429 43.8951 454.694
353 0 46.1368 9.92699 458 64.345 44.476 456.301
354 0 47.0881 10.5122 495 64.7414 44.5475 452.063
355 0 47.1227 11.4807 541 64.0166 44.3789 451.625
356 0 51.1196 11.5416 590 63.1576 44.2847 453.622
357 0 52.0951 10.9031 568 64.5106 44.0511 451.079
358 0 53.0773 12.2275 649 62.9938 43.7396 450.362
359 0 57.115 12.6762 724 62.3978 43.8204 449.424
360 0 56.0474 11.9007 667 64.4003 44.7781 448.162
361 0 59.1116 12.3834 732 63.4221 44.7008 448.753
362 0 60.0905 12.6476 760 62.7066 44.5697 449.117
363 0 61.0701 12.4283 759 64.39 45.0461 448.182
364 0 63.0784 11.2558 710 65.6944 44.807 447.063
365 0 65.1105 13.9762 910 61.7791 44.7242 448.367
366 0 66.0954 11.5137 761 65.4271 44.9159 446.07
367 0 69.0845 12.3761 855 64.0994 44.6713 443.336
368 0 70.0973 10.7137 751 66.1185 44.2743 444.125
369 0 74.0898 11.567 857 64.6161 43.7538 441.462
370 1 36.0157 9.99563 360 64.7361 44.1139 459.064
371 0 38.0225 10.9935 418 63.2823 44.0335 457.311
372 0 39.0234 10.0196 391 64.1893 43.9386 457.604
373 0 43.0919 10.1875 439 63.5444 45.0774 456.362
374 0 43.0875 10.351 446 62.7848 44.7691 457.339
375 0 42.0376 9.75317 410 64.9488 45.0951 453.949
376 0 45.0811 11.8453 534 61.8408 45.3839 452.154
377 0 45.1357 10.4573 472 64.4089 45.4915 450.706
378 0 48.0678 11.3381 545 62.822 44.8 449.861
379 0 49.0818 10.6353 522 64.7912 44.7375 448.63
380 0 50.0716 11.3837 570 63.8719 45.414 450.004
381 0 53.0985 12.6181 670 61.8881 44.7104 449.488
382 0 55.0324 11.5568 636 63.5299 44.6336 447.421
383 0 55.1262 9.94083 548 65.9507 44.5182 447.796
384 0 58.0728 12.4843 725 62.1683 44.6841 444.817
385 0 61.1848 12.1926 746 62.1475 44.866 444.795
386 0 63.0627 12.2735 774 62.1563 44.5685 444.339
387 0 65.1456 13.7078 893 60.3695 44.963 442.551
388 0 64.2247 10.2453 658 65.503 44.9909 442.427
389 0 66.1241 11.3272 749 64.3351 45.2537 442.71
390 0 71.139 12.7497 907 61.9008 45.2216 441.465
391 0 73.1419 12.8928 943 62.1071 45.0647 439.196
392 0 75.0661 13.2683 996 61.3002 45.1135 440.23
393 0 78.2434 12.1799 953 62.6086 45.1018 440.307
394 0 79.2093 11.7032 927 64.1802 44.5739 436.317
395 1 41.0587 10.5459 433 62.5982 43.7044 454.725
396 0 42.0732 11.0759 466 62.8133 44.221 456.749
397 0 44.1054 11.5405 509 62.2122 43.8546 455.391
398 0 43.0966 11.9963 517 61.619 44.4333 457.458
399 0 47.0892 12.6356 595 61.2 44.7815 455.133
400 0 46.1937 12.2744 567 62.388 45.1799 455.247
401 0 48.1088 11.2038 539 64.2282 44.423 453.521
402 0 50.0956 12.8953 646 62.1889 44.9628 452.327
403 0 50.1865 11.4174 573 64.1623 44.4607 452.564
404 0 51.1026 11.8781 607 62.916 44.2043 452.199
405 0 54.103 9.81461 531 65.1657 44.1846 451.667
406 0 56.0846 11.4113 640 63.0672 44.1625 451.525
407 0 57.0788 11.6155 663 63.184 44.5294 449.689
408 0 56.095 9.96523 559 66.3685 44.458 448.692
409 0 61.1379 11.6622 713 62.7546 43.9116 450.582
410 0 61.1107 11.9619 731 62.9685 44.3598 447.594
411 0 64.084 11.9999 769 63.2302 44.801 446.61
412 0 66.2679 11.4384 758 64.0633 45.0264 446.557
413 0 67.1484 11.1842 751 64.5246 45.2024 445.639
414 0 69.0723 11.5097 795 64.044 44.8579 443.445
415 0 73.1254 12.4307 909 62.9054 44.967 442.811
416 0 74.0442 11.223 831 64.9097 45.0289 442.472
417 0 76.1234 13.1103 998 63.0461 45.3918 442.369
418 1 39.0968 9.48927 371 64.5526 44.3423 461.728
419 0 40.0963 11.3976 457 63.814 44.709 458.315
420 0 42.0966 11.4261 481 63.5468 44.7006 457.933
421 0 42.0429 11.4645 482 64.6411 44.9004 456.17
422 0 43.0991 9.88419 426 66.0915 45.0235 458.357
423 0 44.1018 11.3374 500 65.128 45.588 455.842
424 0 46.1276 10.8829 502 65.1534 45.7112 455.683
425 0 48.0424 10.7405 516 64.8682 45.0717 455.215
426 0 50.1948 11.6546 585 63.6256 45.3231 454.812
427 0 51.1771 11.1964 573 64.8866 44.9983 451.117
428 0 54.1704 11.9253 646 63.565 45.4427 449.947
429 0 54.0946 9.94555 538 66.5279 45.1859 449.779
430 0 56.1977 12.1357 682 63.651 45.5865 448.987
431 0 58.1589 12.4315 723 62.1895 45.6238 452.568
432 0 58.089 10.3978 604 65.9702 46.1871 449.359
433 0 63.1485 11.5917 732 63.9645 45.6011 447.566
434 0 64.0649 12.0815 774 63.8088 45.8372 446.009
435 0 66.061 12.4582 823 63.0972 45.706 447.495
436 0 69.0963 11.4912 794 63.7166 45.0907 449.326
437 0 72.1184 11.3979 822 63.8869 44.4866 445.382
438 0 73.18 11.6152 850 64.0247 44.5071 444.428
439 0 77.0803 12.247 944 62.911 44.3464 442.036
440 0 77.1724 12.7118 981 62.5882 44.3925 442.503
441 0 79.164 10.8888 862 65.7459 44.435 438.196
442 0 83.1885 10.4582 870 66.1483 44.4966 434.203
443 0 85.3231 10.9232 932 65.324 44.4174 439.426
444 1 46.116 10.8205 499 63.8297 43.9379 456.916
445 0 48.0931 11.1451 536 63.1381 43.4459 455.028
446 0 50.086 11.3006 566 63.3799 43.4876 455.519
447 0 51.0941 10.1186 517 65.1721 44.8646 455.832
448 0 53.0927 10.2086 542 65.6993 44.572 453.502
449 0 55.0792 11.9464 658 63.2872 44.4164 451.698
450 0 57.0844 10.4757 598 65.2107 44.3077 451.381
451 0 57.1308 10.0821 576 65.6753 44.0938 450.986
452 0 59.0976 11.591 685 63.9752 44.181 449.842
453 0 61.0814 11.28 689 63.7097 44.1567 450.16
454 0 65.1279 12.2682 799 61.8874 43.4318 448.398
455 0 63.0676 11.8603 748 63.3984 43.9425 445.904
456 0 67.0583 11.2141 752 63.5372 43.4282 444.71
457 0 70.0841 11.3578 796 63.1445 43.7123 443.553
458 0 71.0915 11.661 829 63.152 43.8492 441.275
459 0 74.3041 10.9684 815 63.9153 43.5288 441.402
460 0 77.2989 12.9239 999 61.5065 43.5285 438.059
461 0 78.1135 11.3937 890 63.8022 43.2854 435.539
462 0 83.1042 11.1426 926 63.3132 43.7225 437.366
463 0 85.0877 12.5283 1066 62.1735 43.4756 435.129
464 1 42.0336 10.0158 421 62.5178 44.5059 455.546
465 0 43.0191 9.18197 395 63.5722 45.0987 456.223
466 0 48.0623 11.4019 548 60.0675 45.5876 456.578
467 0 48.0518 11.5917 557 60.4668 45.1203 455.192
468 0 51.0822 12.0198 614 58.6205 45.241 454.735
469 0 50.0796 11.3419 568 62.1937 45.2975 449.891
470 0 53.0466 10.1043 536 64.0224 45.3694 452.134
471 0 54.0629 9.21149 498 64.4799 44.8173 453.924
472 0 56.0682 12.2529 687 61.738 44.7715 448.709
473 0 59.0329 11.1463 658 62.3146 44.8815 450.609
474 0 61.0595 11.8737 725 61.7062 44.9683 446.27
475 0 61.0916 11.6546 712 62.7317 45.2275 446.737
476 0 62.0551 10.4907 651 64.5653 45.3379 446.57
477 0 65.166 11.8774 774 62.6925 45.4251 445.64
478 0 67.1104 11.0117 739 63.7767 45.866 442.881
479 0 70.053 12.3906 868 62.2442 45.9078 441.741
480 0 72.1098 11.4686 827 63.8948 45.9819 440.793
481 0 73.1342 10.9251 799 64.622 45.4806 440.398
482 1 38.0369 9.35933 356 63.5702 46.1292 459.02
483 0 40.0785 9.50635 381 61.5643 44.3228 459.774
484 0 42.1002 11.3776 479 60.9332 44.7432 457.482
485 0 43.0519 10.8706 468 62.7415 44.9124 457.293
486 0 44.0585 11.0081 485 62.8825 44.8804 456.491
487 0 45.1385 10.7447 485 63.6577 45.3732 455.377
488 0 46.1026 11.8648 547 61.34 44.9305 452.634
489 0 49.1067 11.5463 567 61.0317 44.9453 452.878
490 0 49.0492 12.9462 635 59.8803 43.9858 450.946
491 0 52.0701 11.8878 619 60.9273 44.8174 452.105
492 0 54.1193 11.3453 614 61.5309 44.4609 451.806
493 0 55.0727 12.6742 698 60.4155 44.1318 449.559
494 0 56.0513 9.86596 553 63.7161 43.8354 448.611
495 0 59.118 10.995 650 61.3738 43.5615 449.791
496 0 58.0801 10.7266 623 63.244 44.1091 447.165
497 0 62.1384 11.1203 691 62.1881 44.4819 446.658
498 0 63.0572 11.2279 708 62.7655 44.5466 441.948
499 0 68.1776 11.6754 796 60.8392 44.1369 443.371
500 0 70.0757 11.987 840 60.2167 43.331 442.39
501 0 72.0499 11.6725 841 60.937 43.4863 438.195
502 0 74.0987 13.0367 966 59.3602 43.9607 439.841
503 0 74.1085 9.94488 737 63.6336 44.2157 438.731
504 0 78.0795 11.04 862 62.1972 44.2367 435.443
505 1 41.1438 9.45463 389 61.4447 44.4139 457.725
506 0 43.0625 10.9608 472 60.625 44.2606 454.258
507 0 43.0377 12.826 552 58.6178 44.3533 455.48
508 0 45.073 12.2246 551 59.5626 44.6697 452.074
509 0 46.0489 12.6605 583 58.9074 45.5437 453.419
510 0 49.0793 12.6122 619 58.8805 45.0646 451.696
511 0 49.0521 14.2502 699 57.0644 45.0801 452.186
512 0 48.1168 10.2043 491 63.2566 45.2301 450.037
513 0 53.1595 12.3966 659 60.1244 45.6009 448.731
514 0 54.0837 11.5746 626 60.9936 45.3275 450.016
515 0 57.1096 12.117 692 60.1373 45.7471 449.38
516 0 59.1051 12.74 753 60.0212 45.1036 447.599
517 0 59.2892 13.3751 793 60.3052 45.3808 445.219
518 0 61.0922 12.5384 766 61.5144 44.8185 444.631
519 0 61.1267 9.52121 582 65.5653 44.5515 444.596
520 0 65.1024 11.72 763 62.8938 44.8087 443.046
521 0 66.0903 11.5751 765 63.5438 44.898 440.942
522 0 68.0521 12.3582 841 62.5696 43.9762 440.327
523 0 72.1938 13.4084 968 60.5826 44.0165 438.998
524 0 74.0575 10.1948 755 64.5272 44.2093 439.283
525 0 77.141 11.8095 911 62.416 44.2876 440.201
526 0 79.0902 12.0242 951 62.2345 43.734 439.682
527 0 83.0586 12.1721 1011 61.0969 44.0772 438.943
528 0 85.0518 12.6629 1077 61.441 44.1829 436.376
529 1 45.047 10.0562 453 62.989 44.6998 454.417
530 0 47.0782 10.918 514 60.9494 45.4611 453.554
531 0 50.0161 11.5763 579 59.677 44.5199 452.499
532 0 52.0501 11.6618 607 59.9127 44.5404 452.051
533 0 53.0434 10.8779 577 61.6811 45.0347 449.802
534 0 54.0799 10.503 568 61.7553 45.0282 451.854
535 0 53.0554 8.87752 471 65.7919 44.9363 447.363
536 0 56.0283 11.2265 629 62.8029 44.787 447.027
537 0 59.1405 12.3773 732 62.3415 44.6284 444.272
538 0 60.2571 10.6046 639 64.4789 44.2504 446.499
539 0 64.2068 11.8523 761 62.7188 44.293 444.286
540 0 66.2254 12.3367 817 61.3978 44.5851 445.685
541 0 68.1956 12.7134 867 62.3933 44.5698 440.633
542 0 68.136 11.9027 811 64.2787 44.4772 438.9
543 0 72.1762 11.943 862 63.855 44.3515 438.466
544 0 73.1745 13.625 997 62.321 44.0702 437.875
545 0 77.2004 13.4196 1036 62.8263 43.9402 435.709
546 0 80.2547 12.3233 989 64.7482 44.0101 435.508
547 0 80.2418 12.4873 1002 65.5579 43.7754 432.393
548 1 43.0592 11.4261 492 61.7541 43.4756 455.965
549 0 44.0508 10.2155 450 62.1067 43.7844 453.9
550 0 44.0354 10.0374 442 65.052 44.0995 454.686
551 0 42.0083 9.99802 420 67.4381 44.4524 452.702
552 0 46.0245 9.42976 434 67.0922 44.4309 452.445
553 0 49.0668 11.1888 549 64.2769 45.0018 452.321
554 0 50.123 12.0304 603 63.6949 44.8342 450.357
555 0 52.142 12.1399 633 63.6224 45.2385 449.502
556 0 54.1648 11.5389 625 64.5312 45.144 448.728
557 0 55.0664 11.3681 626 65.2907 44.9601 448.188
558 0 56.1119 12.0474 676 64.6109 44.6746 447.105
559 0 57.1043 11.9255 681 64.9119 44.696 446.996
560 0 60.1231 10.8112 650 66.4892 44.6538 445.243
561 0 60.1834 10.4182 627 67.2185 44.6204 446.734
562 0 65.0797 11.6319 757 64.6182 44.9141 444.728
563 0 65.1286 10.7019 697 66.5509 44.538 443
564 0 67.0822 11.8213 793 64.8789 44.7869 443.729
565 0 69.0808 12.1018 836 64.4498 44.7596 442.818
566 0 70.0911 12.5266 878 64.4305 44.2517 442.566
567 0 73.0704 11.879 868 64.6406 44.2788 443.581
568 1 37.0299 9.04674 335 66.597 44 458.051
569 0 39.0292 10.1206 395 65.9646 44.1038 457.281
570 0 42.0137 12.1151 509 63.0138 44.4656 459.118
571 0 43.0352 11.5719 498 63.6365 44.4257 461.51
572 0 42.1834 10.9285 461 66.1085 45.295 459.547
573 0 41.0726 9.69017 398 68.5704 44.7915 458.508
574 0 47.1177 11.6941 551 63.9056 45.127 458.528
575 0 46.1328 11.8137 545 64.8771 44.7468 457.253
576 0 48.1314 10.9907 529 65.3781 44.8752 457.8
577 0 49.0609 12.0055 589 64.7521 45.1647 456.399
578 0 49.0997 11.8534 582 65.9399 45.0223 454.168
579 0 51.0764 10.7878 551 66.7296 45.2922 453.946
580 0 53.1096 11.7681 625 65.2032 45.1888 454.003
581 0 56.0325 14.0811 789 62.0482 45.3764 452.982
582 0 56.1234 13.1674 739 63.6373 45.2693 451.724
583 0 57.1984 11.2241 642 65.9688 44.4673 452.327
584 0 58.0958 12.1868 708 65.6116 44.5042 448.109
585 0 62.0752 11.6472 723 65.112 44.3596 447.797
586 0 64.0813 12.8743 825 63.2436 43.743 447.829
587 0 65.1335 12.2057 795 64.6176 44.1044 445.475
588 0 67.0794 11.5237 773 65.5291 44.1889 443.093
589 0 69.1535 12.0746 835 64.5916 44.212 443.834
590 0 72.092 12.8031 923 63.0823 44.3099 443.686
591 0 73.052 11.7724 860 64.4802 44.2267 443.32
592 1 40.0381 10.0155 401 63.6733 44.2444 460.274
593 0 39.0409 11.6032 453 63.8764 43.7969 457.128
594 0 42.2198 11.1322 470 64.2298 44.1213 457.304
595 0 42.0389 11.5607 486 64.1152 44.1564 455.123
596 0 46.0337 11.0571 509 63.8566 44.4008 453.574
597 0 47.0362 13.5853 639 60.7261 44.1674 453.898
598 0 46.0221 12.8199 590 62.5797 44.022 453.51
599 0 49.0621 12.3109 604 62.3113 44.1424 450.156
600 0 49.0376 10.8284 531 65.0169 43.9849 450.175
601 0 52.0879 12.8629 670 62.1776 45.003 448.321
602 0 53.0768 13.0754 694 62.33 44.6974 449.046
603 0 55.0559 12.6599 697 62.2468 44.4864 448.779
604 0 58.0866 13.1872 766 61.5183 43.9465 445.714
605 0 59.0546 12.6493 747 62.51 44.6171 445.652
606 0 61.1159 12.2227 747 63.1339 44.8313 445.141
607 0 62.0713 12.5179 777 63.2574 44.1815 444.485
608 0 67.0833 13.4012 899 61.4405 44.6952 440.323
609 0 69.1208 14.0189 969 60.7709 45.0248 441.01
610 0 71.0839 13.1394 934 61.5525 44.6906 443.013
611 0 71.1728 13.4883 960 61.9458 44.8438 439.549
612 0 75.0855 12.6922 953 62.6159 44.2707 439.931
613 0 76.0844 11.7107 891 64.4321 44.2705 437.575
614 1 41.0448 12.5473 515 62.7437 44.3709 453.843
615 0 42.0338 10.6581 448 63.4955 44.6161 457.085
616 0 46.1112 11.8626 547 63.4607 44.5174 455.086
617 0 45.0321 11.9248 537 63.9963 44.2458 455.646
618 0 53.0913 15.7088 834 49.4796 43.4353 456.546
619 0 48.0601 12.3387 593 64.9123 44.4688 453.069
620 0 50.0697 12.2829 615 64.8927 43.4732 451.202
621 0 52.1438 14.4217 752 62.4096 43.891 451.467
622 0 54.0282 13.3079 719 64.0334 43.9068 451.025
623 0 56.0771 13.107 735 64.4381 43.9918 448.899
624 0 57.1979 13.4271 768 63.931 44.0039 449.954
625 0 59.1107 12.4681 737 65.597 43.7965 448.322
626 0 61.0562 12.5131 764 65.9921 43.9267 447.02
627 0 63.0637 12.7014 801 64.7503 44.0087 446.858
628 0 67.1444 12.5252 841 64.5731 44.4162 446.854
629 0 67.0903 12.4906 838 66.0072 43.6014 441.426
630 0 70.0884 12.9265 906 65.074 43.4978 438.788
631 0 74.0979 13.7791 1021 63.4456 43.6494 439.741
632 0 76.1516 13.8277 1053 63.038 43.0693 438.36
633 0 79.0476 13.5235 1069 63.1291 43.6483 441.399
634 1 42.0612 11.6973 492 63.8963 43.6077 457.955
635 0 46.0505 11.9434 550 62.8636 44.1782 458.344
636 0 47.0265 13.6094 640 61.8641 44.4422 455.431
637 0 48.0422 12.5931 605 63.3256 44.3256 453.851
638 0 49.0245 10.403 510 66.0627 44.6686 454.261
639 0 49.0312 12.8286 629 64.3211 45.1797 450.661
640 0 54.1265 13.4684 729 62.5679 44.8258 451.444
641 0 55.0427 12.5902 693 64.3333 44.6739 450.41
642 0 55.0912 12.2887 677 65.3205 45.0739 449.811
643 0 58.0489 11.5592 671 65.9061 44.4814 450.721
644 0 59.0944 12.0993 715 65.9902 44.6126 449.822
645 0 60.0824 14.7631 887 62.8997 44.1375 447.878
646 0 63.117 12.3738 781 65.863 43.9001 448.269
647 0 67.0623 13.5098 906 64.3113 44.011 445.46
648 0 66.0702 12.6229 834 66.4784 43.3417 443.447
649 0 68.0494 12.6673 862 67.0719 43.9664 443.374
650 0 73.1285 13.2233 967 65.3557 43.6991 443.069
651 0 78.1032 16.7215 1306 60.4441 43.4349 443.331
652 0 77.0338 12.2803 946 67.0772 43.4419 440.465
653 0 80.1902 12.62 1012 67.0632 43.414 439.365
654 0 84.1602 13.1654 1108 66.3186 43.7338 437.338
655 0 88.1008 13.9953 1233 64.721 43.2806 438.512
656 0 91.145 13.5169 1232 65.9732 43.7938 437.908
657 0 93.2318 13.4611 1255 66.4542 44.3124 435.816
658 0 95.0549 14.7283 1400 65.0743 43.3729 433.091
659 0 100.199 12.9542 1298 67.5455 43.1741 429.845
660 0 103.18 14.2566 1471 66.2182 43.6268 428.992
661 0 104.157 13.23 1378 67.8933 43.3563 427.71
662 0 111.253 14.8041 1647 64.8658 42.9107 424.756
663 1 61.1082 13.3861 818 67.5513 43.9022 446.957
664 0 63.1395 14.5551 919 65.4984 43.716 447.631
665 0 64.1404 13.6575 876 67.4498 43.4909 446.645
666 0 68.0863 13.6151 927 67.315 43.2837 444.594
667 0 70.0702 13.0583 915 67.8459 44.0317 446.151
668 0 73.1043 13.1319 960 67.8583 44.0635 445.375
669 0 79.0795 14.6308 1157 65.0207 44.2602 443.918
670 0 79.1022 12.9832 1027 68.2707 44.0536 439.932
671 0 83.2042 13.7493 1144 67.0647 43.2579 438.988
672 0 82.1048 12.6667 1040 69.5471 43.7606 439.625
673 0 86.0782 12.8953 1110 68.9946 43.5865 437.992
674 0 91.1435 13.967 1273 67.6968 43.5664 436.43
675 0 93.102 15.2736 1422 66.1695 43.1315 433.902
676 1 50.1548 11.9829 601 70.178 43.1481 454.925
677 0 50.1451 13.1219 658 69.462 43.2371 453.502
678 0 51.0844 12.8219 655 71.2046 42.2641 451.362
679 0 54.0289 13.4187 725 69.5407 43.0662 453.314
680 0 56.0618 13.61 763 69.2779 43.6435 452.696
681 0 56.085 13.1408 737 71.2483 43.5726 451.1
682 0 58.1923 13.2664 772 71.3899 43.6917 450.687
683 0 61.0758 12.509 764 72.2068 43.5183 450.83
684 0 61.2219 12.1525 744 74.4274 43.2056 448.944
685 0 63.0471 13.8468 873 71.984 43.1535 446.942
686 0 67.0807 13.5061 906 72.085 42.8753 446.376
687 0 70.1659 14.936 1048 69.6956 43.6307 444.447
688 0 73.1749 14.9778 1096 69.6141 43.5657 443.391
689 0 76.2903 12.5573 958 73.2797 43.7766 441.903
690 1 40.1805 12.2945 494 71.2247 44.0263 457.998
691 0 41.0435 10.7203 440 73.2523 43.7409 458.855
692 0 43.0916 13.6918 590 69.4576 43.6831 456.859
693 0 44.1827 13.1726 582 70.7973 43.4381 456.397
694 0 43.1028 12.2034 526 73.3821 43.3346 454.831
695 0 48.0856 12.7481 613 70.7015 43.7879 455.365
696 0 48.121 12.1776 586 72.8891 43.6604 453.522
697 0 49.2014 12.7232 626 72.5415 43.2827 451.966
698 0 52.1985 11.5329 602 74.3173 43.8887 451.056
699 0 54.0746 13.7403 743 70.2988 43.9515 450.401
700 0 57.1454 13.3344 762 70.6693 44.4147 450.51
701 0 55.0649 12.004 661 74.8865 44.5643 448.351
702 0 57.0905 13.2596 757 72.8771 44.4848 448.127
703 0 61.1206 13.776 842 71.9026 44.3409 446.357
704 0 63.1227 14.4005 909 70.8416 44.2134 446.82
705 0 63.1081 12.0904 763 75.4076 43.9135 444.155
706 0 67.2076 13.0045 874 72.7071 42.54 444.809
707 1 36.0939 10.9714 396 74.601 44.0051 459.725
708 0 38.0734 10.3484 394 75.3579 43.7589 459.228
709 0 40.0882 12.1981 489 73.3885 44.3804 457.485
710 0 42.0436 11.7259 493 74.2353 43.783 456.091
711 0 42.0423 12.5826 529 72.3592 43.3611 454.743
712 0 44.0337 12.5586 553 71.6727 43.1736 455.027
713 0 46.0548 13.0279 600 71.01 43.12 452.845
714 0 48.0487 12.6746 609 71.688 43.5616 452.491
715 0 49.0428 13.0906 642 71.2648 43.1542 450.551
716 0 51.0369 12.8534 656 71.4604 43.2409 451.651
717 0 53.1098 14.4983 770 69.2026 42.7857 449.179
718 0 52.038 12.7599 664 72.6928 43.3645 449.456
719 0 54.0573 11.6173 628 74.3201 43.9061 449.328
720 0 57.0532 14.7757 843 69.2361 44.1127 447.509
721 0 60.0849 13.3311 801 70.8327 44.2784 445.986
722 0 63.0853 13.7116 865 69.9353 44.778 446.402
723 0 64.0773 12.797 820 70.7085 44.4915 446.644
724 0 65.0224 12.811 833 71.964 44.3109 442.924
725 0 64.0179 12.3715 792 72.827 43.8864 442.283
726 0 70.1918 14.3749 1009 68.6551 44.3201 442.742
727 0 71.0788 13.3655 950 70.82 44.2358 439.668
728 0 74.1512 12.3801 918 71.6667 43.9673 440.972
729 0 78.056 14.6177 1141 68.39 43.3646 437.186
730 0 81.0617 13.3109 1079 69.8128 43.8925 438.848
731 0 84.0641 13.0377 1096 70.8075 44.2573 436.456
732 0 86.081 11.2917 972 74.6255 44.0648 433.399
733 0 89.2096 13.1712 1175 71.3872 44.3762 434.306
734 1 50.0203 13.8944 695 71.3324 44.5755 451.001
735 0 52.0898 11.9793 624 73.9583 44.3686 451.162
736 0 54.066 12.9656 701 73.0699 44.3096 450.056
737 0 57.0904 13.1896 753 72.9057 44.1142 448.05
738 0 55.0594 13.1676 725 74.531 44.4772 447.265
739 0 60.0577 13.6702 821 72.8855 44.7113 446.676
740 0 63.0457 15.2588 962 69.7173 44.3025 447.553
741 0 64.057 14.2217 911 72.5554 43.9243 444.714
742 0 65.0552 12.8967 839 74.6555 43.907 444.617
743 0 67.1434 14.402 967 72.5016 43.7818 444.302
744 0 71.0704 15.1258 1075 70.9126 43.8019 442.767
745 0 73.1846 14.2516 1043 72.6663 43.5781 441.915
746 0 74.1041 13.2921 985 74.5574 43.7421 440.639
747 0 78.2558 14.6826 1149 71.9965 43.8564 439.474
748 0 80.2356 15.3049 1228 71.0733 43.8754 438.837
749 0 83.045 14.7029 1221 71.543 43.3047 437.879
750 0 84.1664 14.6495 1233 72.854 43.6618 434.703
751 1 42.0175 11.3524 477 76.5514 44.8113 457.979
752 0 44.0241 12.6522 557 75.5548 44.2962 456.619
753 0 45.0179 12.9504 583 76.693 44.4357 453.666
754 0 47.0626 14.0451 661 74.3495 44.2073 454.26
755 0 49.0637 14.3487 704 73.5142 43.9247 454.898
756 0 52.1164 12.5872 656 75.5564 44.0229 454.157
757 0 51.0947 14.1698 724 75.0649 44.2251 453.416
758 0 54.0319 15.0467 813 72.8278 43.7097 452.216
759 0 55.2274 13.7432 759 75.2385 43.7681 452.406
760 0 56.0551 14.0933 790 74.8025 43.5519 452.832
761 0 58.0638 13.5885 789 75.8213 43.7199 451.71
762 0 59.0951 14.079 832 75.4459 43.625 450.869
763 0 61.056 14.0527 858 73.9336 43.986 450.033
764 0 63.0402 14.1497 892 73.2556 44.1469 450.874
765 0 65.182 14.4979 945 72.9683 44.5905 450.186
766 0 68.1431 13.9999 954 73.7799 44.4172 448.997
767 0 69.1242 13.7144 948 74.7131 44.4209 445.431
768 0 71.0888 13.8559 985 74.0335 43.7685 446.747
769 0 75.0581 13.1498 987 75.0841 43.8308 443.575
770 0 77.1159 13.966 1077 73.7057 43.987 442.72
771 0 80.1307 13.9522 1118 73.3309 43.8345 442.829
772 0 84.1982 13.8601 1167 73.2845 43.5818 441.594
773 1 47.0139 11.486 540 72.9204 43.9926 460.885
774 0 48.0532 13.3186 640 71.4797 43.6266 459.414
775 0 50.0922 12.3572 619 72.2391 43.1179 459.157
776 0 52.048 12.988 676 71.7722 43.4157 458.499
777 0 54.1449 14.2765 773 69.1268 42.674 458.809
778 0 57.0854 13.0857 747 71.0736 42.4605 458.408
779 0 57.0703 12.8964 736 71.3424 42.9375 457.707
780 0 59.0459 12.5326 740 71.9311 42.5486 455.968
781 0 60.0593 12.8373 771 71.9157 43.2335 455.301
782 0 62.0812 13.8689 861 70.6713 43.6225 454.468
783 0 64.1962 13.5366 869 71.2612 44.1818 453.232
784 0 65.0704 13.324 867 71.5213 44.4095 454.116
785 0 69.1281 12.6143 872 71.9312 43.9381 452.982
786 0 71.1443 13.4094 954 71.2306 43.6918 449.809
787 0 74.1644 13.969 1036 70.5763 44.1149 449.126
788 0 75.1953 14.1897 1067 69.9578 43.5248 450.483
789 1 40.0489 11.3361 454 71.8877 43.7775 467.366
790 0 42.0964 12.3526 520 70.7404 43.7442 466.838
791 0 43.0187 13.622 586 68.6092 44.0119 465.3
792 0 43.0775 13.5105 582 69.6873 44.0292 466.137
793 0 44.0987 12.8348 566 71.735 44.1678 464.61
794 0 47.0907 12.2317 576 71.875 43.6354 464.917
795 0 48.066 12.9613 623 70.4318 43.4109 464.778
796 0 51.1962 13.751 704 70.0369 43.4773 463.146
797 0 50.18 11.1598 560 74.4518 43.3804 462.898
798 0 53.1462 12.6067 670 71.8776 43.1537 462.222
799 0 54.0598 13.2076 714 71.2059 44.007 460.804
800 0 58.1002 13.3907 778 70.3805 43.2211 461.285
801 0 60.0513 12.889 774 71.6718 43.5594 459.823
802 0 61.0604 13.544 827 70.5973 44.7521 460.681
803 0 64.088 13.5439 868 70.2719 44.6578 459.796
804 0 66.0723 14.2268 940 70.0213 44.3032 455.971
805 0 70.0594 13.3315 934 70.1767 44.4754 456.528
806 0 73.1603 13.2449 969 70.42 44.8772 455.962
807 0 74.0503 15.3544 1137 67.8215 44.7634 453.989
808 1 40.1705 10.6297 427 74.1358 44.3911 468.756
809 0 43.1432 12.1688 525 71.4 43.8686 469.467
810 0 45.1141 13.3883 604 69.9354 44.6076 468.732
811 0 46.0864 13.4747 621 71.1514 44.0451 467.193
812 0 47.2194 13.4902 637 71.9011 44.1287 465.107
813 0 48.1065 12.7218 612 73.5098 44.281 464.683
814 0 49.1008 11.8735 583 74.518 45.0772 464.681
815 0 52.1362 12.0645 629 73.2576 44.8521 463.622
816 0 53.1618 12.7723 679 72.9499 44.9426 461.205
817 0 53.0642 12.2305 649 73.98 45.1525 461.211
818 0 56.1589 12.3934 696 73.1825 44.7313 460.853
819 0 60.1695 14.0769 847 70.2975 45.503 458.989
820 0 62.1913 13.7801 857 70.4399 45.4387 458.601
821 0 65.2029 14.6313 954 69.0933 45.1205 456.729
822 0 66.1722 13.48 892 71.1435 44.2309 454.117
823 0 71.0694 14.5914 1037 68.3578 43.9142 454.295
824 0 73.2165 13.7264 1005 69.797 44.5075 452.189
825 0 76.1769 13.1798 1004 70.241 43.8546 451.688
826 1 42.1723 13.1603 555 69.2486 43.6901 466.942
827 0 42.0561 12.2218 514 70.0506 43.5603 467.368
828 0 45.3565 12.8758 584 69.3973 43.8733 466.726
829 0 45.1162 12.9665 585 70.5436 43.8547 464.097
830 0 48.0814 12.0837 581 71.0585 43.4802 464.384
831 0 50.2759 13.2867 668 68.9042 44.268 463.918
832 0 50.1602 13.0183 653 69.7933 42.902 463.268
833 0 54.0944 13.0512 706 69.1615 43.1091 461.576
834 0 52.1308 11.6246 606 73.5413 44.6815 461.104
835 0 58.0655 14.8281 861 67.5714 44.3438 458.016
836 0 60.1901 12.826 772 70.4974 44.6995 458.785
837 0 62.2446 13.3666 832 70.0661 44.4243 456.126
838 0 63.1388 14.2068 897 69.1249 44.4939 456.768
839 0 66.0483 14.0049 925 69.8735 44.2011 453.799
840 0 69.0485 12.7447 880 70.8693 44.6807 456.21
841 0 72.2247 14.7733 1067 68.7854 44.284 449.692
842 0 73.0667 12.7965 935 72.3369 44.3647 451.794
843 0 76.0965 13.0098 990 72.1374 44.2949 451.728
844 1 43.0521 13.6114 586 69.698 44.657 466.044
845 0 44.0796 11.0255 486 73.7757 44.8148 466.383
846 0 46.0417 11.9457 550 72.9255 44.8345 464.762
847 0 49.1434 11.8225 581 71.3133 43.9552 465.85
848 0 49.0506 13.0885 642 71.3427 43.7882 462.481
849 0 51.1385 12.8083 655 71.7908 44.4168 461.594
850 0 52.1669 13.0159 679 71.863 43.7187 461.33
851 0 55.105 11.4327 630 73.8175 43.7317 460.87
852 0 57.1732 13.118 750 70.996 43.6413 460.48
853 0 60.0829 13.2816 798 70.8434 44.213 457.743
854 0 62.0817 14.0782 874 69.5458 43.968 456.489
855 0 65.0666 12.6025 820 71.2317 43.8085 454.829
856 0 67.183 14.6763 986 67.3682 43.646 455.286
857 0 70.1408 13.5442 950 68.6589 43.4358 453.265
858 0 72.0889 13.7885 994 68.0684 43.4135 452.073
859 0 75.2047 12.9513 974 68.9692 43.9897 451.357
860 0 76.1248 13.1757 1003 68.8873 43.9701 447.174
861 0 78.1217 12.3909 968 69.9504 43.4845 445.635
862 0 84.1546 13.7485 1157 66.3976 43.5998 448.397
863 1 42.1821 10.8814 459 71.8693 43.4118 462.351
864 0 46.0916 12.0412 555 68.5784 44.3387 464.11
865 0 50.1811 11.8172 593 68.1771 44.8803 463.17
866 0 50.0894 12.1782 610 68.5475 44.7902 461.921
867 0 50.1642 12.4989 627 67.8278 44.4482 461.399
868 0 53.0634 11.6464 618 69.479 44.3722 458.547
869 0 55.0897 12.9062 711 67.3404 43.9564 458.506
870 0 56.1604 12.5177 703 67.7468 44.2233 458.868
871 0 58.1364 12.9523 753 67.9602 44.6892 455.882
872 0 62.0766 13.4833 837 65.8841 44.3321 456.364
873 0 63.0689 12.6845 800 67.56 44.6975 454.785
874 0 66.0941 12.4217 821 66.9464 44.7004 456.093
875 0 67.0789 12.6716 850 66.9612 44.8094 454.449
876 0 69.2757 11.7935 817 68.787 44.6916 451.853
877 0 72.1181 14.4347 1041 64.8963 45.0336 448.839
878 0 74.1003 12.9284 958 66.3559 44.6681 450.483
879 0 77.084 13.0118 1003 66.4277 45.2971 447.811
880 0 81.1067 12.9706 1052 65.1312 44.269 450.01
881 0 84.0864 13.2126 1111 65.3159 44.3114 446.383
882 0 86.1561 13.4175 1156 65.2656 44.7076 445.801
883 1 45.0444 11.1224 501 68.2595 44.9202 464.353
884 0 46.0284 12.0578 555 67.4847 44.7784 463.497
885 0 51.0626 13.5128 690 64.4594 44.7812 461.674
886 0 50.0938 13.7342 688 65.359 45.1526 461.077
887 0 52.0409 12.471 649 66.8937 45.6179 461.912
888 0 53.0598 13.2492 703 66.1166 45.0171 459.784
889 0 53.068 12.3427 655 68.2763 44.713 458.609
890 0 57.0716 13.1414 750 66.3 44.5267 459.139
891 0 60.0997 12.9285 777 66.6384 44.3076 456.411
892 0 62.0851 13.4171 833 65.497 44.6831 456.737
893 0 64.1103 12.3381 791 67.1555 44.6169 456.153
894 0 66.0644 12.3667 817 66.9009 43.7625 455.548
895 0 68.0586 12.4892 850 67.1482 44.3424 451.029
896 0 72.162 14.0933 1017 64.8437 44.5674 452.361
897 0 74.0727 14.3913 1066 64.6642 44.4118 450.11
898 0 78.0855 13.1651 1028 66.215 44.3346 449.109
899 0 80.1281 12.3926 993 66.9325 44.0967 451.324
900 1 44.0146 12.405 546 66.1575 44.359 467.93
901 0 43.0728 12.2119 526 68.4354 44.0513 466.295
902 0 47.0221 15.4821 728 63.4217 43.978 465.78
903 0 48.035 13.7192 659 65.78 44.2762 465.228
904 0 49.0523 13.3123 653 66.6539 44.6524 463.224
905 0 51.0249 12.8565 656 66.8095 44.4604 463.852
906 0 52.0442 12.6047 656 68.2393 44.3567 461.146
907 0 54.0299 12.9373 699 67.7124 44.9456 461.805
908 0 54.0637 13.1511 711 67.7609 44.4346 460.536
909 0 59.097 13.5371 800 66.32 44.4387 461.619
910 0 61.0668 15.2947 934 63.5964 44.3951 459.654
911 0 62.0848 15.5916 968 63.7603 44.0041 457.376
912 0 62.0489 13.5216 839 66.6853 42.938 456.129
913 0 69.0312 14.689 1014 63.1657 43.285 456.506
914 0 68.1522 13.6019 927 65.6624 43.3344 455.554
915 0 71.0834 13.4349 955 65.3435 43.4335 454.255
916 0 74.1277 13.4363 996 65.01 43.5412 453.582
917 0 77.0746 15.1412 1167 62.485 44.0626 452.593
918 0 80.128 14.2647 1143 63.7804 44.4803 452.347
919 1 44.0421 11.6707 514 66.1167 44.5428 468.819
920 0 47.0472 13.1783 620 63.579 45.0226 468.623
921 0 50.0508 13.4463 673 64.26 45.89 466.438
922 0 49.0448 13.6814 671 64.1148 45.0045 467.109
923 0 50.09 12.3178 617 67.316 45.7877 464.77
924 0 52.1552 12.9038 673 66.5914 45.3492 463.226
925 0 54.0214 13.8279 747 62.3668 45.5234 465.05
926 0 55.0676 12.6935 699 67.3677 45.6695 462.482
927 0 59.1677 13.6561 808 64.5309 45.3577 464.175
928 0 58.0744 12.5873 731 67.6785 45.0739 460.96
929 0 60.0582 12.8542 772 67.1839 44.8225 459.111
930 0 62.0715 13.1461 816 66.8946 45.0993 458.424
931 0 65.1272 13.1742 858 66.6993 44.3776 456.231
932 0 65.1142 13.8219 900 66.8478 43.9378 454.171
933 0 69.0587 13.9736 965 65.8052 43.8135 454.427
934 0 72.1041 15.0061 1082 64.964 44.402 453.149
935 0 75.1175 13.6985 1029 67.3353 44.2672 450.301
936 0 77.1862 13.435 1037 67.974 44.6085 451.46
937 0 77.1279 12.5765 970 69.7052 44.0876 448.836
938 0 82.3238 13.2161 1088 68.5662 43.8318 446.791
939 1 46.049 12.4216 572 67.2552 44.6101 465.668
940 0 48.2646 11.2505 543 67.86 44.0166 466.289
941 0 49.1004 11.3645 558 68.69 44.9194 464.609
942 0 53.1185 12.2556 651 66.1859 45.1859 466.535
943 0 52.0778 11.5788 603 69.1211 44.6484 463.164
944 0 55.1541 12.3835 683 67.4876 44.7906 462.406
945 0 57.099 12.2594 700 68.08 44.7571 460.219
946 0 58.1563 12.6555 736 67.197 44.7609 461.705
947 0 60.0596 13.42 806 66.6104 44.8052 458.661
948 0 63.0904 11.1903 706 69.1091 44.2096 457.388
949 0 63.1034 13.4224 847 66.843 44.4309 457.826
950 0 67.1395 11.8261 794 68.3791 44.5302 456.811
951 0 68.0849 12.7488 868 67.9482 45.0346 454.237
952 0 72.1406 13.0301 940 66.8043 44.317 453.696
953 0 76.0695 13.3562 1016 66.0335 43.8406 452.937
954 1 38.0379 8.49152 323 68.2539 43.7399 470.926
955 0 41.0311 9.01755 370 67.3324 44.0486 469.578
956 0 43.04 9.75836 420 66.9857 43.5571 468.243
957 0 46.0742 12.6752 584 62.7312 43.5651 467.567
