time division length width area intensity CMx CMy
0 0 65.2505 11.4942 750 66.48 278.691 459.013
1 0 68.1398 11.2269 765 65.9856 278.218 457.222
2 0 65.2209 11.2234 732 67.5669 278.18 456.441
3 0 68.2968 10.5276 719 68.3143 278.36 456.634
4 0 70.2599 9.82068 690 68.829 278.333 456.375
5 0 71.2332 8.80208 627 69.8612 277.19 455.593
6 0 75.3325 11.9869 903 64.5216 275.917 451.776
7 1 38.2256 9.83634 376 66.1223 276.875 468.532
8 0 40.2422 8.72219 351 66.6211 276.048 468.373
9 0 40.3281 10.6873 431 64.5708 276.455 467.056
10 0 42.2568 10.0575 425 65.6 276.899 468.129
11 0 43.1569 10.2417 442 65.1222 275.864 466.658
12 0 43.1717 9.38115 405 66.9975 275.798 465.625
13 0 45.1747 11.1345 503 64.7157 275.414 463.153
14 0 47.1476 12.3866 584 62.7586 275.433 463.502
15 0 48.2664 11.5608 558 63.5018 274.955 463.683
16 0 52.3157 11.0865 580 63.8724 274.014 462.467
17 0 52.2147 11.3186 591 64.2589 274.181 460.196
18 0 52.2231 10.6275 555 65.5261 273.986 460.023
19 0 52.178 11.2308 586 65.6195 274.072 458.596
20 0 54.2154 10.2185 554 66.7076 274.233 456.635
21 0 55.1769 11.3272 625 65.6272 274.898 456.829
22 0 57.3869 10.891 625 65.824 274.656 456.106
23 0 57.1717 10.1799 582 67.4038 273.808 454.954
24 0 61.2048 12.499 765 63.3477 273.796 454.34
25 0 60.1837 10.6175 639 66.3161 274.74 454.421
26 0 65.2409 12.3082 803 63.0212 275.278 453.907
27 0 64.1802 11.421 733 64.8431 274.588 453.098
28 0 65.1594 11.4795 748 65.0281 274.631 451.623
29 0 69.2262 11.4841 795 63.9132 274.747 450.555
30 0 71.2615 11.2122 799 63.2991 275.22 450.925
31 0 74.5164 12.6952 946 60.8097 274.981 451.248
32 0 74.3732 10.5011 781 64.5288 275.029 450.485
33 0 77.3442 12.063 933 62.3655 274.478 448.185
34 1 39.2086 8.62055 338 64.9231 274.956 467.278
35 0 40.1651 11.8262 475 61.6611 274.52 464.149
36 0 43.2557 11.4898 497 61.5594 274.561 464.521
37 0 43.3149 10.5737 458 63.4716 274.738 463.467
38 0 45.2988 10.4859 475 63.7663 274.592 461.006
39 0 46.1451 11.5289 532 62.6711 274.538 461.553
40 0 47.1074 11.7816 555 62.4901 274.409 459.825
41 0 49.2216 12.1085 596 61.1896 274.799 461.572
42 0 49.1111 11.7081 575 62.4209 274.501 458.337
43 0 51.0934 11.4496 585 62.588 274.496 459.614
44 0 53.183 12.0339 640 61.6328 275.009 459.489
45 0 53.153 11.6833 621 63.562 274.786 459.419
46 0 56.2783 11.763 662 63.7719 274.165 457.518
47 0 57.1964 11.1545 638 64.0752 273.937 458.083
48 0 58.2293 12.0901 704 63.3153 274.027 455.777
49 0 59.2177 10.4867 621 66.1498 274.122 455.303
50 0 61.1116 14.269 872 61.3807 273.515 453.431
51 0 61.22 11.4342 700 65.5386 273.621 451.863
52 0 63.068 12.1773 768 64.8984 273.919 450.469
53 0 66.1771 11.3332 750 65.7213 273.759 449.165
54 0 68.105 13.2443 902 62.8592 274.229 451.184
55 0 69.1825 12.5899 871 64.3674 274.124 448.23
56 0 71.102 11.0545 786 65.8702 274.06 449.939
57 0 73.054 13.0041 950 63.7253 274.195 445.809
58 0 75.0937 13.1968 991 63.6791 274.473 444.458
59 0 74.1216 11.1304 825 66.7782 274.651 444.299
60 0 80.0805 11.8006 945 65.2751 274.99 444.443
61 1 44.0503 11.2599 496 65.1472 275.091 460.952
62 0 41.0704 10.2507 421 68.2613 274.779 459.952
63 0 45.0411 11.1454 502 65.7988 274.548 459.494
64 0 46.0639 12.1787 561 65.2103 274.449 459.818
65 0 48.1239 12.2808 591 64.687 275.083 459.645
66 0 48.0857 11.2507 541 67.0832 274.126 457.261
67 0 51.2073 11.4827 588 66.3163 273.662 457.524
68 0 50.1665 12.9369 649 65.5593 273.693 455.867
69 0 53.1192 12.3496 656 65.9543 274.209 456.884
70 0 53.0613 12.1369 644 66.8339 273.666 457.567
71 0 53.0975 10.0005 531 69.8569 273.821 456.814
72 0 56.0999 12.0321 675 67.2874 273.834 454.729
73 0 56.1613 11.2711 633 68.763 274.276 455.338
74 0 59.1129 12.7722 755 66.5457 274.372 455.103
75 0 61.132 12.2195 747 67.4645 274.091 453.692
76 0 63.1107 11.6621 736 68.0951 273.976 453.115
77 0 66.3076 12.5174 830 66.388 274.216 454.124
78 0 66.1424 12.4277 822 67.7433 274.771 450.274
79 0 70.1468 13.1153 920 65.5902 274.674 452.653
80 0 71.2737 11.6172 828 69.0954 274.588 448.264
81 0 72.1037 11.1783 806 69.4938 274.717 450.181
82 0 77.1677 14.0473 1084 65.0904 273.775 447.397
83 0 79.1119 14.5743 1153 64.7329 273.688 447.227
84 1 40.039 7.46771 299 71.5351 273.686 466.05
85 0 43.0805 10.7705 464 68.1961 274.177 464.603
86 0 44.0717 10.8006 476 69.5693 274.479 463.729
87 0 44.032 11.6279 512 69.4473 274.607 461.182
88 0 48.096 11.1652 537 68.4339 274.123 462.009
89 0 47.1251 10.8223 510 70.0294 274.841 462.033
90 0 49.1714 11.5311 567 69.2981 274.654 460.198
91 0 52.2172 11.2607 588 69.119 274.607 459.551
92 0 51.0558 10.0478 513 71.0078 274.567 459.807
93 0 52.1268 10.0332 523 71.5239 274.254 458.612
94 0 56.1346 11.3299 636 68.6651 274.64 459.168
95 0 57.1535 10.953 626 69.7348 274.395 458.099
96 0 56.1296 10.066 565 72.4301 274.589 455.202
97 0 61.1672 11.6729 714 68.5854 273.955 455.724
98 0 62.1288 12.5063 777 67.3475 274.386 456.874
99 0 64.1187 11.3695 729 68.5652 274.289 455.901
100 0 66.264 11.4693 760 68.3776 274.618 453.818
101 0 68.1463 12.1357 827 68.3374 274.775 451.306
102 0 69.1203 12.037 832 68.6971 274.63 448.268
103 0 73.1243 11.5693 846 68.143 274.378 450.486
104 0 76.167 13.7724 1049 64.6568 274.118 450.278
105 1 41.0814 10.6861 439 65.6492 274.852 466.77
106 0 42.178 9.31765 393 67.8982 275.684 467.216
107 0 44.138 10.0367 443 66.6095 275.124 467.587
108 0 44.1441 11.5984 512 65.4883 274.553 465.965
109 0 45.2987 10.5963 480 67.0687 274.554 463.902
110 0 46.178 11.7155 541 65.4104 275.201 464.514
111 0 49.2569 10.1306 499 66.4489 275.154 466.331
112 0 49.2114 11.1153 547 66.4516 275.055 463.199
113 0 52.2868 10.0408 525 67.1333 274.52 463.154
114 0 52.1218 11.2621 587 65.8313 274.286 461.716
115 0 53.127 12.6489 672 63.9836 274.674 461.609
116 0 57.1808 11.245 643 65.6905 275.048 459.942
117 0 57.1712 11.2994 646 65.8777 274.741 458.776
118 0 59.1688 11.6953 692 64.9133 275.15 459.847
119 0 61.1588 11.2167 686 64.9752 275.159 461.14
120 0 61.1079 11.4224 698 65.7249 275.08 459.261
121 0 64.2274 10.3383 664 66.5949 275.702 459.904
122 0 66.0999 11.8155 781 65.0679 274.447 457.23
123 0 69.1321 11.2683 779 64.9897 274.227 458.822
124 0 71.0947 11.3511 807 65.1351 274.47 455.716
125 0 73.393 13.4073 984 62.4939 275.221 454.218
126 0 76.1635 11.3571 865 65.5283 275.25 451.999
127 0 78.1429 9.91772 775 67.5935 275.594 450.988
128 0 80.1827 11.6733 936 65.0021 275.091 448.393
129 1 37.144 7.29593 271 68.4133 275.387 468.672
130 0 41.2328 10.3073 425 65.6306 274.715 466.739
131 0 44.0688 10.2794 453 64.5364 274.424 468.013
132 0 46.12 12.8578 593 61.7605 274.189 467.344
133 0 45.1635 10.4288 471 66.0382 274.856 466.293
134 0 47.1667 10.6007 500 65.248 275.286 465.558
135 0 50.1909 11.3965 572 64.5507 274.946 464.016
136 0 51.1581 10.6141 543 65.9521 275.284 462.797
137 0 52.198 11.284 589 65.039 274.64 461.986
138 0 53.1433 11.4219 607 65.5387 274.855 461.054
139 0 54.1349 10.2152 553 67.8933 275.107 460.038
140 0 54.2038 9.74101 528 69.1042 274.913 456.021
141 0 56.1109 11.103 623 67.321 276.228 457.631
142 0 59.0998 11.506 680 66.6647 275.522 455.406
143 0 60.0769 11.6351 699 66.2833 274.805 454.092
144 0 64.211 11.4622 736 65.8614 274.34 453.927
145 0 62.1811 10.984 683 67.5534 275.041 453.341
146 0 66.1765 12.4667 825 65.0618 275.173 453.393
147 0 69.1787 11.5064 796 66.098 275.755 450.815
148 0 70.14 11.6481 817 65.8874 275.961 449.902
149 0 74.1113 12.6971 941 63.8661 275.371 448.678
150 0 75.1331 9.34342 702 68.2236 275.446 450.236
151 0 78.2287 11.6709 913 65.4732 275.349 444.572
152 1 41.102 11.2403 462 64.2727 276.301 464.848
153 0 43.0699 11.0054 474 64.7511 276.019 463.81
154 0 44.0842 10.7748 475 65.3242 276.171 463.518
155 0 45.2093 9.7104 439 66.3052 275.681 464.23
156 0 46.1641 11.6541 538 64.8104 275.048 459.719
157 0 48.198 10.9548 528 64.9167 274.848 461.536
158 0 48.1575 10.5487 508 65.5197 275.081 463.035
159 0 51.2823 11.8364 607 63.3147 275.142 460.972
160 0 52.1849 10.6353 555 65.7514 274.897 458.375
161 0 53.2043 11.5028 612 64.5212 274.443 457.851
162 0 55.1597 10.7869 595 65.5076 274.96 455.563
163 0 54.1811 10.9448 593 65.7639 275.356 455.936
164 0 58.1976 11.3407 660 64.7106 274.294 454.973
165 0 59.1488 10.5497 624 64.5881 274.894 454.476
166 0 59.212 11.062 655 63.7115 274.441 455.159
167 0 64.2907 11.6191 747 62.4618 273.754 454.387
168 0 63.2855 9.51245 602 65.9219 273.527 452.344
169 0 67.2306 11.3787 765 63.5712 274.384 450.978
170 0 70.1974 10.8693 763 63.675 274.814 450.17
171 0 71.1941 10.9841 782 63.9348 274.574 449.802
172 0 73.2232 11.3625 832 63.6947 274.893 446.873
173 1 38.1498 10.485 400 61.5225 275.603 467.007
174 0 38.0873 9.05815 345 64.4754 275.794 465.577
175 0 41.1451 10.2078 420 62.7167 275.664 462.35
176 0 40.1442 9.5406 383 64.5144 275.52 462.945
177 0 45.1628 9.94181 449 63.265 276.156 462.434
178 0 45.1633 11.9566 540 61.6722 276.243 461.857
179 0 47.188 10.5535 498 63.2189 276.131 461.616
180 0 45.2107 9.86493 446 64.491 275.457 462.944
181 0 48.1928 10.292 496 64.1935 275.155 458.47
182 0 48.1098 8.27275 398 65.9296 276.083 461.035
183 0 53.2782 11.1115 592 62.777 275.816 459.226
184 0 54.1418 10.5833 573 63.8202 276.307 458.675
185 0 53.1253 10.6164 564 64.0869 275.574 457.346
186 0 57.1934 11.837 677 61.7179 275.434 456.932
187 0 57.1592 11.1618 638 63.7241 275.15 454.152
188 0 58.1833 10.3466 602 65.0963 275.566 452.596
189 0 62.1643 10.9709 682 63.5161 275.572 453.462
190 0 63.2301 12.0354 761 62.4415 275.752 452.808
191 0 64.1607 10.5205 675 65.3111 275.573 448.702
192 0 67.1142 11.5773 777 63.2999 275.619 449.825
193 0 69.089 10.9714 758 63.8074 275.551 450.447
194 0 71.1048 12.6574 900 62.0111 275.817 449.48
195 0 72.171 11.1125 802 64.1509 275.546 447.963
196 0 75.0938 12.3845 930 63.0301 275.042 445.386
197 0 78.222 11.9659 936 63.1132 274.892 444.135
198 1 42.0993 10.3565 436 62.8532 275.768 463.736
199 0 40.0955 10.1757 408 64.3211 275.306 462.926
200 0 42.0355 11.633 489 60.863 275.593 463.761
201 0 44.1463 11.1901 494 62.7429 275.935 463.314
202 0 43.1238 9.62346 415 65.1566 275.229 462.904
203 0 44.0759 11.571 510 62.4725 274.959 461.071
204 0 45.1218 11.1476 503 63.0915 274.169 459.588
205 0 47.1371 11.2438 530 62.8604 274.466 459.153
206 0 50.2409 11.425 574 62.6115 274.894 458.58
207 0 50.0857 11.0211 552 61.7971 275.025 458.841
208 0 50.1832 11.737 589 61.455 274.927 459.228
209 0 52.1841 10.942 571 62.3187 274.634 458.356
210 0 54.1532 11.172 605 61.9752 274.661 457.053
211 0 53.1457 10.1796 541 64.1701 275.024 457.436
212 0 56.1469 12.022 675 61.7896 274.904 454.064
213 0 57.1001 11.9264 681 62.2966 275.05 452.106
214 0 60.16 13.5971 818 59.0061 274.99 453.232
215 0 60.1055 12.112 728 61.3956 274.964 453.317
216 0 61.1678 12.245 749 62.1335 274.947 448.912
217 0 64.142 11.6616 748 62.2848 273.89 449.988
218 0 66.0938 13.2842 878 60.9191 273.8 447.411
219 0 67.1468 11.9738 804 62.7998 273.657 445.46
220 0 70.2475 12.4702 876 60.4406 273.879 450.463
221 0 70.1354 12.0196 843 63.3345 274.072 445.17
222 0 74.2489 11.6365 864 63.0926 274.965 444.898
223 0 74.1418 11.1138 824 65.409 275.301 440.271
224 0 78.171 11.1166 869 64.8147 274.786 440.937
225 0 80.2227 11.4307 917 64.7786 273.998 438.683
226 0 81.2392 11.8416 962 64.0967 274.129 438.849
227 1 43.07 12.2823 529 61.8053 274.454 456.011
228 0 43.105 11.4604 494 63.8381 274.2 452.516
229 0 45.078 11.9792 540 62.7111 274.233 452.002
230 0 44.0722 12.298 542 64.1697 274.404 450.548
231 0 47.052 13.8358 651 60.6912 274.276 451.101
232 0 48.0635 12.2962 591 63.0051 275.152 450.403
233 0 47.0481 10.5212 495 65.8687 274.606 451.505
234 0 49.0973 11.2837 554 64.8213 274.875 449.24
235 0 51.023 12.5042 638 63.4467 274.741 448.382
236 0 54.0477 14.0247 758 60.7335 274.021 447.19
237 0 55.0774 11.856 653 63.0184 274.167 449.62
238 0 57.0819 12.8587 734 61.7112 274.5 448.05
239 0 57.1147 12.8163 732 62.8497 274.892 444.102
240 0 60.1594 12.7495 767 61.9309 274.948 445.233
241 0 58.0989 12.8574 747 63.0763 275.11 445.004
242 0 61.0737 14.0159 856 60.7383 274.436 444.457
243 0 64.0492 12.6465 810 62.2198 274.222 442.731
244 0 65.1413 13.2788 865 61.963 274.526 440.034
245 0 65.0661 12.4796 812 63.4163 274.277 441.35
246 0 68.0765 13.3379 908 62.4141 274.401 441.153
247 0 70.106 12.581 882 62.9807 274.024 441.965
248 0 72.0247 13.0511 940 62.4468 273.374 438.107
249 0 73.1318 13.8517 1013 61.3287 272.784 439.021
250 0 77.1217 12.8628 992 62.4103 273.342 437.789
251 0 77.0648 13.5081 1041 62.5869 273.905 434.476
252 0 80.1847 11.7728 944 63.6578 273.994 439.579
253 0 82.1866 13.6397 1121 62.4674 273.998 433.129
254 0 86.1292 14.9543 1288 60.1266 274.313 434.064
255 0 87.0813 12.8156 1116 63.2428 274.258 433.532
256 1 46.0801 11.9791 552 64.0743 274.277 452.603
257 0 49.0592 12.9843 637 61.9215 274.027 453.769
258 0 52.085 12.4604 649 61.1649 274.051 454.814
259 0 51.0767 11.4142 583 64.0806 273.991 451.286
260 0 52.075 12.8277 668 62.4701 274.362 452.603
261 0 52.0261 11.0329 574 65.1411 274.42 450.507
262 0 55.2563 10.4965 580 64.6776 274.997 452.078
263 0 59.1298 12.1935 721 62.57 275.019 451.39
264 0 63.1797 13.7228 867 59.7705 274.601 450.855
265 0 61.0473 11.8269 722 62.8684 275.071 452.157
266 0 64.0715 11.9554 766 62.7258 274.482 450.454
267 0 66.0953 14.0403 928 60.3588 274.371 447.491
268 0 67.0485 12.6625 849 62.4923 274.118 448.154
269 0 69.1481 11.8008 816 62.9755 274.352 449.935
270 0 72.0599 12.6978 915 61.8907 274.366 448.154
271 0 76.1594 14.6666 1117 58.8962 274.331 448.021
272 0 75.0883 11.6663 876 63.2797 275.32 447.322
273 0 78.1246 11.4561 895 63.2201 275.153 446.916
274 0 81.1731 11.9498 970 63.1845 275.308 443.074
275 0 83.1755 12.2873 1022 62.7319 274.027 441.388
276 1 43.0644 11.5641 498 61.2249 275.165 461.934
277 0 45.0542 11.1865 504 62.1766 275.006 461.78
278 0 47.0774 12.66 596 60.0923 274.584 460.163
279 0 48.129 11.5315 555 61.7297 274.474 459.409
280 0 50.0955 10.999 551 62.0581 274.996 460.452
281 0 52.0365 11.7802 613 61.9266 275.196 456.86
282 0 51.1142 11.1319 569 62.9824 275.109 455.336
283 0 55.1768 11.7259 647 61.4266 274.281 457.597
284 0 56.1652 12.0715 678 61.2139 274.307 455.99
285 0 57.0406 10.8168 617 62.8395 273.404 456.901
286 0 60.0775 11.1855 672 62.3259 273.411 454.942
287 0 60.0655 12.6196 758 61.2718 273.784 452.135
288 0 63.0955 11.7441 741 61.726 273.781 453.445
289 0 62.156 10.5863 658 63.8085 273.968 453.135
290 0 64.1785 11.0473 709 63.3145 274.096 451.339
291 0 69.1929 11.9955 830 62.247 274.152 450.664
292 0 70.1724 12.113 850 62.7024 274.479 451.194
293 0 73.0736 11.8237 864 63.0394 274.128 450.463
294 0 75.1558 9.68654 728 65.7102 274.139 449.584
295 1 40.1254 10.8659 436 63.8417 274.422 464.885
296 0 40.1125 10.7448 431 64.4803 274.058 463.947
297 0 44.1627 11.0727 489 63.7362 273.98 462.669
298 0 43.1842 10.7447 464 64.9138 274.371 462.961
299 0 46.0893 10.0891 465 65.5462 274.372 463.168
300 0 46.1383 9.51486 439 66.344 274.574 461.542
301 0 51.1485 10.8899 557 63.9838 274.025 461.713
302 0 51.1851 10.9016 558 65.3172 274.871 459.751
303 0 52.1027 11.2854 588 66.1514 274.694 458.272
304 0 55.1118 10.2156 563 67.8277 274.551 459.572
305 0 54.1283 10.4382 565 69.154 274.935 456.966
306 0 56.125 9.97773 560 70.0482 274.575 456.793
307 0 60.1122 13.0423 784 65.2857 274.287 455.37
308 0 61.0698 12.7068 776 66.0696 274.424 454.903
309 0 61.1166 10.0464 614 70.0651 274.995 454.687
310 0 65.1749 11.0779 722 68.144 275.022 452.94
311 0 65.174 11.1854 729 68.6488 274.385 450.697
312 0 69.157 11.1341 770 68.4506 274.571 448.958
313 0 72.1924 11.9957 866 66.7552 274.527 447.045
314 0 75.0764 12.3341 926 66.1069 274.827 446.188
315 0 76.166 12.906 983 65.8118 274.72 444.416
316 1 37.0621 9.65948 358 67.6564 275.031 462.229
317 0 39.0989 10.563 413 66.7651 274.884 461.274
318 0 42.1603 9.58248 404 67.3441 274.636 460.918
319 0 44.2001 10.8371 479 65.5532 274.983 461.299
320 0 42.0784 9.33971 393 69.7659 274.891 458.883
321 0 44.13 10.0159 442 68.1923 275.595 460.24
322 0 45.0972 9.82324 443 68.1738 275.352 459.293
323 0 48.1997 10.7262 517 66.2089 274.288 457.321
324 0 48.0831 10.3155 496 67.6855 274.347 455.784
325 0 52.1274 11.8748 619 65.0565 274.422 453.682
326 0 53.0933 10.4345 554 67.1516 274.475 454.722
327 0 55.1805 11.0184 608 66.977 274.368 451.637
328 0 55.1328 11.9167 657 66.1492 274.324 450.667
329 0 59.163 11.0035 651 66.8095 274.759 452.126
330 0 60.1929 11.297 680 66.3162 274.525 449.631
331 0 62.085 12.5956 782 63.8593 273.774 446.98
332 0 62.0986 11.5945 720 65.3667 273.985 448.653
333 0 65.2077 10.919 712 67.5534 273.434 442.854
334 0 66.1853 11.0901 734 67.9264 274.187 442.198
335 0 69.1019 11.3311 783 67.6692 274.635 439.867
336 0 69.1941 10.8246 749 67.5901 274.742 442.139
337 0 73.3116 12.0308 882 65.9218 274.741 438.42
338 0 73.0796 10.5501 771 67.725 274.503 438.17
339 0 77.2535 11.171 863 66.7173 274.238 435.211
340 0 79.3296 11.9754 950 65.3926 274.826 432.208
341 0 85.3443 11.354 969 66.1383 274.357 431.384
342 0 85.1771 12.0337 1025 66.0283 274.308 426.285
343 0 89.165 11.3946 1016 66.4508 274.524 427.742
344 0 91.191 11.0757 1010 67.3762 274.282 425.809
345 0 95.2162 10.5129 1001 67.4715 274.098 425.626
346 1 48.0624 11.5059 553 63.9982 274.477 452.705
347 0 49.0978 10.7541 528 66.5341 274.79 451.155
348 0 50.0813 11.661 584 64.7363 274.05 453.125
349 0 52.0927 11.5563 602 65.2159 273.97 450.944
350 0 50.117 10.4755 525 67.4495 273.743 451.274
351 0 54.0825 11.2236 607 66.0231 273.629 451.812
352 0 56.0712 11.9848 672 64.503 273.515 447.42
353 0 58.1419 12.1083 704 64.6989 274.114 447.621
354 0 60.1628 12.8485 773 63.3428 273.89 445.546
355 0 60.0472 10.9081 655 66.345 274.084 445.998
356 0 63.1048 11.267 711 66.0436 274.072 447.032
357 0 64.0921 12.6069 808 64.1064 273.592 446.224
358 0 66.0753 11.048 730 66.3219 273.574 443.755
359 0 68.1058 11.5849 789 65.6553 273.485 443.583
360 0 74.0992 11.4981 852 64.108 274.238 443.033
361 0 73.1499 11.7703 861 65.0557 274.161 439.923
362 0 77.1108 12.4885 963 63.7902 274.219 438.229
363 1 38.0556 10.0642 383 67.0183 275.269 457.188
364 0 40.0277 11.6419 466 64.7103 274.893 455.882
365 0 43.0644 11.4015 491 63.8513 274.668 458.244
366 0 44.0827 10.9113 481 64.7505 274.917 457.501
367 0 46.1125 10.366 478 66.4289 274.684 454.113
368 0 47.1748 11.2772 532 64.8346 274.239 453.949
369 0 50.1194 11.293 566 64.6643 273.557 452.979
370 0 47.1063 11.4422 539 66.1558 273.655 450.827
371 0 51.1466 12.9823 664 63.0798 273.919 449.105
372 0 51.0799 11.5309 589 65.1138 273.912 450.747
373 0 52.0955 11.0374 575 67.1409 274.729 448.904
374 0 57.0999 11.8739 678 64.264 274.614 448.476
375 0 57.0419 12.5697 717 64.3543 274.792 445.82
376 0 60.0829 12.516 752 63.8923 275.104 443.338
377 0 62.049 12.1517 754 64.2533 275.078 442.614
378 0 63.1312 11.6107 733 65.2442 274.48 441.439
379 0 65.1804 12.9027 841 63.3532 274.257 438.992
380 0 66.1457 11.5805 766 65.5796 274.911 439.567
381 0 68.106 12.8182 873 63.5613 274.281 435.699
382 1 37.0273 11.9641 443 62.6546 274.503 452.255
383 0 38.0774 11.1352 424 63.5212 274.3 452.755
384 0 38.0593 11.3244 431 64.1972 274.35 450.265
385 0 37.03 10.397 385 65.6104 274.771 448.509
386 0 42.226 10.8227 457 63.4026 274.317 449.956
387 0 43.0131 10.9966 473 62.2283 274.452 449.822
388 0 42.0259 12.5399 527 60.8501 274.133 446.888
389 0 44.0143 10.7238 472 62.0233 274.631 450.119
390 0 48.0204 13.0153 625 59.1232 274.581 446.912
391 0 48.0935 13.245 637 59.1947 274.667 445.031
392 0 49.0766 11.0439 542 62.0812 274.577 446.779
393 0 51.0483 14.0259 716 58.2947 274.595 446.162
394 0 50.0752 11.5826 580 62.8172 274.083 443.507
395 0 52.0524 11.6998 609 62.2315 273.392 443.011
396 0 55.0831 11.3828 627 62.4131 273.678 444.783
397 0 56.0752 11.9482 670 61.7731 273.316 443.063
398 0 57.065 12.3894 707 61.9279 274.105 440.673
399 0 61.0311 13.3047 812 60.1293 274.352 439.373
400 0 62.1407 12.2786 763 61.401 274.586 439.079
401 0 63.1175 11.5974 732 62.3566 273.908 438.187
402 0 66.1003 13.9485 922 59.0347 274.171 437.386
403 0 68.0413 12.6982 864 60.5787 273.771 438.466
404 0 73.1513 13.4516 984 59.1352 273.623 435.535
405 0 73.2978 12.5925 923 61.1593 273.72 431.967
406 0 72.1637 9.83874 710 64.8775 273.756 432.892
407 0 79.2305 12.4447 986 60.3032 273.824 433.432
408 1 41.0417 12.0609 495 61.697 273.818 448.376
409 0 43.0649 10.2636 442 62.1244 273.579 450.889
410 0 44.066 11.6189 512 60.3672 273.906 449.902
411 0 47.1174 11.8215 557 60.4847 274.199 449.106
412 0 49.0492 14.149 694 57.1282 274.161 447.046
413 0 49.0963 13.9318 684 58.1228 274.399 445.269
414 0 52.0478 11.6239 605 60.3818 274.336 445.468
415 0 52.0251 12.6093 656 59.8643 274.526 442.889
416 0 53.0283 12.6536 671 60.1118 274.553 443.155
417 0 57.1383 12.7935 731 58.7579 274.897 444.906
418 0 58.0705 9.48846 551 63.0073 274.109 440.996
419 0 59.0557 13.1063 774 59.0155 274.243 438.881
420 0 61.1126 12.1252 741 60.1255 274.039 440.394
421 0 64.0507 13.864 888 57.6993 274.181 438.787
422 0 67.0317 13.4116 899 58.2314 274.023 439.308
423 0 67.0838 11.6273 780 60.3397 274.433 439.305
424 0 71.0603 13.2563 942 57.6295 274.679 440.167
425 0 73.0619 13.4544 983 56.7131 274.55 441.981
426 0 75.086 11.6533 875 59.5749 274.73 437.064
427 0 78.1148 13.0065 1016 58.1309 274.349 437
428 1 41.12 11.7461 483 56.7764 275.054 456.201
429 0 44.0578 13.0283 574 56.7544 274.611 453.514
430 0 43.0452 11.1278 479 59.8017 274.582 450.758
431 0 48.0325 12.6373 607 57.3723 274.656 449.853
432 0 48.0399 12.2398 588 58.5918 275.138 449.825
433 0 48.0219 10.5785 508 60.4882 274.752 450.478
434 0 50.0287 11.7732 589 59.5671 274.903 447.839
435 0 53.0391 13.2167 701 57.7504 274.815 447.538
436 0 54.0248 12.013 649 58.829 274.371 447.034
437 0 55.0484 15.3683 846 55.2447 273.665 445.033
438 0 55.0589 12.5865 693 58.5685 273.706 447.303
439 0 58.0523 12.1787 707 59.2122 273.734 444.942
440 0 56.1682 11.0027 618 61.8673 273.798 444.955
441 0 61.0891 11.8843 726 60.1074 273.996 442.676
442 0 63.1178 14.1165 891 56.8979 273.805 443.42
443 0 64.0742 12.189 781 59.8848 273.809 442.396
444 0 65.0408 12.7612 830 59.4217 273.467 439.254
445 0 69.0379 12.7901 883 59.0634 272.98 438.905
446 0 68.0574 10.8732 740 62.0365 272.965 438.172
447 0 73.0579 12.6612 925 60.1146 274.01 437.195
448 0 72.0296 11.2731 812 62.5628 273.77 436.344
449 0 77.075 12.3127 949 61.1012 273.636 435.92
450 1 39.0249 10.7111 418 62.4617 273.526 453.371
451 0 40.029 11.4167 457 62.2166 273.466 451.322
452 0 43.0406 10.827 466 62.676 273.491 450.457
453 0 43.0243 10.4824 451 63.4302 273.652 449.357
454 0 45.056 11.5634 521 61.1478 273.013 449.701
455 0 46.0335 12.4692 574 60.0976 273.554 449.833
456 0 47.0757 10.8761 512 62.4336 273.246 447.949
457 0 48.0576 11.7359 564 61.9734 273.649 448.465
458 0 50.0178 11.7158 586 61.8908 273.662 446.068
459 0 51.0518 12.4383 635 61.1701 273.562 446.65
460 0 53.0689 13.115 696 60.6063 273.409 445.728
461 0 55.1097 11.6132 640 61.9641 273.339 443.438
462 0 58.0607 13.0898 760 59.3842 273.849 444.891
463 0 59.0877 11.8976 703 61.2091 273.619 441.832
464 0 60.1694 12.8637 774 60.5129 274.575 440.112
465 0 63.0922 12.1885 769 60.7607 275.069 441.717
466 0 67.1005 13.6661 917 58.6009 275.072 440.901
467 0 66.1016 11.8605 784 62.2577 274.861 436.139
468 0 72.2208 12.3926 895 60.4201 274.774 436.523
469 0 74.0838 12.8638 953 59.9234 274.45 435.914
470 0 77.0837 12.1297 935 60.0599 274.494 435.876
471 1 39.0487 10.0644 393 60.6692 274.104 453.092
472 0 38.1265 10.5963 404 60.5594 273.911 453.225
473 0 41.0457 11.2314 461 59.1193 274.187 452.757
474 0 39.0304 10.5559 412 61.2015 274.296 451.939
475 0 43.0087 10.3002 443 60.4582 274.503 454.537
476 0 45.045 11.2998 509 58.721 274.658 456.513
477 0 47.1162 11.8855 560 58.5304 274.902 456.03
478 0 47.0699 10.9837 517 60.5513 275.277 453.542
479 0 48.0722 12.086 581 59.346 275.463 455.836
480 0 52.0698 11.4078 594 59.7609 275.616 454.892
481 0 52.0324 10.9932 572 61.0455 275.287 452.07
482 0 53.1063 12.1454 645 59.3209 275.87 454.188
483 0 54.0919 10.9443 592 60.9932 274.546 452.189
484 0 57.0441 10.6234 606 60.9472 274.847 452.295
485 0 61.1143 13.2375 809 57.3745 274.779 452.659
486 0 61.1144 11.8466 724 60.337 274.736 449.717
487 0 64.068 11.2537 721 61.2718 275.061 448.173
488 0 66.1799 12.6171 835 59.5341 274.69 447.492
489 0 67.1105 12.0995 812 60.8793 274.768 445.691
490 0 69.1155 11.5459 798 61.7995 274.257 445.768
491 0 73.1114 12.3237 901 60.889 274.586 446.186
492 0 76.0871 12.2228 930 60.8505 274.737 444.626
493 0 77.0827 10.9233 842 63.1841 274.248 442.743
494 0 79.1114 12.198 965 62.2394 273.807 440.952
495 1 45.0933 11.1325 502 61.6554 273.556 457.871
496 0 44.1479 10.6687 471 62.1253 273.998 459.569
497 0 49.1186 12.2153 600 60.7967 274.388 457.335
498 0 47.1728 11.6169 548 63.1971 274.447 455.21
499 0 50.0125 12.037 602 61.8638 274.047 456.174
500 0 49.0349 12.5217 614 62.684 273.425 453.725
501 0 52.1224 12.1061 631 63.1315 273.561 452.569
502 0 54.0984 13.0318 705 61.905 274.122 451.472
503 0 55.0116 12.1247 667 63.5487 274.474 450.792
504 0 56.1312 12.3639 694 63.1513 274.352 450.398
505 0 58.1393 11.954 695 64.3065 274.083 450.047
506 0 61.1174 12.5333 766 63.1658 273.718 449.226
507 0 63.1069 13.8812 876 61.7454 273.868 448.59
508 0 63.1193 12.5477 792 63.8636 274.457 449.27
509 0 66.0547 10.7638 711 66.1857 275.143 449.205
510 0 69.1459 13.2763 918 63.4717 274.598 446.218
511 0 71.0619 13.2701 943 63.5313 274.604 444.565
512 0 72.1612 12.8739 929 64.6265 274.553 442.023
513 0 77.1008 13.1516 1014 63.9882 274.852 443.692
514 0 78.1555 12.3472 965 65.7233 274.78 440.982
515 1 41.1175 10.3119 424 64.8184 275.441 462.34
516 0 43.073 11.376 490 66.0735 274.969 459.631
517 0 44.0225 11.2897 497 67.4809 275.332 458.419
518 0 46.0463 11.6187 535 66.514 274.813 457.847
519 0 47.0359 10.4176 490 68.4816 274.547 457.776
520 0 49.0924 12.7922 628 65.8424 274.748 454.726
521 0 52.0427 13.1238 683 64.9898 274.732 454.083
522 0 52.048 12.5653 654 66.5398 273.739 452.353
523 0 55.0883 11.3636 626 67.016 273.901 455.419
524 0 57.0469 11.4117 651 67.1874 274.063 454.281
525 0 58.1061 12.3567 718 67.3287 274.142 449.961
526 0 62.0509 12.4897 775 66.1781 273.81 449.653
527 0 64.1318 12.4743 800 65.6375 274.039 450.016
528 0 66.1624 13.3913 886 64.4876 274.176 449.315
529 0 69.2583 12.2873 851 65.7121 274.848 447.985
530 0 71.1403 13.2836 945 64.3778 275.312 445.647
531 0 72.1585 12.1399 876 65.8048 274.183 445.718
532 1 36.2909 9.01052 327 67.7095 274.471 463.153
533 0 40.2786 11.3956 459 64.2092 274.641 461.002
534 0 37.0581 10.659 395 67.0127 274.886 461.39
535 0 42.1366 12.5069 527 62.6414 274.88 460.192
536 0 43.051 10.476 451 65.3481 274.661 458.519
537 0 43.0519 10.9403 471 65.7367 274.809 456.416
538 0 44.0494 10.9877 484 64.6736 274.7 456.851
539 0 44.0229 13.7428 605 62.2215 274.255 453.795
540 0 46.0498 12.291 566 64.5724 274.244 452.362
541 0 48.0645 11.6718 561 65.0428 274.385 452.517
542 0 48.0765 10.3585 498 66.8434 274.04 452.05
543 0 51.0698 11.3374 579 64.8411 274.394 450.938
544 0 53.1231 10.391 552 65.6033 274.101 451.415
545 0 56.2014 10.9784 617 64.4538 274.028 447.511
546 0 59.0334 11.485 678 63.0767 274.117 446.035
547 0 57.0413 10.6063 605 65.0347 273.752 446.05
548 0 61.1649 12.1311 742 62.5296 273.735 444.011
549 0 62.0692 10.15 630 61.8127 274.152 445.69
550 0 63.2038 11.7873 745 62.7933 274.601 444.352
551 0 67.1058 11.3254 760 62.9434 275.076 442.942
552 0 69.273 11.5196 798 62.5401 275.023 442.363
553 0 72.323 12.9281 935 59.9112 274.799 442.354
554 0 75.2549 12.4112 934 60.7259 274.536 438.876
555 0 76.2584 11.9724 913 61.0241 274.909 439.401
556 0 78.218 11.9026 931 61.377 274.874 438.163
557 0 83.1545 11.4125 949 61.863 274.675 434.097
558 0 86.1952 12.5065 1078 59.974 274.408 434.611
559 0 88.3135 13.3388 1178 59.3192 274.593 430.522
560 0 89.1582 11.3506 1012 61.7569 274.215 431.913
561 0 94.2113 11.6228 1095 60.6868 274.277 432.301
562 0 95.0999 10.5468 1003 62.0189 274.536 433.25
563 0 99.1941 12.8233 1272 60.2201 274.179 425.911
564 0 104.217 12.7714 1331 59.9414 274.423 426.215
565 0 104.144 12.3003 1281 61.5254 274.294 423.251
566 0 111.21 13.479 1499 59.4443 273.939 421.838
567 0 113.275 12.3769 1402 60.7511 274.045 422.765
568 0 116.204 12.9342 1503 60.8144 274.195 417.773
569 0 119.269 12.7443 1520 61.3954 274.257 414.915
570 0 124.292 12.6718 1575 61.8508 274.408 412.75
571 1 64.0939 10.7655 690 62.5246 275.025 442.693
572 0 64.1588 11.5495 741 62.8151 274.992 439.976
573 0 67.0402 11.963 802 60.8691 274.515 442.796
574 0 70.0676 11.9028 834 61.5707 274.802 440.351
575 0 71.0283 12.8963 916 60.6528 274.266 436.773
576 0 72.051 11.5751 834 62.3585 274.32 436.824
577 0 75.0701 13.1077 984 60.7429 274.567 433.916
578 0 78.0468 11.7365 916 62.7533 274.373 433.66
579 0 80.2311 12.4141 996 62.2159 274.746 429.546
580 0 86.1889 12.0781 1041 61.8684 274.515 429.996
581 0 87.1831 11.2522 981 63.3201 274.69 430.906
582 1 45.0471 10.1893 459 63.1612 275.022 448.815
583 0 48.0615 9.92478 477 61.5346 274.254 449.411
584 0 51.0949 12.6236 645 58.5504 274.161 448.47
585 0 49.0699 10.5564 518 61.8359 273.564 447.573
586 0 51.056 12.1044 618 59.3916 273.537 445.515
587 0 53.1 11.3936 605 59.7339 273.931 445.893
588 0 54.084 11.9814 648 59.4815 274.034 444.25
589 0 55.1157 11.1584 615 60.0699 274.257 445.535
590 0 57.1917 11.8024 675 59.6104 274.29 444.591
591 0 61.1491 12.3469 755 58.4914 274.11 443.686
592 0 64.1039 13.5093 866 56.8972 274.142 441.762
593 0 65.231 12.6167 823 58.0753 273.73 439.917
594 0 65.2087 11.3328 739 59.6861 274.292 440.29
595 0 70.1474 11.5329 809 59.5019 274.269 437.182
596 0 71.1444 12.5379 892 59.0202 274.099 434.498
597 0 74.1937 11.1869 830 61.0265 273.692 432.681
598 0 74.1406 11.168 828 61.5483 273.693 432.286
599 0 79.2054 11.9184 944 59.4481 273.729 432.251
600 1 44.0745 9.48394 418 60.9043 273.785 447.653
601 0 45.0812 10.6031 478 59.5962 274.607 447.778
602 0 45.024 10.4389 470 60.6936 274.483 446.74
603 0 46.0767 11.6111 535 58.6318 274.241 447.686
604 0 50.0245 11.0346 552 57.962 273.889 449.337
605 0 50.1202 11.9313 598 57.8311 274.12 448.913
606 0 51.0799 9.55366 488 60.6311 274.303 449.627
607 0 56.0926 11.2136 629 58.2083 273.61 446.382
608 0 57.1447 11.2521 643 58.5039 274.053 445.114
609 0 58.1029 10.0683 585 60.335 274.397 444.542
610 0 60.0942 11.4321 687 58.8937 273.889 441.32
611 0 59.0702 10.9361 646 59.8498 274.274 444.336
612 0 63.129 11.8012 745 58.0805 273.651 443.319
613 0 64.0815 12.0472 772 58.3938 273.516 441.927
614 0 66.0312 12.7667 843 57.5504 273.623 439.135
615 0 69.1243 10.7922 746 58.9477 273.768 437.79
616 0 72.1086 12.606 909 57.538 273.531 437.991
617 0 73.1373 10.8426 793 58.966 273.402 438.353
618 0 82.2131 22.4295 1844 42.558 272.65 440.67
619 0 77.0721 11.8201 911 58.4468 273.757 436.162
620 0 81.0959 13.3669 1084 56.619 272.698 433.707
621 1 43.0187 11.0417 475 58.5663 273.251 450.541
622 0 41.0374 10.6732 438 59.7009 273.189 450.589
623 0 44.0858 11.1374 491 59.0692 273.136 449.145
624 0 46.0474 12.2265 563 57.8739 273.321 448.638
625 0 48.1923 11.8484 571 57.8616 273.075 448.17
626 0 48.057 11.5696 556 58.3687 273.243 447.683
627 0 50.0712 12.3424 618 57.3576 273.301 445.921
628 0 51.0227 11.4655 585 58.9179 273.632 446.092
629 0 56.0397 11.8666 665 57.6256 272.934 446.065
630 0 53.095 10.7166 569 60.7241 272.898 444.835
631 0 55.052 12.0613 664 59.0949 273.092 444.389
632 0 59.0901 12.9802 767 57.8879 272.369 442.589
633 0 58.056 11.2994 656 61.0747 273.024 443.002
634 0 61.1695 13.6669 836 58.4677 272.917 441.217
635 0 64.0427 12.2262 783 59.5594 273.504 442.579
636 0 63.0849 12.2216 771 60.6822 273.795 441.885
637 0 65.0808 11.4166 743 61.5249 273.618 439.306
638 0 68.0823 12.4702 849 60.5183 274.072 437.377
639 0 69.1144 12.0669 834 61.0456 274.635 437.665
640 0 73.081 12.7256 930 59.6194 274.229 439.145
641 1 37.0335 11.6651 432 61.6829 274.13 452.273
642 0 37.0492 12.3889 459 62.549 274.501 450.183
643 0 40.038 12.2134 489 61.0879 273.781 451.358
644 0 40.0796 11.7766 472 62.3665 274.083 450.964
645 0 43.0522 11.2422 484 62.0806 273.335 451.643
646 0 45.1342 13.05 589 59.5416 273.233 451.387
647 0 46.0559 13.2448 610 60.4328 273.348 448.967
648 0 48.0841 13.1021 630 60.1 272.67 449.017
649 0 49.0684 12.0444 591 61.4788 273.391 448.687
650 0 51.0929 13.3287 681 60.2467 273.228 446.495
651 0 52.0672 12.5415 653 61.1317 272.793 447.634
652 0 53.0889 12.0553 640 62.4484 272.711 444.905
653 0 55.0847 12.8166 706 61.5198 272.925 444.065
654 0 56.0396 12.2592 687 62.3115 273.169 444.776
655 0 59.197 13.1426 778 61.1234 272.65 442.986
656 0 62.1072 14.6682 911 58.8485 273.204 443.172
657 0 64.0569 14.6901 941 58.5675 273.961 443.227
658 0 66.1935 11.1794 740 62.9514 272.85 441.288
659 0 67.0637 10.915 732 63.0779 272.705 441.948
660 0 68.1027 13.1125 893 61.1713 273.291 437.816
661 0 73.0603 13.7147 1002 60.3064 272.828 435.308
662 0 76.1173 13.0588 994 60.7575 272.631 435.064
663 1 39.0304 10.3765 405 62.9037 273.402 451.249
664 0 42.0516 11.8426 498 61.3353 273.482 450.231
665 0 43.1146 12.2696 529 60.3176 272.919 449.981
666 0 43.1083 10.7404 463 62 272.488 450.32
667 0 45.0762 10.4268 470 62.234 273.262 451.662
668 0 46.0966 12.0182 554 61.4206 273.489 448.199
669 0 47.057 11.2417 529 62.2476 273.633 448.578
670 0 50.0465 11.7291 587 60.9267 273.526 446.465
671 0 53.0572 12.4582 661 59.4887 272.846 447.84
672 0 53.0376 11.6521 618 61.7848 273.225 444.621
673 0 56.0219 11.799 661 60.761 273.126 443.068
674 0 56.0917 11.1246 624 61.766 273.24 444.434
675 0 59.0686 12.8156 757 59.5733 272.754 441.007
676 0 60.109 11.3128 680 61.8382 272.322 440.066
677 0 62.1521 11.2788 701 61.3452 272.534 441.418
678 0 63.0384 12.8969 813 60.3788 271.461 437.123
679 0 69.1117 13.1671 910 58.9297 272.245 437.811
680 0 70.0498 11.4633 803 60.8232 272.705 438.807
681 0 70.0752 10.4459 732 62.7391 272.646 436.395
682 0 74.0883 11.5808 858 61.3601 272.74 435.031
683 1 40.0603 11.2081 449 60.3229 272.893 452.138
684 0 43.1054 9.60437 414 61.9976 272.715 451.437
685 0 42.053 10.3441 435 61.2391 272.653 451.382
686 0 43.0785 10.5853 456 61.3465 272.41 448.412
687 0 45.0871 11.7772 531 59.8136 273.038 449.386
688 0 47.0912 10.4478 492 61.502 272.909 446.724
689 0 48.0286 11.8887 571 59.9527 273.145 447.009
690 0 49.0533 11.8646 582 60.0241 273.337 446.488
691 0 50.1598 11.8023 592 60.7145 273.046 443.128
692 0 55.0791 12.7816 704 58.9432 273 442.943
693 0 52.0919 11.1342 580 61.9034 272.476 442.272
694 0 57.0167 12.9085 736 58.9565 272.626 439.496
695 0 59.1482 12.3926 733 59.7858 273.035 439.529
696 0 61.0389 13.1719 804 58.5224 272.77 441.249
697 0 63.0376 11.9611 754 59.8912 272.382 440.134
698 0 64.0707 12.6267 809 59.9604 272.986 436.837
699 0 69.1542 13.3904 926 58.6922 272.987 436.29
700 0 70.0807 12.7995 897 59.5886 273.426 434.526
701 0 72.0611 13.7938 994 58.9416 273.623 434.148
702 0 75.0835 12.4661 936 60.8226 273.693 434.404
703 0 79.1801 12.6294 1000 60.218 273.557 433.712
704 1 41.0884 11.6335 478 61.9728 273.51 449.575
705 0 42.0605 11.4597 482 62.8154 273.102 449.16
706 0 43.0368 12.1292 522 62.59 271.852 447.456
707 0 46.0236 13.2758 611 60.4599 273.124 447.182
708 0 46.0668 12.0694 556 62.4353 272.838 447.603
709 0 48.0223 11.5779 556 63.1978 273.29 444.851
710 0 50.083 11.8403 593 62.4941 272.954 444.376
711 0 53.1261 13.6091 723 58.9613 272.506 442.477
712 0 55.1686 11.2745 622 61.7154 272.32 442.867
713 0 54.0785 12.6853 686 60.8134 272.153 438.843
714 0 56.0666 12.4852 700 61.06 272.56 439.21
715 0 59.0695 12.6292 746 60.3834 272.18 439.685
716 0 59.0417 10.6027 626 63.131 272.026 438.169
717 0 63.0531 14.2895 901 58.6859 271.613 436.925
718 0 63.0951 11.1578 704 62.642 271.906 436.054
719 0 67.0397 14.648 982 58.7637 272.589 433.36
720 0 71.0304 13.3464 948 59.4821 272.736 434.429
721 0 73.0907 14.6941 1074 58.1201 273.014 431.961
722 0 75.0937 13.3833 1005 59.9821 273.409 430.476
723 0 79.1698 13.1742 1043 59.6088 273.144 429.368
724 1 39.0273 10.7873 421 61.304 273.257 449.561
725 0 42.0584 10.319 434 61.6267 273.005 447.309
726 0 45.0362 12.5455 565 59.8124 273.427 447.237
727 0 43.0234 11.3891 490 62.1694 273.38 447.373
728 0 46.0295 11.3188 521 62.1996 273.044 445.53
729 0 47.021 12.8666 605 61.1124 272.448 442.101
730 0 47.0301 10.7591 506 63.9664 272.735 442.48
731 0 50.0465 12.1687 609 62.3875 273.255 441.273
732 0 50.0679 11.1848 560 63.7821 272.846 439.932
733 0 54.0301 12.1784 658 62.2994 273.444 440.41
734 0 56.0775 12.2866 689 62.1901 273.21 437.681
735 0 56.0977 11.5513 648 63.2022 273.137 438.991
736 0 60.0543 10.4572 628 63.7261 273.04 439.032
737 0 61.0376 13.2377 808 61.0891 272.933 435.714
738 0 65.1305 14.54 947 58.6779 273.531 436.576
739 0 64.0892 11.25 721 64.1026 273.669 433.255
740 0 68.0801 12.6762 863 62.0915 273.278 434.78
741 0 70.0891 12.1702 853 63.211 273.219 432.824
742 0 72.1314 11.895 858 63.0501 273.079 431.606
743 0 77.1159 14.8608 1146 59.5506 273.037 430.158
744 0 80.1328 14.0517 1126 60.2993 273.184 429.493
745 1 41.0462 12.425 510 62.0824 272.539 448.631
746 0 45.0569 12.6285 569 61.4148 272.592 446.852
747 0 46.1189 12.0558 556 62.8058 272.707 445.531
748 0 45.0511 12.4081 559 63.9338 272.902 443.59
749 0 47.0355 12.7988 602 62.6761 272.291 444.284
750 0 48.1369 11.3842 548 64.7482 272.741 443.228
751 0 48.0687 12.7318 612 63.9183 273.686 443.175
752 0 52.1513 13.1157 684 63.3012 273.167 440.604
753 0 54.0213 13.217 714 63.2269 273.371 439.51
754 0 55.2478 14.1544 782 62.1918 273.226 439.446
755 0 53.1992 12.8761 685 65.6788 273.06 437.212
756 0 59.08 13.761 813 62.8106 273.273 436.373
757 0 61.1657 13.3899 819 63.7839 273.335 436.902
758 0 64.1446 13.3293 855 63.2854 272.904 435.026
759 0 66.1245 14.019 927 62.3495 272.95 435.823
760 0 70.1149 15.3177 1074 60.1136 272.849 436.734
761 0 70.082 14.2119 996 62.9327 273.051 432.405
762 0 74.1292 13.9216 1032 62.7607 272.718 432.172
763 0 77.1225 14.0167 1081 61.4431 273.098 432.556
764 0 78.0544 14.2849 1115 61.4368 273.382 430.701
765 0 80.1182 13.7422 1101 62.5786 273.853 428.54
766 1 42.0631 10.7695 453 66.0155 273.501 446.79
767 0 44.0305 11.5829 510 65.5431 273.427 445.278
768 0 46.0852 12.2165 563 64.4813 272.675 446.121
769 0 47.1077 12.482 588 64.915 273.122 443.787
770 0 48.0661 12.6492 608 65 273.214 442.903
771 0 51.1363 13.1609 673 63.9718 273.199 442.939
772 0 53.0639 13.512 717 63.802 272.876 443.213
773 0 53.0642 13.4366 713 64.1473 273.167 442.934
774 0 55.0682 13.6739 753 64.8367 272.969 441.032
775 0 57.0997 14.0281 801 63.4582 272.293 442.487
776 0 59.0646 13.3921 791 64.9279 272.698 440.168
777 0 60.0759 13.5495 814 64.688 271.988 438.844
778 0 61.1504 12.3793 757 66.0832 271.775 441.552
779 0 64.064 14.7197 943 63.4825 272.265 438.638
780 0 67.1296 14.0028 940 63.7766 271.927 438.189
781 0 71.0539 17.5219 1245 58.8892 272.649 440.218
782 0 72.0537 14.1006 1016 64.3081 273.024 436.248
783 0 74.0858 14.3077 1060 64.3283 273.486 434.498
784 0 77.0563 15.0669 1161 62.3282 273.704 438.512
785 0 80.2019 14.1268 1133 64.6081 273.199 434.284
786 0 81.1949 14.1758 1151 64.8089 273.22 435.315
787 1 45.0624 11.2511 507 65.2406 273.183 454.051
788 0 47.0685 12.4924 588 64.9337 272.796 452.536
789 0 47.1268 13.1348 619 64.853 273.1 452.405
790 0 48.1022 10.644 512 66.8711 272.984 453.662
791 0 50.1506 13.2002 662 64.3187 273.314 452.497
792 0 55.0828 13.8519 763 62.0786 273.48 453.898
793 0 56.1328 13.7353 771 63.2451 273.716 452.742
794 0 57.2726 12.6762 726 64.4972 273.032 452.098
795 0 56.1556 12.127 681 66.4112 272.971 451.372
796 0 58.1477 12.4339 723 66.0844 273.054 452.224
797 0 60.2921 12.8043 772 65.228 273.003 451.676
798 0 64.2219 15.2129 977 61.7666 272.928 452.157
799 0 65.2788 13.6338 890 63.9517 273.547 450.979
800 0 68.3464 13.3584 913 63.8521 272.909 451.906
801 0 71.3352 15.7005 1120 60.6429 273.503 453.443
802 0 72.2505 14.8096 1070 62.5589 274.511 450.535
803 0 73.2408 12.889 944 65.3941 274.373 450.922
804 0 77.2043 13.6521 1054 63.7362 274.155 451.768
805 0 78.2182 14.1783 1109 63.9883 274.218 449.704
806 0 80.2141 12.4043 995 66.7427 274.537 448.561
807 0 83.2007 13.3052 1107 65.9485 274.323 448.087
808 0 87.2375 13.8243 1206 64.8897 274.339 449.667
809 0 90.2782 15.6405 1412 62.9221 273.716 447.778
810 0 89.161 13.4027 1195 67.4159 274.445 445.604
811 0 92.3613 12.9383 1195 68.6033 273.755 444.658
812 0 98.3164 15.1043 1485 65.6343 273.926 441.888
813 1 50.1201 9.69671 486 68.1564 274.615 469.481
814 0 53.1255 12.3481 656 66.2012 275.364 466.48
815 0 53.1189 12.4626 662 66.2795 275.213 466.793
816 0 55.1665 12.4169 685 66.4672 275.184 465.931
817 0 57.2282 12.8433 735 66.2422 275.448 466.061
818 0 58.1415 11.6956 680 66.9265 275.065 469.022
819 0 59.1765 11.1024 657 69.5662 275.612 466.603
820 0 61.2027 12.4341 761 67.6951 275.598 465.97
821 0 63.1562 11.7962 745 69.1114 275.258 465.099
822 0 66.2733 12.3579 819 68.873 274.431 463.962
823 0 70.1071 14.7346 1033 65.3291 273.985 462.658
824 0 71.3088 12.4529 888 68.866 274.791 462.94
825 0 73.1735 11.6709 854 71.0948 274.032 460.391
826 0 76.2401 11.9884 914 70.1937 273.961 460.185
827 0 79.1483 14.2138 1125 67.7004 273.925 459.059
828 0 82.2974 13.6335 1122 68.8761 274.238 458.02
829 0 83.0997 12.7558 1060 70.7604 274.085 457.028
830 0 88.1584 12.8178 1130 70.2903 273.796 455.716
831 0 91.1544 12.7037 1158 70.8083 274.455 453.849
832 0 90.1591 11.8346 1067 73.1415 273.223 452.373
833 0 94.1466 12.0238 1132 72.9726 273.331 449.504
834 1 45.067 9.38603 423 70.5366 276.08 476.981
835 0 45.0731 8.83011 398 71.2111 275.623 476.603
836 0 50.1325 11.2302 563 68.7869 275.734 473.464
837 0 49.0736 10.3518 508 69.5256 275.626 474.016
838 0 51.048 11.0876 566 69.7703 275.541 471.86
839 0 54.1131 10.7368 581 69.2719 275.284 472.081
840 0 55.2132 10.5228 581 70.1738 275.936 470.731
841 0 58.2058 11.1845 651 69.3656 275.419 469.59
842 0 59.2734 10.5106 623 71.3596 275.291 469.873
843 0 58.1312 10.1495 590 73.8475 275.219 468.341
844 0 63.1509 11.6388 735 70.7551 275.403 467.113
845 0 64.2381 10.7413 690 72.6652 275.567 466.448
846 0 65.0839 9.69518 631 73.4041 275.609 468.567
847 0 70.1535 10.2204 717 73.7657 274.816 465.091
848 1 39.1308 9.60881 376 69.8723 275.186 479.963
849 0 38.1124 9.44575 360 71.9222 275.622 478.133
850 0 40.1352 9.6175 386 70.8238 274.881 478.381
851 0 40.1418 9.06786 364 71.0659 275.137 479.676
852 0 42.0593 10.4852 441 70.7211 274.717 476.878
853 0 45.2294 11.6296 526 67.1084 275.312 477.144
854 0 47.1833 11.3387 535 67.5308 275.138 476.71
855 0 46.2868 9.89484 458 71.8384 274.655 474.648
856 0 47.1466 10.3295 487 70.7105 274.427 474.454
857 0 49.1716 10.1888 501 70.4192 274.09 473.729
858 0 50.2759 10.2634 516 70.0039 274.138 473.126
859 0 52.2016 9.31006 486 70.321 274.428 472.733
860 0 55.1595 11.0588 610 67.1246 274.326 472.175
861 0 54.2371 9.55065 518 69.6081 273.766 469.94
862 0 57.188 10.2294 585 68.8205 273.959 469.569
863 0 60.1253 10.4448 628 67.5143 273.941 467.997
864 0 59.226 10.1138 599 68.9215 274.861 467.563
865 0 62.1842 10.694 665 68.2812 275.281 464.561
866 0 64.208 10.5906 680 68.6956 275.191 463.403
867 0 65.2215 9.29141 606 70.802 274.586 461.584
868 0 67.2145 9.07543 610 70.5869 274.667 461.187
869 0 72.2136 10.0397 725 68.4069 274.268 459.177
870 1 39.0523 9.44888 369 65.0894 275.653 477.751
871 0 39.0903 8.82571 345 67.4522 276.006 475.116
872 0 39.1026 9.0531 354 67.6017 275.5 473.893
873 0 41.0896 8.42063 346 67.5434 275.844 475.032
874 0 42.0251 8.94704 376 67.5266 275.628 473.069
875 0 43.0722 9.26352 399 67.0702 275.489 471.409
876 0 46.0889 9.72035 448 66.25 275.373 470.913
877 0 47.1957 10.1069 477 65.0189 275.675 470.564
878 0 46.1559 8.60129 397 66.4433 275.413 472.081
879 0 48.1736 9.42424 454 65.8656 275.626 469.573
880 0 50.2258 10.4926 527 64.0645 274.472 467.835
881 0 50.1753 10.264 515 64.5864 274.41 467.06
882 0 53.2938 10.5078 560 63.5411 274.964 467.37
883 0 55.2687 10.6932 591 63.5753 274.92 466.548
884 0 55.261 8.86701 490 66.6551 274.718 464.637
885 0 58.2104 10.5479 614 64.6368 274.495 462.086
886 0 60.2125 11.941 719 62.4506 274.804 461.275
887 0 62.1543 10.3613 644 63.5668 275.433 461.132
888 0 66.2536 10.9881 728 62.239 274.68 459.209
889 0 66.1603 9.084 601 64.6855 274.546 459.78
890 0 68.3135 11.1398 761 62.3784 274.231 458.03
891 0 70.1813 11.5558 811 61.8397 273.855 453.61
892 1 34.0352 9.57832 326 63.3773 275.595 469.083
893 0 34.0382 9.37183 319 64.0125 275.558 468.796
894 0 38.0794 10.5831 403 61.4194 274.375 466.804
895 0 39.0433 8.91317 348 63.2471 274.753 464.368
896 0 40.1478 10.1126 406 61.3941 274.951 466.323
897 0 40.1405 10.6874 429 61.6457 274.573 463.513
898 0 43.1105 10.9022 470 60.5681 274.449 462.838
899 0 42.1106 10.1637 428 62.6519 274.292 460.605
900 0 45.0449 11.1666 503 61.334 274.328 461.35
901 0 48.1152 11.6803 562 59.5498 274.066 461.82
902 0 48.0985 10.7488 517 61.8182 273.779 458.793
903 0 50.0744 11.0036 551 61.3612 274.196 460.152
904 0 51.1187 10.9158 558 61.7849 274.339 457.695
905 0 51.142 10.7739 551 62.5354 274.227 456.423
906 0 53.0933 11.2067 595 62.0555 274.072 454.721
907 0 55.1259 10.4307 575 62.7722 274.525 456.828
908 0 57.16 12.3163 704 60.1406 273.936 455.49
909 0 58.1106 10.1875 592 62.5777 274.071 456.047
910 0 59.2509 9.62011 570 62.8947 273.567 452.498
911 0 61.1314 9.91307 606 62.8713 273.205 452.092
912 0 64.1314 11.8039 757 60.074 272.14 448.443
913 0 65.1552 11.1119 724 60.6713 272.548 449.124
914 0 66.0575 9.85505 651 62.3395 272.476 448.065
915 0 70.111 11.7243 822 59.8431 272.721 444.836
916 0 73.1369 12.1416 888 58.8716 272.919 444.732
917 0 76.1178 12.5463 955 58.2764 273.312 443.298
918 1 38.0371 10.2531 390 60.1821 274.505 461.962
919 0 41.0291 12.4302 510 57.1706 274.276 461.624
920 0 41.0272 12.1383 498 57.9618 274.685 461.135
921 0 42.1131 11.3741 479 59.3591 275.372 458.791
922 0 43.1026 11.0202 475 59.6147 274.366 459.366
923 0 46.1406 11.53 532 58.0113 275.242 460.673
924 0 45.1175 10.927 493 60.2738 274.615 457.888
925 0 48.1001 10.1871 490 59.0102 274.792 455.816
926 0 50.1171 12.4109 622 57.7572 275.439 458.875
927 0 52.1179 11.8577 618 58.8883 274.749 456.254
928 0 53.1688 11.755 625 59.3872 274.579 455.8
929 0 53.1116 10.3367 549 61.7851 274.235 453.534
930 0 57.1427 11.76 672 59.9464 274.652 453.845
931 0 58.115 11.6837 679 59.7761 273.929 454.573
932 0 60.1195 11.7599 707 60.6011 273.354 451.086
933 0 62.1252 13.1348 816 59.0343 273.088 448.183
934 0 62.0575 11.3443 704 61.8935 273.77 450.355
935 0 65.0841 12.7681 831 60.9254 273.878 447.427
936 0 70.1404 12.8171 899 60.2647 274.378 449.711
937 0 70.1657 12.0429 845 62.1882 273.961 446.471
938 0 73.2461 11.1678 818 63.0306 273.742 446.144
939 0 75.2544 12.7302 958 61.5052 274.418 443.335
940 0 77.2013 12.8754 994 61.7656 273.983 443.517
941 0 82.1811 12.3021 1011 62.001 274.684 444.547
942 0 83.3084 11.8475 987 63.0588 275.221 442.763
943 1 45.1197 12.212 551 61.8947 274.396 459.439
944 0 47.0931 11.6365 548 61.9544 274.695 459.949
945 0 47.0754 11.5134 542 63.6568 274.566 457.085
946 0 50.1022 12.4545 624 62.0417 274.591 456.542
947 0 50.1687 11.9397 599 62.7045 274.718 458.346
948 0 52.1268 11.1075 579 64.6304 274.119 456.055
949 0 54.237 12.3716 671 62.1982 274.398 456.921
950 0 55.0668 13.3837 737 61.882 274.395 455.579
951 0 58.08 11.5358 670 64.0701 274.794 454.778
952 0 60.1005 13.361 803 61.7721 274.224 452.182
953 0 62.0942 12.4488 773 62.7115 273.488 451.327
954 0 64.1334 11.6476 747 64.2396 273.687 451.432
955 0 66.0836 12.923 854 61.5176 273.867 451.529
956 0 68.1542 12.3397 841 62.4721 273.47 448.316
957 0 68.1107 12.8614 876 62.4715 273.406 446
