time division length width area intensity CMx CMy
0 0 48.0859 10.502 505 63.6198 361.521 443.582
1 0 50.088 10.3618 519 64.3295 361.393 439.936
2 0 53.1668 9.4796 504 64.8968 361.484 437.351
3 0 56.138 11.0798 622 62.5916 361.6 441.061
4 0 56.0804 10.9664 615 63.6309 361.091 437.831
5 0 59.0711 10.6651 630 63.6968 360.697 439.133
6 0 58.0632 10.1441 589 65.1087 360.99 437.151
7 0 60.0829 12.0667 725 62.6028 360.171 437.531
8 0 65.1701 10.6644 695 63.6014 360.353 436.304
9 0 65.2176 10.488 684 64.3596 360.096 433.436
10 0 70.2189 11.692 821 61.2631 359.967 435.708
11 0 68.104 10.3224 703 63.8919 359.193 433.659
12 0 71.3191 11.119 793 61.9861 359.275 434.985
13 0 75.2714 10.8142 814 62.2371 359.188 433.693
14 0 74.2128 11.2649 836 62.4031 359.03 431.032
15 0 79.2726 11.5551 916 61.1681 358.997 432.238
16 1 40.0888 9.5039 381 61.3753 359.066 449.622
17 0 40.0808 12.1255 486 58.6379 359.216 450.539
18 0 43.031 9.4583 407 60.8919 359.413 449.681
19 0 43.1076 11.3205 488 59.5738 359.639 446.26
20 0 43.0541 10.2894 443 60.6253 359.749 446.072
21 0 46.0388 9.23135 425 60.4376 359.588 445.299
22 0 48.1018 10.6233 511 58.9237 359.407 444.705
23 0 48.0801 10.1497 488 59.6352 359.047 442.455
24 0 51.0483 11.8711 606 57.2063 358.724 443.927
25 0 50.0389 10.6717 534 58.9551 358.998 445.715
26 0 53.0571 10.8562 576 57.9965 358.91 445.769
27 0 53.0373 11.0111 584 59.2158 358.724 441.223
28 0 56.036 12.3135 690 57.4667 359.313 440.883
29 0 57.043 13.3759 763 56.2765 359.726 440.346
30 0 58.1052 11.0834 644 59.2096 358.915 439.733
31 0 58.05 11.4901 667 58.7796 358.66 440.61
32 0 60.0695 12.4523 748 57.4078 358.029 440.96
33 0 62.086 11.8867 738 58.2669 358.02 437.405
34 0 64.1153 11.3857 730 58.6836 358.447 436.751
35 0 65.0707 11.8179 769 58.6242 357.854 435.23
36 0 68.1792 12.2618 836 58.3074 358.126 435.287
37 0 69.1015 12.9664 896 57.6161 358.089 434.725
38 0 70.0767 11.6729 818 59.4609 358.813 434.282
39 0 74.2167 14.2825 1060 56.366 358.818 431.101
40 0 76.1343 12.4911 951 58.8181 358.362 429.323
41 0 80.1296 13.0539 1046 57.7925 358.598 429.643
42 1 41.0858 8.59178 353 62.153 358.493 449.093
43 0 46.119 10.9282 504 59.1151 358.583 449.103
44 0 44.0636 9.55437 421 61.9976 358.551 447.843
45 0 46.0797 11.9141 549 59.2914 358.463 445.652
46 0 49.1082 10.6092 521 61.1459 358.639 444.727
47 0 52.1113 10.7654 561 60.975 358.549 444.02
48 0 52.1651 13.879 724 57.6878 358.595 441.895
49 0 56.0933 13.9232 781 57.4136 358.506 440.143
50 0 54.1558 11.3377 614 61.2704 358.386 441.101
51 0 57.1196 10.6268 607 61.5486 358.028 439.048
52 0 60.0585 12.7709 767 58.6167 358.199 438.605
53 0 61.0506 11.253 687 60.4687 358.13 439.741
54 0 64.0759 12.095 775 59.9277 357.773 437.516
55 0 65.0965 11.6596 759 61.1159 357.673 436.903
56 0 65.0818 10.0643 655 63.2962 357.715 437.159
57 0 68.0868 10.5307 717 62.7768 357.782 431.106
58 0 73.0659 11.5649 845 60.9195 357.872 432.93
59 0 74.1591 11.7585 872 61.0447 357.758 430.695
60 0 74.1705 12.1881 904 60.8617 357.972 432.327
61 0 78.2043 11.4444 895 61.5274 358.011 432.187
62 0 82.2613 11.6215 956 60.6025 358.532 432.619
63 0 84.0966 14.7093 1237 56.8173 357.993 433.146
64 1 43.1547 10.1727 439 61.2961 358.531 449.262
65 0 47.1043 10.8695 512 58.8984 358.457 450.857
66 0 47.1222 12.266 578 58.7716 358.678 448.427
67 0 49.0574 11.089 544 60.3143 357.248 447.145
68 0 48.0845 11.1054 534 61.3895 357.352 446.182
69 0 50.117 10.5154 527 62.6015 357.192 446.173
70 0 54.0947 12.3118 666 59.958 357.659 444.698
71 0 56.0969 11.8901 667 60.4483 357.453 445.673
72 0 58.1542 11.7962 686 60.2901 357.15 447.519
73 0 57.131 10.8172 618 62.123 357.387 444.532
74 0 61.2349 12.9338 792 59.4508 357.292 445.928
75 0 63.148 12.5261 791 60.2326 357.997 444.721
76 0 63.0864 11.4288 721 61.4383 357.481 444.635
77 0 65.0888 11.83 770 61.7935 357.56 441.787
78 0 68.1041 12.8186 873 59.8625 357.562 442.841
79 0 68.298 11.6841 798 61.6892 357.546 442.643
80 0 70.0899 11.9989 841 61.4162 357.585 442.306
81 0 72.1316 12.5049 902 61.4989 358.255 436.463
82 0 75.1925 11.4506 861 62.0511 357.827 437.014
83 0 78.1108 12.0598 942 61.586 357.264 434.379
84 1 40.0491 9.18873 368 62.8859 357.658 453.011
85 0 41.0498 9.8417 404 62.4827 357.859 452.723
86 0 44.0445 11.057 487 60.2197 357.844 453.762
87 0 44.107 10.3158 455 62.444 357.901 452.389
88 0 44.0607 10.6444 469 63.4606 357.87 450.488
89 0 47.1642 12.0854 570 60.8632 358.058 450.012
90 0 46.0561 10.2701 473 63.277 358.345 449.734
91 0 46.021 9.88679 455 64.3648 358.092 449.437
92 0 51.0864 11.4708 586 61.8754 358.015 447.553
93 0 52.0591 10.392 541 63.8078 357.671 446.739
94 0 53.0367 12.6328 670 61.5896 358.224 445.137
95 0 54.0602 11.0617 598 63.2676 358.11 447.018
96 0 56.081 10.8415 608 63.8849 357.678 443.273
97 0 56.121 10.8516 609 64.4384 357.703 444.578
98 0 58.1414 11.7644 684 63.0146 357.808 441.614
99 0 60.1554 11.7695 708 62.6653 357.945 442.26
100 0 62.1486 11.6334 723 62.4467 358.095 440.272
101 0 62.2789 10.469 652 64.2531 358.166 439.874
102 0 66.3238 11.6851 775 62.6503 358.271 437.443
103 0 69.1511 13.6802 946 59.6364 358.054 435.463
104 0 69.1623 11.2634 779 62.9564 358.315 436.135
105 0 69.2229 9.79445 678 64.5236 358.237 433.811
106 0 75.1517 11.7363 882 61.8492 357.972 433.981
107 0 77.2572 11.4941 888 62.0541 358.243 431.668
108 0 79.2878 11.4646 909 61.8625 357.281 428.922
109 1 40.1907 8.08646 325 63.7477 357.751 451.015
110 0 44.1799 12.019 531 58.2166 357.868 448.563
111 0 43.0173 12.1114 521 58.6123 358.084 447.363
112 0 44.0887 10.9779 484 59.9504 357.992 446.628
113 0 47.1352 11.0957 523 60.3518 357.663 446.438
114 0 49.1135 11.565 568 60.3345 358.266 446.296
115 0 49.0892 11.53 566 61.3905 358.459 444.127
116 0 50.0424 10.7309 537 62.432 358.561 444.335
117 0 52.0822 9.4658 493 62.9168 358.416 446.26
118 0 53.0283 10.6924 567 62.6173 358.372 441.781
119 0 54.0632 10.4137 563 62.579 358.33 443.114
120 0 56.0851 10.6089 595 63.1059 358.803 442.992
121 0 56.0796 11.1805 627 62.8357 358.852 442.072
122 0 58.0952 12.1869 708 61.6158 358.062 439.27
123 0 58.129 10.9412 636 63.4009 358.325 440.033
124 0 61.1352 9.07824 555 65.0505 358.681 441.068
125 0 62.2359 10.7334 668 63.485 358.72 438.472
126 0 64.0967 9.22044 591 64.8714 359.046 437.761
127 0 66.0658 11.761 777 62.0669 358.382 436.118
128 0 67.1415 10.1874 684 63.8713 358.094 434.437
129 0 72.0887 10.4871 756 62.8889 358.049 434.841
130 0 74.056 11.7209 868 61.5876 358.181 431.888
131 0 77.0959 12.3742 954 60.2285 358.157 433.089
132 0 79.1611 12.2409 969 60.2828 358.224 430.478
133 1 39.1206 10.736 420 61.2452 358.731 448.705
134 0 42.2009 10.45 441 61.6417 358.878 448.735
135 0 43.0692 10.2626 442 61.7941 358.584 448.061
136 0 45.1769 11.6874 528 59.7083 358.193 446.422
137 0 44.0563 9.37437 413 63.707 358.153 444.862
138 0 47.0586 10.7313 505 61.9168 358.087 442.016
139 0 48.0997 10.3951 500 62.862 357.656 441.688
140 0 50.0079 12.2181 611 60.9984 357.849 441.3
141 0 51.0964 11.3902 582 61.9966 357.476 439.859
142 0 53.1224 11.5394 613 61.9021 358.284 440.674
143 0 53.0699 12.4553 661 61.9682 357.495 436.474
144 0 55.0935 11.2173 618 62.8382 358.157 436.837
145 0 56.0711 12.5912 706 60.5907 358.388 438.237
146 0 58.0262 11.9946 696 62.0546 358.636 434.898
147 0 59.0267 11.5372 681 62.5419 358.747 433.154
148 0 59.1452 11.8184 699 62.6867 358.074 433.219
149 0 62.1383 13.3412 829 59.9228 357.983 432.324
150 0 65.0675 13.217 860 60.2779 357.744 427.608
151 0 66.0379 12.3565 816 61.2855 357.822 427.759
152 0 67.0569 11.9302 800 61.9438 358.045 426.681
153 0 70.0772 12.1723 853 61.3411 358.751 424.36
154 0 71.0551 14.3128 1017 58.8378 358.352 421.409
155 0 73.2015 14.344 1050 58.9571 358.617 417.79
156 0 76.1753 12.1168 923 61.3088 358.689 420.883
157 0 75.1778 10.7212 806 63.6104 358.284 415.708
158 0 80.0947 11.5488 925 62.5254 358.537 416.511
159 0 82.1066 12.496 1026 61.7359 358.904 414.377
160 0 87.1199 11.9605 1042 61.6027 358.441 414.928
161 0 88.2861 12.3462 1090 61.7706 358.294 409.728
162 0 90.1533 11.9796 1080 62.1907 358.545 408.871
163 0 89.0748 12.5176 1115 62.4475 358.469 408.922
164 1 51.1017 9.9801 510 62.9549 358.604 432.586
165 0 51.0817 11.8242 604 61.4818 358.475 429.843
166 0 52.1607 9.20232 480 65.1146 358.344 427.771
167 0 55.1054 11.3782 627 62.2632 359.043 427.949
168 0 57.1911 11.5403 660 61.803 358.8 426.676
169 0 59.0859 11.8302 699 61.083 358.509 427.557
170 0 62.1278 10.913 678 62.6018 358.78 425.59
171 0 64.1591 11.0195 707 62.3819 359.001 425.112
172 0 63.1673 10.8917 688 63.2834 358.397 422.51
173 0 65.2008 11.0121 718 62.7493 357.937 424.422
174 0 66.1178 11.8576 784 62.213 358.719 423.208
175 0 68.0471 12.0211 818 62.1394 358.499 419.086
176 0 75.1751 11.7858 886 60.956 358.889 422.468
177 0 75.1093 14.0728 1057 58.8448 359.242 418.108
178 0 79.054 12.5863 995 60.1879 359.381 420.496
179 0 80.1568 12.987 1041 60.1278 358.927 419.817
180 0 83.1275 13.4492 1118 59.424 358.067 416.588
181 0 84.1198 11.3291 953 62.468 358.157 417.845
182 0 87.2768 12.7869 1116 60.5851 358.256 415.848
183 0 89.1215 11.1645 995 62.8111 358.227 415.446
184 0 92.1387 11.5044 1060 62.716 358.471 413.029
185 1 51.0887 11.0005 562 60.9537 358.069 433.87
186 0 52.0851 12.1532 633 60.7046 357.498 431.641
187 0 51.0704 9.79041 500 63.556 357.646 433.992
188 0 55.0666 11.6404 641 62.0608 358.456 429.683
189 0 56.0918 11.4812 644 62.3012 358.236 430.815
190 0 58.0929 13.5128 785 59.5541 357.866 428.718
191 0 62.0795 12.2424 760 60.2592 357.714 428.979
192 0 60.091 12.115 728 61.2624 357.598 429.6
193 0 62.0448 11.8302 734 61.951 358.267 427.837
194 0 64.2314 12.0969 777 61.9524 358.484 426.557
195 0 66.0443 11.2046 740 63.2878 358.364 426.357
196 0 66.1446 11.7923 780 63.1603 358.765 424.538
197 0 69.0654 12.9732 896 61.5692 358.92 425.042
198 0 72.0732 13.4169 967 61.2399 359.244 421.238
199 0 71.1687 12.0699 859 62.8393 358.837 422.511
200 0 73.1201 10.599 775 65.6929 358.83 419.108
201 0 78.0895 13.9583 1090 60.4468 357.972 419.809
202 0 79.0998 12.1618 962 63.0748 358.109 419.737
203 0 80.0936 12.3855 992 63.4365 358.057 415.262
204 0 84.1441 12.7044 1069 62.8868 357.85 412.123
205 0 87.1983 13.1883 1150 62.0043 357.861 411.606
206 0 88.0896 13.2933 1171 61.8915 357.776 413.822
207 1 47.1379 11.1163 524 62.1947 358.416 433.254
208 0 49.0494 10.7851 529 62.397 358.65 431.618
209 0 52.1576 11.4461 597 61.7018 358.047 431.176
210 0 55.1754 11.4181 630 60.8111 357.905 431.073
211 0 54.0609 12.079 653 60.6983 358.505 431.064
212 0 55.0718 10.9857 605 61.6165 358.668 430.812
213 0 60.1398 12.1384 730 60.4 358.722 428.429
214 0 59.0581 12.1067 715 61.1455 358.592 425.585
215 0 59.0307 10.232 604 63.7169 358.522 427.305
216 0 62.0632 11.4238 709 62.2891 358.059 425.324
217 0 64.0762 11.2834 723 62.3154 357.542 423.985
218 0 67.1142 10.9664 736 62.4049 357.878 426.912
219 0 67.1394 10.3814 697 63.5151 357.677 423.98
220 0 69.2293 10.9202 756 63.2275 357.556 423.59
221 0 72.0998 12.8294 925 60.5503 357.64 422.668
222 0 74.1826 10.4876 778 63.4589 358.122 419.792
223 0 78.1559 11.7969 922 61.8926 357.678 416.1
224 0 81.099 13.8349 1122 59.5971 357.347 414.123
225 0 83.0883 11.6743 970 62.7392 357.644 414.228
226 0 88.1783 13.382 1180 60.3568 357.785 416.878
227 0 91.1564 12.5718 1146 61.0332 357.673 417.483
228 0 94.2273 13.3083 1254 60.8963 357.943 414.904
229 0 98.2209 14.2332 1398 59.8476 357.954 409.406
230 1 51.2402 10.441 535 63.9869 358.471 433.123
231 0 53.2085 11.0133 586 64.3294 358.401 429.456
232 0 55.1524 12.4564 687 62.0451 358.41 430.601
233 0 59.128 13.0057 769 61.0624 358.094 430.571
234 0 59.1957 13.1428 778 61.7853 358.889 427.527
235 0 60.1567 13.6477 821 61.2582 359.13 429.822
236 0 62.1034 11.6097 721 64.57 358.184 427.119
237 0 65.1366 12.5736 819 63.1306 358.421 425.304
238 0 66.2058 12.8841 853 63.0305 358.304 422.62
239 0 70.2772 13.2475 931 62.116 357.926 422.204
240 0 72.2524 13.5636 980 61.8153 358.179 420.418
241 0 74.3984 12.1642 905 63.295 357.835 421.387
242 0 74.1639 12.3915 919 63.3558 357.805 421.35
243 0 78.1691 12.5625 982 63.2403 357.388 417.269
244 0 78.1498 11.8746 928 64.6024 357.621 418.681
245 0 81.2478 12.2834 998 64.009 357.225 415.156
246 0 84.1447 13.9284 1172 61.8933 357.437 412.705
247 0 85.2717 13.24 1129 62.2728 358.001 415.781
248 0 88.1384 13.6603 1204 61.9958 357.166 412.078
249 0 90.2932 12.0386 1087 64.7259 357.437 408.014
250 0 94.2021 12.9721 1222 63.4795 357.426 406.752
251 0 97.1647 13.2455 1287 62.7731 357.598 407.769
252 1 52.0639 9.96851 519 64.9981 358.066 432.775
253 0 54.0818 10.2253 553 65.4231 357.604 430.816
254 0 54.0743 11.6136 628 64.0748 358.045 428.568
255 0 54.0901 12.2758 664 63.8102 357.617 430.428
256 0 56.1239 10.8332 608 65.6546 357.436 430.049
257 0 60.0783 15.5131 932 59.1212 357.309 428.391
258 0 63.1348 13.2098 834 61.2926 357.778 428.481
259 0 62.0431 12.5719 780 63.3436 357.587 426.581
260 0 64.0632 12.0662 773 64.022 357.815 425.829
261 0 65.074 12.0478 784 63.7449 357.832 427.267
262 0 67.0679 11.9729 803 65.0286 358.278 420.024
263 0 70.1049 12.2245 857 64.1249 357.987 421.576
264 0 73.1024 13.2964 972 62.4496 357.051 421.079
265 0 74.2151 12.3964 920 63.4826 357.726 422.272
266 0 76.1277 12.085 920 63.7957 357.595 421.234
267 0 80.1279 12.218 979 62.8897 357.328 420.057
268 0 82.1288 13.3449 1096 61.8604 357.192 418.257
269 0 83.0796 10.8691 903 65.3355 357.618 416.288
270 0 87.1088 12.7197 1108 62.5731 357.745 414.213
271 0 90.1229 13.1487 1185 61.2624 357.819 415.076
272 0 92.147 13.2397 1220 61.5861 357.993 410.825
273 0 93.1345 11.1774 1041 63.7887 357.428 407.712
274 0 94.2648 10.5129 991 64.9566 357.712 407.729
275 1 52.0699 10.87 566 62.5813 357.475 428.32
276 0 53.1524 11.2695 599 61.8063 357.252 427.943
277 0 55.054 10.4624 576 63.1146 357.51 428.205
278 0 59.1158 13.2283 782 59.2174 357.106 425.66
279 0 58.0489 10.1122 587 62.4821 356.363 426.02
280 0 59.0282 11.7232 692 61.6069 356.867 424.042
281 0 62.0541 12.0218 746 61.3619 356.861 422.232
282 0 63.0813 11.287 712 62.3272 357.013 422.919
283 0 66.1195 12.1447 803 61.0125 356.337 422.913
284 0 68.1096 13.3021 906 59.1049 355.99 420.946
285 0 72.0586 12.7535 919 58.8161 356.402 422.718
286 0 73.082 12.917 944 58.5943 356.365 423.406
287 0 77.0812 12.2339 943 58.8971 356.732 422.063
288 0 79.1367 12.8765 1019 58.9185 357.367 419.154
289 0 80.1613 12.0133 963 60.2638 357.265 418.761
290 0 84.1858 13.589 1144 58.1049 357.438 418.788
291 0 86.1285 13.2244 1139 59.0404 358.002 415.444
292 0 88.1156 12.6992 1119 59.6157 357.552 415.653
293 0 91.1988 11.3598 1036 61.1651 357.431 414.728
294 0 94.1814 13.3147 1254 59.0024 357.932 414.347
295 1 49.0848 10.3902 510 61.4765 357.598 435.361
296 0 51.0637 11.0842 566 60.0212 357.576 436.17
297 0 53.1013 11.6005 616 59.9838 357.393 431.235
298 0 54.133 12.1183 656 60.3049 357.822 431.793
299 0 55.0521 13.0967 721 59.2067 357.699 428.856
300 0 58.213 12.2481 713 59.2833 357.567 430.893
301 0 59.0514 12.3283 728 59.9203 358.076 428.617
302 0 61.1136 12.8286 784 59.4974 357.996 426.062
303 0 62.0929 11.5955 720 61.7569 358.022 424.871
304 0 63.139 10.5323 665 63.1008 357.755 422.857
305 0 68.0917 13.0559 889 59.3183 357.723 422.666
306 0 68.1221 11.9345 813 60.7343 357.894 424.08
307 0 73.2953 13.7799 1010 57.5119 357.63 424.475
308 0 73.1401 13.2896 972 59.323 357.597 423.13
309 0 74.1212 11.7645 872 62.1342 357.415 419.991
310 0 76.1224 12.1646 926 61.0194 357.141 419.323
311 0 81.1262 13.14 1066 59.682 357.406 417.477
312 1 44.0225 10.6536 469 61.5629 357.808 435.149
313 0 46.061 10.1822 469 62.4328 358.188 434.45
314 0 46.0409 11.8156 544 62.4026 357.469 432.347
315 0 49.0768 11.0643 543 62.9079 357.595 432.965
316 0 51.0403 11.0501 564 62.0496 356.993 431.115
317 0 53.0407 11.1612 592 63.6588 356.816 428.846
318 0 54.1181 11.6966 633 62.7125 356.592 426.445
319 0 56.0647 11.9505 670 62.3448 356.424 427.449
320 0 58.0901 13.4446 781 60.8809 357.07 426.325
321 0 59.1332 12.3957 733 62.3479 357.04 427.232
322 0 62.0812 13.4985 838 61.2649 357.243 426.538
323 0 62.1144 11.5915 720 63.0611 357.154 428.082
324 0 62.08 12.4195 771 63.6874 356.625 422.324
325 0 66.1254 12.1285 802 63.5985 356.65 422.473
326 0 70.0361 12.9647 908 61.4879 356.779 422.936
327 0 72.096 12.4556 898 61.6893 356.878 422.453
328 0 74.0744 13.1219 972 61.4074 356.762 419.765
329 1 39.007 12.126 473 59.9852 357.254 439.378
330 0 38.0917 10.4222 397 63.7935 357.186 437.657
331 0 39.0674 11.365 444 63.0068 357.311 436.923
332 0 41.2043 11.9162 491 62.1263 357.574 436.737
333 0 39.0927 11.0762 433 64.6905 356.758 435.827
334 0 43.0423 9.85078 424 64.6344 356.267 438.12
335 0 45.1558 11.0949 501 63.3653 356.226 436.463
336 0 46.0433 11.5326 531 63.3446 357.032 435.727
337 0 47.057 14.0043 659 60.2777 357.193 435.519
338 0 48.0884 10.6263 511 64.3816 356.994 435.151
339 0 50.0764 12.0416 603 62.7512 356.75 434.053
340 0 50.0651 12.5836 630 63.1476 357.2 431.754
341 0 53.0331 11.8605 629 63.2544 357.366 433.329
342 0 53.1006 12.6364 671 63.0283 357.098 430.586
343 0 57.0504 12.7256 726 62.3485 357.566 430.518
344 0 56.0554 11.7027 656 64.3918 357.395 430.718
345 0 59.0957 11.9975 709 64.0268 357.134 428.893
346 0 60.1052 13.6095 818 61.8362 357.059 430.411
347 0 60.1085 11.7122 704 65.0938 356.746 429.493
348 0 62.041 13.0559 810 63.137 356.235 428.284
349 0 61.029 10.9456 668 66.6901 356.148 426.543
350 0 68.0749 12.6625 862 62.4432 356.097 429.14
351 0 67.1223 12.2463 822 64.3759 356.029 426.219
352 0 69.0609 13.0609 902 62.6275 356.078 425.571
353 0 71.1483 11.8485 843 63.5623 356.121 428.552
354 0 73.1776 12.2169 894 64.2494 356.548 423.18
355 0 76.1596 11.7648 896 64.9252 356.712 420.028
356 1 40.0771 11.7024 469 62.6269 357.467 441.983
357 0 41.0435 11.8655 487 62.8111 356.224 441.437
358 0 44.0657 10.3709 457 63.5514 355.783 442.641
359 0 45.0446 10.5895 477 64.3648 356.813 438.681
360 0 45.0454 12.5207 564 62.1135 356.84 441.606
361 0 46.1084 11.9501 551 63.2214 356.345 439.212
362 0 46.0259 13.6011 626 61.1486 356.578 441.764
363 0 48.0544 13.131 631 62.4184 357.011 440.181
364 0 51.0683 12.7672 652 62.3804 356.732 440.747
365 0 52.0952 12.4196 647 62.3787 356.281 442.79
366 0 51.1183 13.322 681 62.3392 357.001 440.482
367 0 53.0508 10.7444 570 65.1123 356.942 441.565
368 0 56.0658 12.0573 676 63.679 356.96 438.873
369 0 56.0325 12.0823 677 64.2541 357.309 438.065
370 0 57.0973 13.6609 780 61.7308 356.869 438.773
371 0 59.0546 13.2928 785 63.0854 356.717 435.205
372 0 62.1178 13.7642 855 61.8842 356.863 433.644
373 0 64.0466 12.8656 824 63.4867 357.242 430.783
374 0 63.0427 12.2457 772 64.636 357.027 433.477
375 0 67.1548 13.938 936 62.0609 357.463 430.735
376 0 70.1393 13.0312 914 63.2199 357.385 427.793
377 0 69.1242 11.8916 822 65.2202 357.521 427.564
378 0 72.0519 11.5611 833 65.6411 356.357 425.504
379 0 74.0641 12.7187 942 64.052 356.564 426.659
380 0 80.0623 14.2264 1139 61.5584 356.904 425.593
381 1 40.0178 10.5203 421 65.6912 357.102 442.513
382 0 42.0339 11.4669 482 65.1577 355.801 442.222
383 0 45.0201 10.3954 468 66.235 356.278 440.331
384 0 47.0282 12.7158 598 62.1388 356.64 440.689
385 0 51.0215 12.2693 626 61.6565 356.538 441.433
386 0 49.0771 14.4874 711 60.4501 356.783 440.501
387 0 51.054 13.0646 667 62.7586 356.57 438.046
388 0 54.0477 13.3031 719 61.9986 356.691 439.082
389 0 55.0447 12.6261 695 62.8504 356.722 439.304
390 0 54.051 12.2662 663 64.2187 356.213 436.544
391 0 57.1152 12.4485 711 64.0619 356.691 433.084
392 0 59.024 12.317 727 63.8281 356.89 436.509
393 0 60.0875 11.4999 691 65.6252 356.268 433.641
394 0 62.0949 12.1588 755 64.4278 356.497 435.143
395 0 63.05 13.2435 835 63.7353 356.393 431.133
396 0 66.0672 13.3652 883 63.2571 356.093 434.318
397 0 69.1658 13.6628 945 62.636 356.291 433.352
398 0 72.0337 13.105 944 63.5064 355.786 431.698
399 0 73.1699 12.7511 933 64.2476 356.441 430.426
400 1 40.1244 10.4924 421 63.5012 356.594 448.746
401 0 39.0576 10.4205 407 64.2408 356.833 448.545
402 0 42.0147 11.8054 496 62.3871 356.681 447.339
403 0 43.0137 13.6468 587 60.7802 356.465 447.244
404 0 43.0204 10.6926 460 65.4587 356.7 446.052
405 0 46.0425 13.3138 613 61.7618 357.065 443.721
406 0 45.0249 11.1494 502 65.7052 356.351 444.787
407 0 48.019 12.745 612 62.3186 356.484 446.704
408 0 50.0424 10.9907 550 64.9873 356.415 445.602
409 0 50.0659 11.8244 592 64.5878 357.117 443.807
410 0 52.0626 11.5438 601 64.7005 356.694 444.632
411 0 54.0097 12.9977 702 63.2108 356.925 443.556
412 0 54.0546 11.8769 642 64.6044 356.656 443.877
413 0 55.0361 11.6287 640 65.6469 356.814 440.497
414 0 58.0344 12.2341 710 64.1183 356.982 442.239
415 0 59.0861 11.4579 677 65.5465 357.191 440.903
416 0 63.0787 12.0167 758 63.6675 357.558 441.489
417 0 62.076 11.5181 715 64.814 357.723 441.285
418 0 67.1139 12.8438 862 62.7715 357.237 438.831
419 0 67.1681 11.0916 745 65.6309 357.279 438.011
420 1 34.0578 9.60132 327 63.8226 357.015 454.358
421 0 37.1256 9.91229 368 62.7717 356.848 453.761
422 0 36.0437 11.0421 398 61.3216 357.191 455.995
423 0 37.0295 9.93802 368 63.7745 357.361 452.223
424 0 40.1098 10.1471 407 62.6118 357.523 453.749
425 0 41.0725 10.6641 438 62.2329 357.422 453.858
426 0 41.05 9.71986 399 63.797 356.925 452.308
427 0 42.0593 10.5565 444 62.9099 357.016 452.471
428 0 44.1197 11.8768 524 61.5458 357.139 450.38
429 0 47.0572 12.5379 590 60.2797 357.025 450.29
430 0 46.0807 10.7637 496 63.3952 356.968 449.401
431 0 48.0657 10.1944 490 64.0755 357.043 449.202
432 0 50.1009 11.7962 591 62.154 356.824 449.024
433 0 49.1543 11.5758 569 63.4394 357.025 447.48
434 0 54.0286 12.1047 654 61.607 356.775 448.838
435 0 53.1469 10.4804 557 64.4345 357.318 447.619
436 0 55.09 10.855 598 63.4013 357.199 447.819
437 0 57.1002 10.3152 589 64.382 356.952 444.511
438 0 58.1034 9.99941 581 64.5043 357.117 444.086
439 0 62.0765 11.3892 707 62.1485 357.257 445.052
440 0 63.0307 11.4706 723 62.0761 356.92 443.448
441 0 65.1242 12.8984 840 60.0929 357.035 441.015
442 0 65.1421 11.5287 751 62.2823 357.256 440
443 0 69.1122 10.6928 739 63.4019 356.796 438.539
444 1 37.1094 8.97346 333 63.7357 356.841 454.796
445 0 37.1258 7.91901 294 64.966 357.238 456.395
446 0 41.0786 9.7131 399 63.2607 357.336 453.622
447 0 41.1225 10.7484 442 61.7738 356.846 455.158
448 0 43.1048 9.88289 426 63.4131 356.831 450.864
449 0 46.1158 11.9482 551 60.4918 357.127 451.494
450 0 46.1711 12.6053 582 60.0928 356.637 450.813
451 0 47.159 10.4328 492 63.624 356.791 449.057
452 0 49.0621 11.1084 545 62.7798 357.45 448.35
453 0 50.1274 9.89479 496 63.5141 357.157 450.05
454 0 51.1083 9.60704 491 63.9063 357.46 448.189
455 0 51.047 10.5981 541 63.0481 356.695 446.133
456 0 54.0535 10.4526 565 62.6265 357.193 445.995
457 0 57.0816 10.6339 607 62.0873 357.913 444.476
458 0 56.0696 10.1659 570 63.0754 357.533 443.568
459 0 60.132 12.1899 733 59.8104 357.513 443.84
460 0 62.0785 11.1311 691 61.4153 357.398 439.211
461 0 64.1482 11.4423 734 60.6008 357.437 440.414
462 0 68.0728 10.6063 722 60.7715 357.169 441.475
463 0 67.1057 10.5952 711 61.834 357.501 437.873
464 1 34.0504 9.5153 324 63.0617 357.444 452.481
465 0 37.0346 10.2607 380 61.5105 357.329 451.732
466 0 40.0825 11.5761 464 59.2845 357.649 450.851
467 0 40.1409 12.4063 498 59.1867 357.006 450.275
468 0 43.1382 12.0311 519 59.0636 356.584 448.9
469 0 44.0858 11.7725 519 59.5915 356.832 447.432
470 0 46.0544 11.5298 531 59.3842 356.156 449.467
471 0 47.0743 11.3225 533 59.8011 355.889 448.272
472 0 51.0406 12.0492 615 58.426 355.824 447.595
473 0 51.0645 13.434 686 57.6341 355.875 445.405
474 0 52.0274 14.5885 759 56.4638 355.982 445.698
475 0 53.0909 10.6044 563 61.2824 356.183 444.661
476 0 55.0582 11.6604 642 60.1495 356.188 443.879
477 0 53.0454 13.0643 693 59.4098 356.58 443.938
478 0 59.1401 12.1068 716 59.8296 357.017 441.184
479 0 57.0756 11.2833 644 61.396 356.988 443.269
480 0 62.109 11.8018 733 60.0737 357.255 441.323
481 0 63.1375 11.5621 730 60.4671 357.453 438.889
482 0 63.1439 10.8166 683 61.8375 357.537 439.365
483 0 68.1323 11.962 815 59.8037 357.856 437.701
484 0 69.1661 11.5085 796 60.2437 357.555 438.006
485 0 71.2485 11.5511 823 60.6087 357.435 437.593
486 0 73.0611 11.5383 843 60.9929 357.403 435.639
487 1 39.0335 9.94017 388 62.2113 357.438 452.866
488 0 39.0591 11.2906 441 62.6236 357.49 449.188
489 0 41.0996 11.1437 458 62.4017 357.552 447.924
490 0 43.0721 9.84395 424 63.184 357.399 450.149
491 0 43.049 11.5217 496 61.9476 356.762 449.984
492 0 45.0317 13.0797 589 60.4652 356.64 446.075
493 0 49.0799 12.1638 597 60.9146 356.59 447.461
494 0 49.0667 13.1861 647 60.9567 357.224 444.051
495 0 50.0497 12.0081 601 62.5624 357.393 444.681
496 0 53.0763 12.4538 661 61.2784 356.7 444.236
497 0 54.1138 12.9357 700 61.2714 356.507 440.779
498 0 53.1152 10.6373 565 64.9894 356.434 441.104
499 0 56.0637 10.5237 590 65.1864 356.642 438.82
500 0 59.1111 11.7406 694 62.9841 356.667 438.599
501 0 60.0932 11.8649 713 63.4039 356.656 437.445
502 0 63.0633 10.6877 674 64.1706 357.119 436.783
503 0 65.1017 12.4728 812 61.702 357.014 438.065
504 0 67.0543 12.6763 850 61.6553 356.938 435.265
505 0 68.1528 11.3568 774 63.6408 356.49 433.915
506 0 71.0697 11.9319 848 62.9729 356.38 434.309
507 0 75.0608 13.1493 987 61.2736 356.794 432.551
508 0 76.2445 11.9746 913 63.0033 356.434 431.974
509 0 78.0562 11.2867 881 64.3587 357.39 429.791
510 0 81.2544 11.6424 946 63.4408 356.995 426.469
511 0 85.1949 12.7707 1088 61.8732 357.592 427.448
512 0 86.0731 11.7691 1013 63.8036 357.849 423.954
513 0 90.1029 11.1095 1001 64.8402 357.672 423.943
514 0 93.1291 12.8424 1196 62.2901 357.313 422.236
515 0 94.0875 11.7444 1105 63.9991 357.24 419.411
516 1 45.0871 11.1784 504 65.5774 357.347 443.587
517 0 47.0247 12.015 565 64.3912 356.816 443.193
518 0 49.1041 10.6712 524 66.6737 356.893 439.639
519 0 50.1643 10.5852 531 66.6441 356.964 439.461
520 0 52.1078 11.3611 592 66.1368 356.691 438.873
521 0 51.1486 9.87319 505 68.2396 356.44 439.828
522 0 55.1027 11.2699 621 65.7762 356.029 438.467
523 0 56.0952 9.69779 544 67.864 356.342 437.07
524 0 58.0782 10.8991 633 65.9352 356.679 437.738
525 0 58.0811 13.1368 763 63.8257 356.552 435.634
526 0 60.0388 10.3433 621 66.8261 356.876 437.092
527 0 62.0831 10.5343 654 66.7049 356.636 433.188
528 0 64.0859 10.6264 681 66.6358 356.47 431.947
529 0 64.0371 11.0092 705 66.7362 357.133 431.339
530 0 65.0686 10.097 657 68.1096 356.91 429.726
531 0 69.057 8.18164 565 69.8867 356.982 428.03
532 0 78.0841 11.0906 866 65.9226 356.482 430.845
533 0 79.2569 11.1788 886 66.3792 357.131 429.593
534 1 44.1221 9.58703 423 66.3026 356.482 447.501
535 0 46.0945 11.1293 513 64.7778 357.01 444.503
536 0 45.0726 11.2485 507 64.9487 356.462 444.181
537 0 49.4807 12.2472 606 63.5066 356.937 441.592
538 0 47.0962 11.1049 523 66.7304 358.306 438.369
539 0 50.2961 11.3528 571 66.0315 358.455 440.648
540 0 53.0806 10.8891 578 66.9827 358.379 437.478
541 0 55.4405 10.8404 601 66.1198 357.885 437.797
542 0 58.1424 12.0738 702 64.4772 357.994 437.456
543 0 60.2445 10.0756 607 66.8435 357.929 436.395
544 0 58.3462 10.6091 619 67.168 357.8 434.654
545 0 62.1386 11.8767 738 64.771 357.283 433.645
546 0 62.1085 10.9486 680 67.5426 357.187 430.678
547 0 68.1221 12.1987 831 64.142 357.481 433.787
548 0 68.3805 11.8894 813 64.8376 357.613 429.705
549 0 70.2203 11.1221 781 66.1165 357.67 429.481
550 0 74.2929 12.2892 913 63.9233 357.687 428.645
551 0 75.188 12.0897 909 64.1694 358.02 429.443
552 1 40.1439 10.7364 431 64.522 357.872 444.675
553 0 40.1205 8.25014 331 66.9426 357.453 445.864
554 0 44.099 9.59206 423 65.0402 357.047 445.518
555 0 46.0859 11.6522 537 61.8324 357.305 444.292
556 0 44.0279 10.2662 452 64.646 357.144 444.518
557 0 46.0437 11.7714 542 63.0185 356.721 442.71
558 0 50.0598 12.0056 601 61.7271 356.857 441.552
559 0 49.1694 11.6536 573 62.7208 356.921 438.606
560 0 50.1576 11.4041 572 63.0787 357.066 441.01
561 0 53.0237 10.6745 566 63.1873 356.539 440.549
562 0 55.214 12.2252 675 61.5259 357.161 438.107
563 0 57.0622 11.4261 652 62.5537 357.12 438.613
564 0 56.0631 10.1493 569 64.3726 356.652 436.659
565 0 58.1124 11.1852 650 62.9369 356.84 433.306
566 0 62.2203 13.0022 809 59.9085 356.665 435.287
567 0 62.0366 10.9129 677 62.7518 356.449 435.619
568 0 65.0616 11.4046 742 61.4852 356.765 435.538
569 0 65.1296 11.3466 739 62.3992 356.859 432.038
570 0 69.082 12.4634 861 60.4123 357.236 432.08
571 0 71.0535 11.2732 801 61.9313 357.197 431.564
572 0 74.0754 11.9203 883 61.3805 357.467 429.874
573 0 76.1757 11.2109 854 62.0714 357.177 429.059
574 0 78.0657 11.9771 935 60.9893 357.445 427.187
575 0 79.2653 11.2281 890 62.4854 357.342 423.274
576 0 82.1069 11.5581 949 61.9347 357.092 423.905
577 0 86.3237 11.1441 962 61.8669 357.269 425.571
578 1 46.0748 10.7217 494 61.1943 357.342 442.223
579 0 46.0068 10.4332 480 61.25 357.619 443.09
580 0 45.0573 10.3424 466 61.8863 357.725 442.895
581 0 49.0289 9.19865 451 62.867 357.639 441.849
582 0 48.0472 11.0308 530 61.566 358.142 439.409
583 0 50.2013 10.7368 539 61.872 357.811 437.519
584 0 52.1154 9.9011 516 62.9574 357.986 437.891
585 0 53.0823 10.3613 550 62.2018 357.485 438.313
586 0 57.0394 10.2035 582 62.0876 357.514 435.584
587 0 61.0533 11.1378 680 60.2029 357.666 435.682
588 0 62.0923 10.581 657 61.0913 357.236 432.998
589 0 60.1096 10.2812 618 62.2314 357.654 434.447
590 0 63.0717 11.6217 733 60.9577 357.754 432.55
591 0 65.0442 11.546 751 60.5672 357.449 431.965
592 0 68.1754 11.8518 808 59.6782 357.899 430.885
593 0 70.2829 10.7565 756 60.5463 357.885 428.303
594 0 73.2461 11.318 829 60.0109 357.912 426.163
595 0 75.2861 10.6793 804 60.9179 357.657 423.437
596 0 76.244 10.5976 808 61.3082 357.548 425.1
597 0 79.1242 9.89583 783 61.5083 357.326 423.609
598 0 85.0508 11.2991 961 59.7107 357.128 422.685
599 0 85.0977 12.233 1041 59.1297 356.923 421.836
600 1 44.1231 9.20153 406 61.1404 357.613 440.818
601 0 46.1626 10.398 480 60.0792 357.99 438.525
602 0 47.0867 9.93911 468 60.703 357.513 440.476
603 0 50.1018 9.95972 499 60.8657 357.649 439.138
604 0 51.1668 12.4299 636 58.0802 357.667 438.675
605 0 53.2705 11.3384 604 58.8626 357.512 440.502
606 0 55.1514 10.444 576 60.684 357.901 437.224
607 0 56.299 11.7409 661 59.6611 357.43 436.132
608 0 58.2173 11.5258 671 60.0566 357.86 433.158
609 0 61.1221 12.1887 745 58.4792 358.02 436.46
610 0 61.0749 11.4286 698 60.3438 358.057 435.44
611 0 63.1646 11.383 719 60.3213 357.73 434.192
612 0 67.0895 12.3417 828 59.6051 357.739 430.222
613 0 68.4189 11.9996 821 59.9026 357.758 430.523
614 0 72.186 11.5258 832 60.4447 357.389 429.994
615 0 74.2533 12.7806 949 58.6207 357.585 431.253
616 0 76.2349 11.8712 905 60.2796 357.987 432.368
617 0 77.0808 12.2469 944 61.09 357.122 426.596
618 0 83.2527 13.477 1122 58.6854 357.252 426.989
619 0 83.2264 14.1181 1175 58.6468 357.128 424.74
620 0 85.1895 12.3489 1052 60.7348 356.931 426.356
621 0 88.115 10.8154 953 63.0892 357.31 423.289
622 1 46.0599 11.1811 515 62.7398 356.961 440.637
623 0 49.0723 12.3084 604 60.7384 357.359 442.571
624 0 49.1631 11.4517 563 62.3286 356.911 441.474
625 0 52.0606 12.1781 634 61.0426 357.054 439.675
626 0 56.2648 12.4589 701 59.7275 357.158 440.626
627 0 54.1786 11.6282 630 62.0524 357.076 438.435
628 0 56.1929 12.2791 690 61.0014 357.104 438.975
629 0 60.0731 12.1352 729 60.6708 357.188 436.624
630 0 56.0659 10.345 580 64.6776 357.14 434.626
631 0 62.0548 13.1497 816 59.7941 356.929 434.615
632 0 62.1418 10.1381 630 63.8937 357.367 434.754
633 0 65.0257 10.9188 710 63.0732 357.955 431.748
634 0 67.1548 12.5382 842 61.0178 357.536 432.666
635 0 69.1797 11.3617 786 62.7748 358.09 428.7
636 0 68.1585 11.1945 763 63.5505 357.931 429.383
637 0 73.1773 13.2418 969 60.3581 357.767 428.378
638 0 76.1632 11.8955 906 61.8322 357.792 428.008
639 0 78.3042 12.0811 946 61.8668 358.029 427.237
640 1 38.1357 9.67597 369 63.6721 357.949 447.287
641 0 37.0239 10.3987 385 63.761 357.688 445.805
642 0 43.0888 11.5807 499 61.1643 356.868 446.858
643 0 40.1161 12.3143 494 62.1255 357.97 445.217
644 0 43.0225 12.8305 552 60.2101 357.455 446.764
645 0 44.0794 11.2978 498 63.1928 357.09 445.488
646 0 48.0756 12.2931 591 60.9222 357.873 445.46
647 0 45.0412 10.6347 479 64.6263 357.57 442.831
648 0 49.1468 13.0222 640 60.425 357.241 442.969
649 0 49.0681 11.2904 554 63.1823 356.986 442.41
650 0 50.1443 10.4299 523 64.4685 356.727 440.155
651 0 54.1652 12.1111 656 61.5899 356.732 439.303
652 0 55.1806 12.8487 709 60.6333 356.408 438.001
653 0 56.2871 9.70027 546 64.4634 356.502 436.694
654 0 57.0769 10.2844 587 63.8944 356.479 437.044
655 0 62.2224 11.7803 733 60.899 357.327 437.127
656 0 62.0652 11.7779 731 61.1464 356.655 437.218
657 0 65.0422 11.5617 752 61.3218 357.039 434.684
658 0 66.0984 12.6176 834 60.5048 356.596 431.175
659 0 69.1766 12.1139 838 61.0095 356.284 430.489
660 0 70.1532 11.0472 775 62.1006 356.67 431.742
661 0 74.2057 12.6001 935 60.3668 356.471 428.982
662 0 76.2403 11.1096 847 61.974 356.623 429.218
663 0 78.2775 11.4337 895 61.8927 357.144 427.691
664 1 42.1053 11.305 476 61.2101 357.038 443.952
665 0 44.1245 11.9208 526 60.3232 357.331 445.127
666 0 45.1958 12.1029 547 60.8336 357.488 443.857
667 0 47.0563 12.8144 603 60.3549 358.144 443.537
668 0 47.2265 11.8154 558 61.095 357.824 444.346
669 0 49.1164 11.6662 573 61.0698 357.679 445.293
670 0 52.1229 12.317 642 60.8801 357.636 440.397
671 0 55.2307 12.5836 695 59.1914 357.545 444.246
672 0 54.0653 11.93 645 61.3674 357.572 442.016
673 0 55.1228 11.3746 627 62.4593 357.041 439.083
674 0 60.1303 12.2733 738 60.8184 357.131 440.893
675 0 60.1675 12.7145 765 60.3987 356.613 438.765
676 0 62.1244 12.2496 761 61.1971 356.498 438.188
677 0 63.2569 12.22 773 61.6365 356.351 437.489
678 0 65.0955 11.2143 730 63.3836 355.942 436.303
679 0 68.1805 11.6456 794 62.9458 356.795 435.331
680 0 71.1302 12.3857 881 61.7367 356.709 435.644
681 0 70.0876 12.2846 861 63.2137 356.48 432.25
682 0 74.0917 10.8109 801 63.7478 355.864 435.395
683 0 74.0751 11.2453 833 64.8415 355.905 430.24
684 0 78.1295 12.2617 958 62.6253 355.967 434.569
685 1 42.166 9.6049 405 66.837 356.015 445.921
686 0 45.0409 11.6339 524 63.8378 355.83 447.053
687 0 48.1378 12.8382 618 62.5761 356.406 445.54
688 0 49.0485 11.1522 547 64.3492 356.221 445.417
689 0 51.0691 11.4551 585 64.5761 356.345 442.195
690 0 51.0796 10.8654 555 66.2901 356.225 439.759
691 0 55.1209 12.8445 708 63.2881 355.904 440.903
692 0 57.0435 13.3407 761 62.8003 356.062 439.053
693 0 59.1466 13.5595 802 62.2332 355.595 438.805
694 0 60.0856 12.6653 761 63.8252 355.744 436.756
695 0 61.0901 12.9808 793 63.7453 356.639 437.542
696 0 65.0599 14.5097 944 61.5487 356.296 434.737
697 0 65.2549 12.5967 822 64.4404 356.088 434.951
698 0 66.0439 12.628 834 64.0624 356.41 436.046
699 0 69.1416 14.8391 1026 61.8489 356.738 433.055
700 0 70.0678 13.0731 916 64.5306 356.355 431.098
701 0 73.0904 12.8745 941 64.3316 356.631 433.281
702 0 75.1013 13.0357 979 64.906 356.893 430.994
703 0 77.1244 12.8234 989 65.4024 356.72 429.311
704 0 80.0718 13.7751 1103 64.1423 356.563 428.994
705 0 81.1494 16.5374 1342 57.9896 356.521 429.624
706 1 45.0727 10.1835 459 67.78 357.305 445.521
707 0 47.0473 11.414 537 65.5493 356.408 445.603
708 0 49.1181 11.0754 544 66.7463 355.936 443.711
709 0 50.0229 11.6946 585 67.094 356.73 440.923
710 0 50.0613 11.9653 599 67.2304 356.262 440.638
711 0 52.1502 11.4285 596 66.2836 356.621 440.032
712 0 55.0932 11.6167 640 64.8734 356.917 441.43
713 0 57.1048 12.3107 703 64.2774 356.717 438.351
714 0 61.1188 14.2837 873 61.2497 356.715 437.619
715 0 64.0727 17.964 1151 51.6429 356.487 437.819
716 0 61.0299 13.7638 840 62.7964 357.205 436.694
717 0 64.0862 14.777 947 61.7233 356.854 433.333
718 0 65.0551 12.4971 813 64.5929 357.369 432.31
719 0 67.0992 13.6961 919 62.803 357.288 429.714
720 0 68.1025 13.5384 922 63.2874 357.443 429.993
721 0 72.0337 12.7024 915 63.8907 357.614 429.553
722 0 71.1071 11.9116 847 65.2928 357.674 427.302
723 0 76.0958 13.299 1012 63.0919 357.273 428.897
724 0 78.0481 12.7229 993 64.3424 356.955 427.555
725 0 80.104 13.1829 1056 63.9242 356.481 425.029
726 0 81.0517 14.0651 1140 63.9526 356.67 423.71
727 0 84.0973 13.8649 1166 64.163 356.678 423.822
728 0 87.1465 13.8043 1203 64.0715 356.272 423.419
729 0 89.1234 12.4883 1113 66.265 356.516 421.984
730 0 92.114 14.0804 1297 64.6461 356.532 421.566
731 1 49.1307 11.7238 576 65.5295 357.092 444.58
732 0 52.1026 11.8228 616 65.0925 356.974 444.657
733 0 52.0548 12.0642 628 66.5111 356.962 441.352
734 0 50.1041 11.4961 576 67.7205 356.316 442.097
735 0 55.0692 13.9461 768 64.0508 356.624 441.415
736 0 57.0811 12.3158 703 66.074 357.162 442.935
737 0 59.1142 11.4693 678 66.5973 357.047 442.808
738 0 57.0839 12.14 693 66.9509 357.012 440.652
739 0 58.1012 11.9275 693 67.3348 357.114 440.42
740 0 62.1775 11.5637 719 67.0668 356.305 442.245
741 0 61.0629 11.1852 683 68.6823 356.714 438.483
742 0 68.0543 13.1513 895 64.4927 356.865 440.542
743 0 71.0867 14.3346 1019 63.0088 356.777 439.137
744 0 73.1401 13.2349 968 64.813 357.038 438.786
745 0 77.1267 14.3271 1105 62.505 357.156 442.416
746 1 36.0679 10.702 386 66.7591 357.176 455.308
747 0 43.0507 12.9615 558 61.2348 357.905 459.747
748 0 44.0501 12.3042 542 62.4317 358.033 458.915
749 0 44.083 10.8886 480 65.0667 357.387 456.771
750 0 46.1167 10.8637 501 65.0998 357.561 457.02
751 0 48.0314 14.0741 676 61.3062 357.373 458.572
752 0 49.1167 12.0529 592 63.6216 356.894 457.615
753 0 50.0767 11.7819 590 64.3322 357.092 455.442
754 0 51.0562 12.1435 620 63.3742 357.25 456.185
755 0 53.0726 13.4344 713 61.9565 357.436 457.262
756 0 53.0672 12.5501 666 63.3874 357.087 456.605
757 0 56.1303 11.6515 654 64.9052 357.275 455.209
758 0 58.0638 12.3829 719 64.1739 356.789 455.241
759 0 59.0692 13.2726 784 62.9094 357.286 458.505
760 0 62.0825 13.2404 822 63.3735 356.909 455.318
761 0 64.0817 14.4347 925 62.4497 357.365 454.531
762 0 65.268 12.2572 800 64.73 357.212 455.783
763 0 68.054 12.6223 859 62.5425 357.212 457.269
764 0 70.1689 14.1088 990 61.5071 357.042 455.442
765 0 73.1478 13.6436 998 62.1353 357.203 455.075
766 0 74.0585 12.3551 915 63.3126 357.635 457.795
767 0 78.2139 13.2841 1039 62.5746 357.671 455.231
768 0 80.1004 12.0224 963 64.5836 357.286 454.418
769 1 41.0943 10.8044 444 62.1464 356.806 473.599
770 0 42.1109 8.54885 360 65.9333 356.628 471.247
771 0 44.2158 10.3583 458 63.2227 356.834 472.48
772 0 46.0562 12.3327 568 61.2394 356.386 472.486
773 0 44.105 10.1803 449 65.1849 356.423 471.457
774 0 47.1 10.9129 514 65.3619 356.994 469.115
775 0 46.1853 11.4539 529 64.414 356.841 469.07
776 0 50.0268 12.1135 606 62.5908 356.177 471.243
777 0 52.2003 11.3026 590 63.839 356.222 468.817
778 0 53.1793 11.8091 628 63.3185 356.268 470.256
779 0 55.0819 10.2393 564 64.9096 356.298 467.86
780 0 57.1216 12.5872 719 61.7663 356.079 468.092
781 0 57.3269 11.0071 631 64.7448 356.669 463.834
782 0 62.1736 11.9826 745 61.8926 356.703 467.467
783 0 62.075 13.4193 833 61.3265 357.214 464.427
784 0 64.2187 12.2083 784 62.736 357.023 462.772
785 0 66.175 12.5123 828 62.7766 357.075 461.836
786 0 69.1086 13.5873 939 61.5293 356.944 458.776
787 0 71.1862 12.6991 904 62.6847 357.215 460.249
788 0 72.0836 12.319 888 63.8322 356.948 458.758
789 0 75.109 13.274 997 62.9509 356.815 455.502
790 0 78.1579 11.7966 922 64.5271 356.368 455.123
791 1 43.066 10.124 436 62.7546 356.312 472.523
792 0 43.0722 9.77429 421 63.8242 356.663 473.404
793 0 45.1831 11.553 522 61.728 356.831 473.72
794 0 47.1163 10.1027 476 64.7794 356.721 469.763
795 0 47.0726 10.7493 506 64.2036 356.836 470.715
796 0 50.2094 10.1575 510 64.6784 357.125 469.427
797 0 49.0924 10.9182 536 64.6194 357.032 467.813
798 0 52.2273 11.718 612 63.2516 356.297 469.291
799 0 54.2184 9.75684 529 65.7807 356.321 466.025
800 0 55.134 10.5742 583 64.7067 356.461 467.532
801 0 58.1234 11.9229 693 63.2915 357.133 467.908
802 0 58.2393 9.99325 582 66.0069 357.251 465.168
803 0 61.1705 11.4761 702 64.416 357.054 464.667
804 0 62.1915 10.3712 645 65.9395 356.812 462.949
805 0 68.1222 11.5968 790 63.9025 357.116 461.987
806 0 68.1097 11.2906 769 65.0741 357.211 461.761
807 0 70.197 12.18 855 64.0211 357.267 461.669
808 0 72.1814 11.0555 798 66.1078 356.917 456.383
809 0 74.3164 11.3299 842 66.6556 356.723 457.664
810 0 76.122 9.65555 735 69.0694 357.355 457.076
811 0 79.2944 11.7032 928 67.1843 356.973 455.039
812 0 81.1269 11.4758 931 67.812 357.039 453.234
813 0 85.1833 11.669 994 67.9135 356.958 450.182
814 0 87.1893 11.5955 1011 68.1009 356.848 450.967
815 0 88.1198 11.2574 992 69.3831 356.768 448.288
816 1 45.2402 8.17857 370 70.9 356.997 467.254
817 0 46.1544 8.55824 395 70.5671 357.306 467.547
818 0 49.0799 10.6968 525 67.7924 357.074 469.152
819 0 51.1945 9.12207 467 69.7409 357.229 468.82
820 0 53.1402 9.61608 511 68.9393 357.624 468.194
821 0 54.2755 10.0045 543 68.9116 357.114 465.959
822 0 56.1177 10.3711 582 68.7784 357.211 467.632
823 0 58.3308 10.3547 604 68.7765 356.818 467.048
824 0 59.1498 9.24771 547 70.7989 356.779 464.488
825 0 61.2329 9.19441 563 71.3623 356.538 462.06
826 0 64.2099 10.3411 664 69.2093 356.733 461.598
827 0 64.1363 8.18569 525 72.4514 356.248 458.629
828 0 69.1814 9.54013 660 70.5606 356.491 458.189
829 0 71.1047 11.7151 833 68.1945 356.462 457.679
830 0 72.2444 9.50939 687 71.6128 357.02 455.205
831 1 38.0659 6.48874 247 74.8907 357.045 471.158
832 0 43.1088 10.3691 447 68.8926 357.065 474.506
833 0 42.0884 9.05237 381 72.6719 357.15 469.013
834 0 44.1807 9.41587 416 72.125 356.798 472.137
835 0 48.173 11.8946 573 68.5428 357.682 472.663
836 0 51.2721 11.4682 588 69.0646 357.029 471.117
837 0 52.1827 11.5747 604 69.1275 357.427 469.722
838 0 55.2878 12.1003 669 68.1988 357.321 471.253
839 0 57.3772 12.8797 739 67.23 357.463 470.283
840 0 58.1565 13.4637 783 67.1814 357.111 467.848
841 0 60.3652 12.7888 772 67.7876 357.058 466.724
842 0 60.2301 12.9669 781 69.1037 357.168 466.786
843 0 62.1071 12.4462 773 70.1863 357.203 465.82
844 0 67.1372 13.4947 906 67.6402 357.031 465.449
845 0 68.1786 14.3007 975 66.8328 357.514 466.388
846 0 69.2545 12.9089 894 69.7584 357.473 462.143
847 0 71.2409 12.4507 887 70.3788 357.254 462.078
848 0 74.2335 12.784 949 69.8936 357.281 459.574
849 0 77.1773 13.7087 1058 68.5132 357.025 459.25
850 0 81.2773 15.0842 1226 66.4666 357.22 457.499
851 0 81.2653 12.9453 1052 70.4715 356.864 458.536
852 0 85.286 13.5661 1157 69.9758 356.813 456.993
853 0 87.1702 13.8924 1211 69.9604 357.193 452.916
854 0 88.2371 12.3757 1092 73.2216 357.027 451.74
855 0 92.097 13.3989 1234 71.7083 356.963 450.718
856 0 95.2165 13.6846 1303 71.6746 356.525 448.987
857 0 99.1688 12.7359 1263 73.0135 356.658 448.762
858 0 102.071 13.2261 1350 72.7081 356.878 447.702
859 0 107.186 13.9944 1500 71.136 357.007 445.431
860 0 109.24 13.8502 1513 72.115 357.263 443.213
861 0 113.23 13.6625 1547 72.0368 357.143 443.103
862 1 61.2622 12.3404 756 72.3042 357.082 469.763
863 0 63.2282 11.5613 731 74.223 356.553 466.72
864 0 65.1748 12.8577 838 72.6348 356.723 467.048
865 0 68.1737 13.1869 899 72.4672 357.279 464.739
866 0 70.0834 12.9132 905 72.9171 357.185 463.925
867 0 70.1921 12.0242 844 74.7393 356.617 462.78
868 0 74.1419 13.9058 1031 71.1048 356.357 462.177
869 0 75.1563 12.3476 928 74.5873 357.898 461.436
870 0 81.2037 14.0757 1143 70.6658 357.413 460.894
871 0 83.2833 13.0158 1084 72.7103 356.853 458.648
872 0 87.2297 13.7109 1196 71.9231 357.297 456.711
873 0 90.2723 13.4039 1210 72.4884 357.932 456.223
874 0 93.145 12.9905 1210 74.1306 357.971 453.013
875 1 49.1615 9.88578 486 77 357.938 474.944
876 0 50.2391 10.9078 548 77.6223 357.741 472.728
877 0 53.1999 12.3309 656 75.721 358 468.968
878 0 55.1833 12.7394 703 75.2304 357.464 470.135
879 0 57.1037 11.8556 677 75.9055 358.003 471.137
880 0 60.1586 13.0322 784 74.5574 358.416 469.107
881 0 61.0781 13.9166 850 73.4118 358.054 467.654
882 0 61.1213 12.0744 738 76.6003 358.199 467.631
883 0 65.1261 12.6984 827 74.5478 357.787 467.872
884 0 67.1174 12.6048 846 75.078 358.265 464.956
885 0 70.1192 13.363 937 74.1035 357.727 462.719
886 0 72.1535 12.7229 918 74.8224 357.772 464.942
887 0 76.1669 13.1684 1003 74.1206 357.621 461.62
888 0 77.2269 13.0913 1011 74.2839 357.302 460.64
889 0 79.1752 13.1607 1042 74.8186 357.261 457.382
890 0 82.2094 14.5847 1199 72.6606 357.253 459.234
891 0 86.1742 13.0433 1124 75.1895 357.456 454.173
892 0 88.2376 15.3563 1355 71.4118 356.916 453.563
893 0 91.1665 14.7532 1345 72.0052 356.875 453.999
894 0 96.2382 15.6383 1505 70.2691 356.918 454.508
895 0 98.2265 14.9349 1467 71.8698 356.673 451.753
896 0 100.203 15.2291 1526 72.0819 357.132 451.368
897 1 56.1861 12.0136 675 74.9926 357.213 471.966
898 0 59.2725 14.3912 853 71.2309 356.93 472.14
899 0 61.1447 11.9716 732 74.1667 356.617 472.328
900 0 65.5094 12.5631 823 73.6355 356.853 470.905
901 0 65.4801 12.981 850 73.7976 357.824 470.225
902 0 69.3783 14.9759 1039 70.1646 357.722 468.616
903 0 69.3217 11.6125 805 76.3006 357.519 467.174
904 0 71.3265 12.5339 894 74.6532 357.35 465.567
905 0 73.3139 12.8352 941 73.9543 357.139 465.384
906 0 77.3429 12.4769 965 74.2622 357.485 463.221
907 0 79.371 13.0148 1033 73.2043 357.561 464.194
908 0 83.3618 13.7953 1150 71.9322 357.856 462.605
909 0 86.2196 14.2543 1229 70.6501 358 462.706
910 0 88.4821 12.7935 1132 73.5 357.521 459.09
911 0 91.4966 12.4704 1141 74.2033 357.136 457.535
912 0 95.4238 13.1938 1259 72.1684 357.499 458.224
913 1 50.362 10.5437 531 73.9944 357.67 478.021
914 0 52.2305 12.464 651 71.7051 357.906 476.955
915 0 53.3181 12.2097 651 73.2473 357.957 474.233
916 0 57.5277 13.6108 783 70.2912 358.156 472.571
917 0 58.3719 12.0777 705 72.0326 357.699 474.574
918 0 58.1597 12.3625 719 73.1892 359.038 471.608
919 0 62.2581 12.8337 799 71.6008 358.74 472.069
920 0 63.4257 12.5659 797 72.9109 358.331 470.157
921 0 66.6658 12.9002 860 71.7744 359.113 469.672
922 0 68.3911 13.3643 914 71.3446 358.822 467.609
923 0 69.5013 13.2228 919 71.9456 358.964 466.469
924 0 71.5399 13.5309 968 70.8192 359.28 466.588
925 0 75.3857 13.1457 991 71.5943 358.323 464.703
926 0 76.1838 13.3624 1018 71.4303 358.514 462.917
927 0 79.2755 14.8091 1174 68.9719 358.161 464.116
928 0 83.34 14.2189 1185 69.5637 358.042 462.653
929 0 85.4677 14.4031 1231 69.7717 357.775 460.292
930 0 87.3597 12.8892 1126 72.032 357.822 458.571
931 0 87.4065 12.9967 1136 72.9093 357.587 456.857
932 0 92.2481 12.7808 1179 72.9347 357.461 457.668
933 0 96.5573 13.101 1265 72.2308 357.24 456.745
934 0 100.387 13.5875 1364 71.7889 357.544 453.12
935 1 57.2562 10.2347 586 75.872 357.666 473.544
936 0 60.3457 11.9644 722 72.428 357.698 474.371
937 0 61.2779 11.913 730 74.9301 357.836 470.864
938 0 64.3973 12.5471 808 73.4517 356.887 470.427
939 0 66.2723 12.2374 811 74.3921 358.095 469.536
940 0 66.5183 12.6431 841 74.1403 357.806 466.999
941 0 72.2006 13.8503 1000 71.468 357.813 466.889
942 0 73.2059 13.3049 974 72.8634 357.564 465.052
943 0 75.2364 13.6237 1025 71.6332 357.956 465.804
944 0 76.1892 12.0227 916 74.7096 357.583 464.064
945 0 80.2622 12.7706 1025 72.4615 357.331 463.417
946 0 83.3661 14.7542 1230 69.5837 357.09 458.52
947 0 85.4437 13.1783 1126 71.3623 356.289 459.219
948 0 88.5362 12.526 1109 72.2299 357.278 459.015
949 0 91.2945 13.6372 1245 70.6586 357.365 456.368
950 0 95.4006 13.3018 1269 70.6359 357.118 455.362
951 0 97.3663 13.5776 1322 70.3707 356.924 453.837
952 0 101.355 14.0693 1426 69.1641 356.87 451.499
953 0 103.46 14.4307 1493 69.1407 356.802 452.27
954 0 106.46 13.113 1396 71.4241 356.369 450.608
955 0 111.434 13.6045 1516 70.0369 356.529 447.87
956 0 113.573 14.0614 1597 69.6725 356.793 447.271
957 1 58.3123 11.164 651 71.6651 357.035 472.114
