time division length width area intensity CMx CMy
0 0 57.0294 12.2919 701 61.077 288.195 501.629
1 0 58.0793 13.516 785 59.6127 286.885 498.289
2 0 60.1386 13.3359 802 59.6035 287.061 500.323
3 0 61.0479 13.0389 796 59.7952 286.465 498.31
4 0 62.0181 13.093 812 59.5185 286.837 500.479
5 0 62.0639 13.4861 837 59.9809 286.669 499.98
6 0 66.0691 13.2437 875 59.6571 286.743 497.191
7 0 64.0966 11.8259 758 62.748 286.41 498.173
8 0 69.1164 13.5134 934 60.243 286.677 498.089
9 0 69.0872 12.7231 879 61.9716 286.514 498.842
10 0 70.0918 12.4408 872 62.0493 286.171 498.476
11 0 73.084 13.7376 1004 61.2151 286.017 495.296
12 0 74.1072 12.8597 953 62.7513 286.528 496.03
13 0 77.1073 13.9546 1076 61.645 286.512 493.265
14 0 77.1559 13.544 1045 62.9818 286.169 492.319
15 0 80.0987 12.1225 971 64.9918 286.613 493.643
16 0 83.1244 13.3535 1110 63.064 285.804 494.577
17 0 83.0575 12.7863 1062 64.6977 285.573 494.345
18 0 85.1522 12.1195 1032 66.2926 285.597 491.125
19 1 42.0528 8.15641 343 69.1224 285.359 512.356
20 0 46.0579 11.7026 539 66.0872 286.154 510.174
21 0 47.0304 11.8647 558 66.1344 285.987 509.444
22 0 48.0509 12.903 620 64.6548 285.647 509.674
23 0 48.0974 12.0797 581 66.7676 285.244 506.89
24 0 50.0647 11.585 580 66.7121 285.383 509.947
25 0 51.0378 11.4621 585 68.2803 285.742 507.506
26 0 53.1193 12.4625 662 67.2145 285.724 506.107
27 0 55.0282 12.5935 693 67.2626 285.556 506.257
28 0 58.1422 9.20157 535 71.5832 285.951 505.843
29 0 60.1865 12.1954 734 68.2112 285.65 503.496
30 0 61.0428 11.582 707 69.8967 286.256 502.953
31 0 63.0596 13.0511 823 68.2515 286.589 502.115
32 0 65.0921 12.6897 826 68.9758 285.694 499.845
33 0 65.0921 12.7204 828 143.783 284.693 499.838
34 0 71.0933 10.7183 762 70.5302 286.812 500.633
35 0 72.075 12.709 916 69.7555 287.307 495.63
36 0 74.1502 12.9467 960 68.774 287.162 497.184
37 1 156.13 13.4439 2099 68.5374 287.307 452.852
38 0 153.209 13.5697 2079 72.0491 287.826 459.141
39 0 143.161 10.0796 1443 64.2134 287.287 482.439
40 0 149.042 8.42714 1256 67.8169 287.55 488.699
41 1 42.0617 11.4118 480 70.6229 287.21 510.823
42 0 45.0565 12.8505 579 68.6701 287.563 512.637
43 0 48.0633 11.5681 556 70.1367 287.563 511.763
44 0 47.0226 11.9942 564 70.7642 287.89 510.745
45 0 49.0465 10.6226 521 73.2917 288.088 508.754
46 0 51.0338 12.1488 620 70.6597 287.635 510.587
47 0 53.1217 11.0125 585 73.0444 287.455 508.672
48 0 54.0172 11.8666 641 72.5803 287.638 507.279
49 0 56.0464 13.239 742 70.659 287.621 506.733
50 0 57.012 11.594 661 74.4675 287.203 505.457
51 0 58.0777 11.4158 663 75.2926 287.726 503.603
52 0 61.2112 12.8245 785 72.0713 287.921 506.158
53 0 63.1332 12.0222 759 73.6588 288.258 504.403
54 0 62.0346 11.5258 715 75.9133 288.415 501.343
55 0 67.0322 12.4418 834 73.5204 288.368 499.444
56 0 69.1537 14.0412 971 71.0494 288.541 498.95
57 0 69.0829 12.333 852 73.8016 288.285 498.932
58 0 72.0313 12.8139 923 73.1008 288.433 495.703
59 0 75.0367 12.1007 908 73.4185 288.363 497.71
60 0 77.0972 11.7384 905 74.5768 288.888 494.615
61 0 81.0368 12.1426 984 72.4055 288.627 495.801
62 0 83.1503 13.8544 1152 70.7674 288.223 492.286
63 0 85.1175 12.7001 1081 72.5504 288.48 490.609
64 0 88.0872 12.7714 1125 72.7351 288.513 489.682
65 0 92.0884 14.3015 1317 69.5004 288.659 489.875
66 0 94.0298 12.2195 1149 73.4047 287.6 488.107
67 0 97.1015 13.491 1310 70.7725 288.306 486.837
68 0 98.0813 13.2645 1301 72.3851 287.752 482.36
69 1 46.0622 10.5292 485 69.7938 287.922 511.843
70 0 47.0443 11.3298 533 69.06 287.914 511.358
71 0 47.0537 11.37 535 70.3308 287.46 508.323
72 0 50.1458 10.8085 542 68.1347 288.478 510.159
73 0 48.073 9.90161 476 71.1408 288.071 507.76
74 0 52.082 10.9251 569 67.522 287.527 508.476
75 0 52.0631 10.7946 562 68.9004 288.027 507.205
76 0 51.0833 10.2186 522 69.5977 288.264 506.837
77 0 56.0357 12.9382 725 64.9545 287.672 507.127
78 0 56.0336 10.9042 611 68.0409 287.566 503.802
79 0 59.0498 13.531 799 63.4643 287.421 504.253
80 0 60.0614 12.0044 721 64.2136 287.201 506.398
81 0 59.0584 11.5479 682 65.8416 288.133 503.372
82 0 62.0708 13.259 823 62.8554 288.188 503.335
83 0 63.0905 12.49 788 63.599 288.138 502.331
84 0 64.1151 10.9803 704 64.8239 287.868 503.442
85 0 68.0725 11.238 765 64.298 288.024 502.382
86 0 69.1069 11.1856 773 65.6675 287.798 500.075
87 0 71.1086 11.4191 812 65.4594 288.473 498.531
88 0 71.141 10.2613 730 67.0904 288.136 498.125
89 0 75.1161 11.8084 887 64.3743 288.425 498.358
90 0 77.1491 12.2749 947 63.887 288.022 495.309
91 0 79.1135 11.9449 945 65.3989 288.192 492.757
92 0 82.0918 11.877 975 64.9364 288.242 492.947
93 0 85.13 11.6763 994 65.1368 288.105 492.124
94 0 85.2592 11.0369 941 67.1626 288.715 491.445
95 0 89.1575 11.3956 1016 66.0305 288.352 491.28
96 1 47.1655 10.6434 502 63.2769 288.584 509.506
97 0 48.0423 9.28348 446 64.5718 288.392 509.374
98 0 51.1628 10.75 550 62.9764 288.938 510.156
99 0 51.0346 12.3054 628 62.2452 288.737 506.658
100 0 52.0349 8.74413 455 65.5451 288.87 509.892
101 0 54.0295 10.4758 566 64.6484 288.822 506.514
102 0 56.0579 10.507 589 64.9066 288.769 504.154
103 0 57.0634 10.2518 585 65.6838 288.397 502.241
104 0 55.0467 9.26486 510 68.0392 288.682 499.339
105 0 61.0318 11.6005 708 63.1186 288.561 502.757
106 0 60.0658 10.4053 625 65.4704 288.458 500.33
107 0 66.0613 12.1705 804 62.3333 288.348 501.754
108 0 67.0559 11.1549 748 63.8917 288.412 497.507
109 0 66.0362 10.994 726 63.9807 288.167 500.388
110 0 70.1103 11.3678 797 63.4517 288.479 496.91
111 0 68.0406 9.80297 667 66.1589 288.619 492.159
112 0 75.0376 13.3266 1000 61.483 288.403 491.012
113 0 76.1197 10.825 824 64.932 288.578 490.223
114 0 77.0746 12.8836 993 61.862 287.688 490.117
115 0 79.2081 10.807 856 64.8598 288.494 489.194
116 0 84.1046 11.8067 993 63.2427 288.756 488.917
117 0 88.0601 11.39 1003 63.8265 288.193 487.92
118 1 41.0332 8.26161 339 64.469 287.962 509.257
119 0 43.0899 9.93271 428 63.5888 288.666 506.57
120 0 45.0522 9.5001 428 64.0444 288.397 506.645
121 0 46.1212 11.6432 537 60.7263 288.443 506.644
122 0 47.018 9.80476 461 62.898 287.813 506.475
123 0 48.0271 11.0979 533 62.5272 288.503 505.281
124 0 48.0534 11.0294 530 63.0396 288.472 504.24
125 0 52.0448 9.85689 513 63.6121 288.172 504.741
126 0 51.026 10.6024 541 63.3068 287.858 504.104
127 0 54.0632 9.98832 540 64.763 287.919 501.631
128 0 54.0453 9.75108 527 65.3852 288.334 499.233
129 0 56.0778 11.0917 622 63.0096 287.707 499.399
130 0 56.031 9.60183 538 65.0855 287.993 497.9
131 0 59.0979 9.64501 570 64.679 287.998 496.511
132 0 62.0589 9.61989 597 64.5008 288.258 493.75
133 0 64.0389 11.0402 707 62.5106 287.736 497.349
134 0 63.046 9.64375 608 64.7829 287.762 493.429
135 0 65.0725 9.00534 586 65.4232 288.58 490.316
136 0 68.101 9.35376 637 64.9419 288.331 490.695
137 0 66.0374 7.58661 501 67.0319 288.014 486.677
138 0 64.1263 6.37804 409 68.8362 288.288 483.156
139 1 80.0815 12.7245 1019 60.1943 288.488 491.819
140 0 79.0859 12.164 962 61.7921 288.048 489.833
141 0 79.0766 11.3814 900 63.2489 288.844 488.616
142 0 85.2045 11.5722 986 62.6937 288.585 487.951
143 0 87.2207 11.8779 1036 62.2934 287.993 483.224
144 0 89.0595 10.7344 956 63.8787 288.351 483.712
145 1 47.0438 9.5443 449 62.0869 287.601 507.497
146 0 49.0237 11.0559 542 60.3395 288.207 505.517
147 0 48.0404 10.4912 504 61.9683 287.865 506.03
148 0 49.0366 9.60508 471 64.1444 288.234 505.45
149 0 52.0197 11.6686 607 61.313 288.334 503.662
150 0 52.0682 10.7167 558 63.8298 288.6 502.78
151 0 53.0724 9.2892 493 65.1034 288.361 500.422
152 0 56.0627 11.4871 644 63.2112 287.658 500.683
153 0 57.0783 10.3892 593 64.0135 287.836 500.944
154 0 60.207 12.4072 747 61.3414 287.839 500.074
155 0 63.0528 12.3071 776 61.1495 287.947 499.403
156 0 62.1342 12.4408 773 60.8448 288.01 501.299
157 0 65.0528 11.9288 776 62.134 287.754 497.446
158 0 67.1131 10.8772 730 63.611 288.426 494.838
159 0 70.049 13.2764 930 60.6688 287.93 494.076
160 0 71.0585 11.5679 822 63.0365 288.262 494.145
161 0 72.117 12.3272 889 62.18 288.029 494.301
162 0 74.0365 11.8455 877 62.2862 287.896 493.694
163 0 76.0265 12.522 952 62.0851 287.749 491.688
164 0 78.1322 13.0036 1016 61.6929 288.047 490.55
165 0 81.1434 13.8274 1122 60.8191 288.232 489.152
166 0 83.1189 13.6311 1133 61.5799 288.42 487.203
167 0 82.0957 11.1821 918 65.5447 287.903 487.794
168 0 86.1158 11.6819 1006 65.1093 288.125 485.298
169 1 46.0265 11.7106 539 63.82 288.137 505.351
170 0 47.0751 10.6001 499 65.7856 288.553 505.81
171 0 49.0455 11.1121 545 65.9816 288.424 503.31
172 0 49.192 11.079 545 66.1046 287.941 504.068
173 0 49.0948 12.2213 600 66.21 287.408 502.532
174 0 49.0289 10.1981 500 68.992 287.988 502.748
175 0 53.0929 12.2804 652 65.7408 287.776 502.699
176 0 55.0284 12.7934 704 65.6193 287.294 500.061
177 0 53.0913 10.9057 579 69.1416 288.173 502.204
178 0 58.1649 12.8944 750 65.3347 288.199 501.861
179 0 59.0753 13.1019 774 65.8475 287.926 499.41
180 0 60.0429 11.9748 719 67.4798 288.118 499.071
181 0 60.0425 12.3413 741 67.3387 287.25 497.644
182 0 62.0786 11.7593 730 68.0671 286.729 498.415
183 0 64.1528 12.0026 770 67.9039 286.214 498.444
184 0 67.1601 12.9243 868 66.0276 286.126 497.253
185 0 69.1855 11.5631 800 67.1788 286.081 497.534
186 0 72.078 11.9731 863 67.3801 285.937 495.342
187 0 74.0763 13.0136 964 65.2168 286.395 495.056
188 0 75.0644 13.0155 977 66.0235 285.856 494.06
189 0 77.086 13.0114 1003 65.7607 285.096 492.416
190 0 80.1104 12.4828 1000 66.577 285.03 492.696
191 0 81.0882 13.3065 1079 66.1613 284.944 488.379
192 0 84.1049 11.0695 931 68.9721 284.016 489.736
193 0 86.0744 12.1639 1047 67.489 284.599 491.707
194 1 44.1157 11.8325 522 65.6743 284.82 511.962
195 0 46.0831 11.501 530 66.4755 284.511 511.011
196 0 47.0211 10.7824 507 68.3156 284.639 510.258
197 0 48.0549 11.4036 548 68.5036 284.836 509.392
198 0 51.1855 12.3863 634 66.8044 284.178 509.585
199 0 49.1247 10.7278 527 70.2922 283.586 509.581
200 0 50.047 12.1686 609 69.0952 283.777 507.816
201 0 55.0478 11.8806 654 68.3823 284.193 509.002
202 0 55.1135 10.8322 597 69.0285 283.437 510.705
203 0 59.074 12.5267 740 67.2865 283.451 507.999
204 0 58.0676 12.9849 754 67.5371 283.525 506.607
205 0 61.085 12.5072 764 66.911 283.717 508.492
206 0 62.0816 11.1466 692 68.9697 283.718 507.994
207 0 64.1662 12.2806 788 68.1155 283.83 504.128
208 0 67.0804 12.4925 838 67.852 283.759 503.351
209 0 67.1612 11.3756 764 69.9712 283.682 504.14
210 0 69.0907 11.3474 784 69.4413 282.773 503.704
211 0 71.0394 11.8104 839 69.4148 282.533 501.955
212 0 75.0715 12.4148 932 68.0644 282.525 501.432
213 0 77.0481 12.0314 927 68.9062 282.542 502.197
214 0 79.0738 13.5696 1073 67.7027 282.22 497.712
215 0 81.0617 13.6069 1103 67.2856 281.598 499.072
216 0 84.0517 12.0164 1010 69.3366 282.072 500.322
217 1 41.0398 10.3314 424 71.1368 281.809 515.264
218 0 46.0305 11.3403 522 69.0479 282.046 515.498
219 0 46.062 12.0056 553 68.0976 281.626 515.128
220 0 46.0344 10.5139 484 70.905 281.775 513.88
221 0 49.0515 11.5593 567 68.8095 281.425 512.437
222 0 48.0415 10.1163 486 72.1914 281.615 512.268
223 0 52.0471 12.431 647 68.422 281.649 510.244
224 0 53.1499 10.7056 569 69.9139 281.562 510.09
225 0 52.0439 10.7794 561 71.0731 281.508 507.652
226 0 54.0149 11.682 631 69.7575 281.536 506.892
227 0 57.02 12.3816 706 67.8442 281.62 505.214
228 0 59.0653 11.919 704 68.5696 282.229 504.179
229 0 61.1255 12.4825 763 67.097 282.03 504.47
230 0 63.0709 12.4939 788 67.5419 281.654 500.783
231 0 62.0727 12.3243 765 69.3242 282.217 498.855
232 0 66.06 12.0648 797 68.5571 282.089 501.119
233 0 69.0381 11.6023 801 68.8527 282.021 500.22
234 0 69.0519 10.1663 702 72.1026 282.047 498.873
235 0 74.1098 12.5085 927 68.5243 282.893 495.682
236 0 76.1071 13.4022 1020 67.5392 282.482 495.068
237 0 78.0814 13.9342 1088 66.4127 282.435 495.622
238 0 80.1056 12.2214 979 69.145 282.244 493.953
239 0 83.1655 13.1665 1095 68.3105 282.199 491.59
240 0 85.2366 12.7175 1084 69.1919 282.826 492.507
241 1 45.0329 10.6589 480 68.0062 282.996 511.392
242 0 45.0474 10.7442 484 70.095 282.674 507.806
243 0 46.0398 10.643 490 69.9224 282.529 508.112
244 0 49.0935 10.8161 531 68.8456 282.83 508.203
245 0 50.027 11.2539 563 68.9059 282.897 508.806
246 0 52.0915 9.40652 490 71.7653 283.665 508.641
247 0 54.0765 11.7056 633 69.6793 283.169 506.61
248 0 55.0359 11.756 647 69.5641 283.3 506.535
249 0 56.0941 11.6946 656 69.5473 283.538 505.68
250 0 57.0481 11.9373 681 69.2849 283.675 505.42
251 0 58.0681 12.6231 733 67.6207 283.046 507.281
252 0 61.1587 11.8544 725 69.2634 282.993 504.92
253 0 62.1568 12.4363 773 68.3182 283.371 504.124
254 0 64.1233 12.3512 792 67.9381 282.913 504.419
255 0 64.0731 12.2985 788 69.2766 283.467 502.364
256 0 66.0642 12.8511 849 68.0082 283.749 500.731
257 0 69.0843 12.188 842 68.2316 283.556 501.213
258 0 71.0714 11.9176 847 69.3058 283.868 499.759
259 0 74.0645 13.2452 981 66.5413 283.849 498.344
260 0 76.0506 13.2938 1011 66.2216 284.15 496.685
261 0 77.0717 13.4031 1033 66.152 283.948 496.615
262 1 43.0262 10.4587 450 66.0911 283.769 515.729
263 0 42.0759 10.5761 445 66.4225 283.843 514.809
264 0 43.0713 11.6319 501 66.2375 283.537 512.994
265 0 46.0465 11.9227 549 65.1967 283.268 512.517
266 0 46.0357 11.8386 545 65.0862 282.993 511.442
267 0 47.0274 10.6746 502 65.263 282.851 513.301
268 0 49.077 11.7367 576 64.3056 282.488 512.392
269 0 50.1326 11.4297 573 64.6789 282.916 510.696
270 0 51.1252 10.9535 560 64.7161 283.129 510.525
271 0 53.028 11.3713 603 64.2189 282.753 509.141
272 0 54.1379 10.2701 556 65.25 283.25 509.613
273 0 57.0591 12.6536 722 61.4044 282.504 510.144
274 0 57.088 10.2824 587 64.2998 282.102 509.814
275 0 60.1316 12.2731 738 61.4119 281.93 507.201
276 0 61.1884 10.77 659 62.6783 282.011 507.083
277 0 62.1001 11.0628 687 62.7103 282.472 505.537
278 0 65.0816 10.5406 686 62.4111 281.924 505.875
279 0 68.0773 11.1638 760 61.6566 282.263 504.996
280 0 69.093 11.9983 829 60.5802 282.144 501.765
281 0 72.0682 11.1561 804 61.25 282.022 501.913
282 0 74.0823 10.9743 813 61.1587 282.148 501.925
283 1 37.0471 8.82659 327 61.4465 282.248 519.199
284 0 37.0494 11.2553 417 60.5755 282.01 516.127
285 0 39.0398 11.5779 452 59.9978 281.677 517.852
286 0 40.0732 10.7553 431 61.4548 281.756 516.195
287 0 40.0435 10.8132 433 62.2725 281.952 516.028
288 0 40.0507 10.7863 432 62.9375 281.41 514.704
289 0 44.0444 12.4647 549 59.6667 281.672 515.561
290 0 45.0651 11.3392 511 62.2407 281.233 513.89
291 0 45.0474 10.4113 469 63.9552 281.211 515.74
292 0 48.0304 13.2833 638 60.7743 281.031 513.987
293 0 50.0667 11.5845 580 64.0586 281.502 512.564
294 0 51.1598 10.9852 562 64.9715 281.566 511.087
295 0 51.0559 11.4972 587 64.4651 282.123 510.656
296 0 54.0661 12.8361 694 62.5187 282.061 509.465
297 0 57.1696 13.5737 776 61.0103 281.874 509.648
298 0 57.0753 13.7713 786 61.5013 281.472 509.132
299 0 58.1221 12.4049 721 63.5049 281.522 509.53
300 0 60.0706 12.735 765 62.4706 280.897 506.748
301 0 59.0569 11.5313 681 64.7768 280.507 506.567
302 0 60.0809 11.4512 688 65.5814 280.219 505.087
303 0 63.1096 12.5496 792 63.2311 280.789 502.501
304 0 67.0619 12.8836 864 62.1817 281.019 500.109
305 0 69.0722 12.2191 844 63.0782 280.943 501.4
306 0 70.1909 12.8222 900 62.4633 281.11 500.58
307 0 72.211 13.0866 945 61.4434 280.605 501.222
308 1 36.1636 11.1991 405 62.3975 280.709 516.501
309 0 35.023 9.82211 344 64.1657 280.837 518.497
310 0 37.035 11.4756 425 63.48 280.353 515.28
311 0 38.0401 11.1987 426 63.6362 280.62 515.803
312 0 38.1022 11.8891 453 63.011 280.208 515.885
313 0 40.0505 12.1597 487 62.5852 280.08 513.632
314 0 39.054 9.60209 375 66.9973 280.077 513.813
315 0 43.0253 12.9691 558 61.7581 279.989 512.423
316 0 44.0935 12.3828 546 63.185 281.006 512.264
317 0 45.0295 11.3925 513 64.2612 280.454 512.821
318 0 45.0252 12.4375 560 63.3911 280.102 511.718
319 0 49.1109 11.8507 582 63.1168 280.938 511.04
320 0 49.0466 12.6818 622 62.9244 281.148 510.584
321 0 49.1233 12.2345 601 63.9651 280.94 508.889
322 0 51.053 11.7525 600 64.3983 280.858 507.842
323 0 52.0707 10.793 562 65.9537 280.884 507.689
324 0 54.0642 12.7626 690 62.8449 281.454 505.641
325 0 55.1706 11.3466 626 65.238 280.903 505.395
326 0 59.0809 12.2205 722 63.2659 281.367 506.82
327 0 59.0372 12.2126 721 64.5825 281.642 505.125
328 0 60.0425 10.6258 638 66.0266 282.094 504.092
329 0 62.0543 10.7003 664 66.128 281.084 503.158
330 0 66.0937 14.3887 951 60.7529 280.829 502.678
331 1 36.0317 11.1846 403 63.1662 280.759 516.633
332 0 35.0773 9.46481 332 64.7711 280.88 518.006
333 0 39.0846 10.2086 399 63.1353 280.897 515.917
334 0 39.1899 11.8143 463 61.946 280.976 514.555
335 0 39.0379 11.143 435 63.0161 281.908 512.499
336 0 42.1356 12.3411 520 61.0154 281.292 512.49
337 0 42.0766 11.1463 469 62.4883 280.917 510.727
338 0 44.0702 11.6178 512 61.6016 280.994 510.738
339 0 44.0972 9.72851 429 63.9138 280.881 510.862
340 0 45.0628 11.4951 518 62.1255 280.863 510.597
341 0 49.0786 13.3256 654 58.9725 280.31 509.251
342 0 51.019 12.8775 657 60.0578 280.843 505.918
343 0 51.0518 11.5569 590 61.483 280.322 506.917
344 0 54.1182 12.5651 680 59.5985 280.875 507.756
345 0 55.0395 12.7545 702 60.2108 281.077 506.323
346 0 56.153 12.1632 683 60.9356 280.731 503.653
347 0 58.1393 13.158 765 59.6614 281.22 503.553
348 0 59.054 11.9382 705 60.983 280.932 502.583
349 0 61.1614 12.0664 738 60.2412 280.589 502.341
350 0 63.148 11.1326 703 61.8535 280.943 502.68
351 0 65.0399 11.516 749 60.9907 280.766 498.645
352 0 66.0477 10.8406 716 61.7947 280.905 499.872
353 0 69.0332 12.6316 872 59.8131 281.049 497.686
354 0 72.0863 11.7637 848 60.4127 280.734 498.702
355 0 71.0849 11.4792 816 61.6985 281.551 495.977
356 0 78.1952 12.878 1007 59.6743 281.394 494.032
357 0 77.0607 11.6142 895 61.943 280.958 491.927
358 0 81.1623 11.8651 963 61.2046 281.199 493.487
359 0 83.0874 12.0476 1001 61.6124 281.418 489.326
360 0 87.1321 13.623 1187 59.5181 281.356 490.792
361 0 90.0859 11.7221 1056 62.2377 281.114 488.073
362 0 91.1825 10.4516 953 64.2613 281.156 486.492
363 1 45.0927 9.4472 426 64.2019 281.345 507.617
364 0 49.2071 10.9334 538 61.9591 281.065 508.673
365 0 50.0492 10.8493 543 62.0681 281.564 509.512
366 0 50.0698 11.7236 587 62.3066 281.465 507.22
367 0 51.0566 10.6548 544 62.5055 281.031 508.873
368 0 53.0608 9.72469 516 64.2791 282.002 506.132
369 0 56.0571 10.5071 589 62.961 281.647 506.715
370 0 58.1033 11.8066 686 62.2901 281.891 504.984
371 0 56.0935 10.7143 601 64.386 282.309 503.148
372 0 60.018 12.113 727 62.6259 281.911 502.962
373 0 64.08 12.7497 817 61.0796 282.246 503.14
374 0 66.0271 12.3737 817 61.4308 281.924 501.573
375 0 65.2058 11.8701 774 63.0491 282.123 500.371
376 0 66.1029 11.3308 749 64.0307 282.315 498.692
377 0 71.0999 10.6611 758 63.5963 281.744 501.759
378 0 73.1282 12.2798 898 62.7673 281.796 498.493
379 0 74.0959 11.917 883 63.4734 281.7 497.753
380 0 77.0929 11.2332 866 63.7991 281.749 498.475
381 0 79.2231 12.0546 955 63.9089 280.897 495.135
382 0 81.0791 11.6306 943 64.5482 281.505 494.54
383 0 84.1087 10.9145 918 65.3214 281.831 492.917
384 0 88.1529 14.2366 1255 61.1626 281.607 491.566
385 0 89.0751 11.8103 1052 64.75 282.014 490.574
386 0 91.1516 12.386 1129 63.9079 281.809 488.422
387 0 94.1509 12.9261 1217 62.9581 282.212 489.257
388 0 97.1468 12.2289 1188 64.6599 281.944 484.388
389 0 99.0896 12.2414 1213 63.9794 281.845 485.776
390 0 102.098 14.2412 1454 61.7146 281.5 481.366
391 0 106.09 13.9222 1477 61.9729 281.558 482.439
392 1 53.0716 11.0982 589 63.163 282.09 507.525
393 0 54.0676 10.8938 589 62.5908 281.508 508.367
394 0 55.097 11.7429 647 62.3988 281.348 507.289
395 0 58.0229 10.5648 613 63.2887 281.4 507.073
396 0 58.0297 10.7876 626 62.5367 281.28 508.268
397 0 59.0503 10.7027 632 63.1392 281.606 506.266
398 0 63.0383 9.88288 623 63.0112 281.88 506.241
399 0 65.1148 11.3338 738 61.8252 281.264 503.869
400 0 66.0491 11.1129 734 62.4836 281.687 502.048
401 0 69.1669 11.971 828 61.0435 281.501 502.356
402 0 70.1365 10.6792 749 62.7089 281.74 502.964
403 0 71.0372 11.5714 822 62.3674 282.052 499.356
404 0 75.0467 12.2724 921 61.3051 281.504 499.769
405 0 77.0562 12.5623 968 61.3533 281.867 496.243
406 0 81.0353 12.6735 1027 61.2386 281.956 496.292
407 0 83.1289 12.1859 1013 61.0691 282.195 498.038
408 1 45.0798 9.9601 449 63.7216 281.886 512.492
409 0 48.0295 11.1806 537 62.0726 281.851 512.791
410 0 47.035 11.4383 538 62.6208 281.29 510.206
411 0 49.1063 10.4671 514 63.2237 281.407 512.947
412 0 49.091 10.1037 496 63.506 281.504 510.825
413 0 52.1416 11.603 605 60.8215 281.311 511.375
414 0 52.0839 10.1759 530 63.5528 281.292 508.794
415 0 54.1697 10.264 556 63.3687 281.576 508.462
416 0 57.1404 11.498 657 61.4932 281.458 506.998
417 0 60.0515 9.92481 596 62.8255 281.72 506.384
418 0 62.0691 10.5528 655 62.7618 281.684 504.099
419 0 61.1074 10.2934 629 63.4913 281.175 503.126
420 0 65.0489 10.8073 703 62.0555 280.872 504.849
421 0 66.2426 12.0617 799 61.5582 280.539 500.372
422 0 67.2814 10.8351 729 62.5679 280.255 499.322
423 0 72.3067 10.9533 792 61.5227 280.519 498.951
424 0 72.2344 10.9366 790 61.2468 280.944 497.006
425 0 75.2384 10.5 790 61.4646 280.939 496.262
426 0 76.2648 9.48013 723 62.9129 280.813 495.438
427 0 81.2866 10.9981 894 60.6633 281.096 494.643
428 0 83.3712 10.7111 893 60.3998 281.074 494.436
429 0 85.2793 11.2923 963 59.6334 280.859 492.142
430 1 44.0197 9.7002 427 59.0749 280.845 513.438
431 0 46.2059 10.9077 504 58.2817 280.972 511.284
432 0 49.1608 11.1878 550 57.4782 281.624 511.171
433 0 46.1029 10.8236 499 59.7455 281.202 510.222
434 0 50.0436 9.91135 496 59.6109 282.131 507.865
435 0 51.0227 10.6227 542 58.6476 281.397 509.146
436 0 55.0536 11.3526 625 56.9632 280.898 510.475
437 0 55.0458 12.3715 681 56.884 281.213 510.028
438 0 56.1055 13.136 737 56.673 280.938 506.563
439 0 58.0885 11.6718 678 57.7094 280.757 505.176
440 0 59.1885 10.644 630 59.6064 281.03 503.979
441 0 64.0983 12.4028 795 56.766 280.626 505.141
442 0 64.0566 12.6294 809 56.6316 281.386 504.571
443 0 66.0895 11.6357 769 57.4551 281.074 505.352
444 0 68.084 11.383 775 57.7419 280.661 500.596
445 0 69.0455 11.3548 784 58.3112 281.195 501.277
446 0 72.1699 12.6646 914 56.8928 281.141 497.998
447 0 72.0767 9.79512 706 60.0482 280.32 497.792
448 0 77.0667 14.2344 1097 55.0711 281.083 495.758
449 0 79.1294 12.5996 997 56.9288 280.921 495.475
450 0 82.0967 11.7179 962 57.6726 281.099 494.33
451 0 83.1135 11.1173 924 58.6829 280.86 492.776
452 0 88.1583 11.831 1043 57.721 280.891 493.413
453 0 90.0507 15.1248 1362 54.4662 281.35 489.2
454 0 93.1447 13.5918 1266 56.0687 281.504 488.669
455 1 46.0272 12.145 559 55.9785 280.769 513.746
456 0 48.0175 12.1206 582 57.2354 280.947 507.931
457 0 52.0619 12.5428 653 55.8346 281.204 510.953
458 0 52.0666 12.7529 664 56.2952 280.78 507.815
459 0 53.0312 12.3135 653 57.1256 281.378 508.338
460 0 56.1078 11.567 649 57.4453 281.408 508.445
461 0 55.0543 11.643 641 58.3245 281.398 506.68
462 0 58.0696 11.7445 682 56.2962 280.872 509.704
463 0 58.1153 11.2191 652 58.1534 280.873 506.275
464 0 63.1129 12.5331 791 56.1884 281.11 504.018
465 0 64.1174 12.3367 791 56.225 281.011 505.325
466 0 65.0675 14.1392 920 54.6087 281.239 503.363
467 0 65.0557 12.7429 829 56.0736 281.532 504.419
468 0 68.1256 13.9742 952 54.8309 281.838 500.152
469 0 69.1541 12.2914 850 56.4635 281.536 499.555
470 0 71.1179 12.0504 857 56.9032 281.07 498.747
471 0 77.1641 12.8428 991 55.3421 281.406 497.995
472 0 77.2408 14.1117 1090 54.8468 280.661 497.627
473 0 79.0455 11.3732 899 57.2414 281.258 493.637
474 0 83.0815 13.89 1154 55.0364 281.215 492.512
475 0 86.0787 12.3143 1060 56.1198 281.157 493.317
476 1 44.0214 11.6761 514 55.2101 281.043 512.292
477 0 47.1436 9.86348 465 56.4 280.978 515.03
478 0 46.0735 9.81041 452 57.427 281.67 514.323
479 0 48.1574 13.3313 642 54.6791 281.4 509.438
480 0 51.2067 9.95962 510 57.2784 281.573 511.839
481 0 52.0362 12.0493 627 56.051 281.539 509.797
482 0 53.0509 10.6502 565 57.5646 280.943 508.244
483 0 56.0742 12.2873 689 55.9158 281.107 506.356
484 0 57.1461 11.4969 657 56.726 280.963 506.309
485 0 58.0498 13.4195 779 55.0205 281.227 503.076
486 0 59.0489 11.5836 684 57.2105 281.116 503.94
487 0 63.0992 11.7593 742 56.8962 281.023 502.261
488 0 62.0887 11.1776 694 58.098 281.354 504.303
489 0 65.2758 12.7306 831 56.5355 281.355 502.989
490 0 68.0457 13.3881 911 56.0077 281.135 500.364
491 0 69.0619 11.4535 791 58.3894 281.866 501.241
492 0 69.1081 10.7947 746 59.3365 280.964 497.26
493 0 75.0649 11.9763 899 57.6997 281 498.994
494 0 78.0758 11.5657 903 58.7996 280.971 497.079
495 0 80.0546 11.6046 929 58.7922 280.829 496.019
496 0 83.0653 13.062 1085 57.4922 280.485 494.505
497 0 84.1794 11.7606 990 59.604 281.077 494.642
498 1 44.0742 11.3899 502 56.7769 280.886 514.721
499 0 45.0289 11.2372 506 57.253 280.664 514.292
500 0 45.0266 9.3056 419 59.8473 280.809 515.029
501 0 49.0618 10.0893 495 58.4141 280.554 514.002
502 0 50.0764 11.6422 583 57.4168 280.485 513.467
503 0 52.0728 11.1767 582 58.4605 280.766 511.746
504 0 53.0556 12.7414 676 57.071 280.179 510.772
505 0 53.0692 10.3638 550 60.8636 280.638 507.465
506 0 52.0849 10.1181 527 61.8425 280.021 506.901
507 0 55.2067 11.0494 610 60.6148 279.854 508.956
508 0 59.2087 11.603 687 60.4672 280.902 506.109
509 0 59.112 10.5562 624 62.0048 281.117 504.559
510 0 62.1195 11.1881 695 60.7209 281.187 505.319
511 0 63.1028 11.2515 710 61.0394 281.135 502.858
512 0 64.0765 9.5823 614 62.601 280.45 502.316
513 0 68.0877 11.588 789 60.5387 280.254 502.894
514 0 70.0827 12.2569 859 59.8033 280.59 501.272
515 0 73.0412 12.2397 894 59.7852 279.856 500.18
516 0 76.0502 12.4391 946 59.6564 279.974 497.716
517 0 77.0883 12.7386 982 59.5978 280.17 498.784
518 1 39.051 10.1918 398 59.7663 279.985 517.683
519 0 40.0468 11.3867 456 59.2544 280.548 516.077
520 0 42.0875 10.787 454 59.5022 280.381 516.077
521 0 44.2142 10.6753 472 60.5254 280.087 515.305
522 0 47.0855 9.8544 464 61.528 280.621 513.226
523 0 46.0727 11.764 542 59.6568 280.109 511.592
524 0 48.1029 11.3714 547 59.106 280.711 513.444
525 0 50.0994 11.2975 566 59.7703 280.585 511.143
526 0 51.0406 11.4223 583 60.175 280.067 510.748
527 0 53.0606 11.4774 609 59.5649 280.036 509.447
528 0 55.1319 12.0983 667 58.8876 279.676 508.862
529 0 55.1825 10.8187 597 60.5477 280.131 508.079
530 0 54.0824 10.6134 574 61.5348 280.164 506.857
531 0 57.0467 11.4643 654 59.4908 280.405 509.072
532 0 58.074 10.3144 599 61.2604 280.152 504.053
533 0 61.16 11.4781 702 59.933 280.124 501.966
534 0 62.2423 10.4109 648 61.4213 280.168 503.046
535 0 66.0739 10.9726 725 60.0055 280.425 503.414
536 0 67.1128 10.1024 678 61.6342 280.255 500.24
537 0 71.1687 11.0863 789 59.8834 280.36 498.777
538 1 36.054 9.8186 354 58.1243 280.364 518.839
539 0 40.0713 10.5063 421 57.4893 280.299 516.741
540 0 40.0246 10.2687 411 58.6083 280.18 514.72
541 0 41.0458 10.0132 411 59.0389 279.333 513.024
542 0 45.0468 10.7222 483 58.118 279.727 513.826
543 0 45.0519 11.6532 525 57.3752 279.6 511.425
544 0 46.0813 9.87385 455 59.8945 280.664 511.756
545 0 49.109 11.3421 557 58.3734 280.384 510.783
546 0 49.1245 9.68966 476 60.7458 279.99 511.09
547 0 49.116 11.2794 554 59.2365 280.193 509.433
548 0 52.1457 11.8514 618 57.9353 280.277 510.066
549 0 53.1084 10.9587 582 59.378 280.4 506.261
550 0 55.0769 13.0545 719 56.5007 280.477 508.01
551 0 58.0964 10.1039 587 60.1312 279.954 506.881
552 0 58.1509 10.6791 621 60.0934 279.9 505.473
553 0 59.0838 10.6797 631 60.6466 280.506 503.181
554 0 62.0888 11.6768 725 58.5034 279.883 506.246
555 0 64.1462 11.24 721 58.9778 280.173 504.775
556 0 65.1696 10.7412 700 59.78 279.976 502.844
557 0 68.1003 13.1717 897 56.9888 280.136 500.176
558 0 71.08 11.5926 824 58.6881 280.616 498.776
559 0 73.0738 12.8363 938 57.3444 280.357 496.851
560 0 75.1148 10.3042 774 59.9948 280.954 493.968
561 0 78.1084 12.3418 964 57.8019 280.397 493.48
562 0 81.1138 12.6366 1025 57.8137 280.837 492.812
563 0 85.1779 11.5875 987 58.6657 279.696 492.558
564 0 87.0653 12.0255 1047 58.1108 280.225 489.543
565 1 46.0397 10.0348 462 59.2532 280.346 511.314
566 0 48.0592 9.86284 474 59.7236 279.772 509.941
567 0 50.0449 11.5496 578 57.5467 279.957 511.958
568 0 50.0532 10.4089 521 60.0326 279.741 509.983
569 0 54.1201 10.9386 592 58.5912 280.166 509.296
570 0 54.0767 10.5221 569 60.0896 280.016 505.956
571 0 58.2256 11.5757 674 58.9436 280.134 504.601
572 0 58.0216 10.858 630 60.0984 279.525 504.156
573 0 61.0939 11.9979 733 58.6958 280.181 503.749
574 0 61.1193 11.7475 718 59.9554 280.373 500.334
575 0 64.1097 11.3399 727 60.0839 280.047 502.114
576 0 65.0879 11.8148 769 59.9545 280.099 497.905
577 0 66.1235 10.7224 709 61.3075 280.729 497.504
578 0 71.1079 12.3334 877 59.4869 280.91 496.45
579 0 75.1012 12.4232 933 58.8424 282.623 500.027
580 0 76.0513 12.0708 918 59.8224 282.302 497.886
581 0 76.0739 10.871 827 61.4087 281.509 494.865
582 0 80.166 11.4138 915 59.8885 281.924 495.191
583 0 81.1756 10.4834 851 61.7556 282.342 490.304
584 0 83.1264 12.2584 1019 59.8077 281.986 489.813
585 0 88.179 13.2798 1171 58.5995 282.01 489.67
586 0 91.1821 13.4237 1224 58.4477 281.626 488.734
587 0 90.1087 13.4837 1215 59.0716 281.713 488.946
588 1 44.0349 11.3546 500 61.546 280.544 510.984
589 0 46.1488 10.4661 483 62.2795 280.623 510.174
590 0 49.0401 10.9094 535 61.3402 280.323 510.31
591 0 51.0754 12.2564 626 59.9329 280.24 509.35
592 0 53.1448 12.0614 641 60.3448 280.265 507.699
593 0 52.0827 11.2897 588 61.8163 280.435 508.459
594 0 54.0504 11.5448 624 61.1426 280.845 508.393
595 0 57.1179 11.5375 659 61.1077 280.155 507.621
596 0 58.0517 12.8162 744 59.9288 280.633 503.944
597 0 61.0551 12.7753 780 59.9769 280.183 503.051
598 0 62.0872 13.2394 822 59.6861 280.971 502.206
599 0 65.163 12.5992 821 60.2935 280.35 501.951
600 0 68.1178 12.8894 878 59.8405 280.618 500.681
601 0 67.1812 10.5238 707 63.2249 281.091 501.447
602 0 71.1438 13.03 927 60.4186 280.549 497.781
603 0 73.1245 12.5539 918 60.8181 280.328 498.269
604 0 76.2286 11.8459 903 61.1251 280.732 496.614
605 0 82.234 12.1726 1001 60.7862 280.633 494.552
606 0 82.0705 11.5023 944 62.446 280.853 492.703
607 0 84.1029 13.0911 1101 60.7675 281.004 492.882
608 0 86.1056 12.3105 1060 62.0538 280.648 490.035
609 0 90.192 12.7062 1146 61.5716 280.782 488.306
610 1 45.0824 10.1592 458 62.4454 280.998 513.408
611 0 49.0618 12.0256 590 60.922 281.368 510.663
612 0 50.069 11.9036 596 61.3255 281.658 509.822
613 0 51.0927 12.6828 648 61.0108 280.281 507.52
614 0 53.1055 12.8612 683 60.7731 280.507 506.931
615 0 53.078 12.6795 673 61.896 280.972 505.86
616 0 55.0304 11.1756 615 62.4472 280.584 507.15
617 0 58.0663 12.0035 697 61.6958 281.486 505.043
618 0 59.1089 13.1622 778 60.4653 281.062 503.496
619 0 63.076 13.6661 862 59.8388 281.644 501.746
620 0 63.0656 12.7169 802 61.2706 281.55 500.604
621 0 65.0956 13.1192 854 60.9309 280.913 497.56
622 0 71.0942 12.6593 900 61.0056 281.306 496.33
623 0 71.1014 11.7719 837 61.9152 281.082 497.762
624 0 75.0869 13.3179 1000 59.658 281.034 497.54
625 0 75.0445 11.9263 895 62.7464 280.961 493.812
626 0 77.0353 11.4363 881 63.1805 280.928 491.77
627 0 83.1001 13.1769 1095 60.4676 281.194 491.08
628 0 85.1001 11.9859 1020 62.0294 281.68 489.226
629 1 39.079 11.0034 430 60.893 280.302 510.505
630 0 43.0604 9.84663 424 60.3467 281.29 512.849
631 0 43.0671 9.9612 429 62.1888 280.737 510.028
632 0 45.0123 10.2639 462 61.6775 280.584 511.409
633 0 48.0627 10.7152 515 61.9573 281.388 508.394
634 0 49.0353 11.298 554 61.5866 280.583 506.677
635 0 52.0435 10.9908 572 60.8724 280.911 508.154
636 0 52.0936 11.6137 605 60.3107 281.469 507.615
637 0 54.0204 10.6441 575 61.4156 280.887 504.972
638 0 55.0938 11.6347 641 60.4867 281.53 504.685
639 0 57.0269 11.2929 644 60.3338 281.584 503.463
640 0 57.0106 11.682 666 60.03 281.234 501.288
641 0 61.0485 12.6948 775 58.3923 281.079 502.83
642 0 61.0117 11.4568 699 60.2561 280.894 501.205
643 0 65.0655 12.5105 814 58.2826 281.005 499.285
644 0 66.16 11.4873 760 59.7895 280.938 497.997
645 0 66.0678 8.6275 570 62.9947 280.814 497.479
646 0 71.0661 11.2008 796 60.1055 280.971 496.278
647 0 72.0913 10.8335 781 60.6184 280.731 494.968
648 0 77.0874 12.9204 996 57.8112 280.585 491.602
649 0 78.2062 13.2726 1038 57.3362 280.926 493.278
650 0 80.1312 11.0694 887 59.7486 281.22 493.019
651 0 84.2008 13.2897 1119 57.3637 281.471 490.878
652 0 86.1798 11.4644 988 59.583 280.974 487.692
653 0 88.216 11.1318 982 59.9857 280.808 486.091
654 0 93.1674 11.8174 1101 58.9083 280.774 484.747
655 0 94.1418 12.5024 1177 58.5803 280.546 482.628
656 1 45.1257 8.79765 397 60.5264 281.683 510.327
657 0 47.0429 9.60826 452 60.8518 281.312 507.135
658 0 50.1398 9.73279 488 60.8525 281.344 506.6
659 0 50.0628 10.327 517 60.0619 281.153 505.12
660 0 55.0871 11.8358 652 57.4248 282.103 505.014
661 0 55.0649 10.5693 582 58.1718 281.997 505.967
662 0 54.0968 8.94693 484 60.1736 281.688 505.69
663 0 58.0682 11.1765 649 57.98 281.49 503.508
664 0 60.0983 12.6293 759 56.0171 280.98 500.74
665 0 61.1614 10.8075 661 58.3888 281.806 501.141
666 0 63.0454 10.9762 692 57.7269 281.356 501.308
667 0 68.0688 10.7391 731 57.6525 281.904 499.33
668 0 69.0478 11.0358 762 57.3255 280.933 500.063
669 0 69.1041 11.5912 801 57.3783 280.931 496.689
670 0 72.052 11.4778 827 57.2878 281.862 496.013
671 0 73.1466 10.3901 760 58.4921 281.568 495.016
672 0 76.1535 11.0829 844 58.0201 281.924 492.018
673 0 78.0788 9.73375 760 59.5895 282.205 493.443
674 0 82.1342 11.0551 908 58.3678 282.164 492.605
675 0 84.1071 12.389 1042 57.1392 282.099 489.64
676 1 44.1849 9.93553 439 58.0797 282.064 510.278
677 0 46.027 10.1028 465 59.2839 282.48 510.671
678 0 45.0577 9.85403 444 60.8378 282.266 508.149
679 0 47.069 9.15677 431 60.7773 281.684 507.926
680 0 47.0635 10.2627 483 57.1263 281.795 509.663
681 0 52.0717 11.9643 623 55.9342 281.637 505.65
682 0 52.1046 10.8244 564 57.5762 281.745 508.473
683 0 54.0656 10.9312 591 58.0643 281.836 505.355
684 0 55.0255 10.5951 583 58.8216 281.539 503.381
685 0 54.1311 9.90189 536 59.9291 281.229 503.606
686 0 59.0501 12.4132 733 57.0259 281.834 502.495
687 0 60.0678 11.204 673 58.8648 281.422 502.545
688 0 62.072 12.3566 767 57.8383 281.635 500.596
689 0 64.0475 9.22753 591 60.7783 281.565 500.068
690 0 67.1086 10.6991 718 59.3719 282.166 500.06
691 0 69.0944 11.5494 798 58.2657 281.652 499.711
692 0 70.1232 11.1661 783 59.613 282.139 495.845
693 0 74.0391 10.3324 765 60.4771 282.088 496.362
694 1 150.353 12.1448 1826 59.5498 282.343 460.712
695 1 79.067 12.8499 1016 58.1929 282.229 492.945
696 1 42.0196 11.3756 478 58.3326 282.161 511.632
697 0 45.13 10.1041 456 60.4496 282.452 510.088
698 0 47.0632 10.3903 489 59.7587 281.83 512.031
699 0 46.1051 10.9966 507 60.2051 281.759 509.984
700 0 48.2355 10.9878 530 59.9811 281.592 509.228
701 0 51.0585 11.6533 595 59.3025 281.998 509.889
702 0 53.0165 12.3358 654 59.2615 282.489 507.633
703 0 52.1006 11.2283 585 61.2615 282.54 506.585
704 0 54.0703 12.4653 674 59.5519 282.593 505.058
705 0 56.078 12.3043 690 60.0217 281.851 504.11
706 0 57.0278 12.4676 711 59.9367 282.709 505.948
707 0 59.0306 11.8244 698 60.7478 282.046 503.322
708 0 59.1594 11.9339 706 60.3343 281.647 503.915
709 0 63.0573 11.6719 736 59.9565 281.158 504.189
710 0 64.0938 12.903 827 60.0496 281.365 501.282
711 0 69.033 13.1097 905 58.5028 281.001 501.848
712 0 69.0927 12.4471 860 60.1709 281.538 499.151
713 0 70.0401 12.8212 898 60.1336 281.628 497.405
714 0 73.1184 12.3772 905 60.2022 281.295 498.112
715 0 76.0639 12.1477 924 60.4362 281.75 497.209
716 0 78.2917 10.9079 854 61.3408 281.84 497.755
717 1 38.0434 10.5406 401 60.389 281.925 515.638
718 0 41.0325 10.8938 447 59.6488 282.541 514.881
719 0 42.1917 11.4951 485 59.1876 282.493 514.709
720 0 44.0905 11.4083 503 59.3499 282.086 513.72
721 0 46.0283 10.7543 495 59.5091 282.418 513.347
722 0 46.0395 12.6196 581 58.3098 282.108 509.818
723 0 49.0229 11.974 587 57.9676 282.027 510.027
724 0 49.1216 11.8889 584 59.0223 281.346 509.368
725 0 50.0993 12.5351 628 58.5287 281.654 508.457
726 0 51.1334 11.0104 563 59.7975 281.787 508.103
727 0 55.0648 13.2934 732 56.9112 280.984 507.213
728 0 55.0967 10.1458 559 60.4222 281.138 507.431
729 0 57.147 10.4817 599 59.8147 281.506 506.938
730 0 57.1149 12.1159 692 57.9538 281.468 507.47
731 0 59.098 11.8278 699 58.8913 280.757 502.944
732 0 60.1263 11.1598 671 59.9598 280.845 502.99
733 0 63.2874 10.5076 665 59.8241 281.146 504.985
734 0 65.0809 12.4307 809 57.9122 281.601 501.965
735 0 65.1666 9.05372 590 61.2814 281.429 501.758
736 0 69.1245 10.9223 755 59.1775 282.028 500.64
737 0 72.1029 12.5654 906 57.1821 281.627 499.321
738 0 76.1943 13.7281 1046 55.8815 281.153 496.569
739 0 78.2063 11.3418 887 58.0981 280.963 497.14
740 0 81.1158 11.1569 905 58.4033 281.052 496.349
741 0 83.1066 12.5141 1040 57.2221 281.5 493.757
742 0 87.1618 12.1498 1059 57.6006 281.087 493.19
743 1 44.0354 10.6278 468 57.9786 281.051 513.844
744 0 44.0372 9.8326 433 59.5289 280.801 513.406
745 0 49.0858 11.0215 541 58.1312 280.974 510.111
746 0 48.0077 10.6233 510 59.7726 281.345 511.041
747 0 52.1276 11.1841 583 58.4443 280.619 510.618
748 0 53.0581 11.9115 632 57.8307 280.646 508.884
749 0 53.0484 12.4038 658 57.614 280.801 509.266
750 0 56.1202 13.7918 774 56.5452 281.289 504.708
751 0 56.0654 13.2702 744 57.2608 281.132 504.526
752 0 59.0871 11.5254 681 59.1865 281.33 505.436
753 0 59.0717 11.6807 690 59.6638 281.914 504.565
754 0 63.0543 11.6249 733 59.3997 281.457 503.643
755 0 65.202 11.9015 776 59.2332 281.205 503.906
756 0 66.0986 12.8747 851 57.584 280.747 505.345
757 0 69.1195 13.5128 934 57.5086 281.064 498.589
758 0 70.0779 10.103 708 61.8023 281.816 499.562
759 0 73.0358 10.9261 798 60.307 281.023 499.219
760 0 75.1211 12.4599 936 58.5278 281.254 501.028
761 0 79.1153 12.8041 1013 58.536 281.873 497.766
762 0 81.1946 11.9589 971 59.6941 281.184 496.56
763 0 83.1378 11.0058 915 61.3027 281.178 494.403
764 0 84.1723 11.9042 1002 60.7944 281.123 491.646
765 0 88.2911 10.7372 948 61.0886 281.018 490.379
766 1 49.1062 11.8722 583 57.6518 281.787 511.283
767 0 52.0562 9.87394 514 59.5078 281.409 508.854
768 0 52.1018 11.6311 606 57.3581 281.609 510.997
769 0 54.0385 11.5288 623 57.9872 281.371 508.461
770 0 56.0926 11.9267 669 57.3572 281.019 508.768
771 0 57.0277 11.3804 649 58.7396 281.499 506.277
772 0 58.1004 8.77791 510 61.5274 281.657 507.439
773 0 62.0514 10.8942 676 59.8639 281.547 506.149
774 0 63.0983 12.742 804 58.2973 281.923 504.356
775 0 65.0624 11.9885 780 59.6385 281.847 502.509
776 0 66.0972 12.7691 844 58.6896 281.665 502.348
777 0 68.0519 11.0504 752 61.0731 281.569 499.406
778 0 70.0761 11.0879 777 60.6525 280.965 496.664
779 0 74.1434 11.181 829 60.2678 281.23 496.585
780 0 77.1742 12.6856 979 58.0174 281.034 497.537
781 0 79.1009 12.0226 951 58.715 281.852 497.863
782 0 82.0823 13.8641 1138 56.8392 281.75 496.688
783 0 84.1888 11.5811 975 59.6728 280.744 493.929
784 0 88.1616 12.4544 1098 58.3443 281.406 494.05
785 0 89.1642 12.3368 1100 59.0782 281.223 492.643
786 1 44.0598 10.5084 463 59.6847 281.294 513.151
787 0 45.0202 11.3505 511 58.8219 281.315 513.053
788 0 49.0458 12.7024 623 57.382 281.008 510.961
789 0 49.0222 10.7094 525 60.7486 281.318 509.531
790 0 52.0597 11.6213 605 58.9124 281.321 510.074
791 0 53.1096 12.8602 683 57.8419 282.018 509.745
792 0 52.0414 10.2995 536 61.3862 281.312 505.875
793 0 56.0574 12.6656 710 58.4282 281.962 505.559
794 0 58.0579 11.2646 654 59.7844 281.084 504.774
795 0 59.1064 14.0086 828 57.43 281.72 501.972
796 0 59.0373 9.90899 585 61.2752 280.945 506.277
797 0 63.1254 10.6772 674 60.2938 281.074 503.065
798 0 62.0556 10.5712 656 61.1311 281.271 501.537
799 0 66.0886 12.7556 843 58.3357 282.234 499.597
800 0 70.1182 11.8657 832 58.643 281.383 499.875
801 0 69.0564 10.7448 742 60.6968 281.325 496.72
802 0 73.0747 10.2635 750 61.416 281.024 497.544
803 0 77.1107 12.1643 938 59.032 281.537 497.184
804 0 79.1248 11.8168 935 59.1551 281.071 496.851
805 0 81.122 11.871 963 58.9595 281.43 495.502
806 0 85.1842 12.7488 1086 57.5359 281.146 492.991
807 0 90.1028 12.8631 1159 57.0302 280.686 493.402
808 1 46.1956 12.3388 570 57.6491 281.611 511.565
809 0 47.1402 11.6673 550 58.0473 282.227 511.295
810 0 48.0951 11.9971 577 57.2669 281.198 510.357
811 0 49.1103 12.4414 611 56.4943 281.278 511.712
812 0 53.042 12.8954 684 55.6038 281.602 510.863
813 0 53.1011 10.8472 576 58.6007 280.884 510.215
814 0 54.0942 13.458 728 55.4972 281.527 510.756
815 0 54.0114 10.6644 576 58.9948 280.99 509.245
816 0 57.0491 11.4112 651 58.8771 281.206 505.055
817 0 62.0667 12.3738 768 56.0273 280.797 507.449
818 0 63.0471 12.6572 798 56.2769 281.158 504.445
819 0 64.1024 12.3084 789 57.0798 281.142 503.937
820 0 66.0623 12.9726 857 57.4667 281.083 500.776
821 0 67.0929 13.0118 873 56.8843 280.199 499.37
822 0 69.0438 11.4999 794 58.762 280.273 498.178
823 0 73.0745 12.0425 880 57.4614 280.281 500.162
824 0 74.0549 10.7488 796 59.0628 280.467 498.611
825 0 79.2129 12.6747 1004 56.7082 281.179 495.094
826 0 80.1236 12.6804 1016 56.8032 281.474 495.538
827 0 82.2478 11.976 985 57.3523 281.115 494.379
828 0 85.2505 12.9383 1103 56.7978 280.876 493.737
829 0 86.1623 13.8344 1192 55.995 280.936 492.623
830 0 89.1185 11.4903 1024 58.6738 280.992 491.3
831 1 47.0899 11.6161 547 57.4113 280.876 511.812
832 0 45.1021 10.3765 468 59.8803 281.609 509.78
833 0 50.047 13.5273 677 56.0945 281.412 510.848
834 0 51.0487 11.205 572 58.5035 281.147 510.281
835 0 52.0644 11.7739 613 58.6721 280.941 507.997
836 0 55.0653 11.4954 633 58.0632 280.701 506.722
837 0 55.1269 11.4826 633 58.0316 280.299 508.096
838 0 58.1423 12.8306 746 56.7466 280.409 506.823
839 0 59.0631 11.4623 677 58.1418 280.208 505.507
840 0 61.1118 11.389 696 58.0488 280.858 505.216
841 0 63.0684 11.654 735 57.6585 281.257 503.147
842 0 65.0964 12.9347 842 56.3432 281.309 500.65
843 0 66.1001 10.469 692 58.7384 280.678 500.488
844 0 68.0716 10.489 714 58.7451 280.504 494.842
845 0 66.0748 8.8536 585 60.4205 280.574 491.22
846 1 51.0352 7.07354 361 62.0859 280.751 480.781
847 1 73.0935 7.20995 527 61.4573 281.77 425.051
848 0 75.0438 7.00924 526 62.2662 281.945 419.529
849 0 77.1491 5.87175 453 63.3157 281.124 417.826
850 0 79.0775 9.59818 759 60.2042 281.149 412.783
851 0 85.1657 8.01966 683 62.3631 281.029 406.698
852 0 83.0954 7.10027 590 62.7373 280.466 479.575
853 1 97.1498 12.28 1193 57.6471 280.686 488.768
854 1 52.0195 12.2262 636 55.7924 280.612 511.475
855 0 52.0487 11.2587 586 57.3754 280.761 511.101
856 0 54.0997 11.0906 600 57.69 280.96 511.073
857 0 53.0479 12.0834 641 57.8097 280.652 507.438
858 0 54.0433 10.3621 560 59.4393 280.327 507.305
859 0 58.0491 12.4894 725 57.6621 280.553 504.676
860 0 60.0529 10.8737 653 59.6202 279.818 506.723
861 0 62.0965 12.8671 799 59.3617 279.995 504.887
862 0 64.1109 13.2739 851 59.2573 280.667 502.254
863 0 66.141 13.32 881 58.546 280.066 504.749
864 0 68.0902 13.8493 943 58.3595 281.072 501.458
865 0 69.0706 13.2184 913 59.4907 281.331 501.003
866 0 72.124 13.3936 966 59.1335 281.054 499.936
867 0 72.2346 12.404 896 60.5312 280.491 501.298
868 0 77.1614 11.949 922 60.5369 281.151 502.6
869 0 80.1787 12.9586 1039 60.4437 280.693 495.76
870 0 81.1555 13.3078 1080 60.3528 281.005 495.889
871 0 85.3703 13.5879 1160 59.9603 280.6 496.757
872 1 48.2008 9.58491 462 64.7727 280.452 513.554
873 0 49.0854 11.4291 561 63.5668 280.303 512.31
874 0 53.133 12.9298 687 61.2882 280.796 512.849
875 0 52.1569 10.8519 566 66.1166 280.426 509.765
876 0 56.1208 11.9029 668 63.6632 280.109 511.093
877 0 57.2076 14.2988 818 61.0049 280.628 508.692
878 0 59.126 12.9554 766 62.2963 280.433 509.394
879 0 60.0766 13.566 815 62.8478 280.351 506.475
880 0 64.1647 13.9173 893 61.6752 280.63 506.895
881 0 63.2689 12.5812 796 64.4812 280.607 505.732
882 0 67.2303 13.9669 939 61.9627 280.547 505.691
883 0 67.0898 12.6547 849 64.5253 280.497 503.285
884 0 71.2171 14.1399 1007 62.4429 280.524 502.138
885 0 75.6836 14.7588 1117 50.0215 280.093 504.85
886 0 77.2955 13.2349 1023 63.1916 281.131 499.743
887 0 77.2202 12.7039 981 64.1223 280.939 500.037
888 0 79.2051 11.1735 885 66.2893 280.964 500.04
889 0 82.2313 13.5107 1111 63.0522 280.93 498.212
890 0 85.232 13.0819 1115 63.5659 280.964 496.465
891 0 86.282 13.3052 1148 63.8833 280.869 494.178
892 0 93.1284 14.1096 1314 61.8128 281.326 492.548
893 1 47.1713 10.4937 495 66.0121 281.402 512.339
894 0 49.0604 14.4312 708 61.2373 281.017 512.109
895 0 48.2893 10.3543 500 67.17 281.166 512.304
896 0 51.1623 11.9033 609 64.7192 280.924 511.03
897 0 52.2853 12.7952 669 63.7848 281.306 510.142
898 0 54.0573 13.5597 733 63.2906 281.52 507.426
899 0 55.045 11.209 617 66.4522 281.486 508.77
900 0 59.1687 12.8277 759 63.5837 281.273 508.235
901 0 58.1107 12.1492 706 65.3499 281.135 507.245
902 0 61.1484 12.6087 771 64.0662 281.589 504.065
903 0 64.2551 12.2948 790 63.9114 281.658 506.032
904 0 66.1431 12.8812 852 63.0704 282.005 505.237
905 0 67.0811 12.6861 851 63.9248 281.582 500.954
906 0 67.1514 14.3705 965 61.5026 281.639 504.57
907 0 69.0694 12.8132 885 63.3661 280.76 500.967
908 0 74.1624 13.8615 1028 61.57 282.041 500.274
909 0 75.2948 13.4139 1010 62.9446 281.594 497.058
910 0 77.2689 12.683 980 63.7541 281.733 496.751
911 0 79.2128 12.5864 997 63.4784 282.498 496.746
912 0 82.1071 12.6177 1036 63.7857 282.84 495.466
913 0 85.1673 12.7631 1087 63.1435 281.909 494.588
914 1 43.1502 10.5446 455 64.2396 281.736 514.945
915 0 46.0905 11.9114 549 62.5865 281.601 515.002
916 0 46.0618 11.3977 525 63.4476 281.398 513.68
917 0 51.1459 11.9658 612 62.6895 282.087 512.186
918 0 49.2874 11.2808 556 64.1996 281.022 512.428
919 0 52.0315 13.2228 688 61.9273 280.33 510.972
920 0 53.1523 12.5112 665 63.006 281.156 510.877
921 0 56.0895 12.587 706 62.4178 281.167 510.024
922 0 55.1616 11.2578 621 64.5813 280.771 508.639
923 0 56.1306 12.3106 691 63.0405 280.449 509.25
924 0 59.0469 13.5486 800 61.5475 280.708 508.089
925 0 63.215 12.5603 794 62.1625 281.044 505.695
926 0 62.1143 13.7327 853 61.6835 280.764 503.836
927 0 64.1073 12.5103 802 62.9888 280.138 504.577
928 0 69.3888 12.2498 850 63.0259 280.249 504.296
929 0 69.0611 12.5396 866 63.4584 280.361 500.524
930 0 69.0987 12.2578 847 63.9646 280.464 501.128
931 0 74.067 12.0836 895 64.3106 281.331 499.35
932 0 76.1284 12.781 973 63.8736 281.23 496.834
933 0 79.1181 12.475 987 64.1905 281.62 497.964
934 1 40.1978 13.8565 557 61.404 280.944 516.199
935 0 41.0284 11.9186 489 63.3579 281.427 515.086
936 0 43.0789 12.1173 522 64.9444 281.126 511.494
937 0 45.1705 11.689 528 64.2746 280.485 515.153
938 0 48.0418 12.9054 620 63.5226 280.471 511.898
939 0 47.0712 12.0243 566 65.341 280.636 514.297
940 0 48.0588 11.3195 544 66.8401 280.882 513.607
941 0 50.0716 13.0613 654 65.0826 281.122 511.765
942 0 52.0564 12.2175 636 65.8176 281.101 511.292
943 0 54.0543 13.2644 717 63.9093 280.664 511.868
944 0 54.1244 13.2842 719 64.5688 281.773 509.971
945 0 57.053 14.2499 813 63.0418 281.15 507.216
946 0 59.057 11.9546 706 65.1431 282.02 508.637
947 0 61.0524 12.9725 792 63.9293 281.378 507.581
948 0 63.0561 13.4483 848 63.4941 281.178 506.282
949 0 64.158 12.4848 801 64.6692 281.597 504.603
950 0 67.1127 12.8739 864 64.669 281.339 500.397
951 0 70.1238 12.863 902 64.5809 281.382 500.239
952 0 71.1017 13.3752 951 63.8149 281.528 500.8
953 0 75.1392 12.9626 974 64.4538 281.786 500.48
954 0 76.1882 14.0179 1068 63.3371 281.467 496.601
955 0 79.3079 12.2056 968 65.4349 281.246 498.623
956 1 40.0349 11.8647 475 66.7684 280.756 513.301
957 0 43.0624 12.8186 552 64.2862 281.158 514.897
958 0 45.0738 12.4684 562 65.1441 280.966 514.08
959 0 46.1162 11.3626 524 66.0305 281.107 515.624
960 0 50.0679 12.8226 642 64.5592 281.885 512.361
961 0 50.0507 12.3675 619 65.8368 281.968 512.418
962 0 54.0861 11.7775 637 65.416 281.953 512.011
963 0 53.0444 11.7449 623 66.1284 281.942 512.645
964 0 56.0706 13.0906 734 64.5804 281.471 509.755
965 0 56.0718 11.9668 671 67.0536 282.039 508.142
966 0 57.1358 10.1863 582 69.268 281.361 508.887
967 0 62.112 14.3129 889 63.784 281.308 508.249
968 0 62.0836 13.3368 828 66.029 282.028 507.321
969 0 65.0779 13.5837 884 66.1176 281.817 505.149
970 0 66.0397 12.2805 811 68.0925 281.793 504.924
971 0 67.1115 12.3973 832 68.4651 281.333 501.507
972 0 72.0792 12.292 886 67.9865 281.651 502.739
973 0 73.1659 12.3281 902 68.4357 281.113 500.651
974 0 78.0383 13.0961 1022 67.2622 282.022 500.542
975 1 41.02 11.5797 475 67.6358 281.964 517.64
976 0 45.0737 13.6665 616 65.3458 281.731 516.151
977 0 44.0402 12.9654 571 68.5429 281.732 512.338
978 0 45.0188 12.5281 564 69.0709 281.138 513.633
979 0 49.0532 13.0675 641 68.22 281.736 512.554
980 0 47.0864 11.7869 555 71.5135 282.501 512.076
981 0 50.0619 12.964 649 69.7442 282.137 512.746
982 0 53.0994 12.26 651 69.9309 281.556 511.714
983 0 53.0507 14.1563 751 68.1997 281.878 510.443
984 0 55.0306 11.8298 651 71.5668 281.598 509.484
985 0 55.0472 12.4075 683 71.5578 282.12 506.707
986 0 56.0393 12.4377 697 71.5036 282.184 505.753
987 0 60.0885 12.4483 748 70.5495 281.906 507.725
988 0 62.0413 13.2654 823 69.4824 281.95 506.058
989 0 63.0728 11.2251 708 72.3573 282.394 504.318
990 0 67.0564 13.69 918 68.6122 282.511 505.792
991 0 68.0546 13.063 889 70.4443 282.153 502.182
992 0 70.127 12.2207 857 71.3897 281.971 503.092
993 0 73.0682 13.3026 972 69.6728 281.979 502.614
994 0 76.0317 13.4023 1019 69.6349 281.995 500.052
995 0 78.1448 11.9138 931 71.9678 281.929 496.31
996 0 80.0977 12.7095 1018 71.1591 281.971 497.504
997 0 84.191 13.1368 1106 70.5398 282.084 495.953
998 0 89.0551 13.879 1236 68.9798 281.963 495.456
999 0 89.1328 13.3621 1191 70.6339 281.842 493.417
1000 1 49.0926 12.9144 634 71.0237 282.077 511.263
1001 0 50.314 12.7797 643 71.3997 282.395 510.591
1002 0 52.0536 12.9674 675 70.5082 282.187 511.659
1003 0 55.0823 15.2317 839 66.6472 281.744 511.95
1004 0 55.0809 15.2866 842 67.9477 281.79 509.824
1005 0 57.0686 13.0019 742 71.6752 281.659 507.128
1006 0 60.1029 14.1923 853 68.8933 281.818 508.179
1007 0 59.0293 12.282 725 72.9766 282.353 507.317
1008 0 61.0208 13.733 838 70.4905 281.654 506.678
1009 0 64.0389 13.4137 859 70.8568 282.116 507.063
1010 0 68.0281 13.9795 951 69.571 282.584 505.315
1011 0 70.1031 13.794 967 69.4178 282.033 506.138
1012 0 72.1615 14.1211 1019 69.9127 282.064 503.405
1013 0 75.0851 14.9963 1126 68.206 281.862 501.642
1014 0 78.2953 14.2793 1118 68.7818 281.489 501.505
1015 0 78.0847 12.6273 986 71.6521 281.847 503.055
1016 0 81.173 12.7752 1037 71.2768 281.569 502.467
1017 0 84.0587 14.252 1198 69.2162 282.068 499.948
1018 0 86.1007 13.2403 1140 71.0605 281.516 498.673
1019 1 48.1559 12.8749 620 69.8742 281.26 517.04
1020 0 47.0749 12.8944 607 71.2867 281.461 517.071
1021 0 48.0665 12.774 614 71.6075 281.199 515.024
1022 0 50.0332 13.8308 692 70.9075 281.166 515.558
1023 0 51.1069 13.0511 667 72.2984 281.046 513.909
1024 0 56.0394 14.6861 823 68.3026 281.173 513.981
1025 0 57.0664 15.1928 867 67.2953 280.871 512.917
1026 0 58.1412 14.4132 838 69.2888 280.748 512.006
1027 0 57.0404 13.0434 744 72.2755 280.551 510.042
1028 0 61.039 13.4668 822 70.073 280.513 512.069
1029 0 62.1148 14.0063 870 69.6069 280.199 510.125
1030 0 64.0755 13.5309 867 70.474 279.836 508.181
1031 0 68.1729 13.0404 889 70.2835 280.169 509.787
1032 0 70.0899 13.9392 977 68.5456 280.047 508.24
1033 0 71.3699 13.6893 977 69.2978 279.916 506.053
1034 0 70.204 13.3326 936 70.375 280.269 503.946
1035 0 78.1068 14.1601 1106 67.8282 280.065 502.586
1036 0 79.3537 13.673 1085 68.5705 279.909 501.291
1037 0 84.1368 15.9502 1342 64.43 279.244 503.133
1038 0 84.1304 13.693 1152 68.1858 279.505 500.156
1039 0 88.1582 14.2811 1259 67.0834 279.237 497.538
1040 0 90.17 13.6409 1230 68.2675 279.498 494.709
1041 0 94.1187 13.2705 1249 68.2994 279.377 494.883
1042 1 46.0347 12.0778 556 70.2302 279.414 517.626
1043 0 50.0589 12.4054 621 69.43 279.932 516.53
1044 0 51.1713 13.0542 668 68.1766 279.984 517.316
1045 0 53.0145 14.6564 777 66.2059 279.734 516.664
1046 0 52.0784 13.4797 702 69.3048 279.299 513.218
1047 0 55.1067 12.0494 664 69.9729 279.917 514.846
1048 0 55.0645 13.8746 764 68.8181 279.444 512.334
1049 0 59.2164 15.9415 944 65.2818 279.69 511.28
1050 0 60.0827 12.6492 760 69.1263 279.107 511.903
1051 0 62.21 14.0653 875 67.9691 279.227 509.907
1052 0 64.1772 13.8834 891 68.8047 279.339 506.507
1053 0 70.1683 16.1754 1135 63.9604 279.714 510.109
1054 0 69.061 13.1768 910 69.2945 279.514 507.227
1055 0 71.0552 12.8773 915 69.5628 279.545 506.941
1056 0 74.1132 14.1405 1048 67.521 278.962 506.196
1057 0 76.103 13.2058 1005 69.3721 279.117 504.376
1058 0 79.1429 15.0866 1194 66.5779 279.745 502.583
1059 0 80.053 14.0032 1121 68.4746 279.689 501.112
1060 0 82.23 13.7784 1133 68.3063 279.363 501.193
1061 0 86.0524 13.9334 1199 68.6422 279.37 499.263
1062 1 47.0402 12.0535 567 69.418 278.769 520.044
1063 0 48.1713 15.3203 738 66.2615 280.06 519.182
1064 0 48.0242 13.4932 648 69.3704 279.719 517.181
1065 0 49.0806 14.2623 700 68.7986 279.567 517.287
1066 0 51.247 12.6251 647 70.3122 280.199 518.692
1067 0 51.0791 12.9603 662 71.2236 280.101 514.101
1068 0 55.1149 13.7712 759 68.892 280.169 514.675
1069 0 57.0819 14.2777 815 68.8736 280.757 513.816
1070 0 57.1991 13.2869 760 70.9013 280.091 512.779
1071 0 59.042 14.1086 833 69.9688 280.504 512.526
1072 0 59.0976 13.1985 780 72.118 280.92 510.27
1073 0 66.1181 14.3531 949 68.51 280.439 512.585
1074 0 66.1329 13.6846 905 70.2376 280.635 511.284
1075 0 66.0692 12.9107 853 72.068 280.428 509.043
1076 0 71.0961 14.4734 1029 69.6744 279.837 507.215
1077 0 70.0666 13.6442 956 71 279.608 508.435
1078 0 73.0686 14.329 1047 71.3582 280.034 505.181
1079 0 76.1397 14.3027 1089 71.0174 279.977 502.867
1080 0 80.083 15.9335 1276 68.5188 280.625 503.923
1081 0 81.0968 14.4149 1169 71.5406 280.395 500.37
1082 0 84.2608 13.5175 1139 72.4548 281.106 501.891
1083 0 89.1499 15.1767 1353 70.1929 280.83 500.551
1084 0 91.042 15.6082 1421 70.0169 280.323 498.02
1085 0 96.2253 15.1727 1460 70.1274 280.635 498.38
1086 0 96.1872 14.0559 1352 72.2463 280.17 494.808
1087 0 99.3446 15.0285 1493 70.9524 280.136 493.876
1088 0 103.23 15.4703 1597 70.5354 280.557 491.535
1089 1 50.1272 14.5829 731 70.7346 280.784 519.057
1090 0 53.0242 13.7861 731 72.446 280.629 516.384
1091 0 53.077 14.1869 753 73.2762 280.951 516.312
1092 0 56.1564 15.1185 849 71.4817 280.747 516.477
1093 0 56.0761 14.7657 828 72.715 281.285 514.03
1094 0 59.279 13.428 796 73.6168 281.014 515.879
1095 0 60.1596 15.542 935 71.7872 281.06 512.288
1096 0 62.0722 15.4175 957 72.4044 281.015 508.773
1097 0 64.1161 15.7527 1010 71.8594 280.622 509.483
1098 0 65.1419 13.4629 877 75.2486 281.098 508.868
1099 0 70.0632 14.2728 1000 72.352 280.377 507.8
1100 0 72.0917 14.5093 1046 72.5593 281.568 505.916
1101 0 74.0611 13.7454 1018 73.5422 281.334 505.003
1102 0 75.1944 14.3495 1079 73.0426 281.099 503.97
1103 0 78.1095 14.0956 1101 73.3352 280.69 499.944
1104 0 81.2125 13.5078 1097 73.6408 280.949 501.815
1105 0 83.1249 14.2797 1187 72.401 280.891 500.905
1106 0 84.1052 14.3273 1205 72.8066 280.585 498.094
1107 0 87.1188 13.6136 1186 72.629 280.433 497.094
1108 0 90.0979 13.896 1252 72.4585 281.026 496.111
1109 0 94.0839 16.1771 1522 68.9297 280.985 494.989
1110 0 98.2645 14.0946 1385 71.543 281.166 492.636
1111 0 98.1706 13.5377 1329 72.5365 281.132 491.398
1112 0 104.156 16.2833 1696 67.6781 280.797 489.176
1113 0 107.213 14.4199 1546 70.9638 281.141 488.381
1114 0 112.302 15.5117 1742 69.2021 281.728 485.232
1115 0 113.359 14.3438 1626 70.9662 281.471 485.304
1116 0 117.203 13.7369 1610 71.1317 281.931 484.704
1117 0 121.095 15.0378 1821 69.9758 281.316 482.299
1118 0 124.174 15.6233 1940 69.6979 281.694 479.408
1119 1 68.1062 13.1119 893 73.3057 281.813 504.427
1120 0 72.1374 13.2664 957 72.3333 281.894 506.529
1121 0 72.132 14.5289 1048 71.876 281.898 505.111
1122 0 77.1034 13.3976 1033 72.9593 281.44 502.71
1123 0 78.2663 12.5597 983 74.4252 281.052 503.256
1124 0 81.2087 14.9122 1211 72.0396 281.566 498.072
1125 0 83.1149 13.2588 1102 74.2722 281.433 498.485
1126 0 85.0878 13.8915 1182 73.5812 281.275 498.302
1127 0 91.1412 13.2103 1204 73.6561 281.446 497.82
1128 0 94.1389 14.7017 1384 72.1069 281.368 492.957
1129 0 96.3177 13.8085 1330 73.3135 281.468 492.433
1130 0 99.3248 15.0818 1498 72.1929 281.057 489.336
1131 0 102.163 13.8309 1413 73.3942 280.924 488.891
1132 0 107.265 15.3825 1650 71.6218 280.902 485.412
1133 0 109.109 13.7844 1504 73.4654 281.289 487.094
1134 0 113.282 13.7798 1561 72.7636 280.7 486.34
1135 0 116.118 13.5724 1576 73.5254 280.73 483.067
1136 0 121.308 14.8217 1798 71.7403 281.103 479.844
1137 0 125.173 14.5319 1819 72.3898 281.051 478.717
1138 0 127.138 13.1825 1676 73.994 281.346 479.106
1139 0 134.224 15.3475 2060 70.349 281.669 478.338
1140 0 138.177 15.2051 2101 71.5045 281.611 472.819
1141 1 59.2023 13.9184 824 72.4745 281.913 508.711
1142 0 63.2096 14.6339 925 71.013 282.172 508.657
1143 0 63.2476 14.0559 889 71.9393 281.901 506.37
1144 0 66.1445 13.6822 905 72.2807 280.656 506.506
1145 0 68.2996 14.2753 975 71.0523 281.171 506.558
1146 0 72.2506 14.7127 1063 70.2775 281.592 504.536
1147 0 72.0742 14.6238 1054 70.9886 281.34 502.576
1148 0 75.3338 13.022 981 72.8563 281.684 501.393
1149 0 78.0964 13.7266 1072 72.3424 282.193 500.415
1150 0 80.1199 13.979 1120 71.9589 282.099 499.692
1151 0 81.1002 14.217 1153 72.2559 281.836 497.798
1152 0 86.2304 13.348 1151 72.1138 281.292 497.804
1153 0 87.2284 14.6397 1277 70.1856 281.839 497.966
1154 0 93.2531 13.9727 1303 70.6316 281.555 494.262
1155 0 95.1788 17.1257 1630 66.1043 281.077 490.607
1156 0 99.1134 12.6824 1257 71.0111 281.206 493.379
1157 0 101.118 14.2309 1439 69.517 281.58 488.613
1158 0 104.052 13.5606 1411 69.842 281.539 489.773
1159 0 108.138 15.1103 1634 68.4749 281.38 483.017
1160 0 114.115 13.2411 1511 69.7174 281.226 483.051
1161 0 116.259 13.7881 1603 69.34 281.43 477.746
1162 0 123.256 13.7518 1695 68.6171 281.385 479.899
1163 1 57.0941 13.5566 774 68.3036 281.385 509.806
1164 0 56.0893 12.8902 723 70.0968 281.31 508.581
1165 0 59.0932 13.6395 806 69.0521 281.428 509.674
1166 0 60.0738 12.3182 740 71.2527 281.204 505.753
1167 0 64.0449 12.5693 805 69.6683 280.94 505.739
1168 0 65.0623 13.1566 856 69.7792 281.376 503.252
1169 0 69.2542 13.8186 957 68.1557 281.513 500.929
1170 0 70.126 13.162 923 69.0303 281.343 503.159
1171 0 72.1104 13.41 967 68.4643 281.628 503.162
1172 0 74.042 13.6679 1012 68.0277 281.342 500.66
1173 0 79.1326 14.1408 1119 67.025 281.603 496.957
1174 0 79.201 11.9064 943 70.0583 281.678 496.487
1175 0 83.1462 14.3001 1189 66.434 281.777 495.353
1176 0 86.1582 13.5216 1165 67.5888 281.32 493.627
1177 0 92.2262 14.6921 1355 65.2679 281.856 492.813
1178 0 94.1007 14.4738 1362 65.8906 282.214 491.095
1179 1 49.1642 13.6278 670 65.9075 281.284 515.115
1180 0 49.2447 10.5392 519 69.2505 281.158 513.651
1181 0 53.1632 13.0541 694 66.2306 280.663 511.522
1182 0 53.1252 14.2305 756 66.0873 280.806 510.366
1183 0 53.076 13.0379 692 67.7197 280.682 510.77
1184 0 58.0532 13.6771 794 65.5189 280.972 510.851
1185 0 60.0762 14.4483 868 64.5219 281.211 508.745
1186 0 64.2191 14.8242 952 63.4506 280.846 506.175
1187 0 65.2703 14.2791 932 63.7425 281.035 504.29
1188 0 67.1153 15.6447 1050 62.221 280.986 504.869
1189 0 69.1143 12.5589 868 65.9942 282.014 504.056
1190 0 68.1727 12.8937 879 66.81 281.48 500.776
1191 0 73.3015 13.4649 987 65.9828 281.233 500.198
1192 0 74.1631 12.2837 911 67.0648 281.441 497.497
1193 0 79.1429 13.3556 1057 65.8174 281.645 497.569
1194 0 84.0407 14.731 1238 63.1519 281.088 497.855
1195 0 85.103 13.6188 1159 64.9836 281.525 497.415
1196 0 88.2991 12.8767 1137 66.0572 281.957 495.01
1197 0 93.0929 15.9088 1481 61.9595 281.373 497.47
1198 0 93.0929 15.9411 1484 145.486 280.385 497.377
1199 0 98.2611 15.3265 1506 63.2689 281.346 492.578
1200 1 52.1131 13.6434 711 65.2532 281.714 514.61
1201 0 55.087 13.0339 718 65.9554 281.763 512.914
1202 0 57.1603 14.5905 834 63.8573 281.669 512.897
1203 0 59.1429 13.442 795 65.1686 281.958 512.65
1204 0 61.1732 13.2574 811 65.6597 281.926 510.297
1205 0 61.1774 13.6488 835 66.2204 281.964 506.94
1206 0 65.1699 13.7794 898 64.9777 281.913 507.843
1207 0 66.0796 14.5431 961 64.3205 281.745 506.565
1208 0 68.1349 12.1083 825 67.3042 281.764 506.045
1209 0 71.1273 14.1015 1003 64.6261 281.782 505.378
1210 0 72.1477 14.304 1032 64.905 281.833 503.303
1211 0 75.1991 13.072 983 65.4364 281.861 502.992
1212 0 79.2063 13.2187 1047 65.7784 282.085 499.949
1213 0 81.2445 12.8132 1041 66.366 281.676 500.095
1214 0 85.1699 14.2069 1210 64.6893 282.31 498.338
1215 0 88.1759 14.1308 1246 64.195 281.951 498.182
1216 0 90.1488 13.4777 1215 64.9556 282.027 497.561
1217 0 93.2928 12.3804 1155 66.5541 281.816 495.52
1218 1 48.0679 13.6266 655 65.5099 281.979 514.623
1219 0 50.2374 12.6599 636 66.2186 282.2 514.723
1220 0 53.0592 12.2505 650 67.1569 282.051 512.115
1221 0 54.1017 11.2935 611 67.1113 281.949 514.309
1222 0 56.2428 12.9794 730 66.2014 282.077 512.003
1223 0 57.0701 12.2306 698 67.7077 282.466 509.703
1224 0 60.126 13.1224 789 65.5399 282.446 510.582
1225 0 61.1179 14.153 865 65.1295 282.527 507.99
1226 0 61.0463 14.6774 896 65.1897 282.78 506.6
1227 0 69.2265 16.9877 1176 60.8019 283.1 506.184
1228 0 67.0629 13.972 937 65.555 282.599 505.571
1229 0 69.1512 15.4155 1066 64.0929 282.469 502.734
1230 0 72.1662 14.134 1020 66.1176 282.091 501.352
1231 0 72.0924 12.6782 914 68.3556 282.387 499.573
1232 0 77.1327 13.1851 1017 67.1534 282.406 499.087
1233 0 80.2614 14.5774 1170 65.5897 282.657 498.134
1234 0 81.1623 12.7645 1036 68.5241 282.266 497.499
1235 0 84.1395 13.2993 1119 68.2359 283.127 496.275
1236 0 88.1614 15.6418 1379 64.9848 282.925 493.945
1237 0 89.1014 13.6137 1213 67.8887 282.096 492.345
1238 0 94.1664 14.6655 1381 66.1108 282.378 492.804
1239 0 96.1402 13.4387 1292 68.0704 282.611 489.038
1240 1 48.1562 11.2551 542 69.6458 282.804 513.251
1241 0 51.0411 12.1667 621 68.5201 282.514 513.084
1242 0 52.0694 12.541 653 69.4441 282.544 509.403
1243 0 53.1913 13.1036 697 69.1593 282.458 507.828
1244 0 53.0591 12.929 686 70.156 282.332 506.604
1245 0 58.0474 14.5054 842 66.7292 282.162 506.824
1246 0 58.0812 13.5156 785 67.772 282.674 508.524
1247 0 58.2988 11.2867 658 71.4574 283.125 505.12
1248 0 60.0565 13.3707 803 68.8966 282.558 501.625
1249 0 65.0782 13.8295 900 67.1844 281.878 504.678
1250 0 66.0724 12.7587 843 69.1886 281.985 503.562
1251 0 71.2559 13.6269 971 67.0113 282.476 502.484
1252 0 73.0344 13.0486 953 68.2319 282.162 500.103
1253 0 74.0763 12.9326 958 68.7964 282.487 498.348
1254 0 78.1716 13.2657 1037 67.5005 282.177 500.006
1255 0 81.312 13.0239 1059 67.9821 282.488 499.497
1256 0 85.0711 13.4711 1146 67.5401 282.846 495.361
1257 0 88.087 13.7024 1207 67.2535 282.209 491.178
1258 0 88.1011 14.2337 1254 66.9011 281.618 492.593
1259 0 91.1737 13.8527 1263 67.5954 281.601 490.214
1260 1 52.0308 12.089 629 68.8283 281.534 510.792
1261 0 53.1224 10.2217 543 71.1105 281.552 510.494
1262 0 53.3354 12.562 670 67.8761 281.687 511.421
1263 0 56.1528 13.7304 771 66.9935 281.423 508.507
1264 0 57.0733 12.9833 741 69.2416 282.027 504.804
1265 0 59.1636 13.657 808 67.5037 282.019 507.203
1266 0 62.1975 14.679 913 66.1654 281.652 505.622
1267 0 66.0492 14.2015 938 66.549 281.941 504.581
1268 0 65.1877 13.8216 901 67.8313 282.013 501.35
1269 0 67.0635 13.6736 917 68.494 281.937 499.927
1270 0 72.141 14.2083 1025 66.8576 281.77 502.591
1271 0 74.1631 13.5377 1004 67.8695 281.925 498.89
1272 0 75.0704 12.788 960 69.4615 281.931 498.37
1273 0 76.1528 12.6194 961 69.7732 281.625 496.22
1274 0 81.1283 14.1011 1144 67.7535 281.195 497.461
1275 0 83.4385 14.7654 1232 67.6153 281.356 493.098
1276 0 87.0962 13.2612 1155 69.8043 281.46 492.732
1277 0 90.1552 13.1107 1182 69.2902 281.917 492.753
1278 0 91.0918 12.7893 1165 71.006 282.353 490.869
1279 1 50.0879 13.1569 659 68.2701 281.989 515.147
1280 0 49.0717 11.2081 550 72.7927 282.038 511.591
1281 0 51.1526 13.0394 667 69.4348 281.837 512.673
1282 0 56.0536 13.4871 756 68.8188 282.581 510.276
1283 0 57.0483 13.0766 746 68.9879 282.209 509.598
1284 0 58.1879 15.7765 918 65.9521 281.993 508.659
1285 0 59.0733 13.9319 823 68.164 282.234 509.174
1286 0 61.1382 14.1973 868 68.0242 282.268 507.653
1287 0 63.1279 13.7815 870 68.5023 282.151 505.651
1288 0 63.1529 13.7127 866 69.3984 281.823 503.852
1289 0 66.1178 13.0978 866 70.1409 281.485 503.475
1290 0 68.0883 14.2315 969 68.8019 282.319 502.875
1291 0 72.081 14.775 1065 67.5474 282.837 500.666
1292 0 75.1248 14.7621 1109 67.376 281.803 499.683
1293 0 76.2192 13.9335 1062 68.7053 281.881 501.702
1294 0 79.2131 15.0859 1195 67.1188 281.19 499.178
1295 0 81.1155 13.0431 1058 70.0076 281.546 499.29
1296 0 84.0819 15.4849 1302 67.1705 281.801 498.794
1297 1 45.2396 13.8153 625 67.7984 282.416 516.043
1298 0 44.0258 12.6517 557 71.2011 281.154 513.526
1299 0 47.2871 12.4135 587 70.1414 281.072 515.324
1300 0 51.144 12.4941 639 69.5383 281.623 514.387
1301 0 52.0818 14.9188 777 66.9974 281.113 512.726
1302 0 50.3293 12.9746 653 70.1654 281.821 513.634
1303 0 52.3891 14.8886 780 67.7628 281.619 513.781
1304 0 55.1227 13.6604 753 69.5126 282.162 509.858
1305 0 56.0544 13.3263 747 70.3628 282.107 507.858
1306 0 60.133 14.8504 893 67.9362 282.206 508.609
1307 0 62.1896 14.0216 872 68.0298 281.288 510.095
1308 0 63.2699 12.9445 819 70.0952 281.516 507.552
1309 0 64.1812 14.1007 905 68.7746 282.422 505.485
1310 0 67.1644 13.4744 905 69.1381 282.372 504.794
1311 0 68.0816 12.5731 856 70.1086 282.451 505.853
1312 0 68.3372 13.2724 907 70.3484 282.367 501.979
1313 0 73.1332 12.8806 942 70.0276 282.562 503.28
1314 0 75.2406 14.354 1080 68.5426 281.928 500.244
1315 0 79.1795 14.7639 1169 67.6595 282.255 500.252
1316 0 80.168 13.1474 1054 70.1509 282.129 498.315
1317 0 82.189 12.3861 1018 70.2957 282.461 500.495
1318 0 84.2964 14.8523 1252 67.8546 282.209 494.871
1319 0 90.1616 13.132 1184 69.3809 281.712 497.079
1320 0 91.3436 14.9436 1365 67.4542 281.592 496.533
1321 1 49.1216 13.8839 682 66.7009 281.984 516.749
1322 0 50.1569 13.6173 683 67.9736 281.605 515.34
1323 0 49.2574 11.7343 578 71.372 281.329 516.005
1324 0 53.1978 13.8352 736 67.8125 282.636 516.63
1325 0 53.1888 15.6236 831 66.1408 282.321 514.941
1326 0 54.2071 12.5076 678 70.0531 281.895 514.173
1327 0 54.1218 14.7261 797 67.941 281.734 512.789
1328 0 54.0498 13.7096 741 69.1134 281.982 511.525
1329 0 54.1855 12.0512 653 71.9694 282.312 508.666
1330 0 62.1492 15.1892 944 66.196 282.566 510.801
1331 0 62.1881 14.3114 890 67.2034 282.43 509.908
1332 0 65.2961 13.7068 895 67.7386 282.525 508.494
1333 0 67.1326 14.1362 949 67.1201 282.621 507.537
1334 0 70.4397 15.0625 1061 66.2573 282.352 507.046
1335 0 70.3652 14.24 1002 68.3004 282.337 504.282
1336 0 73.2594 13.7457 1007 67.717 282.053 504.713
1337 0 74.3993 11.9625 890 70.3472 282.355 502.184
1338 0 77.2275 13.4149 1036 68.9913 282.164 500.932
1339 1 40.1193 13.1608 528 68.6989 282.547 517.96
1340 0 43.2396 13.2517 573 68.0785 282.449 518.037
1341 0 43.2639 14.5387 629 66.5485 282.176 517.261
1342 0 42.2079 13.7652 581 68.3132 282.148 516.855
1343 0 45.2627 13.4769 610 68.2262 281.372 515.025
1344 0 47.1855 13.9026 656 66.6814 281.995 515.45
1345 0 46.4243 13.6782 635 67.8661 281.948 516.378
1346 0 48.0639 14.1894 682 67.651 281.044 513.578
1347 0 51.1958 14.6106 748 66.2607 281.703 514.545
1348 0 51.4299 12.7747 657 69.2131 281.959 512.422
1349 0 53.1718 15.6098 830 65.6157 282.561 511.32
1350 0 57.2474 14.0443 804 66.7811 282.068 510.41
1351 0 55.2466 12.6524 699 69.6996 282.084 508.947
1352 0 59.364 12.2128 725 69.2566 281.95 508.472
1353 0 60.2606 11.6494 702 69.8262 282.226 509.05
1354 0 62.3504 12.526 781 68.7913 281.621 508.019
1355 0 65.1002 12.4731 812 68.6367 281.437 506.804
1356 0 67.1897 13.0675 878 67.9932 281.047 505.673
1357 0 69.2243 14.3013 990 66.8707 281.667 504.44
1358 0 73.2775 13.5649 994 67.4165 281.444 503.688
1359 0 74.246 12.7414 946 68.0782 281.362 503.444
1360 0 80.1464 13.912 1115 65.9964 281.31 503.934
1361 0 79.3404 13.2467 1051 68.1713 281.88 500.249
1362 0 84.3142 14.9678 1262 65.6323 281.578 498.1
1363 0 84.3592 13.727 1158 67.2038 281.563 498.121
1364 0 90.5447 13.6507 1236 66.4288 280.976 498.551
1365 1 44.3938 13.583 603 67.3731 281.212 516.119
1366 0 43.5138 11.7434 511 69.544 281.278 515.474
1367 0 47.4683 14.536 690 65.5725 280.962 515.683
1368 0 50.3932 12.7994 645 66.6744 281.681 514.465
1369 0 51.3419 11.9396 613 68.1272 282.344 514.103
1370 0 49.2632 12.6666 624 68.907 282.176 512.421
1371 0 53.3623 13.4927 720 66.6569 281.721 512.757
1372 0 50.1465 12.9022 647 69.0186 280.892 507.835
1373 0 56.6084 14.0262 794 66.3212 281.403 509.912
1374 0 58.2859 13.348 778 66.9949 281.5 510.1
1375 0 56.4489 11.2491 635 70.0283 281.402 508.82
1376 0 61.2658 13.8413 848 66.1203 281.617 509.151
1377 0 61.5781 13.3002 819 67.1477 281.359 504.983
1378 0 65.2191 14.9803 977 64.9806 281.182 506.127
1379 0 69.4467 14.6587 1018 64.7515 281.15 505.877
1380 0 70.5798 13.6583 964 66.6151 281.531 504.284
1381 0 71.301 13.5482 966 67.4783 281.414 504.724
1382 0 72.2739 12.3696 894 69.1119 281.471 504.103
1383 0 77.2559 14.5879 1127 65.945 281.328 502.46
1384 0 80.6214 14.6487 1181 65.591 281.14 502.894
1385 0 81.4125 13.5606 1104 68.2011 281.796 500.5
1386 0 82.4306 15.1521 1249 65.9135 282.059 501.416
1387 0 88.3222 14.7755 1305 65.8521 280.74 500.205
1388 0 88.3452 14.0358 1240 67.4298 280.89 499.156
1389 1 45.2033 12.1894 551 68.6842 281.459 517.28
1390 0 50.3467 12.6324 636 67.0755 281.06 518.942
1391 0 49.3143 13.4647 664 67.9684 281.306 515.642
1392 0 49.5802 12.6462 627 70.3445 281.632 516.155
1393 0 52.3643 14.0745 737 67.3474 282.095 516.532
1394 0 53.3459 12.897 688 69.782 281.903 515.721
1395 0 55.3483 14.2733 790 68.4291 281.573 515.175
1396 0 58.2408 13.4442 783 69.7037 282.049 512.033
1397 0 59.1409 14.2034 840 68.8512 282.087 513.454
1398 0 59.1834 12.8414 760 71.404 281.507 513.858
1399 0 65.425 14.0619 920 68.4826 280.984 514.524
1400 0 64.2977 14.4484 929 69.9333 280.381 511.043
1401 0 66.3225 14.5501 965 70.228 281.374 509.566
1402 0 70.5207 13.3152 939 70.1544 281.371 512.427
1403 0 70.1903 12.4661 875 73.0811 281.693 509.189
1404 0 70.4026 12.0592 849 74.6113 281.265 505.689
1405 0 77.3176 13.1147 1014 71.7998 281.375 506.498
1406 0 78.419 13.3514 1047 72.0764 281.371 503.955
1407 0 80.3747 14.2333 1144 71.7063 281.82 502.788
1408 0 82.2771 14.3782 1183 71.716 281.592 502.73
1409 0 87.4724 14.0044 1225 71.4661 281.008 502.264
1410 0 88.3991 13.439 1188 72.6886 281.68 501.68
1411 0 90.6946 13.0879 1187 73.3875 282.054 500.082
1412 0 95.3686 13.9878 1334 72.0577 281.307 496.546
1413 0 96.4575 12.6481 1220 74.0967 281.384 495.838
1414 0 99.5196 14.2886 1422 72.3228 281.587 493.954
1415 0 101.487 12.445 1263 74.9881 281.576 493.655
1416 1 56.2386 13.6205 766 72.0457 281.722 515.987
1417 0 54.3081 11.2138 609 76.3908 282.274 515.153
1418 0 58.446 13.551 792 73.3927 282.077 513.474
1419 0 60.4811 13.591 822 73.1898 281.737 513.736
1420 0 63.4619 14.3236 909 72.5875 282.097 511.955
1421 0 65.3204 14.2222 929 72.9074 282.337 510.967
1422 0 66.4057 13.8542 920 73.2413 281.897 511.315
1423 0 66.467 12.9087 858 75.5361 282.418 509.456
1424 0 69.2054 13.4816 933 74.5327 281.902 507.746
1425 0 75.4411 15.469 1167 70.6521 282.222 507.702
1426 0 76.716 14.4168 1106 72.6971 282.211 506.016
1427 0 78.3988 13.3038 1043 74.8744 282.143 505.255
1428 0 81.3587 13.7539 1119 73.7802 282.105 504.381
1429 0 83.4841 13.3558 1115 75.1292 282.125 501.741
1430 0 85.2071 13.0036 1108 74.6498 281.858 502.75
1431 0 91.3106 15.2337 1391 70.2667 281.999 502.198
1432 0 94.5284 14.4401 1365 72.0454 282.16 500.306
1433 0 97.3918 16.0383 1562 70.178 282.544 497.556
1434 0 99.3005 14.5014 1440 72.0042 282.354 494.813
1435 1 51.2746 11.7602 603 75.1675 282.227 516.99
1436 0 52.2579 14.1988 742 72.2628 282.229 514.79
1437 0 56.4302 13.8578 782 71.5921 282.233 515.785
1438 0 57.5262 14.6716 844 70.7524 282.175 515.021
1439 0 58.4287 13.6919 800 70.7712 282.11 516.449
1440 0 56.4153 13.826 780 73.0962 282.008 512.654
1441 0 63.168 14.3269 905 70.6917 282.315 512.031
1442 0 62.2824 14.1292 880 71.9761 282.127 510.923
1443 0 65.3081 14.2402 930 70.5505 281.496 511.16
1444 0 67.1363 15.893 1067 68.657 282.155 508.872
1445 0 71.2707 14.045 1001 70.3556 281.814 508.047
1446 0 74.2746 14.8503 1103 69.495 281.869 506.324
1447 0 76.2585 15.6442 1193 68.5272 282.33 505.664
1448 0 77.3012 13.3633 1033 71.5586 282.274 507.186
1449 0 77.1844 13.2281 1021 73.2076 282.141 502.098
1450 0 81.3073 13.7257 1116 71.7993 281.918 502.894
1451 0 85.5092 13.9868 1196 71.2383 282.472 501
1452 0 87.4171 14.0018 1224 71.9551 281.908 498.047
1453 0 93.2675 15.1607 1414 68.3607 282.3 500.738
1454 1 48.4878 10.6831 518 73.7143 282.295 519.266
1455 0 49.2822 13.3314 657 70.7473 281.276 519.388
1456 0 53.4569 14.1983 759 69.0158 282.277 518.639
1457 0 53.2875 13.2301 705 70.6794 282.192 518.148
1458 0 55.3263 14.6223 809 69.1199 281.608 516.326
1459 0 59.3437 14.6098 867 68.6436 281.926 515.112
1460 0 60.479 13.4427 813 69.8881 282.248 515.873
1461 0 60.4791 15.6914 949 67.7113 282.174 512.478
1462 0 61.5073 14.8763 915 69.1858 282.058 511.515
1463 0 67.1507 16.2917 1094 66.0411 281.875 510.725
1464 0 66.3862 13.8131 917 69.8528 281.997 511.341
1465 0 66.358 12.96 860 70.9837 281.374 509.844
1466 0 73.4192 14.5058 1065 66.8732 281.423 509.868
1467 0 74.3795 14.8831 1107 67.0271 281.742 506.055
1468 0 75.4024 14.3762 1084 67.2657 281.722 504.525
1469 0 79.3326 15.1136 1199 65.6539 281.688 502.513
1470 0 80.4754 15.2966 1231 65.4565 280.969 503.157
1471 0 84.1684 15.2195 1281 65.3536 281.586 500.521
1472 0 87.2599 16.4451 1435 63.5247 281.854 500.875
1473 0 89.4118 13.3539 1194 67.3802 282.003 497.82
1474 0 92.267 14.2196 1312 65.8773 281.713 498.424
1475 0 93.1356 16.2237 1511 63.3614 281.641 495.003
1476 0 97.317 13.7181 1335 66.2727 281.505 494.586
1477 0 100.311 14.7243 1477 64.6148 281.328 493.875
1478 0 104.152 13.3555 1391 66.0978 281.248 490.735
1479 0 108.325 15.7582 1707 62.8998 281.663 487.984
1480 0 111.306 14.2939 1591 64.4903 281.234 489.35
1481 0 117.384 15.9988 1878 61.4521 282.253 486.037
1482 0 118.229 16.7049 1975 60.9686 281.962 483.953
1483 0 121.505 16.2463 1974 61.2249 281.423 484.118
1484 0 126.413 13.7011 1732 64.3251 281.354 480.865
1485 0 132.543 15.5497 2061 61.9423 281.46 477.488
1486 0 136.475 14.0831 1922 63.6988 281.805 476.583
1487 0 139.269 14.1812 1975 63.4891 281.441 472.661
1488 0 141.228 13.411 1894 65.0708 281.843 471.826
1489 0 149.24 14.5336 2169 63.5818 282.063 471.293
1490 0 153.57 14.2736 2192 64.1665 282.325 467.911
1491 0 159.743 14.1728 2264 63.773 281.7 470.115
1492 0 163.525 14.7622 2414 63.9619 281.666 461.156
1493 0 170.717 14.6383 2499 64.06 281.541 460.998
1494 0 175.314 15.361 2693 63.7598 281.562 455.038
1495 0 178.734 14.1551 2530 65.7261 281.245 450.611
1496 0 186.535 13.9169 2596 66.0331 281.442 453.436
1497 0 190.564 14.4151 2747 66.202 282.101 449.451
1498 0 198.546 13.5132 2683 67.0958 281.521 442.271
1499 0 203.806 14.2096 2896 66.7949 282.021 443.674
1500 1 243.972 9.01333 2199 71.0618 281.275 452.791
1501 0 239.364 5.71097 1367 56.8691 281.655 483.024
1502 0 242.604 7.78224 1888 70.3702 281.208 470.031
1503 0 242.646 9.4706 2298 71.5379 281.605 447.99
1504 0 242.505 13.8925 3369 67.8967 281.739 425.728
1505 1 181.261 13.544 2455 69.7548 281.672 454.227
1506 1 65.2724 13.2675 866 70.179 282.058 510.255
1507 0 68.3084 14.0978 963 70.1392 282.32 506.682
1508 0 71.2917 14.7002 1048 69.6116 281.314 506.867
1509 0 73.1849 16.3285 1195 67.9531 280.909 506.387
1510 0 76.3329 15.904 1214 67.6227 281.814 505.445
1511 0 77.3582 15.6286 1209 68.2101 281.477 503.955
1512 0 79.1957 14.6725 1162 70.0422 281.494 503.915
1513 0 82.2475 14.5172 1194 70.232 281.656 501.182
1514 0 84.1831 16.0602 1352 68.1361 281.651 501.862
1515 0 87.2008 15.3898 1342 68.5894 281.838 502.786
1516 0 90.2938 14.5525 1314 71.0441 282.328 497.822
1517 0 94.4614 15.6572 1479 69.1007 281.61 496.206
1518 0 97.4186 15.4591 1506 69.8234 281.918 495.964
1519 0 98.3211 14.2899 1405 72.5473 281.449 490.609
1520 0 103.421 15.7898 1633 69.7165 281.302 489.232
1521 0 104.296 14.9287 1557 71.5234 282.084 489.152
1522 0 112.278 15.3369 1722 69.6603 281.707 486.639
1523 0 115.168 15.1865 1749 69.9068 282.374 487.154
1524 1 61.2206 13.1328 804 73.4602 281.894 509.148
1525 0 63.4008 13.8326 877 71.398 281.742 511.406
1526 0 64.5293 13.6372 880 71.5239 282.117 511.732
1527 0 68.3941 14.2702 976 70.6342 282.169 508.892
1528 0 69.2257 14.6333 1013 69.1106 281.401 511.653
1529 0 71.3631 14.8396 1059 70.1605 281.497 508.055
1530 0 71.4797 14.4097 1030 72.2573 281.728 504.816
1531 0 75.3477 14.7184 1109 70.8602 281.657 506.638
1532 0 79.2179 16.0444 1271 68.3517 281.705 504.657
1533 0 81.3747 14.2059 1156 70.9766 281.58 503.593
1534 0 83.659 14.2722 1194 71.0787 282.06 502.332
1535 0 86.5093 15.3278 1326 69.9027 281.692 501.377
1536 0 90.2249 14.3419 1294 71.0356 282.329 501.042
1537 0 94.352 16.5762 1564 67.7168 281.588 499.309
1538 0 94.1979 15.5417 1464 70.4413 281.852 495.639
1539 0 97.4393 14.4295 1406 71.5889 281.482 496.374
1540 0 101.318 14.4002 1459 71.231 281.517 494.238
1541 0 102.32 14.7771 1512 71.338 281.829 492.113
1542 0 108.503 15.5848 1691 69.3436 281.818 491.163
1543 0 110.43 14.7696 1631 71.4047 281.899 488.12
1544 0 115.636 14.6754 1697 71.2504 281.677 486.822
1545 0 117.362 13.1474 1543 73.1698 281.796 486.056
1546 1 64.1231 15.0336 964 70.1048 282.745 512.14
1547 0 65.108 13.9768 910 71.8912 281.81 511.308
1548 0 68.2728 13.6951 935 72.2438 282.213 508.752
1549 0 68.237 13.629 930 72.7484 282.459 509.337
1550 0 71.4147 14.3668 1026 72.0565 282.597 508.19
1551 0 72.3994 13.8813 1005 72.3104 281.97 508.234
1552 0 76.1821 15.5155 1182 70.8646 282.485 503.448
1553 0 78.3536 14.4473 1132 72.5645 281.67 503.658
1554 0 80.2777 13.6277 1094 73.8739 281.912 501.792
1555 0 82.3563 16.21 1335 70.9408 281.33 500.975
1556 0 85.0896 13.7385 1169 73.142 282.365 503.292
1557 0 87.2546 16.0565 1401 70.2184 282.024 500.193
1558 0 94.173 15.7158 1480 69.8811 282.041 498.639
1559 0 94.3435 16.3869 1546 69.6992 282.537 497.471
1560 0 99.1501 15.5421 1541 70.2187 281.449 495.897
1561 0 99.151 16.2177 1608 70.4521 281.64 492.691
1562 0 105.253 14.9354 1572 71.5299 281.477 491.478
1563 0 109.328 14.5069 1586 71.8298 281.203 490.31
1564 0 110.2 15.6987 1730 70.4179 281.027 488.742
1565 0 116.274 16.2633 1891 69.8154 281.628 484.972
1566 0 121.512 14.978 1820 71.361 281.705 481.883
1567 1 62.1418 14.0002 870 72.6138 281.248 510.382
1568 0 66.2567 15.8626 1051 70.4244 281.191 509.445
1569 0 69.3811 14.3411 995 72.5296 281.055 507.731
1570 0 70.2421 14.1368 993 72.4733 281.088 508.38
1571 0 71.164 13.8413 985 73.9239 280.989 506.452
1572 0 75.4701 12.972 979 74.476 282.006 507.173
1573 0 76.3148 15.5802 1189 71.6712 281.87 504.049
1574 0 79.5843 15.2417 1213 71.1764 281.865 505.542
1575 0 80.2843 15.2707 1226 72.9437 281.989 501.029
1576 0 84.6562 14.6475 1240 73.3282 281.864 500.149
1577 0 86.1912 13.9921 1206 74.8881 281.17 499.724
1578 0 87.6073 14.0171 1228 75.8656 281.947 496.888
1579 0 91.2507 16.2191 1480 72.6709 281.384 495.31
1580 0 94.3481 16.6299 1569 72.0758 281.446 494.809
1581 0 100.429 14.9956 1506 73.0498 281.848 495.975
1582 0 99.5378 14.5271 1446 74.816 281.525 493.996
1583 0 102.303 15.933 1630 73.0638 281.644 490.506
1584 0 108.287 14.3322 1552 74.9858 281.847 490.707
1585 0 109.188 14.9284 1630 74.4061 281.445 486.621
1586 0 115.78 14.4757 1676 73.8992 281.328 483.944
1587 0 117.39 14.6776 1723 74.2948 281.615 485.439
1588 0 123.557 15.3856 1901 72.8585 281.024 479.553
1589 0 127.532 13.8476 1766 75.1336 281.076 479.442
1590 1 67.3139 11.9589 805 77.6323 281.574 508.083
1591 0 67.6389 12.4189 840 78.3702 280.939 504.351
1592 0 74.4195 14.3914 1071 74.8889 281.49 505.015
1593 0 76.2709 13.7012 1045 76.6057 281.616 503.122
1594 0 78.1612 13.9072 1087 75.8188 280.967 503.706
1595 0 82.3471 15.5925 1284 73.2422 281.489 503.166
1596 0 84.6347 15.9982 1354 72.8486 281.42 504.579
1597 0 87.3956 14.8634 1299 75.1016 280.995 498.409
1598 0 87.1533 13.9639 1217 77.4552 281.143 497.682
1599 0 93.5668 14.2679 1335 76.1813 280.997 496.522
1600 0 96.4523 14.7016 1418 75.4704 281.086 497.642
1601 0 100.221 16.733 1677 71.8163 281.414 495.206
1602 0 101.385 15.4461 1566 74.5626 281.229 491.331
1603 0 105.333 14.5538 1533 74.9485 281.601 493.065
1604 0 109.618 15.2165 1668 74.187 282.091 489.853
1605 0 115.417 15.327 1769 74.1091 281.174 486.466
1606 0 118.657 14.5715 1729 75.0121 281.522 486.985
1607 0 121.259 15.3308 1859 74.4201 281.14 486.084
1608 1 64.3814 13.6375 878 77.2118 280.421 511.823
1609 0 68.4717 14.6338 1002 76.2036 281.398 509.718
1610 0 68.3278 13.406 916 78.881 281.665 507.06
1611 0 73.1314 14.7953 1082 76.0407 281.631 508.081
1612 0 72.2468 13.0248 941 79.4591 281.091 505.391
1613 0 78.149 16.1103 1259 73.965 280.557 505.113
1614 0 80.0865 16.0576 1286 74.0381 280.487 503.638
1615 0 81.1244 14.7921 1200 75.8358 281.182 503.038
1616 0 84.3556 16.4542 1388 73.7774 280.745 503.134
1617 0 87.103 15.3956 1341 75.5093 280.784 499.848
1618 0 90.1348 14.7335 1328 75.9202 281.302 498.415
1619 0 94.1787 15.0034 1413 75.4423 281.203 496.191
1620 0 95.2594 15.3266 1460 75.3884 281.468 494.818
1621 0 97.1325 15.0104 1458 76.0789 281.588 490.427
1622 0 98.3408 13.5447 1332 78.8386 281.414 490.94
1623 0 103.162 15.2091 1569 75.7763 281.263 487.608
1624 0 107.255 15.1508 1625 75.3218 281.811 489.561
1625 0 111.11 15.1202 1680 75.256 281.949 486.063
1626 0 120.291 18.264 2197 57.2877 281.079 491.555
1627 0 117.27 13.3027 1560 77.1519 281.204 484.838
1628 0 122.275 15.7432 1925 74.6608 281.793 477.994
1629 0 123.36 14.3239 1767 76.0589 281.76 481.033
1630 0 130.373 16.0387 2091 73.7293 281.101 474.636
1631 0 133.251 15.0093 2000 75.4755 281.474 474.074
1632 0 137.124 15.4021 2112 74.2562 282.06 475.519
1633 0 144.222 15.1641 2187 74.4326 281.052 471.802
1634 0 151.428 15.1755 2298 74.3312 281.682 469.654
1635 0 154.484 15.8268 2445 73.5877 281.318 464.779
1636 0 158.307 14.8635 2353 75.2019 281.436 464.812
1637 0 165.531 15.254 2525 74.9481 281.227 460.034
1638 0 168.158 14.8967 2505 75.509 281.892 461.994
1639 0 175.318 15.412 2702 75.1547 281.398 457.035
1640 1 75.401 14.1643 1068 75.3315 280.869 504.329
1641 0 78.2969 14.2279 1114 74.7953 281.58 505.095
1642 0 79.272 14.015 1111 75.8551 280.816 503.138
1643 0 82.2188 13.3668 1099 75.5068 281.034 505.964
1644 0 83.1846 14.0891 1172 76.3626 281.203 498.543
1645 0 86.155 13.8239 1191 76.3039 281.552 498.985
1646 0 89.1071 13.9719 1245 75.8948 281.163 497.964
1647 0 91.2313 13.1863 1203 77.1513 281.694 496.404
1648 0 96.2596 15.853 1526 72.4292 281.981 495.997
1649 0 99.3248 14.2764 1418 74.6086 281.195 493.394
1650 0 102.215 15.4575 1580 72.7082 281.406 494.878
1651 0 105.557 14.4472 1525 74.2262 281.727 492.923
1652 0 111.21 16.3025 1813 71.5803 281.649 488.566
1653 0 113.248 14.6758 1662 73.6817 281.106 488.483
1654 0 117.178 12.1866 1428 77.3347 281.637 486.979
1655 0 124.292 15.4072 1915 72.705 281.701 481.563
1656 0 127.195 14.5289 1848 73.8669 281.574 479.946
1657 0 130.184 15.6624 2039 72.7288 281.365 477.122
1658 0 139.317 15.2314 2122 72.4896 281.294 476.54
1659 0 141.232 14.9116 2106 73.5161 281.037 472.924
1660 0 147.184 15.2462 2244 72.2758 281.555 475.954
1661 0 154.234 15.697 2421 71.6022 281.981 470.98
1662 0 158.264 13.7555 2177 74.5255 282.013 468.26
1663 0 162.258 15.0809 2447 73.1761 281.921 463.612
1664 0 167.42 13.2541 2219 75.7472 281.696 461.071
1665 0 173.426 13.6023 2359 75.6596 281.595 458.524
1666 1 66.1947 12.9164 855 76.1848 281.951 508.32
1667 0 69.186 13.3553 924 75.4199 281.67 510.24
1668 0 70.4199 14.3425 1010 75.3139 281.694 506.716
1669 0 72.1982 14.5848 1053 75.6971 281.634 504.01
1670 0 75.1815 14.751 1109 74.7051 281.042 506.348
1671 0 76.0864 15.1407 1152 75.2596 281.879 502.527
1672 0 80.122 15.8758 1272 73.2838 281.661 502.099
1673 0 79.1804 14.006 1109 77.4454 281.856 499.503
1674 0 86.3239 15.9284 1375 73.544 282.079 501.007
1675 0 89.3804 15.104 1350 74.8852 281.361 499.956
1676 0 92.3387 15.6597 1446 73.796 281.218 496.707
1677 0 95.2171 14.9763 1426 74.9712 281.073 494.539
1678 0 100.201 15.4988 1553 73.4237 280.829 495.059
1679 0 102.246 16.3136 1668 73.2644 281.197 491.093
1680 0 106.496 14.6297 1558 74.948 281.617 488.75
1681 0 109.212 15.0808 1647 74.2198 281.783 485.17
1682 1 53.1533 15.4647 822 74.045 281.858 513.422
1683 0 51.2281 13.8205 708 76.541 281.826 513.956
1684 0 57.0651 14.0016 799 74.9387 280.859 511.333
1685 0 59.1095 15.7166 929 71.887 281.029 512.703
1686 0 62.1274 15.4521 960 72.1719 281.401 510.359
1687 0 63.1676 14.3745 908 73.7665 281.378 509.996
1688 0 63.159 14.2814 902 74.0222 281.22 506.739
1689 0 65.1843 14.1599 923 73.3933 281.454 509.482
1690 0 67.1444 13.6422 916 74.583 281.873 507.305
1691 0 69.2928 14.8789 1031 73.0737 280.858 505.916
1692 0 73.2006 15.9698 1169 70.9718 281.334 505.457
1693 0 73.4131 16.0053 1175 71.5285 281.149 500.535
1694 0 78.5018 14.9296 1172 73.0299 280.959 500.334
1695 0 79.1455 13.8984 1100 74.4264 281.417 500.104
1696 0 83.3565 14.48 1207 72.9983 281.74 498.083
1697 0 83.2516 13.9096 1158 74.9836 281.782 497.97
1698 0 89.1434 13.9887 1247 73.6608 282.022 496.103
1699 0 91.1194 17.5155 1596 69.7061 281.452 494.541
1700 0 95.2177 14.3566 1367 74.0922 281.45 491.495
1701 0 95.4884 14.6929 1403 74.3222 280.944 492.139
1702 0 99.6868 14.4653 1442 74.242 281.45 487.919
1703 0 101.116 17.1882 1738 70.9896 281.551 485.065
1704 0 105.223 15.1868 1598 73.0857 281.654 486.115
1705 0 108.244 14.5781 1578 74.083 281.456 484.983
1706 0 114.572 14.7331 1688 74.1688 281.794 482.134
1707 0 118.166 15.8083 1868 72.2586 280.797 478.245
1708 1 54.0541 13.32 720 75.9125 281.668 509.436
1709 0 57.0452 14.7953 844 74.1315 281.045 509.046
1710 0 63.2546 14.576 922 74.2636 281.497 507.389
1711 0 63.2048 13.4167 848 76.1627 281.354 507.106
1712 0 66.1209 14.5945 965 74.942 280.956 504.397
1713 0 72.1298 17.0803 1232 70.1201 280.606 506.355
1714 0 72.7977 15.1378 1102 72.7114 280.636 507.829
1715 0 74.1324 15.0811 1118 73.9973 280.631 504.613
1716 0 76.6433 15.2655 1170 73.6043 281.205 503.756
1717 0 76.1939 14.6993 1120 74.4634 280.688 505.331
1718 0 82.2563 15.6098 1284 72.6106 281.304 502.139
1719 0 85.2515 16.3516 1394 71.4433 281.096 498.412
1720 0 86.2183 15.194 1310 72.574 281.54 500.132
1721 0 92.4112 15.1497 1400 71.9743 281.154 497.335
1722 0 89.1283 15.3262 1366 73.3558 281.227 496.775
1723 0 95.1823 16.3581 1557 70.7161 281.432 494.159
1724 0 97.1283 16.1539 1569 70.8069 281.174 496.138
1725 0 100.514 14.7243 1480 72.9932 281.885 493.791
1726 1 47.0263 12.3548 581 76.3046 282.277 516.94
1727 0 50.5863 13.561 686 74.3018 282.223 517.376
1728 0 52.2397 14.778 772 72.6891 281.37 515.929
1729 0 53.2749 14.7912 788 73.7398 281.255 513.444
1730 0 56.1036 16.3982 920 70.6163 281.249 514.91
1731 0 55.6163 14.4742 805 75.2621 280.971 512.041
1732 0 58.3104 15.3489 895 73.6257 281.589 510.959
1733 0 61.73 17.1554 1059 70.5694 281.457 512.242
1734 0 61.2335 15.9717 978 72.8886 281.586 510.125
1735 0 62.4296 15.3773 960 74.5052 281.051 508.333
1736 0 66.2126 15.3747 1018 73.4725 281.375 507.698
1737 0 69.2847 15.8765 1100 72.0536 281.714 508.675
1738 0 67.2165 14.9368 1004 75.2231 281.531 507.302
1739 0 70.285 15.1526 1065 74.5803 282.339 506.146
1740 0 73.1262 15.0151 1098 75.194 282.17 503.281
1741 0 78.2261 16.1327 1262 72.4778 281.792 503.929
1742 0 80.155 15.4326 1237 74.0299 281.77 501.452
1743 0 80.0887 16.6815 1336 72.2575 281.15 498.876
1744 0 84.2666 13.9201 1173 75.8355 281.832 496.887
1745 0 85.4649 14.7312 1259 75.0016 281.76 495.902
1746 0 91.1595 16.1475 1472 71.8967 281.782 496.467
1747 0 94.1128 16.7777 1579 71.0779 281.887 495.782
1748 0 94.1167 14.1526 1332 75.6276 281.903 489.773
1749 0 101.376 17.0159 1725 70.1044 281.947 491.55
1750 0 105.236 15.8881 1672 71.5215 281.716 491.154
1751 0 106.243 16.001 1700 72.0882 282.231 488.501
1752 0 111.197 15.9177 1770 71.7288 281.428 487.925
1753 1 55.1586 15.6458 863 70.854 281.054 515.371
1754 0 56.1267 12.2402 687 75.8603 281.403 513.918
1755 0 56.2217 13.4468 756 75.8333 282.417 510.956
1756 0 61.1104 13.8602 847 74.2019 282.543 511.581
1757 0 60.193 14.9851 902 73.418 282.043 512.693
1758 0 62.2547 15.6775 976 71.998 281.927 511.98
1759 0 66.2123 14.7254 975 73.878 282.033 510.266
1760 0 68.1295 14.0614 958 74.5052 281.329 509.759
1761 0 69.7092 15.9663 1113 72.8742 282.357 506.335
1762 0 72.4906 14.057 1019 74.9519 281.688 507.433
1763 0 73.098 14.8705 1087 74.5087 282.034 505.375
1764 0 73.1305 15.1236 1106 75.6501 281.678 505.453
1765 0 78.633 14.9683 1177 74.757 282.071 504.33
1766 0 79.1169 15.3444 1214 74.682 281.946 502.738
1767 0 84.5697 15.3838 1301 73.6979 281.812 502.784
1768 0 83.5662 14.8026 1237 75.553 282.009 498.945
1769 0 89.4476 16.6913 1493 71.3168 282.096 502.236
1770 0 92.3017 14.8968 1375 74.0647 282.281 498.585
1771 0 96.6054 15.9618 1542 72.0156 281.78 493.86
1772 0 97.2231 15.4593 1503 73.2535 282.1 491.053
1773 0 102.56 17.7165 1817 69.0451 282.113 491.014
1774 0 108.366 15.4938 1679 71.3663 281.26 492.376
1775 0 111.598 15.4036 1719 71.6434 281.277 489.28
1776 0 114.586 14.4258 1653 72.0944 281.763 490.587
1777 0 119.677 15.0405 1800 71.2183 281.485 486.803
1778 0 124.876 15.6555 1955 69.8706 281.255 485.804
1779 0 126.63 13.1959 1671 73.927 281.405 481.922
1780 0 132.499 13.9095 1843 72.223 281.519 481.467
1781 1 69.4127 14.2769 991 74.3673 282.041 506.308
1782 0 71.0418 13.9918 994 73.9718 280.895 508.059
1783 0 73.4703 15.1082 1110 73.6369 281.394 504.419
1784 0 74.7102 14.9377 1116 74.0054 281.699 504.826
1785 0 76.678 13.9284 1068 76.559 281.555 500.534
1786 0 79.6258 15.2086 1211 74.0661 281.349 502.974
1787 0 81.9072 14.431 1182 75.764 281.07 500.145
1788 0 84.8659 16.3552 1388 72.1787 280.409 498.012
1789 0 86.3723 15.7342 1359 73.3731 281.166 496.36
1790 0 89.8102 13.6956 1230 75.9341 281.675 495.808
1791 0 94.411 15.5914 1472 72.9049 282.089 496.762
1792 0 96.4607 13.7776 1329 75.3439 281.581 494.753
1793 0 100.595 14.8616 1495 73.7692 281.206 490.062
1794 0 104.726 14.4854 1517 73.532 280.68 490.832
1795 0 106.823 15.4648 1652 72.2022 281.042 488.697
1796 0 111.705 14.8069 1654 72.821 281.218 486.345
1797 0 115.561 17.1685 1984 68.7172 281.562 488.725
1798 0 121.511 15.4883 1882 70.1605 281.308 487.177
1799 0 124.768 14.1864 1770 72.6898 280.934 479.333
1800 0 129.502 15.3434 1987 71.1424 281.031 477.003
1801 0 133.805 15.1489 2027 70.9142 280.977 477.382
1802 0 139.558 15.979 2230 69.6592 281.075 476.415
1803 0 144.445 14.9468 2159 71.2941 281.135 472.794
1804 0 147.566 14.8272 2188 70.8483 281.09 472.234
1805 1 83.2686 14.2911 1190 73.8513 281.055 498.113
1806 0 88.3544 15.1549 1339 71.5288 281.594 500.016
1807 0 90.2673 13.8921 1254 72.9793 280.9 500.008
1808 0 91.4958 14.8204 1356 72.1106 280.819 497.968
1809 0 95.7359 14.9787 1434 71.417 280.792 496.136
1810 0 97.4968 15.3544 1497 71.4409 281.102 494.798
1811 0 100.489 14.6384 1471 72.0986 280.567 494.261
1812 0 103.359 14.6963 1519 72.1376 281.022 492.122
1813 0 103.785 14.0194 1455 73.8268 281.546 485.313
1814 0 109.395 14.1323 1546 73.2076 281.283 488.023
1815 0 115.463 15.5461 1795 70.3437 281.13 486.841
1816 0 117.505 15.5313 1825 70.8532 281.195 483.327
1817 0 122.422 15.4793 1895 70.3256 281.005 483.988
1818 1 64.4666 14.5191 936 72.4295 280.609 510.688
1819 0 64.3582 13.9687 899 73.6196 280.676 510.632
1820 0 67.6594 15.0755 1020 72.1716 281.76 508.799
1821 0 68.4099 14.8078 1013 72.6338 281.071 508.94
1822 0 72.6092 14.6262 1062 71.6554 281.218 509.32
1823 0 72.2894 14.1376 1022 73.7368 280.52 506.07
1824 0 75.4763 13.8454 1045 74.4306 280.832 503.649
1825 0 79.4406 15.9868 1270 71.1134 281.039 502.64
1826 0 81.5656 15.1534 1236 71.7638 280.426 502.201
1827 0 83.2587 14.9174 1242 72.3535 280.502 499.957
1828 0 87.8882 15.7359 1383 70.8482 280.226 498.905
1829 0 87.6285 15.5201 1360 72.2309 280.393 493.736
1830 0 91.6845 14.8771 1364 72.7947 280.834 495.685
1831 0 97.4092 14.7522 1437 71.945 280.518 496.656
1832 0 98.4902 14.8137 1459 72.6128 280.458 493.934
1833 0 102.407 14.7451 1510 72.7649 280.496 492.067
1834 0 103.61 14.5835 1511 73.1582 280.289 488.977
1835 0 109.337 14.8532 1624 72.2309 280.375 490.683
1836 0 111.458 15.7009 1750 70.8977 280.436 491.039
1837 0 115.517 14.6645 1694 72.2444 280.444 485.35
1838 0 119.262 15.4366 1841 71.8028 280.803 481.892
1839 1 53.3358 13.2556 707 72.8741 280.488 513.644
1840 0 56.2811 14.4809 815 70.6822 280.595 515.087
1841 0 54.4373 12.124 660 76.4545 280.858 510.312
1842 0 56.487 13.2774 750 74.4267 280.527 507.569
1843 0 61.4282 15.1234 929 71.0657 280.245 509.396
1844 0 59.4841 12.911 768 75.7878 280.135 505.569
1845 0 64.2002 14.299 918 72.7309 280.769 506.095
1846 0 65.3924 15.797 1033 70.6438 280.445 506.17
1847 0 66.5405 12.3684 823 75.1434 279.989 506.866
1848 0 67.4003 13.7982 930 74.5376 280.413 504.053
1849 0 71.7466 14.2306 1021 72.7316 279.927 506.402
1850 0 74.4201 14.7541 1098 72.2423 280.137 503.438
1851 0 74.72 13.8517 1035 74.314 280.505 502.94
1852 0 77.4881 13.473 1044 74.1437 280.063 502.816
1853 0 77.5282 14.9365 1158 74.5449 280.24 496.501
1854 0 83.5646 15.0063 1254 72.8118 280.578 499.569
1855 0 85.8074 14.4859 1243 73.7892 279.423 496.998
1856 0 88.3631 14.1235 1248 73.5096 279.756 496.167
1857 0 91.6661 14.8365 1360 72.8007 280.315 495.846
1858 0 93.5891 14.7667 1382 73.2475 280.787 491.551
1859 0 95.4907 13.5511 1294 75.2527 280.101 491.157
1860 0 97.4714 14.7223 1435 73.7498 280.351 488.347
1861 0 102.56 14.7035 1508 72.9403 279.867 491.732
1862 0 106.404 16.2964 1734 70.6961 280.009 491.684
1863 0 109.67 14.6987 1612 73.1818 280.917 487.455
1864 0 113.279 17.2318 1952 70.0082 280.588 486.324
1865 0 117.387 13.8005 1620 74.463 280.486 483.552
1866 1 65.504 14.2129 931 71.2868 280.588 510.488
1867 0 63.537 11.694 743 77.031 280.494 505.316
1868 0 65.3737 14.1341 924 72.0822 280.236 509.542
1869 0 69.489 11.3543 789 76.9899 280.863 505.492
1870 0 70.2595 12.7527 896 75.6328 280.398 506.045
1871 0 72.5118 14.6183 1060 72.5576 280.455 506.716
1872 0 71.3215 13.32 950 75.039 280.893 504.427
1873 0 77.4207 14.3502 1111 73.5104 281.074 503.012
1874 0 79.2814 15.199 1205 71.6183 280.387 500.754
1875 0 83.3121 15.0398 1253 71.4645 280.294 499.796
1876 0 83.2132 13.3152 1108 74.7401 280.163 496.31
1877 0 89.4525 14.3428 1283 72.3858 279.935 496.811
1878 0 91.7248 13.1371 1205 73.9792 280.016 495.072
1879 0 92.941 13.2988 1236 73.8811 280.73 492.781
1880 0 94.6104 12.6942 1201 74.5321 280.737 492.37
1881 0 99.7114 14.8128 1477 71.7976 280.174 490.284
1882 0 103.655 13.4292 1392 72.8233 279.966 491.999
1883 0 105.4 13.6528 1439 73.5441 280.182 487.711
1884 0 109.741 13.5956 1492 73.7641 280.269 485.826
1885 0 113.293 13.9284 1578 73.0406 280.339 487.498
1886 0 114.592 14.2768 1636 73.9028 280.396 484.334
1887 0 119.809 13.2461 1587 75.3579 281.095 480.371
1888 0 122.483 14.0591 1722 74.7456 280.225 480.342
1889 0 128.616 14.034 1805 74.062 280.11 480.346
1890 0 131.406 14.4894 1904 74.0441 279.832 478.064
1891 0 136.782 12.8745 1761 76.5082 279.784 474.296
1892 1 75.6642 11.1149 841 77.4792 279.905 506.054
1893 0 78.5914 14.3654 1129 74.6749 279.992 502.82
1894 0 83.7497 14.1254 1183 76.2967 280.098 501.089
1895 0 86.528 14.7236 1274 75.5471 280.19 500.188
1896 0 87.6129 13.9135 1219 77.0435 280.516 497.278
1897 0 89.012 13.7734 1226 78.0498 281.314 496.782
1898 0 90.5331 12.7799 1157 79.9265 280.615 493.884
1899 0 93.5458 13.3518 1249 79.4147 280.573 493.842
1900 0 97.4773 15.3985 1501 76.1079 280.149 490.951
1901 0 101.577 14.2257 1445 77.51 280.354 491.556
1902 0 103.637 13.663 1416 77.6688 280.53 491.665
1903 0 108.471 14.2711 1548 77.1111 281.29 487.093
1904 0 111.46 14.9112 1662 76.2202 281.17 484.217
1905 0 116.553 13.7191 1599 77.4534 280.91 482.276
1906 1 62.5124 12.0456 753 78.3626 280.444 510.351
1907 0 64.7646 14.2825 925 74.7362 280.988 509.853
1908 0 65.4806 14.5539 953 74.6663 280.909 510.411
1909 0 67.3065 13.1785 887 77.6392 280.996 506.694
1910 0 70.3779 13.6975 964 76.5477 281.287 506.426
1911 0 73.4585 14.1985 1043 75.5935 280.938 503.729
1912 0 75.5686 14.2387 1076 75.1032 281.01 505.051
1913 0 77.3794 14.7584 1142 75.2881 280.306 502.975
1914 0 79.6184 14.0797 1121 75.9572 280.887 503.23
1915 0 78.9414 11.7302 926 80.9201 280.611 499.337
1916 0 83.4396 14.3817 1200 76.1442 280.982 499.792
1917 0 89.5228 15.7948 1414 72.8578 281.132 498.953
1918 0 87.8819 14.6674 1289 76.5648 281.239 494.621
1919 0 93.7042 15.773 1478 73.6502 280.696 497.006
1920 0 95.6011 15.2927 1462 74.6915 280.73 495.726
1921 0 99.465 17.5539 1746 71.3706 280.959 492.826
1922 0 101.4 15.3057 1552 74.9079 280.6 490.476
1923 0 106.344 15.7789 1678 73.8856 281.205 491.797
1924 0 109.657 15.6943 1721 74.1081 281.031 489.273
1925 0 114.345 15.5057 1773 74.5093 281.167 487.68
1926 0 116.432 14.0426 1635 76.3994 281.278 487.05
1927 0 119.557 15.4487 1847 74.5793 281.073 483.453
1928 1 62.373 14.2049 886 75.2032 281.203 512.564
1929 0 64.6375 12.4231 803 78.4583 280.138 509.364
1930 0 66.4937 15.4451 1027 73.6728 280.513 511.779
1931 0 69.771 14.0746 982 75.225 280.62 511.016
1932 0 70.5113 14.7494 1040 75.3933 280.434 506.81
1933 0 75.9365 13.801 1048 75.9628 280.546 504.974
1934 0 78.7257 14.6966 1157 73.9775 280.048 505.496
1935 0 80.607 13.8449 1116 75.6667 280.468 503.103
1936 0 82.318 13.9216 1146 75.2696 279.654 503.186
1937 0 87.5422 14.8157 1297 73.6561 278.88 501.102
1938 0 86.4874 14.5339 1257 75.2944 279.186 498.198
1939 0 90.6079 14.7338 1335 73.7161 279.554 501.154
1940 0 94.3473 14.701 1387 73.7664 280.03 498.528
1941 0 97.5592 13.7352 1340 74.5313 279.531 498.69
1942 0 99.7488 14.4964 1446 73.4343 278.835 497.728
1943 0 103.994 14.9528 1555 72.6006 279.098 495.275
1944 0 105.733 14.1111 1492 73.7259 279.632 492.646
1945 1 54.437 13.5753 739 72.0541 278.184 519.145
1946 0 57.4522 15.9437 916 68.952 278.372 517.574
1947 0 58.3726 11.5979 677 74.7976 278.359 516.879
1948 0 60.3791 14.7733 892 71.528 278.099 515.072
1949 0 63.501 14.0628 893 71.2296 278.843 515.951
1950 0 64.8753 15.1367 982 70.0754 278.788 513.777
1951 0 66.2679 14.1547 938 71.7058 278.455 510.477
1952 0 68.3685 15.08 1031 70.4549 277.317 511.344
1953 0 70.6512 13.5029 954 72.934 278.179 508.615
1954 0 70.3146 14.1223 993 72.5438 277.726 509.885
1955 0 74.6882 14.7413 1101 70.5123 278.112 509.56
1956 0 77.6008 13.9947 1086 71.8775 278.549 506.808
1957 0 78.5448 13.1899 1036 73.3253 279.301 504.732
1958 0 81.4764 16.5324 1347 68.5857 279.317 503.739
1959 0 83.7615 14.6129 1224 71.0989 279.217 502.314
1960 0 86.7691 14.36 1246 71.2632 278.957 502.986
1961 0 88.3438 15.6661 1384 69.7695 278.699 498.413
1962 0 90.2308 13.9309 1257 72.0557 278.944 499.596
1963 0 94.7609 13.4127 1271 72.6192 279.781 495.63
1964 0 95.4142 15.1026 1441 70.8321 279.859 492.31
1965 0 98.8676 13.4018 1325 72.723 279.43 490.032
1966 0 103.555 14.4947 1501 71.0513 280.165 488.286
1967 1 55.6088 11.0954 617 74.7228 280.029 510.183
1968 0 53.4661 10.2682 549 77.1421 279.572 508.353
1969 0 59.9285 13.7664 825 70.0691 280.368 512.044
1970 0 61.1625 13.0145 796 72.142 280.033 509.431
1971 0 62.3836 14.0902 879 70.9226 279.928 510.84
1972 0 65.6276 14.5975 958 70.0104 280.272 509.104
1973 0 67.3288 14.2881 962 70.3992 279.888 507.782
1974 0 69.6821 14.5231 1012 69.6126 279.932 506.914
1975 0 70.9557 15.2912 1085 69.0885 280.38 506.719
1976 0 72.9427 15.2037 1109 69.5699 280.49 506.149
1977 0 74.4336 13.8781 1033 71.0629 280.784 502.422
1978 0 74.2631 13.8158 1026 72.1628 280.502 498.954
1979 0 74.3859 15.3792 1144 71.1381 281.474 499.47
1980 0 81.7435 16.0869 1315 68.6517 280.887 501.229
1981 0 83.8571 14.155 1187 71.5847 280.76 498.269
1982 0 86.5136 14.8878 1288 70.4775 280.809 498.943
1983 0 88.7164 15.0479 1335 70.9858 281.225 494.634
1984 0 90.1528 14.8748 1341 71.7077 281.157 492.541
1985 0 95.5858 15.1487 1448 70.625 281.098 491.873
1986 0 98.5332 15.4669 1524 69.9521 281.047 492.573
1987 0 102.402 16.611 1701 68.5438 282.082 489.288
1988 0 103.581 15.5917 1615 70.1443 281.615 485.589
1989 0 109.699 15.661 1718 68.9936 281.499 485.569
1990 0 112.694 13.2127 1489 72.2525 281.402 485.995
1991 0 117.324 14.9756 1757 69.4735 281.071 483.495
1992 0 120.455 15.1177 1821 69.1477 281.212 483.655
1993 0 124.455 14.0854 1753 70.8893 281.936 476.829
1994 0 125.201 14.1931 1777 71.0928 281.577 475.072
1995 0 129.344 13.6921 1771 72.0824 282.692 473.849
1996 1 67.4156 13.9137 938 72.226 281.019 501.19
1997 0 76.5224 12.4016 949 72.5964 280.998 501.125
1998 0 75.273 14.454 1088 71.1562 281.151 499.669
1999 0 79.2151 14.5174 1150 70.2574 281.416 500.999
2000 0 83.6409 13.7732 1152 71.342 281.183 496.832
2001 0 84.1768 15.7407 1325 68.8808 281.362 497.594
2002 0 89.4012 14.3958 1287 70.3092 280.976 494.336
2003 0 85.1811 16.4473 1401 69.2862 280.746 492.186
2004 0 94.2798 15.2631 1439 69.312 281.214 493.992
2005 0 97.0773 16.1109 1564 67.8638 280.796 492.54
2006 0 99.6967 14.4338 1439 70.4559 280.625 488.115
2007 0 102.579 16.2509 1667 67.6911 280.522 488.888
2008 0 106.451 15.1243 1610 69.0938 280.667 488.308
2009 0 105.329 14.1842 1494 71.0315 280.977 485.671
2010 0 110.741 15.7575 1745 68.8023 280.853 481.04
2011 0 116.302 14.4279 1678 70.1806 280.705 480.281
2012 0 118.742 13.9883 1661 70.897 280.503 478.414
2013 1 64.6251 13.6789 884 70.0973 280.242 506.031
2014 0 65.8248 12.3814 815 71.6429 279.865 505.12
2015 0 70.9459 14.2644 1012 69.3626 279.904 503.422
2016 0 74.5445 14.3136 1067 68.1134 279.844 499.937
2017 0 73.8454 13.2303 977 69.9427 280.401 501.749
2018 0 77.6009 13.9045 1079 67.7488 280.74 502.599
2019 0 79.6436 16.0088 1275 65.3271 280.254 503.024
2020 0 82.6044 14.3939 1189 67.8301 280.21 499.764
2021 0 82.7079 15.1376 1252 67.6478 279.988 498.653
2022 0 87.5583 14.2419 1247 68.6496 280.909 498.439
2023 0 89.4242 14.7387 1318 68.3445 280.138 495.032
2024 0 94.2624 16.6662 1571 65.3062 280.647 494.743
2025 0 96.5267 15.7677 1522 66.5131 280.145 495.759
2026 0 100.645 15.0827 1518 66.8406 280.245 492.569
2027 0 101.706 15.0434 1530 67.0824 280.199 491.361
2028 0 105.532 14.299 1509 67.7482 280.062 490.612
2029 0 109.693 13.7384 1507 68.9064 279.996 485.151
2030 0 114.233 14.6105 1669 67.5338 279.842 484.642
2031 0 117.715 14.9004 1754 67.3854 279.929 484.372
2032 1 61.6892 13.2276 816 67.0723 279.719 512.359
2033 0 63.7902 14.8299 946 65.686 279.544 510.851
2034 0 64.2644 13.8802 892 67.278 279.471 509.669
2035 0 66.1739 13.2681 878 67.6652 280.041 509.248
2036 0 68.1967 13.6077 928 68.1131 279.712 507.432
2037 0 70.4947 16.6679 1175 63.9617 279.832 508.044
2038 0 70.5167 14.3228 1010 67.1594 279.944 507.861
2039 0 75.5786 16.7772 1268 64.0568 280.324 505.804
2040 0 77.603 14.3809 1116 67.4919 280.237 503.496
2041 0 78.2491 15.7063 1229 66.1416 279.654 502.638
2042 0 82.3885 16.495 1359 64.7984 279.808 501.883
2043 0 85.4827 15.4066 1317 66.3447 279.159 498.899
2044 0 86.3501 15.1824 1311 66.3638 278.926 498.525
2045 0 90.6011 15.044 1363 66.2685 279.607 494.88
2046 0 91.7982 14.8914 1367 66.6108 279.58 497.313
2047 0 97.59 16.6513 1625 63.8455 279.428 495.05
2048 0 97.5638 15.2721 1490 65.8591 279.252 491.26
2049 0 100.084 15.2671 1528 65.5844 279.465 492.705
2050 0 105.925 14.1987 1504 66.7168 278.833 488.594
2051 0 109.525 15.7042 1720 64.518 278.308 487.185
2052 0 110.776 14.7595 1635 65.7248 279.358 489.738
2053 0 115.856 15.2862 1771 64.8312 279.117 487.236
2054 0 118.539 14.3666 1703 65.9213 279.062 481.042
2055 0 123.466 14.7409 1820 65.517 278.932 480.76
2056 0 126.473 15.0072 1898 65.1428 278.773 480.991
2057 1 67.655 12.7559 863 67.6176 278.572 505.424
2058 0 72.4888 16.9543 1229 62.38 278.324 507.125
2059 0 72.1039 14.9784 1080 65.5963 278.874 507.434
2060 0 73.6456 14.0674 1036 68.8639 278.968 504.255
2061 0 77.9911 14.5529 1135 67.5753 279.228 505.92
2062 0 79.929 14.2501 1139 68.6883 279.369 501.203
2063 0 82.8381 13.8463 1147 69.8945 278.615 497.308
2064 0 83.3519 15.6085 1301 68.0661 279.142 497.294
2065 0 86.2913 15.0421 1298 68.0277 279.331 502.305
2066 0 90.7688 16.228 1473 66.632 279.214 499.153
2067 0 92.6856 13.6914 1269 69.9149 278.935 495.383
2068 0 96.3273 15.8107 1523 67.218 278.98 493.642
2069 0 98.5082 16.4555 1621 66.6033 279.283 493.434
2070 0 102.29 14.1754 1450 69.4117 278.712 490.808
2071 0 104.704 15.3098 1603 68.3182 278.797 488.196
2072 0 108.351 13.9362 1510 69.9444 278.566 493
2073 0 111.545 13.1517 1467 71.5228 278.999 488.4
2074 0 114.731 14.3901 1651 69.2102 278.7 489.891
2075 0 119.556 15.4572 1848 68.2505 278.84 486.667
2076 0 120.361 13.6008 1637 71.3476 278.847 484.245
2077 0 126.222 14.9103 1882 69.2444 278.582 483.943
2078 0 131.753 16.0148 2110 68.309 278.385 477.538
2079 0 135.875 15.5069 2107 69.3621 278.554 474.407
2080 1 68.5719 11.6957 802 74.1584 278.186 505.566
2081 0 72.3876 13.483 976 71.6824 278.78 508.358
2082 0 74.4716 15.0796 1123 69.732 278.991 508.508
2083 0 75.9591 14.7974 1124 71.4528 278.652 503.879
2084 0 79.5782 15.9843 1272 69.8616 278.501 502.261
2085 0 81.2135 14.1971 1153 72.6088 278.943 501.596
2086 0 84.1033 16.9553 1426 69.4152 279.37 500.025
2087 0 86.3693 16.1863 1398 70.6152 278.477 497.217
2088 0 90.5874 15.3443 1390 71.1043 278.919 496.544
2089 0 89.7066 15.0937 1354 72.5709 278.834 496.09
2090 0 92.769 15.1344 1404 72.5356 279.036 494.12
2091 0 95.8013 13.8411 1326 74.1139 279.055 492.136
2092 0 97.2749 14.8548 1445 73.1502 279.309 490.899
2093 0 100.645 13.2049 1329 75.0308 279.013 490.029
2094 0 105.516 15.9123 1679 70.4032 279.358 490.955
2095 0 107.538 15.4829 1665 71.9081 278.998 483.5
2096 0 111.903 13.9764 1564 73.3299 279.056 486.013
2097 0 117.633 16.2795 1915 69.7279 279.482 483.902
2098 0 120.882 13.8978 1680 72.8119 279.211 481.355
2099 0 124.635 16.3918 2043 69.6926 279.178 481.078
2100 1 66.05 13.7926 911 71.1032 279.258 509.574
2101 0 67.4867 13.336 900 72.5167 279.408 508.609
2102 0 69.4753 13.7171 953 72.6275 278.796 505.766
2103 0 73.8353 14.7355 1088 70.0763 279.416 508.656
2104 0 73.2694 13.1023 960 74.1115 279.5 503.94
2105 0 73.4073 15.1756 1114 71.9632 279.582 501.435
2106 0 77.3667 14.3085 1107 72.608 279.112 501.341
2107 0 81.9102 14.5281 1190 71.5815 279.072 502.24
2108 0 81.2401 15.2019 1235 71.6939 279.274 497.926
2109 0 84.4745 14.4186 1218 73.1724 279.178 495.59
2110 0 87.2012 14.8736 1297 72.1419 278.621 496.007
2111 0 88.1655 13.9057 1226 73.5685 278.498 492.639
2112 0 94.2559 14.1105 1330 72.5346 279.025 494.519
2113 0 97.6685 14.9485 1460 70.9 278.486 493.304
2114 0 100.283 15.3964 1544 70.2597 279.089 491.292
2115 0 104.682 14.0521 1471 71.8661 278.8 486.993
2116 0 107.519 16.5366 1778 68.3037 279.5 489.114
2117 0 112.732 14.3881 1622 70.7898 278.669 486.789
2118 0 111.159 14.5287 1615 71.3077 278.851 484.245
2119 1 119.804 14.8408 1778 70.315 278.936 483.382
2120 1 60.599 14.1091 855 69.7977 278.123 509.871
2121 0 59.2911 13.1048 777 72.8275 278.109 508.687
2122 0 63.3186 14.7824 936 69.1635 278.818 511.276
2123 0 62.201 14.2602 887 71.372 278.911 507.417
2124 0 66.3674 14.3595 953 70.2592 278.827 506.836
2125 0 69.4032 16.0656 1115 67.0395 279.399 510.633
2126 0 68.8323 16.3295 1124 67.331 278.843 509.763
2127 0 73.1899 15.6716 1147 67.7271 278.626 508.425
2128 0 73.7084 16.1311 1189 69.0454 278.414 504.038
2129 0 75.6175 14.904 1127 70.4685 278.477 504.828
2130 0 77.3978 16.4087 1270 69.0189 278.797 503.243
2131 0 80.4762 14.526 1169 71.9119 278.587 499.353
2132 0 79.3737 16.0633 1275 71.1443 278.994 496.629
2133 0 84.6613 14.682 1243 72.1891 279.258 497.393
2134 0 87.477 15.4898 1355 72.0679 278.635 496.328
2135 0 88.7103 15.9283 1413 71.9965 278.875 497.009
2136 0 90.2983 15.1166 1365 73.1685 278.407 496.473
2137 0 93.6113 15.8421 1483 71.7256 279.259 493.793
2138 0 97.43 15.5804 1518 72.1001 279.339 492.467
2139 0 99.5814 14.6011 1454 73.7957 278.939 488.7
2140 0 104.177 14.6193 1523 73.1937 279.456 484.94
2141 0 107.793 15.7895 1702 71.1363 278.652 485.02
2142 0 111.434 15.5338 1731 71.5159 279.008 482.304
2143 0 117.719 16.7347 1970 68.8203 278.502 482.093
2144 0 120.812 15.5448 1878 70.4478 278.734 481.006
2145 0 123.666 15.2669 1888 70.7754 278.889 482.559
2146 0 128.754 15.3626 1978 70.5324 278.73 479.142
2147 0 130.57 15.126 1975 71.7539 278.599 472.753
2148 0 136.61 15.8993 2172 70.2049 278.688 474.729
2149 0 139.532 13.7245 1915 73.6533 278.514 471.66
2150 0 147.722 16.9643 2506 68.6081 278.905 468.779
2151 0 148.097 13.4169 1987 74.1691 278.164 464.583
2152 0 155.772 14.7331 2295 71.9098 278.549 462.74
2153 0 160.148 14.4242 2310 73.1113 279.061 460.405
2154 0 168.988 15.3502 2594 70.7313 278.722 460.54
2155 1 77.5102 13.3144 1032 72.3954 279.003 499.789
2156 0 77.8307 13.6578 1063 73.4845 278.208 495.536
2157 0 79.4207 13.8251 1098 73.4763 278.037 493.599
2158 0 81.6951 15.2763 1248 71.601 278.508 494.137
2159 0 87.4974 15.1204 1323 70.5253 278.482 495.97
2160 0 90.773 14.696 1334 70.4295 278.67 496.615
2161 0 92.4844 15.6459 1447 69.4361 277.895 493.139
2162 0 97.1965 14.8154 1440 70.5472 278.702 491.075
2163 0 96.6553 14.5465 1406 71.4054 279.089 488.505
2164 0 101.659 15.0011 1525 70.2275 278.822 489.09
2165 0 105.725 14.6323 1547 70.6141 278.734 487.752
2166 0 108.276 15.7745 1708 69.0433 279.079 486.042
2167 0 110.706 15.8709 1757 69.2698 278.16 482.229
2168 0 116.47 14.6046 1701 70.3798 278.964 481.917
2169 0 119.921 14.8181 1777 70.058 278.653 479.548
2170 0 125.625 12.6806 1593 72.4168 279.004 476.488
2171 0 128.607 13.8951 1787 70.5406 278.792 475.012
2172 1 55.7846 15.6495 873 65.8969 278.798 510.187
2173 0 56.7671 16.189 919 65.0762 278.731 510.066
2174 0 60.7058 14.1008 856 67.9136 278.856 506.811
2175 0 61.4323 14.1294 868 67.4862 278.471 507.894
2176 0 62.503 14.9273 933 67.1844 278.98 506.367
2177 0 64.5644 14.7914 955 67.5162 278.816 505.148
2178 0 67.698 16.0271 1085 65.5475 279.249 504.055
2179 0 69.5364 14.0358 976 68.0338 279.112 502.189
2180 0 68.4686 13.5098 925 69.6324 279.219 500.423
2181 0 72.3258 14.2826 1033 67.5963 278.449 500.846
2182 0 69.1922 11.6776 808 72.302 278.962 496.691
2183 0 78.5733 14.356 1128 67.6933 278.758 496.27
2184 0 82.5849 13.8161 1141 68.1709 278.764 496.48
2185 0 83.6923 14.1829 1187 67.1415 278.174 498.361
2186 0 85.7564 13.5383 1161 68.876 279.035 494.182
2187 0 89.8248 13.6599 1227 68.4222 279.079 493.248
2188 0 94.4654 15.4342 1458 65.8889 278.853 491.818
2189 0 94.372 14.3581 1355 68.0384 278.322 490.939
2190 0 99.679 13.9247 1388 67.6715 278.482 492.02
2191 0 101.654 13.182 1340 69.9 278.152 484.459
2192 0 107.647 13.9437 1501 68.0646 278.253 484.875
2193 0 108.864 14.1461 1540 68.4669 278.847 483.982
2194 0 115.964 15.9618 1851 65.7839 278.739 485.246
2195 0 118.529 14.9331 1770 67.2921 279.065 481.032
2196 1 65.5877 14.5912 957 67.7241 279.517 507.194
2197 0 66.5971 13.8745 924 69.0671 278.376 504.889
2198 0 70.4835 14.9397 1053 67.2735 278.448 507.346
2199 0 72.0427 15.7684 1136 66.5053 278.967 507.114
2200 0 74.0883 16.1024 1193 66.6002 278.629 503.635
2201 0 76.5502 15.1926 1163 67.3224 278.356 503.894
2202 0 77.6417 14.773 1147 68.4786 278.929 501.233
2203 0 79.1207 14.3957 1139 69.1229 279.626 499.102
2204 0 81.7669 15.1895 1242 67.7367 279.193 500.678
2205 0 84.9736 15.0988 1283 68.3336 278.037 496.046
2206 0 89.5722 15.4512 1384 67.3078 277.835 497.811
2207 0 92.5337 15.67 1450 67.0676 278.276 494.952
2208 0 95.4288 15.6137 1490 66.5423 278.183 497.336
2209 0 96.5983 14.6276 1413 68.7445 278.566 492.212
2210 0 99.0247 15.3497 1520 68.1737 278.689 489.632
2211 0 101.459 15.0603 1528 68.6086 278.436 489.047
2212 0 107.054 15.9358 1706 67.1208 278.422 489.479
2213 0 108.688 16.0643 1746 67.4084 278.939 487.359
2214 0 112.688 14.8552 1674 68.6171 278.654 487.714
2215 0 117.731 16.3253 1922 66.4131 278.001 484.947
2216 0 122.108 17.0013 2076 65.8935 277.909 479.888
2217 0 122.692 15.5511 1908 68.1829 277.478 478.503
2218 0 127.678 15.0457 1921 68.6351 278.227 477.859
2219 0 131.227 14.2654 1872 69.4626 278.036 479.672
2220 0 136.94 15.8244 2167 67.3378 278.039 476.913
2221 0 139.782 15.9891 2235 67.3311 279.122 475.264
2222 1 73.0784 13.2187 966 71.0849 278.223 501.704
2223 0 76.7848 13.5704 1042 70.2668 277.837 501.902
2224 1 13.0961 11.2247 147 49.3605 276.524 533.857
2225 0 15.1906 12.047 183 49.7104 277.574 533.393
2226 0 14.0536 6.97331 98 53.2653 275.122 531.306
2227 0 15.1594 7.9159 120 52.4667 276.617 530.958
2228 1 87.9964 15.1142 1330 69.0436 278.986 500.805
2229 0 91.4059 16.0165 1464 68.4324 279.695 499.495
2230 0 91.0763 15.8988 1448 69.8646 279.488 497.282
2231 0 96.0202 17.3401 1665 67.7544 279.008 495.488
2232 0 95.6581 16.8099 1608 69.24 278.871 496.947
2233 0 97.6768 15.2953 1494 71.6058 278.934 494.245
2234 0 100.151 14.6978 1472 73.4463 279.21 491.804
2235 0 105.297 16.0023 1685 70.9359 278.958 493.213
2236 0 109.408 16.7446 1832 70.3106 279.073 488.348
2237 0 110.49 16.7345 1849 70.2266 279.058 490.712
2238 0 116.695 15.5534 1815 72.3884 279.47 482.554
2239 0 117.901 15.6487 1845 72.6114 278.997 486.242
2240 0 123.673 16.77 2074 70.8457 279.21 485.773
2241 0 129.196 17.1599 2217 70.23 279.363 485.686
2242 0 129.703 14.1092 1830 75.2169 279.281 481.85
2243 0 136.793 17.128 2343 71.1609 279.186 478.067
2244 0 140.748 15.6592 2204 72.8022 279.708 479.3
2245 0 144.75 13.8238 2001 75.6777 279.827 475.314
2246 0 150.825 16.2109 2445 72.7194 279.447 471.934
2247 0 155.289 15.2297 2365 73.225 278.92 475.885
2248 0 158.81 14.363 2281 75.7681 279.129 467.785
2249 0 163.934 14.1155 2314 76.2865 279.055 466.614
2250 1 83.8034 15.1545 1270 74.8717 279.417 505.104
2251 0 84.5424 13.6854 1157 78.4304 279.542 502.869
2252 0 86.9334 14.8735 1293 76.7061 279.62 501.164
2253 0 90.8395 15.0045 1363 77.077 279.637 497.231
2254 0 91.6926 15.2575 1399 77.4267 279.291 497.846
2255 0 92.5738 15.836 1466 76.2954 278.854 499.591
2256 0 94.9429 14.83 1408 78.8537 279.299 497.619
2257 0 97.681 15.6632 1530 78.1471 280.488 496.146
2258 0 101.61 15.0576 1530 78.5562 279.846 496.638
2259 0 105.058 16.2482 1707 77.3128 279.925 495.499
2260 0 106.053 14.9171 1582 80.3742 279.918 492.272
2261 0 107.583 15.5973 1678 79.9005 278.988 489.848
2262 0 112.901 15.642 1766 79.4774 279.165 487.102
2263 0 116.053 14.9156 1731 80.6164 279.452 488.23
2264 0 121.72 16.6612 2028 77.8979 279.513 487.411
2265 0 125.024 15.669 1959 79.6636 280.897 484.77
2266 0 130.019 17.5821 2286 76.4755 280.703 483.13
2267 0 132.554 15.0429 1994 81.3516 280.316 477.28
2268 0 137.887 15.8608 2187 79.6091 280.344 478.192
2269 1 67.8137 13.9352 945 80.8868 279.849 510.021
2270 0 70.8169 14.3892 1019 79.2974 279.608 512.181
2271 0 70.9191 15.0312 1066 80.1173 280.11 508.969
2272 0 72.3043 14.1624 1024 80.7705 279.765 509.743
2273 0 73.8831 14.1981 1049 81.2564 279.681 509.435
2274 0 76.6571 14.8453 1138 81.6942 280.286 506.844
2275 0 81.1722 14.7587 1198 80.914 279.582 505.2
2276 0 84.9753 13.5333 1150 81.4965 279.259 506.516
2277 0 83.0989 14.212 1181 81.7858 279.466 504.668
2278 0 84.812 13.2175 1121 83.3809 279.671 504.069
2279 0 89.7582 16.0877 1444 79.09 279.916 503.26
2280 0 89.7012 13.1548 1180 84.5729 280.297 500.097
2281 0 93.3346 15.0962 1409 80.9808 280.324 501.564
2282 0 94.8856 14.0801 1336 83.5195 280.118 497.399
2283 0 97.9232 14.5624 1426 82.9348 279.963 495.29
2284 0 99.9088 14.6233 1461 83.1567 280.765 493.433
2285 0 102.875 13.0353 1341 84.871 280.649 494.064
2286 0 107.048 14.8718 1592 82.1665 279.731 492.542
2287 0 111.163 14.969 1664 82.1713 279.667 492.027
2288 0 114.285 14.7176 1682 82.6142 280.069 489.642
2289 0 114.954 13.301 1529 85.8064 280.315 487.071
2290 0 120.736 14.834 1791 82.9659 280.073 485.772
2291 0 125.205 13.2582 1660 85.2699 279.696 485.505
2292 0 123.548 12.7886 1580 87.5551 280.011 482.09
2293 0 130.167 14.2663 1857 85.1847 279.59 480.758
2294 0 134.229 13.7079 1840 86.2342 280.073 476.061
2295 0 139.742 14.355 2006 84.2542 279.905 476.744
2296 0 143.776 14.5226 2088 83.3602 280.092 478.667
2297 1 83.0317 13.2479 1100 85.1355 280.285 500.718
2298 0 84.9013 14.3932 1222 82.4484 280.753 501.519
2299 0 86.0925 11.2437 968 87.6798 280.626 496.499
2300 0 89.7528 15.9995 1436 79.2779 280.127 498.216
2301 0 89.6237 13.7464 1232 83.3515 280.032 496.013
2302 0 90.6668 13.8639 1257 82.973 280.812 496.613
2303 0 95.6496 14.7518 1411 80.0489 280.816 498.07
2304 0 96.7893 13.7515 1331 83.5477 281.514 492.216
2305 0 100.808 16.1495 1628 79.4785 280.457 492.233
2306 0 104.365 13.9223 1453 82.1507 280.178 491.662
2307 0 106.931 15.0752 1612 80.0658 281.019 491.453
2308 0 108.182 14.3554 1553 82.0496 280.48 488.556
2309 0 114.829 15.1791 1743 79.7074 280.458 488.717
2310 0 116.178 13.6515 1586 82.5422 280.288 485.527
2311 0 117.94 14.041 1656 82.4112 280.386 485.292
2312 0 124.058 14.5738 1808 81.1521 279.964 481.955
2313 0 127.64 14.2823 1823 81.7422 280.013 480.516
2314 0 132.046 14.866 1963 80.025 279.849 479.256
2315 1 69.8977 10.7157 749 86.1095 280.025 505.53
2316 0 73.739 14.1716 1045 79.867 279.901 507.697
2317 0 75.8145 15.3665 1165 77.7193 279.482 506.636
2318 0 77.8382 14.4531 1125 80.5609 279.881 502.988
2319 0 79.9274 15.414 1232 78.8588 279.849 502.373
2320 0 81.3469 14.8377 1207 80.2154 279.212 501.797
2321 0 85.1198 14.9084 1269 79.8156 279.187 499.736
2322 0 85.8289 15.0765 1294 80.2682 279.77 498.127
2323 0 88.3524 16.2418 1435 78.7965 280.403 497.848
2324 0 91.8971 14.6577 1347 80.6696 280.03 499.524
2325 0 92.945 14.3741 1336 82.1228 279.281 494.264
2326 0 95.5356 15.2195 1454 80.2462 279.681 495.765
2327 0 99.5932 15.985 1592 78.3134 279.861 495.251
2328 0 102.634 15.3555 1576 78.9074 280.006 492.009
2329 0 103.618 14.8429 1538 80.2913 279.763 489.799
2330 0 103.968 13.5042 1404 83.0648 279.722 486.053
2331 0 111.199 14.2627 1586 80.4231 279.807 488.58
2332 0 115.108 15.7678 1815 78.4645 279.487 483.508
2333 0 117.394 14.8985 1749 79.801 280.165 480.9
2334 0 121.723 16.5457 2014 76.5164 280.212 483.647
2335 0 125.911 16.4163 2067 76.568 280.48 479.68
2336 0 128.125 14.1893 1818 80.0214 279.852 476.701
2337 0 134.638 15.4488 2080 77.513 279.892 479.082
2338 0 137.57 15.374 2115 77.8582 280.645 476.023
2339 0 140.127 14.0801 1973 80.0857 280.8 473.173
2340 1 78.1654 13.9704 1092 77.4057 280.371 505.45
2341 0 79.2232 14.3392 1136 77.9252 280.227 504.102
2342 0 80.8873 14.7242 1191 77.4853 280.115 502.48
2343 0 82.9553 13.3928 1111 79.8407 279.903 498.942
2344 0 85.2624 14.4847 1235 78.783 280.283 498.697
2345 0 87.2445 12.7802 1115 80.1013 280.459 499.576
2346 0 91.6972 14.646 1343 77.5168 280.532 496.932
2347 0 94.1548 13.9133 1310 78.313 280.398 496.411
2348 0 95.8144 14.3507 1375 77.7942 280.399 494.033
2349 0 97.9209 14.3381 1404 70.7899 280.543 491.214
2350 0 100.991 13.3973 1353 69.7997 280.182 492.222
2351 0 104.549 15.6194 1633 66.504 280.442 490.035
2352 0 109.154 16.1148 1759 65.2877 280.279 487.603
2353 0 113.035 15.4465 1746 65.2199 280.475 490.232
2354 0 113.962 13.8643 1580 67.8513 280.675 483.092
2355 0 119.844 13.9682 1674 67.2646 280.794 482.4
2356 0 122.628 13.8712 1701 67.1393 280.932 483.294
2357 0 129.604 16.4964 2138 63.9518 280.727 479.164
2358 1 73.9421 11.3061 836 66.7703 280.59 506.624
2359 0 75.1672 14.9001 1120 63.6027 280.441 506.464
2360 0 78.3262 12.0139 941 67.7311 280.456 501.862
2361 0 79.3559 13.471 1069 66.5332 280.931 499.376
2362 0 81.5696 12.5414 1023 67.1466 279.947 501.662
2363 0 84.29 15.1857 1280 64.6258 279.918 498.852
2364 0 84.8857 13.0057 1104 67.4194 280.322 497.928
2365 0 89.709 14.2126 1275 65.4063 280.634 498.413
2366 0 88.5018 16.3386 1446 64.1632 279.759 496.096
2367 0 93.5262 14.4024 1347 66.1537 279.837 495.722
2368 0 96.708 14.187 1372 65.93 281.036 495.034
2369 0 100.933 15.0595 1520 65.2329 281.051 493.491
2370 0 100.582 12.1294 1220 68.4238 280.704 494.751
2371 0 104.889 15.7404 1651 64.4652 279.952 490.717
2372 0 107.32 13.3619 1434 67.7259 280.607 490.436
2373 0 109.973 14.0489 1545 67.2628 280.515 485.852
2374 0 113.976 14.5732 1661 66.6532 280.724 484.446
2375 0 118.218 14.5071 1715 66.0274 280.12 485.992
2376 0 119.771 15.9472 1910 65.0948 280.459 484.749
2377 0 124.146 13.6291 1692 67.935 280.627 480.954
2378 0 127.796 14.3667 1836 66.5681 280.873 482.386
2379 0 131.695 15.1106 1990 66.8417 280.809 477.354
2380 1 68.3659 12.7842 874 67.3421 281.503 508.402
2381 0 70.0816 14.2263 997 66.8506 280.351 505.221
2382 0 72.6987 15.6124 1135 65.0344 281.077 507.248
2383 0 73.589 13.2493 975 68.4892 280.707 505.032
2384 0 71.3352 13.766 982 68.5458 280.254 505.614
2385 0 80.8837 16.1837 1309 64.2468 280.475 505.119
2386 0 82.262 14.5024 1193 67.1467 280.642 502.884
2387 0 82.929 14.0361 1164 68.7509 280.181 500.71
2388 0 87.8934 14.7337 1295 67.793 280.856 499.28
2389 0 84.6308 13.6357 1154 69.9636 280.789 494.713
2390 0 90.5124 15.3128 1386 67.7446 280.994 495.468
2391 0 91.74 13.4293 1232 70.0089 281.95 492.798
2392 0 91.4761 14.7798 1352 69.2766 282.091 490.695
2393 0 97.7463 13.443 1314 70.3212 282.116 491.854
2394 0 95.2388 16.4009 1562 68.1825 282.736 487.953
2395 0 98.3252 14.9911 1474 68.6967 282.4 488.577
2396 0 106.987 14.3755 1538 68.7594 282.836 487.93
2397 0 110.848 14.9033 1652 68.3002 282.597 484.716
2398 0 109.645 14.6199 1603 69.6862 283.07 478.261
2399 0 114.3 16.4567 1881 67.0085 283.504 481.107
2400 0 122.777 14.8074 1818 68.0319 282.686 483.328
2401 0 122.838 13.758 1690 70.8284 283.672 477.244
2402 0 126.336 14.7622 1865 69.334 283.092 475.125
2403 1 64.2044 12.102 777 71.3642 282.903 504.515
2404 0 69.3166 14.4266 1000 69.139 282.861 503.097
2405 0 73.383 15.6848 1151 66.9826 282.722 503.172
2406 0 72.6919 13.2202 961 71.3933 283.246 499.154
2407 0 76.3894 14.3083 1093 69.3715 282.974 500.812
2408 0 76.3011 13.0929 999 71.4815 282.498 498.476
2409 0 79.6255 14.9575 1191 68.8086 283.036 498.882
2410 0 80.3948 14.1054 1134 70.0335 282.719 497.792
2411 0 85.6828 14.6354 1254 69.1396 282.786 497.952
2412 0 86.7263 13.9289 1208 70.8758 282.638 492.378
2413 0 90.6447 15.1581 1374 68.9061 282.504 494.657
2414 0 91.3496 14.7018 1343 70.7409 283.198 488.726
2415 0 95.5174 15.17 1449 69.9427 283.03 489.885
2416 0 100.392 14.8517 1491 69.5131 283.107 485.607
2417 0 105.477 15.5768 1643 67.6178 283.217 487.642
2418 0 105.944 15.0079 1590 69.4283 282.294 483.61
2419 0 106.783 14.9931 1601 69.7377 283.07 482.468
2420 0 113.314 15.1967 1722 69.1516 282.454 479.219
2421 0 115.591 13.4007 1549 71.0265 282.483 481.335
2422 0 120.699 14.9629 1806 69.1833 282.281 476.344
2423 0 124.737 15.8894 1982 67.7886 282.102 473.308
2424 0 129.591 14.7696 1914 69.1923 281.725 475.01
2425 1 69.3724 13.9825 970 69.7866 282.46 503.005
2426 0 71.2946 14.2928 1019 70.0795 283.054 501.744
2427 0 74.452 15.688 1168 67.8048 282.844 503.147
2428 0 72.2541 13.6048 983 70.9196 282.296 501.217
2429 0 79.3279 12.7067 1008 71.6706 281.993 497.922
2430 0 83.6404 15.3036 1280 67.2656 282.476 499.389
2431 0 85.7118 13.4521 1153 70.9618 282.561 494.984
2432 0 88.8606 14.247 1266 69.1453 282.001 497.456
2433 0 84.7788 14.9684 1269 69.7794 282.658 492.776
2434 1 96.4494 15.4382 1489 66.9255 282.116 495.076
2435 0 90.7011 15.0605 1366 68.7936 281.638 491.353
2436 0 92.7561 14.3602 1332 70.3138 282.257 486.938
2437 0 97.6467 14.0302 1370 69.5358 282.31 486.549
2438 0 99.7355 15.2102 1517 67.8926 281.761 485.945
2439 0 104.485 16.4616 1720 66.2942 282.109 483.619
2440 0 112.954 16.2721 1838 65.1523 282.011 485.569
2441 0 108.622 14.9693 1626 68.2116 281.856 477.859
2442 0 112.385 15.8295 1779 66.3991 282.349 479.689
2443 1 119.4 14.4807 1729 67.8467 281.881 475.274
2444 0 129.917 15.9794 2076 64.9745 281.495 474.196
2445 0 128.363 14.8407 1905 67.3003 281.272 474.415
2446 0 132.27 15.2794 2021 66.6116 281.493 472.942
2447 0 132.426 14.9593 1981 67.3836 281.495 469.444
2448 1 70.4542 15.4994 1092 66.1511 281.165 501.661
2449 0 69.1711 16.5098 1142 66.2128 281.625 500.639
2450 0 69.3028 13.3761 927 70.8727 281.663 497.634
2451 0 75.5509 14.5068 1096 68.3805 281.271 498.232
2452 0 76.4148 14.0025 1070 69.2897 281.765 497.529
2453 0 87.2774 15.1242 1320 65.9879 281.824 499.117
2454 0 79.6832 14.1937 1131 69.0194 282.152 497.027
2455 1 3 9 27 57.5926 280.704 449.519
2456 1 85.5223 14.9084 1275 68.378 281.034 492.47
2457 0 87.7885 15.15 1330 67.9774 281.161 492.109
2458 0 89.691 15.3862 1380 66.8333 281.456 492.667
2459 0 98.2212 14.2943 1404 68.1083 281.158 487.58
2460 0 90.5058 14.2532 1290 70.8062 281.323 484.601
2461 0 95.4506 14.4054 1375 69.5542 280.804 482.436
2462 0 98.5904 14.758 1455 68.7739 281.784 482.542
2463 0 107.812 14.8591 1602 67.2659 281.305 481.099
2464 0 109.439 14.7571 1615 67.2427 281.145 480.095
2465 0 111.633 12.6934 1417 70.1969 281.694 478.66
2466 0 117.47 13.6971 1609 68.6271 281.399 470.372
2467 0 121.69 14.767 1797 66.4096 280.63 472.363
2468 0 123.302 14.0955 1738 67.8498 281.441 466.47
2469 0 129.409 14.4503 1870 67.1192 281.353 466.276
2470 0 135.371 15.6459 2118 65.433 282.188 465.808
2471 0 141.668 16.6657 2361 64.2478 281.993 463.099
2472 0 144.605 14.8819 2152 65.9382 281.854 463.358
2473 0 148.866 16.76 2495 64.3675 281.108 459.345
2474 0 155.637 14.2575 2219 66.3069 281.505 465.226
2475 0 161.452 16.0048 2584 64.7481 281.381 454.334
2476 0 167.208 16.004 2676 64.7758 281.205 453.17
2477 0 171.942 16.366 2814 64.3223 280.917 453.621
2478 0 176.858 14.3109 2531 67.3678 281.91 449.499
2479 0 182.646 14.0052 2558 67.7991 281.169 442.728
2480 0 186.734 13.6344 2546 68.6783 281.955 437.813
2481 1 108.576 14.9112 1619 66.8264 281.157 480.572
2482 0 112.55 12.3856 1394 68.7166 281.394 482.403
2483 0 114.553 13.2428 1517 68.9598 281.355 474.934
2484 0 116.319 14.2625 1659 68.0096 281.525 475.154
2485 0 125.296 15.3876 1928 66.6458 281.779 472.736
2486 0 131.845 14.2061 1873 67.6855 281.523 470.642
2487 0 131.457 13.2743 1745 69.5135 281.777 468.214
2488 0 138.46 15.5497 2153 66.523 281.425 465.764
2489 0 143.478 16.6924 2395 65.19 281.481 464.22
2490 1 236.825 11.8231 2800 68.5007 281.348 442.405
2491 0 237.209 10.2947 2442 69.1552 280.674 450.186
2492 0 232.705 10.6787 2485 71.1308 280.87 439.184
2493 0 238.434 14.2555 3399 68.0659 281.294 424.406
2494 0 237.744 12.7364 3028 70.6562 281.119 416.22
2495 1 102.538 13.1561 1349 68.7717 281.344 489.434
2496 0 103.783 12.9211 1341 69.8665 281.354 484.33
2497 0 103.444 15.3416 1587 67.719 281.43 483.306
2498 0 107.112 13.9667 1496 69.873 281.291 476.43
2499 0 115.705 14.4073 1667 68.042 281.209 479.569
2500 0 119.128 16.5285 1969 64.9264 280.398 479.609
2501 0 120.654 15.3579 1853 67.19 281.288 473.236
2502 0 128.454 15.6632 2012 66.6541 280.855 473.275
2503 0 129.726 14.3148 1857 68.329 281.742 470.712
2504 0 123.498 13.3282 1646 70.8584 282.007 465.088
2505 0 131.248 13.2878 1744 70.539 281.953 464.183
2506 0 362.023 15.9134 5761 68.2229 282.222 355.603
2507 1 210.056 13.7011 2878 69.1998 282.375 434.95
2508 0 212.248 11.3593 2411 72.5442 281.626 434.603
2509 1 221.609 11.4752 2543 72.7774 281.677 423.234
2510 0 233.263 12.3723 2886 70.4799 281.615 429.682
2511 1 67.048 7.05465 473 76.482 281.584 343.053
2512 1 226.529 8.52429 1931 73.318 282.154 451.648
2513 1 105.767 10.2206 1081 70.1582 282.666 490.09
2514 0 105.35 10.7926 1137 68.766 281.549 493.76
2515 0 99.604 13.4834 1343 69.6411 280.981 486.5
2516 0 103.993 12.6546 1316 70.8184 281.307 485.701
2517 0 109.954 13.3055 1463 70.2686 281.642 481.648
2518 0 111.58 13.3268 1487 70.4075 281.611 481.465
2519 0 113.434 12.9855 1473 71.2301 281.466 477.89
2520 0 119.998 13.8919 1667 69.8188 282.314 477.218
2521 0 123.209 13.197 1626 70.1353 282.165 475.199
2522 0 126.25 14.1069 1781 69.4615 282.313 474.62
2523 0 132.097 15.3675 2030 68.0207 281.487 470.552
2524 0 137.133 13.928 1910 69.3544 281.564 469.345
2525 0 141.025 14.9832 2113 67.708 282.028 467.435
2526 0 144.262 13.3438 1925 70.0166 281.967 467.161
2527 0 149.045 13.3919 1996 70.4704 282.171 463.433
2528 1 82.1592 15.9568 1311 65.6407 282.024 495.047
2529 0 86.0013 13.7323 1181 68.4115 281.945 494.633
2530 0 86.8907 12.2107 1061 71.476 281.598 489.272
2531 0 93.2965 15.7562 1470 65.9925 282.29 490.582
2532 0 94.7763 15.2359 1444 66.5692 281.501 489.399
2533 0 96.5165 14.7954 1428 68.2584 282.034 487.89
2534 0 100.329 15.509 1556 66.3875 282.381 489.75
2535 0 102.088 15.1731 1549 67.235 282.907 487.576
2536 0 105.931 13.4804 1428 69.2241 282.67 486.891
2537 0 108.747 15.743 1712 66.3575 282.078 484.449
2538 0 110.494 15.0325 1661 67.9843 281.815 480.576
2539 0 113.753 15.2436 1734 67.3276 281.965 479.732
2540 0 118.041 13.7834 1627 68.9244 282.348 478.741
2541 0 123.256 16.9809 2093 64.8127 282.448 478.511
2542 0 126.692 14.5629 1845 67.6201 282.756 476.581
2543 0 129.269 15.0771 1949 67.0436 282.72 474.401
2544 0 137.977 16.1186 2224 64.5976 282.505 472.343
2545 0 138.971 14.5714 2025 67.5338 282.357 466.301
2546 1 14.0111 5.99526 84 47.3333 278.381 526.917
2547 0 14.1256 8.91999 126 46.3889 279.897 525.683
2548 0 14.0932 8.15998 115 47.0174 279.974 526.739
2549 0 14.0641 9.95443 140 46.2643 279.993 525.457
2550 0 17.1152 8.82259 151 45.9603 280.517 526.662
2551 0 13.2846 11.5171 153 46.0261 281.314 528.163
2552 1 94.9986 12.4844 1186 69.7142 281.88 486.995
2553 0 96.6572 12.8081 1238 69.0921 282.391 489.12
2554 0 97.4962 11.3645 1108 72.5117 282.614 482.551
2555 0 102.333 13.2705 1358 69.5214 282.242 483.757
2556 0 105.587 13.2118 1395 69.2695 281.714 485.37
2557 0 109.155 12.5785 1373 70.6344 281.926 480.921
2558 0 113.785 13.2355 1506 69.9402 282.313 478.266
2559 0 115.598 13.9103 1608 68.9248 281.795 478.507
2560 0 118.78 14.4132 1712 68.4942 281.916 479.172
2561 0 114.252 15.2645 1744 68.9679 282.271 471.886
2562 0 115.273 14.6001 1683 69.6001 282.137 473.364
2563 1 128.662 15.1559 1950 67.6128 282.652 472.782
2564 0 132.811 13.5456 1799 69.438 282.1 470.297
2565 0 139.118 16.9209 2354 64.5488 281.538 471.67
2566 0 145.097 13.9631 2026 67.8909 281.779 466.867
2567 0 143.306 13.0979 1877 70.1827 282.168 461.605
2568 0 152.035 14.0955 2143 68.0378 282.465 462.141
2569 0 159.522 14.9008 2377 66.8384 281.481 459.639
2570 0 163.877 14.334 2349 67.7382 281.553 454.825
2571 0 167.951 15.2664 2564 66.2508 281.021 455.236
2572 0 174.64 17.7623 3102 63.293 281.547 453.631
2573 0 180.567 14.377 2596 66.5216 281.796 455.399
2574 0 177.442 15.3966 2732 66.8818 281.506 445.699
2575 0 184.529 11.2448 2075 69.4824 281.606 463.224
2576 0 184.51 11.1972 2066 71.0024 280.767 451.817
2577 0 186.724 11.4447 2137 69.2681 281.046 463.408
2578 1 117.968 13.1222 1548 68.8114 281.076 481.392
2579 0 112.336 14.6436 1645 68.4681 281.455 475.222
2580 1 124.966 14.3319 1791 67.6929 281.701 475.824
2581 0 129.904 15.1805 1972 66.2921 280.801 472.944
2582 0 130.288 13.378 1743 69.1457 280.574 465.396
2583 0 139.631 15.1399 2114 66.2649 280.957 470.089
2584 1 14.0195 9.0588 127 46.3228 279.354 530.89
2585 0 13.1348 10.4303 137 45.0073 279.117 530.737
2586 0 12.0554 5.97243 72 46.8333 280 529.486
2587 1 157.157 14.7559 2319 66.0724 281.459 459.613
2588 0 155.756 14.6126 2276 67.2026 281.239 451.366
2589 1 91.8028 10.9801 1008 70.0149 280.562 488.47
2590 0 90.6089 13.1775 1194 66.7739 280.972 491.281
2591 0 92.7777 10.2611 952 71.0357 281.015 491.795
2592 0 96.3035 13.7794 1327 67.6963 281.506 486.728
2593 0 98.7226 12.4389 1228 69.4682 281.696 485.859
2594 0 101.267 13.1534 1332 69.0841 281.294 482.497
2595 0 106.677 14.6142 1559 66.9288 280.731 488.627
2596 0 110.832 17.8649 1980 62.3667 280.948 485.716
2597 0 111.844 12.5174 1400 69.3936 281.936 481.216
2598 0 114.133 15.1052 1724 65.8695 282.844 481.221
2599 0 116.45 15.7664 1836 65.3644 281.886 482.295
2600 0 117.393 14.3449 1684 68.3011 282.458 474.716
2601 0 121.89 13.9634 1702 68.0987 281.347 476.411
2602 0 125.56 13.2128 1659 69.3659 281.259 472.821
2603 0 130.64 13.4492 1757 67.9192 282.256 471.266
2604 0 136.502 15.3771 2099 65.6265 281.536 469.192
2605 0 139.899 14.5534 2036 66.4985 281.595 466.603
2606 1 14.0075 4.64037 65 47.9846 282.923 529.323
2607 0 12.0051 5.66424 68 48.0735 282.368 528.353
2608 0 14.0453 8.82858 124 45.6935 280.815 529.621
2609 0 13.2635 7.1625 95 45.6421 282.432 530.042
2610 0 12.0503 6.22393 75 46.9867 281.707 529.173
2611 1 92.9496 13.3944 1245 65.8851 282.102 490.762
2612 0 90.8213 11.7704 1069 69.2105 282.514 489.122
2613 0 94.8934 12.4455 1181 67.9492 281.276 488.151
2614 0 99.4432 14.6616 1458 65.6742 282.122 487.971
2615 0 101.677 14.1526 1439 66.5448 282.37 484.3
2616 0 103.483 13.3452 1381 68.0985 282.151 483.39
2617 0 104.428 13.4639 1406 68.426 282.444 477.907
2618 0 104.361 13.875 1448 69.011 283 477.241
2619 0 111.718 14.9841 1674 66.5239 282.696 481.092
2620 0 115.714 17.3359 2006 64.0897 282.066 482.547
2621 0 117.013 13.4942 1579 68.4908 282.103 482.885
2622 0 121.02 13.2127 1599 69.4766 282.084 477.019
2623 0 123.91 16.0439 1988 66.2746 283.261 477.78
2624 0 125.5 14.9084 1871 67.744 282.356 474.79
2625 0 130.501 13.8006 1801 69.357 282.555 471.907
2626 0 134.492 15.934 2143 66.5152 281.744 469.327
2627 0 137.895 14.0615 1939 69.0366 281.393 471.112
2628 0 140.652 13.4374 1890 70.5847 281.26 462.712
2629 0 138.621 14.6442 2030 70.0729 281.054 464.054
2630 0 145.642 15.0163 2187 69.241 281.003 463.152
2631 0 152.7 15.0426 2297 69.3113 281.216 460.265
2632 0 158.663 14.8365 2354 68.969 281.867 462.777
2633 0 156.821 15.3041 2400 68.9488 281.878 457.52
2634 0 164.579 15.9073 2618 69.2231 281.878 452.003
2635 0 171.45 14.6049 2504 70.718 282.014 448.18
2636 0 173.695 15.3372 2664 69.7534 282.109 447.494
2637 0 180.636 14.4877 2617 71.2614 281.615 450.976
2638 0 187.475 15.25 2859 70.3435 281.601 445.249
2639 0 194.77 15.2385 2968 69.7146 282.175 447.825
2640 0 191.635 16.0514 3076 69.8609 281.846 438.355
2641 0 197.933 13.5298 2678 72.9589 281.879 437.171
2642 0 191.456 13.1571 2519 73.6173 281.487 439.283
2643 1 243.046 10.8292 2632 72.6991 281.978 443.339
2644 0 238.641 12.4077 2961 71.2921 281.647 437.424
2645 0 238.819 12.9931 3103 71.941 281.826 427.068
2646 0 243.103 17.0997 4157 67.0142 282.06 421.185
2647 0 242.666 17.4602 4237 67.7711 282.111 408.99
2648 1 179.512 13.9489 2504 70.2268 282.275 449.734
2649 1 53.6454 11.2032 601 68.2396 281.933 507.103
2650 0 53.6323 8.52099 457 72.1116 281.654 507.864
2651 0 56.6653 12.1238 687 68.214 282.425 510.38
2652 0 56.5012 11.7166 662 69.935 281.971 508.361
2653 0 59.843 11.6137 695 69.0935 281.786 509.839
2654 0 61.5483 11.4219 703 69.9047 282.37 507.472
2655 0 60.813 12.4973 760 68.946 281.958 508.188
2656 0 62.5961 10.9751 687 71.393 281.841 509.697
2657 0 62.5069 11.0228 689 71.3048 282.057 508.502
2658 0 61.4981 10.2442 630 74.6508 281.759 503.297
2659 0 65.7737 11.3419 746 71.2721 282.017 507.149
2660 0 69.5007 14.3884 1000 66.054 282.001 508.291
2661 1 124.796 12.4443 1553 71.0889 281.593 481.683
2662 0 127.854 14.7199 1882 68.3916 281.26 482.745
2663 0 132.724 12.3112 1634 72.0759 281.386 475.691
2664 1 77.8242 13.6718 1064 67.8891 281.506 499.475
2665 0 74.4257 13.2481 986 70.4939 281.411 495.057
2666 0 82.5664 12.1115 1000 69.257 281.792 500.565
2667 0 83.4744 10.1348 846 72.3782 280.935 496.561
2668 0 87.5123 12.5125 1095 68.7388 281.552 495.924
2669 0 88.466 12.0498 1066 68.1745 281.557 497.238
2670 0 92.4055 12.7157 1175 67.5481 281.254 494.983
2671 0 96.4995 14.3213 1382 65.335 281.599 496.677
2672 0 97.5357 15.6045 1522 64.9842 281.538 491.196
2673 0 101.614 12.7344 1294 68.3825 281.682 486.943
2674 0 102.459 11.1166 1139 70.8762 281.171 484.386
2675 0 105.393 12.202 1286 69.063 281.816 486.159
2676 0 112.709 13.2998 1499 66.9807 281.779 482.772
2677 0 112.924 13.5135 1526 66.7464 281.94 479.459
2678 0 119.532 15.9287 1904 63.2101 281.555 483.626
2679 0 122.588 14.1042 1729 64.974 281.555 481.835
2680 0 125.757 13.3909 1684 66.4727 282.396 477.534
2681 0 131.43 14.0607 1848 65.2749 282.181 472.765
2682 0 132.562 14.597 1935 64.8698 281.573 469.382
2683 0 139.459 12.1183 1690 67.0988 280.919 466.592
2684 1 86.8479 13.2761 1153 62.9081 281.075 502.303
2685 0 86.5864 13.6165 1179 63.3571 281.489 500.455
2686 0 89.738 12.2913 1103 66.7987 281.747 494.878
2687 0 91.6164 13.1199 1202 65.2246 281.582 496.2
2688 0 92.5635 10.9546 1014 68.4389 281.759 493.353
2689 0 98.7422 13.9251 1375 64.2145 282.409 493.646
2690 0 99.55 15.8112 1574 61.9543 281.602 494.682
2691 0 101.699 15.4082 1567 62.0019 280.935 496.271
2692 0 101.65 12.0217 1222 67.7537 281.867 489.196
2693 0 103.574 13.5748 1406 65.9694 282.255 485.107
2694 0 109.761 14.4405 1585 64.1729 282.281 488.658
2695 0 109.423 14.019 1534 65.7373 281.934 482.98
2696 0 115.571 13.4462 1554 65.9183 282.028 485.067
2697 0 116.375 14.3759 1673 65.0586 281.901 479.822
2698 0 120.644 13.776 1662 65.4212 282.025 479.842
2699 0 124.833 16.1496 2016 62.874 282.06 475.036
2700 0 129.66 14.3144 1856 65.0824 282.472 475.274
2701 0 134.749 13.6031 1833 65.6645 281.83 474.913
2702 0 139.551 15.4926 2162 63.303 282.293 472.053
2703 1 75.7619 14.0704 1066 63.136 282.367 504.186
2704 0 74.4557 12.3026 916 66.8057 282.421 499.68
2705 0 78.5203 11.8441 930 65.9312 282.383 502.646
2706 0 79.7812 14.0635 1122 64.5303 282.325 500.207
2707 0 84.6936 12.5629 1064 65.8139 282.383 497.452
2708 0 86.5452 13.2416 1146 65.7312 282.171 496.147
2709 0 83.397 12.6623 1056 67.4508 282.501 495.803
2710 0 90.8124 15.3393 1393 63.5951 282.358 498.317
2711 0 92.8339 14.5098 1347 64.2821 282.451 496.604
2712 0 94.7195 13.7458 1302 64.8748 282.54 493.931
2713 0 93.3529 13.9685 1304 65.5322 282.468 486.968
2714 0 99.7517 14.5261 1449 64.2588 282.538 489.672
2715 0 101.799 12.5051 1273 66.0911 282.546 491.066
2716 0 107.074 14.56 1559 62.9294 282.457 491.898
2717 0 111.803 15.6436 1749 61.9863 282.342 487.778
2718 0 115.754 15.844 1834 60.9646 282.19 486.388
2719 0 118.847 16.0206 1904 61.073 282.572 483.508
2720 0 121.584 14.9033 1812 62.5839 282.948 481.93
2721 0 125.896 14.4008 1813 62.5957 282.614 483.727
2722 0 128.214 14.2886 1832 63.3384 282.531 479.652
2723 0 131.427 14.6469 1925 63.1325 282.751 470.392
2724 0 139.903 16.5257 2312 60.0182 282.428 477.937
2725 0 136.434 14.3585 1959 63.9561 282.562 467.33
2726 1 146.777 15.0977 2216 61.569 282.697 476.019
2727 0 149.875 14.5655 2183 62.7224 283.041 470.288
2728 0 150.483 16.4072 2469 61.5938 283.334 466.433
2729 0 152.714 12.6642 1934 66.4173 282.677 461.531
2730 1 94.9635 11.2885 1072 63.3209 282.665 502.688
2731 0 84.4329 11.4766 969 66.9856 281.626 493.758
2732 0 80.4084 13.3195 1071 64.7992 282.061 496.846
2733 1 90.6122 12.7466 1155 65.755 282.226 490.803
2734 0 86.9408 15.1712 1319 64.4481 282.509 490.162
2735 0 93.4782 12.1098 1132 67.2738 282.084 488.046
2736 0 97.652 14.2035 1387 64.721 282.1 485.877
2737 0 98.8378 15.7126 1553 62.9781 282.093 486.111
2738 0 105.691 14.5424 1537 63.2602 282.3 486.948
2739 0 107.46 12.7489 1370 66.3599 282.277 480.575
2740 0 109.624 16.0732 1762 62.4177 282.879 482.211
2741 0 113.718 12.7068 1445 66.0332 281.923 481.305
2742 0 119.819 15.3315 1837 62.5259 281.995 481.227
2743 0 122.462 12.8611 1575 65.7359 282.104 474.639
2744 0 126.649 13.0834 1657 65.2553 282.159 474.401
2745 0 130.748 13.9964 1830 63.9071 282.442 475.167
2746 1 66.6386 11.5399 769 65.7555 282.848 503.44
2747 0 70.703 13.9174 984 63.1829 282.609 503.552
2748 0 73.7786 14.3944 1062 61.8277 283.074 503.646
2749 0 73.8309 11.7701 869 65.5432 283.423 501.194
2750 0 70.6884 12.3641 874 67.0686 282.451 494.953
2751 0 78.5987 13.9824 1099 62.4268 281.923 499.865
2752 0 82.7312 12.7038 1051 64.4196 282.217 497.25
2753 0 82.4333 13.4654 1110 64.6171 282.394 493.804
2754 0 83.3758 13.4092 1118 64.5635 282.107 492.323
2755 1 96.0537 12.7637 1226 65.2684 283.451 402.61
2756 0 91.7472 14.0713 1291 63.4129 283.016 493.428
2757 0 93.6772 14.2084 1331 64.0796 283.147 491.826
2758 0 94.5947 13.8063 1306 64.3522 283.204 488.014
2759 0 94.4237 13.7465 1298 64.6287 282.945 487.907
2760 0 91.4851 15.62 1429 63.557 283.192 487.777
2761 0 94.6974 14.9634 1417 63.7678 282.892 488.77
2762 0 97.5772 13.7942 1346 66.0201 282.853 484.597
2763 1 108.513 12.6344 1371 65.86 282.7 483.966
2764 0 114.354 13.6069 1556 64.6742 282.503 477.821
2765 1 12.0017 1.08318 13 50.3846 281.846 534
2766 0 12.0794 8.52695 103 43.9029 282.233 532.116
2767 1 124.348 14.3228 1781 64.3594 282.276 476.022
2768 0 129.768 14.549 1888 63.9301 282.238 476.689
2769 0 131.499 14.5704 1916 64.2604 282.474 475.844
2770 0 134.596 13.8563 1865 65.2064 282.573 472.15
2771 1 80.088 10.1513 813 74.0332 283.021 360.769
2772 1 217.764 8.76637 1909 69.6757 282.827 456.52
2773 0 213.628 7.24157 1547 70.4577 282.95 463.055
2774 0 206.491 7.57417 1564 70.2986 282.486 462.9
2775 1 13.0114 5.99474 78 46.859 283.872 530.808
2776 0 12.0795 4.96707 60 48.5833 285.067 531.1
2777 1 83.3622 14.8389 1237 63.0606 283.383 498.723
2778 0 86.8258 11.6555 1012 67.4012 282.813 497.051
2779 0 85.6271 13.3369 1142 66.5324 282.806 491.961
2780 0 87.4257 15.1329 1323 64.483 283.179 493.401
2781 0 87.8246 14.7339 1294 65.9629 282.924 490.358
2782 0 96.4506 14.5774 1406 64.8208 283.038 493.73
2783 0 99.1206 11.713 1161 67.6908 283.399 386.796
2784 0 103.125 11.7916 1216 67.6801 283.506 381.885
2785 0 107.804 15.287 1648 63.5182 282.816 488.003
2786 0 103.991 14.8474 1544 65.3297 282.491 480.52
2787 0 108.776 13.6244 1482 66.5027 282.951 483.743
2788 0 116.686 16.0002 1867 63.7686 282.72 482.514
2789 0 116.565 14.8329 1729 65.3094 283.138 479.145
2790 0 0 0 0 -nan -nan -nan
2791 1 10 0.7 7 54.7143 286.857 528.286
2792 1 0 0 0 -nan -nan -nan
2793 1 134.623 13.7867 1856 66.847 283.29 468.856
2794 1 75.4873 14.2408 1075 64.1628 282.58 502.389
2795 0 77.3414 12.5806 973 67.1213 282.581 498.733
2796 0 79.1078 12.3882 980 67.1082 283.183 500.893
2797 0 85.0197 15.6199 1328 62.0889 283.336 503.966
2798 0 81.8015 12.6648 1036 68.5396 283.215 495.307
2799 0 86.3293 13.8076 1192 66.6619 283.381 496.101
2800 0 87.928 15.3648 1351 64.5085 282.577 497.59
2801 0 92.0251 14.5287 1337 65.8841 282.94 494.864
2802 0 92.7283 15.1087 1401 66.03 282.849 492.453
2803 0 89.2509 15.0811 1346 67.5669 283.535 487.627
2804 1 98.8373 13.6285 1347 67.5531 283.762 490.856
2805 0 95.2159 13.4116 1277 69.4471 284.165 485.484
2806 0 99.409 16.8295 1673 64.7944 283.677 487.986
2807 0 108.479 14.8416 1610 65.9044 283.221 487.516
2808 0 104.058 14.9052 1551 67.2334 283.905 485.796
2809 0 104.466 14.914 1558 67.2227 283.024 483.545
2810 0 107.994 15.6861 1694 66.3766 283.192 481.024
2811 0 111.412 16.1832 1803 65.7909 283.012 477.779
2812 0 113.693 14.592 1659 67.868 283.778 475.617
2813 1 132.39 11.2017 1483 69.7181 282.705 479.158
2814 0 128.214 14.5538 1866 67.2262 283.169 473.999
2815 0 133.774 13.6798 1830 68.435 283.474 471.481
2816 0 132.867 12.7722 1697 70.1738 283.635 467.261
2817 0 131.361 16.329 2145 65.8951 283.146 466.494
2818 1 79.5651 13.2219 1052 68.2728 283.363 498.48
2819 0 78.5426 11.255 884 72.0124 283.389 496.924
2820 0 77.9815 11.6951 912 72.4189 283.345 495.944
2821 0 89.2712 13.599 1214 66.9934 283.974 498.934
2822 0 87.2172 15.0314 1311 66.4111 283.951 499.654
2823 0 79.1217 15.1539 1199 70.4087 283.398 490.992
2824 0 87.6789 15.591 1367 67.1895 283.617 494.795
2825 1 13.0848 10.3938 136 45.7279 284.441 531.059
2826 0 12.0293 4.15653 50 47.9 286.52 532.46
2827 0 14.1221 4.95675 70 47.9143 285.229 533.771
2828 0 12.0911 7.69161 93 47.0323 285.957 531.645
2829 0 13.214 7.03796 93 47.2796 284.527 530.613
2830 0 14.017 9.91654 139 45.8489 283.237 529.899
2831 0 15.2678 11.986 183 46.153 283.863 529.989
2832 1 99.2662 15.5944 1548 71.1647 283.614 480.056
2833 1 10.033 6.07995 61 46.623 284.18 532.393
2834 0 11.0942 8.29259 92 46.0543 283.761 531.054
2835 0 11.0967 9.10179 101 46.604 284.356 531.931
2836 0 12.0073 14.5745 175 44.52 283.794 532.566
2837 0 13.2832 5.49566 73 48.0137 285.205 532.438
2838 0 12.3112 7.06676 87 48.1954 284.736 531.494
2839 0 14.7386 11.7379 173 45.6474 284.087 532.11
2840 0 13.1667 14.2025 187 45.5615 283.834 530.84
2841 0 13.1179 16.3898 215 43.586 283.144 530.73
2842 0 15.3115 10.5149 161 46.8882 284.335 529.41
2843 0 15.1683 11.9987 182 45.7363 283.934 530.989
2844 0 11.1133 8.27834 92 47.8261 282.761 531.815
2845 0 11.0212 10.2529 113 46.6903 283.46 529.938
2846 0 1 17 17 48.4706 285.235 525.647
2847 1 14.0541 6.68845 94 48.2553 284.723 530.596
2848 0 16.0982 5.77703 93 48.4516 284.763 530.011
2849 0 13.0515 10.4969 137 47.4234 285.438 530.241
2850 0 13.3566 7.26233 97 48.5258 284.041 530.588
2851 0 16.1072 14.0931 227 45.859 284.119 529.537
2852 0 12.0652 9.61445 116 47.7414 284.534 527.759
2853 0 12.2963 4.39155 54 48.6111 284.056 530.87
2854 0 13.2562 4.45076 59 49.8644 285.898 530.508
2855 0 13.2517 4.1504 55 49.8364 285.164 530.491
2856 0 14.5074 10.0638 146 47.2123 284.877 530.849
2857 0 11.0682 14.4559 160 46.8688 284.831 529.244
2858 0 14.6238 9.64184 141 48.078 284.085 528.021
2859 0 12.0659 13.7577 166 46.9157 283.831 530.247
2860 0 13.0896 9.54959 125 47.384 284.864 530.784
2861 0 6 7.66667 46 48.1087 284.37 527.196
2862 0 11.0319 7.43296 82 47.3171 284.402 529.085
2863 0 2 15.5 31 48.129 283.548 526.161
2864 0 13.0866 7.41218 97 47.701 284.093 531.598
2865 0 13.0222 8.75429 114 47.886 285.579 528.509
2866 0 14.0182 6.42023 90 48.7667 286.333 530.333
2867 0 12.1184 5.61131 68 50.3088 286.088 527.809
2868 0 13.2092 5.75356 76 49.9211 285.658 530.25
2869 0 14.2148 9.56747 136 48.7206 285.081 528.309
2870 0 13.4861 10.9742 148 49.3243 284.527 527.236
2871 0 13.1982 8.03142 106 50.2453 285.17 528.406
2872 0 13.1207 12.8804 169 48.0237 284.391 527.408
2873 1 89.8107 14.5417 1306 73.3216 283.981 493.289
2874 0 91.6355 16.0855 1474 71.6689 284.358 489.816
2875 0 96.3084 15.523 1495 70.6375 284.357 494.116
2876 0 94.7767 13.4632 1276 74.9381 284.351 488.118
2877 0 90.3262 15.2115 1374 75.0713 283.882 483.643
2878 0 93.158 15.2859 1424 74.7114 284.464 483.713
2879 0 95.1816 15.4126 1467 75.015 283.994 480.611
2880 0 102.33 15.968 1634 72.8494 285.234 480.404
2881 0 103.136 14.7766 1524 74.916 285.528 476.349
2882 1 180.934 11.4241 2067 76.6812 284.862 458.961
2883 1 172.144 9.71858 1673 78.4854 284.777 466.654
2884 1 125.929 14.5637 1834 72.9798 284.326 475.148
2885 0 126.004 13.4837 1699 75.1212 284.387 472.261
2886 0 124.479 16.4364 2046 72.0225 283.866 469.795
2887 0 125.701 15.1629 1906 73.6658 284.221 469.174
2888 0 132.425 16.2507 2152 72.5014 284.527 463.744
2889 1 143.724 16.2255 2332 70.1591 284.433 474.709
2890 0 144.746 13.3061 1926 74.3754 284.662 472.997
2891 1 69.2472 13.6612 946 76.9503 284.608 494.854
2892 0 78.7064 14.2809 1124 72.7126 284.56 501.05
2893 0 72.3727 14.7431 1067 76.253 284.953 494.152
2894 0 73.2274 13.2601 971 78.7827 284.86 492.28
2895 0 76.4287 14.8766 1137 76.6069 283.619 489.784
2896 0 77.3947 14.5617 1127 76.8616 284.439 491.851
2897 0 78.1676 14.5073 1134 77.8854 284.77 489.787
2898 0 83.1815 14.8831 1238 76.2092 284.092 490.393
2899 0 0 0 0 -nan -nan -nan
2900 1 0 0 1.04732e-303 -nan 461 -0.0363705
2901 0 9.029 8.9711 81 49.5062 284.321 529.556
2902 0 0 0 8 50 289.5 524
2903 0 1 16 16 51.375 287.125 524.562
2904 1 13.1001 7.17552 94 49.5319 285.564 531.383
2905 0 14.3449 8.29561 119 48.126 284.899 534
2906 0 14.5523 7.0779 103 49.2233 285.019 531.388
2907 0 12.1108 1.65141 20 52.5 285.65 533.15
2908 0 14.2008 9.29525 132 49.3485 285.447 529.129
2909 0 5 3.2 16 51.875 287.875 530.312
2910 0 11.1168 7.64612 85 47.9059 284.624 533
2911 0 11.0185 8.25881 91 48.5824 284.802 532.714
2912 0 12.2982 9.43229 116 48.1121 284.526 533.69
2913 0 13.4317 9.00853 121 48.6033 284.843 531.537
2914 0 11.1714 5.54987 62 50.1452 285.048 531.581
2915 1 68.1874 14.2402 971 75.1885 284.505 498.752
2916 1 83.2827 14.5288 1210 70.9521 284.489 498.985
2917 1 16.5143 7.1453 118 49.1949 286.119 530.458
2918 0 13.1463 14.0724 185 45.5514 284.508 532.616
2919 0 10.1224 4.34679 44 50 284.886 532.068
2920 0 11.076 3.88227 43 50.3023 285.814 531.93
2921 0 14.4987 7.17307 104 48.7885 285.356 530.663
2922 0 7.00456 9.1369 64 48.9375 287.344 526.875
2923 0 5 6.4 32 51.1562 287.656 526.156
2924 0 13.2242 5.52016 73 49.3151 287.178 529.479
2925 1 2 11 22 48.5455 285.273 525.955
2926 0 1 15 15 48.7333 286.067 525.467
2927 0 13.1685 3.11349 41 48.3415 286.122 532.829
2928 0 3 16 48 46.9583 285.188 526.562
2929 0 13.4027 8.13268 109 46.5229 286.101 531.505
2930 0 10.1523 5.90999 60 47.3167 285.383 530.617
2931 0 2 19 38 45.7632 285.053 528.421
2932 0 3 4.66667 14 46.2857 283.5 527.929
2933 0 12.1112 6.52287 79 47.3165 285.013 532.405
2934 0 13.403 12.0869 162 46.0123 285.648 530.383
2935 0 9.00287 10.5522 95 47.0211 286.295 529.905
2936 0 15.4794 6.91243 107 48.2991 285.346 530.392
2937 0 13.1811 4.32436 57 49.4211 285.965 532.281
2938 0 15.5012 5.93502 92 48.4891 286.717 531.033
2939 0 6 8.5 51 49.4314 285.373 526.412
2940 0 14.7517 4.33847 64 50.2812 285.953 528.109
2941 1 4 14.5 58 48.4655 286.569 525.672
2942 0 13.3927 5.7494 77 48.9091 286.532 531.156
2943 0 12.0427 6.89214 83 47.1566 284.145 532.518
2944 0 9 1 9 53.5556 288.889 528.111
2945 0 11.0348 6.07169 67 47.3582 283.91 532.702
2946 0 2 9.5 19 48.7368 284.526 527
2947 0 1 24 24 46.6667 282.417 526.5
2948 0 1 6 6 47.6667 283.5 526.833
2949 0 1 13 13 48.3846 283 526.462
2950 0 10.0216 6.28644 63 46.1429 283.873 529.714
2951 1 98.5944 16.6845 1645 67.8559 283.881 485.212
2952 0 102.505 13.9506 1430 71.9559 283.036 480.6
2953 0 103.291 17.0876 1765 67.7892 283.542 478.198
2954 0 108.376 17.181 1862 67.1117 283.439 477.367
2955 0 113.758 16.8692 1919 66.7097 283.637 480.525
2956 0 114.738 15.3392 1760 69.3847 283.861 475.209
2957 0 119.575 15.2289 1821 69.3624 284.426 470.374
2958 0 120.439 14.9537 1801 70.7524 284.748 468.81
2959 0 127.943 17.7266 2268 66.0701 284.47 469.275
2960 0 129.458 15.4182 1996 69.6468 284.358 467.438
2961 0 133.208 14.3535 1912 71.0209 284.33 464.456
2962 0 138.394 16.2796 2253 68.1234 283.407 466.317
2963 1 4 4.5 18 69.6111 283.389 462.222
2964 1 68.3027 15.0946 1031 71.8118 283.401 497.878
2965 0 66.1895 15.1837 1005 73.3174 283.424 494.09
2966 0 76.5221 15.1068 1156 71.0675 283.401 496.927
2967 0 70.1149 13.7061 961 75.2352 283.667 495.546
2968 0 79.6735 16.2287 1293 69.3852 283.393 497.862
2969 0 73.1691 15.7034 1149 73.3238 283.272 491.225
2970 0 76.2534 14.0584 1072 75.6437 283.454 491.754
2971 0 78.0779 16.0353 1252 73.7484 283.806 486.633
2972 0 88.7877 18.1669 1613 68.4488 284.084 492.16
2973 0 84.1275 14.3948 1211 76.1057 284.015 487.739
2974 0 94.5055 16.1895 1530 70.5444 284.509 491.493
2975 0 97.724 13.1186 1282 75.3362 284.027 487.417
2976 0 97.4917 17.1604 1673 70.327 283.812 489.143
2977 0 93.2686 16.49 1538 73.6203 284.3 482.598
2978 0 96.8541 16.9224 1639 72.2227 284.013 484.89
2979 1 113.534 15.4755 1757 71.107 284.087 480.979
2980 0 103.264 17.0147 1757 72.1662 283.519 482.968
2981 0 107.497 17.3121 1861 71.0634 284.123 479.325
2982 0 112.597 16.377 1844 72.5141 284.001 473.621
2983 0 114.295 16.37 1871 72.7349 284.178 475.468
2984 0 118.456 15.5669 1844 73.9024 284.437 474.164
2985 0 123.902 15.2217 1886 74.0923 284.023 469.1
2986 0 134.847 16.3445 2204 71.4977 283.779 465.05
2987 0 133.162 17.3848 2315 70.6251 284.73 464.062
2988 0 132.346 16.3511 2164 72.7819 284.463 459.778
2989 0 137.163 14.9385 2049 74.7901 284.424 457.369
2990 0 143.278 17.2253 2468 71.0032 284.5 456.647
2991 1 74.1207 10.7797 799 74.7447 284.454 501.369
2992 1 3 5.33333 16 71.625 283.688 459.625
2993 1 73.5004 13.5237 994 73.8008 283.941 497.609
2994 0 70.1806 15.6026 1095 73.0137 283.298 494.637
2995 0 74.1361 14.6487 1086 74.0046 283.737 494.443
2996 0 76.5958 14.3872 1102 74.7713 284.272 492.426
2997 0 72.2956 15.4781 1119 75.109 283.954 490.466
2998 0 76.1933 13.8201 1053 76.8205 283.723 489.316
2999 0 76.091 14.4958 1103 76.1151 284.09 491.086
3000 0 88.779 17.5717 1560 68.2782 284.863 493.356
3001 0 90.5507 15.8806 1438 71.3254 284.741 489.607
3002 0 89.6391 15.5736 1396 73.3904 284.331 484.864
3003 1 232.924 15.9838 3723 69.9774 284.935 429.136
3004 0 229.628 15.4337 3544 71.8987 284.325 422.812
3005 0 232.276 15.6107 3626 72.7317 284.328 410.991
3006 0 241.634 14.2861 3452 74.3088 283.696 413.675
3007 1 112.046 14.503 1625 72.0382 283.729 477.991
3008 0 113.691 16.8439 1915 69.1342 283.628 480.422
3009 1 45.4529 14.1465 643 72.7574 283.779 508.4
3010 0 46.0514 14.4404 665 72.4842 284.066 507.209
3011 0 47.2451 14.8798 703 72.835 284.496 506.252
3012 0 47.2015 16.8639 796 71.2312 284.883 504.303
3013 0 46.1898 14.2456 658 75.4711 284.795 504.346
3014 0 52.126 15.9038 829 71.5549 284.147 504.168
3015 0 54.1725 15.9306 863 72.3407 284.276 502.379
3016 0 56.3182 15.6077 879 72.1923 284.928 502.531
3017 0 57.1023 15.551 888 72.7004 284.184 501.091
3018 0 57.2618 16.2936 933 71.8532 283.97 501.599
3019 0 59.3741 15.2255 904 73.5066 284.517 500.352
3020 0 61.2638 16.9105 1036 70.3552 284.644 499.316
3021 0 63.2659 15.1582 959 72.3358 284.92 496.947
3022 0 65.2731 17.5111 1143 69.1828 284.937 498.866
3023 0 66.343 17.2739 1146 70.2845 284.712 496.168
3024 0 67.1241 16.2088 1088 71.546 284.45 494.412
3025 0 69.1546 16.9909 1175 70.6672 284.796 493.934
3026 0 73.6657 15.4617 1139 71.6558 284.757 491.069
3027 0 72.2599 15.5411 1123 72.3108 284.48 491.023
3028 0 77.1462 14.466 1116 72.5224 285.187 491.723
3029 0 79.1322 15.0255 1189 71.894 284.66 489.677
3030 0 87.9355 15.5114 1364 69.4289 285.346 489.919
3031 0 87.1177 16.9656 1478 67.9547 284.687 487.23
3032 0 89.2533 17.8929 1597 66.7946 284.715 487.575
3033 0 89.1228 15.5852 1389 70.2585 284.919 484.849
3034 0 94.318 15.0767 1422 70.2707 284.949 482.832
3035 0 101.59 18.4073 1870 64.8797 285.059 484.522
3036 0 100.193 14.6916 1472 70.0632 284.825 481.236
3037 1 51.2592 14.7095 754 67.6074 284.647 506.271
3038 0 47.3396 14.5967 691 70.0521 284.902 503.949
3039 1 0 0 20.6719 -nan 1.04758e-303 0
3040 1 52.5209 14.2039 746 68.689 285.399 505.414
3041 0 50.2437 13.0365 655 71.9542 285.13 503.104
3042 1 14.0314 7.98209 112 45.7232 285.696 527.634
3043 1 3 7.33333 22 48.9545 288.818 524.136
3044 0 4 14.75 59 45.7119 287.051 524.966
3045 0 14.1579 6.07434 86 46.3256 285.57 530.674
3046 0 11.1169 8.72549 97 44.1443 286.072 531.072
3047 0 11.0228 6.07833 67 45.8657 285.104 532.91
3048 0 0 0 1.04732e-303 -nan 0 1.04765e-303
3049 0 0 0 2.13051e-314 -nan 2.01443e-307 1.69845e-313
3050 0 0 0 1.04732e-303 -nan 392 0.0448802
3051 0 12.0056 8.16287 98 45.2245 285.071 531.296
3052 0 0 0 0 -nan -nan -nan
3053 0 0 0 6.08954e-316 -nan 2.17298e-07 3.29439e-312
3054 0 0 0 0 -nan -nan -nan
3055 0 14.5496 10.3783 151 44.4901 285.126 530.046
3056 1 85.4063 17.9612 1534 66.1597 284.853 488.948
3057 0 87.5365 14.5654 1275 70.8361 284.393 484.034
3058 0 97.0321 15.2527 1480 68.6122 284.334 483.864
3059 0 97.6526 18.7297 1829 63.8119 284.543 485.548
3060 0 94.282 14.7536 1391 69.8692 285.023 483.28
3061 0 105.042 16.0221 1683 66.6334 284.747 479.466
3062 0 100.36 15.4843 1554 69.2027 285.028 475.001
3063 0 104.104 14.5144 1511 70.0324 285.033 473.422
3064 1 119.737 15.5006 1856 66.3039 285.323 477.126
3065 0 114.226 16.7388 1912 66.6219 285.35 472.261
3066 0 119.847 15.403 1846 68.1002 285.459 471.085
3067 0 122.157 17.7722 2171 65.6145 285.674 469.903
3068 0 124.242 15.7998 1963 68.0652 285.259 466.893
3069 0 131.351 15.6071 2050 67.9098 285.165 467.92
3070 1 80.3876 10.0513 808 72.6498 285.644 494.269
3071 1 69.1594 15.0811 1043 69.3653 285.428 495.942
3072 0 73.3038 13.5873 996 71.0151 284.885 493.755
3073 0 76.1148 11.9819 912 72.2083 284.472 412.306
3074 0 75.2074 13.6822 1029 72.1419 284.256 490.109
3075 0 81.3315 14.3856 1170 70.6274 284.496 491.098
3076 1 91.6927 13.5343 1241 70.0048 284.292 491.122
3077 0 80.3052 15.1796 1219 71.3421 284.746 488.659
3078 1 12.0047 1.91592 23 47.2609 284.87 533.044
3079 0 10.0137 2.29685 23 48.1739 284.522 531
3080 1 104.624 12.9511 1355 71.6111 284.456 484.465
3081 0 98.54 14.7047 1449 70.991 285.164 482.329
3082 0 101.229 15.9243 1612 69.8542 284.152 480.592
3083 0 106.677 15.4954 1653 69.8724 284.44 479.047
3084 0 0 0 0 -nan -nan -nan
3085 1 3 10.6667 32 46.8438 286.25 525
3086 0 5 8.8 44 45.5682 286.523 525.523
3087 0 13.2883 9.25629 123 44.6016 286.211 528.927
3088 0 11.1195 5.84556 65 45.9231 286.169 528.431
3089 0 6 7.16667 43 48.7674 289.651 521.163
3090 0 6 6.83333 41 48.6829 288.78 521.488
3091 0 15.1211 1.91785 29 49.3103 287.517 526.862
3092 1 0 0 0 -nan -nan -nan
3093 1 3 6.33333 19 49.5789 288.526 524.263
3094 1 13.0323 1.53464 20 49.7 288.9 527.95
3095 1 3 13 39 46.7692 287.051 524.205
3096 0 11.1152 6.92746 77 46.9221 286.649 528.286
3097 0 13.2251 9.82982 130 45.6538 286.108 529.931
3098 1 2 13 26 45.6538 289.077 524.808
3099 0 0 0 3.60668e-322 -nan 459 -0.0785186
3100 0 0 0 0 -nan -nan -nan
3101 0 13.1046 11.9805 157 45 285.357 528.847
3102 1 88.1453 18.3334 1616 68.125 284.637 484.812
3103 0 90.2062 14.4447 1303 73.8956 285.203 480.632
3104 0 94.1285 15.0751 1419 72.2643 285.057 482.851
3105 0 97.3139 14.1398 1376 73.5124 285.591 480.211
3106 0 98.3014 15.2999 1504 71.8005 285.805 480.968
3107 0 104.438 16.0861 1680 69.5667 285.665 481.244
3108 0 107.351 15.6495 1680 70.7137 285.567 473.919
3109 0 114.311 17.7323 2027 67.0784 285.814 474.919
3110 0 118.227 17.6356 2085 66.6149 285.875 473.587
3111 0 119.196 14.8327 1768 71.0871 285.831 469.578
3112 0 125.253 17.5645 2200 67.0795 285.009 466.203
3113 0 128.16 15.2075 1949 70.0795 285.412 463.151
3114 0 134.263 16.6688 2238 67.5956 284.913 464.145
3115 0 139.394 15.2087 2120 69.4731 285.359 459.781
3116 0 146.589 17.8731 2620 65.5454 285.172 460.065
3117 0 147.18 14.9885 2206 69.8196 285.326 453.244
3118 0 152.331 15.8536 2415 68.8551 285.214 451.855
3119 0 158.252 15.0898 2388 69.4753 285.795 454.962
3120 1 78.0982 8.51492 665 74.5353 285.842 403.28
3121 1 159.241 12.9489 2062 72.3031 285.37 455.494
3122 0 160.258 12.2615 1965 72.0911 285.483 461.063
3123 1 99.8069 12.9149 1289 73.0225 284.775 481.14
3124 0 94.122 14.375 1353 72.7021 285.246 478.527
3125 0 94.1962 15.1811 1430 72.414 285.455 471.819
3126 0 100.203 16.5164 1655 69.2465 284.972 475.339
3127 0 105.519 16.5753 1749 69.1246 284.66 474.208
3128 0 107.186 15.7671 1690 71.113 285.263 470.558
3129 0 112.258 14.3865 1615 72.2043 285.387 470.56
3130 0 116.231 16.1919 1882 70.0398 285.137 466.73
3131 0 120.209 15.8057 1900 70.28 285.229 466.324
3132 0 123.355 15.7108 1938 70.8586 285.232 466.3
3133 0 131.477 16.0636 2112 70.0398 284.841 461.387
3134 0 132.497 16.6947 2212 69.6808 284.852 462.638
3135 0 139.679 17.0462 2381 69.0239 285.138 462.896
3136 1 70.1212 14.7031 1031 73.2978 284.864 489.704
3137 0 73.2671 15.3138 1122 72.5169 284.602 491.824
3138 0 76.1546 15.9544 1215 71.5934 284.468 489.409
3139 0 79.603 14.2206 1132 74.5186 285.584 486.162
3140 0 83.2594 16.8389 1402 69.831 284.611 489.592
3141 0 84.5343 14.7041 1243 73.8246 284.467 486.654
3142 0 87.5105 16.6723 1459 70.6196 284.189 487.679
3143 0 89.458 17.4048 1557 70.4425 283.793 483.708
3144 0 89.1791 15.9006 1418 73.9288 284.13 479.289
3145 0 95.1774 18.3237 1744 69.4908 284.066 479.673
3146 0 96.4849 15.4325 1489 74.2438 284.039 479.504
3147 0 99.3095 15.0137 1491 74.5768 283.808 477.835
3148 0 101.268 15.2961 1549 73.5797 284.135 477.931
3149 0 107.194 15.7471 1688 72.7263 284.069 476.44
3150 0 109.514 15.5687 1705 73.034 284.171 471.986
3151 0 113.122 16.1419 1826 72.2941 284.352 469.514
3152 0 118.437 16.8866 2000 70.0125 284.363 470.744
3153 1 54.2692 15.5337 843 72.2693 283.698 499.877
3154 0 58.0757 13.9301 809 75.0124 283.926 498.956
3155 0 58.1191 16.9307 984 71.2043 283.615 498.16
3156 0 61.218 15.3059 937 71.9082 283.284 498.744
3157 0 61.2589 16.7486 1026 70.806 283.211 497.421
3158 0 64.4513 14.2433 918 75.2658 283.87 493.723
3159 0 65.154 15.4403 1006 73.5686 283.559 495.323
3160 0 69.1315 15.2463 1054 72.6546 283.17 495.246
3161 0 71.3922 16.5284 1180 71.3822 283.272 494.296
3162 0 71.2275 15.8085 1126 72.4227 283.413 493.463
3163 0 74.1545 15.616 1158 72.9421 283.28 490.75
3164 0 75.3874 15.7188 1185 72.9603 283.414 489.831
3165 0 76.164 14.994 1142 74.2767 283.635 487.926
3166 0 81.2726 15.5157 1261 72.4362 283.178 487.438
3167 0 85.2066 16.7358 1426 70.1725 283.375 487.959
3168 0 87.2418 17.3885 1517 69.7891 282.734 484.747
3169 0 90.3287 16.1743 1461 71.3751 283.214 479.797
3170 0 93.4713 15.5449 1453 71.2326 282.852 482.76
3171 0 92.2456 14.0603 1297 74.3585 282.968 480.579
3172 0 98.3099 14.5967 1435 73.1575 283.024 477.417
3173 0 102.295 16.0126 1638 70.8065 283.059 476.426
3174 0 102.084 13.5476 1383 75.1923 283.678 476.67
3175 0 109.355 17.3471 1897 68.4381 283.799 476.252
3176 1 53.1348 15.79 839 71.882 283.783 499.933
3177 0 55.1777 15.1692 837 71.4504 284.192 500.262
3178 0 56.408 13.296 750 74.7773 283.975 499.649
3179 0 60.3314 14.901 899 71.5362 284.222 500.425
3180 0 63.1905 16.3157 1031 69.9176 284.361 499.545
3181 0 61.1099 13.8112 844 75.2891 283.84 495.936
3182 0 66.4216 14.8446 986 72.3367 284.186 497.861
3183 0 70.8844 13.6419 967 73.1975 283.715 497.094
3184 0 68.0927 16.3013 1110 72.227 283.236 493.092
3185 0 70.2733 15.4682 1087 73.3707 283.822 493.822
3186 0 74.3353 15.9144 1183 72.6746 283.541 491.789
3187 0 77.4381 14.631 1133 73.8049 283.105 492.594
3188 0 77.146 13.2735 1024 76.4111 282.778 490.27
3189 1 0 0 1.04732e-303 -nan 382 0.00546721
3190 1 83.1591 15.4403 1284 73.3006 283.886 488.372
3191 0 87.2628 14.061 1227 74.4059 283.281 486.915
3192 0 91.3426 15.524 1418 72.6608 283.346 484.901
3193 0 92.2667 15 1384 73.9003 282.859 482.157
3194 0 95.2401 15.8862 1513 72.0634 282.346 482.1
3195 0 96.3067 14.2565 1373 75.0211 283.029 479.275
3196 0 100.111 14.6538 1467 73.9571 283.391 478.06
3197 0 104.344 14.1647 1478 74.3471 283.648 475.733
3198 0 109.284 16.2237 1773 71.3858 283.631 474.972
3199 0 113.298 15.5078 1757 71.8543 283.286 471.814
3200 0 116.393 15.3875 1791 72.3763 284.51 470.846
3201 1 39.2694 12.3251 484 75.8698 284.413 507.465
3202 0 39.2036 13.5192 530 76.1509 284.213 503.732
3203 0 41.1102 13.9625 574 75.2944 283.442 503.967
3204 0 40.2352 13.1974 531 78.9266 283.953 500.262
3205 0 51.5897 14.4215 744 71.7339 284.035 503.535
3206 0 45.4334 14.6148 664 75.4699 283.473 500.126
3207 0 46.126 14.1135 651 77.1336 283.438 499.234
3208 0 49.4156 14.4084 712 75.2051 283.244 500.122
3209 0 48.0991 15.073 725 76.1931 283.607 499.781
3210 0 48.1066 14.0313 675 78.3259 284.049 499.779
3211 0 50.1463 15.2354 764 76.3835 283.685 499.808
3212 0 58.7407 15.5429 913 72.3516 284.277 501.091
3213 0 54.1381 13.8165 748 78.6203 283.691 498.19
3214 0 55.1438 15.9039 877 75.8062 284.338 495.839
3215 0 57.2496 14.9695 857 77.077 284.197 496.012
3216 0 59.6354 15.0246 896 76.1417 284.093 496.514
3217 0 62.1809 16.645 1035 72.9662 284.403 494.946
3218 0 64.3827 17.2717 1112 72.4703 284.327 495.319
3219 0 65.1936 14.4493 942 76.3864 284.019 493.188
3220 0 68.1851 16.1619 1102 73.882 283.9 491.014
3221 0 71.0861 15.2632 1085 74.9917 284.144 488.779
3222 0 76.5484 16.9958 1301 70.9039 284.025 489.653
3223 0 76.3439 15.3516 1172 74.0418 284.683 488.134
3224 0 82.1109 17.8296 1464 69.2288 284.43 488.943
3225 0 83.1014 15.8722 1319 72.351 284.549 483.783
3226 0 87.3613 15.8766 1387 71.9784 284.939 484.158
3227 0 87.2395 15.8873 1386 72.9473 284.616 481.83
3228 0 89.3386 15.7379 1406 73.3208 285.113 481.668
3229 0 92.2234 14.736 1359 74.3532 285.174 482.453
3230 0 97.1482 16.2947 1583 71.8996 285 481.19
3231 0 98.0985 17.0237 1670 71.6012 284.914 477.38
3232 0 101.125 15.1991 1537 73.7567 284.926 478.656
3233 0 107.301 15.2748 1639 73.4509 284.999 476.825
3234 0 108.23 15.6888 1698 72.8698 284.666 471.199
3235 0 113.41 15.0075 1702 73.3372 284.661 472.676
3236 1 47.4285 14.9277 708 72.7599 284.432 503.537
3237 0 46.2572 13.7708 637 75.3469 284.512 503.964
3238 0 50.1384 15.517 778 72.8021 284.718 503.161
3239 0 50.3642 14.1767 714 74.9678 284.727 503.126
3240 0 51.2549 12.9354 663 77.006 284.332 502.284
3241 0 55.0969 13.9209 767 73.5476 284.893 504.772
3242 0 65.4575 13.4286 879 72.2696 285.172 504.172
3243 0 53.1815 15.7009 835 74.4012 284.909 501.942
3244 0 52.1283 14.7521 769 76.3732 285.047 500.447
3245 0 52.1141 14.142 737 78.2863 284.627 499.866
3246 1 72.5179 13.2933 964 73.3216 285.517 501.019
3247 0 62.4023 15.0956 942 74.6974 284.317 499.456
3248 0 65.2141 14.8281 967 74.849 284.177 497.002
3249 0 66.2126 14.8763 985 75.5188 284.315 497.626
3250 0 67.2142 15.2646 1026 75.7115 284.483 495.599
3251 0 69.2473 14.5421 1007 75.7368 284.879 497.529
3252 0 72.456 14.5192 1052 75.442 284.27 492.773
3253 0 76.3274 17.6346 1346 70.5334 283.992 493.945
3254 0 77.2761 15.2052 1175 74.3872 283.602 491.799
3255 0 77.2138 15.0232 1160 74.9147 283.526 490.72
3256 0 81.2229 15.082 1225 74.2588 282.937 490.433
3257 0 83.1518 15.4537 1285 73.8677 283.681 488.49
3258 0 87.3917 15.8139 1382 72.7511 283.689 488.085
3259 0 88.4361 14.338 1268 75.1538 283.155 485.759
3260 0 94.3918 16.1984 1529 71.1524 282.753 487.124
3261 0 98.2977 16.6128 1633 70.4611 283.131 486.412
3262 0 102.273 15.7226 1608 71.4378 282.968 485.816
3263 0 102.33 15.5673 1593 72.6905 283.397 478.746
3264 1 48.2659 14.4823 699 73.7067 282.732 508.03
3265 0 50.2535 14.1881 713 73.6171 282.829 505.927
3266 0 51.4025 14.046 722 73.9501 283.147 505.63
3267 0 51.1395 16.4452 841 72.1415 282.849 503.687
3268 0 53.2698 14.5861 777 74.3192 282.905 502.646
3269 0 52.2978 15.3735 804 74.5274 282.757 501.509
3270 0 57.2926 14.2601 817 74.0367 282.526 503.745
3271 0 55.1316 14.7828 815 75.0564 282.748 501.728
3272 0 63.3341 17.2103 1090 68.845 282.048 503.035
3273 0 57.2043 15.2261 871 76.0103 281.148 496.695
3274 0 60.2321 15.5399 936 75.0256 281.238 496.021
3275 0 61.2218 14.5536 891 76.5129 281.056 494.794
3276 0 63.4053 14.5887 925 75.7232 281.546 495.59
3277 0 64.1882 15.143 972 75.9979 281.122 493.391
3278 0 67.2822 14.5952 982 76.2169 281.34 492.324
3279 0 69.1919 14.178 981 76.5943 281.441 492.043
3280 0 77.1742 16.4304 1268 71.6932 280.659 489.552
3281 0 73.537 13.5714 998 77.7315 280.869 487.821
3282 0 77.078 14.4918 1117 76.1594 280.851 485.246
3283 0 82.2328 16.1858 1331 73.2021 280.724 485.956
3284 0 81.1473 14.5415 1180 76.561 280.663 483.148
3285 0 86.2914 16.5138 1425 73.2498 281.208 483.22
3286 0 91.2169 15.9729 1457 73.2258 281.267 484.299
3287 0 93.2725 16.5751 1546 72.674 280.686 481.072
3288 0 96.1919 14.9077 1434 75.0314 281.119 481.844
3289 0 101.25 15.1605 1535 74.501 280.443 480.334
3290 0 103.33 15.3199 1583 75.1339 280.627 477.665
3291 1 51.1152 15.0836 771 75.9364 280.32 499.682
3292 0 53.5183 14.7239 788 76.5343 280.471 500.928
3293 0 55.2719 14.4196 797 76.9699 280.365 500.028
3294 0 55.3152 14.4807 801 78.4382 280.542 499.576
3295 0 59.2665 14.7301 873 77.7526 280.348 498.889
3296 0 61.1125 17.0669 1043 74.0307 280.746 498.23
3297 0 63.3582 15.1046 957 77.7043 280.499 496.422
3298 0 65.2489 15.4945 1011 77.3897 280.979 497.695
3299 0 66.2263 16.806 1113 76.8005 281.167 495.599
3300 0 68.3006 15.9442 1089 78.2773 281.059 493.941
3301 1 83.2192 10.8028 899 83.8966 280.925 491.349
3302 1 74.3066 16.8222 1250 77.1448 281.686 489.83
3303 0 75.258 14.2975 1076 81.2993 281.893 492.058
3304 1 84.0737 13.6071 1144 80.528 281.289 489.299
3305 0 76.1656 16.3066 1242 79.7649 281.838 487.563
3306 0 78.2496 15.0799 1180 81.2644 281.712 488.404
3307 0 82.296 15.8331 1303 79.65 282.227 485.616
3308 1 91.377 13.8219 1263 81.0895 281.816 486.229
3309 0 83.3794 16.5029 1376 78.9419 282.036 487.081
3310 0 82.3612 14.4728 1192 79.6829 281.82 489.313
3311 0 81.2686 13.8553 1126 80.365 282.17 491.482
3312 1 105.431 14.5972 1539 78.6296 282.587 481.867
3313 0 100.335 17.8601 1792 75.5285 282.458 477.818
3314 0 103.293 18.8008 1942 74.3548 282.553 475.875
3315 0 106.455 17.5755 1871 75.5083 282.193 474.308
3316 0 110.258 18.2301 2010 74.2463 282.64 470.128
3317 0 112.159 17.6447 1979 75.5856 282.485 469.364
3318 0 114.504 18.4011 2107 74.3336 282.863 466.502
3319 0 117.244 15.9667 1872 77.6976 283.109 466.338
3320 0 121.306 17.3776 2108 76.3178 282.862 461.151
3321 0 124.293 15.4957 1926 78.5571 283.201 464.638
3322 0 128.185 16.757 2148 76.946 283.653 462.557
3323 0 130.293 15.2656 1989 79.6973 283.046 458.248
3324 0 135.443 14.9436 2024 79.4343 282.889 461.186
3325 0 139.481 15.7513 2197 78.6277 283.713 453.721
3326 0 144.568 16.2138 2344 77.3921 283.283 453.833
3327 0 147.231 15.5878 2295 78.4963 283.237 457.356
3328 0 151.238 14.9235 2257 80.1786 283.874 451.546
3329 0 157.257 15.9421 2507 78.1388 283.624 448.832
3330 0 163.235 16.1118 2630 77.5749 283.233 441.616
3331 0 167.28 14.4249 2413 80.2283 283.518 441.022
3332 0 173.184 15.4229 2671 78.5474 283.4 438.905
3333 1 86.1071 14.5865 1256 82.0096 283.465 481.758
3334 0 89.268 14.8317 1324 82.1208 283.921 483.786
3335 0 90.13 13.8245 1246 84.2207 284 482.818
3336 0 95.3049 15.0569 1435 82.1366 283.551 481.671
3337 0 99.3034 15.7497 1564 81.0173 283.911 480.195
3338 0 102.266 15.0294 1537 81.4288 283.996 480.082
3339 0 104.222 15.1311 1577 82.4122 283.9 477.37
3340 0 106.3 17.1119 1819 79.1484 283.427 477.101
3341 0 110.419 13.811 1525 83.6505 283.106 478.599
3342 0 114.561 15.7296 1802 80.6077 282.81 476.012
3343 0 119.194 16.1334 1923 79.9444 283.472 477.499
3344 0 120.218 16.287 1958 80.8943 283.557 472.478
3345 0 118.408 14.1123 1671 86.0275 283.484 467.877
3346 1 63.1721 15.5448 982 84.1222 283.307 498.867
3347 0 64.1212 17.4201 1117 81.7081 283.44 497.336
3348 0 66.6831 15.0863 1006 84.7903 283.938 499.512
3349 0 67.3304 16.1443 1087 84.3882 283.678 497.965
3350 0 68.2202 15.3913 1050 86.1857 283.629 494.63
3351 0 71.3091 13.9674 996 88.4428 283.372 495.942
3352 0 73.3394 14.2215 1043 87.5858 283.324 496.506
3353 0 71.173 14.8371 1056 89.1714 282.881 493.182
3354 0 75.3331 15.4248 1162 87.3614 282.758 491.83
3355 0 77.305 16.6354 1286 85.2208 282.311 491.12
3356 0 80.1977 16.4344 1318 85.6677 282.7 488.432
3357 0 84.1567 15.4949 1304 85.819 281.504 486.456
3358 0 84.3082 15.2298 1284 86.8956 282.385 485.343
3359 0 91.1405 15.9315 1452 83.5475 282.429 486.293
3360 0 93.1459 15.9642 1487 84.4122 281.818 484.659
3361 0 96.203 16.7043 1607 83.1101 282.245 483.917
3362 0 98.1869 15.4298 1515 85.5089 281.898 479.715
3363 0 104.368 17.1316 1788 81.4413 282.43 479.983
3364 0 106.213 15.4313 1639 85.2337 281.481 479.284
3365 0 109.359 15.984 1748 83.964 281.561 477.53
3366 0 114.339 15.9787 1827 84.2737 281.104 475.571
3367 0 117.133 17.0149 1993 82.558 281.587 473.24
3368 0 121.439 16.2139 1969 83.7019 281.029 473.029
3369 0 124.252 16.0319 1992 84.0653 281.921 471.452
3370 0 129.272 15.7188 2032 84.8096 281.966 466.561
3371 0 134.187 16.5888 2226 83.0598 281.26 463.903
3372 0 137.247 15.6215 2144 84.9897 281.677 466.54
3373 0 143.244 16.4335 2354 83.359 281.571 460.591
3374 0 147.309 16.2109 2388 83.0494 281.666 459.634
3375 1 68.2663 14.4141 984 91.2032 282.026 494.393
3376 0 70.2172 15.1103 1061 90.3487 280.959 493.467
3377 0 76.4059 17.4463 1333 83.6609 281.132 494.989
3378 0 75.2825 15.6212 1176 88.3274 281.776 494.459
3379 0 73.2403 13.7902 1010 93.298 281.813 492.588
3380 0 79.2331 17.1898 1362 86.2548 281.935 491.374
3381 0 78.3682 16.0907 1261 90.0833 281.939 490.56
3382 0 82.3905 16.9923 1400 87.4493 281.703 489.504
3383 0 83.5301 14.9647 1250 91.1104 281.73 489.519
3384 0 86.3222 17.1335 1479 87.5585 281.796 487.126
3385 0 91.1787 16.1332 1471 88.102 281.628 486.702
3386 0 91.1659 18.8338 1717 84.1374 281.771 486.705
3387 0 94.4344 16.8794 1594 87.6826 281.912 484.309
3388 0 97.7254 16.9147 1653 86.3835 281.909 484.591
3389 1 112.997 17.5581 1984 81.932 281.581 483.472
3390 0 103.306 16.3689 1691 87.084 282.335 482.928
3391 0 106.194 18.9088 2008 82.8282 281.977 479.565
3392 0 108.509 16.8097 1824 86.449 281.902 475.14
3393 0 114.488 17.5127 2005 84.6519 282.485 475.559
3394 0 119.38 19.6851 2350 79.5957 282.648 476.994
3395 0 123.486 18.5851 2295 80.5612 282.213 474.723
3396 0 130.606 17.8246 2328 80.7062 282.087 465.511
3397 0 129.27 18.8984 2443 80.9943 282.526 466.406
3398 0 137.819 18.5824 2561 78.8981 282.324 470.542
3399 0 141.556 16.2197 2296 83.1372 282.216 466.419
3400 0 147.424 17.9889 2652 79.6885 282.242 463.597
3401 0 146.317 18.1934 2662 79.784 281.542 459.515
3402 0 156.384 17.2204 2693 80.0275 282.127 458.985
3403 0 161.416 17.5757 2837 78.7088 282.027 457.852
3404 1 85.4343 16.1059 1376 85.3365 282.457 488.164
3405 0 86.105 14.4823 1247 87.2743 283.257 487.835
3406 0 89.3736 16.7275 1495 82.8308 283.118 488.177
3407 0 91.243 15.3984 1405 85.8327 283.065 484.741
3408 0 96.2452 16.2606 1565 83.5904 282.704 482.47
3409 0 97.1251 17.287 1679 82.1233 282.581 482.739
3410 0 103.411 18.3249 1895 79.4084 281.58 482.296
3411 0 104.244 17.555 1830 81.0016 281.991 480.519
3412 0 108.499 17.1061 1856 81.3157 282.506 479.954
3413 0 111.321 16.2233 1806 82.4574 282.762 475.559
3414 0 116.28 16.8558 1960 81.9179 282.614 471.137
3415 0 119.263 16.7193 1994 81.5246 283.089 470.933
3416 0 125.438 18.7343 2350 77.297 283.289 471.246
3417 0 128.455 18.0218 2315 78.8635 283.452 468.536
3418 1 47.3893 14.3703 681 83.5874 283.241 505.395
3419 0 48.3394 15.4119 745 82.1181 282.031 505.334
3420 1 58.1421 10.7839 627 87.6427 282.703 503.075
3421 1 49.2187 14.8521 731 84.1464 282.399 505.051
3422 0 48.0753 15.4549 743 82.9354 283.027 505.347
3423 1 11.0288 7.61643 84 48.9643 284.56 529.821
3424 0 1 7 7 48.8571 286.143 525.286
3425 0 11.0481 6.15492 68 49.4412 283.382 530.838
3426 0 1 15 15 45.3333 281.667 525.6
3427 0 11.029 4.35215 48 49.4375 285.542 528.229
3428 1 58.4172 14.8244 866 85.9758 282.598 497.656
3429 0 60.2857 16.4218 990 84.3576 282.08 496.478
3430 0 59.3049 15.395 913 88.7766 282.405 496.885
3431 0 56.4243 16.2164 915 90.788 282.247 495.593
3432 0 56.2262 15.8467 891 92.3894 282.76 497.016
3433 0 58.1448 15.5818 906 92.511 282.577 497.039
3434 0 59.1503 16.2299 960 91.9552 282.342 496.782
3435 0 59.138 15.4892 916 93.2456 282.492 496.686
3436 0 62.118 17.2897 1074 89.6415 283.399 494.973
3437 0 60.0733 16.1802 972 94.356 282.694 494.318
3438 0 61.2432 16.6223 1018 93.3625 282.357 494.367
3439 0 61.2151 15.8621 971 95.7642 282.335 494.557
3440 0 63.1452 17.1509 1083 92.819 281.883 493.356
3441 0 64.135 16.8863 1083 93.193 282.598 494.054
3442 0 63.089 16.1518 1019 95.685 282.896 493.74
3443 0 59.1715 16.6465 985 98.6558 282.932 493.824
3444 0 60.0587 16.8835 1014 98.572 282.905 495.005
3445 0 62.196 15.8531 986 99.1055 283.335 493.476
3446 0 64.0981 16.6152 1065 97.2394 282.941 492.982
3447 0 63.0864 16.7548 1057 97.6916 283.187 492.481
3448 0 64.3018 17.2935 1112 96.7662 283.056 492.174
3449 0 63.1591 17.1788 1085 98.6793 282.888 493.691
3450 0 62.2047 15.6258 972 99.1368 282.709 494.443
3451 0 68.3376 17.6916 1209 92.3317 283.155 495.004
3452 0 67.1998 15.2977 1028 96.68 283.276 495.49
3453 0 68.178 15.0342 1025 97.9912 283.107 492.8
3454 0 72.1801 16.7498 1209 91.182 283.141 494.971
3455 0 73.1844 16.5609 1212 91.6023 282.719 492.249
3456 1 15.7464 3.61988 57 54.6316 284.772 528.79
3457 1 3 5.33333 16 56.5625 287.688 523.625
3458 1 15.0662 3.51782 53 52.2075 282.434 532.774
3459 0 12.1841 11.2441 137 49.4088 284.146 528.015
3460 0 13.4181 4.5461 61 52.1803 283.738 529.049
3461 0 13.4629 4.23386 57 51.807 283.789 529.21
3462 1 92.4937 15.8497 1466 85.8499 283.354 484.485
3463 0 92.1239 15.4249 1421 87.3772 283.555 482.147
3464 0 97.6703 15.1018 1475 86.3342 283.123 479.948
3465 0 99.4327 15.4778 1539 85.4321 283.15 479.19
3466 0 101.361 15.9233 1614 85.0409 282.7 475.789
3467 1 53.2429 14.5747 776 88.0142 282.089 497.646
3468 0 57.1741 14.552 832 84.256 282.782 500.335
3469 0 56.0911 14.9756 840 86.6405 283.161 496.177
3470 0 58.3152 14.8846 868 87.0956 282.894 495.323
3471 0 59.2016 15.9286 943 85.3372 282.653 494.152
3472 0 62.4515 15.8203 988 84.6316 282.585 495.564
3473 0 65.248 19.6328 1281 78.4262 282.521 495.197
3474 0 63.3811 17.5447 1112 84.0162 282.504 490.192
3475 0 67.5316 16.4219 1109 83.6014 282.572 494.394
3476 0 66.2336 16.0795 1065 86.8244 282.388 488.5
3477 0 67.3664 15.1708 1022 87.0186 282.617 490.071
3478 0 69.3892 16.3714 1136 85.7368 282.869 488.101
3479 0 72.1697 15.6021 1126 86.444 283.319 488.004
3480 0 73.2645 16.2562 1191 85.4517 283.658 486.372
3481 0 74.1043 16.2744 1206 85.8532 283.007 484.886
3482 0 77.1313 16.1413 1245 85.5237 283.489 485.218
3483 0 80.2238 16.0551 1288 85.2997 283.294 483.283
3484 0 83.1744 15.9905 1330 84.3316 282.8 481.78
3485 0 85.1911 16.9736 1446 82.029 282.793 481.183
3486 0 89.1762 15.688 1399 83.8592 283.357 480.971
3487 0 92.399 15.9309 1472 82.4769 283.464 478.357
3488 0 95.2273 15.9933 1523 82.6284 283.516 477.557
3489 0 99.1547 16.7516 1661 80.8718 283.452 476.234
3490 0 102.192 17.0366 1741 79.9431 283.583 474.932
3491 0 106.133 17.4969 1857 78.525 283.634 471.587
3492 0 107.271 15.9222 1708 80.8361 283.777 469.894
3493 0 114.226 18.4458 2107 75.7442 283.795 468.15
3494 0 118.312 16.7355 1980 77.2328 283.934 468.431
3495 1 60.1246 15.2184 915 80.6754 283.782 496.753
3496 0 64.397 15.2647 983 80.4527 283.615 493.766
3497 0 65.1256 14.4336 940 81.9362 283.814 494.311
3498 0 65.2052 14.9988 978 82.2045 283.686 493
3499 0 67.181 14.26 958 82.4676 283.788 491.277
3500 0 73.3111 15.7684 1156 78.9066 284.032 493.629
3501 0 74.2007 16.954 1258 77.4833 283.528 493.967
3502 0 74.231 15.4518 1147 81.0523 283.269 491.516
3503 0 77.1142 15.4316 1190 80.9487 282.598 488.134
3504 0 77.1515 16.487 1272 80.1258 282.745 485.634
3505 0 83.3736 15.8444 1321 79.6957 283.21 489.69
3506 1 96.7192 13.7305 1328 80.1122 282.773 487.408
3507 0 88.3315 16.2456 1435 79.5094 283.495 485.352
3508 0 91.2832 15.9175 1453 79.5582 282.91 484.401
3509 0 91.3221 16.283 1487 79.0827 283.271 486.335
3510 0 93.2335 15.9492 1487 79.8056 282.309 483.946
3511 0 98.2436 15.7262 1545 79.8492 282.817 483.592
3512 1 11.0299 5.71175 63 47.4127 283.841 534.159
3513 0 11.1532 6.81418 76 46 284.395 532.105
3514 0 14.5156 4.34014 63 48.3651 284.27 530.111
3515 0 13.1985 2.27299 30 49.9333 286.533 528.1
3516 0 12.1466 2.88146 35 50.5714 284.514 530.886
3517 0 0 0 0 -nan 1.04766e-303 6.19639e-312
3518 0 0 0 9 46.6667 287 529
3519 0 13.1517 7.75564 102 48.0588 283.549 535.52
3520 0 14 1.92857 27 52.1481 286.889 528.741
3521 0 14.4712 3.73156 54 50.6667 284.222 533.796
3522 0 14.522 10.0537 146 46.6507 282.877 535.658
3523 1 0 0 1 56 283 527
3524 0 12.061 6.21837 75 49.68 283.867 532.84
3525 0 12.1065 8.50781 103 48.8641 284.466 532.447
3526 0 14.2784 6.51332 93 49.8172 284 533.946
3527 0 10.0164 3.09492 31 50.871 282.839 535.419
3528 0 0 0 0 -nan 0 0
3529 0 13.2692 8.89275 118 48.6356 283.83 531.966
3530 0 3 15.3333 46 46.7609 285.37 525.239
3531 1 13.165 7.368 97 49.134 284.536 529.691
3532 0 13.3129 4.43178 59 49.7119 284.475 530.712
3533 0 3 7.66667 23 50.8696 286.696 525.044
3534 0 4 4.5 18 49.5 285.056 526.167
3535 0 3 11.6667 35 49.2286 286.486 525.4
3536 0 2 11.5 23 48.7391 286.391 525.304
3537 0 13.1919 6.74657 89 48.382 283.809 530.607
3538 1 2 5.5 11 48 287.818 524.182
3539 0 5 10.8 54 43.7593 288.407 524.537
3540 0 13.2978 4.28643 57 47.9123 285.509 528.105
3541 0 12.0921 3.88684 47 48.0426 284.915 528.851
3542 0 14.2407 3.37061 48 49.25 285 530.833
3543 0 15.3883 11.5672 178 44.8034 283.815 529.831
3544 0 13.3214 7.20646 96 46.8854 283.25 531.885
3545 1 121.353 17.5933 2135 80.2614 283.243 471.417
3546 0 123.35 18.1029 2233 80.2468 283.285 470.077
3547 0 134.245 14.7194 1976 82.9286 283.576 472.834
3548 1 124.352 15.1344 1882 83.5409 283.703 473.456
3549 0 122.192 14.3544 1754 83.8244 283.107 474.197
3550 0 122.452 13.8258 1693 85.7502 283.011 472.408
3551 1 88.4169 12.2262 1081 85.8464 282.898 491.713
3552 0 77.2202 15.5788 1203 84.6076 283.697 489.242
3553 1 89.4688 13.379 1197 84.878 282.81 490.911
3554 0 88.1856 12.2129 1077 87.5283 282.578 489.919
3555 1 78.2566 17.1104 1339 82.2972 282.64 491.028
3556 1 88.7158 11.565 1026 87.3752 282.821 493.326
3557 1 78.2243 13.7297 1074 85.0866 283.727 493.802
3558 1 101.156 13.494 1365 86.1333 282.844 479.649
3559 0 94.288 17.3299 1634 81.3954 282.588 481.688
3560 0 96.5636 15.9377 1539 83.3918 282.686 480.136
3561 0 100.438 17.3639 1744 81.7196 282.53 476.179
3562 0 102.613 14.7447 1513 85.963 282.666 477.901
3563 1 114.251 12.7351 1455 88.079 282.971 478.748
3564 0 106.554 17.5686 1872 81.2959 282.809 478.65
3565 0 110.457 17.2104 1901 82.4156 282.775 474.278
3566 1 67.3206 11.5864 780 90.1436 282.794 499.428
3567 0 67.2846 10.6116 714 93.6429 282.93 496.731
3568 0 59.1968 15.0177 889 89.4072 282.864 496.123
3569 0 65.1619 15.8375 1032 77.3459 282.832 441.946
