time division length width area intensity CMx CMy
0 0 49.048 13.7416 674 63.6988 212.816 504.619
1 0 49.0445 12.3357 605 66.4182 211.426 504.547
2 0 51.0337 13.6772 698 64.3496 211.415 502.884
3 0 50.0623 12.2248 612 67.0033 210.998 503.317
4 0 52.0381 13.6823 712 64.1896 211.371 504.237
5 0 53.0941 12.3743 657 67.0807 211.167 503.19
6 0 56.1104 12.1546 682 65.937 211.289 503.625
7 0 54.0531 11.3037 611 69.0426 210.84 503.825
8 0 57.0644 12.8276 732 66.3306 211.178 503.011
9 0 58.0506 11.3866 661 68.5764 210.797 504.581
10 0 58.0678 11.2799 655 68.1893 210.582 503.911
11 0 60.0733 12.4348 747 67.4311 210.351 502.274
12 0 60.0837 12.8987 775 67.4645 210.822 500.679
13 0 64.2073 12.9424 831 66.2515 210.872 501.083
14 0 66.0954 12.603 833 66.4334 210.496 502.407
15 0 68.067 14.0597 957 64.6019 210.863 500.944
16 0 68.064 13.1788 897 66.4838 210.1 500.081
17 0 68.0862 12.352 841 68.7396 209.811 498.222
18 0 71.2451 12.071 860 68.2314 209.878 498.752
19 0 72.0481 12.0892 871 68.8921 209.847 498.621
20 0 72.0583 12.587 907 69.4609 210.69 494.981
21 0 75.0576 12.2839 922 69.6302 210.559 495.907
22 0 78.113 13.25 1035 67.913 210.171 496.288
23 0 80.1087 13.3693 1071 67.8095 209.821 496.021
24 0 80.2102 12.0309 965 71.0953 209.764 494.115
25 1 41.0456 10.8903 447 69.8591 210.329 513.045
26 0 45.0511 12.3193 555 68.4216 210.369 510.856
27 0 45.028 11.0154 496 70.496 210.165 511.135
28 0 48.0402 12.1981 586 68.5205 210.381 510.109
29 0 48.0589 11.5899 557 68.9964 210.192 510.919
30 0 51.0462 11.9108 608 68.8717 210.763 509.602
31 0 50.0224 12.5944 630 69.0333 211.051 508.51
32 0 53.0725 11.9459 634 69.7997 210.093 505.964
33 0 53.0725 11.8894 631 139.978 209.105 505.929
34 0 56.0335 10.0654 564 70.1738 211.282 509.043
35 0 57.0437 13.1829 752 68.6676 211.674 503.722
36 0 60.075 11.9351 717 69.6499 211.437 502.31
37 0 62.0342 12.5415 778 69.1722 211.33 501.49
38 0 64.0693 12.0026 769 69.4096 212.088 503.71
39 0 67.0488 10.6191 712 71.2907 211.57 501.931
40 0 69.2108 11.4144 790 70.1671 211.862 500.809
41 0 70.0652 11.789 826 70.0109 211.599 499.76
42 0 73.0524 12.4157 907 70.1632 211.856 496.75
43 0 77.0731 12.8709 992 67.9224 211.854 499.179
44 1 40.0393 11.0891 444 68.8041 212.097 513.509
45 0 41.1576 10.9093 449 68.8597 212.241 514.056
46 0 41.0561 11.0824 455 69.0901 211.965 514.07
47 0 43.1368 10.8492 468 69.562 211.568 512.239
48 0 43.0431 8.87483 382 72.8272 211.838 511.448
49 0 44.1591 11.3906 503 69.4771 211.903 510.179
50 0 45.0275 11.0377 497 69.2998 211.612 511.644
51 0 47.1142 10.6762 503 70.0159 212.173 510.207
52 0 48.0187 10.3918 499 69.6673 212.208 510.503
53 0 51.1088 11.5831 592 67.6605 212.689 510.209
54 0 51.0567 10.0281 512 70.1074 212.752 507.191
55 0 55.0503 11.9345 657 67.0502 212.746 504.595
56 0 55.087 11.9447 658 66.9544 212.874 504.982
57 0 58.0662 11.6419 676 66.8802 212.741 503.787
58 0 59.1413 11.8699 702 66.0085 212.929 504.689
59 0 61.1507 10.3842 635 67.5559 212.761 504.005
60 0 64.0217 11.9491 765 66.1033 213.295 501.931
61 0 63.0606 11.592 731 66.6115 212.985 501.665
62 0 68.0646 12.2384 833 66.0444 212.675 500.006
63 0 71.229 11.9895 854 66.2916 212.913 498.005
64 0 73.1362 12.8254 938 65.7463 213.013 496.539
65 0 76.1719 12.5243 954 65.6908 213.134 496.387
66 1 38.0547 8.43523 321 68.5452 212.153 513.816
67 0 41.0209 9.60486 394 66.2411 212.86 513.911
68 0 41.1025 9.39116 386 67.285 212.399 513.342
69 0 42.0605 10.4849 441 67.517 212.692 510.635
70 0 41.0548 9.08541 373 69.0617 212.515 512.021
71 0 46.1027 11.995 553 65.0452 212.17 509.434
72 0 46.041 10.925 503 66.167 212.869 509.175
73 0 48.068 10.5059 505 67.1683 212.489 509.327
74 0 51.0666 11.9452 610 64.4639 211.998 508.398
75 0 51.0286 10.935 558 67.2545 212.495 506
76 0 53.0809 11.36 603 65.7214 212.806 507.496
77 0 54.1029 9.98097 540 67.4463 212.083 508.585
78 0 56.0429 12.1157 679 65.3387 212.037 504.887
79 0 56.0826 12.2498 687 66.2402 211.716 502.636
80 0 60.0426 12.8575 772 64.3368 211.484 504.46
81 0 59.0364 9.94302 587 68.2555 212.274 504.484
82 0 62.0554 11.1835 694 66.8862 212.707 503.45
83 0 65.0724 11.4795 747 66.739 212.458 501.479
84 0 67.1148 11.6219 780 66.341 212.238 501.529
85 0 68.0667 11.7238 798 66.5088 212.456 501.298
86 0 70.0807 11.3155 793 67.6646 212.083 501.183
87 0 71.1558 10.2873 732 69.2199 212.753 499.4
88 0 72.1251 10.4679 755 69.2596 212.405 497.11
89 0 77.0715 11.9629 922 66.9414 212.716 495.445
90 1 38.0247 9.02045 343 68.1429 211.901 514.038
91 0 43.0187 10.1584 437 65.7551 212.021 512.622
92 0 41.091 10.9026 448 66.6317 212.221 510.681
93 0 42.0245 10.8032 454 65.9141 212.313 512.24
94 0 42.0139 9.92528 417 68.3693 212.875 510.923
95 0 44.0848 10.4798 462 67.3939 212.498 509.823
96 0 46.0351 11.3609 523 65.2275 212.597 509.247
97 0 48.0174 10.3088 495 65.2808 212.43 508.113
98 0 48.0707 10.1309 487 64.6756 213.004 510.961
99 0 51.0644 11.2995 577 63.5598 212.698 506.317
100 0 53.092 9.37994 498 65.7068 212.849 506.49
101 0 55.1412 11.1169 613 63.5155 212.816 505.478
102 0 56.0916 12.1587 682 62.6686 212.826 503.54
103 0 56.1273 11.6343 653 63.8239 212.417 501.138
104 0 58.2268 10.94 637 64.6421 212.626 499.177
105 0 60.1117 9.94815 598 65.2977 212.487 500.503
106 0 61.1129 11.7324 717 63.477 212.388 498.068
107 0 62.203 11.8965 740 63.373 212.388 497.681
108 0 64.1678 10.0985 648 64.7901 212.591 500.218
109 0 69.2085 11.9494 827 63.0302 212.421 494.411
110 0 66.109 9.1213 603 66.9303 212.957 495.509
111 0 73.1005 11.491 840 62.7762 212.777 495.151
112 0 74.1609 10.2884 763 65.1481 212.682 492.09
113 0 76.1403 11.2293 855 64.862 212.806 487.284
114 0 79.2788 12.0335 954 63.4539 212.025 486.862
115 0 84.238 11.3844 959 64.1804 212.745 486.638
116 1 45.0748 9.09599 410 63.6805 212.556 508.285
117 0 46.0263 10.7982 497 61.7907 212.163 507.479
118 0 48.0698 11.088 533 62.0056 212.274 505.159
119 0 50.0974 10.6792 535 62.6467 213.054 504.467
120 0 51.0289 11.9148 608 61.4638 212.414 503.72
121 0 52.0798 11.3288 590 63.0051 212.819 503.975
122 0 55.0993 12.2506 675 61.4222 212.167 502.381
123 0 57.1531 11.0755 633 63.0948 212.682 503.408
124 0 57.1461 11.2519 643 64.1913 212.496 500.521
125 0 58.134 10.6134 617 64.5413 212.107 500.162
126 0 59.1118 11.3006 668 64.747 211.88 497.834
127 0 62.1377 12.3435 767 62.6141 212.081 497.975
128 0 63.1348 10.6597 673 65.2883 212.354 498.196
129 0 66.1281 13.0202 861 62.1847 212.151 495.28
130 0 68.1114 11.7895 803 63.9153 212.168 496.743
131 0 72.0867 12.374 892 63.2848 212.26 494.043
132 0 70.1367 11.0213 773 65.8189 212.45 494.188
133 0 74.0805 11.0555 819 65.8632 212.07 493.325
134 0 75.0778 12.7468 957 64.2424 212.02 488.714
135 0 77.0358 12.3319 950 64.7179 212.726 491.238
136 0 83.0922 12.9374 1075 63.32 212.584 488.816
137 1 42.0445 9.15696 385 66.8208 211.865 507.665
138 0 46.0646 10.3333 476 63.7815 211.994 509.313
139 0 46.0412 10.9467 504 64.6925 212.635 507.687
140 0 47.0842 10.6618 502 66.4363 212.034 507.145
141 0 50.0358 11.9914 600 63.6233 212.832 506.623
142 0 50.0288 12.4129 621 64.5217 212.836 504.441
143 0 52.0478 11.8929 619 64.7076 212.286 503.126
144 0 55.0511 12.4248 684 63.8728 212.357 503.118
145 0 54.1309 11.62 629 66.1304 211.682 500.299
146 0 57.12 12.5525 717 64.4644 212.41 501.47
147 0 58.0957 11.7392 682 65.4707 211.864 501.881
148 0 60.0361 12.3426 741 65.1673 212.112 499.559
149 0 62.067 12.7765 793 64.1614 212.366 500.257
150 0 63.2112 13.1464 831 63.6787 212.576 501.097
151 0 65.1085 12.3025 801 65.2197 212.401 498.376
152 0 65.0674 11.3728 740 67.3716 211.832 496.209
153 0 68.1285 13.0635 890 64.3539 212.165 497.988
154 0 69.1357 12.6129 872 66.0218 212.005 495.319
155 0 71.0764 12.6906 902 65.8326 212.205 496.017
156 0 73.0938 12.4087 907 66.7321 212.266 495.029
157 0 74.0958 12.4029 919 67.5277 211.96 492.544
158 0 77.1084 13.0336 1005 66.5413 212.749 490.463
159 1 40.102 11.5206 462 67.5368 212.374 509.989
160 0 42.0564 11.8412 498 67.1426 212.574 508.673
161 0 43.0427 9.80422 422 70.0355 212.161 509.917
162 0 43.0295 11.7826 507 68.6647 212.262 507.249
163 0 45.035 12.5014 563 67.7016 212.098 506.767
164 0 48.0315 11.659 560 67.9571 212.211 507.152
165 0 49.0733 12.2062 599 66.6043 212.429 506.967
166 0 50.1047 12.3342 618 67.3414 212.662 505.706
167 0 51.0345 12.6385 645 67.2171 212.262 505.583
168 0 52.0548 11.6608 607 68.3756 212.61 504.171
169 0 54.0623 11.0983 600 69.275 212.542 502.592
170 0 55.0441 13.3893 737 65.8928 213.149 502.05
171 0 56.0766 12.0371 675 67.5896 213.015 501.401
172 0 57.0747 13.5086 771 65.7224 212.645 499.106
173 0 60.0304 12.8102 769 66.0611 212.181 500.719
174 0 62.1163 12.6215 784 66.4094 212.79 497.494
175 0 63.2114 12.1972 771 66.6472 212.585 497.542
176 0 64.1244 11.0722 710 68.0268 212.079 497.369
177 0 67.1817 13.5156 908 65.1167 213.023 496.225
178 0 67.0538 11.7219 786 67.5 213.041 495.779
179 0 71.097 12.0118 854 66.6686 212.762 494.974
180 0 72.0819 11.7644 848 67.8196 212.917 491.978
181 0 75.1112 12.4615 936 66.4209 212.028 491.324
182 0 79.1025 12.9958 1028 65.1313 211.523 491.031
183 0 81.1499 12.557 1019 65.8273 210.921 490.721
184 0 83.1106 12.3089 1023 65.7517 210.824 491.338
185 1 45.0917 11.6208 524 62.9523 210.761 510.567
186 0 46.045 10.8155 498 65.5341 210.554 508.763
187 0 45.114 12.2135 551 64.9238 210.824 507.682
188 0 45.1102 11.4387 516 67.2171 210.411 507.725
189 0 46.045 10.6635 491 68.1039 209.56 508.326
190 0 49.1144 11.8906 584 66.8202 209.555 506.132
191 0 51.0418 12.3624 631 65.7686 209.363 507.504
192 0 52.1879 12.5508 655 66.0962 208.656 506.869
193 0 53.0583 11.4214 606 68.2805 209.19 507.762
194 0 53.0954 11.5076 611 68.8756 209.141 506.164
195 0 57.1075 12.0124 686 67.3615 208.956 506.297
196 0 58.0646 11.3666 660 69.1667 209.079 505.25
197 0 58.0877 10.949 636 70.3836 209.417 504.223
198 0 61.1256 13.1532 804 66.7201 208.743 504.693
199 0 62.1235 12.3625 768 67.8177 207.978 504.829
200 0 64.1451 11.5675 742 68.9151 208.206 504.926
201 0 65.0866 12.8752 838 67.5263 208.536 503.616
202 0 67.0454 12.4841 837 68.4934 208.013 501.159
203 0 70.1196 10.6675 748 70.1698 208.043 502.515
204 0 72.0857 11.9025 858 68.789 207.949 501.082
205 0 76.0776 12.8816 980 67.4214 208.126 499.297
206 1 37.012 10.6992 396 67.9924 207.694 517.356
207 0 38.0377 8.75447 333 70.018 207.682 517.508
208 0 41.0124 10.826 444 67.8986 207.653 516.167
209 0 41.1176 10.8712 447 68.226 207.566 516.629
210 0 43.0243 11.9467 514 66.893 207.375 515.36
211 0 46.1023 11.4745 529 66.5595 207.008 516.066
212 0 44.0605 10.4856 462 69.9004 206.851 515.639
213 0 47.0682 12.0039 565 67.2142 207.035 516.414
214 0 48.0889 12.1442 584 68.1267 206.682 513.387
215 0 49.0982 10.8965 535 69.9159 206.062 513.022
216 0 51.0789 11.727 599 68.813 206.401 512.686
217 0 52.131 10.0324 523 70.9369 205.952 513.166
218 0 52.1149 9.88201 515 72.7553 206.008 511.183
219 0 55.1139 12.5558 692 68.474 205.855 509.59
220 0 58.0299 11.7009 679 69.8424 205.966 508.895
221 0 57.0419 11.7107 668 70.4356 205.647 507.269
222 0 59.0848 11.0181 651 72.0108 205.923 507.472
223 0 62.0633 12.1328 753 69.7716 206.048 506.467
224 0 63.1535 12.0342 760 70.6737 205.791 504.082
225 0 66.1179 12.1903 806 69.9305 205.792 503.483
226 0 66.0815 11.6523 770 71.8442 205.66 501.301
227 1 36.0053 10.3874 374 69.4893 205.385 517.463
228 0 37.0208 9.96736 369 70.0515 206.081 517.165
229 0 36.0213 11.3544 409 70.3007 205.719 515.555
230 0 38.0363 10.8317 412 70.0583 205.451 514.286
231 0 38.0318 11.6744 444 68.8581 206.401 513.417
232 0 39.0483 9.55227 373 70.5469 206.464 513.609
233 0 40.0669 10.0831 404 69.2673 206.342 515.02
234 0 42.0899 10.6677 449 68.7105 206.227 513.65
235 0 43.0482 10.6857 460 69.3435 207.078 511.907
236 0 46.0806 11.7186 540 66.7574 206.494 510.928
237 0 45.03 10.6596 480 68.6958 206.685 511.627
238 0 47.0579 10.9015 513 68.8226 206.435 509.614
239 0 50.0692 11.2844 565 67.3522 206.221 511.354
240 0 52.1192 10.5719 551 68.7332 206.951 508.9
241 0 53.0327 10.4464 554 69.5921 207.271 507.601
242 0 52.0966 10.6533 555 69.1297 206.901 507.2
243 0 54.0961 12.182 659 67.4461 206.997 503.352
244 0 56.0734 11.8238 663 67.6546 207.065 504.018
245 0 58.046 11.2842 655 67.8214 207.214 505.423
246 0 61.0541 12.0221 734 67.0272 207.917 504.82
247 0 62.1144 13.0244 809 65.7318 207.341 503.14
248 0 65.1374 13.6481 889 64.3735 207.697 503.398
249 0 63.1333 10.8025 682 69.5147 207.899 502.021
250 1 33.0232 7.96411 263 70.1255 207.859 518.916
251 0 36.1669 9.62204 348 67.1408 207.342 519.204
252 0 35.0329 10.219 358 68.4553 207.302 517.271
253 0 37.0155 9.7797 362 68.1022 207.597 517.138
254 0 41.0114 11.0213 452 64.7522 207.184 516.942
255 0 40.0455 9.48919 380 68.3368 207.6 516.971
256 0 39.024 10.0707 393 68.6845 207.919 515.453
257 0 39.058 9.60111 375 69.56 207.685 514.565
258 0 43.0156 10.6938 460 67.4196 207.957 513.902
259 0 45.0358 10.9024 491 66.6925 207.923 514.562
260 0 44.0599 9.57787 422 68.4479 208.429 515.673
261 0 45.0515 9.56682 431 69.232 208.796 512.218
262 0 46.0784 11.1332 513 66.0643 208.897 514.501
263 0 48.0608 10.5283 506 66.9921 208.913 513.65
264 0 48.0938 10.5211 506 68.1522 208.565 511.992
265 0 50.0482 10.3101 516 68.5795 208.186 511.097
266 0 51.0521 10.695 546 68.3901 207.773 508.877
267 0 53.0523 10.6687 566 67.7668 207.564 511.094
268 0 55.0818 10.5298 580 68.1931 207.233 509.405
269 0 56.0669 11.5041 645 67.0186 207.234 509.172
270 0 56.0919 10.9642 615 68.052 207.25 508.052
271 0 59.0625 10.3111 609 68.4943 207.048 508.691
272 0 61.1113 10.9145 667 68.036 207.337 504.957
273 0 62.1559 10.4415 649 67.9445 206.374 510.015
274 0 62.0148 10.3362 641 68.6147 206.02 507.719
275 0 66.0705 10.9429 723 68.0207 206.015 503.107
276 0 69.0969 11.4622 792 66.4621 205.934 504.192
277 0 69.0342 11.5305 796 67.5 206.457 502.338
278 0 73.1279 11.0491 808 67.8082 206.068 500.856
279 0 76.0772 12.7371 969 65.3406 206.592 500.377
280 0 76.0312 11.2454 855 67.8725 206.368 498.899
281 1 39.0303 9.17236 358 69.1061 206.215 518.768
282 0 41.0364 10.1617 417 68.8106 206.305 516.918
283 0 40.0081 10.2229 409 69.709 206.724 514.787
284 0 42.0288 10.588 445 67.964 206.697 516.813
285 0 44.0734 10.3917 458 67.7336 206.29 517.009
286 0 44.0458 11.647 513 65.5127 206.021 515.01
287 0 46.0543 11.4864 529 66.0132 206.251 513.828
288 0 48.095 11.3941 548 64.9854 205.721 514.102
289 0 48.1188 11.7002 563 65.3002 206.117 513.513
290 0 52.076 13.4611 701 62.3324 205.298 510.501
291 0 53.0354 11.8789 630 64.5444 205.359 512.989
292 0 54.023 10.6251 574 66.8153 205.289 511.143
293 0 54.1169 15.023 813 62.2054 205.729 510.116
294 0 55.0938 11.3261 624 67.0673 205.83 508.043
295 0 56.0442 11.4374 641 66.6381 206.401 508.072
296 0 60.0971 13.1953 793 63.4048 206.407 507.44
297 0 61.0496 12.6455 772 64.2824 206.212 505.452
298 0 61.0691 11.8227 722 66.0942 206.087 502.837
299 0 66.0396 12.4622 823 64.2211 206.264 504.14
300 0 66.0518 10.7037 707 66.5884 205.683 504.768
301 0 68.0754 11.8104 804 65.2177 205.122 502.408
302 0 72.1269 12.3532 891 64.4141 204.985 499.863
303 0 74.1382 12.0586 894 64.4709 205.547 496.168
304 0 77.2235 12.3667 955 64.0785 205.536 497.557
305 0 78.109 12.5594 981 64.0581 205.502 495.466
306 0 81.1424 13.655 1108 62.5668 205.621 493.656
307 1 40.0612 10.9333 438 64.0662 205.304 514.466
308 0 43.0275 11.6902 503 63.328 205.66 512.537
309 0 45.0396 11.0791 499 63.1283 205.359 513.878
310 0 45.0222 12.5271 564 62.4716 204.729 511.039
311 0 47.0461 12.8385 604 61.5778 205.237 511.116
312 0 49.054 12.7818 627 60.9697 204.756 511.933
313 0 50.0702 13.1016 656 61.4207 204.753 510.651
314 0 51.1159 11.4837 587 63.4532 204.661 509.329
315 0 52.1297 11.5865 604 62.8063 204.444 509.27
316 0 53.193 10.8285 576 64.3906 205.406 508.941
317 0 55.0888 11.5268 635 63.1512 204.945 507.173
318 0 57.1456 10.7445 614 63.7785 204.7 505.92
319 0 59.1018 12.9776 767 60.3403 205.366 507.169
320 0 61.0967 12.3411 754 61.6605 205.517 505.298
321 0 63.1262 13.6552 862 59.2552 205.216 506.564
322 0 65.0714 12.3096 801 61.8514 205.358 500.315
323 0 67.1517 13.0898 879 61.3299 205.407 499.356
324 0 68.1527 12.4867 851 61.7979 206.098 498.747
325 0 71.0619 13.2701 943 60.5345 205.625 498.194
326 0 74.0769 13.108 971 60.724 206.073 498.441
327 0 75.1277 12.8714 967 62.1065 206.245 495.219
328 0 78.1012 12.9703 1013 61.7305 206.536 496.722
329 0 79.062 11.257 890 64.6742 205.712 494.769
330 1 40.093 10.6253 426 63.0493 205.685 514.915
331 0 43.0399 11.9656 515 61.3806 205.573 514.392
332 0 42.0198 10.8758 457 64.9453 205.838 512.12
333 0 44.0116 10.6108 467 65.5011 205.747 511.505
334 0 44.0268 12.8331 565 62.7664 205.577 511.858
335 0 45.1297 11.7218 529 64.1739 206.234 510.539
336 0 48.0768 11.6272 559 64.2361 205.66 509.369
337 0 48.0862 11.521 554 64.5921 205.067 508.222
338 0 49.0323 11.8901 583 64.283 205.06 507.901
339 0 52.0331 10.8393 564 65.5301 204.947 506.986
340 0 53.2232 11.3484 604 64.3394 204.911 506.795
341 0 54.0428 11.2688 609 64.7159 204.501 505.931
342 0 57.0641 13.2307 755 62.396 205.038 503.958
343 0 57.1438 12.2323 699 63.804 204.668 503.644
344 0 60.1132 12.0772 726 63.8333 205.321 500.379
345 0 62.097 12.4483 773 63.4127 205.508 500.977
346 0 63.0237 12.0114 757 63.6869 205.125 500.789
347 0 66.0829 12.8172 847 62.8607 205.691 500.862
348 0 70.1786 12.0265 844 63.0308 205.616 500.063
349 0 70.0473 11.478 804 64.9005 205.201 495.243
350 0 72.1327 11.4095 823 65.3062 205.439 495.778
351 0 73.1325 11.4313 836 64.939 205.476 494.093
352 0 77.1335 12.0829 932 64.1073 205.484 493.961
353 0 79.1527 11.1936 886 64.7889 205.569 495.876
354 1 40.0294 9.61794 385 64.2909 205.148 513.842
355 0 40.1015 10.249 411 63.5766 205.927 514.217
356 0 42.0472 12.8665 541 61.0277 205.691 512.135
357 0 45.061 12.0281 542 61.3506 205.41 513.124
358 0 45.0353 12.1016 545 62.2716 205.618 511.521
359 0 48.0887 12.7057 611 61.5581 205.879 510.527
360 0 48.1056 12.0568 580 62.5586 205.738 511.216
361 0 49.0698 12.7777 627 62.7959 205.796 508.48
362 0 51.0421 12.3428 630 63.7492 205.727 509.378
363 0 53.1315 12.5349 666 63.4339 205.913 508.035
364 0 53.1421 12.2314 650 63.9231 205.697 508.735
365 0 55.0848 12.0905 666 64.5691 206.098 506.872
366 0 56.0455 12.472 699 64.9456 205.848 505.396
367 0 59.1653 12.6425 748 63.9559 205.346 504.77
368 0 62.1272 13.2148 821 63.2351 206.287 504.012
369 0 62.1444 11.7468 730 65.2562 205.903 504.748
370 0 66.0846 11.7728 778 64.5039 206.193 504.544
371 0 66.169 13.798 913 62.7492 206.866 500.943
372 0 67.1047 13.1585 883 63.2412 206.262 502.727
373 0 69.1373 12.034 832 65.4796 206.802 499.881
374 0 72.2834 11.9529 864 64.8634 206.494 499.027
375 1 37.0658 10.8186 401 64.0823 206.486 515.06
376 0 37.0647 10.3603 384 64.0938 206.646 515.76
377 0 39.1038 9.94787 389 64.8149 205.985 514.609
378 0 41.134 12.1068 498 61.7309 206.281 514.936
379 0 43.0457 10.8722 468 63.6859 206.081 513.596
380 0 43.0469 11.8243 509 62.1886 205.501 514.503
381 0 43.0317 11.294 486 64.1523 204.714 511.475
382 0 46.0784 12.457 574 61.5139 205.169 512.131
383 0 47.0441 12.0738 568 62.8468 205.607 509.268
384 0 49.0295 11.5237 565 63.4389 205.345 508.809
385 0 50.0737 10.884 545 64.0073 205.778 509.703
386 0 51.0734 12.1198 619 62.5751 205.611 508.95
387 0 54.1244 11.5105 623 62.6918 206.003 508.242
388 0 54.0557 11.3401 613 64.3263 205.765 504.711
389 0 57.0519 12.55 716 61.5237 205.828 506.162
390 0 57.1038 11.5929 662 63.148 205.456 502.956
391 0 61.1051 13.1904 806 60.9305 205.486 504.231
392 0 63.1057 13.7864 870 59.8414 206.249 503.651
393 0 65.2176 11.914 777 62.1634 205.38 503.82
394 0 66.0844 11.8182 781 62.7465 205.278 500.359
395 0 67.1755 11.4179 767 63.03 205.535 502.752
396 0 69.1049 12.6909 877 61.4071 205.548 500.518
397 0 72.053 13.0876 943 60.8494 205.928 498.823
398 1 37.0096 10.808 400 62.87 206.132 515.348
399 0 38.0138 10.8382 412 62.801 205.786 515.238
400 0 43.0778 9.33195 402 62.791 205.453 517.647
401 0 42.1786 10.9297 461 62.308 205.241 515.514
402 0 44.0481 11.3285 499 62.006 205.655 515.852
403 0 44.0543 11.5085 507 62.9093 205.819 514.619
404 0 46.0498 11.5961 534 62.7416 205.496 511.871
405 0 46.0579 12.0718 556 62.8939 205.712 511.768
406 0 47.0231 9.88876 465 66.0022 205.742 509.316
407 0 50.0593 12.5251 627 62.1196 205.954 509.325
408 0 50.0971 11.9368 598 62.7726 205.572 510.015
409 0 53.0764 13.1697 699 61.0215 205.705 508.986
410 0 54.1509 11.0432 598 63.4415 205.161 507.443
411 0 56.0428 12.6154 707 62.0325 205.257 506.748
412 0 58.1665 13.8396 805 59.9826 205.53 506.283
413 0 58.0844 13.0844 760 61.1803 205.4 506.887
414 0 60.1258 13.6048 818 60.7078 205.447 505.619
415 0 60.0862 10.7013 643 64.0778 205.784 506.683
416 0 63.1073 12.043 760 62.5474 205.764 502.528
417 0 65.0669 13.9702 909 59.879 205.975 503.701
418 0 69.0897 11.8107 816 62.4792 205.973 502.485
419 0 69.1554 11.7706 814 62.6646 205.533 502.151
420 0 70.1109 11.8954 834 63.476 205.376 498.671
421 0 76.2024 13.4248 1023 61.1505 205.034 500.008
422 1 37.0672 9.38837 348 64.8822 204.733 516.805
423 0 40.0193 11.1446 446 63.8677 205.224 514.285
424 0 41.1392 12.324 507 62.6036 205.511 514.308
425 0 42.0338 11.4194 480 64.1021 205.583 512.158
426 0 44.0969 11.6108 512 64.1426 205.588 512.662
427 0 46.057 11.5943 534 64.1629 205.755 512.084
428 0 47.0444 12.4138 584 63.1661 205.731 511.265
429 0 48.0389 12.4482 598 63.0452 205.56 511.452
430 0 51.068 11.847 605 64.0909 205.228 510.6
431 0 52.0969 13.1294 684 62.5234 205.553 509.171
432 0 55.086 12.1991 672 63.2976 205.902 510.516
433 0 53.081 12.7164 675 63.9778 205.496 506.844
434 0 56.0404 11.8486 664 64.9804 206.551 507.617
435 0 57.1169 11.1526 637 65.5573 206.052 507.248
436 0 59.1659 12.541 742 63.6509 205.712 506.1
437 0 60.0886 11.4331 687 66.099 205.863 505.031
438 0 62.049 13.1187 814 63.6032 205.625 504.525
439 0 63.069 11.1782 705 66.2865 205.53 500.403
440 0 66.2654 13.461 892 63.6345 205.857 500.27
441 0 69.2558 13.6018 942 63.018 205.392 501.182
442 0 71.0964 12.8558 914 64.6422 206.055 497.847
443 0 71.0853 11.7042 832 66.4159 205.831 497.637
444 0 76.0752 11.6464 886 65.851 205.455 497.698
445 1 40.0216 9.6198 385 65.3325 205.943 516.777
446 0 40.1239 8.8476 355 66.3944 205.713 516.521
447 0 43.0709 10.2621 442 65.509 205.081 514.335
448 0 44.0479 11.1016 489 64.9182 205.691 513.458
449 0 43.1656 10.8883 470 65.7787 205.349 513.455
450 0 48.108 9.99834 481 66.8316 205.545 512.181
451 0 46.0223 11.7117 539 66.1429 205.388 511.679
452 0 49.1474 11.7198 576 65.7344 205.344 510.068
453 0 50.0248 11.9141 596 65.8775 205.812 509.565
454 0 52.1424 11.833 617 65.3128 206.045 509.511
455 0 55.1187 12.8087 706 63.67 205.323 509.677
456 0 55.1283 10.6842 589 66.8065 205.204 507.645
457 0 57.2585 11.5267 660 66.8288 205.752 506.176
458 0 60.039 11.6091 697 64.9254 205.38 507.436
459 0 62.2875 12.8276 799 63.6496 205.95 506.529
460 0 65.1777 12.9032 841 64.3662 205.854 503.853
461 0 66.103 11.6334 769 65.9779 205.849 503.821
462 0 69.0819 12.2608 847 65.0071 205.479 502.032
463 0 70.1463 12.5452 880 63.8648 205.476 504.01
464 0 71.1023 10.9701 780 67.0487 205.573 500.526
465 0 76.0833 12.4206 945 64.3069 205.51 501.67
466 0 76.1334 11.4273 870 66.169 205.871 498.563
467 0 79.1052 11.3773 900 66.57 205.867 496.708
468 1 39.0426 10.6806 417 66.0671 205.832 515.532
469 0 42.0589 11.579 487 64.2341 205.708 515.423
470 0 44.0857 11.7952 520 62.9865 205.231 515.206
471 0 46.0913 12.0847 557 62.1203 205.806 514.361
472 0 46.0477 12.0744 556 63.2302 204.849 513.644
473 0 50.1889 12.9112 648 60.9892 205.491 511
474 0 50.0489 12.5677 629 62.2305 205.537 510.776
475 0 49.099 10.3872 510 65.1824 205.388 511.843
476 0 52.0412 13.4125 698 61.7149 205.334 508.842
477 0 53.0508 11.3099 600 65.115 204.937 509.485
478 0 54.0815 11.3162 612 65.3137 205.814 510.294
479 0 58.15 12.1582 707 63.3946 205.542 508.955
480 0 58.053 12.6092 732 64.026 205.637 506.699
481 0 59.066 10.5814 625 66.6832 205.682 503.854
482 0 63.1035 12.218 771 63.773 205.947 504.218
483 0 66.058 13.3973 885 61.7186 205.693 503.198
484 0 67.069 12.0622 809 63.5773 205.489 501.63
485 0 67.1169 11.3682 763 64.941 205.875 499.122
486 0 70.0827 11.9573 838 63.8544 205.606 500.445
487 0 72.0852 12.291 886 64.4955 205.498 497.114
488 0 75.1255 11.5939 871 64.9989 205.809 499.299
489 0 78.0464 13.556 1058 62.7382 205.898 497.553
490 1 43.0395 10.6646 459 63.7996 205.392 515.976
491 0 42.1142 9.90166 417 65.6211 206.201 514.321
492 0 43.0311 10.9921 473 64.9027 205.203 512.799
493 0 46.1832 11.8008 545 63.244 205.257 509.928
494 0 50.0907 11.3195 567 63.5908 205.363 511.101
495 0 51.1413 11.4585 586 63.3857 205.215 510.036
496 0 53.1168 11.5594 614 62.8827 205.178 511.081
497 0 55.1538 11.9122 657 64.723 205.528 508.262
498 0 57.1177 12.413 709 62.9859 205.269 507.984
499 0 58.0623 13.1411 763 62.9253 204.945 505.729
500 0 60.0785 10.6361 639 65.0939 205.549 508.476
501 0 60.1384 10.6089 638 65.3041 205.114 505.632
502 0 64.1734 11.0326 708 64.2105 204.948 505.561
503 0 66.1847 12.45 824 62.2075 205.422 503.95
504 0 68.126 11.8897 810 61.9605 204.747 503.905
505 0 68.0695 10.1514 691 64.8973 205.059 501.421
506 0 72.1089 12.1899 879 62.1866 204.576 498.32
507 0 73.0977 11.1631 816 62.7537 204.474 498.816
508 0 76.0657 11.3192 861 62.5819 205.445 496.635
509 0 78.1914 11.2161 877 62.8335 205.685 496.168
510 0 83.1478 12.0869 1005 60.7413 205.725 495.223
511 0 84.2785 11.1179 937 62.0021 205.657 496.472
512 0 89.1843 12.1882 1087 60.8335 205.095 493.746
513 0 89.1671 10.3738 925 63.4843 204.903 492.17
514 0 93.2472 11.432 1066 61.8471 205.022 488.71
515 1 49.0792 10.3506 508 59.9547 204.392 511.88
516 0 51.0588 10.1843 520 60.15 204.513 511.213
517 0 54.0209 10.9217 590 59.2898 204.863 509.283
518 0 56.1685 11.6257 653 58.3247 204.68 509.346
519 0 56.0993 9.10884 511 61.1742 205.325 508.812
520 0 60.0759 11.7685 707 59.1471 205.028 505.417
521 0 61.1933 10.1972 624 60.9327 204.971 506.131
522 0 64.0963 10.8899 698 60.6275 205.453 507.05
523 0 65.1867 10.8918 710 61.5324 205.125 504.228
524 0 69.1268 10.8352 749 61.0174 205.577 502.119
525 0 70.1668 13.4251 942 57.9724 205.218 500.996
526 0 71.1099 11.6299 827 60.0024 204.897 501.341
527 0 75.0412 12.1933 915 57.6568 204.658 498.906
528 0 75.1447 11.072 832 59.3702 204.153 495.1
529 0 78.0845 9.75866 762 60.4908 204.856 498.407
530 0 82.1302 9.75281 801 60.1199 204.851 496.343
531 0 88.2768 11.2827 996 58.6767 205.028 493.513
532 0 86.2363 8.58107 740 61.8027 204.92 495.339
533 0 93.1544 11.4219 1064 59.1419 204.753 489.682
534 0 95.1119 11.6179 1105 58.6262 204.805 493.022
535 0 97.1718 12.1023 1176 58.7628 205.042 490.367
536 1 51.1196 11.4633 586 58.8993 205.104 511.725
537 0 54.1102 11.4581 620 58.3274 205.177 510.526
538 0 53.0505 10.8953 578 61.2163 204.908 508.318
539 0 56.113 11.2273 630 60.3651 204.66 507.621
540 0 59.1948 11.8085 699 59.2475 204.385 506.036
541 0 60.1092 10.8802 654 60.5275 203.67 504.869
542 0 60.1174 12.8249 771 58.0856 204.114 505.709
543 0 63.0356 10.5655 666 61.1261 203.958 503.156
544 0 65.1638 11.1258 725 59.0524 205.337 501.89
545 0 68.098 10.9254 744 59.0672 204.961 503.059
546 0 70.0976 12.2686 860 58.3384 204.494 501.63
547 0 71.1525 11.0186 784 60.0765 204.718 499.839
548 0 74.0351 12.9668 960 57.7875 205.001 496.216
549 0 76.0799 11.2119 853 60.3259 204.975 497.306
550 0 79.1164 11.3756 900 59.8933 204.82 498.32
551 0 82.114 11.5449 948 59.9051 204.262 495.222
552 0 83.1256 13.0766 1087 58.4167 204.367 494.848
553 0 84.1393 9.17526 772 64.044 205.085 494.01
554 0 90.1389 13.1131 1182 58.9281 204.223 492.459
555 0 93.1203 12.4355 1158 60.1891 204.61 490.324
556 0 95.3222 13.3232 1270 59.4512 204.313 488.749
557 0 98.1653 11.4806 1127 62.0958 204.553 486.239
558 1 51.1369 10.3057 527 60.5844 204.33 510.833
559 0 52.0706 10.9083 568 61.7482 204.285 505.71
560 0 55.0689 11.5128 634 60.5599 204.82 507.178
561 0 57.1154 11.7131 669 60.5127 204.202 505.619
562 0 56.0219 11.9418 669 60.4813 205.368 509.422
563 0 59.1319 11.2799 667 61.0765 203.949 508.175
564 0 60.1118 10.3807 624 61.5994 204.479 507.412
565 0 65.0975 11.8284 770 59.6273 204.774 504.391
566 0 64.1509 11.5197 739 60.1407 204.181 504.766
567 0 68.085 13.0425 888 57.8142 204.118 500.961
568 0 69.2186 12.3233 853 58.8734 204.177 499.749
569 0 73.3019 11.5277 845 60.1266 204.607 497.867
570 0 71.2212 13.1422 936 58.0534 204.42 498.118
571 0 75.2061 11.2358 845 60.1716 204.697 495.412
572 0 79.055 14.0915 1114 56.2361 203.916 495.361
573 0 79.2061 12.7768 1012 58.1907 204.606 493.455
574 0 82.1386 11.9067 978 59.3988 204.762 490.51
575 0 85.1494 12.2138 1040 59.0808 204.636 490.282
576 1 45.1779 11.8421 535 57.6467 204.426 511.815
577 0 46.0348 10.0793 464 60.0194 205.129 511.226
578 0 49.0413 11.9491 586 58.3464 205.515 509.15
579 0 48.0439 11.7184 563 59.5844 207.094 508.146
580 0 51.044 11.8721 606 58.1667 206.856 510.797
581 0 52.0617 12.7349 663 57.2262 205.887 507.959
582 0 51.0436 9.2274 471 61.0701 206.259 506.779
583 0 53.0753 12.812 680 57.8544 206.253 508.056
584 0 57.1 11.8389 676 58.3491 205.806 507.031
585 0 61.0386 13.5488 827 56.5925 206.029 507.039
586 0 61.0673 12.1833 744 59.1868 205.558 504.59
587 0 63.0799 12.2701 774 59.3811 205.871 503.614
588 0 66.0846 13.8156 913 57.2114 204.828 502.651
589 0 66.091 11.3177 748 60.7406 205.033 502.183
590 0 66.1752 11.5451 764 61.199 204.882 497.992
591 0 71.1092 12.6285 898 59.0011 204.664 500.049
592 0 72.0775 11.6541 840 60.894 204.711 498.049
593 0 75.0919 12.1318 911 59.9341 204.917 495.45
594 0 78.0684 11.0544 863 60.8864 205.195 496.942
595 0 80.16 10.8907 873 60.9061 204.502 497.855
596 0 83.1855 11.3361 943 60.8727 205.129 494.989
597 0 86.1457 12.0029 1034 60.0155 204.379 493.837
598 1 44.0706 11.4589 505 59.903 205.069 511.883
599 0 47.0772 12.8512 605 58.1355 204.668 511.691
600 0 46.0547 12.724 586 59.8157 204.852 509.567
601 0 48.043 11.8644 570 60.4737 205.246 510.411
602 0 50.0774 11.1028 556 61.0935 204.842 510.085
603 0 51.0433 11.4805 586 61.1809 204.561 507.795
604 0 53.0915 12.8269 681 58.4332 205.231 508.836
605 0 54.1057 9.94351 538 62.3978 205.078 507.102
606 0 57.142 11.3227 647 60.9969 205.281 505.397
607 0 58.0606 12.9692 753 59.2377 205.458 505.146
608 0 60.1258 10.8772 654 61.6407 205.063 504.231
609 0 61.199 12.2388 749 60.5073 205.148 503.298
610 0 65.2707 12.1034 790 60.4696 205.354 503.053
611 0 65.0975 12.1049 788 60.9302 205.574 501.987
612 0 67.0863 11.597 778 61.446 206.001 500.752
613 0 67.0663 10.0647 675 63.5407 204.455 498.908
614 0 73.0909 13.3122 973 59.518 205.065 499.028
615 0 75.1919 12.9402 973 60.1614 205.359 494.78
616 0 79.1223 12.31 974 60.5873 204.941 495.63
617 0 81.1303 11.2288 911 62.1822 205.858 494.544
618 0 81.0948 11.69 948 62.5496 205.468 493.852
619 0 88.0753 12.2849 1082 61.9519 206.243 490.311
620 0 89.0755 12.0909 1077 61.9907 206.032 492.114
621 0 92.292 12.0379 1111 62.8686 205.394 486.978
622 1 52.1007 12.8597 670 61.2522 205.47 508.828
623 0 55.0627 11.4415 630 62.7413 205.263 508.305
624 0 54.0821 11.9633 647 63.4822 205.263 507.855
625 0 57.2819 11.6616 668 63.3787 205.124 509.048
626 0 59.1439 13.1375 777 62.5444 205.233 506.103
627 0 61.1395 12.8558 786 63.0051 205.578 504.877
628 0 63.0802 12.1591 767 63.7301 206.136 503.988
629 0 65.0373 12.6082 820 63.6561 205.095 501.518
630 0 65.1211 12.4076 808 64.0149 205.91 501.996
631 0 67.0376 12.3364 827 64.7557 205.391 501.839
632 0 69.1324 11.3984 788 66.3579 205.316 500.303
633 0 74.07 12.5152 927 64.7648 206.318 497.863
634 0 76.0723 13.1717 1002 63.8104 205.487 496.637
635 0 79.1206 13.7385 1087 63.0653 205.706 496.147
636 0 80.2503 12.8224 1029 64.2634 205.898 495.186
637 0 82.1773 11.0006 904 66.4989 205.125 494.168
638 0 85.0725 11.6959 995 65.7809 206.013 491.258
639 0 89.1728 12.0328 1073 64.6337 205.904 491.692
640 0 92.1425 12.2094 1125 64.3093 205.713 491.453
641 1 47.0738 12.6822 597 63.2848 205.322 510.492
642 0 48.1318 10.5336 507 65.3748 205.146 511.613
643 0 48.0279 10.2857 494 67.1518 205.474 508.425
644 0 53.015 12.5436 665 63.5368 205.535 509.11
645 0 55.2068 12.9694 716 63.5405 205.538 506.218
646 0 56.0523 12.8452 720 63.675 205.374 505.676
647 0 58.1798 13.0114 757 62.8349 205 506.384
648 0 59.0838 12.3046 727 64.5103 204.785 501.801
649 0 61.1174 11.6006 709 64.9436 205.118 504.415
650 0 64.0584 13.3784 857 62.7561 205.319 501.188
651 0 64.0881 11.6246 745 65.306 205.562 503.24
652 0 66.0271 12.1768 804 64.4838 205.104 499.949
653 0 69.1044 13.9499 964 61.3465 205.066 500.845
654 0 71.0703 13.55 963 62.1443 205.057 496.605
655 0 73.1126 11.325 828 64.3176 204.62 499.408
656 0 76.1918 12.6391 963 62.7975 205.427 496.897
657 0 79.0921 14.4009 1139 60.8183 205.112 494.869
658 0 79.2458 13.0859 1037 62.5863 204.979 494.871
659 0 84.0559 12.575 1057 62.8761 204.816 492.353
660 0 86.0967 11.9401 1028 63.5399 205.889 492.444
661 0 88.0756 11.6491 1026 64.2914 205.862 489.91
662 0 93.186 12.5126 1166 62.6698 205.628 488.7
663 1 47.0325 12.3319 580 64.0655 205.202 509.403
664 0 51.0655 12.8071 654 62.6865 204.81 508.349
665 0 50.0714 11.6633 584 65.012 205.51 509.06
666 0 52.094 12.2471 638 64.4357 205.08 508.76
667 0 55.051 12.9335 712 63.8525 205.584 506.64
668 0 57.0518 12.3397 704 64.3835 204.678 507.822
669 0 57.0404 12.7454 727 64.6396 204.787 506.806
670 0 61.12 12.9254 790 64.5253 205.556 503.822
671 0 63.0562 13.369 843 63.7841 205.504 504.544
672 0 64.0579 14.1434 906 63.6788 205.69 502.576
673 0 67.0446 12.9317 867 65.2722 205.969 500.953
674 0 69.1533 13.8967 961 63.6067 205.971 501.926
675 0 69.247 12.3038 852 66.4718 205.941 500.641
676 0 71.1799 11.9978 854 67.1054 205.744 498.687
677 0 76.0642 13.7252 1044 64.6628 206.313 496.591
678 0 77.1374 13.8843 1071 64.9244 205.921 494.883
679 0 81.144 13.285 1078 64.7913 205.59 495.438
680 0 85.2208 13.7877 1175 63.8332 206.015 493.532
681 0 87.1114 14.3839 1253 63.154 205.906 495.267
682 0 91.0982 14.2154 1295 63.4587 206.17 489.406
683 0 93.1055 14.0164 1305 64.0759 206.41 487.247
684 1 50.1091 11.9739 600 66.0617 206.128 509.357
685 0 49.0744 11.6354 571 66.8371 206.109 509.387
686 0 53.0559 12.4397 660 66.3091 206.45 507.812
687 0 54.0306 13.9736 755 64.4199 206.237 507.626
688 0 57.0253 11.9245 680 67.3118 206.399 506.104
689 0 60.1209 13.1236 789 65.0215 206.236 505.464
690 0 59.1262 12.245 724 66.8273 206.805 505.651
691 0 63.2258 12.4158 785 65.2102 206.283 506.589
692 0 65.0942 14.3484 934 63.485 206.877 503.925
693 0 66.1105 13.5077 893 65.0246 206.402 502.973
694 0 69.0937 13.9955 967 64.0196 206.59 500.609
695 0 71.0505 13.9619 992 64.1764 206.42 498.94
696 0 73.0832 13.2452 968 64.9163 206.669 500.986
697 0 76.11 13.3754 1018 65.1621 206.824 498.794
698 0 77.0456 12.4991 963 66.1589 206.447 498.309
699 0 83.1061 16.6293 1382 60.6071 206.591 493.748
700 0 83.1213 14.4367 1200 63.47 206.281 495.526
701 0 86.0696 13.6285 1173 64.8031 206.636 493.448
702 0 90.1311 13.3583 1204 64.5756 206.582 493.917
703 0 91.1985 13.3116 1214 65.8501 206.465 488.676
704 1 47.0822 12.6587 596 67.099 206.607 511.471
705 0 50.1375 12.0668 605 67.5174 205.983 512.686
706 0 50.0784 12.0811 605 67.7719 206.58 512.185
707 0 53.0703 13.4915 716 66.6732 206.267 508.764
708 0 57.2285 14.2761 817 64.0857 205.919 508.912
709 0 57.0534 15.652 893 62.9877 205.54 506.639
710 0 59.1006 12.098 715 67.9119 205.67 507.508
711 0 61.0889 13.6359 833 66.1429 205.319 505.044
712 0 64.0576 14.7992 948 64.1719 205.781 503.6
713 0 65.0774 13.2765 864 66.7604 206.007 503.256
714 0 66.3469 13.9569 926 65.7462 205.803 503.538
715 0 69.0592 12.0911 835 67.8036 206.086 502.266
716 0 70.3015 13.0438 917 67.1963 206.206 499.321
717 0 74.1811 14.5455 1079 64.3865 206.037 501.168
718 0 77.1816 14.5112 1120 64.2125 206.72 498.827
719 0 80.0903 14.2964 1145 64.2917 206.761 496.822
720 0 83.0744 14.8782 1236 62.9159 206.249 498.462
721 0 86.105 13.5881 1170 64.2812 206.444 497.089
722 0 88.1774 14.0739 1241 64.307 206.21 493.156
723 0 91.075 14.1312 1287 64.4157 206.162 489.395
724 0 91.153 12.7149 1159 66.2442 205.844 490.361
725 1 46.0693 11.1354 513 67.0526 205.984 512.895
726 0 50.0339 12.5315 627 65.0893 206.026 512.482
727 0 50.2934 13.5207 680 64.6529 205.366 510.568
728 0 53.0788 13.8473 735 63.849 205.328 509.788
729 0 52.1591 12.1551 634 66.6151 205.685 510.379
730 0 56.0882 13.6392 765 64.7386 205.75 507.208
731 0 56.0776 13.2495 743 65.4415 205.007 508.524
732 0 57.136 13.2841 759 66.1686 205.079 506.631
733 0 61.1611 13.6525 835 65.2874 205.378 505.885
734 0 63.173 15.6238 987 62.3516 205.944 505.542
735 0 65.089 13.4278 874 64.8513 205.624 504.16
736 0 65.1007 14.5006 944 64.7574 206.218 502.359
737 0 69.0848 13.0709 903 65.9956 205.867 501.878
738 0 72.1283 12.5748 907 66.8247 205.363 499.607
739 0 73.1446 14.3962 1053 65.1472 205.341 499.429
740 0 76.078 14.1565 1077 64.9452 205.439 498.214
741 0 80.226 14.8954 1195 64.1088 205.669 497.313
742 0 80.0889 12.3987 993 68.2397 205.48 494.431
743 0 83.0847 14.2144 1181 65.9018 205.434 493.872
744 0 85.1055 14.3704 1223 65.6263 205.519 493.909
745 0 89.1357 13.8104 1231 66.3542 205.557 492.186
746 0 91.1071 12.8201 1168 67.8776 205.848 491.951
747 1 47.0819 12.2765 578 68.1073 205.299 511.481
748 0 46.0405 13.0537 601 68.0133 205.085 511.093
749 0 51.0971 13.5429 692 66.1835 204.977 510.004
750 0 50.0386 11.8309 592 68.9764 205.328 507.65
751 0 53.0507 12.6483 671 66.6438 205.133 509.486
752 0 54.0625 12.4301 672 67.4018 205.527 508.104
753 0 57.0544 12.8824 735 65.9728 205.974 508.242
754 0 59.0652 12.3084 727 67.2545 205.437 505.345
755 0 59.1546 11.8841 703 67.2902 205.309 507.639
756 0 62.1356 12.4727 775 66.9806 204.88 502.738
757 0 64.1076 14.3353 919 63.8313 205.16 504.745
758 0 68.1372 12.2694 836 65.9103 205.864 502.489
759 0 68.0969 13.0843 891 65.2166 205.214 498.733
760 0 72.1921 13.5333 977 64.6786 205.401 498.869
761 0 75.0436 13.6188 1022 64.047 206.044 500.289
762 0 76.0818 13.0123 990 65.5677 205.53 497.133
763 0 80.1967 13.0429 1046 65.5459 205.316 495.946
764 0 78.2089 12.0319 941 67.7768 205.356 494.238
765 0 83.1545 12.6511 1052 66.4943 205.389 494.491
766 0 86.12 13.0632 1125 65.8569 205.965 492.973
767 1 44.0679 11.6184 512 66.5449 205.883 512.137
768 0 48.0718 11.1916 538 66.013 205.916 514.154
769 0 48.0669 14.459 695 63.4576 205.656 511.847
770 0 48.0919 11.4156 549 67.8525 205.415 510.856
771 0 52.051 14.0055 729 64.9287 206.063 510.395
772 0 53.1222 14.0243 745 65.0564 205.659 508.815
773 0 52.0954 12.4387 648 68.8333 205.606 506.741
774 0 55.1805 12.9031 712 67.5646 206.008 507.924
775 0 60.1239 12.3911 745 67.9181 205.752 507.746
776 0 59.0889 12.6081 745 68.3852 205.672 506.53
777 0 62.064 12.7449 791 67.5487 205.559 508.085
778 0 66.0364 14.28 943 65.6575 205.596 504.905
779 0 66.0756 12.5916 832 69.5541 205.645 503.091
780 0 68.2624 12.0564 823 70.3256 205.087 502.216
781 0 70.0546 12.5045 876 69.9852 205.983 502.959
782 0 73.0636 12.6054 921 70.5418 205.888 498.887
783 0 76.0788 13.8935 1057 67.877 204.991 500.828
784 0 79.0905 14.1231 1117 67.6374 205.701 500.254
785 0 79.0908 13.8196 1093 68.9396 205.519 497.508
786 0 82.1068 12.5812 1033 70.8596 205.384 495.436
787 0 83.0529 11.9924 996 72.4699 205.503 495.154
788 0 89.0845 13.055 1163 70.7549 205.343 491.58
789 0 93.0932 13.8249 1287 69.8632 205.472 491.995
790 1 49.0357 10.2578 503 73.1889 205.312 511.976
791 0 50.0688 11.2445 563 72.0497 205.917 511.622
792 0 52.1189 13.0279 679 68.5965 205.53 512.147
793 0 52.1237 13.2953 693 70.925 205.987 509.854
794 0 54.1104 11.8092 639 72.4413 205.324 510.468
795 0 56.0567 12.6122 707 72.0354 206.088 508.368
796 0 58.0602 13.3654 776 71.2229 205.428 506.429
797 0 60.0479 13.2061 793 70.5069 205.532 507.657
798 0 61.0483 13.1044 800 71.595 205.876 504.554
799 0 65.0906 13.9344 907 69.4509 206.667 504.603
800 0 65.1066 13.332 868 70.0622 205.892 505.159
801 0 67.1298 13.392 899 70.822 205.796 501.261
802 0 70.1901 14.1615 994 68.7545 205.459 502.012
803 0 73.0661 12.7419 931 70.9452 205.947 498.851
804 0 74.1151 13.9648 1035 69.4454 205.394 498.533
805 0 78.1112 12.4054 969 71.1404 205.76 497.233
806 0 83.0578 13.5568 1126 68.3996 205.565 496.159
807 0 84.1482 12.2284 1029 70.7357 205.084 495.674
808 0 87.0795 12.3221 1073 70.9897 205.75 493.093
809 1 43.0701 10.3088 444 72.5608 206.162 513.48
810 0 45.0389 11.2347 506 70.2154 205.35 514.437
811 0 48.056 11.8612 570 70.0263 205.479 513.3
812 0 48.1014 13.3052 640 68.8094 205.642 510.841
813 0 48.035 11.8872 571 71.5254 205.145 509.926
814 0 52.0782 13.8254 720 67.6514 205.806 510.332
815 0 51.1196 11.9524 611 71.329 205.329 510.38
816 0 54.0323 11.7522 635 71.6425 205.564 509.246
817 0 56.0928 13.1924 740 69.727 205.155 507.484
818 0 57.1049 12.836 733 69.8322 205.49 508.01
819 0 61.0526 12.4974 763 69.6121 205.532 507.585
820 0 61.0403 13.5976 830 68.3855 205.478 505.687
821 0 62.0214 12.7698 792 69.4747 204.634 505.074
822 0 63.1005 12.2344 772 70.8873 204.786 501.356
823 0 66.1174 12.2056 807 70.1797 204.807 500.387
824 0 70.1508 13.9271 977 67.2282 204.946 501.776
825 0 73.1752 13.0782 957 67.4859 205.594 501.096
826 0 74.1403 12.8675 954 69.2432 205.963 497.524
827 0 77.2177 14.5433 1123 66.0757 205.444 498.976
828 0 79.0691 15.5181 1227 65.0163 205.439 497.826
829 0 82.0804 13.4259 1102 68.0681 205.396 495.65
830 0 84.1938 13.6115 1146 68.1318 205.388 495.169
831 1 42.0581 10.4855 441 71.0113 205.243 514.107
832 0 45.0427 9.5465 430 71.3465 205.856 514.186
833 0 47.1052 11.5274 543 68.2284 205.81 515.587
834 0 48.1121 11.9305 574 70.2056 205.502 511.261
835 0 49.1297 13.2303 650 68.6538 205.486 511.425
836 0 50.0493 10.7894 540 72.6611 205.487 510.961
837 0 51.054 12.3595 631 70.3423 204.992 510.77
838 0 54.0553 12.9127 698 69.6103 205.11 509.105
839 0 56.0242 11.7449 658 71.0532 204.799 508.184
840 0 56.052 12.5063 701 70.9658 205.367 507.676
841 0 59.0747 12.3742 731 70.7155 205.836 507.35
842 0 60.0289 13.0937 786 70.1374 205.826 507.079
843 0 63.0518 13.2272 834 69.6403 205.306 505.573
844 0 64.0578 12.4107 795 70.9799 205.093 504.258
845 0 67.1154 12.8733 864 69.7014 205.248 504.167
846 0 68.0627 13.6639 930 69.6613 205.628 500.969
847 0 70.0678 11.9313 836 71.3804 205.746 502.726
848 0 74.1377 13.0838 970 70.0423 205.807 499.441
849 0 77.0681 13.4686 1038 69.0771 205.27 498.556
850 0 79.1451 11.8643 939 71.4015 205.251 498.279
851 0 81.1723 11.9992 974 71.2454 205.137 494.814
852 1 41.0334 10.6255 436 71.2018 204.906 515.11
853 0 45.0793 12.4891 563 67.9609 205.176 513.716
854 0 46.0439 11.0112 507 69.4458 205.012 515.726
855 0 47.0217 12.4411 585 68.4547 205.256 513.868
856 0 48.0757 11.8771 571 69.4238 205.406 513.601
857 0 50.0339 13.6108 681 67.1747 204.99 512.3
858 0 51.0131 13.8396 706 67.9717 205.052 510.118
859 0 51.0528 11.635 594 71.3603 205.239 510.971
860 0 53.0863 13.4686 715 68.9161 204.324 508.878
861 0 55.0328 12.3017 677 72.3501 204.681 509.555
862 0 57.1098 13.9031 794 69.3023 205.113 508.814
863 0 59.0807 13.947 824 68.0303 204.517 509.523
864 0 63.073 13.2862 838 68.6838 205.431 508.146
865 0 63.0812 13.2369 835 69.2084 205.671 507.794
866 0 66.1034 13.8419 915 68.4175 205.437 505.308
867 0 66.0681 11.9725 791 71.4994 204.946 505.794
868 0 69.1025 13.6174 941 69.4219 205.542 503.587
869 0 70.0542 14.4745 1014 68.2377 205.13 502.349
870 0 73.1012 13.0504 954 69.0451 205.431 504.83
871 0 73.0501 12.8679 940 70.7809 205.113 503.019
872 0 76.0331 12.8102 974 70.7094 205.15 499.487
873 0 79.097 14.7667 1168 67.9426 204.885 498.968
874 0 81.1041 13.6245 1105 69.7638 205.494 496.97
875 1 47.0266 13.1415 618 69.3576 204.968 514.472
876 0 46.0404 12.8366 591 69.6853 204.574 515.196
877 0 47.081 14.337 675 67.9244 205.043 514.507
878 0 49.067 13.2472 650 69.4385 204.958 513.418
879 0 50.0323 11.0329 552 72.1594 204.815 514.533
880 0 52.04 12.9132 672 69.3646 205.021 513.241
881 0 53.0473 12.1213 643 71.2457 205.275 512.383
882 0 57.0435 13.8315 789 67.8669 205.096 511.003
883 0 56.1553 14.4599 812 67.9458 205.103 510.362
884 0 58.0763 13.0862 760 69.5658 205.184 509.137
885 0 62.1855 16.7885 1044 52.2222 204.798 509.078
886 0 62.0269 14.7839 917 67.2901 205.793 506.439
887 0 64.1707 12.9342 830 69.9976 205.583 506.029
888 0 67.1038 13.2928 892 68.5437 205.626 504.881
889 0 68.0537 12.4901 850 70.1118 205.501 504.131
890 0 70.051 13.69 959 68.0052 205.614 501.531
891 0 73.1181 14.1005 1031 67.0339 205.594 500.679
892 0 75.1768 12.8231 964 68.2303 205.932 502.299
893 0 78.1342 13.144 1027 67.8393 205.985 498.868
894 0 78.1172 12.43 971 69.1936 205.579 497.53
895 0 82.1288 12.5778 1033 68.6776 205.716 496.227
896 0 84.168 14.6136 1230 65.9228 205.567 495.635
897 0 88.2727 13.6169 1202 67.0374 205.968 493.948
898 0 92.0571 14.0456 1293 66.7471 206.187 491.787
899 0 92.1113 13.4403 1238 67.9168 206.131 489.28
900 0 94.2582 13.7176 1293 67.6009 205.766 490.564
901 1 48.0612 9.90403 476 72.6471 205.477 512.498
902 0 51.0723 12.7858 653 68.4839 206.242 511.648
903 0 54.0508 13.0618 706 68.8215 206.282 509.55
904 0 55.0539 12.8056 705 69.1773 206.523 510.162
905 0 56.0743 12.9649 727 69.9532 206.14 506.945
906 0 60.132 12.9715 780 68.0038 206.231 508.927
907 0 60.0315 12.8099 769 68.9194 205.164 507.518
908 0 63.0557 14.0511 886 66.9526 206.482 508.107
909 0 67.1142 15.0192 1008 65.623 206.057 504.349
910 0 66.0794 12.2882 812 70.1761 206.344 503.76
911 0 70.1216 12.7493 894 69.0503 207.111 503.194
912 0 72.0659 11.6699 841 70.8395 207.497 501.854
913 0 75.1585 12.773 960 69.3427 206.606 498.378
914 0 77.2448 13.5284 1045 68.2115 206.303 498.753
915 0 80.0841 13.1487 1053 68.5878 206.129 498.384
916 0 84.1138 13.5531 1140 67.7237 206.146 498.381
917 0 84.0764 13.3331 1121 69.0839 206.698 496.318
918 0 88.086 14.4177 1270 67.5906 205.495 493.092
919 0 90.073 13.7666 1240 68.6766 204.994 493.835
920 0 92.1028 12.6272 1163 70.3319 205.733 494.905
921 1 47.0181 11.2722 530 68.5717 205.64 516.07
922 0 44.0747 11.0267 486 70.2572 205.156 516.272
923 0 46.0852 12.3901 571 68.9282 204.872 514.04
924 0 50.2055 12.8671 646 67.7276 205.268 513.94
925 0 50.1149 11.733 588 70.1173 205.384 512.947
926 0 51.0468 12.4787 637 69.4631 205.215 511.961
927 0 53.0831 13.639 724 67.9972 204.561 509.619
928 0 55.097 14.0661 775 67.3303 204.747 509.657
929 0 56.1377 13.7697 773 67.9043 204.832 508.047
930 0 57.0929 10.3691 592 71.8041 204.873 508.525
931 0 60.0856 13.1146 788 69.1383 205.797 505.042
932 0 63.1561 13.2529 837 67.8877 205.571 506.863
933 0 63.0447 13.1653 830 68.5361 206.031 504.59
934 0 67.1578 13.0737 878 68.4738 205.628 502.47
935 0 71.0607 12.2712 872 67.4415 205.983 504.028
936 0 71.0423 13.6257 968 66.8574 205.674 500.517
937 0 73.2536 12.054 883 69.2265 204.983 499.298
938 0 78.1062 12.9823 1014 66.5582 205.195 501.276
939 0 79.1764 13.6657 1082 66.975 205.361 499.101
940 0 80.0929 13.1722 1055 68.2493 205.566 497.356
941 1 44.1111 11.6524 514 67 205.739 516.65
942 0 44.0151 9.56489 421 70.5321 205.926 515.176
943 0 45.0644 11.3615 512 67.6719 205.264 515.346
944 0 46.0189 12.5818 579 66.8031 206.302 513.506
945 0 49.0887 12.7524 626 66.3962 205.789 510.353
946 0 50.0993 11.3574 569 68.2267 206.61 510.492
947 0 51.0158 12.2903 627 66.3923 205.963 512.088
948 0 52.0524 11.1042 578 68.1021 205.588 510.891
949 0 55.0947 12.7598 703 65.1238 205.982 508.852
950 0 54.0555 11.1552 603 68.0299 205.741 505.748
951 0 59.0267 13.0788 772 65.0298 205.731 505.304
952 0 60.0807 13.382 804 64.3545 205.953 504.335
953 0 60.0382 12.2089 733 65.7435 206.083 504.562
954 0 64.1089 11.6677 748 65.8382 205.86 502.971
955 0 65.2076 12.8973 841 64.2652 205.734 503.152
956 0 67.0706 13.5678 910 63.411 205.377 500.393
957 0 69.1526 12.4073 858 64.4231 205.749 500.195
958 0 71.076 13.1127 932 63.926 205.568 496.881
959 0 73.0749 12.453 910 64.2231 205.793 499.077
960 0 76.1554 12.6189 961 64.1863 206.42 497.131
961 0 79.1816 12.8818 1020 63.5275 206.524 495.294
962 1 38.0648 10.5609 402 65.1667 206.433 515.261
963 0 39.0431 10.0914 394 66.0888 206.53 514.777
964 0 41.0445 12.8641 528 63.2008 205.89 512.197
965 0 44.0921 12.4059 547 63.4936 206.369 511.512
966 0 44.0393 12.6478 557 63.5871 205.648 512.531
967 0 45.0974 12.9054 582 63.7302 205.785 509.935
968 0 48.0294 11.5762 556 64.6673 206.349 511.856
969 0 47.0685 11.6426 548 65.1442 206.19 509.874
970 0 52.1488 11.8315 617 64.0357 206.107 508.441
971 0 51.0812 10.3365 528 65.839 205.75 507.025
972 0 52.0169 11.4194 594 64.9461 205.966 506.061
973 0 55.0212 12.0317 662 63.7855 205.55 506.751
974 0 55.063 11.5686 637 65.0597 206.345 503.538
975 0 58.1048 11.5997 674 64.4243 206.226 505.372
976 0 61.2221 12.2995 753 62.9641 206.068 505.218
977 0 61.0272 11.88 725 64.3283 206.11 502.774
978 0 64.0259 12.7917 819 63.398 205.515 501.896
979 0 65.1172 12.2241 796 64.2764 206.162 498.276
980 0 70.018 13.3537 935 62.2214 207.022 500.043
981 0 70.099 12.411 870 64.3793 206.486 498.185
982 0 75.0794 13.1594 988 62.4767 206.164 499.385
983 0 76.0815 12.8678 979 63.5516 206.375 494.882
984 0 77.1201 12.6297 974 64.4487 206.045 494.799
985 0 82.0667 13.6596 1121 62.7029 206.612 492.523
986 0 84.068 13.1441 1105 63.7122 206.719 491.945
987 0 87.0597 12.635 1100 64.4009 206.436 493.723
988 1 44.1418 10.5116 464 66.2608 206.582 512.571
989 0 48.0391 13.0727 628 62.699 206.919 511.992
990 0 49.0981 12.3834 608 64.3783 206.914 511.161
991 0 48.0284 11.2434 540 66.3481 206.744 510.535
992 0 50.1246 12.0699 605 65.2264 206.559 508.76
993 0 53.0552 13.0242 691 63.657 206.415 508.381
994 0 53.0434 9.69017 514 68.2607 206.593 505.232
995 0 58.0354 11.717 680 64.175 206.372 506.604
996 0 59.1554 12.763 755 64.0623 206.51 503.826
997 0 61.0321 12.5999 769 64.0507 206.41 502.861
998 0 62.0447 12.3137 764 63.9254 206.436 503.457
999 0 64.2393 11.6907 751 64.9561 206.358 501.952
1000 0 67.2766 12.3074 828 63.4686 206.598 501.882
1001 0 70.2006 13.6466 958 61.8674 206.899 498.093
1002 0 71.0689 11.51 818 64.4609 206.731 498.562
1003 0 77.3413 11.4686 887 63.8906 206.362 497.454
1004 0 76.1344 12.872 980 62.5735 206.24 497.75
1005 0 78.0653 11.6441 909 63.9252 206.136 495.055
1006 0 81.0699 11.743 952 63.6134 206.413 492.053
1007 1 45.1162 11.0382 498 63.0522 206.659 513.52
1008 0 42.117 9.25992 390 66.4564 206.236 511.592
1009 0 45.0398 11.5675 521 64.3052 206.524 510.679
1010 0 47.062 12.7491 600 62.36 207.067 508.683
1011 0 49.1536 11.2504 553 63.8843 206.376 509.345
1012 0 50.1628 13.197 662 61.9909 206.535 507.921
1013 0 52.0657 12.8107 667 61.901 206.279 508.42
1014 0 55.166 12.689 700 61.1686 205.667 505.831
1015 0 55.0629 12.5311 690 61.7681 206.016 507.299
1016 0 59.0524 11.9894 708 61.6893 205.894 509.345
1017 0 59.0739 11.6295 687 62.8297 206.406 504.223
1018 0 63.4803 12.4133 788 61.4734 205.865 503.991
1019 0 63.2582 10.9709 694 63.366 205.565 502.683
1020 0 65.0294 14.5319 945 59.5989 205.887 499.603
1021 0 66.1086 12.6156 834 61.4868 205.766 501.326
1022 0 72.1569 12.7223 918 60.8246 205.717 500.233
1023 0 73.1667 13.3941 980 60.5276 205.539 498.71
1024 0 74.0815 11.4334 847 62.5207 205.68 496.655
1025 0 80.1362 14.0636 1127 58.8811 205.321 495.988
1026 0 83.0773 12.8435 1067 60.4433 205.301 495.137
1027 0 84.0776 12.0127 1010 61.5366 205.141 495.472
1028 0 86.1433 12.3515 1064 61.4793 204.991 491.175
1029 1 45.1346 11.9421 539 60.2857 204.592 514.785
1030 0 45.1349 10.812 488 62.2561 204.17 515.553
1031 0 48.1325 12.6318 608 60.4572 204.38 514.609
1032 0 49.0476 11.7029 574 61.9338 204.251 511.629
1033 0 48.1026 12.6189 607 61.7397 204.285 509.369
1034 0 54.0874 14.569 788 57.8985 204.431 510.489
1035 0 52.0972 12.6302 658 61.2416 204.295 510.93
1036 0 54.0292 11.975 647 61.626 204.321 509.226
1037 0 54.4 11.7095 637 61.584 203.677 507.52
1038 0 59.1028 13.1297 776 59.8956 203.811 507.781
1039 0 59.0718 14.1015 833 59.2569 203.64 505.664
1040 0 63.0249 13.0266 821 59.8685 203.671 505.741
1041 0 65.0824 13.0296 848 60.0554 203.605 502.537
1042 0 65.109 11.7802 767 62.0117 203.849 503.866
1043 0 68.2787 14.0014 956 59.3086 204.382 503.934
1044 0 72.1724 13.1491 949 59.7081 204.295 504.604
1045 0 74.1432 14.6878 1089 58.1864 204.152 501.237
1046 0 73.1384 12.2918 899 61.901 203.605 500.97
1047 0 77.0316 12.2158 941 61.6366 204.434 502.027
1048 0 81.2024 12.6228 1025 61.28 203.983 496.981
1049 0 83.2016 12.9204 1075 61.2809 204.064 496.168
1050 1 45.2303 11.3862 515 63.5456 203.487 516.254
1051 0 50.2985 12.724 640 61.775 203.753 515.023
1052 0 50.1441 11.8259 593 63.683 203.755 514.12
1053 0 48.1861 12.5347 604 63.7666 204.088 514.5
1054 0 51.0812 12.118 619 63.4136 204 514.262
1055 0 51.0568 11.6929 597 64.8342 203.936 510.849
1056 0 53.1401 12.8528 683 63.1083 203.527 509.738
1057 0 56.1141 13.5795 762 61.9357 203.463 509.965
1058 0 57.1666 13.277 759 62.5929 204.134 508.319
1059 0 58.0982 12.3412 717 63.7992 204.106 506.478
1060 0 61.0899 13.5211 826 61.9116 203.843 507.705
1061 0 63.105 13.0735 825 62.4679 203.846 507.313
1062 0 66.1518 13.8167 914 61.3665 203.384 504.744
1063 0 67.1547 12.8509 863 62.7856 204.678 507.363
1064 0 70.1027 14.1792 994 61.0312 204.309 503.805
1065 0 71.1311 10.9375 778 65.6337 204.014 503.85
1066 0 75.0664 14.3473 1077 61.3324 204.635 501.546
1067 0 79.1978 14.7479 1168 59.9495 204.641 500.17
1068 0 82.1422 13.4766 1107 61.3821 204.635 498.891
1069 0 83.1257 13.1608 1094 62.6718 205.215 494.804
1070 0 84.1632 16.0759 1353 59.5225 204.829 497.942
1071 1 45.1252 13.6731 617 61.7423 204.937 516.901
1072 0 46.1018 11.6915 539 64.8237 205.349 517.406
1073 0 46.1866 13.0557 603 64.0149 204.896 516.532
1074 0 50.2551 12.7549 641 64.2262 205.12 514.229
1075 0 50.3158 13.296 669 63.3901 204.886 516.173
1076 0 54.1207 13.6547 739 63.1516 204.264 511.418
1077 0 55.1676 13.1599 726 63.8223 204.123 513.248
1078 0 58.1541 13.1547 765 64.383 204.523 510.856
1079 0 57.1787 15.198 869 61.7917 204.491 511.673
1080 0 61.2715 12.9098 791 64.4526 205.018 510.236
1081 0 63.2822 13.7163 868 63.2488 204.806 509.274
1082 0 64.2736 13.4425 864 64.2338 205.503 507.478
1083 0 64.0581 15.845 1015 61.9143 205.316 506.904
1084 0 67.2417 13.0128 875 64.6971 204.659 505.401
1085 0 69.0689 13.9281 962 63.6933 205.153 505.551
1086 0 71.2574 13.7249 978 63.7781 204.57 501.96
1087 0 74.3824 13.2021 982 64.2251 204.509 502.256
1088 0 77.0818 13.4013 1033 63.7773 204.975 502.505
1089 0 80.2206 13.4753 1081 64.1822 205.386 499.133
1090 0 79.2015 12.1462 962 66.6559 205.208 498.523
1091 0 84.1987 16.4254 1383 61.2176 205.68 497.97
1092 0 87.2276 13.5049 1178 64.7589 205.307 495.811
1093 0 88.1546 14.0889 1242 64.2013 205.71 493.595
1094 0 90.1612 13.3539 1204 65.2218 205.557 494.815
1095 1 47.0929 11.3605 535 66.6131 205.594 515.424
1096 0 50.1639 11.6817 586 67.7509 205.36 511.556
1097 0 51.1676 9.92816 508 69.0551 204.955 513.524
1098 0 50.1175 11.6327 583 68.1509 205.521 509.991
1099 0 52.1214 10.8784 567 68.3069 204.693 510.45
1100 0 56.2566 13.0651 735 64.4993 206.219 510.384
1101 0 59.0784 14.0999 833 63.5246 205.752 508.034
1102 0 61.3295 13.3867 821 64.0767 205.441 507.58
1103 0 63.2145 13.8418 875 63.1954 205.331 506.434
1104 0 63.1255 12.9583 818 64.9743 205.347 505.663
1105 0 66.2503 14.4301 956 62.8797 205.474 502.199
1106 0 70.3312 13.0383 917 64.1592 205.072 500.252
1107 0 70.3362 14.6155 1028 62.2977 204.978 498.77
1108 0 73.182 12.6397 925 64.4746 205.512 498.562
1109 0 76.1803 13.4287 1023 62.9472 205.43 500.152
1110 0 78.2569 13.5451 1060 62.6745 205.638 499.681
1111 0 81.1619 13.8119 1121 62.3256 205.521 497.036
1112 0 84.1693 13.9956 1178 60.2521 205.347 497.626
1113 0 86.2958 14.7979 1277 61.2764 205.674 494.234
1114 0 87.3044 13.0692 1141 63.6897 206.063 492.829
1115 0 92.2862 12.3637 1141 64.376 205.902 489.822
1116 1 48.1751 10.7109 516 64.4399 206.143 513.244
1117 0 48.1856 11.2689 543 64.3039 205.6 513.687
1118 0 47.0784 12.4473 586 64.9454 206.027 509.391
1119 0 52.2072 12.9293 675 63.5215 206.153 510.984
1120 0 53.2068 12.4796 664 64.1657 206.304 509.696
1121 0 56.263 11.7306 660 64.4136 206.338 510.071
1122 0 58.1969 15.585 907 60.0375 205.845 509.777
1123 0 60.151 12.984 781 63.2407 205.565 508.296
1124 0 60.1635 13.0145 783 64.0792 206.054 504.026
1125 0 62.2185 12.2311 761 64.7871 205.962 504.808
1126 0 63.1397 13.1613 831 64.2816 205.697 504.477
1127 0 66.4068 13.854 920 63.1543 205.971 504.727
1128 0 69.2809 13.3514 925 64.3827 205.922 501.051
1129 0 69.4395 12.7881 888 64.92 205.947 502.644
1130 0 73.2603 12.4897 915 66.1421 205.565 499.244
1131 0 78.3899 15.053 1180 62.639 205.596 498.197
1132 0 80.2703 15.1737 1218 63.0164 205.404 498.016
1133 0 81.228 13.5544 1101 65.0009 205.767 500.191
1134 0 83.5184 14.2603 1191 64.9689 205.257 496.094
1135 0 86.3893 15.3144 1323 63.5276 205.243 496.705
1136 0 88.3139 14.0522 1241 65.6068 205.578 492.466
1137 0 92.3517 14.8346 1370 64.4891 205.555 494.735
1138 0 93.3032 16.1945 1511 63.4255 205.925 492.101
1139 0 95.2601 14.9275 1422 65.1779 206.183 493.05
1140 0 98.302 14.4148 1417 66.8603 206.193 489.256
1141 1 49.3246 12.5698 620 68.0468 206.25 511.429
1142 0 52.3068 12.1208 634 69.5079 206.522 510.32
1143 0 53.4156 14.1532 756 66.8677 206.163 510.795
1144 0 54.2971 12.9105 701 70.873 205.058 508.422
1145 0 54.2842 14.0741 764 70.6086 205.616 510.31
1146 0 56.3623 13.1116 739 71.2219 205.85 513.529
1147 0 56.2297 14.3163 805 71.3155 205.845 511.55
1148 0 58.2336 13.6347 794 72.9131 205.991 510.145
1149 0 60.1779 14.723 886 71.219 206.619 510.26
1150 0 61.201 13.5129 827 74.2987 206.346 507.88
1151 0 61.2674 13.1718 807 75.3135 206.125 507.088
1152 0 65.2477 15.5868 1017 70.527 205.617 508.266
1153 0 65.1516 11.7572 766 76.923 206.072 505.537
1154 0 68.3452 13.8854 949 74.2666 205.843 504.045
1155 0 67.285 13.2273 890 75.3674 205.433 504.819
1156 0 68.2308 12.8388 876 75.2306 205.467 507.13
1157 0 66.2627 10.6546 706 78.5977 205.698 507.739
1158 0 69.2725 11.6496 807 75.3494 205.819 509.331
1159 1 80.2746 13.0801 1050 74.6743 205.75 502.899
1160 0 82.1651 13.2295 1087 75.034 205.458 497.837
1161 0 85.2475 15.4726 1319 72.3404 205.848 496.526
1162 0 88.281 12.5961 1112 75.6853 205.626 495.693
1163 0 90.2252 13.2114 1192 75.255 205.7 494.018
1164 0 92.3122 13.3569 1233 74.7315 205.697 494.965
1165 0 98.4848 13.2102 1301 74.5988 205.885 493.292
1166 0 103.292 14.7736 1526 71.998 205.757 491.773
1167 1 57.2392 13.2601 759 73.137 205.202 509.615
1168 0 60.3031 13.598 820 72.761 205.707 510.512
1169 0 62.2183 13.2116 822 72.5961 205.713 511.398
1170 0 64.252 13.4626 865 73.3075 205.631 507.714
1171 0 66.392 15.0018 996 70.4257 205.926 509.865
1172 0 68.2283 13.3522 911 73.7201 205.505 505.554
1173 0 69.2281 14.8783 1030 72.0583 205.868 504.919
1174 0 73.2053 13.7422 1006 73.3499 206.005 502.773
1175 0 73.3074 13.0001 953 74.2749 206.137 504.065
1176 0 75.3008 14.369 1082 72.9011 205.53 501.098
1177 0 80.494 14.0011 1127 72.6619 206.217 501.992
1178 0 82.3256 14.0175 1154 72.8501 206.6 501.172
1179 0 83.3215 13.2739 1106 74.4593 205.663 500.823
1180 0 87.2505 14.0286 1224 73.0719 205.537 499.15
1181 0 90.5627 14.8074 1341 72.1051 205.138 497.162
1182 0 90.3782 14.1516 1279 73.9218 205.16 495.43
1183 0 95.3359 15.1255 1442 72.3329 205.233 494.965
1184 0 97.2125 15.2141 1479 72.4172 205.361 491.533
1185 0 101.407 14.3974 1460 72.5027 205.592 491.51
1186 0 103.214 14.3682 1483 72.9737 205.36 490.698
1187 0 106.336 13.2411 1408 73.5625 205.464 489.253
1188 1 59.2081 12.6672 750 73.3667 205.241 510.44
1189 0 61.276 13.5779 832 72.5817 206.191 511.367
1190 0 64.1517 14.9489 959 70.4703 205.856 510.308
1191 0 66.3852 14.1447 939 71.5122 205.531 508.878
1192 0 67.2239 12.5848 846 73.4054 205.838 509.243
1193 0 72.2581 13.7562 994 72.4608 206.042 506.295
1194 0 72.374 16.8569 1220 68.5467 205.532 505.874
1195 0 73.2471 11.7001 857 75.7036 205.7 504.881
1196 0 77.3396 14.3782 1112 72.5629 206.326 501.515
1197 0 79.2466 13.8807 1100 72.6373 205.758 504.266
1198 0 83.3729 15.3887 1283 71.0507 205.368 500.725
1199 0 85.1944 14.6723 1250 71.62 205.738 502.415
1200 0 89.2379 13.4136 1197 73.7895 206.167 498.41
1201 0 91.203 14.2868 1303 72.7183 206.249 497.406
1202 0 94.5089 14.9087 1409 72.0738 206.189 496.604
1203 0 94.1521 14.1473 1332 73.4835 206.373 496.408
1204 0 100.348 14.1109 1416 72.4054 206.412 496.245
1205 0 103.317 13.9667 1443 72.9841 206.403 493.064
1206 1 51.158 14.5432 744 70.039 206.144 518.327
1207 0 51.2524 13.8725 711 71.9114 206.034 515.859
1208 0 54.2052 11.6963 634 75.2587 205.845 513.584
1209 0 53.2642 13.2735 707 73.9859 206.003 513.339
1210 0 56.1563 13.1063 736 72.8397 206.174 515.182
1211 0 60.1941 15.3836 926 70.1749 206.159 510.773
1212 0 62.2645 13.0411 812 73.3374 206.256 510.937
1213 0 64.3862 12.922 832 73.9363 205.968 508.662
1214 0 66.2339 14.9319 989 70.6775 206.825 508.312
1215 0 69.2707 13.8442 959 71.3389 206.369 508.601
1216 0 70.3042 13.9252 979 71.6874 206.454 507.721
1217 0 74.2895 13.2455 984 72.8242 206.106 503.286
1218 0 77.2871 13.8316 1069 71.5463 206.599 505.385
1219 0 78.2882 14.3828 1126 71.7522 206.573 500.947
1220 0 81.3176 13.478 1096 72.0091 206.442 502.962
1221 0 85.1942 14.3907 1226 70.9013 206.44 499.499
1222 0 86.3735 13.789 1191 72.5516 206.781 497.818
1223 0 90.2513 12.7644 1152 73.4618 206.698 497.058
1224 1 46.2646 13.0121 602 70.9336 206.879 518.193
1225 0 49.3446 12.9295 638 70.5204 206.82 516.68
1226 0 49.0876 12.1619 597 72.732 206.993 514.744
1227 0 49.1897 12.8075 630 72.427 207.446 514.389
1228 0 50.1211 12.1905 611 74.3077 206.836 511.416
1229 0 54.2942 13.3716 726 71.4862 206.733 510.351
1230 0 56.0853 13.0872 734 72.0463 206.557 510.846
1231 0 57.1649 13.1374 751 71.8362 206.662 509.458
1232 0 58.2251 12.2971 716 72.669 206.707 509.067
1233 0 61.2828 14.2781 875 70.4126 207.026 505.563
1234 0 62.3842 12.936 807 72.4597 206.555 507.286
1235 0 62.293 10.563 658 76.1793 207.365 505.688
1236 0 67.1481 12.7479 856 72.8692 207.313 504.572
1237 0 67.2915 13.6421 918 71.9052 206.553 504.245
1238 0 70.3003 13.5988 956 72.1778 206.844 501.556
1239 0 72.2572 13.2582 958 72.3413 207.114 501.907
1240 0 75.3318 13.0622 984 72.9167 207.295 501.176
1241 0 76.2798 12.2051 931 74.6176 206.915 498.885
1242 0 80.2371 13.647 1095 72.5297 207.042 497.902
1243 0 83.2322 13.168 1096 72.719 206.934 498.272
1244 0 85.2988 13.3413 1138 72.7654 206.773 497.391
1245 0 86.4576 12.9312 1118 72.6655 206.518 496.835
1246 0 89.3563 14.3471 1282 71.6154 207.227 492.562
1247 0 93.3139 13.267 1238 71.8918 207.475 494.481
1248 1 48.1497 12.7104 612 71.7173 206.858 514.954
1249 0 50.2719 11.6168 584 71.5411 206.193 515.723
1250 0 50.2202 13.162 661 71.8003 206.278 512.027
1251 0 52.2628 13.0112 680 71.0147 206.89 513.488
1252 0 55.2789 13.3505 738 70.2114 206.485 512.757
1253 0 56.4073 13.0657 737 71.019 206.791 509.722
1254 0 58.2782 14.0018 816 69.6299 206.548 510.135
1255 0 62.3042 13.8835 865 69.1434 206.852 510.275
1256 0 62.2397 12.9821 808 70.6238 207.187 506.979
1257 0 63.344 13.4661 853 69.7819 206.585 508.057
1258 0 66.2853 14.3018 948 68.7152 205.9 505.294
1259 0 69.3355 14.4226 1000 68.347 205.843 503.883
1260 0 70.4214 12.766 899 70.8888 206.053 503.736
1261 0 73.2109 14.7792 1082 67.9843 206.117 499.869
1262 0 76.2228 13.7492 1048 69.1422 206.1 499.843
1263 0 77.2152 14.0387 1084 68.2694 205.822 500.852
1264 0 80.3249 14.0679 1130 68.4637 206.562 499.45
1265 0 82.2695 12.8845 1060 69.966 206.448 497.099
1266 0 85.3048 13.7273 1171 68.4816 206.101 496.909
1267 0 87.3737 13.2649 1159 69.2571 206.26 494.287
1268 0 89.185 13.1188 1170 70.0162 206.308 492.592
1269 0 93.2235 13.2048 1231 69.0008 206.331 493.006
1270 0 95.3945 12.6527 1207 70.43 206.114 488.321
1271 1 53.1871 11.3561 604 69.2119 206.159 514.28
1272 0 52.2446 13.877 725 67.72 206.269 512.048
1273 0 55.1662 12.7433 703 68.3215 206.053 511.084
1274 0 58.1408 13.3641 777 67.8005 205.556 509.896
1275 0 59.2425 12.778 757 69.1466 205.675 508.901
1276 0 62.3047 13.7871 859 67.8289 205.901 506.98
1277 0 64.1737 13.0427 837 68.0119 206.362 507.018
1278 0 62.0711 10.778 669 72.5277 206.822 506.185
1279 0 70.1102 13.5216 948 66.4494 206.518 507.063
1280 0 70.2463 13.6804 961 67.6139 206.525 505.271
1281 0 74.2429 14.2909 1061 66.4025 206.355 503.687
1282 0 74.1787 13.3461 990 68.6455 207.214 500.984
1283 0 77.1658 13.5552 1046 67.9962 206.732 500.296
1284 0 81.5556 13.3283 1087 68.333 206.56 496.17
1285 0 81.2443 13.1209 1066 69.2073 206.78 498.589
1286 0 84.3234 12.879 1086 69.6271 206.822 497.03
1287 0 89.256 15.5396 1387 66.0346 206.709 493.887
1288 0 90.4133 13.1065 1185 69.9755 206.373 493.381
1289 0 92.1498 13.5866 1252 70.3131 206.026 488.975
1290 0 96.1078 12.9958 1249 71.0088 206.917 489.989
1291 0 101.255 14.2906 1447 68.3925 207.301 490.455
1292 1 53.1775 13.3703 711 69.9662 206.271 510.871
1293 0 55.2819 13.4945 746 69.0523 206.422 511.255
1294 0 57.1618 12.8932 737 70.4912 205.691 508.418
1295 0 58.1814 12.822 746 69.559 206.071 510.178
1296 0 60.2607 13.3254 803 69.5965 206.493 508.148
1297 0 63.171 13.5664 857 68.727 207.035 505.977
1298 0 64.1137 12.9925 833 68.952 205.455 508.453
1299 0 67.2745 12.7983 861 69.7538 205.635 504.598
1300 0 70.1659 12.2424 859 69.7648 206.059 502.941
1301 0 73.2339 13.5866 995 67.395 205.675 503.694
1302 0 75.2266 13.2001 993 68.6103 206.24 500.887
1303 0 77.2935 14.6972 1136 66.3415 206.241 502.76
1304 0 78.0579 12.9519 1011 69.1444 206.55 498.589
1305 0 79.2847 13.6092 1079 68.8007 206.501 495.52
1306 0 81.1844 15.0029 1218 67.1708 206.75 494.368
1307 0 86.3797 12.8155 1107 69.7299 205.836 494.684
1308 1 45.1183 10.3949 469 71.0725 205.893 513.908
1309 0 50.2244 12.8025 643 66.8072 206.574 514.495
1310 0 50.3976 11.9648 603 67.8955 206.471 514.594
1311 0 50.3963 11.8064 595 70.1412 206.667 510.686
1312 0 54.2895 11.936 648 69.3519 206.66 512.335
1313 0 55.1491 12.6022 695 68.4863 206.917 511.285
1314 0 56.2626 12.3706 696 69.0086 206.389 509.693
1315 0 56.2642 12.0858 680 69.7015 206.585 508.907
1316 0 58.1519 12.8285 746 68.5349 206.449 507.838
1317 0 59.245 12.1867 722 70.0097 207.001 505.342
1318 0 62.3553 11.8354 738 69.5352 206.668 504.642
1319 0 67.1289 13.5709 911 66.7168 206.102 504.484
1320 0 62.3107 14.1709 883 67.5119 206.114 502.847
1321 0 66.1623 12.6658 838 68.9105 206.492 501.512
1322 0 68.0973 12.7612 869 68.6467 205.93 500.32
1323 0 73.1516 13.0551 955 67.6377 205.608 500.326
1324 0 76.2057 11.4821 875 69.6457 206.966 498.934
1325 0 78.2488 11.604 908 69.2919 206.648 496.056
1326 0 83.1556 13.2643 1103 66.2294 206.265 498.316
1327 0 82.1088 13.3969 1100 67.0345 206.302 492.379
1328 0 88.2302 11.6967 1032 67.7141 206.271 493.126
1329 0 93.1681 14.1357 1317 63.6409 206.699 493.063
1330 1 52.0854 10.7516 560 66.0054 206.782 512.418
1331 0 51.0478 9.50089 485 68.4021 206.804 512.561
1332 0 54.0931 13.1995 714 63.57 206.937 512.104
1333 0 58.1041 13.1488 764 63.4332 207.048 510.87
1334 0 58.1123 13.4911 784 63.3265 206.901 510.485
1335 0 50.1024 12.2349 613 67.9233 206.793 506.093
1336 1 62.0667 11.9871 744 64.4583 206.356 508.833
1337 0 63.3555 12.0589 764 64.3338 206.713 504.639
1338 0 60.2223 12.238 737 65.1927 206.532 500.189
1339 0 68.1238 14.1214 962 61.0655 207.051 502.317
1340 0 69.1867 11.9821 829 64.1761 206.724 501.713
1341 0 66.2233 12.9562 858 63.8881 206.711 497.406
1342 0 74.1122 12.0628 894 63.5503 206.478 496.426
1343 0 77.098 13.8395 1067 61.3561 205.772 498.371
1344 0 80.2894 13.3642 1073 61.4268 206.425 498.535
1345 0 77.1889 13.8362 1068 62.559 206.395 497.512
1346 0 85.392 12.5773 1074 63.1816 205.404 493.091
1347 0 87.2066 12.5679 1096 63.5639 206.076 491.703
1348 0 88.1565 12.5118 1103 64.0526 206.267 493.835
1349 0 92.2187 13.1427 1212 62.9653 206.954 493.913
1350 1 50.1136 10.0172 502 64.7251 206.291 513.261
1351 0 54.3086 11.4347 621 64.5153 206.3 510.279
1352 0 56.2894 9.27351 522 67.908 206.077 507.435
1353 0 56.266 10.0771 567 67.4109 206.326 506.31
1354 0 58.2506 10.987 640 65.7234 205.734 506.578
1355 0 62.1867 11.9157 741 64.1579 205.46 507.69
1356 0 60.2727 12.0453 726 65.6446 205.405 503.492
1357 0 65.3458 12.9006 843 63.6797 205.902 504.039
1358 0 66.2388 10.9301 724 66.663 205.756 502.594
1359 0 69.0533 12.0631 833 65.4298 205.778 500.267
1360 0 68.0827 10.7516 732 67.8989 205.712 501.402
1361 0 74.0834 13.3093 986 63.5355 206.201 504.024
1362 0 70.0813 10.8303 759 68.9789 205.972 497.378
1363 0 78.0946 11.9214 931 65.9066 206.003 500.532
1364 0 77.1609 9.56443 738 70.5108 205.22 496.011
1365 0 80.1174 10.8341 868 68.4505 205.654 495.584
1366 1 12.004 8.8304 106 48.9245 205.047 531.236
1367 0 12.0226 5.98873 72 52.0139 205.389 531
1368 0 13.0668 10.4081 136 49.2279 205.669 530.897
1369 0 13.0291 10.8987 142 49.4085 206.12 530.648
1370 0 12.0194 9.73425 117 50.4017 205.983 531.607
1371 0 12.0235 11.6439 140 47.5929 205.15 532.657
1372 0 14.0732 12.2219 172 46.686 204.634 530.936
1373 0 12.0051 11.1619 134 48.7015 205.03 531.187
1374 0 13.0453 9.35202 122 48.9672 205.303 532.074
1375 0 13.0375 10.7383 140 48.55 205.143 531.371
1376 0 13.0154 9.21982 120 48.9667 205.117 532.017
1377 0 13.0047 9.99641 130 49.1769 204.692 530.785
1378 0 13.0257 7.67711 100 49.65 204.6 530.89
1379 0 13.0804 7.87439 103 48.7573 204.612 531.32
1380 0 13.0079 8.99454 117 48.8974 205.205 531.761
1381 0 13.0308 8.28803 108 49.3796 205.852 531.593
1382 0 12.0078 10.9929 132 47.9621 204.962 532.129
1383 0 12.0128 6.99254 84 49.4286 205.345 533.19
1384 0 13.0293 4.22124 55 51.8909 205.182 530.491
1385 0 13.0083 11.7617 153 48.451 205.431 532.81
1386 0 11.0046 6.08838 67 52.4478 206.03 533.821
1387 0 14.0417 9.68547 136 48.7868 204.419 532.728
1388 0 11.0297 4.98653 55 52.3636 205.782 532.745
1389 0 12.1013 9.17257 111 49.7838 205.09 532.108
1390 0 13.1221 9.44968 124 49.2581 204.839 532.234
1391 0 12.0045 3.16549 38 52.9474 206.237 532.553
1392 0 13.037 6.05969 79 51.3544 206.797 532.962
1393 0 12.0821 8.19392 99 51.1111 207.162 531.354
1394 0 14.1715 6.06852 86 52.4651 207.198 532.93
1395 0 13.0785 8.8695 116 50.75 206.767 532.276
1396 1 63.2554 13.4692 852 62.6244 206.487 507.953
1397 0 64.3306 12.3269 793 64.1261 206.755 507.071
1398 0 65.3014 10.6736 697 66.2023 206.22 506.618
1399 0 67.229 11.0369 742 65.9852 205.748 505.255
1400 0 70.2296 11.4624 805 65.1155 205.137 504.655
1401 0 72.2519 12.4287 898 64.0512 206.081 504.451
1402 0 74.44 11.3514 845 65.8805 206.18 501.813
1403 0 75.4505 10.9343 825 66.1079 206.446 503.315
1404 0 78.4451 12.5183 982 64.6212 205.808 501.414
1405 0 82.1405 13.2456 1088 63.9596 206.105 501.037
1406 0 83.3286 12.9847 1082 64.7126 206.01 497.909
1407 0 85.307 13.3166 1136 64.9085 206.378 498.562
1408 0 86.2809 11.6712 1007 67.5482 206.275 496.423
1409 0 90.471 13.275 1201 65.0924 205.769 495.886
1410 0 92.4175 12.3137 1138 66.3638 206.25 495.854
1411 0 96.4808 13.1529 1269 65.5169 206.539 494.99
1412 0 99.5721 12.9353 1288 65.7857 205.965 493.746
1413 0 100.267 11.1902 1122 67.6907 205.992 495.516
1414 0 103.448 12.3154 1274 67.044 206.224 489.407
1415 1 59.5936 10.387 619 66.5557 206.318 512.603
1416 0 63.3418 11.0669 701 66.2411 206.243 511.817
1417 0 64.3218 11.287 726 66.2259 206.698 509.09
1418 0 67.3187 11.8689 799 65.234 206.574 507.65
1419 0 68.5131 10.9176 748 66.5294 206.275 507.799
1420 0 69.4434 11.8514 823 65.9563 206.468 506.716
1421 0 73.3017 12.9056 946 63.9249 206.578 506.379
1422 0 77.3815 14.3058 1107 62.1418 206.413 505.216
1423 0 77.1429 12.4055 957 64.628 206.905 502.844
1424 0 78.5165 11.8956 934 65.6424 206.413 500.355
1425 0 81.6629 11.2903 922 66.5748 206.795 499.033
1426 0 84.1898 12.0442 1014 65.5986 206.724 498.335
1427 0 87.5544 13.6487 1195 63.6644 206.642 495.861
1428 0 91.3351 13.1713 1203 64.3741 206.526 495.53
1429 0 94.3618 13.798 1302 63.5346 206.53 495.394
1430 0 99.5539 14.2636 1420 62.6028 206.373 494.508
1431 0 100.456 12.274 1233 65.3049 206.531 490.987
1432 0 102.545 12.1508 1246 66.2055 206.659 491.039
1433 0 107.643 13.7306 1478 64.408 207.063 490.409
1434 0 111.354 13.5424 1508 64.3601 206.964 487.825
1435 0 112.515 13.2871 1495 65.598 206.692 486.832
1436 0 117.498 13.3194 1565 65.545 206.695 484.716
1437 1 65.3628 9.07244 593 68.7555 207.101 506.885
1438 0 70.3831 10.7838 759 66.0316 206.918 507.416
1439 0 72.3982 11.7268 849 65.662 206.912 504.975
1440 0 74.2844 11.6579 866 64.8545 206.742 509.182
1441 0 77.3377 12.4519 963 65.3614 207.013 504.293
1442 0 79.3536 11.9969 952 66.2805 206.766 502.739
1443 0 78.3738 10.4882 822 69.3212 206.249 498.985
1444 0 82.4111 12.2192 1007 66.8292 206.917 499.77
1445 0 86.3393 11.6749 1008 67.2887 206.481 499.985
1446 0 89.5356 13.3355 1194 65.7295 206.367 498.053
1447 0 92.2787 13.0583 1205 66.6124 206.881 496.592
1448 0 93.3202 12.6768 1183 67.3686 206.876 494.618
1449 0 96.3613 14.1343 1362 66.1446 206.752 493.478
1450 0 99.2553 13.0774 1298 67.4584 206.424 494.286
1451 0 102.18 12.6835 1296 68.6343 206.981 491.769
1452 0 106.266 13.3721 1421 67.8424 206.463 488.906
1453 0 107.202 13.7124 1470 67.7735 206.788 487.614
1454 0 110.217 13.9361 1536 67.3841 206.827 486.555
1455 0 115.314 13.3029 1534 68.4361 205.872 483.751
1456 0 118.253 13.2936 1572 67.6425 206.842 486.254
1457 0 119.179 11.9316 1422 70.2996 206.816 480.113
1458 0 125.181 13.7082 1716 68.3823 206.28 476.978
1459 0 129.134 12.7774 1650 69.5018 206.528 478.888
1460 0 132.207 15.0219 1986 66.6017 206.902 478.876
1461 0 139.246 14.0758 1960 68.0128 206.761 474.707
1462 0 139.463 11.9673 1669 72.0012 206.652 470.283
1463 0 144.297 12.5297 1808 71.8158 206.491 467.998
1464 0 152.222 16.7322 2547 66.4574 206.756 467.817
1465 0 156.233 14.92 2331 69.0699 205.973 466.131
1466 0 160.333 13.4907 2163 70.9635 206.065 463.616
1467 0 165.239 15.1175 2498 69.753 206.379 459.302
1468 0 168.317 12.221 2057 74.0107 206.428 457.561
1469 0 174.488 14.4537 2522 71.1983 206.329 456.896
1470 1 78.1247 10.4192 814 71.4226 206.022 502.522
1471 0 83.2721 13.1857 1098 68.0856 206.496 501.67
1472 0 84.099 11.8313 995 71.4241 206.828 497.731
1473 1 39.0711 7.80628 305 65.6525 207.243 524.646
1474 0 39.1479 11.546 452 63.8407 206.929 521.173
1475 0 38.0508 9.14567 348 66.1753 207.052 521.08
1476 0 39.0531 9.67912 378 65.1481 206.775 520.788
1477 0 41.0637 8.9617 368 65.0516 206.717 521.198
1478 0 41.0693 10.6892 439 64.4237 206.572 518.13
1479 0 43.0748 10.3309 445 63.7191 207.004 520.321
1480 0 43.055 9.3369 402 66.1542 206.662 519.077
1481 0 44.0449 9.9217 437 65.9108 207.783 517.597
1482 0 45.022 12.1274 546 61.7564 207.205 520.119
1483 0 45.0481 9.72295 438 66.2489 206.79 516.991
1484 0 45.0754 8.7409 394 66.9848 206.665 518.602
1485 0 45.1159 10.2403 462 66.2987 206.738 516.838
1486 0 48.031 11.2011 538 64.9182 207.015 516.193
1487 0 47.0229 10.1227 476 66.3508 206.708 516.557
1488 0 52.2082 9.40465 491 66.5601 207.206 516.752
1489 0 50.0329 8.93411 447 67.9732 207.378 516.228
1490 0 53.1959 12.4822 664 63.5919 207.62 514.753
1491 0 53.1475 11.7974 627 64.2313 206.826 513.987
1492 0 52.077 9.81239 511 66.4834 206.826 516.299
1493 0 54.1876 10.3345 560 66.6071 206.795 512.896
1494 0 56.2102 10.1227 569 67.0685 206.691 513.78
1495 0 56.1443 10.0634 565 68.3646 206.319 511.446
1496 0 59.2025 10.7259 635 66.9622 206.455 510.877
1497 0 60.1153 11.611 698 66.3567 206.989 510.817
1498 0 62.2386 11.3434 706 65.2507 206.295 510.778
1499 0 61.2508 9.89375 606 68.3036 206.715 509.898
1500 0 63.1287 11.5003 726 66.6804 205.888 507.672
1501 0 63.0977 12.4093 783 51.5607 206.556 507.281
1502 0 66.0459 10.2959 680 67.0897 205.934 507.497
1503 0 69.219 11.6586 807 64.6927 206.175 508.564
1504 0 70.2147 10.1546 713 67.5778 206.272 503.811
1505 0 73.1531 11.1684 817 65.9388 206.294 504.917
1506 0 73.0852 11.3703 831 66.1576 206.797 503.462
1507 0 76.3835 11.7172 895 65.5955 206.912 501.75
1508 0 81.9787 11.808 968 71.8864 206.522 507.321
