time division length width area intensity CMx CMy
0 0 53.078 13.9417 740 61.4527 892.964 500.847
1 0 54.0712 12.5945 681 62.5301 891.674 501.83
2 0 55.0954 12.796 705 62.6085 891.699 500.728
3 0 55.1182 11.3574 626 64.3802 891.147 501.345
4 0 58.1219 10.9081 634 64.2256 891.47 499.858
5 0 62.1304 12.0875 751 63.1518 891.349 495.955
6 0 64.1259 12.3507 792 61.7437 891.422 497.775
7 0 64.0838 11.5942 743 63.2517 890.925 500.475
8 0 66.1413 12.1558 804 63.1132 891.266 497.572
9 0 69.1334 11.6876 808 63.4319 891.089 497.046
10 0 71.1064 11.9399 849 62.8163 890.723 494.131
11 0 73.1241 12.6497 925 62.2778 890.543 495.392
12 0 75.1219 11.9273 896 63.2701 891.067 490.442
13 0 75.0829 11.0012 826 64.8257 891.2 491.404
14 0 78.1804 10.22 799 65.5106 890.807 490.081
15 0 81.1511 11.6203 943 64.1527 891.152 488.301
16 1 39.1124 10.994 430 64.4558 890.305 510.312
17 0 42.0663 10.2695 432 65.0671 890.065 508.549
18 0 44.0216 11.4716 505 63.998 889.972 509.535
19 0 47.0914 12.9748 611 61.545 889.967 509.538
20 0 48.0344 13.6569 656 60.9406 890.869 508.015
21 0 49.1173 12.2564 602 62.7641 890.659 506.281
22 0 52.0737 11.8294 616 62.2549 890.274 508.042
23 0 54.0531 12.2287 661 61.7579 889.909 506.815
24 0 54.0843 12.0368 651 63.7235 889.988 504.822
25 0 59.0165 12.8439 758 61.5818 890.393 504.639
26 0 57.0865 12.9803 741 63.3266 890.386 502.34
27 0 60.0766 13.0667 785 63.2255 890.238 502.74
28 0 61.0462 15.2508 931 61.4876 890.527 499.692
29 0 66.0797 13.3172 880 63.1852 890.275 500.781
30 0 66.0549 12.8227 847 64.7001 890.883 500.08
31 0 68.0979 13.1575 896 65.0167 891.157 498.357
32 0 69.0718 12.5232 865 66.6994 890.314 496.718
33 0 69.0718 12.5087 864 147.356 889.322 496.712
34 0 75.0541 13.1505 987 66.2452 891.348 494.69
35 0 77.0745 13.1302 1012 67.2055 891.802 492.503
36 0 81.0302 12.3904 1004 67.6624 891.641 493.498
37 1 39.0527 11.8302 462 65.8571 891.52 513.364
38 0 40.0656 11.2066 449 66.7929 892.325 512.43
39 0 44.0376 12.4666 549 64.0255 891.699 513.16
40 0 43.0622 11.6343 501 66.5868 891.954 510.88
41 0 45.0825 11.4013 514 66.3833 891.745 511.644
42 0 47.0394 10.6719 502 67.9382 892.054 510.851
43 0 47.0409 11.8833 559 66.5295 892.045 509.49
44 0 48.0688 12.5861 605 66.2347 892.35 507.516
45 0 48.0436 12.2597 589 66.6689 892.491 509.239
46 0 51.0757 12.4717 637 66.3375 892.218 507.743
47 0 53.0494 11.9888 636 66.9701 891.906 507.987
48 0 54.1044 12.5128 677 66.3663 892.056 506.071
49 0 55.0848 12.7985 705 66.0426 892.075 505.969
50 0 57.0395 10.9749 626 68.0831 891.74 504.626
51 0 60.0789 11.5348 693 66.6811 892.43 504.408
52 0 61.1027 11.6525 712 66.8947 892.596 502.034
53 0 63.1087 11.6307 734 66.9728 892.999 502.185
54 0 65.1965 12.1786 794 66.2217 893.151 499.68
55 0 66.1274 11.8408 783 66.7842 892.972 498.118
56 0 69.0651 11.6846 807 66.7745 893.232 496.05
57 0 72.0973 11.3319 817 66.2056 892.862 499.18
58 0 73.1138 12.7473 932 65.647 893.255 493.71
59 1 40.0328 10.916 437 64.1076 893.021 512.371
60 0 40.0913 10.1518 407 65.5209 893.676 512.201
61 0 43.0222 10.2505 441 64.9478 893.306 511.923
62 0 42.0364 10.3482 435 65.4529 892.878 512.448
63 0 45.0624 10.8516 489 64.1943 893.125 510.546
64 0 48.0221 11.5364 554 63.3375 893.209 508.668
65 0 48.2089 10.9731 529 63.0605 893.323 510.425
66 0 49.0376 10.808 530 64.1358 892.236 507.643
67 0 50.0325 10.5931 530 64.3774 893.028 507.021
68 0 53.1047 9.90495 526 64.1673 892.392 507.475
69 0 54.0332 10.6046 573 63.7435 892.654 507.115
70 0 58.0496 11.473 666 62.021 892.444 505.817
71 0 58.0464 11.887 690 61.6449 892.086 504.516
72 0 62.1069 10.965 681 62.442 892.849 501.232
73 0 62.0332 11.8807 737 62.019 892.476 498.151
74 0 65.0889 10.647 693 62.2987 892.004 501.066
75 0 68.0843 10.1492 691 63.3025 892.486 498.12
76 0 70.0542 11.5625 810 61.9654 892.723 497.493
77 0 71.0629 10.6807 759 63.3491 892.124 496.733
78 1 33.0937 7.85648 260 63.1692 891.962 514.546
79 0 37.0176 8.9417 331 61.2145 891.535 516.085
80 0 37.0431 9.93436 368 60.4022 891.185 513.829
81 0 37.0843 7.44249 276 63.1341 892.264 513.518
82 0 40.042 10.2392 410 60.4488 892.295 512.622
83 0 42.0277 9.04166 380 62.2816 892.19 511.726
84 0 41.0153 9.82561 403 62.1687 891.918 508.955
85 0 44.0216 10.2904 453 61.0353 891.907 509.062
86 0 45.0471 7.25907 327 65.6606 891.59 506.691
87 0 47.0527 12.0716 568 60.1197 892.442 507.923
88 0 46.0171 7.99703 368 64.856 892.033 506.78
89 0 49.0221 9.7915 480 62.4312 892.667 507.565
90 0 49.142 8.46526 416 63.9471 892.32 507.303
91 0 52.0426 11.9517 622 60.7765 892.432 503.633
92 0 52.1 10.595 552 62.125 892.616 502.62
93 0 56.0873 9.57436 537 62.6611 892.512 505.51
94 0 58.1426 11.3686 661 60.9198 893.059 502.445
95 0 55.1521 9.77297 539 63.397 892.72 502.249
96 0 58.1319 10.545 613 61.9429 892.837 500.798
97 0 62.0887 10.8554 674 61.132 892.585 500.185
98 0 64.084 11.2353 720 61.0556 893.171 498.294
99 0 65.0891 11.2461 732 61.3798 892.81 495.526
100 0 67.0798 11.3745 763 60.8847 892.942 495.858
101 0 69.1858 10.8837 753 61.7822 892.871 495.503
102 0 70.1699 11.1301 781 61.7414 892.757 492.394
103 0 74.1238 11.2245 832 61.2272 892.623 490.363
104 0 77.2305 10.0349 775 61.5548 892.672 491.559
105 1 39.1082 10.4582 409 58.7555 892.425 508.462
106 0 42.0511 10.7964 454 57.0176 892.335 509.815
107 0 44.1912 11.1561 493 57.6937 892.485 508.438
108 0 44.0437 10.7166 472 58.4449 892.57 506.174
109 0 46.0256 10.19 469 58.5139 892.469 507.196
110 0 47.1049 10.6146 500 58.174 892.896 505.454
111 0 48.1086 10.7881 519 58.1773 892.865 503.636
112 0 49.1206 10.7898 530 58.2132 892.666 503.813
113 0 52.1646 10.8694 567 58.1764 893.085 499.358
114 0 54.139 10.2699 556 58.1133 892.04 498.977
115 0 54.0968 8.28145 448 60.1161 892.96 496.4
116 0 56.1772 11.4459 643 57.0202 893.138 498.843
117 0 58.0391 10.4412 606 57.8845 892.472 496.832
118 0 58.2604 11.1225 648 57.4198 892.571 495.34
119 0 60.1248 10.7942 649 57.3313 893.091 495.952
120 0 63.1701 11.097 701 57.0813 892.892 493.141
121 0 66.2442 11.8652 786 55.2863 892.947 493.691
122 0 65.1823 8.72937 569 58.7627 892.264 491.536
123 0 69.1394 10.6886 739 57.5223 893.03 491.637
124 0 70.1549 10.9187 766 57.329 892.897 491.123
125 0 72.1599 10.7816 778 57.4871 892.392 486.272
126 0 77.1256 9.1928 709 59.2891 892.072 486.482
127 0 79.1463 10.4869 830 58.2361 892.195 484.118
128 0 80.1674 8.80657 706 60.4405 892.775 479.567
129 1 40.0814 11.2022 449 54.3675 892.085 505.526
130 0 41.0283 7.09267 291 56.9691 892.639 509.89
131 0 41.0547 7.69704 316 57.6994 892.557 505.313
132 0 43.034 9.08583 391 56.6189 892.9 505.68
133 0 46.1135 10.626 490 55.3653 892.314 505.339
134 0 46.0276 10.2547 472 56.197 891.983 503.053
135 0 47.108 11.0809 522 55.7433 892.774 504.736
136 0 49.0188 10.9754 538 56.0706 892.71 502.649
137 0 48.098 9.14799 440 58.3795 892.38 503.045
138 0 50.3303 11.3649 572 56.4301 892.612 501.531
139 0 52.033 10.7047 557 56.6356 893.02 500.627
140 0 54.0784 9.98551 540 57.9167 892.798 500.789
141 0 56.1149 12.2249 686 55.8236 893.389 498.485
142 0 56.0312 11.1188 623 56.9406 893.202 500.067
143 0 60.0759 11.9016 715 55.9203 892.522 496.945
144 0 62.0541 12.3118 764 55.9202 893.054 493.508
145 0 63.0776 10.5584 666 58.1081 892.527 495.604
146 0 66.0815 10.6838 706 57.796 892.943 492.103
147 0 67.0767 10.2271 686 58.4052 892.535 491.367
148 0 70.1386 11.5058 807 57.0235 892.779 491.472
149 0 69.2095 10.0853 698 58.9097 892.822 491.49
150 0 73.1306 12.211 893 57.2094 893.01 489.665
151 0 75.0521 11.9917 900 57.65 892.829 485.672
152 0 77.1092 11.1271 858 58.9277 892.185 488.068
153 0 80.1185 10.9712 879 59.0546 892.43 487.907
154 1 42.1082 11.1617 470 56.7851 892.462 506.864
155 0 42.0416 10.2993 433 57.097 892.559 508.409
156 0 45.0243 10.0834 454 58.1872 892.537 506.385
157 0 45.0549 9.03343 407 59.7494 892.226 504.413
158 0 46.0929 11.2165 517 57.9265 892.872 504.793
159 0 48.0908 11.2911 543 57.5598 892.177 505.98
160 0 52.0386 13.2786 691 55.6541 892.631 501.799
161 0 51.0785 11.2376 574 58.8659 892.413 502.634
162 0 55.0424 11.8636 653 57.147 892.254 504.338
163 0 54.1509 10.5261 570 60.0509 892.33 500.689
164 0 56.08 12.8923 723 57.4025 892.418 498.932
165 0 58.123 12.1811 708 58.6088 892.63 497.624
166 0 60.0884 10.5844 636 60 892.701 498.695
167 0 64.1233 12.3668 793 57.4994 892.329 498.216
168 0 64.0788 13.3742 857 56.9102 892.552 494.47
169 0 66.1247 10.7524 711 59.7229 892.633 493.397
170 0 68.1053 12.4073 845 58.1941 893.114 494.226
171 0 70.0889 12.3272 864 58.8715 892.947 491.414
172 0 72.1012 11.3729 820 59.6622 892.594 492.111
173 0 74.0684 14.0681 1042 57.6075 892.187 488.565
174 0 77.0586 10.2909 793 61.7188 892.641 487.982
175 0 80.2808 11.5719 929 59.9591 892.612 486.589
176 0 84.0857 13.1889 1109 58.541 892.124 485.128
177 0 85.0844 11.5062 979 60.3514 892.834 489.314
178 0 89.1437 11.8573 1057 60.543 892.882 484.069
179 0 90.1407 12.2475 1104 60.2844 892.611 484.888
180 1 47.0912 11.4459 539 59.1762 892.544 505.822
181 0 48.051 12.0913 581 58.2857 891.478 504.74
182 0 48.0377 10.5959 509 60.4283 891.191 505.21
183 0 49.0572 9.31566 457 62.5996 890.705 504.665
184 0 51.0406 10.7561 549 61.4408 890.665 503.286
185 0 55.0372 12.2644 675 58.9511 890.804 502.658
186 0 55.146 10.445 576 61.9774 890.568 502.896
187 0 58.0838 11.4145 663 60.5415 890.769 502.843
188 0 57.0423 10.3257 589 63.2428 890.25 500.764
189 0 59.076 13.1695 778 59.8676 889.539 498.248
190 0 63.2156 12.1805 770 61.1675 889.455 497.34
191 0 61.103 10.3595 633 63.9131 889.286 498.686
192 0 66.1277 11.9768 792 61.1591 888.545 498.521
193 0 67.084 11.8955 798 62.1992 889.17 496.422
194 0 70.1808 12.7528 895 60.9832 889.289 498.256
195 0 73.1989 13.3609 978 60.5665 889.109 497.213
196 0 74.05 10.4524 774 64.4341 889.26 496.563
197 0 76.1982 10.9451 834 64.235 889.478 494.505
198 0 78.1826 11.8441 926 63.4741 888.681 494.495
199 1 41.061 8.76744 360 63.9194 887.944 513.294
200 0 42.0229 10.2087 429 63.1865 888.182 510.142
201 0 45.044 9.85702 444 62.6374 888.649 513.68
202 0 47.0725 10.3032 485 62.5629 888.014 513.652
203 0 47.02 9.29391 437 64.0526 888.112 513.041
204 0 49.078 12.4088 609 60.7324 888.036 511.062
205 0 50.027 10.1545 508 62.9252 888.364 511.683
206 0 53.0523 12.0824 641 61.819 888.182 507.009
207 0 54.1875 10.6298 576 63.1389 888.42 508.385
208 0 57.0633 12.8103 731 60.5554 888.322 508.244
209 0 58.0592 10.1448 589 63.7776 888.18 507.577
210 0 59.0732 11.0033 650 63.1508 887.291 504.814
211 0 61.0253 9.88114 603 64.0365 887.101 503.569
212 0 65.1339 11.3305 738 61.8821 886.847 504.625
213 0 66.0603 11.6257 768 61.5794 887.115 504.354
214 0 70.108 11.0116 772 61.8446 886.877 503.174
215 0 71.198 13.1043 933 59.8907 886.252 499.283
216 0 74.1853 12.6036 935 60.2192 886.724 500.437
217 1 37.1574 9.74233 362 58.605 886.575 519.674
218 0 40.0891 11.1003 445 57.1348 886.652 517.061
219 0 39.0548 11.2662 440 58.2477 886.184 515.461
220 0 42.0382 11.9177 501 56.1936 886.156 517.491
221 0 42.086 10.5261 443 57.7178 885.704 513.668
222 0 44.0709 9.18974 405 60.0469 886.094 513.163
223 0 45.0436 10.8784 490 58.3531 886.249 512.157
224 0 47.1051 10.4023 490 58.5592 885.929 512.594
225 0 48.1767 10.2332 493 59.1136 885.82 507.203
226 0 51.1443 10.9103 558 57.8781 885.758 509.758
227 0 51.0773 10.9442 559 58.0268 885.785 509.036
228 0 53.0996 10.8475 576 58.8958 886.425 504.622
229 0 53.0462 10.1233 537 59.4804 886.251 504.032
230 0 58.0528 11.7996 685 57.1285 885.874 504.388
231 0 57.084 9.42471 538 59.8569 886.576 505.139
232 0 59.1256 10.5876 626 59.0399 886.318 500.835
233 0 63.1557 10.9412 691 58.0376 886.333 504.169
234 0 62.2917 9.37525 584 60.786 886.384 500.298
235 0 65.0506 10.2689 668 59.5988 887.284 499.653
236 0 66.1335 9.88909 654 60.2477 886.933 495.804
237 0 69.2031 10.7221 742 58.9919 886.79 493.636
238 0 72.027 11.1902 806 58.7978 886.717 496.529
239 0 72.1666 10.0878 728 60.1868 886.662 496.865
240 0 75.1941 11.1711 840 59.1155 887.205 490.64
241 0 77.1876 9.71658 750 60.844 887.659 491.403
242 0 80.1911 10.263 823 59.966 887.194 489.566
243 0 84.1475 11.8839 1000 57.707 887.128 488.271
244 0 85.2354 11.1691 952 58.1176 887.359 489.411
245 1 45.115 8.84406 399 56.3759 887.739 510.544
246 0 46.0912 10.3707 478 55.4268 888.481 510.002
247 0 47.0618 10.3268 486 55.3457 887.93 508.654
248 0 44.0368 8.26582 364 57.522 888.242 509.802
249 0 48.044 8.72117 419 57.0095 888.401 508.685
250 0 50.0457 8.3124 416 56.9279 888.647 506.075
251 0 49.0747 8.8029 432 56.3426 887.961 508.553
252 0 52.0486 11.0858 577 54.1768 888.042 507.915
253 0 53.015 10.299 546 55.1832 888.088 507.434
254 0 57.1484 11.0939 634 54.0568 887.76 505.574
255 0 58.0699 9.79854 569 55.5202 888.209 504.464
256 0 60.073 10.0045 601 54.7488 888.454 506.509
257 0 62.0868 10.6947 664 54.5361 888.346 504.94
258 0 62.1564 9.71742 604 55.8378 888.616 503.748
259 0 64.0535 9.6638 619 55.9984 888.572 499.934
260 0 69.135 10.6024 733 54.7162 888.696 500.304
261 0 68.1416 10.669 727 55.5887 888.461 495.142
262 0 73.1404 11.7035 856 54.0759 888.518 493.785
263 0 71.1196 9.67384 688 56.8009 888.686 493.16
264 0 80.1505 13.9488 1118 51.8569 888.296 494.906
265 0 78.1796 11.0515 864 56.1018 888.09 491.561
266 0 82.1665 11.282 927 55.8242 887.65 491.863
267 0 85.2031 13.9079 1185 53.2608 887.618 490.223
268 0 86.2568 12.2077 1053 55.6144 887.258 489.675
269 0 89.211 11.5681 1032 56.7984 887.833 489.649
270 0 91.2357 10.862 991 57.888 887.898 490.102
271 0 95.1374 14.3266 1363 54.5627 887.6 488.758
272 1 50.1518 10.8271 543 55.6538 887.805 513.626
273 0 52.2251 10.9526 572 57.049 886.865 511.483
274 0 56.0518 10.5617 592 56.3041 886.471 512.676
275 0 54.0553 11.0073 595 57.6723 886.395 510.593
276 0 58.1153 11.0298 641 57.1123 886.2 508.167
277 0 59.1001 12.6226 746 55.9021 886.74 506.166
278 0 60.0466 12.2405 735 56.6612 886.109 504.102
279 0 62.043 13.1522 816 55.9007 886.632 505.086
280 0 64.1539 12.8441 824 55.682 886.351 505.496
281 0 65.1327 10.302 671 59.0551 886.414 502.352
282 0 69.2394 13.8505 959 55.1898 886.383 501.652
283 0 71.161 12.2258 870 57.1046 886.668 499.163
284 0 73.1522 12.8089 937 56.3138 886.329 498.366
285 0 75.0765 12.6271 948 56.7574 886.026 498.959
286 0 78.0993 11.3958 890 57.7067 886.215 499.562
287 0 80.0958 11.8858 952 58.0704 886.508 493.998
288 0 83.084 11.8073 981 58.0877 886.073 493.975
289 1 41.0449 11.597 476 57.5462 886.67 513.59
290 0 42.0589 12.2923 517 57.412 885.689 512.88
291 0 45.0975 11.9297 538 57.6803 885.94 513.385
292 0 46.0627 11.7231 540 56.5537 885.232 515.172
293 0 46.0644 10.8327 499 58.7996 885.798 511.858
294 0 49.0983 11.0187 541 58.4159 885.891 512.129
295 0 49.0527 9.74461 478 60.0188 886.5 512.259
296 0 48.1147 9.53971 459 61.1503 886.516 508.218
297 0 53.0287 10.7489 570 59.3579 886.226 509.765
298 0 54.0784 9.26433 501 61.1956 885.892 510.978
299 0 55.0243 10.0501 553 59.9873 885.958 510.467
300 0 58.1238 12.6454 735 57.9224 885.565 506.118
301 0 59.0917 12.7598 754 57.5584 885.057 506.564
302 0 60.0273 10.4952 630 60.5159 885.067 502.681
303 0 62.1323 10.542 655 59.742 885.493 503.566
304 0 64.1661 11.3456 728 59.3791 885.643 500.113
305 0 67.0876 10.5683 709 59.6953 885.68 502.774
306 0 68.0606 10.7992 735 59.5224 885.823 501.959
307 0 69.0718 10.091 697 60.8522 885.45 498.323
308 1 34.0471 9.4575 322 56.9534 885.273 519.326
309 0 35.0164 9.70975 340 57.0647 885.326 518.641
310 0 35.0948 9.00417 316 58.4937 884.766 517.655
311 0 35.1147 7.14799 251 60.3626 885.343 516.809
312 0 39.0378 12.7569 498 54.6305 884.815 514.506
313 0 39.039 10.323 403 57.531 884.668 513.347
314 0 38.0379 9.30652 354 59.1864 884.672 513.051
315 0 42.059 11.2461 473 56.6469 884.49 512.294
316 0 43.1418 9.36447 404 57.9852 885.517 514.436
317 0 45.0421 11.3227 510 56.5941 885.104 509.776
318 0 47.1812 11.4241 539 56.3377 884.75 509.738
319 0 47.1388 10.9888 518 57.3301 885.508 508.141
320 0 49.0238 12.5449 615 56.2 885.727 508.769
321 0 50.0769 11.7619 589 56.5959 885.194 510.623
322 0 51.1056 9.92063 507 59.1578 885.327 507.392
323 0 52.0624 10.1417 528 59.2273 885.398 504.093
324 0 55.1202 11.1756 616 58.0162 885.994 503.981
325 0 57.0869 12.3146 703 56.7425 885.431 503.593
326 0 57.0779 10.582 604 59.2136 886.08 501.477
327 0 60.0638 11.7875 708 58.5551 886.328 501.332
328 0 61.068 11.1351 680 58.8618 886.737 502.016
329 0 64.0534 12.8955 826 57.2518 885.876 499.231
330 0 67.0555 12.5269 840 57.9179 885.584 496.377
331 0 66.1213 10.6169 702 59.8761 885.64 498.618
332 0 71.0942 12.0826 859 58.1816 885.917 496.531
333 0 74.1327 13.0577 968 56.6766 885.748 494.353
334 0 75.1109 11.9823 900 58.3078 885.554 494.46
335 0 78.118 10.3305 807 59.5142 886.476 494.252
336 1 38.0083 9.81364 373 58.1796 885.826 511.214
337 0 41.0309 8.96884 368 58.4728 885.353 511.777
338 0 41.0581 10.3999 427 57.3396 885.752 511.335
339 0 44.0581 10.9401 482 56.7261 885.396 511.519
340 0 45.0912 11.6431 525 55.5143 885.52 511.478
341 0 46.0993 10.4557 482 57.2614 885.033 510.264
342 0 45.0782 9.96047 449 58.1581 885.494 509.419
343 0 49.1048 11.8522 582 55.3522 885.076 509.29
344 0 48.0448 10.4278 501 57.6407 885.731 505.114
345 0 52.0739 12.175 634 55.4164 885.849 506.866
346 0 53.0731 12.0588 640 55.7953 885.536 506.494
347 0 53.053 10.367 550 57.8255 885.958 505.702
348 0 56.0908 12.2302 686 55.7405 885.746 503.302
349 0 57.1487 11.6888 668 56.3937 885.458 500.79
350 0 60.1069 10.5479 634 57.4937 885.692 500.659
351 0 61.0279 10.5525 644 57.6413 885.553 500.773
352 0 62.0655 11.1334 691 56.7656 885.687 501.217
353 0 61.0707 10.4797 640 58.5016 885.627 497.752
354 0 66.0859 10.9403 723 57.1798 885.535 499.665
355 0 67.1075 10.9079 732 57.3593 886.272 498.65
356 0 71.078 11.8039 839 57.2265 886.291 494.93
357 0 75.0781 12.6934 953 56.3295 885.748 495.513
358 0 76.1304 11.8481 902 57.6397 886.092 491.317
359 0 78.1138 11.0096 860 58.3186 886.043 491.837
360 1 42.052 9.3218 392 62.2959 886.515 472.773
361 0 42.0289 8.13726 342 64.6462 885.725 469.985
362 0 45.1484 10.6981 483 61.7805 885.687 466.988
363 0 47.0323 11.2476 529 61.259 886.197 466.673
364 0 44.0103 11.7245 516 57.1783 885.316 510.312
365 0 44.0499 11.1919 493 58.144 885.947 509.016
366 0 46.0347 11.1221 512 59.1621 885.631 507.65
367 0 49.0393 11.0931 544 59.0588 885.217 507.318
368 0 50.0297 11.6131 581 59.2616 886.048 505.592
369 0 54.0819 11.8709 642 58.6526 885.643 506.461
370 0 54.1435 11.1186 602 59.6445 885.887 507.653
371 0 56.0335 12.9208 724 58.424 886.628 505.03
372 0 58.0386 12.6468 734 58.8229 886.202 504.594
373 0 60.0853 12.4323 747 59.3534 886.573 504.774
374 0 59.0519 11.0073 650 61.9031 886.422 503.263
375 0 62.1266 11.3156 703 61.2944 886.745 505.105
376 0 63.0275 11.138 702 62.2749 886.751 500.59
377 0 66.0927 11.3628 751 62.3462 886.214 502.21
378 0 67.045 12.156 815 61.7706 886.528 500.766
379 1 36.0466 9.45998 341 60.7625 886.238 518.689
380 0 37.08 10.1133 375 61.3627 886.405 516.445
381 0 39.0472 10.0903 394 61.5381 885.589 516.358
382 0 37.0113 10.9426 405 59.7852 886.007 517.277
383 0 39.0263 11.172 436 60.0688 886.28 513.966
384 0 39.0857 9.97808 390 61.4256 886.241 514.282
385 0 40.1119 10.1217 406 61.8251 886.502 514.347
386 0 42.0506 8.94161 376 62.1463 886.197 515.468
387 0 42.0408 9.134 384 62.8672 886.393 513.924
388 0 44.0689 11.0963 489 61.4867 886.25 509.658
389 0 45.0243 10.1279 456 61.9496 886.228 513.024
390 0 47.0628 11.3466 534 61.0412 886.105 509.554
391 0 48.1118 10.5587 508 62.1752 886.026 510.815
392 0 48.1032 10.7269 516 62.9554 886.525 509.795
393 0 52.0399 13.1438 684 58.9927 885.861 509.474
394 0 53.0263 10.806 573 62.3717 885.745 509.274
395 0 55.0857 10.9284 602 62.0914 885.836 507.684
396 0 56.0495 11.7753 660 61.6727 885.824 506.761
397 0 57.0982 12.7325 727 60.414 886.285 505.362
398 0 60.0736 11.9853 720 60.7111 886.501 505.856
399 0 57.0783 8.60221 491 66.0183 886.1 504.371
400 0 61.1258 12.1716 744 61.6586 885.768 500.758
401 0 65.1058 12.4413 810 59.937 885.616 504.451
402 0 67.1355 11.5289 774 60.8954 885.897 503.362
403 0 69.1772 11.9114 824 60.8726 886.182 501.992
404 0 67.0906 8.48107 569 64.6766 885.35 501.091
405 1 36.073 8.8709 320 63.0375 885.722 514.559
406 0 36.0686 9.17696 331 62.0453 885.861 515.758
407 0 41.0382 10.7461 441 59.5737 886.005 514.912
408 0 37.0575 8.93208 331 61.1178 886.242 512.698
409 0 41.05 9.74421 400 59.66 886.095 515.75
410 0 42.0482 9.94097 418 60.6866 885.787 511.263
411 0 44.0216 10.3813 457 60.7243 886.081 511.116
412 0 46.097 10.6732 492 59.563 886.154 510.774
413 0 45.0903 10.357 467 60.03 885.944 511.156
414 0 49.0314 11.3805 558 58.8244 885.993 510.878
415 0 49.0428 10.134 497 60.5775 886.39 507.596
416 0 49.0595 10.0898 495 60.701 886.18 509.267
417 0 53.15 11.8532 630 58.2936 886.506 506.213
418 0 55.1235 11.2293 619 59.0065 886.528 504.617
419 0 55.0599 10.1707 560 59.9536 886.012 506.575
420 0 57.1129 11.0308 630 59.2825 885.776 503.4
421 0 58.0774 9.69396 563 60.929 885.515 501.961
422 0 61.1022 9.9178 606 59.7871 885.15 503.213
423 0 62.0566 9.28185 576 60.4878 885.396 502.852
424 0 64.1589 9.83496 631 60.607 885.851 500.076
425 0 64.164 9.00816 578 61.3581 885.713 498.656
426 0 68.0846 10.1638 692 60.224 885.997 498.069
427 1 33.1528 9.4713 314 57.8662 885.44 517.608
428 0 35.0365 11.331 397 56.194 885.436 517.063
429 0 35.0141 8.02534 281 60.0285 885.196 516.95
430 0 36.0477 7.15719 258 60.3488 885.093 517.826
431 0 37.0131 12.2119 452 56.4336 885.06 512.648
432 0 39.0898 10.5654 413 58.3995 885.571 515.015
433 0 39.0257 8.17411 319 61.2006 885.191 512.843
434 0 42.0469 10.0602 423 60 886.166 511.702
435 0 42.0491 10.1548 427 59.9321 885.621 510.885
436 0 43.0568 10.312 444 59.9054 885.151 510.577
437 0 45.0589 10.4752 472 59.9492 885.409 509.496
438 0 49.0616 10.8435 532 59.1974 885.103 509.1
439 0 49.0586 9.15232 449 60.7617 884.967 508.394
440 0 49.0129 8.7528 429 61.9441 885.177 508.555
441 0 53.0786 8.45915 449 61.6236 884.947 510.091
442 0 53.1208 10.5608 561 60.3084 885.503 507.765
443 0 56.0583 10.7567 603 59.7861 885.267 504.622
444 0 58.0636 10.6091 616 60.0812 885.143 503.571
445 0 59.0638 9.78604 578 61.5208 885.614 502.822
446 0 59.0471 9.72105 574 61.7909 885.558 502.388
447 0 63.1001 10.1585 641 61.1201 884.81 502.552
448 0 62.0405 8.91353 553 62.4937 885.577 502.316
449 0 67.0826 10.9119 732 60.0382 885.37 498.974
450 0 69.0916 10.7249 741 60.1039 885.723 495.883
451 0 70.0858 10.9009 764 60.3573 885.59 497.688
452 0 76.1585 10.9115 831 59.4934 885.415 498.344
453 0 77.064 11.1855 862 59.0696 885.93 498.753
454 0 80.0944 10.6499 853 60.2321 886.127 492.453
455 0 83.2123 11.8252 984 59.0071 885.483 491.257
456 0 83.2125 9.61394 800 61.7625 885.341 489.536
457 1 41.0096 10.0464 412 58.8325 885.966 514.667
458 0 42.0269 10.9454 460 58.4435 885.778 513.733
459 0 44.0552 8.94332 394 61.4391 886.414 510.967
460 0 44.0423 10.7397 473 60.4693 886.395 509.814
461 0 46.0547 10.8349 499 60.4269 886.381 508.752
462 0 48.0128 10.1639 488 60.1742 885.832 511.559
463 0 52.0377 11.5877 603 58.3366 885.776 509.761
464 0 53.0221 10.8445 575 59.5304 885.904 507.616
465 0 54.0657 10.5797 572 59.3042 885.881 507.58
466 0 56.1668 11.3056 635 58.4693 886.268 504.976
467 0 57.0419 11.9737 683 58.4436 886.054 505.029
468 0 58.1037 12.1163 704 57.4844 886.359 505.585
469 0 60.1443 11.7883 709 57.8561 886.135 503.839
470 0 60.092 11.732 705 58.3277 885.63 503.538
471 0 64.0573 10.1472 650 58.9323 886.034 502.765
472 0 65.0622 10.805 703 58.6885 885.249 500.028
473 0 69.0746 9.88786 683 59.1376 885.877 496.709
474 0 71.0843 11.8451 842 57.4311 885.804 497.461
475 0 73.0736 10.7973 789 58.8086 885.74 496.818
476 0 75.0396 10.2612 770 59.3909 885.622 495.222
477 0 78.2356 12.2578 959 57.0136 885.46 497.665
478 1 40.0702 9.73293 390 57.7256 886.303 516.003
479 0 44.0593 9.75957 430 57.9674 885.909 513.109
480 0 45.0638 12.094 545 56.0642 885.892 511.42
481 0 45.027 12.8589 579 55.7703 885.86 511.606
482 0 46.029 11.4059 525 57.4724 885.453 511.429
483 0 48.0916 11.6029 558 57.6774 885.704 509.034
484 0 49.0193 12.4849 612 57.0212 885.456 509.67
485 0 52.0287 11.8396 616 57.6834 885.847 505.836
486 0 52.056 11.8142 615 57.7041 885.54 505.595
487 0 53.0827 10.9829 583 58.7804 885.554 507.693
488 0 58.1151 9.22307 536 60.3638 885.931 508.187
489 0 57.3558 11.2805 647 59.2937 885.748 505.686
490 0 61.1178 12.2223 747 58.0321 885.51 504.838
491 0 63.0633 12.2575 773 58.4386 886.418 502.824
492 0 63.0611 10.7356 677 60.7518 885.436 499.344
493 0 64.1189 10.2622 658 60.5669 885.536 502.859
494 0 69.1967 13.8446 958 56.3466 885.529 501.889
495 0 71.1325 11.8933 846 58.6288 885.441 500.286
496 0 74.1356 10.9664 813 59.8868 885.084 498.205
497 0 75.0905 10.2277 768 61.1185 885.714 496.725
498 0 79.1537 13.5559 1073 57.4762 885.437 494.207
499 0 80.1337 10.5449 845 61.2722 885.127 494.327
500 1 42.0423 10.2278 430 59.1954 885.584 514.926
501 0 42.0866 11.0487 465 59.372 885.34 512.03
502 0 44.0967 11.3841 502 58.8347 884.902 513.876
503 0 45.1261 10.7255 484 59.4979 885.345 511.38
504 0 47.0722 11.0256 519 58.6705 884.788 511.499
505 0 50.0764 9.52545 477 59.9623 885.046 510.904
506 0 49.0775 9.35256 459 60.1264 884.39 510.551
507 0 48.1284 9.78632 471 60.7834 884.225 508.389
508 0 53.0681 11.457 608 58.4408 885.171 509.145
509 0 53.1924 8.49745 452 61.2102 885.65 507.266
510 0 56.0691 10.9329 613 58.4796 885.498 506.48
511 0 58.1136 12.4067 721 57.147 885.528 505.621
512 0 60.1684 9.72272 585 58.9846 884.791 506.892
513 0 63.0356 11.7711 742 57.6631 884.663 502.752
514 0 66.2195 11.0239 730 58.3466 884.821 502.83
515 0 66.2304 11.2788 747 57.9438 884.187 503.839
516 0 68.1135 10.967 747 58.4819 884.363 500.588
517 0 71.1021 10.3654 737 58.7938 884.588 500.256
518 0 75.1324 13.3498 1003 55.667 884.434 497.797
519 0 75.0515 10.5261 790 58.6797 884.942 500.776
520 0 80.0777 11.7511 941 57.4708 884.82 495.835
521 0 81.1709 10.1391 823 59.5857 884.679 493.475
522 0 86.0924 11.418 983 58.2696 885.09 493.041
523 0 88.1415 12.3098 1085 57.7401 884.669 490.41
524 0 90.1338 10.9615 988 59.0314 885.04 488.165
525 1 47.037 10.3323 486 56.7634 885 512.144
526 0 50.0408 10.5514 528 56.9583 884.587 512.489
527 0 50.0272 9.47485 474 58.6034 884.641 510.475
528 0 49.1385 8.1606 401 59.6908 884.257 509.84
529 0 54.0624 9.76649 528 57.6136 884.663 509.898
530 0 56.0412 10.7243 601 57.2712 884.779 507.667
531 0 58.0428 10.8024 627 56.9809 885.11 506.663
532 0 59.0288 11.469 677 56.387 884.917 504.459
533 0 61.1518 11.5614 707 56.4682 884.89 503.079
534 0 62.0845 9.82532 610 57.9688 884.752 502.149
535 0 66.167 10.9874 727 57.1513 885.082 502.619
536 0 69.06 12.1633 840 55.8548 884.831 500.401
537 0 69.0744 11.3646 785 56.5427 884.926 500.838
538 0 73.1056 12.735 931 55.1804 884.759 498.861
539 0 73.0746 10.1403 741 57.6194 884.726 498.352
540 0 78.0714 10.4648 817 57.7491 884.574 494.849
541 1 40.0146 8.87177 355 57.3944 883.623 515.842
542 0 40.0374 11.1146 445 55.2449 884.117 515.769
543 0 43.0959 11.6252 501 55.7685 884.279 511.19
544 0 44.091 10.501 463 56.2505 885.246 513.963
545 0 45.0981 10.8209 488 56.0348 884.564 511.672
546 0 47.0307 11.0141 518 55.89 884.544 512.421
547 0 45.0407 8.05938 363 58.9724 884.647 510.19
548 0 50.1022 11.6162 582 55.2646 884.785 509.749
549 0 50.0427 11.9698 599 55.1653 884.766 507.848
550 0 53.053 12.1953 647 54.9134 884.947 504.372
551 0 55.1645 10.5503 582 55.8179 884.084 510.242
552 0 57.1476 10.4466 597 56.6265 884.189 504.407
553 0 57.0857 9.30181 531 57.7232 884.979 505.934
554 0 59.0979 11.8955 703 55.7937 884.263 503.666
555 0 64.155 11.067 710 55.6042 884.417 501.69
556 0 66.2086 10.1799 674 56.0786 884.221 505.447
557 0 68.1524 10.3591 706 56.1714 884.334 502.948
558 0 67.0741 11.0922 744 55.4019 884.69 504.169
559 0 71.1477 11.1177 791 55.8116 884.525 499.508
560 0 75.1078 9.82587 738 57.2331 884.855 498.041
561 0 75.0682 10.284 772 57.2902 884.483 496.908
562 1 38.0335 9.85974 375 55.328 884.795 517.997
563 0 38.0978 9.86933 376 55.9973 883.566 516.793
564 0 39.1041 9.6665 378 56.8598 884.161 516.209
565 0 42.0624 11.0312 464 55.0517 884.524 516.319
566 0 45.0702 11.6929 527 54.0171 884.131 513.241
567 0 46.1396 11.0101 508 54.8681 884.675 512.807
568 0 48.0997 13.8878 668 52.3129 884.677 513.795
569 0 48.02 10.7039 514 55.9319 885.06 514.014
570 0 50.1222 10.7936 541 55.5527 884.797 511.392
571 0 49.0398 10.7056 525 57.1771 884.777 509.975
572 0 51.0617 11.6134 593 56.0624 883.975 509.933
573 0 53.1599 9.96993 530 57.6868 884.589 508.458
574 0 54.0248 10.6062 573 57.9965 884.892 505.913
575 0 56.111 11.8871 667 56.7016 884.397 507.795
576 0 57.0738 12.9131 737 55.7585 884.55 506.583
577 0 59.1019 10.5242 622 57.8424 885.106 506.571
578 0 60.0612 11.5715 695 57.5281 885.419 503.849
579 0 62.1085 12.1239 753 57.1979 887.046 504.76
580 0 63.1383 12.0212 759 56.8617 886.672 507.088
581 0 67.2253 14.3101 962 54.9116 885.867 503.109
582 0 68.0929 14.4362 983 54.6175 886.58 499.763
583 0 68.1013 11.7619 801 58.1723 886.406 500.325
584 0 72.1116 12.1062 873 57.7228 886.101 498.078
585 0 75.081 12.2268 918 57.9205 886.219 497.245
586 0 76.1646 11.9872 913 58.4994 885.78 498.826
587 1 35.047 11.5559 405 58.0914 885.778 519.037
588 0 37.0628 11.7908 437 58.4005 884.892 517.979
589 0 37.0276 10.9918 407 59.0049 885.037 519.12
590 0 41.0208 13.3835 549 56.8251 884.783 516.24
591 0 40.0487 13.0591 523 58.174 884.604 515.055
592 0 42.088 12.1175 510 58.7726 884.612 517.251
593 0 42.0947 12.3294 519 59.4085 884.775 516.42
594 0 45.0897 12.7745 576 58.7622 885.37 513.014
595 0 47.0803 13.9974 659 57.5448 884.568 512.976
596 0 46.0387 12.446 573 59.8517 885.119 513.716
597 0 49.0744 12.0226 590 60.3797 884.593 511.997
598 0 51.0985 12.8184 655 59.2779 885.426 511.066
599 0 52.1263 12.9109 673 59.8648 884.966 508.829
600 0 52.2166 13.5589 708 59.5904 885.097 509.035
601 0 55.0721 11.6393 641 61.6162 885.647 509.799
602 0 58.0289 13.1831 765 59.9582 885.166 507.38
603 0 60.1768 13.4105 807 59.337 884.843 506.191
604 0 61.1274 11.6805 714 61.2535 885.308 507.003
605 0 63.0537 12.4338 784 61.3622 885.043 502.712
606 0 67.0934 12.6391 848 60.4222 885.314 504.232
607 0 68.0623 12.9734 883 60.9139 885.505 500.51
608 0 71.0645 13.7903 980 59.9786 885.076 499.622
609 0 72.1296 13.0182 939 60.7561 885.249 500.827
610 0 74.1624 13.0255 966 61.2547 885.465 499.613
611 0 77.2007 13.303 1027 61.5969 885.789 496.346
612 0 81.0667 13.5691 1100 60.9582 886.243 495.73
613 1 43.0638 12.6092 543 61.2689 884.691 515.936
614 0 43.0382 10.8043 465 63.8882 885.069 515.974
615 0 43.1834 11.9722 517 63.942 885.4 514.277
616 0 47.0567 14.3444 675 59.997 884.981 513.486
617 0 47.1355 12.8778 607 62.7117 885.949 512.161
618 0 49.1721 13.6663 672 61.942 885.497 512.128
619 0 49.0931 12.2217 600 64.3067 886.23 510.483
620 0 52.0819 13.8628 722 62.3047 886.075 507.658
621 0 53.0785 15.185 806 61.3474 885.355 508.397
622 0 54.0438 12.6934 686 64.0612 885.631 508.94
623 0 56.1024 12.8337 720 63.6056 885.419 508.779
624 0 60.1474 12.5026 752 63.6676 885.453 508.943
625 0 57.1568 13.1218 750 65.1867 885.312 505.103
626 0 63.0553 13.4961 851 63.5476 885.466 504.939
627 0 65.1833 12.4725 813 65.2546 885.647 503.394
628 0 67.0506 12.4085 832 64.8786 886.129 504.196
629 0 70.1241 13.6045 954 63.8008 885.082 501.865
630 0 72.0391 13.2012 951 64.6393 886.012 498.967
631 0 75.1373 13.3356 1002 64.6746 885.493 497.047
632 0 79.1198 13.6249 1078 63.4944 885.309 499.83
633 0 78.0478 13.4149 1047 65.1786 886.399 496.405
634 0 82.163 13.6071 1118 64.2737 885.582 498.101
635 1 43.0444 12.7311 548 65.3412 885.661 514.401
636 0 44.1197 11.1515 492 67.1931 885.844 513.64
637 0 45.1002 12.2394 552 65.5725 885.083 513.466
638 0 49.0638 14.5321 713 62.6115 885.99 510.414
639 0 51.0964 13.1125 670 64.503 886.015 509.433
640 0 51.1156 12.951 662 64.4275 885.683 510.714
641 0 50.2155 12.1078 608 66.278 885.405 509.934
642 0 55.1283 13.913 767 63.4798 885.441 506.744
643 0 56.1176 14.3627 806 62.6712 885.524 505.816
644 0 58.0809 13.0163 756 64.0728 885.46 506.323
645 0 62.0548 13.3592 829 63.3305 885.456 504.824
646 0 61.0937 12.3908 757 65.033 885.596 504.593
647 0 66.0557 14.0639 929 62.592 885.269 504.234
648 0 66.0591 12.8975 852 64.2958 885.08 502.876
649 0 69.159 13.6063 941 63.729 885.312 501.749
650 0 70.1551 12.7147 892 65.0874 885.392 499.637
651 0 75.243 13.5694 1021 63.5965 885.722 496.556
652 0 76.2558 15.9726 1218 60.9516 885.312 498.472
653 0 77.2133 12.3683 955 65.9194 885.249 496.037
654 0 82.2463 13.496 1110 64.3342 885.125 496.282
655 1 40.0539 12.2585 491 65.4562 884.597 514.613
656 0 41.0427 12.1093 497 65.2958 885.171 516.531
657 0 44.0855 12.7933 564 64.7216 884.92 514.557
658 0 43.1663 12.1854 526 66.9544 885.074 512.884
659 0 45.0525 12.9405 583 65.7547 884.789 512.101
660 0 49.1184 12.6022 619 65.4879 885.88 510.275
661 0 48.0591 12.006 577 66.3345 885.879 512.406
662 0 50.1004 11.2574 564 66.9805 885.635 510.482
663 0 53.0422 13.1782 699 64.6466 885.23 509.558
664 0 55.0359 13.9 765 63.8967 884.757 507.145
665 0 58.033 12.6997 737 65.0543 885.464 508.513
666 0 57.1326 13.2674 758 65.2362 885.141 507.152
667 0 58.1087 13.5608 788 65.349 885.73 505.548
668 0 61.0424 13.892 848 64.6792 884.844 504.763
669 0 65.4113 12.1692 796 66.2136 884.938 503.623
670 0 65.0803 11.8162 769 67.1105 885.694 502.847
671 0 69.0483 13.3095 919 64.7791 885.61 502.449
672 0 72.1008 14.8542 1071 62.887 885.87 499.84
673 0 73.1103 14.4029 1053 63.736 886.172 498.04
674 0 77.1218 12.7072 980 65.1551 886.12 498.943
675 1 40.1394 12.2074 490 65.8245 886.022 513.82
676 0 41.0318 9.6998 398 67.6608 885.492 515.819
677 0 45.0853 11.6668 526 65.7224 886.169 513.15
678 0 46.0755 13.0655 602 65.0664 885.859 510.032
679 0 48.1235 13.403 645 63.876 885.54 511.457
680 0 52.1096 14.0281 731 61.9631 886.041 510.767
681 0 50.0798 12.0408 603 66.2985 885.915 510.279
682 0 53.0807 13.4135 712 63.0464 886.284 510.798
683 0 53.0487 12.5733 667 65.1154 886.376 508.832
684 0 55.067 12.7481 702 65.1054 886.228 506.077
685 0 56.1135 12.1896 684 65.7471 886.067 507.566
686 0 58.0166 11.8242 686 66.3294 886.561 506.071
687 0 62.0524 12.9246 802 64.5636 886.299 502.126
688 0 63.0429 13.705 864 63.6308 886.448 501.334
689 0 66.0505 13.1263 867 63.925 886.308 501.349
690 0 69.1487 12.596 871 63.7635 886.791 502.746
691 0 69.0233 12.503 863 63.8818 886.298 501.944
692 0 74.0544 12.8149 949 63.5511 886.942 500.649
693 0 74.1151 13.614 1009 62.6819 886.39 497.171
694 0 78.1918 14.3493 1122 60.7888 886.489 499.174
695 0 79.2433 13.3513 1058 62.9178 886.361 493.942
696 0 83.097 12.7321 1058 63.0917 886.599 494.25
697 0 86.1356 14.1289 1217 61.4412 886.704 493.158
698 0 88.1987 12.7893 1128 63.4592 886.271 492.969
699 0 91.2226 12.4202 1133 63.2913 886.548 492.526
700 0 95.1803 13.0489 1242 62.3841 886.188 490.217
701 0 97.1335 14.5367 1412 60.7429 886.518 489.081
702 1 45.0517 11.6089 523 62.6539 886.191 513.002
703 0 49.0249 13.2994 652 60.4233 886.239 510.65
704 0 48.1577 10.8809 524 63.145 886.395 510.544
705 0 50.014 11.6368 582 62.4828 886.014 507.926
706 0 53.1175 12.3876 658 60.6839 886.543 508.351
707 0 54.0656 12.9287 699 60.0472 886.23 508.77
708 0 56.0801 13.7838 773 59.2018 885.965 506.282
709 0 58.0564 14.7098 854 57.1499 885.547 507.797
710 0 60.0501 12.5229 752 60.367 885.578 505.789
711 0 62.14 13.9524 867 58.5698 885.219 504.084
712 0 62.0955 13.1249 815 59.9816 885.883 501.64
713 0 66.1494 12.8648 851 59.604 886.058 501.519
714 0 68.102 11.7471 800 60.3662 885.705 502.135
715 0 70.0739 11.8732 832 60.2163 886.017 499.136
716 0 73.1882 12.9802 950 59.1295 886.264 496.864
717 0 78.1034 14.4552 1129 56.4801 886.247 498.157
718 0 80.09 11.9241 955 59.1791 886.702 498.215
719 0 81.1336 13.1265 1065 58.2178 886.639 496.454
720 0 84.1939 11.2716 949 60.5511 886.224 494.022
721 0 87.0539 13.1183 1142 58.4982 886.412 488.975
722 0 89.0665 13.3496 1189 58.6922 886.206 489.905
723 1 50.0952 10.5399 528 59.9186 885.922 509.934
724 0 50.0395 11.6508 583 58.3739 885.549 511.978
725 0 52.085 11.5196 600 59.3717 886.012 509.167
726 0 53.0871 9.81407 521 61.1555 886.096 509.793
727 0 53.1453 10.7818 573 60.9564 885.241 505.991
728 0 58.0327 11.7175 680 59.4279 885.378 504.821
729 0 60.0929 11.9814 720 58.9861 885.594 502.2
730 0 61.0695 11.2331 686 59.6604 885.631 503.297
731 0 62.1799 10.341 643 60.3484 885.039 503.98
732 0 64.0892 10.7038 686 60.5773 885.21 500.606
733 0 67.1034 11.8474 795 58.9874 885.38 500.618
734 0 67.1142 12.1286 814 58.8034 885.788 498.571
735 0 70.053 10.8775 762 60.1798 885.504 498.929
736 0 74.1495 10.5463 782 60.2916 886.077 496.974
737 0 77.0652 11.4968 886 59.272 885.826 498.476
738 0 80.1339 14.326 1148 56.0226 885.347 493.601
739 0 82.0773 12.9146 1060 58.2755 885.107 494.756
740 0 84.2618 11.215 945 59.8762 885.259 495.106
741 0 87.1852 12.2154 1065 59.1333 885.66 494.955
742 1 44.0563 11.6215 512 56.5644 885.379 515.494
743 0 44.0107 10.2021 449 58.4766 885.354 515.646
744 0 46.0279 11.2975 520 57.5077 885.433 514.187
745 0 47.0271 10.4833 493 58.7566 885.452 511.909
746 0 48.0256 11.0358 530 58.7887 885.709 511.379
747 0 52.0382 12.0488 627 56.7305 885.104 513.12
748 0 50.0307 11.8727 594 57.8013 884.761 511.781
749 0 54.1184 11.1977 606 58.0957 884.767 511.465
750 0 54.0543 10.989 594 58.9529 884.911 509.421
751 0 57.0239 12.1528 693 57.316 884.903 506.297
752 0 61.1139 12.4358 760 56.2724 885.117 508.349
753 0 60.0439 12.5242 752 57.0665 885.754 507.113
754 0 61.0635 11.3325 692 58.7731 885.179 503.893
755 0 65.0611 10.3749 675 58.8444 884.984 504.514
756 0 65.1236 11.5166 750 57.8693 884.859 504.064
757 0 68.1054 9.96983 679 58.9617 884.962 503.75
758 0 71.1426 11.6526 829 57.8372 885.744 500.904
759 0 73.0296 10.4615 764 59.0681 885.024 498.636
760 0 75.1213 10.3166 775 58.8464 885.376 499.249
761 1 37.0831 9.86972 366 57.3197 885.896 515.951
762 0 41.0182 10.7269 440 55.7091 885.361 517.48
763 0 38.0446 9.35744 356 58.1404 885.562 517.104
764 0 41.0628 9.30282 382 58.6047 885.542 517.181
765 0 42.0684 11.0297 464 57.2802 886.052 514.455
766 0 43.0363 10.9675 472 57.7627 886.557 513.492
767 0 44.0479 11.3286 499 57.0441 886.287 514.515
768 0 46.0431 10.3599 477 57.8826 886.549 512.405
769 0 47.038 10.5234 495 58.2182 886.315 512.335
770 0 47.0281 10.6745 502 58.8825 885.996 511.448
771 0 47.0392 9.94915 468 60.0962 886.336 511.654
772 0 52.0527 11.1233 579 58.2228 885.984 509.041
773 0 53.0666 11.7211 622 58.2138 885.907 509.072
774 0 56.0948 9.89397 555 59.8378 886.276 508.904
775 0 56.0805 9.7895 549 60.623 886.255 505.947
776 0 58.0738 12.2603 712 57.743 886.156 506.43
777 0 61.1202 10.4712 640 60.1609 885.948 507.102
778 0 60.0925 9.13591 549 62.3005 886.049 505.831
779 0 62.1385 10.4122 647 61.1546 886.085 504.934
780 0 63.0688 9.41828 594 62.2643 885.476 502.722
781 0 69.0568 13.1341 907 57.8842 886.308 503.19
782 0 69.1225 11.5737 800 60.08 886.172 501.35
783 0 72.1142 11.1074 801 60.1124 885.23 500.247
784 0 75.1565 12.281 923 58.6966 885.961 501.127
785 0 77.0651 12.1585 937 59.1996 885.878 496.445
786 1 39.1545 8.70909 341 60.9824 885.446 518.067
787 0 40.0593 9.83543 394 60.1599 885.67 517.223
788 0 41.0777 10.2976 423 60.3759 885.208 512.312
789 0 42.0074 8.73656 367 61.1798 884.79 515.262
790 0 45.0076 10.2427 461 59.039 884.874 513.037
791 0 44.0252 9.56271 421 60.7767 885.653 511.328
792 0 47.1486 11.3047 533 58.8555 885.884 511.908
793 0 47.1197 10.1231 477 61.0419 886.289 512.264
794 0 49.0991 9.63357 473 61.0021 885.696 511.342
795 0 50.1058 10.6175 532 60.0244 886.271 510.874
796 0 53.129 10.8604 577 59.4835 885.704 508.31
797 0 54.1545 10.2485 555 60.2504 885.85 507.373
798 0 56.0433 10.6525 597 59.5779 886.01 508.049
799 0 55.1139 9.39872 518 60.9788 886.732 506.77
800 0 59.1405 10.3144 610 59.4721 885.916 506.328
801 0 62.1104 10.5457 655 59.0656 885.838 506.511
802 0 61.1277 10.3881 635 59.4929 885.173 506.8
803 0 67.1232 10.801 725 58.811 885.828 502.938
804 0 67.1149 10.6087 712 59.2346 885.298 502.444
805 0 69.1103 11.6336 804 58.3694 885.682 500.004
806 0 72.0811 11.2373 810 58.1518 885.401 502.415
807 0 73.1323 10.5289 770 59.6013 885.118 498.33
808 0 73.1007 9.6579 706 60.7139 885.666 499.15
809 1 38.0657 9.98273 380 58.521 885.918 515.424
810 0 39.0213 7.61123 297 60.2963 885.269 515.946
811 0 43.0358 10.5494 454 56.2797 885.24 517.564
812 0 43.0535 10.6844 460 56.8652 885.615 515.85
813 0 47.1262 12.2649 578 54.8875 884.995 513.713
814 0 47.032 12.0131 565 55.7044 885.395 513.54
815 0 48.0639 11.0686 532 56.8383 885.07 513.609
816 0 50.0483 11.3091 566 56.8286 885.396 513.108
817 0 50.0461 9.61113 481 58.3638 885.071 514.53
818 0 51.0428 10.8145 552 57.5036 885.408 511.433
819 0 53.0492 11.6496 618 56.3625 885.419 511.382
820 0 54.0335 12.3072 665 56.0917 885.408 510.156
821 0 55.0624 10.8241 596 57.3943 884.582 509.72
822 0 59.0206 12.7583 753 55.154 884.61 508.246
823 0 61.1442 12.8876 788 54.9924 884.747 508.393
824 0 61.1121 12.4362 760 55.8868 884.847 507.328
825 0 64.0183 11.9341 764 56.3076 885.471 505.454
826 0 65.0719 11.4028 742 57.6199 885.772 505.373
827 0 67.144 11.9743 804 56.7338 885.435 503.744
828 0 65.0462 9.71617 632 60.3718 885.404 501.97
829 0 72.0801 12.3196 888 56.75 885.396 504.034
830 0 72.0469 12.1171 873 58.1478 885.068 503.119
831 0 73.0976 9.68568 708 61.8842 885.114 498.319
832 0 76.0801 12.6314 961 58.6316 885.865 498.522
833 0 80.1216 11.495 921 60.7362 885.877 495.544
834 0 83.1249 11.8617 986 60.1278 885.474 495.59
835 0 85.1213 10.5849 901 62.3829 885.325 496.791
836 0 88.137 11.4141 1006 61.1093 885.49 493.274
837 1 43.0938 10.1871 439 60.7312 885.091 515.636
838 0 47.1112 9.53065 449 60.5768 884.837 516.708
839 0 46.0908 10.8482 500 60.284 885.062 512.616
840 0 49.1318 10.6652 524 60.1908 885.275 514.525
841 0 51.0532 10.636 543 59.8932 885.392 513.943
842 0 51.0682 12.0819 617 59.0146 885.288 511.376
843 0 50.141 10.5303 528 61.3125 884.746 513.403
844 0 53.0416 12.2357 649 58.6441 884.804 510.626
845 0 53.1772 10.3804 552 61.3949 885.002 509.12
846 0 56.083 10.9302 613 60.3801 885.778 508.726
847 0 57.0946 9.61562 549 61.7523 885.273 507.985
848 0 58.0599 8.61179 500 62.632 885.726 507.578
849 0 61.1025 9.705 593 61.086 884.938 506.039
850 0 64.0933 9.73581 624 60.3558 885.208 506.556
851 0 65.0608 10.5747 688 59.5625 885.362 505.169
852 0 66.0713 9.12651 603 61.9768 885.162 502.672
853 0 68.1231 9.7911 667 61.1679 885.106 500.315
854 0 71.0732 9.53946 678 61.3746 885.031 500.322
855 0 75.0865 9.6289 723 60.7773 885.339 500.483
856 0 79.1512 10.1704 805 60.1416 885.747 497.098
857 1 37.0482 8.77237 325 59.3723 885.298 515.957
858 0 41.0238 8.7754 360 59.425 885.144 514.383
859 0 41.0322 8.13995 334 59.8443 885.566 515.841
860 0 44.1205 8.49946 375 58.7307 884.763 512.651
861 0 45.0308 10.726 483 58.1304 885.002 513.393
862 0 44.0805 9.09699 401 60.6135 885.396 513.943
863 0 46.0122 10.5407 485 58.7588 884.188 512.091
864 0 47.0478 10.3724 488 58.9508 884.992 509.918
865 0 48.0914 8.81654 424 61.066 885.174 510.986
866 0 48.035 9.34735 449 60.4543 884.953 510.579
867 0 52.0615 10.6797 556 58.5036 884.567 510.908
868 0 54.0429 9.75151 527 59.8691 885.343 509.569
869 0 54.1399 10.5283 570 58.8982 884.833 509.94
870 0 55.0601 10.1707 560 59.5 885.216 507.273
871 0 60.0857 10.4517 628 58.5494 884.925 507.803
872 0 60.0908 9.98489 600 59.77 884.993 504.392
873 0 61.1225 10.0454 614 59.4006 884.65 506.849
874 0 64.1612 9.44495 606 60.099 885.353 500.693
875 0 66.0589 9.82457 649 60.3374 884.895 502.2
876 0 68.0863 10.0901 687 60.0291 884.638 500.595
877 0 70.2581 9.66437 679 60.486 885.007 500.988
878 0 73.1835 11.1774 818 58.7641 884.956 499.808
879 0 75.2146 11.6866 879 58.8771 884.816 498.833
880 0 77.2041 10.7637 831 60.8568 884.869 499.603
881 1 42.1635 9.29714 392 59.0076 884.809 516.972
882 0 43.1596 9.66181 417 59.2422 884.832 516.372
883 0 46.0714 10.3101 475 58.6779 884.783 516.939
884 0 47.0199 11.0804 521 58.5086 884.798 515.065
885 0 47.0386 12.0539 567 47.5503 884.577 516.912
886 0 45.0455 9.79011 441 61.7574 885.311 514.565
887 0 49.0354 11.1144 545 59.5872 885.4 515.334
888 0 53.1755 11.3774 605 58.4264 885.674 514.101
889 0 51.0537 12.0853 617 59.2123 885.645 512.423
890 0 52.0907 11.9599 623 59.3628 885.714 513.308
891 0 53.0962 9.8877 525 62.1562 885.474 512.888
892 0 56.0702 11.7888 661 59.7095 885.841 511.579
893 0 57.0476 13.6377 778 58.4512 886.164 508.736
894 0 58.183 12.3747 720 60.2306 885.543 507.264
895 0 60.0917 12.4476 748 60.1644 885.902 507.186
896 0 62.0369 12.7344 790 59.7886 885.604 506.458
897 0 63.0825 11.8733 749 60.9533 885.9 507.235
898 0 65.0585 13.5263 880 59.367 886.05 505.765
899 0 67.0971 11.8634 796 61.3518 885.992 504.774
900 0 69.1474 11.6129 803 61.3636 885.653 506.656
901 0 69.0879 12.9111 892 61.12 885.645 503.835
902 0 72.0588 10.2278 737 63.825 886.231 501.191
903 0 75.1095 12.981 975 60.8718 886.346 502.21
904 1 41.0269 12.5527 515 59.4369 886.645 518.208
905 0 41.056 11.1799 459 61.3617 886.42 518.98
906 0 41.0273 11.6752 479 61.261 886.271 518.132
907 0 44.0407 12.216 538 60.3216 885.364 516.849
908 0 43.077 12.1642 524 61.7634 886.605 516.718
909 0 45.0467 11.7878 531 62.6215 886.134 515.644
910 0 46.0196 12.2122 562 61.411 886.37 516.653
911 0 48.0491 12.1542 584 62.3099 887.067 514.116
912 0 48.0637 12.4626 599 62.7462 887.558 514.818
913 0 47.0481 10.6274 500 65.418 886.666 513.418
914 0 50.0399 11.8505 593 63.8718 886.401 511.949
915 0 51.0531 12.9669 662 62.3928 886.255 513.823
916 0 54.0612 14.6686 793 59.768 886.091 514.233
917 0 53.0264 11.9563 634 64.8375 886.744 511.467
918 0 55.0352 14.409 793 61.9105 885.454 510.787
919 0 57.1067 12.7481 728 64.2596 885.001 510.294
920 0 57.1641 13.7674 787 63.6773 885.595 509.147
921 0 58.07 11.5206 669 66.5441 885.662 510.895
922 0 61.162 11.8211 723 66.8022 885.279 508.852
923 0 62.0463 12.9903 806 65.6749 884.995 506.963
924 0 64.0501 13.0054 833 65.4022 885.238 507.272
925 0 67.0423 12.9918 871 65.6498 885.602 505.476
926 0 69.1978 13.2663 918 66.305 885.272 503.821
927 0 69.1179 12.3991 857 68.0653 884.706 503.014
928 0 72.0902 12.7202 917 68.2094 884.779 503.627
929 0 74.0831 13.1474 974 68.1437 884.937 500.489
930 0 77.0354 12.3709 953 69.3673 885.024 500.792
931 1 38.0142 10.3645 394 71.2132 885.612 517.51
932 0 41.0193 12.4088 509 67.6857 885.352 519.34
933 0 44.0189 12.1766 536 69.2631 885.84 516.259
934 0 44.0864 12.4075 547 69.1261 885.318 516.331
935 0 44.0207 12.4714 549 69.7486 885.998 513.078
936 0 45.0664 12.4039 559 69.1682 885.467 515.36
937 0 45.0437 10.9227 492 71.378 884.839 515.045
938 0 48.019 11.2455 540 70.5296 884.913 512.646
939 0 49.146 11.4964 565 70.5858 885.26 512.807
940 0 49.0729 11.1874 549 71.1348 885.337 511.554
941 0 52.0575 11.5065 599 70.0334 885.504 513.048
942 0 55.0451 12.1355 668 68.6332 885.63 512.397
943 0 57.0312 12.537 715 68.1608 885.148 510.54
944 0 56.1097 12.3865 695 69.1065 886.269 507.341
945 0 61.1003 12.7986 782 67.6829 885.648 506.212
946 0 61.0573 11.35 693 69.6854 886.478 505.329
947 0 62.0443 12.7651 792 68.3093 885.831 504.929
948 0 65.022 12.4881 812 68.9064 885.618 502.381
949 0 66.065 10.8378 716 71.2486 886.068 502.282
950 0 68.0792 11.1929 762 71.0945 885.664 499.874
951 0 71.0911 11.3094 804 71.2065 885.702 498.894
952 0 74.2708 13.1546 977 69.1648 885.92 495.917
953 0 76.0785 10.9755 835 72.0515 886.202 497.032
954 0 76.0772 10.5156 800 72.7088 885.866 496.969
955 1 43.0756 11.2128 483 67.8095 885.487 516.534
956 0 44.0452 12.192 537 67.5196 885.244 515.585
957 0 45.0478 12.5866 567 67.2152 885.45 513.864
958 0 46.1333 12.9408 597 67.2395 885.389 512.126
959 0 47.0495 10.7546 506 69.8933 885.652 513.536
960 0 48.0288 12.3259 592 68.3682 886.464 512.179
961 0 50.069 11.2844 565 69.4673 886.432 510.035
962 0 50.0551 12.0867 605 68.2694 886.45 512.43
963 0 54.0529 10.7487 581 69.2565 886.349 511.713
964 0 54.057 12.2833 664 68.3268 885.985 509.28
965 0 55.0656 11.9312 657 68.2496 886.368 509.528
966 0 59.0498 12.0068 709 68.0437 885.704 509.334
967 0 60.0859 12.5321 753 67.9814 885.871 507.254
968 0 62.0951 12.1266 753 68.6016 886.491 505.112
969 0 65.052 12.5438 816 68.3064 886.331 504.991
970 0 64.0288 10.4328 668 70.4491 886.222 506.252
971 0 67.0437 11.7834 790 69.4165 885.789 503.44
972 0 69.1452 11.7 809 69.7392 886.129 502.325
973 0 72.1248 12.4922 901 68.3019 885.556 503.518
974 0 71.11 11.6861 831 70.5331 886.562 500.474
975 0 75.0979 12.9032 969 68.9886 886.363 500.434
976 0 75.0745 12.0947 908 70.3293 886.057 498.933
977 0 78.0502 10.237 799 72.3817 886.151 498.765
978 0 82.0608 11.4793 942 70.9703 885.591 496.327
979 1 44.0138 11.5646 509 67.5285 886.096 516.456
980 0 43.0311 11.2709 485 68.6144 887.019 515.604
981 0 43.0287 12.666 545 67.4899 886.561 515.93
982 0 45.0571 11.5187 519 68.7052 885.936 515.274
983 0 47.07 11.366 535 68.3364 886.29 515.57
984 0 48.0688 12.5237 602 67.7575 886.131 512.972
985 0 49.1081 12.4216 610 68.5082 886.488 510.625
986 0 51.081 12.49 638 67.9357 886.636 512.094
987 0 52.1127 12.9911 677 67.61 886.297 511.749
988 0 53.038 11.3881 604 70.0811 886.616 509.955
989 0 53.0676 10.7975 573 70.6632 886.639 511.199
990 0 58.0564 11.7472 682 69.198 886.943 508.96
991 0 59.0662 11.3263 669 69.7549 886.564 509.879
992 0 61.1207 11.3709 695 69.7856 886.449 508.885
993 0 62.1441 12.5837 782 69.2749 886.537 505.731
994 0 63.0523 11.768 742 70.4879 886.499 506.434
995 0 65.077 11.279 734 71.5886 886.394 503.148
996 0 69.0339 12.2549 846 70.8652 886.346 504.244
997 0 70.086 11.0864 777 72.8366 886.561 500.855
998 0 72.1034 11.8996 858 72.3357 886.4 502.399
999 0 75.059 11.9106 894 72.6756 886.351 500.569
1000 0 77.033 11.7352 904 72.8009 886.538 499.795
1001 0 79.0859 11.1018 878 73.5251 886.848 499.108
1002 1 40.0392 11.264 451 70.5233 886.557 518.581
1003 0 40.0391 10.7894 432 71.4745 886.296 518.257
1004 0 42.0241 10.8271 455 72.0989 886.213 517.473
1005 0 43.0882 11.1399 480 71.45 885.944 517.208
1006 0 44.0961 11.679 515 70.5146 886.157 517.25
1007 0 47.0216 11.6542 548 70.1277 886.697 515.69
1008 0 47.0449 10.6494 501 71.006 886.052 516.621
1009 0 47.0688 13.2997 626 69.032 886.551 513.471
1010 0 50.0591 12.725 637 69.8556 887.113 512.3
1011 0 52.0233 11.4949 598 70.8227 886.462 513.293
1012 0 51.0453 11.9698 611 70.856 886.422 513.265
1013 0 54.0303 12.6225 682 70.0484 886.318 509.679
1014 0 57.1384 12.846 734 69.267 885.929 508.993
1015 0 55.0133 10.8338 596 72.8775 886.292 509.092
1016 0 58.0441 12.2493 711 70.9381 885.972 507.955
1017 0 62.0661 12.5511 779 70.2246 886.727 506.612
1018 0 65.0409 12.9765 844 69.7026 886.128 505.069
1019 0 66.1926 12.0859 800 70.8438 885.872 504.926
1020 0 68.0763 12.295 837 71.4265 886.073 504.627
1021 0 71.0632 11.539 820 71.5122 885.906 503.945
1022 0 74.129 12.1815 903 71.2669 885.942 502.086
1023 0 75.1076 10.9709 824 73.1189 885.7 502.038
1024 0 79.1492 12.9502 1025 70.4859 885.842 499.359
1025 1 40.086 10.1033 405 70.0148 885.425 520.464
1026 0 41.014 10.0941 414 71.1184 885.454 518.761
1027 0 43.0826 11.3271 488 69.5984 885.154 519.248
1028 0 45.0444 9.81253 442 71.2579 885.134 518.991
1029 0 46.0408 12.5541 578 68.4394 884.901 516.519
1030 0 48.0218 10.9534 526 69.5722 884.441 517.508
1031 0 49.0126 12.3438 605 69.286 884.653 514.955
1032 0 48.0482 10.989 528 71.5057 884.731 514.165
1033 0 53.0614 10.5161 558 69.7545 884.495 515.455
1034 0 53.031 10.3336 548 70.531 884.77 515.626
1035 0 55.1063 11.868 654 69.185 884.602 513.044
1036 0 56.0522 11.0254 618 70.1197 884.442 512.396
1037 0 60.0359 12.7757 767 67.1382 883.89 510.915
1038 0 60.0624 11.9875 720 69.1292 884.106 508.924
1039 0 62.0636 12.5355 778 68.5398 883.928 505.812
1040 0 63.1318 11.5314 728 69.6538 883.94 507.463
1041 0 65.0843 10.6785 695 70.7842 883.836 505.161
1042 0 71.0404 13.0208 925 67.1168 884.006 506.098
1043 0 71.0979 12.1101 861 68.4286 884.526 505.712
1044 1 35.036 10.3037 361 65.3684 884.36 525.598
1045 0 36.0396 9.85027 355 65.3042 884.18 525.513
1046 0 36.0416 10.4046 375 67.0053 883.912 521.531
1047 0 37.0154 10.6442 394 66.3985 884.508 521.033
1048 0 39.0265 10.0957 394 66.3782 884.208 521.279
1049 0 39.0343 10.5804 413 66.6126 884.366 519.814
1050 0 41.0519 10.7425 441 65.9002 883.773 520.054
1051 0 45.084 10.2254 461 65.8698 884.009 519.421
1052 0 42.1136 10.9228 460 66.0913 884.276 517.58
1053 0 44.0756 11.1853 493 65.4625 884.396 517.994
1054 0 47.053 11.4339 538 64.8309 884.173 516.381
1055 0 45.0241 10.6165 478 66.6004 884.205 516.554
1056 0 49.1846 12.3819 609 62.5813 883.695 516.42
1057 0 49.0469 10.9079 535 65.5551 883.83 513.677
1058 0 52.0698 10.7548 560 65.2857 884.404 514.145
1059 0 55.0344 11.5746 637 63.6672 884.358 512.226
1060 0 55.0528 10.6443 586 65.3925 884.14 509.969
1061 0 55.0277 10.2494 564 65.4734 884.057 513.956
1062 0 60.0955 9.65131 580 65.6569 883.598 507.738
1063 0 60.1168 10.2966 619 64.9273 884.645 510.057
1064 0 63.0732 10.5275 664 64.8976 884.05 509.523
1065 0 63.1056 9.44448 596 66.0671 883.941 509.831
1066 1 30.0071 6.46513 194 66.3247 884.124 525.505
1067 0 34.028 9.37464 319 63.21 884.257 522.15
1068 0 33.0135 9.81416 324 63.4414 884.367 521.867
1069 0 38.0447 10.1197 385 61.6805 884.834 521.797
1070 0 37.085 10.8939 404 62.0099 884.205 520.235
1071 0 40.0998 11.4963 461 60.5813 884.95 520.113
1072 0 39.1813 9.85163 386 62.4482 885.171 520.433
1073 0 42.0479 10.3691 436 61.4518 884.514 520.25
1074 0 40.015 8.94664 358 63.3324 884.821 518.397
1075 0 44.0856 9.50424 419 62.3484 884.52 518.265
1076 0 43.0156 10.1591 437 62.746 883.961 517.194
1077 0 46.0748 8.81176 406 63.0542 883.741 517.466
1078 0 48.019 10.6208 510 61.6549 884.294 515.188
1079 0 47.0498 9.94692 468 62.4786 884.261 514.011
1080 0 49.0822 9.53503 468 62.515 884.82 513.976
1081 0 51.0586 10.8503 554 60.8664 884.614 512.68
1082 0 54.098 9.70461 525 61.6095 885.411 514.29
1083 0 56.0396 10.2784 576 61.0434 885.101 513.665
1084 0 56.1328 9.88726 555 61.7928 884.654 510.64
1085 0 59.0575 10.312 609 61.619 884.915 510.412
1086 0 62.0634 10.4732 650 61.1354 884.48 507.751
1087 1 30.0222 9.2265 277 61.6931 884.664 522.812
1088 0 27.0109 7.66356 207 64.1449 885.164 524.778
1089 0 32.0144 8.43371 270 63.1037 885.596 521.463
1090 0 34.0087 10.1739 346 60.5896 885.266 524.023
1091 0 34.0294 9.40364 320 62.6781 885.712 522.881
1092 0 36.0581 10.7881 389 60.5116 885.239 524.136
1093 0 38.019 12.0466 458 59.5328 885.83 520.788
1094 0 38.0484 10.7232 408 61.4265 885.314 519.676
1095 0 39.0071 11.8184 461 59.8742 885.501 519.703
1096 0 41.0336 10.9423 449 61.412 885.441 517.996
1097 0 41.0166 9.89844 406 62.4261 885.074 519.867
1098 0 43.0669 11.9814 516 60.4419 885.591 518.326
1099 0 45.0184 10.6401 479 61.5699 884.82 514.935
1100 0 48.0392 10.3874 499 61.2645 886.126 516.577
1101 0 48.0596 12.5885 605 60.0479 885.669 513.899
1102 0 49.0316 11.0541 542 61.8967 885.439 514.506
1103 0 51.0399 12.069 616 60.7468 885.192 512.32
1104 0 53.0452 12.0275 638 60.6756 885.307 512.354
1105 0 54.1918 12.6587 686 59.7945 885.299 512.14
1106 0 55.073 11.5301 635 61.8126 884.883 509.113
1107 0 57.0639 11.4083 651 61.1936 884.814 510.128
1108 0 57.0396 10.8521 619 62.315 885.454 509.003
1109 0 57.1069 10.5592 603 63.0962 885.192 506.721
1110 0 63.125 11.8337 747 61.0254 885.522 506.325
1111 0 64.141 12.4725 800 60.3788 885.452 504.002
1112 0 66.0176 11.6939 772 59.1995 885.276 505.294
1113 0 69.1517 11.5832 801 60.6754 885.517 504.052
1114 0 69.0355 10.4149 719 62.6036 886.021 499.784
1115 0 73.0487 11.8962 869 61.0069 885.959 497.923
1116 0 76.036 11.3762 865 61.2231 886.284 498.786
1117 1 38.0717 11.6885 445 58.4112 885.672 518.584
1118 0 39.1384 9.40254 368 59.9456 886.06 520.098
1119 0 40.0785 10.7789 432 59.7986 886.301 518.137
1120 0 42.1027 10.7594 453 59.5982 886.453 517.464
1121 0 44.0163 10.6779 470 59.8234 886.764 517.023
1122 0 47.0981 12.5908 593 57.3811 886.223 515.386
1123 0 45.0401 10.0133 451 60.796 885.918 515.499
1124 0 48.0288 10.3688 498 60.1566 886.301 513.01
1125 0 49.0738 10.6167 521 60.1363 886.048 512.605
1126 0 50.0477 10.9895 550 60.1527 885.889 511.425
1127 0 50.047 9.41116 471 61.896 886.185 512.316
1128 0 53.1418 10.519 559 60.3184 886.079 510.293
1129 0 54.0578 11.3397 613 59.7243 886.233 508.809
1130 0 57.0853 12.5602 717 58.2301 885.978 507.907
1131 0 57.0414 12.6049 719 58.0695 885.768 508.317
1132 0 58.1233 11.8197 687 59.6274 885.576 504.818
1133 0 61.1052 12.0121 734 58.6485 885.917 504.94
1134 0 63.1418 12.4482 786 58.3969 885.309 505.654
1135 0 64.1066 11.4497 734 59.4373 885.45 501.875
1136 0 69.0704 13.0157 899 57.4093 885.665 502.924
1137 0 71.1631 10.7359 764 59.8495 885.772 502.817
1138 0 73.1568 11.2088 820 58.8841 886.082 502.321
1139 1 36.0506 9.15381 330 59.4576 886.342 518.667
1140 0 35.0175 8.93839 313 60.4185 886.249 519.217
1141 0 38.011 10.4707 398 58.9447 886.53 517.178
1142 0 40.0391 11.5637 463 57.7905 886.801 517.479
1143 0 40.0199 12.2189 489 57.6892 886.386 515.061
1144 0 43.0424 10.0366 432 59.4375 885.375 516.037
1145 0 42.0435 11.4643 482 58.695 885.878 515.645
1146 0 44.0286 12.3329 543 57.8214 886.19 515.807
1147 0 44.0472 10.6477 469 60.1493 886.055 513.851
1148 0 45.0454 11.0777 499 60.1623 886.307 512.721
1149 0 44.0136 7.86121 346 63.737 886.913 510.523
1150 0 50.0805 10.4033 521 60.5873 886.697 513.046
1151 0 51.0651 11.4951 587 59.8552 886.487 511.474
1152 0 52.1315 13.0823 682 57.9575 886.013 510.314
1153 0 55.0377 10.9561 603 60.0663 886.464 508.897
1154 0 55.0487 12.9885 715 58.4252 886.418 509.687
1155 0 57.1612 9.9543 569 61.3005 885.758 508.009
1156 0 60.0415 12.7079 763 58.6396 885.931 508.072
1157 0 62.1541 10.8923 677 60.4195 886.194 508.121
1158 0 65.1871 11.9656 780 59.2859 886.323 505.491
1159 0 67.099 11.5352 774 60.0762 886.062 504.296
1160 0 69.0313 12.3857 855 60.0164 885.938 501.144
1161 0 72.1537 10.5469 761 61.2786 885.955 503.148
1162 0 72.15 9.36936 676 63.3077 886.065 502.536
1163 0 73.0809 9.27739 678 63.7124 885.956 503.196
1164 1 41.0233 8.60486 353 62.0992 885.637 519.751
1165 0 39.0451 10.4495 408 62.4436 886.042 516.27
1166 0 43.093 12.2294 527 60.6698 885.903 515.742
1167 0 44.1038 12.1305 535 60.8037 885.499 513.118
1168 0 44.0658 9.1908 405 63.7679 885.896 516.064
1169 0 46.035 9.14521 421 64.5582 886.076 513.551
1170 0 48.0751 11.5236 554 62.4404 885.841 513.886
1171 0 49.0975 10.7745 529 62.7164 886.163 514.556
1172 0 52.0194 10.4769 545 63.0294 885.789 511.662
1173 0 53.1771 11.4523 609 62.1149 886.031 510.209
1174 0 54.0496 10.8234 585 63.3453 886.067 508.506
1175 0 56.0738 11.2709 632 62.5032 886.421 509.01
1176 0 56.0765 10.9672 615 63.4163 885.738 508.889
1177 0 60.032 10.9275 656 63.7591 886.259 507.401
1178 0 60.027 9.69563 582 65.4399 886.716 506.18
1179 0 62.0678 11.8902 738 63.0176 885.852 507.32
1180 0 66.0614 11.9283 788 62.8401 885.65 504.976
1181 0 69.2531 12.6348 875 62.7269 885.221 504.161
1182 0 69.0664 12.9585 895 63.0603 885.316 501.606
1183 0 70.1078 11.0687 776 65.5683 885.292 498.916
1184 0 73.0611 10.7581 786 66.1374 885.42 498.237
1185 0 74.0715 6.79073 503 69.3638 885.712 501.153
1186 0 79.1167 12.6143 998 64.2234 885.524 496.109
1187 0 81.1428 10.2289 830 66.6277 885.555 495.742
1188 0 83.0825 10.7845 896 66.8627 885.541 492.189
1189 1 42.1218 9.44879 398 66.1231 886.299 515.153
1190 0 43.0581 10.3349 445 65.0494 885.881 516.389
1191 0 46.0434 9.12183 420 66.5095 885.524 513.788
1192 0 46.1782 10.5894 489 65.6462 885.994 511.11
1193 0 44.1184 10.0865 445 67.0966 886.249 510.912
1194 0 47.0752 9.51668 448 67.7589 885.469 510.562
1195 0 47.0383 7.16438 337 69.6172 886.08 505.38
1196 0 48.0723 9.79773 471 68.0064 886.467 506.656
1197 0 51.104 8.62946 441 68.1723 885.943 503.621
1198 0 51.104 8.37508 428 90.4813 885.928 503.633
1199 0 56.0619 9.88193 554 66.3267 885.715 507.04
1200 0 55.0203 8.6877 478 68.4749 886.264 504.452
1201 0 64.0637 12.0193 770 63.6974 886.362 505.539
1202 0 65.0845 11.6771 760 64.3487 886.178 505.954
1203 0 68.0842 11.9117 811 64.1566 886.398 504.116
1204 0 69.1216 10.3586 716 66.2863 886.279 501.549
1205 0 74.0563 11.3157 838 64.3687 886.494 502.667
1206 0 76.206 11.482 875 64.8206 886.302 499.497
1207 0 78.0754 11.0022 859 65.4959 886.178 500.506
1208 0 78.146 10.2373 800 66.74 886.131 499.336
1209 0 79.1223 11.3622 899 66.2681 886.206 494.474
1210 0 86.1222 12.3313 1062 64.2439 886.419 498.316
1211 0 87.145 11.4407 997 66.1715 886.272 493.649
1212 1 43.0471 9.4083 405 66.5457 886.553 516.23
1213 0 45.0179 12.3062 554 63.8538 886.19 514.933
1214 0 47.1322 10.6297 501 65.6986 886.988 513.489
1215 0 48.0431 10.5738 508 65.5472 886.561 513.02
1216 0 50.0913 10.0816 505 65.5327 886.646 513.644
1217 0 51.0752 10.8859 556 64.7482 886.406 513.146
1218 0 53.2328 9.56177 509 66.9568 886.841 511.731
1219 0 56.1504 11.8076 663 64.5852 886.84 509.184
1220 0 57.0743 12.3523 705 63.9248 886.682 508.909
1221 0 59.1054 11.0481 653 65.5574 886.599 507.478
1222 0 62.0592 13.8416 859 62.213 886.888 506.664
1223 0 61.0718 11.4128 697 65.4864 886.951 506.386
1224 0 65.0286 11.7487 764 64.5052 887.072 507.216
1225 0 68.0503 11.5503 786 64.8219 887.19 504.052
1226 0 70.0902 12.5838 882 64.3197 887.373 501.669
1227 0 71.0613 12.5525 892 64.4776 887.767 499.885
1228 0 74.1564 12.1095 898 64.7372 887.253 500.102
1229 0 78.1493 12.2842 960 64.2656 887.174 499.639
1230 0 77.0569 12.6919 978 64.5777 886.843 499.149
1231 0 82.1034 12.7887 1050 63.9448 887.054 497.291
1232 0 84.1638 13.248 1115 63.7399 887.134 494.228
1233 1 39.0488 9.44972 369 65.626 887.114 514.523
1234 0 44.0278 10.7659 474 63.4072 886.854 516.238
1235 0 43.027 10.2958 443 65.4424 887.668 513.086
1236 0 45.0201 12.2612 552 62.7391 887.422 513.268
1237 0 45.0665 12.3151 555 62.5622 886.483 513.876
1238 0 47.0743 11.4712 540 63.7204 886.835 510.274
1239 0 48.0575 12.3394 593 62.14 887.182 511.865
1240 0 51.1406 12.5732 643 61.3561 887.246 512.076
1241 0 52.0397 12.2022 635 62.2236 887.134 509.447
1242 0 54.0929 12.8298 694 61.3617 887.035 509.948
1243 0 57.1423 13.1951 754 60.9947 887.199 506.877
1244 0 57.1975 11.7488 672 62.817 886.859 509.396
1245 0 59.0716 12.8657 760 61.5895 886.809 506.296
1246 0 61.0507 10.3848 634 64.6782 887.364 504.62
1247 0 62.0487 12.2807 762 62.7178 887.574 504.365
1248 0 64.0756 11.3772 729 63.797 887.121 503.743
1249 0 67.053 11.9607 802 63.1409 886.355 504.706
1250 0 68.172 11.0163 751 65.0772 886.519 500.353
1251 0 70.1325 11.022 773 64.6636 887.053 502.27
1252 0 73.0592 13.0853 956 62.6559 886.782 500.815
1253 0 73.0906 11.5336 843 65.6382 887.023 498.255
1254 0 76.12 11.1009 845 66.3432 886.748 495.409
1255 0 78.0902 12.1142 946 65.3584 887.002 496.6
1256 0 79.1267 9.85761 780 68.0385 887.401 497.438
1257 1 40.0965 10.6992 429 65.3706 886.599 514.874
1258 0 43.0426 12.2902 529 63.6805 885.998 513.743
1259 0 43.0589 9.59152 413 67.2324 885.949 512.857
1260 0 46.0532 12.8764 593 63.2158 886.157 513.277
1261 0 46.041 10.5124 484 66.4793 886.031 509.934
1262 0 45.1144 11.9696 540 65.3833 886.263 509.509
1263 0 49.0862 11.6733 573 65.2967 885.944 508.764
1264 0 50.1428 11.4074 572 65.6818 886.579 508.865
1265 0 56.2586 12.5136 704 63.5838 886.413 510.16
1266 0 55.1247 11.2291 619 65.7916 886.231 508.918
1267 0 59.1107 12.0452 712 64.5309 886.309 508.735
1268 0 61.0612 12.1026 739 64.6536 886.415 507.817
1269 0 64.1464 13.9213 893 62.3371 886.498 507.055
1270 0 66.2204 13.4249 889 63.2036 886.281 505.136
1271 0 65.0664 11.6957 761 65.4402 886.465 503.499
1272 0 73.1644 13.7362 1005 62.0259 886.366 504.086
1273 0 72.2033 12.8664 929 64.1851 886.103 500.163
1274 0 74.1696 10.5839 785 66.9146 885.671 500.572
1275 0 79.1818 13.1848 1044 63.8515 885.855 500.309
1276 0 79.1511 11.3707 900 65.8344 886.058 500.946
1277 0 79.0562 10.638 841 67.5743 886.483 494.95
1278 0 84.1894 12.4719 1050 65.621 886.903 494.727
1279 1 46.1761 10.3733 479 65.1608 886.169 514.516
1280 0 46.236 11.5278 533 63.4953 886.448 516.824
1281 0 47.149 10.3926 490 65.3245 886.143 515.843
1282 0 49.0601 12.5764 617 62.9822 887.16 513.48
1283 0 49.1133 11.9519 587 64.293 886.714 512.588
1284 0 50.1747 11.3802 571 65.2154 886.359 512.245
1285 0 55.1907 12.6289 697 62.8981 886.571 511.278
1286 0 55.1497 13.1642 726 62.7507 886.749 510.298
1287 0 56.0628 11.7725 660 63.8879 886.515 508.397
1288 0 59.1017 11.1672 660 64.7197 886.183 506.591
1289 0 58.2136 12.4541 725 63.92 886.048 506.043
1290 0 63.0796 12.6507 798 62.6002 886.812 507.297
1291 0 66.0683 11.4578 757 63.6922 887.202 507.032
1292 0 66.1126 11.4653 758 64.4446 886.321 503.241
1293 0 69.1424 11.6716 807 63.8798 886.428 503.922
1294 0 71.1105 13.1907 938 61.92 885.574 503.47
1295 0 72.0404 12.3125 887 63.9989 885.979 501.442
1296 0 74.0985 11.7951 874 64.1602 886.381 501.948
1297 0 77.0718 12.3132 949 64.0211 887.028 499.008
1298 0 80.1612 11.6889 937 64.2786 885.457 499.46
1299 0 84.1885 12.0444 1014 63.8225 885.608 497.94
1300 0 85.1791 10.8477 924 65.2251 885.969 497.541
1301 0 86.1368 10.82 932 65.1727 885.656 497.991
1302 1 46.0177 10.7567 495 64.7152 886.071 513.612
1303 0 49.1285 11.0527 543 63.9724 886.112 512.173
1304 0 51.0971 10.8617 555 63.0306 886.216 514.55
1305 0 52.1722 11.4812 599 63.4674 886.286 510.068
1306 0 55.2358 10.8625 600 64.1133 886.533 510.532
1307 0 57.0986 10.2104 583 65.0069 885.602 507.214
1308 0 58.062 10.661 619 64.3263 885.901 509.955
1309 0 60.1416 11.5394 694 63.3991 886.736 509.01
1310 0 64.2252 12.7364 818 62.0281 886.568 505.928
1311 0 66.1733 12.2708 812 63.0308 886.728 503.823
1312 0 66.1639 12.1365 803 63.4421 886.671 504.833
1313 0 69.1125 13.4274 928 62.2748 886.973 502.401
1314 0 72.162 12.7352 919 62.7171 886.337 502.608
1315 0 71.1431 9.95177 708 66.459 886.66 502.107
1316 0 76.1165 11.0357 840 64.9714 886.505 501.606
1317 0 78.1357 12.4399 972 63.3508 886.862 500.3
1318 0 81.1225 11.797 957 64.0491 886.635 498.8
1319 0 82.1657 12.4261 1021 63.7904 886.115 494.554
1320 0 86.2495 11.9653 1032 64.2868 886.044 496.226
1321 1 43.1239 10.3423 446 61.9552 886.061 517.558
1322 0 42.0265 11.1358 468 62.1496 885.756 515.968
1323 0 45.087 10.0251 452 63.0708 885.27 517.316
1324 0 43.0373 9.57309 412 64.6456 886.782 515.847
1325 0 46.0533 11.465 528 62.5038 886.369 513.686
1326 0 47.1033 10.7848 508 63.4783 886.081 512.864
1327 0 50.0393 12.0905 605 61.5091 886.39 511.945
1328 0 52.1155 11.4169 595 61.8286 886.262 510.403
1329 0 52.1018 12.0341 627 61.1659 886.786 509.796
1330 0 54.1508 11.2464 609 62.1199 886.98 508.719
1331 0 56.1115 11.5841 650 61.3015 886.917 508.443
1332 0 57.0827 10.441 596 62.9228 886.886 508.102
1333 0 60.0267 9.92892 596 63.0789 886.956 507.515
1334 0 62.0495 9.23457 573 63.6806 886.798 505.051
1335 0 63.0692 10.6074 669 62.5172 886.783 506.236
1336 0 67.0727 12.5834 844 60.0912 886.49 501.85
1337 0 69.0768 10.4232 720 62.2764 886.814 500.732
1338 0 71.0689 13.1844 937 59.3991 886.72 501.467
1339 0 72.1769 10.8345 782 61.8363 887.075 499.444
1340 0 76.1676 10.9102 831 61.8219 886.863 502.254
1341 0 78.2445 10.8762 851 61.8613 886.651 498.263
1342 1 38.0755 10.7418 409 61.4939 886.293 517.372
1343 0 40.0552 11.9086 477 60.0964 885.551 517.361
1344 0 43.0575 10.8924 469 60.1578 886.224 517.64
1345 0 43.1204 10.3895 448 61.9286 886.156 515.821
1346 0 45.0404 12.8773 580 59.0966 885.447 515.252
1347 0 47.153 12.1307 572 59.6259 886.18 513.754
1348 0 49.0157 10.8129 530 60.8189 886.206 515.906
1349 0 49.1583 11.1476 548 60.8741 886.894 514.374
1350 0 52.1514 11.3707 593 60.3339 886.6 513.182
1351 0 51.1156 9.84043 503 62.5268 886.676 511.326
1352 0 51.1197 9.46798 484 63.1116 886.37 511.24
1353 0 56.141 11.1505 626 60.7987 886.695 509.874
1354 0 56.0891 11.0538 620 60.7629 886.047 511.781
1355 0 59.107 11.2 662 60.7115 885.817 508.234
1356 0 61.1771 11.0499 676 60.8136 885.339 507.114
1357 0 64.1052 12.5107 802 59.0436 885.956 506.608
1358 0 65.2082 12.1457 792 59.1124 885.677 508.386
1359 0 66.1557 9.06952 600 62.0433 885.533 507.27
1360 0 70.2914 10.2573 721 61.3703 885.675 503.609
1361 0 72.1694 11.8887 858 60.3496 886.182 502.538
1362 1 36.0611 9.56711 345 61.0058 885.626 523.519
1363 0 34.0807 9.0667 309 63.4628 885.841 520.294
1364 0 38.0512 12.5883 479 59.501 885.157 520.403
1365 0 38.1124 10.2854 392 63.0893 885.439 518.635
1366 0 39.2152 13.0307 511 60.3444 885.405 520.399
1367 0 41.0292 10.9922 451 62.286 885.146 519.634
1368 0 45.0381 14.0548 633 58.7583 885.97 517.494
1369 0 44.0392 11.7395 517 62.1083 886.565 516.936
1370 0 47.0622 12.4941 588 61.2313 886.424 517.126
1371 0 47.0363 11.927 561 61.8877 886.155 514.929
1372 0 49.0569 11.7415 576 61.8403 885.132 516.302
1373 0 52.0433 12.797 666 60.5 885.599 514.593
1374 0 52.0741 11.4452 596 61.8456 885.696 514.285
1375 0 55.0761 12.3466 680 60.9382 885.788 513.854
1376 0 56.1649 15.3477 862 57.7599 886.058 512.079
1377 0 57.2664 13.0967 750 60.2733 885.744 509.869
1378 0 60.1581 14.3289 862 58.9269 885.687 510.673
1379 0 62.168 12.5145 778 60.7764 885.546 509.591
1380 0 64.4016 12.9655 835 60.3796 885.774 509.671
1381 0 68.1155 13.7707 938 59.7335 885.818 506.758
1382 0 67.1069 12.875 864 61.4502 885.679 505.534
1383 0 71.1013 12.9815 923 60.8559 885.72 504.608
1384 0 72.2215 10.814 781 63.8003 885.548 502.973
1385 0 74.0738 12.582 932 62.0472 886.219 504.84
1386 0 75.1273 12.0862 908 62.8535 886.452 503.26
1387 1 39.0801 12.2825 480 61.7771 884.95 520.831
1388 0 41.1996 12.306 507 61.9408 884.919 520.738
1389 0 42.0969 13.5402 570 61.4105 885.579 520.33
1390 0 43.0259 10.8074 465 63.6581 885.039 521.996
1391 0 44.1355 13.2546 585 61.5453 885.521 519.675
1392 0 46.0929 13.6464 629 61.3498 885.701 519.893
1393 0 48.1823 14.9017 718 59.7967 886.262 517.997
1394 0 50.1708 13.474 676 61.3432 886.124 518.377
1395 0 50.0986 13.4535 674 61.9733 885.831 517.439
1396 0 53.1335 13.7578 731 61.0068 886.296 515.51
1397 0 54.0538 11.4145 617 62.9303 886.306 518.266
1398 0 57.0728 13.0009 742 61.7305 885.837 515.666
1399 0 56.2455 13.4233 755 62.3086 885.248 512.868
1400 0 60.1412 13.7011 824 61.4636 884.795 512.132
1401 0 63.1108 13.5476 855 61.3754 885.751 512.996
1402 0 64.1526 14.5434 933 60.8853 885.729 512.566
1403 0 67.2499 12.9963 874 62.4336 885.953 511.502
1404 0 69.0833 11.5223 796 64.5251 885.371 508.937
1405 0 71.2456 13.7693 981 62.2263 885.78 508.227
1406 0 73.2171 14.0541 1029 62.2002 885.705 504.619
1407 0 75.113 12.0219 903 64.6434 886.152 506.314
1408 0 78.0996 12.5609 981 64.4913 885.987 504.444
1409 1 38.0291 11.4123 434 63.9055 884.94 525.247
1410 0 40.0939 13.5681 544 61.5423 885.585 525.518
1411 0 42.1256 14.3618 605 60.6678 885.921 524.109
1412 0 43.2182 12.3328 533 63.469 885.439 522.099
1413 0 43.1425 13.8147 596 62.3641 885.46 521.285
1414 0 46.0596 11.0075 507 64.1065 885.523 521.759
1415 0 48.0403 12.9891 624 62.6987 885.688 519.381
1416 0 47.1629 13.1247 619 62.9515 885.614 520.165
1417 0 50.1555 14.6145 733 61.1896 886.307 516.476
1418 0 52.163 12.2501 639 63.4992 886.142 517.152
1419 0 53.1032 12.9182 686 62.9242 885.755 516.589
1420 0 56.1179 14.0062 786 61.5382 886.229 514.846
1421 0 57.0998 12.7321 727 63.1266 886.334 514.25
1422 0 59.1691 12.6924 751 63.0053 886.116 512.955
1423 0 62.0937 13.1575 817 62.3403 886.465 513.645
1424 0 62.0898 12.2564 761 63.8042 886.039 511.46
1425 0 64.0619 12.9874 832 63.3606 886.442 511.15
1426 0 69.0867 14.9957 1036 60.8388 886.474 509.703
1427 0 71.0802 15.0253 1068 61.2163 886.404 506.709
1428 0 75.2005 14.8137 1114 61.0799 886.381 507.312
1429 0 75.138 13.9477 1048 62.8931 886.308 506.461
1430 0 78.0928 13.6376 1065 63.4329 886.179 505.199
1431 0 80.1779 13.4202 1076 63.829 886.317 502.206
1432 0 83.216 13.3388 1110 64.427 886.51 502.366
1433 0 86.099 14.0768 1212 63.717 886.804 503.122
1434 1 41.1948 11.5063 474 65.2806 886.23 521.854
1435 0 43.0807 12.8132 552 64.2899 886.255 521.538
1436 0 45.111 12.1922 550 65.2945 886.204 520.069
1437 0 46.2502 12.0864 559 65.4132 886.41 520.072
1438 0 47.0937 12.9104 608 64.2993 886.275 519.345
1439 0 50.1984 13.5064 678 63.5575 886.367 518.184
1440 0 50.0903 14.6935 736 62.8614 886.265 517.587
1441 0 52.1449 14.6323 763 63.3198 886.464 516.463
1442 0 53.2146 11.8764 632 66.163 886.331 516.861
1443 0 57.0787 14.4362 824 62.7512 885.881 515.989
1444 0 58.0722 15.3085 889 62.243 886.6 513.631
1445 0 60.0572 13.9367 837 63.5687 885.958 512.889
1446 0 62.081 12.6287 784 65.199 885.955 511.321
1447 0 64.0957 14.1663 908 63.6575 886.506 512.638
1448 0 68.1201 13.7111 934 63.7238 886.457 510.033
1449 0 70.1182 12.3078 863 65.6651 886.365 510.973
1450 0 70.1372 13.4166 941 65.1913 886.057 508.938
1451 0 74.0848 13.714 1016 64.7096 886.594 507.41
1452 0 77.1444 13.5979 1049 65.0114 886.106 503.338
1453 0 80.1675 14.4947 1162 63.364 886.472 504.13
1454 0 81.1456 12.7179 1032 65.5213 886.464 504.422
1455 0 84.2069 14.1794 1194 64.0134 885.564 499.91
1456 0 89.241 13.5924 1213 64.1995 886.564 498.838
1457 1 43.1099 11.1343 480 65.1458 886.121 522.935
1458 0 44.1004 10.7935 476 66.8908 885.735 517.074
1459 0 47.163 12.5522 592 64.0321 886.064 518.341
1460 0 47.1746 11.68 551 65.2704 886.352 519.1
1461 0 50.2204 11.7084 588 64.2177 886.498 517.034
1462 0 51.0337 12.5603 641 63.6646 886.195 516.084
1463 0 51.1232 10.8757 556 65.786 886.156 516.025
1464 0 54.0914 13.4032 725 63.2455 886.32 513.919
1465 0 55.1781 11.9431 659 64.7147 885.687 512.528
1466 0 58.1496 12.399 721 63.0472 885.813 513.892
1467 0 59.1473 14.2018 840 61.7119 886.155 511.967
1468 0 61.184 13.9742 855 61.5965 886.358 511.261
1469 0 62.2986 12.6167 786 62.9008 886.216 510.858
1470 0 66.1767 13.7964 913 61.3527 885.446 508.103
1471 0 67.198 11.92 801 63.8689 886.075 505.985
1472 0 70.1523 13.0288 914 62.5821 886.402 506.182
1473 0 72.113 13.3679 964 62.1722 886.494 503.341
1474 0 75.1549 12.4144 933 63.3151 886.212 503.278
1475 0 78.2258 13.3076 1041 61.7012 886.221 501.731
1476 0 80.1125 14.7792 1184 60.7492 886.101 500.047
1477 0 83.424 14.7919 1234 60.624 886.019 497.639
1478 0 87.122 13.659 1190 61.574 885.91 497.759
1479 0 87.1154 12.8106 1116 63.6201 886.225 494.23
1480 0 90.0818 14.3092 1289 61.4515 885.906 497.411
1481 0 92.192 13.4285 1238 62.6777 886.908 493.248
1482 1 48.0372 12.1156 582 62.433 886.617 516.409
1483 0 50.1051 11.9549 599 62.5426 886.164 514.892
1484 0 52.102 13.5695 707 60.8685 886.069 514.84
1485 0 55.0659 12.0764 665 62.1098 886.123 513.833
1486 0 54.0537 11.5256 623 63.2889 886.456 512.942
1487 0 55.0944 13.4315 740 61.2392 886.126 513.381
1488 0 55.0264 10.9584 603 64.4577 886.58 510.725
1489 0 59.0647 12.681 749 62.2163 886.812 508.681
1490 0 62.1352 11.0243 685 63.7328 886.98 508.943
1491 0 64.0897 11.9988 769 62.7425 886.348 506.125
1492 0 68.0622 12.4739 849 61.8233 886.276 508.121
1493 0 67.1002 11.8032 792 63.1654 886.135 504.621
1494 0 72.2116 12.8927 931 61.4275 886.091 507.89
1495 0 75.263 13.3665 1006 61.9384 885.85 503.096
1496 0 77.1182 12.5651 969 63.0258 886.039 502.309
1497 0 80.0776 12.5254 1003 63.6002 886.685 500.75
1498 0 82.2021 12.226 1005 63.6239 885.972 500.825
1499 0 84.0751 11.9536 1005 64.5214 886.425 499.307
1500 0 87.1404 13.9086 1212 62.5016 885.643 497.889
1501 0 89.1163 15.6088 1391 49.4989 886.331 499.701
1502 1 46.0251 10.0815 464 64.0259 885.752 517.504
1503 0 50.0486 11.349 568 61.6303 885.974 518.947
1504 0 48.0464 11.1975 538 63.0297 885.97 515.924
1505 0 50.0668 10.486 525 64.4133 886.154 514.787
1506 0 54.1281 10.6968 579 63.2314 886.651 513.333
1507 0 54.0909 11.8874 643 62.5257 886.65 512.546
1508 0 57.1077 12.3101 703 62.3314 885.794 511.683
1509 0 61.0861 12.9489 791 61.115 885.312 510.105
1510 0 60.04 11.3757 683 63.0776 886.215 509.537
1511 0 63.133 12.5925 795 61.7396 885.845 507.587
1512 0 65.1355 12.5891 820 61.1293 885.888 507.39
1513 0 66.1297 12.3092 814 61.5381 886.144 506.684
1514 0 69.0989 12.7498 881 60.9739 886.058 505.07
1515 0 71.0925 11.7875 838 62.2243 886.289 503.759
1516 0 74.0612 12.5302 928 61.4235 886.649 501.716
1517 0 76.1363 12.7928 974 60.7413 885.872 504.255
1518 0 77.0616 11.3675 876 63.5308 886.408 497.232
1519 0 80.067 11.9775 959 63.074 885.88 495.853
1520 0 85.1021 11.9503 1017 61.8574 885.588 501.46
1521 0 85.0959 10.9171 929 64.2788 886.512 496.985
1522 0 90.049 12.682 1142 62.1348 886.069 496.947
1523 0 92.091 11.7927 1086 63.1169 886.726 495.242
1524 1 48.0499 11.821 568 61.5123 885.998 516.327
1525 0 48.1347 10.8653 523 62.8432 886.105 514.656
1526 0 51.0157 11.1534 569 61.2654 886.33 516.186
1527 0 54.0925 12.7559 690 59.5942 886.328 514.246
1528 0 54.0862 11.3892 616 61.7451 885.604 512.503
1529 0 55.0616 11.4781 632 61.6551 885.703 513.804
1530 0 58.1269 11.4749 667 62.093 885.98 511.597
1531 0 61.0504 11.7935 720 61.4403 886 512.297
1532 0 61.0416 13.4171 819 59.9988 885.955 508.828
1533 0 62.0679 10.6657 662 62.8399 885.754 509.571
1534 0 65.1761 12.9035 841 60.6766 886.219 508.699
1535 0 67.2176 11.3363 762 62.2139 885.95 508.528
1536 0 70.071 12.5587 880 61.5841 886.665 505.805
1537 0 72.0618 11.4069 822 62.7689 885.925 504.364
1538 0 75.1218 11.5146 865 62.8925 886.125 504.045
1539 0 79.073 12.4189 982 62.054 885.884 502.186
1540 0 82.133 12.4067 1019 61.7556 885.84 500.953
1541 0 84.0984 13.0561 1098 61.6931 886.238 497.963
1542 0 84.1179 11.5195 969 63.7802 886.27 496.546
1543 1 46.0161 11.1917 515 61.4854 886.221 518.338
1544 0 45.021 9.59553 432 63.5602 885.912 519.701
1545 0 48.0935 9.89738 476 63.1744 886.008 518.588
1546 0 49.0722 10.4744 514 63.1946 887.033 515.578
1547 0 51.1256 11.2859 577 62.4142 886.061 514.92
1548 0 53.0981 11.5635 614 61.5651 886.476 515.055
1549 0 52.0233 11.764 612 62.7631 886.935 512.503
1550 0 53.0242 10.9196 579 64.1071 886.912 510.482
1551 0 56.0295 12.5648 704 62.0312 886.354 509.443
1552 0 59.0678 11.9185 704 62.7116 886.783 510.102
1553 0 60.0431 12.008 721 62.9431 886.164 508.272
1554 0 64.0432 13.3035 852 60.7077 886.347 508.52
1555 0 66.0616 12.2764 811 62.2836 885.695 504.901
1556 0 66.0754 11.6685 771 64.0804 886.787 506.645
1557 0 71.0762 12.7328 905 61.8155 886.434 504.391
1558 0 72.065 11.4341 824 63.5947 886.356 505.358
1559 0 76.0627 11.8455 901 63.7647 886.919 502.112
1560 0 80.1213 13.0677 1047 62.0745 885.776 502.303
1561 0 81.0208 11.602 940 64.7989 886.143 499.239
1562 0 82.0384 11.1533 915 65.3016 885.904 499.607
1563 0 86.0592 12.0963 1041 64.9308 885.657 495.91
1564 1 49.0199 12.1991 598 61.4298 885.41 516.391
1565 0 49.0711 12.1253 595 62.2504 885.919 515.054
1566 0 49.0711 12.1456 596 133.451 886.93 515.027
1567 0 53.0487 12.1586 645 61.2853 885.722 515.82
1568 0 53.0494 11.2537 597 63.4422 885.784 514.643
1569 0 55.0512 11.0624 609 63.4516 885.68 514.407
1570 0 54.0574 11.3028 611 64.4861 885.73 510.889
1571 0 57.0342 10.8882 621 64.6876 885.68 511.378
1572 0 58.0758 10.8307 629 64.6312 886.496 509.397
1573 0 61.0353 12.0094 733 63.045 886.442 509.04
1574 0 62.0645 11.6331 722 63.3906 886.385 509.579
1575 0 64.0733 10.2383 656 65.3537 886.47 508.165
1576 0 66.0806 11.7281 775 64.0194 886.381 506.815
1577 0 69.2178 11.2977 782 64.9795 885.632 506.714
1578 0 71.1309 11.6124 826 64.3547 886.437 506.231
1579 0 71.128 10.6428 757 66.3567 885.893 504.676
1580 0 75.172 12.518 941 64.576 885.806 501.911
1581 0 76.092 11.4598 872 65.7122 886.475 503.786
1582 0 79.0744 10.977 868 66.8963 885.974 499.411
1583 0 83.0955 12.8166 1065 64.7596 886.048 498.36
1584 1 44.0723 11.5265 508 63.1161 886.311 517.722
1585 0 44.053 10.5555 465 63.3312 885.781 519.254
1586 0 46.0408 8.8617 408 64.9559 885.674 518.944
1587 0 47.034 9.97152 469 65.3305 886.245 516.706
1588 0 48.033 11.2006 538 63.6747 885.53 514.474
1589 0 49.0192 11.6893 573 62.9442 885.67 514.805
1590 0 50.0231 11.5547 578 63.7976 886.202 513.256
1591 0 53.0188 11.4111 605 63.3025 885.463 513.602
1592 0 53.111 8.90587 473 66.2896 886.061 511.896
1593 0 57.0597 12.5833 718 62.202 886.017 512.001
1594 0 56.0982 11.6403 653 63.4518 885.559 511.603
1595 0 60.2045 11.0623 666 63.7312 886.009 510.263
1596 0 61.1396 12.3815 757 62.4201 885.959 509.203
1597 0 62.0224 11.3024 701 64.485 885.621 508.076
1598 0 65.0943 10.5847 689 65.3512 885.736 507.286
1599 0 67.1048 11.877 797 63.5734 885.527 506.652
1600 0 68.0635 9.78498 666 66.7883 885.647 503.51
1601 0 71.1516 11.2295 799 65.0138 885.955 502.626
1602 0 71.1052 10.6321 756 66.3122 885.841 502.259
1603 0 76.0654 11.6084 883 65.0181 886.299 502.182
1604 1 36.0077 8.69259 313 65.8562 886.888 521.716
1605 0 40.0282 9.19352 368 65.4375 885.924 520.978
1606 0 43.0423 12.5923 542 61.7288 886.203 518.319
1607 0 42.021 9.66184 406 66.1847 885.81 519.461
1608 0 44.025 10.8348 477 64.7128 885.059 517.495
1609 0 46.0786 11.3719 524 64.124 886.248 516.386
1610 0 50.0193 11.2556 563 63.6554 886.465 515.464
1611 0 50.0458 11.2497 563 64.6678 886.442 514.243
1612 0 52.0112 10.9015 567 64.776 885.928 513.672
1613 0 53.0497 9.82098 521 66.2553 885.374 513.374
1614 0 55.1089 11.7041 645 63.9364 885.169 512.678
1615 0 57.0348 12.9219 737 62.0787 885.863 510.147
1616 0 59.0492 10.4489 617 65.4263 885.4 510.373
1617 0 63.0538 10.8955 687 63.8544 885.378 510.902
1618 0 62.094 11.0961 689 63.926 885.779 509.765
1619 0 64.1328 11.9752 768 63.1133 885.783 508.467
1620 0 65.0434 12.0535 784 63.352 886.191 505.408
1621 0 70.0812 11.929 836 62.3577 886.111 506.37
1622 0 71.1185 10.5177 748 64.6738 885.898 505.247
1623 0 73.0907 11.0958 811 63.5882 885.808 503.483
1624 0 74.2234 10.1316 752 65.2992 886.315 500.308
1625 0 79.0768 11.0652 875 63.9417 886.629 498.534
1626 0 80.2596 10.7028 859 52.7322 885.617 498.722
1627 0 81.122 9.72609 789 66.1698 885.766 494.464
1628 0 85.1549 11.2971 962 64.8025 886.456 495.677
1629 1 44.0547 10.7139 472 61.6949 886.191 516.549
1630 0 43.0229 9.46008 407 63.0491 885.634 515.491
1631 0 46.0405 9.94777 458 62.4148 885.967 516.216
1632 0 48.0795 9.48429 456 63.25 886.318 517.596
1633 0 49.0785 10.2896 505 62.0119 885.402 515.582
1634 0 52.2017 11.6854 610 60.4787 886.048 513.472
1635 0 52.0458 10.6829 556 60.946 885.915 514.597
1636 0 54.0303 8.99496 486 63.0185 885.885 512.768
1637 0 55.1132 9.5077 524 62.5382 885.716 511.214
1638 0 56.1311 9.56689 537 62.3594 886.158 510.227
1639 0 56.0486 9.47392 531 62.9981 885.836 509.872
1640 0 60.1489 8.86135 533 63.0206 885.538 506.535
1641 0 63.1 11.2361 709 59.8392 886.192 508.096
1642 0 64.0952 11.3113 725 59.9172 885.051 508.654
1643 0 66.0837 8.83728 584 62.3408 885.324 505.726
1644 0 69.1089 11.2287 776 60.3286 885.722 504.963
1645 0 72.0984 11.2208 809 60.8294 886.035 503.676
1646 0 74.0604 9.66778 716 62.7193 885.746 499.466
1647 0 78.0962 11.3322 885 61.4994 886.174 500.503
1648 0 80.2033 9.67542 776 62.6521 886.586 498.075
1649 1 38.0326 7.46727 284 61.831 886.134 522.243
1650 0 39.173 8.60287 337 60.454 886.282 521.777
1651 0 41.085 11.1233 457 57.372 886.532 522.142
1652 0 41.0588 9.30373 382 61.0236 886.351 518.914
1653 0 43.0406 9.52588 410 60.7659 885.683 516.851
1654 0 47.0169 11.4852 540 58.6685 885.789 515.457
1655 0 45.0622 9.36484 422 62.0687 885.903 514.083
1656 0 49.0341 10.3805 509 60.5953 885.819 515.438
1657 0 50.0672 10.5259 527 60.6148 885.643 515.173
1658 0 53.0346 10.6157 563 60.7478 885.487 513.456
1659 0 55.1307 9.72235 536 61.5373 885.257 513.535
1660 0 55.03 11.5573 636 60 885.857 511.138
1661 0 58.1807 11.3612 661 59.5522 886.427 510.598
1662 0 59.1165 9.8788 584 61.4178 886.325 509.949
1663 0 60.1562 9.65819 581 61.7401 886.358 510.883
1664 0 63.087 9.82771 620 61.0677 886.166 510.892
1665 0 65.0856 10.5553 687 60.1645 885.997 510.068
1666 0 65.0603 8.43833 549 63.2404 886.455 506.117
1667 0 72.0484 10.3542 746 60.7091 886.18 505.54
1668 0 74.1505 9.66953 717 62.4351 886.389 502.064
1669 0 73.2029 10.3411 757 62.288 886.168 500.165
1670 0 77.0937 12.6469 975 60.0369 885.671 499.282
1671 0 78.1821 11 860 62.1233 886.428 501.762
1672 0 81.2191 10.4532 849 62.3757 886.269 499.929
1673 1 43.1336 9.04169 390 63.7026 887.1 518.672
1674 0 43.0609 9.56784 412 63.7694 887.325 519.078
1675 0 46.0243 10.1251 466 62.588 886.406 514.966
1676 0 45.1001 10.6652 481 61.3181 885.958 515.364
1677 0 49.1296 9.97363 490 62.5714 886.02 516.52
1678 0 49.0968 9.98028 490 63.0429 885.747 516.567
1679 0 50.1326 10.572 530 62.7679 885.996 514.792
1680 0 54.1332 11.5087 623 61.4944 886.536 513.311
1681 0 55.1582 10.4064 574 62.8641 886.657 512.04
1682 0 57.0596 10.7081 611 62.7087 886.746 511.175
1683 0 57.1943 9.75622 558 64.3781 886.387 510.052
1684 0 58.0989 11.1362 647 63.0943 885.257 509.331
1685 0 62.2125 11.8947 740 61.3122 885.427 509.554
1686 0 61.0364 10.8624 663 63.5249 885.872 506.887
1687 0 64.1329 10.6498 683 63.8404 885.75 506.49
1688 0 65.1533 11.496 749 63.0214 885.565 504.226
1689 0 69.0781 11.3784 786 62.8791 885.762 505.704
1690 0 70.1164 10.4255 731 64.4008 886.328 504.635
1691 0 74.2285 10.7102 795 63.5396 885.26 503.635
1692 0 76.0965 12.6156 960 61.3188 885.67 503.061
1693 1 39.079 9.77506 382 63.6623 885.73 518.322
1694 0 39.1061 11.277 441 61.9116 885.404 519.107
1695 0 42.0318 10.5634 444 61.8243 885.676 521.155
1696 0 44.0698 12.2533 540 60.9259 886.039 516.693
1697 0 45.1127 10.8395 489 63.9386 885.873 517.215
1698 0 45.0377 11.1684 503 64.6402 886.078 514.64
1699 0 48.0777 12.355 594 62.495 885.613 513.776
1700 0 48.1037 11.3505 546 64.3425 885.511 512.848
1701 0 49.0621 12.4332 610 63.4049 885.015 513.154
1702 0 52.2325 12.138 634 62.9369 885.535 511.765
1703 0 54.0674 13.0023 703 61.9943 885.586 510.44
1704 0 52.0982 10.7105 558 65.6111 885.781 509.668
1705 0 53.2873 11.3723 606 65.1584 885.682 508.596
1706 0 56.1036 10.748 603 65.7579 885.917 507.478
1707 0 56.1056 11.4071 640 65.4 884.886 505.223
1708 0 60.3139 10.2795 620 65.879 885.919 505.127
1709 0 62.0625 13.1158 814 62.6806 885.256 502.57
1710 0 61.1163 11.4536 700 64.67 885.7 502.089
1711 0 66.0835 12.2572 810 62.9889 885.596 503.273
1712 0 68.1517 13.8661 945 61.072 885.254 497.404
1713 0 71.1696 11.3953 811 63.7645 884.868 500.529
1714 0 70.1696 11.857 832 62.976 884.922 499.992
1715 0 75.367 12.7509 961 61.8054 885.105 499.478
1716 0 77.1877 12.8777 994 61.4346 885.553 499.748
1717 0 79.3017 10.7816 855 64.2257 885.006 497.075
1718 0 83.0967 12.335 1025 62.1044 885.751 494.351
1719 0 87.2013 11.6053 1012 63.1324 885.404 493.249
1720 1 44.211 10.4046 460 62.7652 885.302 518.576
1721 0 44.2732 10.0964 447 64.7785 885.072 515.255
1722 0 48.3119 10.8255 523 64.0688 885.208 514.61
1723 0 49.1473 12.9407 636 62.2343 885.384 513.03
1724 0 51.0906 11.9983 613 63.186 885.163 513.918
1725 0 52.4104 14.3483 752 60.5013 885.868 513.528
1726 0 54.0984 12.3294 667 62.9895 886.309 512.852
1727 0 57.0856 12.7353 727 62.7854 886.135 510.179
1728 0 57.1424 12.3551 706 63.6487 885.367 508.909
1729 0 59.3956 11.8022 701 64.1484 885.167 510.188
1730 0 62.2208 12.9378 805 62.3317 885.186 508.945
1731 0 62.1782 12.4963 777 64.1184 884.995 506.949
1732 0 66.2414 13.481 893 62.2766 885.542 506.498
1733 0 68.1572 15.1708 1034 60.4468 885.414 503.847
1734 0 70.1704 13.8947 975 61.7733 885.551 504.862
1735 0 72.1751 12.6498 913 63.3527 885.136 504.14
1736 0 74.1908 11.6726 866 65.1917 885.557 500.199
1737 0 77.339 13.3697 1034 62.6489 885.791 498.234
1738 0 79.0829 11.6713 923 65.2199 885.691 499.47
1739 0 82.2778 13.187 1085 63.6802 886.39 498.16
1740 1 42.034 10.3963 437 65.5652 885.849 516.812
1741 0 46.153 10.8335 500 66.056 885.608 514.624
1742 0 47.0498 12.7312 599 64.1452 885.492 513.654
1743 0 48.1337 11.1356 536 65.5187 884.897 514.146
1744 0 49.1958 10.4684 515 67.4757 885.579 513.468
1745 0 48.1005 10.6652 513 67.9903 885.826 510.187
1746 0 52.0807 11.1942 583 66.5317 885.758 509.873
1747 0 55.0928 13.1596 725 63.4745 885.574 511.825
1748 0 56.0767 11.1455 625 66.5136 885.789 508.357
1749 0 56.0481 10.4196 584 67.3613 885.938 510.56
1750 0 60.1022 12.146 730 64.9699 885.7 507.007
1751 0 62.1069 11.0133 684 66.3904 886.295 508.142
1752 0 65.0671 10.5737 688 66.3459 885.408 507.144
1753 0 66.0663 10.2473 677 66.9675 885.272 506.397
1754 0 68.0345 13.2874 904 63.3816 885.685 502.368
1755 0 68.0868 11.3825 775 66.0168 886.784 500.057
1756 0 74.0564 12.6795 939 63.4121 886.937 500.601
1757 0 74.0642 11.8681 879 64.8737 886.395 500.175
1758 0 79.0928 12.1629 962 63.9158 886.29 496.288
1759 0 83.2707 14.3988 1199 60.9166 886.428 497.016
1760 0 83.0468 11.8969 988 64.248 885.622 495.279
1761 0 86.0883 12.8357 1105 63.2208 886.579 491.68
1762 0 89.0757 13.6625 1217 61.8135 886.117 491.572
1763 0 91.1474 10.9164 995 64.7126 886.304 491.117
1764 0 96.1193 11.2985 1086 64.3333 886.091 490.755
1765 1 50.0213 10.4755 524 62.0324 886.429 512.87
1766 0 54.1188 9.8487 533 61.7749 886.143 512.398
1767 0 54.0679 10.9122 590 61.3492 886.119 510.827
1768 0 58.0603 12.5904 731 59.1094 886.279 508.845
1769 0 56.1122 11.6909 656 61.0594 886.387 506.604
1770 0 60.0753 10.6699 641 61.0203 886.485 511.133
1771 0 62.1619 10.9231 679 61.1826 885.789 506.191
1772 0 63.0446 9.13639 576 63.4306 886.257 505.497
1773 0 66.0908 9.68365 640 62.3688 886.164 505.786
1774 0 67.0591 11.3631 762 60.5013 885.537 501.677
1775 0 71.0308 11.7836 837 59.8303 885.438 503.293
1776 0 74.1234 11.5753 858 59.9103 886.01 500.865
1777 0 76.129 12.9386 985 58.133 885.713 501.082
1778 0 78.23 11.773 921 59.924 885.473 496.575
1779 0 82.0459 10.7013 878 60.3554 885.388 497.52
1780 0 84.1377 11.7902 992 59.496 885.733 492.239
1781 1 42.0712 7.77254 327 59.419 885.801 514.37
1782 0 44.0116 8.77042 386 57.6632 884.459 516.052
1783 0 44.0446 8.85465 390 57.9769 885.008 515.062
1784 0 47.1314 10.354 488 56.1455 885.205 514.564
1785 0 48.0692 9.17427 441 57.9864 885.458 514.238
1786 0 48.015 10.5592 507 57.4024 884.915 510.572
1787 0 48.0436 8.30496 399 59.8722 884.732 511.429
1788 0 50.0505 8.49142 425 59.52 883.882 510.207
1789 0 53.0584 9.49896 504 58.2202 884.758 509.853
1790 0 54.0486 9.08441 491 58.7821 885.352 504.784
1791 0 57.2145 9.99747 572 57.3339 885.916 506.143
1792 0 58.0884 8.38377 487 58.5688 885.361 507.084
1793 0 59.0531 8.17908 483 58.7681 884.994 506.014
1794 0 60.0752 9.38824 564 57.6543 884.649 505.91
1795 0 63.1333 9.4245 595 57.3092 884.933 500.662
1796 0 64.1813 8.92784 573 58.0873 885.086 502.602
1797 0 67.0861 9.45054 634 57.612 885.459 501.237
1798 0 71.3309 9.14049 652 57.1549 885.101 499.242
1799 0 71.3104 9.88636 705 56.6865 884.967 498.543
1800 0 71.2093 8.6646 617 58.6402 885.029 495.817
1801 0 76.3904 8.46965 647 58.0974 884.913 495.938
1802 0 79.2754 8.6786 688 58.2442 885.102 494.397
1803 0 86.2239 11.9804 1033 54.3388 885.417 493.1
1804 1 45.0892 7.09704 320 56.8719 884.734 515.338
1805 0 49.0615 8.74413 429 54.5828 884.806 515.762
1806 0 51.0367 8.54288 436 55.3119 885.22 512.651
1807 0 52.0386 9.72354 506 54.3182 884.468 509.603
1808 0 55.0362 9.46649 521 54.2035 884.217 508.917
1809 0 53.052 9.40586 499 55.0341 884.293 508.697
1810 0 53.0286 9.2403 490 55.0755 884.361 506.782
1811 0 57.0717 9.19896 525 54.9886 884.065 508.2
1812 0 59.0881 10.3913 614 53.4788 884.573 507.764
1813 0 61.1019 11.0798 677 52.4874 884.996 506.622
1814 0 62.088 9.19662 571 54.6357 884.543 505.697
1815 0 63.034 8.88409 560 54.9839 884.43 506.236
1816 0 64.0648 8.42896 540 55.8278 884.33 502.365
1817 0 68.0443 10.1551 691 53.6035 884.342 504.496
1818 0 69.0673 9.67173 668 53.753 884.214 504.885
1819 0 71.093 9.7056 690 53.6696 884.574 500.614
1820 0 74.0562 7.72386 572 54.3444 885.455 505.864
1821 0 76.1026 8.19946 624 55.3285 884.825 496.09
1822 0 78.2072 10.9709 858 53.5466 885.284 496.5
1823 1 40.0396 9.7903 392 52.324 884.628 515.745
1824 0 40.009 7.64828 306 53.8954 884.902 517.804
1825 0 42.0749 6.98753 294 54.2415 885.459 516.837
1826 0 42.0194 8.73405 367 53.2425 885.237 514.597
1827 0 46.0414 8.68782 400 52.8225 885.268 514.615
1828 0 45.1023 11.3741 513 51.5497 885.164 513.456
1829 0 44.0297 7.15426 315 56.454 884.264 513.019
1830 0 46.0667 8.66135 399 57.5664 884.336 512.526
1831 0 50.1373 9.25458 464 56.6164 884.312 507.737
1832 0 52.1497 8.85911 462 57.7164 884.175 509.249
1833 0 53.0517 10.4803 556 56.714 884.282 509.617
1834 0 57.0738 10.1623 580 56.8569 883.983 508.638
1835 0 60.1573 10.5557 635 56.1417 884.197 509.679
1836 0 62.1152 10.9796 682 56.2742 883.988 510.414
1837 0 63.0468 11.4042 719 56.0195 884.051 506.602
1838 0 63.0783 10.2095 644 58.0248 884.554 503.812
1839 0 65.0876 10.6779 695 56.0043 884.541 504.239
1840 0 68.1846 10.0316 684 56.579 884.845 505.333
1841 0 70.1205 12.1077 849 54.6231 884.946 504.02
1842 0 72.11 11.9956 865 55.0613 884.694 502.205
1843 0 75.0938 13.5697 1019 53.5918 884.316 500.477
1844 0 76.1109 8.75039 666 59.036 884.462 501.216
1845 0 79.3124 11.751 932 56.2414 885.08 497.483
1846 0 81.0717 12.0141 974 55.7885 884.811 497.734
1847 1 43.0144 9.32246 401 56.6035 883.618 522.444
1848 0 43.0875 9.49231 409 58.2567 884.308 518.186
1849 0 43.1186 10.7378 463 56.9546 883.728 518.648
1850 0 46.037 11.8817 547 55.5064 884.119 516.426
1851 0 46.0372 11.3169 521 57.2226 884.578 515.106
1852 0 49.0692 13.43 659 54.4264 884.328 514.244
1853 0 50.0386 12.4904 625 55.7296 884.296 514.222
1854 0 51.0205 11.4856 586 56.7116 884.592 514.52
1855 0 54.0963 11.3317 613 56.4845 883.625 513.755
1856 0 55.1082 11.0328 608 57.4062 884.117 510.715
1857 0 56.0605 13.2892 745 55.6658 884.706 508.706
1858 0 57.0519 11.0776 632 57.9953 885.054 511.614
1859 0 56.0718 12.0381 675 57.8267 884.548 506.836
1860 0 59.1824 11.4561 678 58.6755 884.785 507.761
1861 0 61.0676 12.609 770 57.2636 884.387 509.264
1862 0 61.0301 12.1088 739 58.2693 884.319 508.84
1863 0 65.0972 13.0574 850 56.6965 885.369 508.493
1864 0 68.0751 12.5156 852 57.5528 885.024 505.448
1865 0 67.0698 11.7042 785 59.1274 885.004 504.493
1866 0 68.1007 12.5696 856 58.6192 885.176 502.646
1867 0 70.071 11.3028 792 59.4924 884.88 503.852
1868 0 73.1175 11.8987 870 58.8644 884.906 502.457
1869 0 76.1205 11.2847 859 59.8906 885.399 500.827
1870 0 77.1943 10.8298 836 60.5 885.017 500.594
1871 0 81.1735 13.3418 1083 58.3019 885.128 498.557
1872 0 82.1609 14.2282 1169 57.2395 885.423 499.298
1873 0 86.0926 12.6376 1088 59.0542 885.575 498.319
1874 1 47.0807 10.5988 499 60.1503 884.828 515.319
1875 0 47.0632 11.7289 552 59.3424 884.85 514.476
1876 0 47.072 11.3868 536 60.6157 884.808 513.209
1877 0 49.0607 12.0055 589 60.4635 884.615 512.942
1878 0 53.0391 11.3124 600 61.14 884.83 512.408
1879 0 56.0302 11.4938 644 60.3044 885.284 512.469
1880 0 56.1522 12.199 685 60.1139 885.374 510.974
1881 0 57.0196 12.3992 707 60.4158 884.741 508.791
1882 0 59.0596 13.0038 768 59.8893 884.583 507.914
1883 0 60.1457 11.788 709 61.8223 884.714 506.358
1884 0 63.06 14.1453 892 59.157 884.873 505.572
1885 0 64.0637 13.471 863 60.3743 885.006 505.645
1886 0 66.0427 11.9771 791 62.469 885.01 504.536
1887 0 69.16 14.0399 971 59.9629 885.689 501.652
1888 0 71.0421 11.9225 847 62.7686 884.75 502.952
1889 0 73.1063 11.75 859 62.8522 884.749 503.161
1890 0 75.126 13.0048 977 61.824 884.381 500.525
1891 0 76.1124 12.4947 951 63.1788 884.43 497.437
1892 0 79.2102 13.8492 1097 61.5533 884.652 496.084
1893 0 82.1268 13.4183 1102 62.6289 884.832 494.414
1894 0 84.0507 12.1355 1020 64.9853 884.868 496.126
1895 0 87.1274 12.4416 1084 64.9022 884.879 495.159
1896 0 90.0576 15.1459 1364 61.4619 885.236 493.914
1897 1 44.0334 10.651 469 63.6994 885.981 515.778
1898 0 45.0735 10.0724 454 64.2203 885.341 515.901
1899 0 46.0268 10.646 490 64.3265 885.355 513.863
1900 0 49.0507 9.98966 490 64.6571 884.724 513.845
1901 0 49.0643 12.9626 636 61.934 884.98 511.132
1902 0 51.0442 11.5586 590 61.9712 885.161 513.795
1903 0 52.043 11.4521 596 63.297 886.039 511.327
1904 0 51.0395 10.9131 557 64.1921 885.89 510.066
1905 0 57.0755 12.4922 713 61.4853 885.453 508.129
1906 0 56.1462 11.5057 646 62.483 885.313 510.104
1907 0 57.0739 10.3199 589 64.107 885.591 506.868
1908 0 60.0506 10.6077 637 63.6358 885.506 504.377
1909 0 62.0698 11.8415 735 62.6993 885.586 502.901
1910 0 66.0786 12.8332 848 60.6274 885.932 504.586
1911 0 66.2072 12.8385 850 61.3059 885.551 502.341
1912 0 68.0696 12.4872 850 61.4718 885.547 502.133
1913 0 71.0742 11.1855 795 62.5799 884.834 501.423
1914 0 73.0516 12.4296 908 61.8326 885.323 498.882
1915 0 74.1014 11.2009 830 63.9735 885.192 497.186
1916 0 77.0466 11.0972 855 64.0608 885.495 496.359
1917 0 79.1282 12.6124 998 62.4038 885.514 495.417
1918 0 81.0955 12.1955 989 63.0222 885.818 496.318
1919 0 85.0865 10.4599 890 64.7685 885.178 495.524
1920 0 86.1894 11.8112 1018 63.8477 885.1 493.824
1921 0 88.1443 11.4244 1007 64.6385 885.373 488.169
1922 1 48.0317 10.3473 497 61.6901 884.813 513.598
1923 0 46.0796 9.30998 429 63.951 885.471 513.042
1924 0 48.0852 9.77432 470 63.0149 885.211 513.747
1925 0 50.0449 11.7095 586 61.1997 885.498 513.212
1926 0 52.0626 10.6795 556 62.4173 885.552 512.167
1927 0 54.1246 9.9585 539 63.1113 885.449 508.894
1928 0 54.1141 10.829 586 62.6741 885.633 509.932
1929 0 60.1335 9.76161 587 62.6133 884.748 511.089
1930 0 60.0901 11.1166 668 62.4296 885.148 508.972
1931 0 61.1378 10.0756 616 63.4675 885.166 509.36
1932 0 64.0481 10.6014 679 63.0619 885.068 507.67
1933 0 64.0465 10.6954 685 62.8876 885.114 507.025
1934 0 68.0412 11.6841 795 62.6704 884.605 503.932
1935 0 68.097 10.0592 685 64.1577 885.08 505.111
1936 0 70.107 13.6506 957 61.4107 884.306 500.38
1937 0 75.0747 11.2421 844 63.5782 883.409 503.165
1938 0 77.104 10.6739 823 65.1154 883.789 499.07
1939 0 78.0581 10.5178 821 64.9744 884.093 501.448
1940 0 81.1304 12.1779 988 64.0152 884.579 497.884
1941 0 82.0558 10.0907 828 65.8273 884.163 500.225
1942 0 85.1613 11.4136 972 65.0638 883.378 498.689
1943 0 90.0876 10.8561 978 65.9652 883.786 495.848
1944 0 92.0869 10.6856 984 66.5752 884.315 494.416
1945 0 95.1111 11.1659 1062 66.2938 882.884 493.388
1946 0 92.1471 9.99489 921 68.9327 883.085 485.584
1947 0 88.1051 8.97792 791 70.6624 883.412 479.186
1948 1 50.0575 10.1483 508 72.1929 883.02 463.325
1949 1 82.0565 3.88756 319 77.7555 883.715 473.373
1950 1 55.0567 10.244 564 72.2181 883.692 456.624
1951 0 54.0539 9.71253 525 66.2514 882.855 507.472
1952 0 59.0545 9.7537 576 64.7413 881.689 511.708
1953 0 60.1133 10.6632 641 63.936 882.537 510.942
1954 0 62.0443 11.3628 705 63.8156 882.271 509.467
1955 0 65.059 10.283 669 64.6831 882.659 507.794
1956 0 67.0556 12.1392 814 63.3194 883.187 503.84
1957 0 70.0536 11.7482 823 63.5747 883.791 503.667
1958 0 72.0488 11.0064 793 64.4931 883.864 502.883
1959 0 74.0982 10.2027 756 65.4577 883.874 503.384
1960 0 77.1033 11.8931 917 64.144 883.644 498.815
1961 0 82.0863 11.2443 923 64.4713 883.406 498.299
1962 0 84.0391 11.4352 961 64.9136 883.81 496.338
1963 0 88.4464 11.962 1058 63.6257 884.635 499.311
1964 0 89.1754 11.4493 1021 65.761 884.494 491.847
1965 0 93.1461 11.9382 1112 64.6385 884.103 492.042
1966 1 48.0894 8.4426 406 63.9458 884.665 514.668
1967 0 52.0794 10.6184 553 62.1628 884.624 512.486
1968 0 53.0812 10.4368 554 62.343 884.087 511.332
1969 0 54.0549 11.2848 610 61.8049 884.879 509.78
1970 0 57.0813 12.0355 687 60.0772 884.361 510.291
1971 0 57.1032 10.4372 596 62.3339 884.349 508.198
1972 0 61.0712 11.1509 681 60.928 884.824 508.15
1973 0 61.0722 11.5437 705 60.6723 884.392 506.872
1974 0 61.1741 8.71284 533 63.743 884.492 504.36
1975 0 65.0589 9.34538 608 62.5658 884.597 502.467
1976 0 66.1281 10.9182 722 61.036 884.989 502.13
1977 0 68.1338 9.17313 625 63.248 885.04 497.653
1978 0 72.1809 11.7483 848 60.7134 884.953 497.06
1979 0 73.3033 12.0595 884 59.7602 885.796 501.014
1980 0 77.1399 8.30958 641 63.6521 885.301 498.119
1981 0 80.0643 11.2909 904 60.7445 885.234 498.19
1982 0 83.1395 9.64644 802 63.2868 885.519 492.521
1983 0 85.1522 11.4266 973 61.2189 886.003 493.872
1984 1 47.1275 10.2063 481 60.7401 885.462 512.008
1985 0 51.1389 9.87506 505 60.6257 885.339 511.968
1986 0 51.161 11.1804 572 60.1364 885.463 510.61
1987 0 52.0764 10.235 533 60.6904 886.375 510.304
1988 0 54.0539 11.5255 623 59.321 885.782 509.231
1989 0 56.0816 11.7864 661 58.7126 885.794 507.617
1990 0 58.023 11.5816 672 59.2932 885.646 506.954
1991 0 58.2035 8.96853 522 62.0594 885.303 505.845
1992 0 61.0701 11.7242 716 59.1927 885.462 505.92
1993 0 62.0555 11.0707 687 59.4352 886.221 505.796
1994 0 65.0527 11.237 731 59.4405 885.999 502.436
1995 0 67.1239 10.8456 728 59.8613 887.093 503.331
1996 0 69.0246 11.5031 794 59.7645 885.583 498.27
1997 0 72.1481 10.9636 791 59.7826 885.709 500.724
1998 0 73.0686 11.934 872 59.8222 885.682 498.565
1999 0 78.1323 11.7621 919 58.6028 886.175 499.053
2000 0 79.105 10.9854 869 60.504 885.914 495.231
2001 0 83.152 13.0845 1088 57.5588 886.142 496.341
2002 0 84.0974 11.5461 971 59.7662 885.802 492.335
2003 0 87.1235 10.2498 893 61.346 885.488 494.438
2004 0 90.137 11.0609 997 60.9288 885.981 492.038
2005 1 46.0238 8.43042 388 61.0567 885.693 506.781
2006 0 49.0604 9.11122 447 59.906 885.358 512.83
2007 0 51.023 10.5835 540 58.7093 885.209 511.17
2008 0 50.052 9.59002 480 61.3167 885.527 507.492
2009 0 54.0807 11.0576 598 59.485 885.784 509.498
2010 0 55.0626 11.7139 645 59.8496 885.609 505.088
2011 0 56.0564 11.0068 617 60.2399 885.467 506.893
2012 0 58.1012 11.9275 693 58.9639 885.281 505.27
2013 0 60.1555 11.1212 669 59.6487 885.127 504.408
2014 0 64.1111 11.3397 727 59.0385 884.553 504.813
2015 0 61.0602 8.7946 537 62.121 884.452 505.104
2016 0 65.0608 10.3134 671 60.0998 884.553 499.036
2017 0 68.0401 11.0817 754 59.2096 884.959 504.898
2018 0 71.1163 12.9787 923 57.688 885.496 499.49
2019 0 73.0826 13.0264 952 57.0231 885.042 501.522
2020 0 74.2414 13.4426 998 57.7776 885.154 498.702
2021 0 73.2061 10.5183 770 61.9675 884.723 494.622
2022 0 79.269 13.3722 1060 58.583 885.684 497.508
2023 0 80.1666 11.5135 923 61.6836 884.951 493.613
2024 0 84.1746 11.6068 977 61.5363 885.406 493.514
2025 0 86.4223 11.4091 986 62.4787 884.827 493.191
2026 0 88.1442 11.9009 1049 61.5948 884.999 491.937
2027 1 45.0518 10.1439 457 61.2451 884.742 512.144
2028 0 47.1775 10.2167 482 60.8838 884.649 511.537
2029 0 47.23 10.6077 501 61.4711 884.315 510.84
2030 0 51.0716 11.5328 589 59.5008 884.166 511.207
2031 0 50.2102 9.9183 498 62.4337 884.353 510.564
2032 0 52.1356 12.2373 638 60.1066 884.382 507.727
2033 0 53.0657 11.5706 614 60.1531 884.249 509.358
2034 0 54.0536 10.4156 563 61.4334 884.265 509.693
2035 0 57.0637 10.8125 617 61.1151 884.699 505.426
2036 0 56.1057 11.0862 622 60.4228 884.252 511.159
2037 0 61.1243 12.1883 745 59.5208 884.404 506.455
2038 0 62.0367 11.2353 697 60.3171 884.712 507.95
2039 0 64.0905 12.0767 774 60.1163 885.054 505.487
2040 0 65.0404 12.4846 812 59.9569 884.914 506.041
2041 0 66.0594 10.8387 716 62.3212 884.258 504.912
2042 0 70.1421 11.4482 803 61.7385 884.418 504.549
2043 0 72.1902 13.2566 957 59.9916 883.879 503.119
2044 0 74.0564 13.8678 1027 59.8393 883.64 498.091
2045 0 77.1442 11.7183 904 61.7821 884.303 499.817
2046 0 77.1147 10.4001 802 64.5524 884.19 494.561
2047 0 81.1886 12.083 981 62.6667 883.926 494.151
2048 1 44.0389 9.10558 401 63.2943 883.955 515.544
2049 0 45.1133 8.73357 394 63.6066 884.256 514.216
2050 0 50.0537 12.0271 602 60.6179 883.424 512.42
2051 0 49.0528 11.2124 550 62.4382 882.989 511.089
2052 0 50.054 10.5686 529 62.4102 883.885 512.994
2053 0 50.0509 8.0518 403 65.6204 883.581 510.868
2054 0 53.1011 12.5233 665 60.6241 883.54 507.964
2055 0 56.1517 12.5375 704 60.4318 883.216 509.571
2056 0 57.0564 11.1469 636 63.1321 883.197 507.101
2057 0 59.0592 10.7011 632 63.1915 882.745 508.508
2058 0 60.071 10.0381 603 64.0995 882.776 509.29
2059 0 62.0327 10.4461 648 64.3565 883.218 503.622
2060 0 65.0962 11.7979 768 64.1289 883.418 505.801
2061 0 65.1426 9.9474 648 66.1698 883.551 506
2062 0 66.1815 11.4231 756 65.1918 883.843 500.939
2063 0 69.0556 9.52856 658 66.9924 882.962 501.129
2064 0 70.1205 10.7957 757 65.7873 883.522 501.769
2065 0 74.1374 12.3959 919 63.9347 883.818 501.362
2066 0 75.131 10.5549 793 65.9798 883.57 501.411
2067 0 79.1879 12.2241 968 63.8946 883.403 500.332
2068 0 84.1235 12.7313 1071 62.9421 883.302 500.585
2069 0 86.0964 12.1608 1047 64.5444 883.615 496.108
2070 0 89.1462 12.4515 1110 64.4856 883.203 496.024
2071 0 89.1436 11.7563 1048 65.9408 883.195 493.47
2072 0 94.2194 13.1183 1236 64.2686 883.013 494.489
2073 1 48.0511 11.8208 568 64.206 883.35 512.806
2074 0 53.1326 12.3653 657 62.2572 883.099 513.606
2075 0 48.1766 9.00853 434 67.6751 882.942 510.747
2076 0 52.0606 9.37369 488 66.8463 883.244 510.766
2077 0 54.064 12.2263 661 63.0121 883.021 509.731
2078 0 55.0913 10.2739 566 65.3869 882.604 509.521
2079 0 57.085 9.98512 570 65.4175 882.807 506.332
2080 0 60.0597 12.088 726 63.1694 882.704 506.562
2081 0 59.0516 10.6178 627 64.8612 883.104 505.502
2082 0 64.1248 10.4484 670 64.3507 883.488 506.367
2083 0 63.1615 8.89783 562 66.4822 883.092 504.091
2084 0 67.1264 11.307 759 63.9302 882.866 500.47
2085 0 70.0595 12.0469 844 62.5533 883.399 500.224
2086 0 71.0729 11.256 800 63.4425 883.838 501.575
2087 0 75.0615 12.5897 945 61.8995 882.943 499.219
2088 0 77.084 11.3253 873 63.7297 883.333 496.289
2089 0 79.1442 11.0558 875 64.6 883.136 493.217
2090 0 81.111 8.96302 727 67.1609 883.553 494.034
2091 0 85.1764 9.41575 802 66.2643 883.343 494.209
2092 0 88.1978 11.9617 1055 63.8294 883.71 493.9
2093 0 91.1939 11.2836 1029 65.1759 883.452 490.616
2094 0 91.0784 11.0235 1004 66.1285 883.828 488.465
2095 0 98.0817 12.3876 1215 64.5333 883.414 490.348
2096 0 97.1324 10.0687 978 67.8241 883.6 488.42
2097 1 53.0175 9.41199 499 65.1082 883.812 511.766
2098 0 55.0722 9.75084 537 65.229 883.412 508.328
2099 0 56.1695 9.89861 556 64.6835 883.475 509.137
2100 0 59.0555 10.1599 600 64.2033 883.607 510.753
2101 0 62.0828 10.8565 674 64.3427 883.76 507.067
2102 0 64.2946 10.4363 671 64.0998 883.21 506.858
2103 0 66.0736 10.6699 705 64.0369 883.784 505.282
2104 0 69.1488 11.9308 825 62.7224 884.091 505.433
2105 0 73.0829 11.6169 849 62.5901 883.975 505.015
2106 0 73.1019 11.5455 844 63.4005 883.75 499.161
2107 0 78.1953 10.8958 852 63.2383 883.542 502.016
2108 0 81.1162 12.8951 1046 61.4168 883.784 497.896
2109 0 81.1239 10.823 878 64.9123 883.765 495.749
2110 0 84.1731 10.5259 886 64.8307 883.03 495.327
2111 0 89.0926 12.7059 1132 62.0274 883.01 493.279
2112 0 91.1041 10.8228 986 64.7708 883.659 493.521
2113 0 96.0995 10.8637 1044 64.636 883.055 491.679
2114 1 50.0788 9.70471 486 62.9362 883.554 515.942
2115 0 53.0349 11.9732 635 61.7386 883.189 512.29
2116 0 54.0651 11.2642 609 62.3071 883.673 511.966
2117 0 57.129 11.4478 654 62.2018 883.063 511.639
2118 0 57.0393 12.8333 732 61.6025 883.208 509.951
2119 0 60.0912 11.649 700 63.3843 883.446 507.336
2120 0 61.0515 12.8908 787 62.1626 882.586 506.15
2121 0 62.0513 11.4099 708 64.3644 882.712 508.158
2122 0 64.0427 11.7422 752 64.2753 883.286 506.347
2123 0 68.1896 10.5881 722 64.9862 883.398 506.393
2124 0 68.1497 11.1079 757 64.5271 883.37 506.112
2125 0 72.0536 12.6295 910 62.9506 883.965 504.184
2126 0 73.1003 12.6538 925 63.9859 883.41 500.056
2127 0 76.0593 10.7942 821 65.5055 883.172 498.754
2128 0 79.0653 13.0272 1030 63.3951 882.926 498.116
2129 0 82.1868 12.0092 987 64.3658 882.948 497.611
2130 0 84.1311 10.5074 884 65.6448 883.209 499.863
2131 0 87.226 11.7969 1029 64.8785 883.027 494.728
2132 1 39.0146 9.27859 362 66.1796 883.42 514.892
2133 0 44.0658 9.59928 423 64.0898 883.688 516.397
2134 0 45.0527 11.6752 526 63.2395 883.245 514.808
2135 0 47.0606 9.2009 433 66.8684 883.596 515.146
2136 0 47.0667 11.1969 527 65.0493 883.123 514.414
2137 0 49.0314 11.2581 552 65.0344 883.754 513.174
2138 0 50.0831 12.5991 631 64.1997 883.913 509.626
2139 0 53.0406 12.5564 666 63.3799 883.569 508.911
2140 0 54.0189 12.6808 685 63.3854 883.955 510.572
2141 0 54.0768 11.4467 619 64.6139 883.155 510.33
2142 0 57.1836 12.1363 694 63.6527 883.461 508.584
2143 0 60.1618 11.5854 697 64.2453 882.983 505.792
2144 0 61.1241 12.1556 743 63.2248 883.101 505.779
2145 0 64.0385 12.4925 800 62.7912 883.401 505.316
2146 0 65.0672 12.6331 822 62.7348 883.154 505.742
2147 0 66.0536 13.3528 882 62.4626 882.97 502.422
2148 0 70.0826 11.6719 818 63.7604 883.117 501.263
2149 0 68.0288 10.7896 734 65.7847 882.856 501.646
2150 0 74.1364 12.3016 912 63.2993 883.269 498.195
2151 0 76.1109 12.1139 922 63.4707 882.441 498.872
2152 0 78.0558 13.2854 1037 61.9171 882.722 496.232
2153 0 81.1287 9.57737 777 66.9627 883.226 497.696
2154 1 40.0261 7.71997 309 64.1553 882.359 518.595
2155 0 39.0656 11.1607 436 60.4037 882.803 515.674
2156 0 42.0199 9.6145 404 61.7525 882.037 515.507
2157 0 43.0238 9.45989 407 62.6486 882.02 512.577
2158 0 45.0585 12.9831 585 58.1265 882.412 511.26
2159 0 44.039 9.99114 440 62.0455 882.264 513.905
2160 0 47.0164 10.2305 481 62.0374 882.742 514.191
2161 0 45.0802 8.76216 395 64.4633 881.83 511.023
2162 0 51.0699 9.61428 491 62.0978 883.9 511.136
2163 0 51.0404 11.8925 607 59.3591 884.166 510.613
2164 0 51.1282 11.4614 586 59.3362 883.778 511.932
2165 0 53.0971 11.2247 596 58.5772 883.777 509.455
2166 0 55.0763 11.3842 627 58.2807 884.003 509.691
2167 0 55.0982 10.3815 572 59.6276 883.414 511.32
2168 0 58.0624 10.3165 599 59.9866 884.207 508.756
2169 0 62.1717 11.05 687 58.4862 883.731 509.463
2170 0 62.163 11.2446 699 58.1674 883.876 508.395
2171 0 65.1709 9.95844 649 59.9507 883.783 501.701
2172 0 67.0831 11.5976 778 57.6195 883.144 504.728
2173 0 69.1125 11.0544 764 58.1571 882.751 500.624
2174 0 73.1706 10.6327 778 58.3856 883.023 500.2
2175 0 74.1499 9.73703 722 59.3296 882.474 498.46
2176 1 38.1736 10.0855 385 57.026 883.127 515.203
2177 0 40.0806 10.8781 436 55.6812 883.062 515.33
2178 0 40.0725 8.16021 327 59.0489 883.416 513.538
2179 0 40.2258 9.4964 382 57.3325 883.361 514.67
2180 0 45.0841 10.3806 468 56.1795 883.759 513.6
2181 0 45.1117 10.2413 462 56.3593 883.336 514.489
2182 0 45.0952 9.6019 433 57.1178 883.624 514.774
2183 0 48.0266 9.49474 456 57.1447 883.629 512.783
2184 0 52.0244 10.6296 553 55.5118 883.501 513.338
2185 0 55.1111 11.6673 643 52.3997 882.821 516.367
2186 0 54.0642 11.8563 641 54.3963 883.807 509.401
2187 0 55.0333 8.41309 463 58.3283 884.134 506.86
2188 0 57.0929 10.2114 583 55.8645 883.156 509.197
2189 0 60.0586 10.3399 621 55.6506 882.599 508.314
2190 0 61.0804 9.6594 590 57.178 882.656 507.437
2191 0 61.1241 10.8468 663 56.632 882.466 504.347
2192 0 66.2345 11.2328 744 55.6277 882.754 505.323
2193 0 69.1093 13.0807 904 53.8883 883.346 501.676
2194 0 70.1771 11.927 837 55.4229 883.4 502.921
2195 0 69.1581 10.8303 749 57.5274 883.579 500.778
2196 0 75.1948 10.8518 816 57.0343 884.044 498.478
2197 0 77.3013 10.8407 838 56.7685 882.92 497.982
2198 0 80.284 10.276 825 57.3164 882.648 498.678
2199 0 82.4083 10.8848 897 56.641 883.001 498.71
2200 0 85.168 10.7317 914 56.7462 882.577 498.126
2201 1 43.0679 8.63753 372 58.5242 881.769 513.876
2202 0 45.0903 9.82472 443 57.0023 882.336 515.991
2203 0 47.0732 10.2394 482 56.1701 883.052 515.946
2204 0 48.055 9.90531 476 56.792 882.901 515.632
2205 0 50.1194 12.5101 627 54.2089 882.064 513.112
2206 0 50.0639 9.8674 494 55.2126 881.704 514.144
2207 0 53.0433 9.33199 495 55.4748 882.644 512.267
2208 0 53.0508 9.34953 496 55.6411 882.562 513.058
2209 0 55.1001 10.2178 563 54.8934 883.339 510.052
2210 0 57.0485 12.8663 734 52.3624 883.545 508.781
2211 0 57.0441 8.99304 513 55.9805 883.308 509.739
2212 0 61.3105 12.6895 778 52.4473 883.318 508.758
2213 0 61.065 9.6782 591 55.6091 883.834 507.374
2214 0 64.1119 10.8872 698 54.3424 883.586 506.221
2215 0 68.1259 10.8622 740 53.9216 882.965 505.415
2216 0 68.0441 11.3309 771 54.2451 882.348 502.403
2217 0 69.1374 9.73424 673 55.942 882.141 502.379
2218 0 73.0952 10.8078 790 54.2975 882.839 501.633
2219 0 76.0723 12.1201 922 52.9902 882.51 502.564
2220 0 76.0916 10.6451 810 54.0123 882.443 503.337
2221 0 79.0911 11.2781 892 53.9013 883.519 502.58
2222 0 82.0893 11.4509 940 53.6511 882.668 502.36
2223 1 39.1151 9.33143 365 54.8822 882.189 519.233
2224 0 42.0401 10.2283 430 53.8023 882.951 517.8
2225 0 43.0993 10.325 445 54 883.454 518.292
2226 0 45.0594 11.6513 525 53.1771 882.606 516.787
2227 0 46.0704 12.4375 573 53.2356 883.497 515.986
2228 0 48.095 10.9159 525 54.8533 883.006 516.497
2229 0 49.1071 10.8131 531 55.8305 883.627 515.475
2230 0 49.0454 12.0093 589 54.455 883.458 513.718
2231 0 50.1187 11.2333 563 55.4778 883.052 512.782
2232 0 52.0794 10.1576 529 56.2155 883.626 515.675
2233 0 54.095 10.9622 593 56.0034 883.661 513.469
2234 0 56.0957 12.5322 703 54.7226 883.991 512.176
2235 0 59.1149 12.2812 726 55.2245 883.601 513.063
2236 0 60.0881 12.515 752 54.8484 883.699 512.999
2237 0 61.1605 12.5081 765 55.5255 883.814 509.37
2238 0 64.0856 12.7174 815 55.5006 884.363 506.223
2239 0 67.1895 12.0852 812 56.3337 883.802 508.436
2240 0 67.1105 12.5912 845 56.5077 884.043 507.284
2241 0 70.0917 12.3124 863 56.679 884.162 507.024
2242 0 71.0623 12.2146 868 57.5426 884.138 502.982
2243 0 74.0914 11.6073 860 58.2407 883.936 504.32
2244 0 78.1401 13.5142 1056 56.2803 884.338 501.418
2245 0 80.1456 12.103 970 58.0608 884.567 501.691
2246 0 81.0639 11.7808 955 58.5298 883.836 501.428
2247 0 87.1448 12.726 1109 57.8738 883.324 496.094
2248 0 85.1296 11.0067 937 60.6489 883.489 494.702
2249 0 91.1258 12.5102 1140 58.743 883.499 497.236
2250 1 41.0685 10.0807 414 61.6014 884.036 519.423
2251 0 43.0422 9.68817 417 61.2566 884.189 522.137
2252 0 44.07 10.3699 457 61.733 884.298 517.081
2253 0 46.1086 11.4729 529 60.862 884.348 515.93
2254 0 48.1387 11.0514 532 61.4605 883.904 514.602
2255 0 51.083 11.6086 593 60.3693 883.499 513.282
2256 0 54.1056 12.7713 691 58.4616 884.1 514.417
2257 0 53.0759 11.3611 603 60.6368 884.959 514.962
2258 0 53.0269 11.6167 616 60.8734 884.344 512.351
2259 0 56.0655 13.074 733 58.8377 884.332 511.996
2260 0 58.1062 11.2552 654 61.0642 884.622 509.755
2261 0 61.049 11.2041 684 60.2997 883.535 509.181
2262 0 63.1873 12.6133 797 59.1844 883.637 505.486
2263 0 63.1331 10.7075 676 61.213 883.936 508.679
2264 0 66.1839 11.317 749 60.6756 883.881 507.382
2265 0 67.1246 11.069 743 61.4361 885.289 505.892
2266 0 69.0198 10.823 747 61.3574 885.3 505.376
2267 0 73.0699 12.6591 925 59.9351 884.903 501.166
2268 0 76.117 14.2938 1088 57.6921 884.792 501.844
2269 0 80.1035 12.5088 1002 59.5289 884.508 502.553
2270 0 83.0667 12.1589 1010 60.1406 884.137 501.845
2271 1 43.0319 10.1785 438 61.0753 884.502 519.934
2272 0 45.0754 11.27 508 59.3406 884.327 520.187
2273 0 44.0973 11.4746 506 59.3162 884.126 521.239
2274 0 47.1344 11.69 551 59.5735 884.701 519.456
2275 0 48.0481 12.4458 598 59.291 884.172 516.385
2276 0 51.1443 13.1588 673 57.997 883.816 516.984
2277 0 51.0918 12.3895 633 59.6177 884.032 515.701
2278 0 54.0876 12.2024 660 59.1424 884.168 516.312
2279 0 55.0602 12.6044 694 59.3501 884.431 513.481
2280 0 57.1023 11.6983 668 60.0599 884.919 512.825
2281 0 58.121 11.5277 670 60.3478 884.924 512.085
2282 0 61.1376 12.0875 739 59.4141 884.779 512.099
2283 0 64.0562 11.8802 761 59.6662 884.581 509.624
2284 0 61.0814 10.0031 611 63.0295 885.486 507.291
2285 0 67.0902 12.8931 865 59.3908 885.158 505.129
2286 0 69.2258 11.2241 777 61.2458 884.219 504.172
2287 0 72.1816 11.568 835 61.0599 883.99 503.452
2288 0 72.0852 10.1685 733 63.2742 884.588 503.645
2289 0 76.1041 12.3121 937 60.6862 884.876 501.319
2290 0 78.1783 10.7191 838 62.8198 884.745 499.099
2291 0 82.2195 11.7734 968 62.031 884.343 498.116
2292 0 84.2121 10.5686 890 63.8438 884.693 495.163
2293 0 88.2085 12.1077 1068 62.1096 884.335 496.135
2294 1 43.1004 11.5776 499 59.9319 885.148 517.968
2295 0 42.0619 11.1027 467 62.0171 884.867 516.452
2296 0 46.1578 10.4424 482 62.0332 885.027 517.793
2297 0 46.0175 11.387 524 62.1069 885.111 514.006
2298 0 47.0674 11.2817 531 61.4181 885.949 514.938
2299 0 51.0848 12.2346 625 58.0224 885.326 513.325
2300 0 51.1834 12.3282 631 58.3011 884.924 513.539
2301 0 50.1322 10.3327 518 61.3938 885 512.776
2302 0 54.216 12.0075 651 58.9416 885.705 512.306
2303 0 57.1147 11.8884 679 59 885.776 508.563
2304 0 56.1167 10.2643 576 60.9514 886.438 510.519
2305 0 60.0448 12.0077 721 58.6976 885.43 510.942
2306 0 60.1154 11.6609 701 58.9258 885.171 509.655
2307 0 64.2181 9.87261 634 60.97 885.74 508.763
2308 0 67.0678 11.8537 795 58.9459 885.206 505.909
2309 0 69.0985 11.9105 823 58.6416 884.864 502.552
2310 0 71.116 9.73058 692 60.7673 884.61 503.451
2311 0 75.105 11.1444 837 59.2079 884.752 505.871
2312 1 35.0287 7.56522 265 61.7849 883.909 522.917
2313 0 37.0678 9.1454 339 60.9233 884.03 520.569
2314 0 38.0766 9.00816 343 61.1137 883.825 520.528
2315 0 40.0723 10.4062 417 59.8249 884.271 517.561
2316 0 42.0794 11.8585 499 58.5571 884.313 517.711
2317 0 42.0177 11.1144 467 59.955 884.154 515.996
2318 0 46.0731 11.0694 510 59.6098 884.573 513.916
2319 0 48.0761 11.877 571 58.6375 884.238 515.053
2320 0 47.1779 12.0395 568 59.7852 883.724 513.597
2321 0 49.1042 11.3432 557 60.7576 883.573 511.508
2322 0 51.1192 11.4243 584 60.4983 884.272 513.711
2323 0 52.1577 12.5581 655 59.6992 884.768 514.217
2324 0 54.1258 11.2146 607 61.056 884.367 512.501
2325 0 56.1499 11.0597 621 60.9597 883.733 512.346
2326 0 55.0728 11.5847 638 61.1411 884.146 511.193
2327 0 59.164 11.2061 663 61.1599 884.115 511.437
2328 0 60.1591 10.921 657 61.7062 884.312 507.346
2329 0 63.131 12.6721 800 59.7062 884.106 503.87
2330 0 66.0994 11.6945 773 60.6636 884.013 505.946
2331 0 68.1298 10.5681 720 61.6319 883.988 504.692
2332 1 32.0746 9.32201 299 61.8595 883.314 523.304
2333 0 33.0417 11.0466 365 61.7123 884.049 520.077
2334 0 34.17 10.6819 365 62.1288 884.104 520.942
2335 0 37.2181 11.2042 417 61.3285 884.29 520.76
2336 0 37.0996 9.86535 366 64.2432 883.773 518.907
2337 0 39.074 12.6427 494 60.8259 883.951 517.933
2338 0 41.0655 10.1302 416 63.8029 884.683 518.452
2339 0 43.16 10.6117 458 63.8384 884.585 518.354
2340 0 44.0492 10.8969 480 63.2396 884.235 517.217
2341 0 45.1276 10.3706 468 64.4744 884.051 517.438
2342 0 47.1316 10.2691 484 64.5124 883.828 514.86
2343 0 49.0795 11.8583 582 62.1959 883.687 515.57
2344 0 51.0567 12.9856 663 61.2443 884.021 514.017
2345 0 51.1724 11.9791 613 62.5237 884.348 514.405
2346 0 52.1385 12.1024 631 62.1632 884.388 513.401
2347 0 55.1755 13.593 750 60.0013 884.201 513.223
2348 0 56.1199 11.0656 621 63.3108 884.279 511.435
2349 0 58.1197 12.5603 730 56.2082 884.352 509.638
2350 0 60.0444 13.007 781 54.7542 884.049 509.283
2351 0 60.0666 9.2231 554 57.6877 884.338 511.051
2352 0 63.0727 12.1764 768 54.8203 884.305 507.918
2353 0 66.122 13.3995 886 53.5463 884.651 507.245
2354 0 67.0693 11.2868 757 55.1427 884.683 506.465
2355 0 69.2442 11.4089 790 54.5861 884.786 508.837
2356 0 73.1385 12.3464 903 53.7021 884.955 507.823
2357 0 73.327 9.66902 709 56.622 884.688 504.635
2358 0 78.1546 11.6948 914 54.6783 884.616 504.456
2359 0 79.2851 12.4992 991 53.9223 884.544 504.136
2360 0 81.1221 12.6106 1023 54.3675 884.52 502.348
2361 1 43.0447 14.0087 603 53.8192 884.932 521.451
2362 0 43.1082 12.8282 553 55.953 883.967 519.664
2363 0 43.1789 11.1629 482 58.1307 883.884 518.579
2364 0 47.2167 14.6347 691 54.2518 884.245 517.56
2365 0 47.121 12.2875 579 57.1399 884.803 518.162
2366 0 48.1584 13.5802 654 56.1193 883.81 515.187
2367 0 51.1849 15.2389 780 54.309 884.024 514.747
2368 0 53.2991 13.0396 695 56.0086 885.193 515.226
2369 0 55.1482 13.636 752 55.7766 885.293 513.633
2370 0 55.1176 13.3896 738 55.9187 884.821 513.858
2371 0 59.4118 14.694 873 53.8121 884.088 513.932
2372 0 59.3265 12.4565 739 56.724 884.836 513.422
2373 0 61.1544 13.1144 802 56.1284 884.688 510.081
2374 0 63.3878 12.5576 796 56.4045 885.009 509.559
2375 0 64.2636 16.1989 1041 52.8473 884.524 507.641
2376 0 67.2038 14.9694 1006 54.1133 884.722 505.157
2377 0 69.2169 14.8519 1028 54.1177 884.941 507.661
2378 0 72.0966 15.6734 1130 53.4292 885.185 505.212
2379 0 71.2977 12.8335 915 56.9137 885.174 503.782
2380 0 74.1599 12.4865 926 56.7397 885.686 503.132
2381 0 78.2182 14.5618 1139 54.827 884.894 500.998
2382 0 81.2353 15.5351 1262 53.8597 885.471 502.061
2383 0 82.1293 11.5063 945 57.9968 885.055 501.799
2384 0 84.1686 12.6413 1064 57.2284 884.739 500.001
2385 0 89.1531 12.6636 1129 57.1267 884.845 500.159
2386 1 42.1976 12.3941 523 58.413 884.826 518.197
2387 0 44.0485 12.4635 549 58.1075 884.452 519.913
2388 0 45.1341 11.8536 535 59.2224 884.994 516.647
2389 0 46.0918 12.8873 594 57.8468 884.88 517.744
2390 0 49.0531 12.6801 622 58.2235 885.143 516.355
2391 0 51.1114 12.6586 647 58.3369 886.249 515.777
2392 0 52.1301 14.5022 756 56.832 886.426 514.422
2393 0 55.1358 13.8204 762 58.1995 886.492 511.875
2394 0 57.1638 14.2223 813 57.7134 886.966 511.919
2395 0 61.1174 15.3475 938 55.8635 886.684 511.775
2396 0 61.1931 14.4788 886 56.956 887.056 512.626
2397 0 64.1638 13.6058 873 58.7136 886.962 510.032
2398 0 65.1114 14.7132 958 58.0177 887.303 507.809
2399 0 68.12 13.6377 929 59.2228 887.777 506.184
2400 0 69.0522 14.5687 1006 59.1044 887.121 504.973
2401 0 72.1292 13.6006 981 59.7808 887.898 507.826
2402 0 74.1951 14.3271 1063 59.3641 887.375 506.504
2403 0 77.2206 14.5428 1123 59.4372 887.217 503.868
2404 0 79.159 13.5803 1075 60.6586 887.121 504.232
2405 0 82.1428 15.4122 1266 58.3183 887.032 502.867
2406 0 84.0877 15.8763 1335 58.0367 887.536 503.664
2407 0 86.1993 15.0581 1298 59.8906 887.328 499.065
2408 0 89.1232 14.0592 1253 60.9824 886.795 497.174
2409 1 44.0403 13.7147 604 58.0513 886.894 522.978
2410 0 45.0521 11.2536 507 62.4694 886.83 519.976
2411 0 44.1167 12.6709 559 61.6422 886.64 518.886
2412 0 48.0661 14.0432 675 60.0118 886.842 516.519
2413 0 50.1047 13.4518 674 60.8368 886.553 515.773
2414 0 51.0857 13.3501 682 61.3314 887.327 514.972
2415 0 53.0729 13.5662 720 61.1792 887.235 514.5
2416 0 54.1184 12.6389 684 61.3918 887.203 514.63
2417 0 58.1214 13.2653 771 60.6602 887.323 513.219
2418 0 59.0428 14.0915 832 60.3834 886.488 511.302
2419 0 62.0742 13.4677 836 60.5562 887.335 512.008
2420 0 61.1497 13.1808 806 61.6563 886.653 512.15
2421 0 65.1531 13.7215 894 60.764 886.861 509.484
2422 0 66.0883 14.6622 969 60.677 886.532 506.925
2423 0 68.3012 12.9427 884 62.017 886.44 507.915
2424 0 72.1503 14.0817 1016 61.5364 886.106 504.167
2425 0 72.1156 12.1472 876 63.4829 886.61 504.507
2426 0 76.1745 12.3663 942 63.3195 887.358 505.518
2427 0 79.0575 15.0017 1186 60.8137 887.084 502.739
2428 0 81.0475 14.1522 1147 62.0235 886.579 502.281
2429 0 83.147 15.4305 1283 60.9571 886.278 497.216
2430 0 86.1978 14.9888 1292 61.2856 886.902 499.647
2431 0 87.2066 13.1412 1146 64.6274 886.919 495.771
2432 1 40.0383 11.0644 443 64.5892 886.208 518.892
2433 0 43.1878 11.531 498 64.3494 886.815 517.418
2434 0 44.0902 11.3404 500 64.376 886.542 518.54
2435 0 46.0453 10.8589 500 64.48 885.808 517.764
2436 0 48.0949 13.3902 644 62.6491 886.45 515.193
2437 0 47.1594 12.2139 576 64.25 886.594 515.194
2438 0 51.1485 13.4706 689 62.5225 886.21 514.396
2439 0 53.048 12.5735 667 63.2174 886.399 515.822
2440 0 53.1205 11.5586 614 65.5179 886.427 512.77
2441 0 54.0616 11.006 595 66.5529 886.328 510.711
2442 0 58.1374 14.1733 824 62.0425 886.732 508.931
2443 0 58.13 11.2162 652 65.9248 886.298 509.696
2444 0 60.1173 12.2594 737 64.8155 886.057 508.133
2445 0 65.0764 12.2164 795 64.6717 885.833 507.741
2446 0 66.1751 13.9025 920 63.4217 886.094 505.161
2447 0 68.0976 13.9065 947 63.7022 886.075 503.438
2448 0 71.0459 11.5137 818 66.0134 885.876 506.286
2449 0 72.2126 12.754 921 65.4582 886.092 501.633
2450 0 75.167 11.6807 878 66.2961 886 503.565
2451 0 76.0989 12.8123 975 66.1887 885.818 500.961
2452 0 79.1662 12.4296 984 66.9787 886.198 499.746
2453 0 82.0598 11.8328 971 67.9001 886.523 498.743
2454 0 85.1141 12.5714 1070 66.9364 886.622 498.007
2455 1 44.0869 11.1825 493 65.7931 886.01 518.418
2456 0 44.1193 10.2903 454 66.9956 885.698 517.601
2457 0 47.0286 10.0152 471 67.6518 885.718 515.527
2458 0 47.0378 11.2463 529 65.4102 886.085 516.698
2459 0 50.0928 11.7183 587 65.615 885.901 513.327
2460 0 50.0879 11.0606 554 67.2924 885.908 513.004
2461 0 52.0754 11.3297 590 66.7932 885.31 512.054
2462 0 53.0724 11.5879 615 67.2846 886.332 509.938
2463 0 56.1165 11.8503 665 66.2887 885.889 508.817
2464 0 57.124 10.9761 627 68.2823 885.794 506.96
2465 0 61.1788 12.9293 791 64.9254 886.308 509.207
2466 0 60.0456 11.2748 677 67.9055 885.885 507.112
2467 0 64.1097 12.9778 832 64.8714 885.131 503.95
2468 0 65.1452 11.8197 770 66.7091 885.916 505.322
2469 0 67.0549 11.7068 785 67.5885 885.884 501.529
2470 0 71.0851 11.7184 833 67.2389 886.723 501.898
2471 0 73.1361 12.0734 883 67.06 886.45 500.993
2472 0 76.0708 12.2386 931 66.623 886.275 498.96
2473 0 79.146 12.9255 1023 65.7928 885.444 499.867
2474 0 82.093 12.0108 986 67.2241 885.955 499.646
2475 1 41.0796 9.34771 384 64.875 886.047 520.099
2476 0 42.209 12.2249 516 63.1667 885.688 515.963
2477 0 44.0513 10.0565 443 65.4582 885.273 516.433
2478 0 44.0608 9.46419 417 66.4293 886.597 518.321
2479 0 46.0391 10.1653 468 64.8675 885.716 518.365
2480 0 49.032 12.1961 598 62.8896 886.456 515.052
2481 0 49.0704 11.7382 576 63.651 885.804 515.436
2482 0 51.0623 11.0845 566 63.6343 886.117 514.996
2483 0 51.0787 11.1201 568 63.7412 885.951 512.84
2484 0 52.0745 10.6962 557 64.5781 886.257 512.944
2485 0 55.0848 12.7258 701 62.184 886.518 509.864
2486 0 56.0408 10.9563 614 64.2752 886.194 509.816
2487 0 56.1092 10.8895 611 64.3372 886.164 508.678
2488 0 57.0625 10.4272 595 64.6958 886.101 508.654
2489 0 61.0724 10.6595 651 63.9263 886.204 506.677
2490 0 60.0579 10.3067 619 64.8562 886.057 505.913
2491 0 64.0876 12.8574 824 61.3701 885.55 503.096
2492 0 66.0584 11.3536 750 63.3853 885.401 503.489
2493 0 69.0166 11.7653 812 62.697 886.064 503.784
2494 0 70.0639 10.2335 717 64.5049 885.773 500.573
2495 0 72.1085 11.0667 798 64.2619 886.219 498.398
2496 0 76.224 13.1192 1000 60.557 886.083 499.312
2497 0 76.1536 11.1223 847 64.0212 886.154 496.166
2498 0 79.1182 12.0705 955 63.0492 886.022 492.408
2499 0 82.1959 11.7159 963 63.3043 885.827 492.14
2500 0 84.1119 11.4253 961 63.6878 885.213 489.953
2501 0 83.0483 9.97011 828 66.587 885.85 488.076
2502 0 89.2452 12.1911 1088 63.2923 885.489 490.506
2503 0 90.1494 11.7915 1063 64.127 886.281 487.51
2504 1 51.0772 11.1008 567 60.1235 886.563 510.062
2505 0 51.1753 9.45769 484 63.314 886.403 508.719
2506 0 53.1556 10.8173 575 62.2139 886.737 507.995
2507 0 53.0409 10.7841 572 63.3199 886.967 507.294
2508 0 55.1058 11.1422 614 62.8599 886.093 508.853
2509 0 57.0538 11.1299 635 62.811 886.05 506.428
2510 0 59.0792 11.2561 665 63.2241 886.146 505.546
2511 0 60.1453 11.2228 675 63.4059 886.082 504.757
2512 0 63.1089 11.1078 701 62.8488 886.581 505.598
2513 0 66.1049 12.2684 811 60.8841 887.375 503.292
2514 0 66.1479 9.19153 608 64.5428 886.263 505.312
2515 0 69.2477 12.8813 892 60.9529 885.535 499.963
2516 0 72.0936 11.7486 847 62.3117 885.959 500.163
2517 0 73.1378 11.116 813 62.4711 886.102 501.597
2518 0 77.2156 12.8989 996 60.4137 886.248 498.188
2519 0 79.1799 12.1243 960 61.9271 885.916 494.135
2520 0 79.1285 10.4134 824 63.9515 886.942 494.399
2521 0 84.1611 12.5949 1060 60.7047 886.774 493.227
2522 0 85.1894 11.6916 996 62.4137 886.868 492.987
2523 1 45.0891 9.6254 434 61.0323 886.276 513.111
2524 0 45.1224 9.55179 431 61.6496 886.336 509.789
2525 0 48.0789 11.1691 537 59.3445 886.795 510.006
2526 0 49.0541 10.9471 537 60.1583 886.639 509.099
2527 0 52.0371 10.5117 547 60.4077 886.905 511.17
2528 0 52.1491 10.8151 564 60.8901 886.635 507.949
2529 0 52.1373 10.3381 539 63.0946 886.466 506.751
2530 0 55.0294 11.612 639 61.712 885.984 505.296
2531 0 59.0974 11.9125 704 60.4134 886.739 504.205
2532 0 59.0305 12.2479 723 60.3236 886.004 500.52
2533 0 60.1156 9.54826 574 64.3484 886.479 503.056
2534 0 63.0742 12.0017 757 60.6896 886.868 501.402
2535 0 63.2252 11.4037 721 61.8766 887.354 499.994
2536 0 65.105 11.996 781 60.9718 887.044 500.973
2537 0 67.0714 11.3461 761 61.7871 886.505 498.653
2538 0 68.1382 10.7722 734 62.6812 886.317 498.883
2539 0 72.161 12.0425 869 59.8849 886.42 500.825
2540 0 73.2044 11.502 842 61.3848 886.836 494.771
2541 0 77.1942 11.7107 904 61.4226 886.966 495.168
2542 0 78.1197 10.7143 837 62.3178 887.281 494.894
2543 0 80.1736 10.9762 880 62.067 887.302 491.766
2544 0 83.1425 12.0396 1001 60.3716 886.989 492.462
2545 0 85.348 12.5486 1071 59.7955 886.766 491.061
2546 1 40.0882 8.2069 329 61.3404 885.96 514.097
2547 0 44.0551 10.0102 441 60.0317 886.533 507.83
2548 0 46.0124 9.10625 419 59.8831 886.189 510.556
2549 0 47.1362 10.4166 491 59.1385 886.336 506.102
2550 0 48.0645 9.36242 450 60.3378 886.187 504.553
2551 0 49.082 9.1887 451 59.9778 886.776 507.639
2552 0 51.0382 9.79658 500 59.324 886.358 504.344
2553 0 53.1279 11.9899 637 56.7064 886.802 506.261
2554 0 52.0608 9.35444 487 59.9055 886.992 504.836
2555 0 55.0287 9.15885 504 59.7679 886.597 504.103
2556 0 59.0605 9.82044 580 58.55 886.088 503.616
2557 0 58.2332 7.83058 456 60.4825 886.298 503.829
2558 0 61.0758 8.66137 529 59.7202 886.658 498.242
2559 0 65.0795 10.3412 673 57.4101 886.125 500.264
2560 0 65.2509 10.406 679 57.6392 886.389 499.891
2561 0 68.2696 9.52108 650 58.4477 886.646 498.565
2562 0 71.1859 10.7746 767 57.12 886.295 499.013
2563 0 71.267 11.9971 855 56.4035 886.791 497.472
2564 0 74.1276 9.1329 677 58.8095 886.334 496.43
2565 0 76.1662 13.2867 1012 54.7233 885.805 493.113
2566 0 79.272 9.7134 770 58.0013 886.147 491.09
2567 1 37.1282 7.86465 292 57.7089 885.942 514.048
2568 0 40.0631 10.2588 411 55.4696 886.331 512.672
2569 0 40.1404 8.89378 357 56.5462 885.359 512.619
2570 0 41.0634 8.79128 361 56.7091 885.366 511.208
2571 0 43.1477 9.71084 419 54.9833 885.064 513.217
2572 0 44.0913 10.4102 459 54.8366 885.691 512.593
2573 0 45.069 8.20963 370 56.673 885.797 511.346
2574 0 47.0546 9.11706 429 55.9744 885.394 511.496
2575 0 50.0719 10.2453 513 54.3938 885.398 512.314
2576 0 50.0921 11.6186 582 53.5962 884.596 509.866
2577 0 52.0282 10.1291 527 55.0588 885.028 510.609
2578 0 53.0628 11.9481 634 52.8896 884.88 511.372
2579 0 54.0942 11.1287 602 53.8289 885.553 506.35
2580 0 56.0431 9.33211 523 55.8738 885.633 506.805
2581 0 58.0578 9.62834 559 55.4758 884.916 502.166
2582 0 59.0633 10.9713 648 53.9043 884.671 508.633
2583 0 62.0301 9.89842 614 55.5163 885.161 501.735
2584 0 66.0639 10.7774 712 54.7388 884.559 501.907
2585 0 65.033 9.33372 607 56.6623 884.61 502.161
2586 0 68.0835 10.5165 716 55.2668 885.531 499.169
2587 0 70.042 11.1647 782 55.0243 885.692 499.499
2588 0 71.0691 11.4818 816 55.0674 885.5 500.348
2589 0 76.0933 12.327 938 53.9072 884.822 497.477
2590 0 78.0984 9.29597 726 56.8802 885.238 497.399
2591 0 80.2321 12.1398 974 54.346 885.186 496.715
2592 0 83.0622 11.9429 992 55.0615 886.128 494.674
2593 0 85.2316 10.2309 872 57.8165 886.092 487.75
2594 1 43.1078 7.88721 340 56.4735 885.744 515.635
2595 0 48.0267 11.0772 532 54.3402 885.164 513.778
2596 0 48.1457 10.8421 522 54.3103 885.377 513.705
2597 0 50.0621 10.6667 534 55.0805 886.206 510.412
2598 0 49.0211 10.4241 511 55.4442 887.018 510.115
2599 0 52.1007 11.9 620 54.4936 886.292 509.877
2600 0 53.0378 11.143 591 55.4552 886.577 508.11
2601 0 55.074 11.9112 656 54.7637 885.588 506.389
2602 0 56.0672 10.095 566 57.129 885.26 508.942
2603 0 57.1413 12.6353 722 54.0568 886.342 506.87
2604 0 60.0651 11.5375 693 55.873 885.638 504.836
2605 0 60.0744 10.8199 650 57.6508 885.743 502.52
2606 0 63.099 11.4899 725 56.0607 886.251 504.938
2607 0 64.0792 11.8759 761 56.2944 886.512 501.746
2608 0 66.2182 10.9335 724 56.7997 885.762 503.612
2609 0 67.1409 10.962 736 58.1916 885.906 498.436
2610 0 69.0789 10.9585 757 58.1149 886.049 497.343
2611 0 71.1159 10.4196 741 59.085 886.242 496.536
2612 0 76.0796 12.2766 934 57.5182 886.526 496.643
2613 0 77.1668 11.0151 850 59.1518 885.288 494.584
2614 0 81.2076 11.8585 963 58.3385 886.485 493.377
2615 0 83.0829 11.4705 953 58.8374 886.54 491.762
2616 0 86.1634 13.0334 1123 57.2182 886.297 490.699
2617 1 40.0436 9.81431 393 58.5751 886.219 513.211
2618 0 44.0387 11.1039 489 56.8098 886.92 513.284
2619 0 43.0758 10.5163 453 58.5784 887.152 513.347
2620 0 44.1261 10.4473 461 59.2386 886.722 511.421
2621 0 46.0441 11.5107 530 56.6132 886.753 511.317
2622 0 48.0373 9.88816 475 57.8316 885.958 514.865
2623 0 48.0468 11.8634 570 56.5123 887.39 512.381
2624 0 50.0624 10.0475 503 58.0954 886.483 510.503
2625 0 49.06 8.62209 423 60.2364 886.825 510.813
2626 0 50.0366 7.73433 387 61.0233 886.282 511.235
2627 0 51.0675 10.1434 518 59.0058 885.855 509.328
2628 0 56.0804 10.5028 589 57.5178 885.601 505.689
2629 0 57.0492 10.1491 579 58.1416 885.475 509.114
2630 0 58.0646 11.7972 685 56.9577 885.382 506.499
2631 0 59.0385 10.4677 618 58.6084 885.519 506.62
2632 0 61.09 9.93616 607 58.5733 886.222 506.445
2633 0 65.1429 11.0987 723 56.823 886.004 504.538
2634 0 66.0789 12.2732 811 56.1677 885.888 503.201
2635 0 66.0959 10.5604 698 59.1332 886.016 502.059
2636 0 69.0392 12.5871 869 56.702 886 500.616
2637 0 71.1666 11.0023 783 59.1711 885.792 499.365
2638 0 73.0826 10.5634 772 59.7163 885.667 499.227
2639 0 80.0968 13.621 1091 55.2759 886.256 499.447
2640 0 78.039 12.0837 943 58.2534 885.931 494.837
2641 1 41.016 11.654 478 56.3661 885.994 516.975
2642 0 43.0261 10.0404 432 59.0162 885.81 514.618
2643 0 45.0908 10.3125 465 58.6344 886.148 515.688
2644 0 43.0894 9.70076 418 60.1483 886.44 512.718
2645 0 45.0429 10.0349 452 58.9646 886.465 514.128
2646 0 46.1073 11.5166 531 57.339 886.829 513.203
2647 0 50.0391 12.0106 601 56.3511 886.448 512.794
2648 0 49.1109 10.9548 538 58.1487 886.704 510.104
2649 0 51.0319 10.1309 517 59.4623 885.886 511.427
2650 0 52.0943 11.3448 591 57.6413 885.432 512.854
2651 0 56.0791 12.0901 678 57.0221 886.535 512.152
2652 0 52.0606 8.98952 468 61.8355 886.036 510.447
2653 0 56.0297 10.8157 606 59.4257 885.962 510.021
2654 0 59.0698 12.0366 711 57.6442 886.515 508.062
2655 0 60.0368 11.3097 679 58.4683 886.08 508.065
2656 0 63.2256 11.625 735 58.3796 885.985 509.955
2657 0 66.0678 10.7163 708 59.1893 886.117 508.11
2658 0 67.1629 11.1818 751 59.5459 885.788 505.847
2659 0 69.0874 12.8533 888 57.6554 886.045 505.131
2660 0 69.1933 10.9259 756 59.8161 886.365 502.22
2661 0 71.1486 10.3445 736 60.3709 885.78 506.351
2662 0 74.1019 12.2129 905 59.2044 885.364 503.484
2663 1 38.0462 9.22563 351 60.9573 885.04 519.746
2664 0 38.0206 10.1787 387 60.2326 885.147 517.946
2665 0 40.0195 9.04558 362 62.1602 884.989 517.832
2666 0 42.041 9.27666 390 61.8 885.285 518.459
2667 0 45.1187 10.9932 496 58.6875 885.095 517.23
2668 0 43.055 8.82593 380 61.35 886.026 518.505
2669 0 45.04 10.302 464 59.8728 886.037 516.629
2670 0 47.029 10.9294 514 59.5 885.652 515.737
2671 0 49.0153 10.4457 512 60.0312 886.061 517.035
2672 0 49.0732 11.3708 558 60.2384 885.977 513.798
2673 0 50.0417 10.0916 505 62.3406 885.804 512.958
2674 0 53.0366 11.7655 624 59.9167 885.45 513.59
2675 0 53.0683 10.5713 561 61.5027 885.622 513.784
2676 0 55.0713 11.3489 625 60.0656 885.802 515.016
2677 0 56.1007 9.50078 533 61.5403 885.906 514.114
2678 0 59.0668 13.0191 769 58.4616 885.925 509.559
2679 0 59.0903 10.1709 601 61.4293 886.023 511.915
2680 0 62.0875 11.3227 703 59.973 886.826 510.966
2681 0 64.051 12.0373 771 58.7951 886.534 507.607
2682 0 66.0751 11.1237 735 59.7469 886.045 507.837
2683 0 65.0402 10.1629 661 61.6157 885.536 503.884
2684 0 71.0634 11.2716 801 59.1136 885.386 506.655
2685 0 72.1166 12.4659 899 58.1513 885.966 505.012
2686 0 74.0231 11.564 856 58.9287 886.109 506.652
2687 0 73.0726 10.7975 789 60.9037 885.809 502.838
2688 0 77.0511 11.434 881 60.1941 886.202 502.856
2689 0 80.0844 11.2257 899 60.2336 886.798 498.882
2690 0 82.1315 11.2137 921 60.3996 885.82 499.571
2691 1 42.023 9.82796 413 57.4479 884.922 521.305
2692 0 43.035 10.7122 461 57.0846 885.475 519.557
2693 0 43.035 10.8284 466 120.918 886.513 519.567
2694 0 42.0239 8.99487 378 60.119 886.095 516.521
2695 0 46.0338 10.9919 506 58.2866 885.656 515.522
2696 0 48.0334 10.9091 524 56.2118 886.281 516
2697 0 49.1122 10.6694 524 56.9485 886.04 514.788
2698 0 50.0228 10.6951 535 56.7589 885.77 514.142
2699 0 50.0242 9.87522 494 57.7955 885.814 514.026
2700 0 51.0364 10.4435 533 57.7073 886.285 514.124
2701 0 55.0425 11.5365 635 55.8331 885.616 514.715
2702 0 54.0694 11.2078 606 56.9918 886.304 511.391
2703 0 56.092 11.909 668 56.271 886.094 511.175
2704 0 57.0485 10.3596 591 57.846 886.408 510.369
2705 0 55.0197 8.4697 466 60.2446 886.472 509.996
2706 0 61.0653 12.1509 742 56.4461 886.697 508.751
2707 0 62.0494 10.8945 676 58.0843 886.538 507.33
2708 0 64.1014 10.6238 681 58.8855 886.584 506.871
2709 0 64.0383 10.4313 668 59.0449 887.081 506.231
2710 0 67.1099 11.2502 755 58.8278 887.225 506.596
2711 0 70.0775 12.5433 879 57.0466 887.322 506.035
2712 0 69.0488 11.1805 772 59.7008 887.429 502.938
2713 0 73.0871 11.1921 818 59.3985 887.194 501.438
2714 0 75.1919 11.9694 900 59.1722 887.324 501.514
2715 0 78.0801 11.2833 881 60.3666 887.224 500.368
2716 0 79.1385 12.3707 979 58.9877 886.76 501.953
2717 0 82.0509 12.4557 1022 59.6311 886.591 497.434
2718 1 41.0185 10.1418 416 60.3918 886.526 516.536
2719 0 44.0332 10.5375 464 59.8168 886.905 517.106
2720 0 44.054 10.2374 451 61.612 887.266 515.727
2721 0 45.0415 9.54675 430 62.5116 886.935 514.993
2722 0 49.0509 10.8459 532 60.4361 886.786 515.538
2723 0 47.0525 10.9665 516 60.6667 887.186 516.186
2724 0 49.0646 10.2722 504 62.0556 886.865 515.212
2725 0 51.1374 11.9873 613 59.8059 887.031 515.272
2726 0 54.0753 12.6305 683 59.4202 887.309 512.792
2727 0 52.0783 10.177 530 63.1774 887.468 511.711
2728 0 56.1804 11.7123 658 60.693 887.748 512.593
2729 0 58.1345 11.7486 683 60.9927 887.066 509.936
2730 0 59.1199 11.316 669 61.8132 886.936 508.825
2731 0 57.1429 9.25749 529 65.38 886.062 506.905
2732 0 61.1185 12.304 752 61.5173 886.375 505.181
2733 0 63.1372 10.3267 652 63.7485 886.655 505.489
2734 0 67.1303 12.5875 845 61.2142 886.904 504.795
2735 0 66.1222 11.146 737 63.7585 886.488 503.376
2736 0 71.1585 12.0997 861 61.9419 886.47 502.708
2737 0 73.1213 11.775 861 61.9187 886.54 503.528
2738 0 76.1828 12.1812 928 61.9784 886.773 499.393
2739 0 77.0496 12.3687 953 62.3452 886.659 497.006
2740 0 78.1557 10.9781 858 64.0932 887.323 498.674
2741 0 84.1324 13.0746 1100 61.1482 886.376 497.49
2742 0 85.126 12.3816 1054 62.4886 886.461 495.53
2743 0 89.1315 12.6555 1128 62.2012 886.557 495.822
2744 1 46.0492 9.555 440 63.8795 886.857 516.502
2745 0 48.03 10.6392 511 61.775 887.155 517.744
2746 0 50.0211 10.5955 530 63.1642 887.277 515.026
2747 0 51.0936 10.3927 531 63.7872 887.345 513.595
2748 0 53.0368 11.3129 600 62.6867 887.942 512.723
2749 0 56.0311 11.4758 643 62.4526 888.146 510.558
2750 0 55.0676 11.6947 644 63.7422 887.489 508.059
2751 0 59.1012 12.0302 711 62.0169 886.916 508.682
2752 0 57.0751 10.3723 592 63.0388 886.431 510.456
2753 0 59.0338 10.909 644 62.972 886.59 507.849
2754 0 61.131 10.1749 622 63.5209 886.468 504.627
2755 0 64.1688 12.2022 783 60.5683 887.779 508.125
2756 0 68.055 9.72742 662 63.5332 887.489 506.757
2757 0 69.1177 11.6613 806 62.1725 887.534 504.502
2758 0 67.0967 10.4923 704 63.5384 887.612 504.855
2759 0 72.1106 11.0109 794 61.8501 887.492 505.088
2760 0 73.053 9.71897 710 63.9901 887.61 505.207
2761 0 78.0652 11.3879 889 61.6164 887.26 502.557
2762 0 78.0919 11.2047 875 63.1634 887.187 497.33
2763 0 83.0644 12.2556 1018 60.8684 887.077 497.826
2764 0 85.2451 11.4024 972 62.2551 886.833 496.702
2765 0 86.0851 10.6871 920 63.7141 886.551 495.304
2766 0 90.1925 10.6439 960 63.5521 886.934 493.08
2767 1 46.1161 9.90978 457 60.6958 886.832 516.659
2768 0 48.1938 10.7898 520 60.475 886.898 513.298
2769 0 49.2725 9.76205 481 61.2973 887.198 514.792
2770 0 51.0738 10.7296 548 60.5438 887.206 512.6
2771 0 53.1212 11.2196 596 59.2232 887.334 513.215
2772 0 54.0299 11.0865 599 59.4558 887.402 512.05
2773 0 55.0602 10.9335 602 59.4502 887.329 510.944
2774 0 58.111 10.7725 626 59.1901 886.942 510.238
2775 0 59.1806 9.58084 567 60.9894 887.448 507.252
2776 0 60.0872 10.4681 629 59.5739 887.579 507.467
2777 0 64.0787 10.5183 674 59.0223 887.881 508.907
2778 0 64.1045 8.93853 573 60.9284 887.216 506.67
2779 0 67.1668 12.2978 826 57.0751 887.08 502.959
2780 0 68.1269 10.2162 696 59.3836 887.599 502.106
2781 0 71.1199 11.0096 783 58.7624 887.368 502.192
2782 0 75.1784 11.0803 833 58.6194 887.43 500.836
2783 0 76.0412 10.5206 800 58.51 887.701 500.78
2784 0 80.13 11.5562 926 57.6588 887.606 498.61
2785 1 41.1398 9.84448 405 57.7926 887.479 513.689
2786 0 42.1945 8.91111 376 59.0479 887.234 514.942
2787 0 45.0288 10.0602 453 57.9514 887.689 515.7
2788 0 45.1173 11.4147 515 57.1204 887.381 514.46
2789 0 48.0397 10.637 511 57.0489 887.609 516.456
2790 0 47.0234 9.93123 467 59.1949 887.674 512.818
2791 0 51.041 10.8344 553 56.7306 887.291 514.776
2792 0 53.0515 11.7622 624 56.2901 887.819 510.992
2793 0 54.0431 10.6396 575 57.0713 887.468 512.111
2794 0 54.1073 10.1095 547 58.8574 887.185 509.276
2795 0 58.1084 11.7023 680 56.7147 887.041 509.996
2796 0 58.0622 9.86872 573 58.075 887.693 510.675
2797 0 59.1278 11.788 697 57.0875 888.228 506.607
2798 0 62.0928 9.82401 610 58.7115 887.956 507.141
2799 0 64.1124 11.7606 754 56.3926 888.008 505.622
2800 0 66.0681 12.2298 808 56.0074 887.324 503.87
2801 0 66.092 9.92556 656 59.0168 887.569 502.863
2802 0 72.1452 12.3224 889 55.7525 887.513 502.555
2803 0 70.0924 9.70148 680 59.4221 888.091 500.025
2804 0 73.1113 9.30089 680 58.6426 888.265 502.435
2805 0 79.1933 11.2257 889 56.3723 888.523 501.264
2806 0 77.1494 11.0435 852 57.1303 888.075 496.437
2807 0 82.1031 11.8388 972 55.8313 887.752 496.914
2808 0 83.0655 10.7144 890 57.6191 888.381 497.476
2809 0 86.2486 11.3161 976 56.6066 887.608 497.337
2810 0 89.1776 11.2136 1000 57.08 887.775 494.643
2811 0 92.2355 11.6333 1073 56.7335 887.72 490.717
2812 0 94.0995 12.9969 1223 55.8365 888.604 489.016
2813 0 98.208 10.9869 1079 57.9082 887.318 488.07
2814 0 100.279 10.3112 1034 59.4236 887.773 485.142
2815 0 103.218 11.0349 1139 57.5821 888.171 489.586
2816 1 56.1467 10.3479 581 57.5387 888.028 507.453
2817 0 53.151 9.68938 515 58.9068 887.656 507.971
2818 0 59.0642 13.7647 813 53.9053 887.9 506.459
2819 0 59.0692 10.1068 597 57.9866 887.926 506.3
2820 0 62.1189 9.90038 615 57.2667 887.881 507.527
2821 0 66.082 10.6988 707 55.8289 888.682 506.632
2822 0 68.1205 11.4797 782 56.0256 888.648 503.202
2823 0 69.2154 10.7491 744 55.957 888.026 502.755
2824 0 71.0718 11.2703 801 55.2884 887.903 501.439
2825 0 72.0608 11.9066 858 54.986 888.397 501.78
2826 0 73.168 9.85404 721 56.8807 889.24 499.29
2827 0 78.1633 10.3757 811 55.8286 888.919 502.365
2828 0 77.1601 10.394 802 56.1372 889.292 500.617
2829 0 80.0746 8.91668 714 57.6793 888.563 496.513
2830 0 83.1756 12.2873 1022 54.4335 888.24 491.823
2831 0 85.0967 11.5868 986 54.6836 887.899 497.424
2832 0 89.2656 12.0091 1072 54.7817 887.92 495.114
2833 0 90.1121 9.56586 862 57.5116 887.933 489.247
2834 1 45.0846 9.20491 415 54.9952 886.896 511.472
2835 0 45.0302 6.46233 291 57.4227 887.302 515.674
2836 0 47.1012 8.15266 384 56.9479 887.893 512.635
2837 0 48.0817 10.0454 483 55.6128 887.834 510.518
2838 0 49.0478 11.4786 563 54.7424 887.547 511.25
2839 0 52.0296 9.55226 497 56.3441 887.398 510.899
2840 0 50.0466 10.5702 529 55.9811 887.565 509.873
2841 0 55.0212 11.0139 606 54.462 887.596 507.408
2842 0 56.0901 10.7327 602 55.093 887.894 506.905
2843 0 59.0524 10.7193 633 54.6193 887.635 506.856
2844 0 60.04 8.51099 511 56.8121 887.127 505.376
2845 0 61.0436 9.38673 573 55.5201 887.485 506.14
2846 0 64.0632 9.52184 610 54.4918 887.716 504.016
2847 0 65.0616 9.82145 639 55.3818 887.707 502.124
2848 0 69.0477 10.2972 711 53.7314 887.571 504.64
2849 0 73.0623 12.4277 908 51.5463 888.526 503.171
2850 0 73.1002 11.0533 808 53.2859 888.423 500.608
2851 0 76.0826 10.0023 761 54.4442 887.65 498.258
2852 0 77.0994 10.2076 787 54.7243 887.685 496.809
2853 0 80.0914 9.83875 788 55.2297 887.718 494.695
2854 0 84.0737 9.34894 786 55.112 887.649 493.252
2855 1 46.0102 11.367 523 51.0057 887.899 515.237
2856 0 47.0371 9.56691 450 52.72 888.189 515.996
2857 0 44.0552 9.2611 408 54.402 888.277 512.672
2858 0 50.083 11.6207 582 51.3196 887.608 512.907
2859 0 50.083 11.6606 584 126.187 887.587 512.944
2860 0 52.0324 12.2039 635 50.7276 888.339 513.835
2861 0 53.0873 11.0008 584 51.8014 888.611 511.223
2862 0 55.0993 11.2161 618 51.7411 888.613 507.306
2863 0 56.1008 11.4972 645 51.2031 887.916 510.98
2864 0 55.0924 10.4915 578 53.4446 888.074 507.965
2865 0 60.0769 13.0999 787 49.8272 888.898 506.76
2866 0 61.1151 10.2266 625 53.2624 889.048 503.878
2867 0 64.1456 11.9572 767 52.193 888.83 503.432
2868 0 62.1643 8.68665 540 55.9352 888.672 503.133
2869 0 66.1743 11.6964 774 52.7222 888.264 504.554
2870 0 66.1132 9.66524 639 54.8764 888.194 502.599
2871 0 71.1871 13.6682 973 51.1634 888.438 502.796
2872 0 74.294 11.3468 843 54.3748 888.334 501.068
2873 0 75.1647 12.9848 976 52.7746 888.202 498.518
2874 0 75.1534 9.28767 698 56.1762 888.589 501.481
2875 0 79.1955 11.6421 922 52.91 888.808 495.753
2876 0 80.3658 11.4228 918 53.7625 888.642 495.857
2877 0 84.1045 11.7116 985 54.6406 888.265 493.37
2878 0 85.1854 10.8 920 55.8456 889.108 492.35
2879 1 42.1196 8.64207 364 54.706 888.802 516.989
2880 0 43.0533 9.61599 414 53.5821 890.186 514.007
2881 0 46.1398 8.30086 383 53.389 890.112 519.287
2882 0 46.1682 9.0755 419 53.6014 889.241 518.196
2883 0 46.0205 11.321 521 52.3973 889.251 513.724
2884 0 48.2026 10.0824 486 53.0041 888.469 513.152
2885 0 50.088 9.94251 498 53.1064 888.434 514.337
2886 0 51.0676 10.2022 521 53.2649 888.303 511.459
2887 0 52.0888 10.5013 547 52.6216 888.839 508.92
2888 0 57.1326 10.6244 607 52.7545 888.962 508.908
2889 0 57.1337 12.0944 691 50.9754 888.972 508.949
2890 0 58.1161 13.0601 759 50.4835 889.187 508.962
2891 0 60.2446 10.8889 656 52.2546 889.012 509.491
2892 0 61.2169 11.2877 691 52.3864 889.045 507.926
2893 0 63.1473 10.9902 694 53.4481 889.445 506.124
2894 0 66.2216 11.3256 750 53.1813 889.359 500.997
2895 0 67.1762 10.1078 679 53.676 888.053 506.464
2896 0 69.2994 11.2844 782 52.6189 888.977 504.829
2897 0 73.194 10.3424 757 53.3963 889.239 504.727
2898 0 74.1749 9.30234 690 54.8 888.613 501.158
2899 0 76.1764 10.9877 837 54.1207 888.34 495.812
2900 0 79.349 10.4097 826 54.54 888.553 496.988
2901 0 82.2774 11.3397 933 53.2487 888.156 501.081
2902 1 40.0817 9.40578 377 53.7666 887.897 515.788
2903 0 42.0569 8.29828 349 55.2894 887.977 515.212
2904 0 44.0758 9.59711 423 53.6808 888.482 515.816
2905 0 44.0757 9.00724 397 54.801 888.33 517.574
2906 0 46.0355 10.4485 481 53.4657 888.326 514.805
2907 0 47.0373 9.41806 443 55.535 888.056 512.905
2908 0 49.1154 10.567 519 54.3642 888.302 514.198
2909 0 51.1707 10.1621 520 54.625 888.504 513.788
2910 0 53.2104 13.1177 698 53.3682 887.981 511.729
2911 0 52.1083 10.5358 549 56.7322 888.091 511.769
2912 0 56.1455 11.7017 657 55.3973 888.54 511.099
2913 0 58.252 11.9309 695 54.3309 888.76 508.988
2914 0 57.1855 10.7894 617 56.2496 888.418 507.88
2915 0 60.1352 11.6404 700 55.2343 889.161 508.04
2916 0 61.1008 11.5547 706 55.1884 889.18 507.915
2917 0 63.2005 11.3923 720 55.0778 889.029 510.764
2918 0 62.2315 10.3003 641 57.1544 888.947 506.451
2919 0 65.233 10.2096 666 56.6321 888.294 504.761
2920 0 69.0936 11.839 818 53.7042 888.956 506.149
2921 0 68.2152 9.61662 656 57.4832 889.142 500.887
2922 0 72.2793 10.8468 784 55.5089 889.153 503.269
2923 0 74.1717 10.7453 797 55.729 888.817 503.289
2924 0 75.1901 10.0944 759 56.8366 888.892 500.491
2925 0 77.287 10.8556 839 56.7807 889.218 496.296
2926 0 81.1592 12.149 986 55.1359 889.548 496.778
2927 0 83.2863 11.1663 930 56.5828 889.648 493.131
2928 1 45.049 10.2777 463 54.0238 889.339 518.741
2929 0 48.1424 10.282 495 55.501 889.784 514.76
2930 0 47.1644 9.13824 431 56.9327 888.543 515.065
2931 0 50.1323 11.2502 564 54.8989 888.532 515.755
2932 0 51.0776 10.2002 521 56.3781 888.658 513.921
2933 0 53.0376 9.84207 522 57.3659 888.425 512.048
2934 0 54.1174 10.3848 562 56.7046 889.484 509.749
2935 0 57.1128 10.7682 615 55.0618 889.27 514.567
2936 0 59.0624 11.4624 677 55.1049 889.077 510.578
2937 0 58.0767 9.17752 533 57.6604 888.788 512.058
2938 0 58.0973 8.21037 477 58.8239 889.26 511.052
2939 0 64.059 10.5215 674 55.6855 889.561 509.95
2940 0 65.0624 11.7272 763 55.4836 888.371 507.649
2941 0 67.0682 9.72144 652 57.8083 890.121 507.037
2942 0 72.1362 10.7158 773 56.5977 889.669 505.442
2943 0 73.1107 11.1885 818 56.4193 888.654 502.352
2944 0 76.1176 11.8501 902 55.7716 889.114 502.249
2945 0 76.137 10.7701 820 57.5732 888.587 500.26
2946 0 80.0888 11.8618 950 56.3442 888.696 498.354
2947 0 80.2591 9.39457 754 58.9257 888.32 500.049
2948 1 45.0955 11.3759 513 55.1111 888.897 515.585
2949 0 44.0788 9.14273 403 57.9826 888.985 514.337
2950 0 45.1604 9.52162 430 57.4837 888.635 515.465
2951 0 48.0654 9.88238 475 56.9684 888.712 513.402
2952 0 52.0624 10.5066 547 56.3382 887.826 512.331
2953 0 53.063 11.0058 584 56.0753 888.283 511.063
2954 0 53.0244 9.35418 496 57.3246 887.619 512.879
2955 0 56.0902 10.6436 597 56.1843 887.767 509.067
2956 0 55.0536 11.8612 653 54.6202 888.201 512.291
2957 0 57.0669 11.0747 632 55.6962 888.636 510.252
2958 0 61.1573 11.4622 701 55.0342 889.113 508.94
2959 0 61.0611 9.84259 601 57.1797 888.92 508.77
2960 0 62.0324 10.6074 658 56.2447 889.052 505.948
2961 0 65.0868 9.74084 634 57.4243 889.109 506.386
2962 0 67.2234 9.57999 644 57.4317 888.134 507.36
2963 0 69.117 10.6486 736 56.6562 888.003 506.071
2964 0 71.0582 10.3999 739 57.0622 887.568 504.102
2965 0 75.0776 12.5071 939 54.4505 887.644 503.361
2966 0 74.0732 11.6776 865 56.2948 887.812 500.333
2967 0 77.0638 10.4199 803 57.2653 888.677 499.514
2968 0 79.187 11.3024 895 55.8726 888.368 500.521
2969 0 80.1383 10.9311 876 56.6655 887.479 496.433
2970 0 84.1245 11.7802 991 55.7598 887.724 495.603
2971 0 83.1109 10.2995 856 57.3703 888.142 494.036
2972 1 45.1197 8.95395 404 56.104 888.022 516.453
2973 0 44.0295 8.74413 385 55.5169 888.052 519.751
2974 0 44.1472 10.3291 456 54.7083 888.796 513.535
2975 0 47.1204 9.35901 441 55.6009 888.399 515.204
2976 0 48.0417 10.0954 485 55.365 888.45 513.606
2977 0 50.2755 9.5076 478 55.887 888.889 511.55
2978 0 51.327 9.83887 505 55.0178 888.566 511.022
2979 0 52.1596 10.5637 551 54.4791 888.597 511.407
2980 0 55.2911 11.6294 643 53.3235 888.138 509.879
2981 0 56.0794 11.0379 619 54.0081 888.394 506.939
2982 0 58.2014 9.70767 565 55.6496 888.214 506.163
2983 0 58.116 10.4618 608 55.0263 888.262 506.742
2984 0 61.2076 9.94974 609 55.7012 888.92 505.259
2985 0 63.0816 8.84569 558 56.5376 888.387 502.041
2986 0 63.143 9.96152 629 56.3339 888.013 498.846
2987 0 66.1584 8.4343 558 57.0394 889.177 498.231
2988 0 67.1245 9.6686 649 56.1803 888.868 496.834
2989 0 69.0953 9.17573 634 56.8265 888.798 497.057
2990 0 72.1372 11.2425 811 54.7744 889.226 495.965
2991 0 74.1344 10.0763 747 55.3333 889.208 497.803
2992 0 77.0925 10.5069 810 54.8802 889.72 496.67
2993 0 80.0828 10.9137 874 54.8593 888.492 494.692
2994 0 80.1412 9.48326 760 56.5158 888.097 494.961
2995 0 83.1204 9.66069 803 56.6189 888.621 491.56
2996 0 85.1446 9.3488 796 57.0628 889.275 490.583
2997 0 89.0544 10.9034 971 55.2904 888.86 491.839
2998 0 94.184 12.1464 1144 54.3278 888.721 492.879
2999 1 49.0516 12.6805 622 51.172 888.378 514.969
3000 0 49.0144 9.62983 472 54.9513 889.193 513
3001 0 49.0276 10.749 527 54.277 888.96 513.011
3002 0 53.064 11.929 633 53.703 888.27 512.397
3003 0 54.0763 11.0215 596 53.6577 888.96 513.802
3004 0 51.0432 9.18829 469 56.3113 888.412 511.424
3005 0 56.0999 10 561 55.1105 888.405 511.816
3006 0 58.075 11.3646 660 54.1106 888.13 507.885
3007 0 60.0813 11.7507 706 53.6544 888.252 508.599
3008 0 60.1952 10.5988 638 55.1677 888.199 506.292
3009 0 63.0949 10.4604 660 55.0136 888.418 508.088
3010 0 66.3458 10.2343 679 55.1812 888.928 504.483
3011 0 67.0337 11.442 767 53.8827 889.03 504.512
3012 0 69.0602 11.671 806 54.0769 889.448 502.649
3013 0 71.0997 11.1393 792 54.6452 889.477 503.378
3014 0 72.2827 11.4274 826 54.2107 889.027 502.478
3015 0 75.1873 12.2627 922 54.0878 888.869 498.976
3016 0 77.1993 11.969 924 54.1385 889.51 497.21
3017 0 80.1702 12.1117 971 54.3646 889.023 497.903
3018 0 81.1146 10.6023 860 54.8465 888.629 501.224
3019 1 43.045 8.9906 387 56.5375 888.633 517.194
3020 0 44.1076 9.38613 414 56.0797 888.746 515.37
3021 0 48.0385 10.5124 505 54.4752 889.059 515.774
3022 0 48.0461 9.8239 472 55.9725 889.059 513.655
3023 0 51.0122 11.5463 589 54.27 888.676 513.039
3024 0 51.0973 12.1141 619 54.2762 888.533 512.685
3025 0 53.061 11.5151 611 55.0573 888.862 508.93
3026 0 55.0482 10.4999 578 55.8512 888.803 511.683
3027 0 56.1999 11.9217 670 54.7448 888.587 508.44
3028 0 57.0507 10.219 583 56.1835 889.172 511.779
3029 0 59.0794 12.5255 740 54.3662 889.081 508.776
3030 0 61.0578 12.8075 782 52.4041 889.941 507.596
3031 0 62.1652 11.0673 688 54.4855 889.025 507.669
3032 0 63.1882 12.4865 789 53.161 889.194 505.961
3033 0 67.2299 11.3789 765 53.5346 889.458 507.235
3034 0 68.3695 12.959 886 52.57 889.244 503.388
3035 0 71.1199 11.1924 796 54.2487 889.354 502.435
3036 0 73.1039 11.723 857 53.6604 889.034 500.742
3037 0 74.264 10.6781 793 55.0328 889.155 501.956
3038 0 76.1323 11.7559 895 54.2436 889.409 500.498
3039 0 79.1942 11.4781 909 55.1727 889.997 497.45
3040 0 82.1805 10.9637 901 55.2986 889.528 497.587
3041 1 43.1307 9.39006 405 56.0568 889.375 514.044
3042 0 45.0469 10.6112 478 53.6004 889.195 516.812
3043 0 46.0685 10.5495 486 55.1975 889.249 512.858
3044 0 46.0812 10.6334 490 55.2694 889.431 511.384
3045 0 50.0903 10.5609 529 55.5406 889.248 512.89
3046 0 52.1147 10.3234 538 56.0892 889.275 511.541
3047 0 51.0654 8.91015 455 57.5055 889.002 511.237
3048 0 55.0226 12.5221 689 53.6488 888.549 513.112
3049 0 56.1033 11.4254 641 55.2995 888.401 509.17
3050 0 59.0742 12.2558 724 53.7583 888.854 510.472
3051 0 59.0948 11.7608 695 55.1655 889.485 507.761
3052 0 60.1933 10.5493 635 56.9071 889.55 506.342
3053 0 64.1347 13.1442 843 53.637 888.807 504.17
3054 0 65.2146 10.9178 712 56.1447 888.476 501.959
3055 0 67.1303 13.8537 930 53.4301 888.627 504.101
3056 0 69.136 11.4267 790 56.1304 888.906 501.334
3057 0 71.0487 12.5829 894 54.8277 888.442 500.933
3058 0 74.1156 10.8209 802 56.3042 888.298 504.197
3059 0 76.1381 10.9932 837 56.491 888.559 499.194
3060 0 79.1377 12.3961 981 55.5127 889.451 497.928
3061 0 81.0827 12.7154 1031 55.4656 889.125 492.356
3062 0 85.0669 11.4263 972 56.6471 889.616 493.643
3063 0 89.3158 13.3123 1189 54.2557 889.59 493.206
3064 1 45.0358 11.2355 506 55.5968 889.225 514.696
3065 0 49.102 11.3437 557 55.8276 889.357 511.88
3066 0 50.099 11.118 557 56.4237 889.469 511.512
3067 0 53.172 11.585 616 55.8068 889.784 513.313
3068 0 55.0946 12.2335 674 55.0534 889.343 511.479
3069 0 54.1408 11.9503 647 55.8624 889.159 512.198
3070 0 54.1908 13.028 706 55.1445 889.875 509.894
3071 0 58.1722 11.4144 664 56.2575 889.765 509.748
3072 0 61.0606 11.6114 709 55.6686 889.113 509.027
3073 0 62.0465 10.4599 649 57.7042 888.475 507.442
3074 0 64.1847 11.0307 708 57.233 888.367 506.746
3075 0 67.1056 11.549 775 56.4387 888.711 506.065
3076 0 68.1636 12.2499 835 56.3605 888.443 503.927
3077 0 70.0675 11.9742 839 56.671 888.955 505.782
3078 0 73.2436 12.6427 926 55.3628 888.67 502.577
3079 0 74.0661 12.5564 930 56.014 888.994 501.942
3080 0 77.0724 11.2362 866 57.8707 888.485 499.509
3081 0 80.0876 12.6736 1015 56.2414 889.44 500.078
3082 0 82.1541 12.6713 1041 56.7474 888.448 495.265
3083 1 44.034 9.53808 420 58.5381 888.312 517.324
3084 0 45.0675 10.5619 476 59.0777 888.46 514.821
3085 0 47.0478 10.84 510 58.0882 888.706 516.529
3086 0 48.0708 11.2126 539 58.9276 888.325 514.084
3087 0 50.0149 11.4766 574 58.5923 888.918 512.728
3088 0 53.0801 12.5282 665 57.6511 888.565 510.574
3089 0 54.1365 11.1016 601 59.3494 888.817 508.527
3090 0 56.1248 12.882 723 56.8326 888.638 509.476
3091 0 58.0731 11.4166 663 58.8808 888.828 508.081
3092 0 59.0893 12.9973 768 56.8971 889.06 509.07
3093 0 62.0986 11.8521 736 58.3125 889.332 506.617
3094 0 64.1471 11.6763 749 57.9439 889.586 507.304
3095 0 63.1036 11.3781 718 59.4944 889.865 504.21
3096 0 66.1582 12.0771 799 58.3104 889.604 505.308
3097 0 69.0677 12.1475 839 58.3135 889.242 502.975
3098 0 70.1709 11.3152 794 59.0227 890.48 501.885
3099 0 72.0737 12.6537 912 57.2018 890.244 501.015
3100 0 74.1348 11.3712 843 58.4033 889.705 502.071
3101 0 76.1748 11.9856 913 58.0197 889.461 497.905
3102 0 77.0647 12.2754 946 57.5264 889.248 498.19
3103 1 41.1087 9.94924 409 59.3252 889.227 513.372
3104 0 42.0766 11.1701 470 58.0723 889.194 515.049
3105 0 43.123 12.4296 536 56.3675 889.772 515.41
3106 0 45.0407 11.2565 507 57.4024 889.939 514.065
3107 0 44.1204 11.2193 495 57.5939 889.764 514.584
3108 0 46.085 10.9797 506 57.3814 889.897 512.555
3109 0 47.103 11.0821 522 58.364 889.998 510.071
3110 0 50.128 12.2486 614 56.4446 890.06 509.544
3111 0 50.1113 11.6142 582 58.134 890.112 508.261
3112 0 52.0736 13.4041 698 56.4499 889.315 507.299
3113 0 56.104 13.3146 747 55.6399 889.783 507.273
3114 0 55.0239 12.6854 698 57.1719 889.397 505.418
3115 0 56.1042 13.2432 743 56.7981 889.693 506.883
3116 0 57.1216 12.9023 737 57.6906 889.373 504.446
3117 0 59.2213 13.2216 783 57.2848 889.764 504.33
3118 0 60.1269 12.5568 755 58.7457 889.546 502.461
3119 0 62.1304 13.1658 818 57.9743 890.203 504.714
3120 0 65.1656 13.5348 882 57.4104 890.125 503.135
3121 0 66.1113 11.9495 790 59.219 889.833 504.124
3122 0 68.2807 12.0239 821 59.3605 889.858 501.909
3123 0 70.0479 14.2474 998 57.3327 889.305 500.62
3124 0 74.1571 14.5097 1076 56.869 889.718 499.772
3125 0 75.1575 12.2143 918 59.842 889.97 496.764
3126 0 75.1866 12.2495 921 60.2269 889.533 495.305
3127 0 79.1892 13.3225 1055 59.055 889.079 496.219
3128 1 41.068 11.0792 455 62.1209 889.571 513.02
3129 0 45.06 13.0936 590 59.3153 889.742 513.471
3130 0 43.0415 12.8016 551 61.4428 889.739 510.944
3131 0 48.0305 13.0126 625 58.5488 889.648 514.013
3132 0 45.0272 11.4819 517 62.6789 889.82 510.621
3133 0 48.1067 12.7217 612 60.9804 889.474 510.348
3134 0 51.057 13.8081 705 59.2993 889.342 508.938
3135 0 52.0761 13.6147 709 59.9633 889.614 509.408
3136 0 54.1095 12.3638 669 60.8685 889.661 508.626
3137 0 54.0791 10.5586 571 62.9054 889.184 508.793
3138 0 57.0486 11.6918 667 61.0105 889.249 508.954
3139 0 57.1623 12.7707 730 60.7781 890.338 505.315
3140 0 60.0858 13.1479 790 60.3203 889.406 504.609
3141 0 63.1171 14.782 933 58.3205 889.115 502.818
3142 0 66.1403 13.5167 894 59.4273 888.927 503.64
3143 0 68.0621 13.1498 895 60.2503 888.54 501.496
3144 0 68.1736 12.6589 863 61.3256 888.819 498.503
3145 0 72.0599 14.1826 1022 59.2446 888.88 500.017
3146 0 70.1429 11.0916 778 63.9434 888.753 499.365
3147 0 75.1456 12.682 953 61.979 888.436 499.867
3148 0 80.2214 13.7121 1100 60.3782 888.779 498.381
3149 0 81.0357 13.2164 1071 61.7162 888.669 499.002
3150 1 40.0149 12.7952 512 62.4922 888.682 517.113
3151 0 42.0553 12.2933 517 62.5532 888.776 517.072
3152 0 43.0299 11.4571 493 63.7099 888.789 515.856
3153 0 43.1361 11.6144 501 64.4511 888.305 514.621
3154 0 45.0611 13.0711 589 63.3939 888.408 514.951
3155 0 47.1033 11.2094 528 65.0776 888.297 514.475
3156 0 50.0438 14.6472 733 60.7312 887.988 512.989
3157 0 53.1196 14.0061 744 61.0497 887.616 513.562
3158 0 53.0862 14.467 768 61.1758 888.52 512.383
3159 0 55.062 13.8934 765 62.2288 888.233 510.141
3160 0 54.1612 13.0167 705 63.5801 887.828 511.711
3161 0 57.0206 12.855 733 64.0232 887.869 511.071
3162 0 61.0702 13.5418 827 62.7158 888.133 510.41
3163 0 63.0647 13.8746 875 62.6023 888.096 508.115
3164 0 62.0749 13.7254 852 63.2981 888.103 507.978
3165 0 65.0238 12.9952 845 64.0071 888.36 504.2
3166 0 69.1141 13.9769 966 62.7671 887.912 505.104
3167 0 70.0866 14.0968 988 63.3796 887.979 501.023
3168 0 73.072 13.1377 960 64.5979 887.467 501.843
3169 0 74.1785 13.5619 1006 64.1789 887.702 501.723
3170 0 77.1433 13.5721 1047 64.4852 887.582 499.051
3171 0 79.1297 13.4084 1061 64.4062 887.592 499.752
3172 0 81.0566 12.7689 1035 65.9517 887.653 497.558
3173 1 45.0333 13.3235 600 63.4083 887.703 517.727
3174 0 46.0729 13.0445 601 63.7504 888.255 518.243
3175 0 47.0644 12.8122 603 65.1012 888.476 515.75
3176 0 48.0942 13.9934 673 64.1545 888.501 516.059
3177 0 48.0898 13.3916 644 65.0217 888.823 514.329
3178 0 50.2656 13.3292 670 64.8194 888.736 514.503
3179 0 54.0791 13.6467 738 62.9472 888.915 515.117
3180 0 57.0569 13.7231 783 63.1954 888.977 513.124
3181 0 57.1374 14.7714 844 62.0154 888.556 511.846
3182 0 57.1509 11.8983 680 66.0735 888.807 510.299
3183 0 59.0797 13.1517 777 64.0463 888.284 511.341
3184 0 62.1637 13.5931 845 63.3219 888.076 508.331
3185 0 65.0448 15.0973 982 61.4481 888.396 509.348
3186 0 67.0886 13.1617 883 63.4915 888.14 507.875
3187 0 69.1839 15.5094 1073 60.9898 887.748 506.718
3188 0 70.1201 13.919 976 63.0062 887.462 504.914
3189 0 73.0468 13.0191 951 63.8854 887.897 504.812
3190 0 75.1126 13.3 999 64.0771 888.5 504.869
3191 0 78.0888 12.2297 955 65.9089 887.734 500.236
3192 1 37.0437 11.4459 424 66.0071 888.04 521.139
3193 0 38.0728 10.3486 394 67.868 887.64 518.604
3194 0 39.0886 13.3799 523 65.478 886.891 518.138
3195 0 41.051 11.5953 476 67.0714 887.733 518.338
3196 0 44.0943 13.9701 616 63.5536 887.885 518.305
3197 0 45.0605 13.1823 594 65.2828 888.057 516.271
3198 0 43.1315 12.3808 534 67.6517 888.09 515.532
3199 0 45.0939 13.3499 602 66.3621 887.925 514.262
3200 0 46.0536 13.0934 603 66.7347 889.113 513.779
3201 0 49.143 12.4738 613 66.987 889.144 515.052
3202 0 50.108 12.2934 616 67.0146 888.985 515.654
3203 0 51.2382 11.3977 584 68.5771 888.3 512.62
3204 0 54.0596 13.5406 732 66.4576 888.675 510.393
3205 0 55.1143 15.368 847 63.575 888.422 512.137
3206 0 56.0789 14.0873 790 65.7671 888.162 508.513
3207 0 59.1128 13.9394 824 65.8143 888.081 507.443
3208 0 61.1474 14.5059 887 65.1466 888.017 508.689
3209 0 60.043 12.8574 772 67.6995 888.272 508.073
3210 0 62.0731 13.0652 811 67.7682 888.745 506.092
3211 0 66.0816 13.0445 862 67.7088 888.329 507.371
3212 0 67.0892 14.1752 951 66.653 888.781 503.31
3213 0 68.1131 14.0061 954 67.6363 888.273 503.307
3214 0 72.1199 13.9213 1004 67.6604 888.917 502.691
3215 0 72.0695 14.153 1020 68.3333 888.909 501.633
3216 0 75.0864 14.3701 1079 67.9231 888.781 502.247
3217 1 35.0676 12.262 430 69.7698 889.163 518.854
3218 0 38.1269 11.6453 444 70.8581 889.178 519.606
3219 0 39.0366 13.3464 521 69.1478 888.524 518.106
3220 0 41.0379 12.0133 493 70.6795 888.536 518.564
3221 0 41.1026 13.0405 536 69.6698 888.711 518.037
3222 0 44.0938 14.4465 637 67.9545 888.582 516.546
3223 0 45.124 13.1416 593 69.0438 889.332 517.874
3224 0 45.1182 12.3675 558 71.0215 889.075 516.511
3225 0 45.0649 12.5819 567 71.2187 889.118 513.836
3226 0 46.0269 12.232 563 72.2611 889.629 514.224
3227 0 48.1632 13.8695 668 70.6931 889.26 512.448
3228 0 49.0389 12.5819 617 72.047 889.593 513.741
3229 0 53.0903 15.0498 799 68.4043 889.856 511.927
3230 0 53.2729 13.2337 705 70.6511 889.637 513.597
3231 0 54.0985 15.0097 812 69.6909 889.496 510.581
3232 0 57.0336 13.4482 767 71.382 889.515 511.126
3233 0 60.0673 14.2673 857 69.4667 889.515 509.539
3234 0 61.1251 14.5767 891 68.8384 889.291 508.519
3235 0 64.0739 16.0128 1026 66.4376 889.339 509.939
3236 0 64.0752 14.7483 945 69.1302 888.858 508.673
3237 0 65.2107 13.5101 881 71.4563 889.124 507.016
3238 0 68.0987 14.3175 975 69.7497 889.482 507.61
3239 0 70.0626 13.5308 948 71.0717 889.296 505.884
3240 0 74.0863 14.1052 1045 69.8144 889.079 506.301
3241 0 75.1108 14.7515 1108 69.1155 889.385 504.814
3242 0 79.1479 15.1489 1199 67.9917 889.649 504.349
3243 0 78.1433 13.9999 1094 69.9342 889.243 505.015
3244 0 83.0282 14.4891 1203 69.212 889.632 501.06
3245 1 43.1019 12.3196 531 70.0697 889.36 522.203
3246 0 43.0261 11.9695 515 70.899 890.153 521.8
3247 0 45.125 13.1191 592 69.0388 888.914 522.113
3248 0 46.098 14.621 674 67.1335 888.831 520.634
3249 0 48.1252 14.0467 676 68.6627 888.818 519.533
3250 0 48.0758 13.1251 631 70.1474 889.101 517.713
3251 0 50.0529 12.7665 639 70.77 889.382 518.416
3252 0 53.0632 15.5098 823 66.4338 888.858 517.143
3253 0 53.2238 13.9975 745 69.5732 888.423 515.035
3254 0 56.034 13.3669 749 70.1188 888.268 515.648
3255 0 57.075 13.3859 764 70.2487 888.128 515.709
3256 0 59.1062 13.8226 817 70 887.528 514.031
3257 0 59.0618 14.2732 843 70.2539 888.363 511.336
3258 0 60.0281 12.211 733 73.5007 888.307 510.928
3259 0 63.2286 12.7316 805 72.5118 887.82 511.606
3260 0 66.1154 13.5672 897 71.136 887.407 510.751
3261 0 69.1171 13.3975 926 71.7603 887.773 508.88
3262 0 71.1492 15.4042 1096 69.1843 887.541 507.154
3263 0 74.1268 13.9356 1033 70.332 887.874 508.597
3264 0 73.0691 12.6456 924 74.0216 887.268 506.424
3265 0 77.0984 13.1002 1010 72.8188 887.306 505.238
3266 0 79.1091 13.7911 1091 72.0138 887.656 504.758
3267 1 38.0789 11.6863 445 73.6854 887.508 523.616
3268 0 38.1888 12.4382 475 72.7158 887.297 524.208
3269 0 41.0976 13.0908 538 71.0669 887.262 523.372
3270 0 42.0156 12.8762 541 72.3993 887.067 521.521
3271 0 41.0677 12.8325 527 72.3643 887.419 521.313
3272 0 45.1453 14.1543 639 69.5696 886.523 519.901
3273 0 44.0852 12.6346 557 72.0987 885.989 519.043
3274 0 48.177 13.0353 628 71.0048 885.916 516.987
3275 0 49.0395 13.3362 654 69.6621 885.849 518.307
3276 0 52.1249 14.3118 746 67.8887 886.168 516.694
3277 0 53.1456 13.9993 744 68.1022 885.661 518.392
3278 0 54.1274 14.2627 772 68.8886 886.038 513.885
3279 0 56.0788 14.4618 811 67.9038 886.133 513.827
3280 0 58.1096 14.7824 859 67.4924 885.178 510.952
3281 0 60.1323 14.0357 844 69.1173 885.72 510.364
3282 0 61.1488 14.2112 869 68.7629 885.536 510.156
3283 0 60.0732 14.1161 848 70.2913 885.41 507.606
3284 0 66.0939 14.661 969 68.194 885.375 507.798
3285 0 66.1057 13.1305 868 70.5841 885.824 509.83
3286 0 70.1088 13.2508 929 70.4123 885.901 507.987
3287 0 70.2246 12.6736 890 71.8955 885.47 506.112
3288 0 72.1282 13.5176 975 70.9682 885.829 506.277
3289 0 75.1357 14.0546 1056 70.3627 885.154 504.353
3290 0 78.1044 14.1093 1102 70.5381 885.339 503.399
3291 0 80.0955 12.7473 1021 72.76 884.992 500.022
3292 0 82.1578 13.7175 1127 71.4738 885.12 501.209
3293 0 85.1168 13.4756 1147 72.1927 885.188 496.571
3294 0 87.159 13.4123 1169 72.3285 885.139 497.165
3295 0 90.1728 14.5942 1316 70.2644 884.901 495.402
3296 0 94.2031 15.0313 1416 68.7429 885.302 495.4
3297 0 95.2797 12.4266 1184 73.3159 885.017 492.93
3298 1 43.0867 16.0374 691 70.8394 885.641 518.302
3299 0 44.0875 14.2671 629 74.2083 885.758 516.369
3300 0 45.1263 14.1381 638 74.9718 885.801 514.976
3301 0 49.1289 14.4111 708 73.4746 885.815 513.425
3302 0 49.0702 14.8563 729 73.5213 886.303 512.52
3303 0 50.1401 15.1177 758 73.7876 886.526 513.846
3304 0 51.0796 14.3306 732 74.6694 885.934 513.97
3305 0 54.0847 16.0304 867 72.3126 886.38 511.313
3306 0 55.0992 14.7552 813 74.1722 886.257 511.047
3307 0 57.2006 14.8425 849 74.3852 886.954 510.119
3308 0 56.1597 13.7109 770 76.9636 886.627 509.283
3309 0 59.2465 14.3468 850 75.2812 886.565 509.952
3310 0 60.0463 14.6054 877 75.3751 886.462 506.19
3311 0 64.0453 14.8645 952 74.2721 886.738 507.996
3312 0 65.1601 15.0706 982 75.1253 887.177 507.069
3313 0 67.1117 15.5562 1044 74.7548 886.975 504.489
3314 0 68.2639 14.0777 961 77.1384 887.064 505.276
3315 0 72.1519 15.01 1083 74.8181 886.74 504.603
3316 0 74.0278 15.5752 1153 73.9714 887.198 501.495
3317 0 76.092 14.5482 1107 76.0388 887.098 499.575
3318 0 79.2644 16.1485 1280 73.3344 887.602 498.089
3319 0 80.1476 14.8726 1192 75.5336 887.821 497.248
3320 0 81.3385 14.8515 1208 75.9983 887.573 496.62
3321 0 85.1469 15.3499 1307 74.3145 887.845 497.789
3322 1 42.1572 12.0027 506 79.3834 888.411 518.494
3323 0 45.1305 13.7379 620 76.3306 887.668 516.523
3324 0 45.0409 13.188 594 77.2997 887.643 516.623
3325 0 47.1858 13.0336 615 77.1382 888.478 516.567
3326 0 47.0876 13.6342 642 77.1433 887.883 516.188
3327 0 50.0745 14.798 741 75.9636 887.856 515.174
3328 0 49.1328 13.9622 686 77.7799 888.491 515.531
3329 0 52.2482 14.2972 747 77.1379 888.098 512.726
3330 0 54.0775 15.3853 832 74.8594 887.731 512.002
3331 0 56.158 14.7975 831 75.7629 887.996 512.81
3332 0 56.1369 14.3577 806 77.2878 887.942 511.069
3333 0 57.1733 15.0245 859 75.9488 888.021 512.9
3334 0 57.0684 14.1234 806 78.5459 888.381 512.609
3335 0 62.1074 14.8453 922 76.3558 888.655 512.287
3336 0 63.1868 14.3068 904 77.8883 888.191 510.399
3337 0 65.0707 15.3064 996 76.0602 888.342 510.25
3338 0 67.1378 14.4479 970 77.0887 888.576 508.696
3339 0 69.0568 14.1333 976 78.1516 888.385 507.316
3340 0 70.0854 14.8533 1041 77.3016 888.001 505.919
3341 0 72.0655 13.2796 957 79.3041 887.571 507.242
3342 0 74.1755 14.8027 1098 76.979 887.345 504.938
3343 0 78.0398 14.6592 1144 76.8689 888.052 505.369
3344 1 36.0112 11.4964 414 78.9372 887.742 524.693
3345 0 36.0547 11.2607 406 80.6502 887.719 522.943
3346 0 40.0193 13.5434 542 77.345 887.435 520.847
3347 0 43.0569 12.5415 540 76.6648 887.672 522.006
3348 0 41.088 12.7774 525 78.2229 888.171 521.691
3349 0 40.0267 12.8664 515 79.1184 887.975 520.175
3350 0 44.0325 14.2168 626 74.3323 887.767 520.406
3351 0 44.0306 12.4232 547 77.5247 887.616 520.909
3352 0 48.0332 12.8869 619 76.0646 887.53 519.855
3353 0 45.1006 12.2171 551 78.8004 887.138 518.054
3354 0 48.0338 12.0956 581 77.7091 887.029 516.002
3355 0 50.0402 13.4092 671 76.085 886.483 515.277
3356 0 51.06 13.5723 693 76.1573 887.048 514.346
3357 0 54.048 14.3391 775 73.5587 885.821 514.135
3358 0 56.1072 14.3475 805 72.8894 886.807 514.05
3359 0 60.0683 13.6012 817 72.4308 886.742 514.863
3360 0 58.0215 13.0296 756 74.881 886.168 513.066
3361 0 60.0458 13.2399 795 74.9031 886.592 511.286
3362 0 62.0267 13.2685 823 75.068 886.474 509.702
3363 0 66.0782 13.7413 908 72.794 886.96 510.121
3364 0 67.0717 12.8668 863 75.0185 886.048 508.579
3365 0 66.0431 12.5978 832 76.2284 886.012 508.344
3366 0 73.0503 12.5256 915 75.0929 885.623 509.145
3367 0 74.0404 12.0745 894 75.9575 886.06 507.902
3368 0 75.0695 12.615 947 76.2819 885.627 504.881
3369 0 76.1038 11.826 900 76.3722 886.538 505.872
3370 0 79.0315 13.096 1035 74.9884 886.518 502.163
3371 1 38.0436 11.1451 424 72.0071 885.96 522.804
3372 0 39.0313 11.0424 431 72.3944 886.271 523.072
3373 0 41.0285 13.1128 538 68.2361 886.296 521.812
3374 0 41.0329 10.5769 434 71.4101 886.313 520.857
3375 0 43.1027 11.0434 476 70.3088 886.773 521.79
3376 0 44.0375 9.87795 435 71.3816 885.591 521.14
3377 0 47.0218 10.9098 513 70.0955 885.969 518.507
3378 0 46.0631 12.3309 568 68.7782 886.475 517.377
3379 0 48.0306 11.7425 564 68.8138 886.652 517.814
3380 0 50.0763 10.6837 535 70.043 886.615 516.854
3381 0 53.1242 11.8025 627 68.5423 886.727 515.86
3382 0 52.0915 10.8655 566 69.689 886.375 515.777
3383 0 55.078 10.8029 595 69.1462 886.58 515.227
3384 0 56.0413 10.8135 606 70.0066 886.521 513.686
3385 0 58.0431 10.5611 613 70.3507 886.261 512.941
3386 0 61.0385 11.6975 714 68.7549 886.465 512.566
3387 0 63.0847 11.7778 743 69.1009 886.59 510.466
3388 0 63.0842 11.0487 697 71.0746 886.555 506.311
3389 0 65.0405 10.8087 703 71.5548 886.161 509.991
3390 1 35.042 9.47435 332 68.1657 887.048 527.458
3391 0 38.0216 12.151 462 64.5822 886.755 525.606
3392 0 36.0353 10.351 373 68.8391 886.638 523.295
3393 0 38.0073 10.6032 403 68.866 887.141 522.548
3394 0 40.0402 10.2897 412 68.3422 887.391 524.083
3395 0 40.04 10.015 401 69.0698 887.05 522.935
3396 0 43.0409 11.5239 496 67.1976 887.002 521.325
3397 0 41.0309 10.3337 424 70.2689 887.658 520.205
3398 0 44.0623 11.0979 489 67.3926 887.194 521.697
3399 0 45.0735 10.1612 458 69.428 887.334 519.849
3400 0 47.0867 10.916 514 68.6809 887.237 519.578
3401 0 47.0232 11.0158 518 69.1969 886.637 517.776
3402 0 49.0737 9.10874 447 70.5078 887.051 518.38
3403 0 50.0787 10.4635 524 69.5611 886.905 515.326
3404 0 53.0595 10.2903 546 69.4634 887.385 513.201
3405 0 54.1494 9.34451 506 70.9289 888.217 511.68
3406 0 55.1058 11.7955 650 67.5815 887.931 512.302
3407 0 57.0956 11.9099 680 66.5029 887.784 512.779
3408 0 60.0732 10.8368 651 67.447 887.478 511.018
3409 0 62.0855 11.3714 706 66.6062 887.235 510.904
3410 0 62.0434 9.34829 580 69.7069 886.231 508.99
3411 0 63.2089 10.7105 677 68.4742 886.583 506.951
3412 0 67.2446 9.6662 650 69.4815 887.037 507.258
3413 1 35.1611 9.58446 337 65.2048 887.629 522.84
3414 0 35.0371 10.8171 379 64.4354 887.224 520.939
3415 0 35.0386 10.4456 366 64.6011 887.814 522.806
3416 0 35.0077 8.9409 313 67.1214 887.859 522.639
3417 0 37.0184 9.1306 338 66.5621 888.183 521.467
3418 0 39.0475 8.86101 346 66.422 887.934 522.217
3419 0 40.0233 9.84427 394 65.5558 886.901 519.759
3420 0 40.0624 10.5585 423 65.0756 887.43 518.636
3421 0 43.0746 11.0738 477 63.0545 887.029 520.294
3422 0 45.1521 11.428 516 62.3818 887.601 518.019
3423 0 45.1248 9.46264 427 65.1218 887.108 518.494
3424 0 45.0821 10.0483 453 65.9316 886.678 513.943
3425 0 47.0789 10.4505 492 64.6789 886.787 515.24
3426 0 50.1278 10.3934 521 64.6065 886.428 513.407
3427 0 50.1481 9.57164 480 65.3875 886.962 513.571
3428 0 51.1183 9.93774 508 64.9154 886.972 511.472
3429 0 52.2635 9.98785 522 64.0019 886.621 512.232
3430 0 54.0753 11.1511 603 62.8988 886.713 509.043
3431 0 55.1942 10.4359 576 63.4149 886.745 508.682
3432 0 57.228 11.3056 647 61.7666 887.261 508.669
3433 0 59.1368 11.0591 654 61.9633 886.859 507.57
3434 0 59.0941 8.91798 527 64.8842 886.824 507.127
3435 0 61.1424 10.958 670 61.7627 886.903 508.454
3436 0 65.0938 10.723 698 62.149 887.943 504.436
3437 0 64.1095 11.2308 720 62.1153 887.342 501.149
3438 0 68.2099 10.497 716 61.9707 886.785 503.201
3439 1 32.0904 8.6007 276 61.5399 887.308 519.181
3440 0 33.1497 7.69237 255 62.3412 886.541 520.667
3441 0 34.1933 8.59817 294 60.6429 887.242 521.231
3442 0 37.1588 10.2533 381 58.3333 887.622 516.926
3443 0 37.1928 10.1901 379 58.7704 887.789 517.351
3444 0 38.0904 9.13615 348 59.9138 887.94 516.71
3445 0 38.0315 7.70414 293 61.4881 888.447 515.526
3446 0 40.0989 9.07754 364 59.5797 888.003 514.569
3447 0 43.1161 10.7153 462 56.8896 888.188 514.97
3448 0 43.0937 8.49311 366 60.0847 887.948 512.94
3449 0 44.2832 10.478 464 57.4806 888.05 512.392
3450 0 45.1618 9.18917 415 58.7711 887.807 515.388
3451 0 48.0718 11.2332 540 56.2963 888.152 512.133
3452 0 47.0976 9.55464 450 58.5889 888.149 511.88
3453 0 49.0461 8.42065 413 59.1816 888.012 511.748
3454 0 51.0924 9.19903 470 58.7 887.906 510.589
3455 0 51.0273 9.5831 489 58.5706 887.266 509.442
3456 0 50.0408 9.09258 455 59.0396 887.301 510.545
3457 0 54.0585 8.99026 486 59.251 887.856 508.309
3458 0 56.1646 9.38313 527 58.482 887.725 506.142
3459 0 58.0298 9.39173 545 57.8018 887.494 505.494
3460 0 57.032 9.81904 560 57.8964 886.925 503.78
3461 0 60.0494 8.55961 514 58.9202 887.35 501.531
3462 0 65.0431 9.54752 621 57.0853 887.593 501.246
3463 0 64.113 10.0448 644 57.2158 887.75 501.686
3464 0 66.0391 9.40352 621 57.3204 887.518 503.111
3465 0 68.0739 9.79817 667 56.7181 887.609 500.696
3466 0 70.0843 9.50284 666 57.051 887.059 496.496
3467 0 74.0647 10.3558 767 55.6962 886.635 498.296
3468 0 75.0809 9.32327 700 56.7986 886.844 499.213
3469 0 78.0624 9.81267 766 56.5118 887.411 494.667
3470 1 40.0402 10.8391 434 53.5392 887.129 516.484
3471 0 39.0596 9.52391 372 55.9758 886.632 515.489
3472 0 42.0465 9.53707 401 55.7905 886.544 515.289
3473 0 44.0712 9.68886 427 55.3934 886.487 513.337
3474 0 46.0773 10.4824 483 54.6273 886.921 511.578
3475 0 45.0455 8.94651 403 57.1489 886.717 512.727
3476 0 46.0128 9.91029 456 56.2917 886.511 510.079
3477 0 51.114 9.4299 482 55.7718 886.844 508.407
3478 0 51.0452 11.4213 583 54.2196 887.348 509.549
3479 0 51.1608 8.87398 454 56.5374 887.685 511.537
3480 0 54.0333 10.1419 548 55.3139 888.068 510.234
3481 0 54.0484 11.6377 629 54.1463 887.375 508.326
3482 0 55.0432 9.6833 533 56.469 887.876 509.214
3483 0 58.0693 10.9352 635 55.0756 887.723 506.917
3484 0 58.0277 10.5467 612 55.3726 887.266 505.325
3485 0 59.0367 9.89216 584 56.7603 887.238 504.455
3486 0 63.0468 10.2305 645 56.2279 887.775 504.543
3487 0 64.0291 10.2766 658 55.3875 887.83 505.071
3488 0 66.1215 11.1159 735 54.932 887.946 505.275
3489 0 66.1214 12.0385 796 54.294 887.719 506.905
3490 0 69.0904 11.029 762 55.853 888.047 503.392
3491 0 71.093 11.7311 834 55.5252 887.996 500.974
3492 0 69.175 9.29527 643 59.0233 888.159 496.524
3493 0 75.083 12.1998 916 54.9836 888.156 498.048
3494 0 74.1244 10.2261 758 57.6306 888.26 497.584
3495 0 80.1386 12.1165 971 55.0958 887.951 496.699
3496 0 80.1977 10.7484 862 57.2958 888.043 495.708
3497 1 40.0133 9.79675 392 55.0791 888.092 520.194
3498 0 40.0288 8.39395 336 57.7946 888.184 517.914
3499 0 41.058 9.81539 403 56.0596 888.208 514.806
3500 0 42.0281 8.20879 345 57.5536 888.206 518.588
3501 0 43.0319 9.76021 420 56.7429 887.802 516.002
3502 0 45.0316 9.32678 420 57.2333 887.476 516.038
3503 0 48.191 9.13034 440 57.0068 886.761 516.114
3504 0 47.0966 10.6165 500 55.7 887.14 514.918
3505 0 49.0914 10.3888 510 56.3078 887.469 514.6
3506 0 52.1088 10.0559 524 56.7252 887.214 512.185
3507 0 52.057 9.22067 480 58.85 887.969 510.712
3508 0 55.047 9.9188 546 57.5073 887.412 510.573
3509 0 57.0438 11.9557 682 54.8842 887.864 512.328
3510 0 55.0707 9.42425 519 58.1002 887.252 510.672
3511 0 59.1219 10.25 606 57.4142 887.675 511.724
3512 0 58.1058 9.46549 550 58.6 887.831 507.645
3513 0 62.1376 11.7481 730 55.7288 887.859 510.184
3514 0 65.0737 11.5869 754 56.3674 887.495 506.813
3515 0 66.1264 10.616 702 57.1738 887.33 505.946
3516 0 65.2342 9.58086 625 59.0784 887.429 506.64
3517 0 69.1213 9.18674 635 58.9512 887.25 508.049
3518 0 70.1235 10.3674 727 58.4016 887.31 504.812
3519 0 72.2006 9.27971 670 59.3955 887.742 506.755
3520 0 73.1115 10.7233 784 58.773 887.241 506.057
3521 0 75.0874 9.60214 721 60.5825 886.983 504.079
3522 0 78.1022 9.61561 751 60.5433 887.526 500.746
3523 0 82.1368 9.60593 789 60.8188 886.776 502.148
3524 0 84.1364 11.7904 992 59.2591 886.991 498.445
3525 1 43.0887 12.0449 519 55.6455 887.94 519.755
3526 0 44.0192 9.7003 427 59.0515 887.091 518.801
3527 0 45.0288 10.2157 460 58.8217 887.159 517.974
3528 0 46.019 10.4739 482 58.9025 887.307 514.871
3529 0 48.0634 11.3392 545 57.2789 887.117 514.127
3530 0 50.0213 11.2352 562 57.0818 887.408 516.037
3531 0 48.0371 10.6584 512 60.166 887.377 511.488
3532 0 51.0304 11.4834 586 58.587 887.123 511.391
3533 0 53.0231 11.4101 605 58.7884 887.531 512.98
3534 0 54.0561 11.3401 613 59.248 887.17 511.31
3535 0 55.0101 9.61641 529 61.4499 887.344 512.505
3536 0 56.0544 12.5771 705 58.3957 886.962 510.132
3537 0 59.0359 11.1458 658 60.1641 887.27 508.401
3538 0 60.027 9.52904 572 62.2955 887.236 508.878
3539 0 61.073 11.1833 683 60.2606 887.75 508.602
3540 0 63.0481 12.4191 783 58.9183 887.089 505.829
3541 0 65.0314 12.4863 812 59.0973 886.873 505.584
3542 0 67.1826 12.6372 849 58.5583 887.458 506.61
3543 0 67.047 10.5448 707 61.8034 887.504 503.816
3544 0 70.1498 11.618 815 60.7386 887.626 503.036
3545 0 69.0602 9.35415 646 64.192 887.766 501.673
3546 0 72.0808 11.0015 793 62.0378 887.704 502.258
3547 0 75.0513 11.9119 894 60.7673 888.186 500.176
3548 0 79.0583 11.9279 943 60.9067 888.397 498.925
3549 1 42.0261 9.68446 407 61.1843 887.727 517.479
3550 0 42.0247 9.30404 391 62.3044 887.442 518.018
3551 0 43.0407 10.1532 437 62.0664 887.638 516.92
3552 0 44.054 9.14786 403 62.4194 888.146 518.275
3553 0 47.0417 10.1825 479 61.2129 887.154 517.079
3554 0 46.0459 9.9466 458 62.762 886.969 515.389
3555 0 47.0392 10.4594 492 63.0671 886.915 513.126
3556 0 49.0262 10.7494 527 62.2619 887.442 513.848
3557 0 50.0461 10.4504 523 62.3193 888.168 513.987
3558 0 51.0927 11.9978 613 61.9152 887.303 508.458
3559 0 52.0546 10.3161 537 64.0708 887.132 510.041
3560 0 54.0713 11.1519 603 63.4212 886.998 506.851
3561 0 55.1017 10.9071 601 64.1847 886.973 506.233
3562 0 58.0604 10.0068 581 64.4423 887.081 509.232
3563 0 59.0389 10.7726 636 64.6604 887.585 508.314
3564 0 61.0509 11.6624 712 63.1039 887.518 506.139
3565 0 63.068 10.6552 672 64.5387 887.449 504.423
3566 0 64.0777 10.3936 666 65.0886 887.396 504.986
3567 0 67.1508 12.0475 809 62.492 887.592 502.969
3568 0 66.074 9.83745 650 66.2292 887.111 501.558
3569 0 69.0608 10.9034 753 64.9336 887.315 499.944
3570 0 73.0875 10.9732 802 63.8292 887.916 501.89
3571 0 74.081 10.5425 781 64.3303 886.814 502.704
3572 0 73.0767 10.2495 749 66.1535 887.437 496.82
3573 0 78.1063 9.55108 746 65.6662 887.043 499.755
3574 1 41.0198 11.3847 467 62.8929 886.529 513.726
3575 0 42.0111 10.0926 424 64.3774 886.625 514.583
3576 0 43.0305 10.6901 460 63.1196 886.452 514.385
3577 0 45.0257 11.7044 527 62.26 886.444 511.97
3578 0 46.0441 11.337 522 63.3103 886.761 510.318
3579 0 47.0243 10.1224 476 64.7752 887.302 511.605
3580 0 48.0232 10.0993 485 65.0515 887.212 509.142
3581 0 48.0429 9.90782 476 65.5903 886.481 509.103
3582 0 51.0503 10.8324 553 64.1736 887.479 509.57
3583 0 51.0928 9.53167 487 65.9671 887.807 509.719
3584 0 51.1284 9.58372 490 66.9 887.908 507.659
3585 0 54.0412 9.43724 510 66.9196 887.982 506.81
3586 0 57.0473 10.6754 609 64.5369 887.911 507.381
3587 0 58.0502 10.3703 602 65.3256 887.794 504.015
3588 0 60.0891 11.2 673 64.2065 887.504 503.547
3589 0 61.0358 10.2235 624 64.7516 887.724 507.979
3590 0 64.0264 10.8549 695 64.0691 887.994 504.564
3591 0 67.0457 10.903 731 63.5404 887.781 502.057
3592 0 68.0407 11.1992 762 63.4108 887.738 500.884
3593 0 71.0976 10.9005 775 63.2955 887.609 499.263
3594 0 73.0927 10.986 803 63.1843 888.511 498.132
3595 0 72.0498 10.1319 730 65.0356 887.978 496.541
3596 0 77.1108 10.5692 815 63.5791 888.307 498.686
3597 0 81.0293 10.1938 826 64.3014 889.16 497.487
3598 1 44.0168 10.1325 446 63.0224 889.016 513.26
3599 0 46.0942 10.7606 496 60.5625 889.369 516.181
3600 0 45.0613 10.0308 452 61.9978 889.261 513.85
3601 0 47.0581 11.5814 545 59.0532 888.648 514.303
3602 0 48.0303 10.5142 505 60.905 888.689 513.986
3603 0 51.0573 9.79292 500 61.124 888.468 511.772
3604 0 53.0533 10.5931 562 60.073 887.956 512.139
3605 0 54.0726 10.5599 571 59.8004 888.741 511.147
3606 0 53.0192 9.78891 519 60.9133 887.607 511.014
3607 0 55.0488 10.2636 565 59.7858 888.299 510.34
3608 0 55.0519 9.55462 526 60.9639 887.975 509.405
3609 0 51.037 5.2511 268 66.5821 888.22 502.052
3610 0 61.0509 9.6313 588 60.7279 887.701 509.148
3611 0 62.0462 10.6695 662 60.2447 887.477 506.944
3612 0 63.0237 10.504 662 60.6375 887.826 507.68
3613 0 66.0479 10.6892 706 60.1997 887.424 506.64
3614 0 68.2157 10.9506 747 59.9746 887.485 503.74
3615 0 70.0576 10.3201 723 60.9862 887.325 502.516
3616 0 69.0442 11.0654 764 60.6361 886.734 502.891
3617 0 73.11 10.9561 801 60.3483 886.758 499.614
3618 0 73.0959 9.85008 720 62.2903 886.853 498.904
3619 0 79.0605 10.1821 805 61.2547 886.548 499.493
3620 0 79.0408 11.1841 884 61.0147 885.859 497.975
3621 0 82.0733 11.7456 964 59.7946 886.81 497.654
3622 1 42.019 9.44812 397 59.403 885.776 518.267
3623 0 45.0535 8.94492 403 59.7494 886.414 517.911
3624 0 47.1165 12.225 576 56.0069 886.45 517.422
3625 0 47.0532 10.4988 494 58.164 886.04 517.022
3626 0 49.0343 11.6449 571 56.7881 886.305 515.615
3627 0 49.0149 9.62973 472 60.3771 886.195 515.661
3628 0 51.0482 9.99055 510 59.8294 887.243 515.765
3629 0 52.0282 9.57173 498 59.7932 886.376 514.699
3630 0 52.027 9.61039 500 59.892 886.48 512.652
3631 0 52.0522 9.0294 470 60.7234 886.577 511.587
3632 0 55.0793 10.385 572 59.25 886.839 510.274
3633 0 58.0792 10.7267 623 58.557 886.921 509.883
3634 0 59.0346 8.99472 531 60.4896 886.471 509.977
3635 0 58.033 9.52906 553 60.4141 886.644 509.311
3636 0 62.0468 10.5727 656 58.4344 886.838 508.849
3637 0 62.1364 9.624 598 60.2341 886.903 504.381
3638 0 69.0612 11.7287 810 56.5556 886.47 507.046
3639 0 70.1414 11.32 794 57.2632 886.904 503.879
3640 0 71.097 10.4364 742 58.628 886.724 503.929
3641 0 74.0898 11.0137 816 58.136 887.377 500.303
3642 0 76.0776 11.6329 885 57.4079 886.625 502.016
3643 0 78.1387 11.3772 889 57.8796 886.472 496.542
3644 0 82.0527 12.1751 999 56.6907 885.942 497.841
3645 1 40.0173 8.54631 342 60.0848 885.442 518.208
3646 0 43.0334 11.5027 495 56.6162 886.964 515.836
3647 0 43.0157 9.88011 425 58.7929 886.219 512.668
3648 0 46.0181 10.3438 476 56.6723 886.628 513.599
3649 0 45.0338 9.99248 450 57.5778 886.907 513.336
3650 0 46.039 9.42679 434 58.318 886.454 512.79
3651 0 47.0379 9.63054 453 57.5497 886.854 516.506
3652 0 49.0464 11.0304 541 56.3567 887.959 512.996
3653 0 51.0635 10.4967 536 57.0746 888.069 510.41
3654 0 52.0654 10.7557 560 56.5179 887.225 514.045
3655 0 50.02 9.27629 464 59.7198 887.47 509.183
3656 0 54.0929 10.8517 587 57.0852 887.475 509.061
3657 0 56.0367 10.279 576 57.9965 887.675 506.264
3658 0 58.041 10.9061 633 57.2512 887.235 506.622
3659 0 59.0281 9.55477 564 58.922 887.7 510.168
3660 0 61.0661 10.3167 630 58.6302 887.73 508.032
3661 0 61.051 9.5494 583 59.1372 887.441 506.172
3662 0 65.0873 11.523 750 56.3627 887.268 504.295
3663 0 66.1022 10.5897 700 57.4443 887.534 505.953
3664 0 67.0596 11.0051 738 57.6694 887.785 503.841
3665 0 69.0602 10.9615 757 58.1691 887.622 499.367
3666 0 72.0504 10.5482 760 58.1171 888.241 499.168
3667 0 74.1479 10.6004 786 58.2099 887.777 498.408
3668 0 75.0959 8.72218 655 60.5725 887.224 496.417
3669 0 80.1737 11.0261 884 57.5667 887.011 497.785
3670 0 82.1545 11.9531 982 56.7373 887.148 494.327
3671 1 42.1266 9.49518 400 57.1075 886.525 516.592
3672 0 42.041 9.94267 418 57.2943 886.605 514.435
3673 0 41.0579 8.32971 342 60.0175 885.962 512.319
3674 0 45.0562 9.54363 430 58.0977 886.107 512.346
3675 0 47.0597 10.1786 479 56.6138 885.988 513.63
3676 0 47.0379 11.1825 526 56.5818 885.99 510.407
3677 0 48.0592 8.38548 403 58.7171 886.124 509.916
3678 0 50.0584 9.74862 488 57.6783 887.016 509.982
3679 0 52.1038 8.94368 466 57.7511 887.311 510.431
3680 0 55.1242 10.1589 560 56.6446 887.134 507.63
3681 0 58.0514 13.0918 760 53.5829 886.386 508.786
3682 0 58.1107 11.22 652 55.7914 886.615 506.239
3683 0 59.0239 12.8761 760 54.321 886.383 507.032
3684 0 61.081 11.1491 681 55.3994 887.103 504.379
3685 0 65.1388 11.0533 720 55.2819 887.253 506.033
3686 0 63.0714 9.94112 627 56.8596 886.852 502.585
3687 0 66.1908 10.5755 700 56.5086 887.04 503.921
3688 0 70.05 10.5496 739 56.0149 887.34 503.135
3689 0 71.0755 11.0587 786 55.6858 888.265 503.37
3690 0 73.1192 10.6538 779 56.1117 887.673 498.068
3691 0 76.0806 9.41108 716 57.264 887.577 498.923
3692 1 38.0512 8.38345 319 57.9185 887.665 516.398
3693 0 40.034 10.2913 412 55.5218 887.32 515.403
3694 0 42.0334 9.63519 405 56.4395 887.198 514.072
3695 0 42.0799 9.7196 409 56.7482 887.313 511.853
3696 0 45.0885 9.44809 426 57.3592 887.678 510.559
3697 0 43.0122 8.81146 379 58.1346 887.48 508.871
3698 0 46.023 10.9728 505 55.7881 886.418 510.299
3699 0 48.0158 10.1425 487 56.2115 887.335 509.686
3700 0 49.1091 8.81711 433 57.7044 886.922 506.801
3701 0 50.0264 10.5544 528 56.6439 887.263 505.691
3702 0 52.0719 9.31404 485 58.3608 886.171 505.606
3703 0 53.0694 8.68674 461 58.8785 886.811 504.879
3704 0 56.0435 11.4197 640 56.1266 886.809 503.972
3705 0 58.0325 9.30513 540 58.3111 886.996 505.411
3706 0 60.1155 9.49839 571 58.4588 887.165 500.786
3707 0 62.0839 10.6147 659 57.0577 887.15 498.857
3708 0 63.1128 10.7902 681 57.6079 887.962 500.49
3709 0 63.0669 10.4651 660 58.6924 887.527 498.347
3710 0 67.0624 9.52844 639 59.5712 887.667 498.493
3711 0 69.0959 11.911 823 57.2126 887.407 497.912
3712 0 71.0608 10.9343 777 58.471 888.14 495.188
3713 0 75.0227 11.01 826 58.0714 887.876 499.238
3714 0 76.0891 10.0803 767 60.4994 886.944 494.09
3715 0 79.0571 12.4973 988 57.8057 887.737 492.006
3716 1 41.0315 8.74938 359 59.4735 886.858 513.139
3717 0 40.0785 7.88452 316 60.6108 886.731 514.513
3718 0 43.0422 10.4548 450 57.8489 886.658 512.104
3719 0 44.0208 9.92713 437 58.6362 887.389 507.822
3720 0 40.014 8.44705 338 61.8018 887.964 506.349
3721 0 43.0263 9.7847 421 60.2447 887.995 507.42
3722 0 49.0346 11.3389 556 55.9227 888.072 509.703
3723 0 46.0837 9.48274 437 59.5881 888.732 508.552
3724 0 50.0325 9.09408 455 59.1451 888.567 508.938
3725 0 48.0399 8.55538 411 60.4209 887.608 506.791
3726 0 50.0174 7.73731 387 60.969 887.744 500.271
3727 0 53.046 9.93477 527 58.9734 887.932 505.125
3728 0 55.0401 8.86626 488 60.4078 887.793 503.25
3729 0 58.0388 11.0788 643 57.79 887.484 501.022
3730 0 58.043 9.47573 550 60.0527 888.364 501.28
3731 0 61.0523 9.18884 561 60.1087 887.831 501.446
3732 0 65.0233 10.7808 701 58.0028 888.04 502.665
3733 0 65.0632 9.69826 631 59.4881 887.753 502.255
3734 0 68.0916 8.98789 612 60.6569 888.466 500.157
3735 0 67.0622 11.7056 785 57.9694 887.902 499.73
3736 0 70.0505 9.3504 655 60.7405 888.308 498.944
3737 0 73.1362 9.44812 691 60.8191 888.492 499.467
3738 0 76.1046 10.8009 822 58.9124 889.234 497.606
3739 0 74.0998 9.16331 679 61.5258 888.979 493.514
3740 0 78.1889 9.20847 720 60.9444 889.078 498.951
3741 1 39.0355 7.83903 306 60.0654 889.003 517.101
3742 0 42.0231 8.44774 355 59.3268 889.335 517.51
3743 0 44.0453 9.49023 418 57.7608 889.112 516.88
3744 0 46.0186 9.34405 430 58.3442 888.67 517.005
3745 0 46.0355 9.18857 423 60.0189 888.91 513.844
3746 0 49.032 10.7481 527 58.203 888.607 514.763
3747 0 51.0454 9.48175 484 60.4132 888.731 513.554
3748 0 52.0456 10.2794 535 59.3514 888.097 510.89
3749 0 53.0325 11.9549 634 57.6009 888.092 513.235
3750 0 52.0154 9.15113 476 61.8845 888.559 511.769
3751 0 56.0293 10.1376 568 60.5334 887.884 512.805
3752 0 53.0531 8.70826 462 63.3095 887.803 511.366
3753 0 59.0502 10.4487 617 60.248 887.885 510.11
3754 0 59.0802 10.765 636 60.6179 887.77 510.25
3755 0 62.0305 9.91447 615 62.039 888.111 507.426
3756 0 63.0414 9.20031 580 63.3828 887.878 505.997
3757 0 66.0436 10.5385 696 61.296 888.336 507.937
3758 0 67.0199 9.90751 664 62.509 887.684 506.848
3759 0 69.0746 10.5683 730 61.7082 888.368 504.362
3760 0 71.1091 9.68934 689 62.8694 888.996 506.341
3761 0 73.1464 9.80226 717 63.5649 888.259 501.445
3762 0 75.2768 11.2518 847 61.0968 887.616 502.248
3763 0 77.1957 9.90988 765 62.8863 887.72 502.647
3764 1 38.0152 6.36588 242 66.0702 886.128 521.777
3765 0 42.1109 9.54623 402 62.592 885.607 519.087
3766 0 41.0642 9.27815 381 63.9186 886.218 516.948
3767 0 44.0429 11.1028 489 60.5522 885.658 518.505
3768 0 46.1176 10.3648 478 61.5983 885.234 517.364
3769 0 47.0604 10.6459 501 61.3034 885.216 517.407
3770 0 46.0636 9.2915 428 63.3014 885.565 516.416
3771 0 46.0747 8.8769 409 63.2738 885.795 514.587
3772 0 49.1987 7.86606 387 63.8915 886.264 515.013
3773 0 51.1303 10.0527 514 61.7549 886.239 512.265
3774 0 53.1042 11.3174 601 60.5607 886.03 511.301
3775 0 55.1153 10.9589 604 60.1242 885.818 514.629
3776 0 57.2633 10.67 611 60.9034 885.75 512.038
3777 0 58.1999 9.63919 561 62.6774 885.214 512.606
3778 0 58.1719 11.4144 664 60.6386 885.349 510.471
3779 0 59.2479 10.7514 637 61.6279 885.069 509.78
3780 0 63.2518 10.7823 682 61.0147 885.139 509.113
3781 0 62.2161 9.32234 580 63.2897 885.455 509.455
3782 0 65.1692 10.1735 663 61.7964 885.962 508.57
3783 0 66.2037 9.68223 641 63.1591 884.889 508.145
3784 0 70.1706 11.6145 815 61.092 885.312 504.416
3785 0 72.2331 11.9336 862 60.7367 885.736 501.546
3786 0 73.3003 12.1418 890 60.5865 886.07 501.211
3787 0 73.2395 10.7456 787 63.3736 886.047 500.869
3788 0 78.2443 11.413 893 61.4726 886.092 499.445
3789 0 80.2789 11.3978 915 61.3093 886.63 498.908
3790 0 81.3035 10.9835 893 62.5834 886.37 496.662
3791 1 37.0217 9.37287 347 62.3919 886.288 518.865
3792 0 39.0262 10.2495 400 61.02 886.165 518.032
3793 0 39.0732 10.0069 391 61.6522 886.33 517.619
3794 0 40.1681 9.58472 385 62.6234 886.065 516.099
3795 0 43.057 9.77773 421 61.8432 885.361 516.428
3796 0 45.0147 11.7073 527 59.3928 885.528 513.829
3797 0 42.0126 8.9497 376 63.2793 885.785 514.601
3798 0 47.0284 10.9508 515 60.2835 885.678 515.421
3799 0 48.0293 10.5561 507 60.4556 885.536 514.436
3800 0 49.1246 10.4836 515 61.4816 885.254 511.466
3801 0 52.0376 10.6461 554 61.1101 885.507 510.834
3802 0 52.0565 10.1428 528 60.5303 885.869 512.002
3803 0 53.1001 11.9397 634 58.3659 885.932 510.314
3804 0 54.1085 10.7007 579 59.924 885.945 511.221
3805 0 57.0619 12.7055 725 57.5641 886.443 510.17
3806 0 57.0573 11.1467 636 60.6132 886.077 506.171
3807 0 59.0704 11.1392 658 59.6155 885.723 507.69
3808 0 62.0602 12.3267 765 58.1739 885.596 506.939
3809 0 60.0564 10.9397 657 60.7473 885.83 505.781
3810 0 63.1389 10.9125 689 61.4035 886.605 503.885
3811 0 67.1602 11.4056 766 59.8316 886.181 506.14
3812 0 68.1226 13.05 889 58.82 886.458 501.832
3813 0 69.076 13.0291 900 58.54 886.414 501.983
3814 0 70.1569 12.6431 887 59.637 886.618 501.294
3815 0 74.0479 13.7749 1020 57.9196 886.269 500.11
3816 1 38.0517 9.43454 359 62.6435 885.621 518.223
3817 0 42.0252 10.0178 421 61.8504 885.48 517.62
3818 0 41.0169 11.4587 470 61.1596 885.913 513.94
3819 0 41.0199 10.4827 430 62.1581 886.126 515.705
3820 0 42.0284 10.9926 462 62.2554 886.374 513.16
3821 0 43.0097 10.858 467 62.2248 886.002 513.619
3822 0 43.0483 11.3129 487 62.6366 886.316 512.166
3823 0 44.0564 10.827 477 63.0629 885.788 513.138
3824 0 48.0707 12.3776 595 60.5294 885.274 511.587
3825 0 47.0915 11.106 523 63.021 885.576 511.279
3826 0 51.05 12.8893 658 60.5684 886.641 508.775
3827 0 51.0564 11.928 609 62.041 886.232 510.1
3828 0 51.1205 13.2237 676 61.3254 886.54 507.956
3829 0 52.2429 11.3317 592 62.9223 886.598 509.461
3830 0 54.0565 12.7829 691 61.7077 887.051 506.392
3831 0 56.1371 11.2225 630 62.881 886.398 507.66
3832 0 58.0316 12.7172 738 61.5813 886.751 505.36
3833 0 60.1398 12.1716 732 61.9904 886.955 505.989
3834 0 62.0543 13.1175 814 61.231 887.06 504.227
3835 0 63.088 12.8075 808 61.3465 886.493 503.401
3836 0 62.0809 11.2112 696 64.1494 886.727 502.592
3837 0 67.0682 12.3904 831 61.8748 887.094 501.504
3838 0 69.0712 11.4085 788 63.3122 886.466 501.664
3839 0 69.0883 12.4913 863 62.4137 886.91 499.674
3840 0 70.0799 11.1302 780 64.0987 887.14 499.367
3841 1 39.0936 10.4876 410 63.3244 886.768 515.485
3842 0 39.0677 10.8018 422 63.5355 886.718 513.384
3843 0 38.0298 10.071 383 65.4151 887.057 513.031
3844 0 42.0396 13.297 559 61.0429 886.674 512.984
3845 0 42.053 10.7008 450 64.3889 887.289 513.987
3846 0 45.0651 10.8953 491 63.9959 886.784 511.191
3847 0 46.0188 11.0607 509 64.0688 886.393 510.87
3848 0 48.0369 12.5112 601 61.9135 886.947 511.231
3849 0 49.0431 12.3565 606 63.3548 887.173 511.452
3850 0 50.0286 10.8538 543 65.965 887.096 507.436
3851 0 51.0262 12.5034 638 64.0517 886.87 507.683
3852 0 54.045 10.8243 585 65.7282 887.692 508.87
3853 0 54.0765 12.3714 669 64.9895 886.961 508.118
3854 0 55.0479 12.1167 667 65.2714 887.399 507.463
3855 0 57.0238 11.1532 636 66.9513 887.61 507.233
3856 0 60.1123 11.229 675 66.6222 887.268 505.301
3857 0 61.0469 13.203 806 64.9194 888.064 503.469
3858 0 63.0578 10.8631 685 68.3781 887.58 502.28
3859 0 66.0391 11.5841 765 67.3726 887.707 500.007
3860 0 70.1067 12.4097 870 66.4828 888.099 500.413
3861 0 68.053 11.638 792 68.4318 888.562 498.931
3862 0 73.0823 11.2886 825 68.2424 888.76 499.931
3863 0 74.0292 11.6035 859 68.2421 888.899 497.478
3864 0 81.0456 13.1284 1064 65.4164 889.192 497.142
3865 1 42.0137 7.78318 327 69.9297 888.908 514.96
3866 0 46.0387 12.2506 564 64.7323 888.697 514.77
3867 0 46.0818 11.4145 526 66.0608 888.268 513.88
3868 0 47.099 12.8665 606 64.8086 888.838 511.51
3869 0 51.1226 10.1129 517 66.6499 887.996 512.93
3870 0 51.0231 11.6418 594 65.1902 887.522 511.734
3871 0 53.1271 11.4442 608 66.046 887.768 512.632
3872 0 54.077 11.9644 647 64.8949 887.354 510.977
3873 0 56.0495 11.472 643 66.0886 887.681 509.955
3874 0 60.0361 11.5098 691 65.4834 887.164 508.891
3875 0 58.0377 10.6483 618 68.3608 887.275 509.233
3876 0 61.0689 12.5105 764 65.5759 887.722 506.448
3877 0 63.133 10.4858 662 68.6511 887.542 506.952
3878 0 63.0874 12.4748 787 66.108 887.586 506.759
3879 0 68.0927 12.2921 837 65.5783 887.654 503.342
3880 0 69.0358 13.0222 899 64.97 887.239 501.314
3881 0 69.3476 12.5022 867 66.3149 887.611 500.213
3882 0 71.0642 11.8766 844 66.4017 887.2 502.378
3883 0 72.1732 11.4031 823 67.6379 887.535 498.595
3884 0 75.1225 13.072 982 65.6528 887.326 497.15
3885 0 77.189 11.4006 880 68.1318 887.316 497.331
3886 0 80.0679 12.6892 1016 66.5148 887.681 495.3
3887 0 82.1027 12.4722 1024 67.5322 887.641 493.161
3888 0 84.0603 12.8479 1080 66.5232 888.433 491.191
3889 1 42.0878 10.6207 447 67.3669 887.87 510.051
3890 0 43.0678 9.03228 389 70.3805 888.172 508.339
3891 0 42.0383 9.32483 392 67.8393 887.482 507.35
3892 0 43.0587 9.12708 393 67.6768 887.715 510.57
3893 0 46.0464 9.53386 439 66.9066 887.451 511.066
3894 0 47.0353 10.8217 509 67.8526 887.666 512.929
3895 0 42.089 11.6895 492 72.0366 887.809 515.793
3896 0 43.1608 10.0786 435 73.7264 888.202 515.398
3897 0 45.0498 10.6105 478 71.7594 887.561 514.728
3898 0 46.0946 9.74083 449 72.412 887.492 513.405
3899 0 45.03 10.9261 492 73.5488 887.468 515.307
3900 0 43.015 12.2748 528 72.9886 887.754 512.347
3901 0 46.1033 11.5827 534 73.0992 887.118 513.682
3902 0 44.0231 11.8801 523 73.5124 887.583 516.738
3903 0 46.0436 12.3144 567 73.9436 887.63 513.554
3904 0 48.0802 13.2903 639 71.2958 887.311 515.537
3905 0 47.0392 13.2443 623 72.6244 887.36 514.953
3906 0 45.0761 13.2221 596 75.6493 887.302 509.139
3907 0 45.1198 11.6135 524 77.9351 886.866 508.735
3908 0 46.0759 12.7616 588 75.1326 886.464 509.299
3909 0 45.1846 12.1059 547 77.8921 886.596 509.395
3910 0 45.0846 12.8869 581 77.6902 886.492 509.69
3911 0 45.0283 12.2812 553 79.5298 886.391 509.233
3912 0 45.1266 15.2682 689 74.7808 886.309 508.954
3913 0 46.129 12.3133 568 79.6549 885.972 511.472
3914 0 46.1284 12.8121 591 78.9052 887.039 512.156
3915 0 47.1087 13.1823 621 77.6554 886.432 512.483
3916 0 49.0634 12.7386 625 77.5488 886.538 512.046
3917 0 48.1119 12.3254 593 78.7454 885.847 514.293
3918 0 48.1077 12.4512 599 79.9967 885.903 513.329
3919 0 48.1588 11.8566 571 80.7898 885.3 515.384
3920 0 47.1921 13.1378 620 78.9323 885.808 517.106
3921 0 48.1318 13.5461 652 78.6948 886.252 517.564
3922 0 49.1319 12.1713 598 81.0652 886.646 516.467
3923 0 48.0599 13.2543 637 80.6154 886.234 513.945
3924 0 50.0923 14.4932 726 77.7052 885.944 514.592
3925 0 50.1856 13.5298 679 81.2062 886.645 514.779
3926 0 49.1542 13.6509 671 81.465 886.58 515.13
3927 0 50.0794 12.8796 645 82.5907 886.66 514.332
3928 0 51.1813 13.1103 671 83.0686 885.465 517.38
3929 0 51.0724 14.3717 734 80.9918 885.882 515.939
3930 0 50.0808 12.8193 642 86.4891 886.237 516.578
3931 0 51.007 13.9197 710 85.8113 885.618 513.49
3932 0 52.0351 12.4339 647 87.5487 886.153 513.696
3933 0 56.023 13.8693 777 81.5277 886.027 515.247
3934 0 57.0232 14.5029 827 80.1306 885.669 514.799
3935 0 61.0802 14.3582 877 77.6693 886.68 515.39
3936 0 60.0868 13.3806 804 79.8968 886.496 517.985
3937 0 58.1425 14.6708 853 79.5369 885.948 517.55
3938 0 63.1351 12.798 808 77.0062 886.125 511.158
3939 1 22.0473 7.84676 173 59.6936 886.26 525.653
3940 0 25.0244 7.79238 195 66.3026 886.42 527.246
3941 0 24.1209 13.7225 331 70.8459 886.251 529.952
3942 0 26.1743 15.0147 393 77.7277 885.875 532.336
3943 0 24.1205 12.1059 292 91.0342 885.76 533.592
3944 0 21.0119 13.0402 274 98.9489 885.628 533.65
3945 0 18.1996 13.352 243 119.016 884.354 534.518
3946 0 19.1388 13.6895 262 123.687 884.569 534.366
