time division length width area intensity CMx CMy
0 0 83.0551 12.9553 1076 82.2519 590.034 352.116
1 1 42.0105 12.0208 505 81.503 589.739 370.325
2 0 42.0148 11.4721 482 82.7697 589.896 372.423
3 0 44.1265 11.9882 529 81.6106 590.009 372.881
4 0 44.0393 11.7622 518 82.7664 589.49 371.892
5 0 45.0871 12.1321 547 81.7185 588.993 373.927
6 0 48.058 11.07 532 82.4624 589.442 373.87
7 0 50.0917 13.4952 676 78.3639 588.725 373.667
8 0 50.0974 12.3959 621 80.3688 588.776 374.164
9 0 54.0468 12.7297 688 78.564 588.483 374.59
10 0 54.0542 12.765 690 79.2333 588.464 374.452
11 0 56.103 12.8157 719 78.128 587.78 375.465
12 0 60.0539 12.289 738 78.0691 587.68 376.027
13 0 60.066 12.6527 760 77.7526 587.683 374.376
14 0 60.0457 11.3747 683 80.4451 587.473 375.168
15 0 63.1077 12.3757 781 78.8284 587.497 372.844
16 1 127.206 11.3674 1446 62.6812 587.326 351.786
17 0 128.137 10.1142 1296 64.4946 587.222 360.963
18 0 126.053 9.51186 1199 69.0701 587.561 371.407
19 0 128.089 9.5168 1219 69.1378 587.846 369.772
20 0 126.092 10.2861 1297 68.8011 588.041 368.415
21 0 138.261 11.8833 1643 62.7316 588.066 355.253
22 0 137.216 10.6402 1460 67.4164 587.886 365.033
23 0 140.373 9.71697 1364 69.5235 587.622 358.49
24 0 140.498 12.3703 1738 64.3487 587.178 358.163
25 1 43.0163 11.9257 513 75.5283 587.618 394.302
26 0 44.1251 11.1048 490 77.5143 587.447 395.159
27 0 46.1073 12.4058 572 74.757 586.879 396.089
28 0 47.064 11.4525 539 76.7996 587.566 395.755
29 0 50.0458 12.3886 620 74.85 587.934 395.403
30 0 50.0463 13.4475 673 73.5958 587.212 394.318
31 0 52.0697 11.7151 610 76.1 586.951 395.518
32 0 53.0921 12.7326 676 74.2885 586.565 396.552
33 0 53.0454 11.8389 628 75.8137 586.495 397.363
34 0 55.0629 12.2405 674 74.8071 586.972 398.444
35 0 58.0795 12.8789 748 73.1217 586.33 398.052
36 0 58.1065 12.9245 751 73.3076 586.867 397.523
37 0 60.1075 10.7474 646 76.4954 586.683 398.155
38 0 61.0345 11.5017 702 76 587.296 396.745
39 0 65.1424 12.8948 840 72.981 587.208 398.214
40 0 68.0607 13.15 895 71.7598 586.854 399.197
41 0 71.0968 12.7854 909 72.2651 587.209 399.067
42 0 71.057 10.6393 756 74.8955 587.037 401.868
43 0 73.1122 13.0758 956 71.7803 587.058 396.309
44 0 75.1071 12.3956 931 72.7068 587.126 397.245
45 0 80.1219 13.0177 1043 71.2483 587.114 392.831
46 0 80.1576 13.2364 1061 71.0264 587.239 392.709
47 0 82.1389 12.3206 1012 72.5287 586.93 393.845
48 1 42.0948 9.47861 399 72.3008 586.912 413.211
49 0 42.039 10.7281 451 71.5344 586.827 411.947
50 0 46.0793 11.2415 518 69.3707 586.645 412.708
51 0 47.0677 11.1541 525 68.7314 586.96 412.634
52 0 48.1746 12.2886 592 67.701 587.125 411.139
53 0 49.0595 12.7396 625 67.4976 587.205 409.814
54 0 50.0885 13.2366 663 65.8733 586.792 412.184
55 0 52.0731 10.9654 571 69.2872 586.867 410.729
56 0 53.1197 11.2388 597 68.5193 586.586 411.514
57 0 55.0451 11.8812 654 67.8135 586.644 410.442
58 0 55.0598 12.0959 666 67.7357 586.742 409.685
59 0 59.0795 11.1883 661 68.2799 586.678 409.513
60 0 61.0276 12.7647 779 66.0603 586.859 407.679
61 0 64.1507 12.7512 818 65.4792 586.836 404.517
62 0 64.069 13.4074 859 65.3038 587.177 403.97
63 0 66.0639 12.8966 852 65.9296 586.676 402.715
64 0 69.066 12.2057 843 66.8244 587.02 403.843
65 0 71.0684 13.5644 964 65.2842 586.975 400.657
66 0 72.1676 14.0229 1012 65.1957 587.299 399.905
67 0 74.1408 12.247 908 67.5441 585.782 401.585
68 0 78.0678 13.9878 1092 65.2949 585.826 398.38
69 0 81.0618 12.8174 1039 67.1781 586.103 398.427
70 1 40.06 10.8587 435 67.2713 586.262 417.811
71 0 42.0549 12.6977 534 65.2491 585.933 418.021
72 0 42.0734 11.0284 464 68.2457 585.955 417.722
73 0 44.0952 11.8153 521 67.643 586.221 416.806
74 0 45.0541 11.3863 513 68.1209 585.977 418.708
75 0 46.0829 11.9133 549 68.623 586.876 416.683
76 0 47.0541 12.3687 582 68.3436 586.072 415.62
77 0 50.0119 11.6172 581 67.7435 585.819 418.437
78 0 50.1823 13.5705 681 66.8855 586.157 414.665
79 0 51.1671 11.394 583 70.5437 586.214 414.847
80 0 53.1064 11.2228 596 70.5319 586.22 414.896
81 0 55.2288 13.0005 718 67.8273 586.731 415.313
82 0 57.1443 12.0922 691 68.508 586.227 413.511
83 0 57.2104 11.1868 640 70.8578 585.766 412.548
84 0 60.0356 12.1095 727 68.7689 585.814 411.717
85 0 62.0451 13.1195 814 67.2654 586.171 410.237
86 0 62.1385 13.1802 819 67.2186 585.983 410.252
87 0 65.2347 11.1904 730 69.7507 586.085 409.603
88 0 67.1261 13.8247 928 65.8319 586.131 407.453
89 0 67.1061 11.832 794 69.0869 586.369 407.587
90 0 70.0831 13.484 945 66.7587 586.659 403.964
91 0 72.2101 12.4221 897 67.5162 586.457 404.014
92 0 74.1653 11.6227 862 68.9269 586.557 401.088
93 1 38.0186 10.3634 394 68.0964 586.145 421.416
94 0 38.0295 8.88784 338 70.6864 586.678 420.169
95 0 41.1171 9.87425 406 68.2217 586.663 421.241
96 0 42.0949 10.999 463 67.0367 586.257 419.572
97 0 45.1997 11.7036 529 65.9716 586.27 419.115
98 0 46.0741 11.0691 510 66.7922 586.341 417.69
99 0 46.1023 11.084 511 67.0196 586.56 416.802
100 0 47.0415 10.7565 506 67.6917 586.615 416.812
101 0 50.1079 11.595 581 66.2169 586.213 413.578
102 0 52.0165 10.6312 553 67.7179 586.474 413.707
103 0 53.0643 11.1563 592 67.228 586.495 413.465
104 0 52.0866 11.3657 592 68.4341 586.742 412.044
105 0 54.1141 9.60932 520 70.4308 586.529 413.752
106 0 56.0777 10.8778 610 68.6541 586.415 413.556
107 0 58.1431 10.4742 609 69.5961 586.655 411.757
108 0 59.1191 11.0962 656 69.7454 585.78 408.261
109 0 62.2967 10.129 631 70.5214 586.246 411.157
110 0 64.4073 11.567 745 68.2685 586.431 409.754
111 0 64.227 11.2881 725 69.4745 586.759 408.287
112 0 70.252 11.3022 794 68.1927 586.636 406.749
113 0 72.106 12.4816 900 67.1356 586.48 405.764
114 0 72.1765 11.7074 845 69.1846 586.728 404.596
115 0 75.2285 11.6977 880 68.5068 586.833 404.759
116 1 37.0401 9.07126 336 68.8958 586.893 423.384
117 0 41.1492 10.4498 430 66.0279 586.802 422.242
118 0 40.03 9.14314 366 68.6366 586.273 420
119 0 41.0811 9.44474 388 69.0052 586.418 419.541
120 0 41.058 9.35263 384 68.9219 586.599 420.969
121 0 44.0676 10.2797 453 67.4216 587.166 420.108
122 0 45.2215 8.53577 386 70.3964 586.653 417.394
123 0 46.0724 10.4835 483 68.0994 586.903 415.687
124 0 49.0926 10.7552 528 67.1231 587.097 415.769
125 0 50.113 9.95749 499 68.3988 587.242 414.309
126 0 50.0174 8.79693 440 70.7023 587.534 414.15
127 0 55.0964 11.4164 629 65.911 586.94 412.294
128 0 55.1114 11.6491 642 65.8411 586.382 410.302
129 0 58.0359 11.7858 684 64.9211 586.329 409.532
130 0 61.0973 11.7681 719 65.0501 586.591 405.138
131 0 62.0528 11.0551 686 66.191 586.655 406.047
132 0 62.0702 10.4881 651 67.5284 587.066 405.691
133 0 64.146 11.3335 727 67.1527 587.276 403.199
134 0 66.0864 11.1369 736 67.2677 587.788 403.564
135 0 69.1072 12.2563 847 65.327 587.244 403.201
136 0 72.1365 12.1298 875 65.4891 587.246 402.601
137 0 73.2772 12.6642 928 65.0647 587.228 401.308
138 0 76.1401 10.9272 832 67.5312 587.167 399.617
139 0 78.1598 10.1459 793 68.3846 586.492 399.657
140 0 81.1962 11.1212 903 67.2492 586.45 396.723
141 0 82.229 11.4315 940 67.2617 586.252 396.265
142 0 86.2429 11.8503 1022 67.3982 587.061 394.119
143 1 44.1021 10.5891 467 64.1991 586.266 417.565
144 0 47.1939 10.976 518 65.0927 586.859 414.261
145 0 47.0703 9.6239 453 67.0132 587.214 413.254
146 0 48.0401 10.3872 499 64.8818 586.828 414.818
147 0 50.1139 10.975 550 64.7 587.142 413.125
148 0 54.1119 11.661 631 62.9968 586.642 412.544
149 0 54.1978 10.4432 566 65.2014 586.67 410.539
150 0 57.2812 10.4397 598 65.0117 586.517 409.577
151 0 55.1604 11.2218 619 64.6769 586.866 406.716
152 0 56.2303 9.63893 542 67.9207 587.113 406.862
153 0 61.2861 12.0256 737 63.2795 587.973 408.151
154 0 61.2891 11.4213 700 64.9914 587.577 404.504
155 0 63.1194 11.5337 728 64.4423 587.891 406.63
156 0 67.2034 13.2582 891 61.7037 587.745 405.64
157 0 67.3777 11.6359 784 64.5753 587.517 403.791
158 0 69.2657 11.6652 808 64.88 587.64 403.376
159 0 70.1703 10.9876 771 66.1946 587.803 401.913
160 0 73.2843 11.6805 856 64.8762 587.439 400.666
161 0 75.4409 11.3997 860 65.4047 587.2 399.821
162 0 76.1304 11.9269 908 65.1487 587.551 397.348
163 0 80.377 10.6871 859 66.4983 587.382 398.704
164 1 44.1208 10.1313 447 65.7025 587.655 416.083
165 0 42.0787 9.86248 415 68.2313 587.564 414.581
166 0 45.1985 11.1508 504 65.754 587.139 414.5
167 0 44.1306 10.8768 480 66.2875 587.452 413.788
168 0 47.1432 10.2666 484 66.2066 586.773 414.072
169 0 49.1907 11.4859 565 64.8177 586.457 411.604
170 0 52.0687 10.9087 568 65.2711 586.762 411.569
171 0 50.0408 11.4307 572 65.5245 587.091 409.302
172 0 54.131 12.9501 701 61.9929 586.603 408.479
173 0 53.0391 10.2566 544 66.4375 586.476 408.445
174 0 55.0686 11.0226 607 65.0923 586.998 408.4
175 0 56.0979 10.8025 606 65.3086 586.908 407.957
176 0 59.0607 11.8183 698 64.0229 587.368 404.272
177 0 61.1131 11.0942 678 65.1357 587.593 402.1
178 0 61.1109 10.1128 618 66.9142 587.744 403.332
179 0 64.1016 10.9202 700 65.3371 587.329 403.14
180 0 66.1478 10.8696 719 64.8846 586.414 403.609
181 0 67.0392 11.3068 758 64.8945 586.319 401.625
182 0 70.0301 12.2804 860 63.7779 586.631 398.245
183 0 72.1654 10.5314 760 66.2921 586.378 398.887
184 0 74.1284 11.7634 872 64.7018 586.884 396.772
185 0 76.0815 11.3168 861 65.5157 586.152 395.865
186 0 78.0896 12.8314 1002 63.2186 585.685 395.905
187 0 82.1366 11.7487 965 64.4332 586.075 395.462
188 1 43.1031 10.6721 460 64.1022 586.463 411.9
189 0 44.0333 10.7646 474 63.6076 586.441 413.082
190 0 45.0611 10.2084 460 64.3239 586.043 414.028
191 0 46.0373 9.90502 456 65.6316 585.932 411.419
192 0 48.1249 11.9481 575 62.3774 586.188 411.849
193 0 50.0738 10.3647 519 63.8189 586.408 409.769
194 0 50.0692 11.0647 554 63.3809 586.496 407.301
195 0 51.0642 10.5162 537 63.6983 586.583 408.812
196 0 53.0293 11.6351 617 62.5867 586.814 407.608
197 0 54.0484 11.6007 627 62.8533 587.018 405.241
198 0 55.0291 10.1219 557 65.0557 587.39 404.88
199 0 56.1157 10.1219 568 64.794 586.979 406.981
200 0 58.1208 11.0804 644 63.7562 586.95 405.502
201 0 58.0593 10.1965 592 65.4814 586.289 404.245
202 0 61.0828 11.1161 679 64.1546 586.648 402.744
203 0 64.1431 11.1469 715 63.449 586.502 403.554
204 0 65.0326 12.5168 814 62.3931 586.362 399.248
205 0 68.0564 11.1084 756 63.4709 586.38 400.664
206 0 69.1245 12.2677 848 61.796 586.241 401.262
207 0 71.1021 12.2781 873 61.2405 586.648 399.212
208 0 71.0912 9.69177 689 65.2264 587.017 394.212
209 0 74.2146 13.0567 969 60.5449 586.464 394.193
210 0 75.2158 12.7367 958 61.2902 586.27 393.868
211 0 78.1786 12.7401 996 61.9689 587.07 387.88
212 0 81.2114 13.1139 1065 61.0366 587.123 385.281
213 0 83.1832 11.5408 960 62.9573 587.319 388.339
214 1 44.0917 10.4782 462 62.0519 586.885 405.294
215 0 45.0946 10.5334 475 61.7032 586.985 405.747
216 0 46.081 10.0475 463 62.8121 586.743 404.276
217 0 48.0956 11.6435 560 60.9607 585.543 405.396
218 0 51.0769 11.747 600 60.2183 585.985 404.572
219 0 51.0383 12.0694 616 60.5179 585.854 404.287
220 0 53.0356 12.0485 639 60.8419 585.8 404.526
221 0 54.0722 11.0223 596 61.3003 585.938 407.747
222 0 54.063 12.06 652 60.6304 586.264 405.831
223 0 56.0406 13.2047 740 59.2446 585.792 404.505
224 0 57.0772 10.5471 602 63.7791 585.493 403.57
225 0 59.1543 11.2249 664 62.9789 585.738 404.179
226 0 60.0272 13.0441 783 61.1162 586.227 402.315
227 0 61.0766 10.4623 639 64.0923 585.986 404.005
228 0 65.0276 11.3183 736 62.5285 586.216 403.976
229 0 65.1167 12.5774 819 62.4115 586.371 399.665
230 0 67.1306 12.1554 816 62.9044 586.415 397.2
231 0 69.0997 12.2287 845 62.8249 586.476 396.108
232 0 71.1948 11.3491 808 63.6869 586.635 398.66
233 0 73.1395 12.6607 926 62.1728 586.525 397.492
234 0 75.1349 11.8853 893 63.3763 587.383 396.817
235 0 78.0658 12.0539 941 63.0351 587.541 398.115
236 1 40.0864 10.0782 404 64.6436 586.73 413.104
237 0 41.0911 10.6592 438 63.9201 587.167 408.304
238 0 44.0573 11.0538 487 62.5975 587.205 412.388
239 0 43.0144 11.0661 476 63.584 586.55 411.754
240 0 44.0563 11.1448 491 64.2994 586.945 409.346
241 0 47.0427 11.2876 531 63.4802 586.62 410.147
242 0 47.087 12.4238 585 62.5556 586.489 409.781
243 0 50.0579 10.9673 549 64.6794 586.16 408.237
244 0 51.0661 10.5941 541 66.4473 586.516 407.832
245 0 51.086 12.1755 622 64.8875 585.992 407.791
246 0 52.0865 11.3081 589 66.7097 586.166 405.576
247 0 53.0658 9.62955 511 69.5479 586.528 405.861
248 0 58.075 13.0176 756 64.2169 585.721 403.524
249 0 58.1057 11.2381 653 67.4319 586.015 402.277
250 0 59.0829 12.1017 715 66.4853 586.112 402.228
251 0 61.0546 12.9229 789 64.8048 586.212 402.627
252 0 62.0568 11.2316 697 67.7805 586.604 402.529
253 0 64.0661 12.0969 775 66.8297 586.418 399.631
254 0 66.0665 12.2906 812 66.4852 586.628 400.342
255 0 67.0945 11.3869 764 68.339 586.258 397.797
256 0 70.0652 13.5017 946 65.0729 586.084 397.299
257 0 73.1484 12.7139 930 65.8462 586.063 397.776
258 0 76.089 12.0385 916 66.4301 586.496 397.431
259 0 74.1843 9.78643 726 70.8912 586.448 395.708
260 0 80.0643 12.2152 978 66.9703 586.752 393.261
261 1 42.1111 11.3509 478 65.523 586.586 413.496
262 0 42.1762 10.2427 432 67.1944 586.766 414.213
263 0 44.0288 10.425 459 66.8475 586.662 413.257
264 0 45.0434 10.6342 479 66.023 585.532 413.956
265 0 46.0823 9.52644 439 68.5308 586.526 412.77
266 0 48.0719 10.3179 496 67.7198 586.514 412.482
267 0 51.0412 11.8728 606 65.462 585.878 411.323
268 0 52.0579 11.6985 609 65.3695 585.844 412.391
269 0 52.0413 10.7415 559 68.4902 586.043 408.732
270 0 53.1433 11.5913 616 67.1169 585.945 408.529
271 0 56.0481 12.293 689 65.1509 585.897 409.694
272 0 58.0648 12.2966 714 65.0938 586.255 409.298
273 0 58.0281 10.6156 616 68.763 586.339 405.458
274 0 60.1425 11.8053 710 66.7423 586.154 404.049
275 0 60.1911 10.8488 653 68.5819 586.041 402.766
276 0 65.1004 13.2872 865 64.341 586.023 401.562
277 0 67.1355 12.6461 849 65.1461 586.437 402.806
278 0 68.2292 11.52 786 66.1654 585.978 402.464
279 0 71.151 12.0729 859 65.5716 585.587 399.899
280 0 71.1345 11.415 812 67.1749 585.906 399.192
281 0 74.1793 11.7553 872 66.9725 585.958 396.075
282 0 77.1498 12.8322 990 64.5535 586.327 396.329
283 0 79.1128 11.5026 910 66.2835 585.522 397.644
284 1 42.0815 7.98451 336 69.3095 584.985 413.408
285 0 44.0306 11.1513 491 65.833 585.407 412.78
286 0 47.0757 10.9398 515 66.2058 585.233 410.639
287 0 49.1147 11.3815 559 65.4973 585.467 410.66
288 0 50.0432 11.9097 596 65.2651 585.76 408.888
289 0 53.0788 12.5097 664 63.8057 585.81 407.697
290 0 54.1034 11.2008 606 65.9505 585.916 406.398
291 0 54.0647 11.1348 602 66.7575 586.211 406.573
292 0 56.0785 11.8227 663 66.1448 585.837 405.671
293 0 58.1809 11.1892 651 66.232 585.793 406.106
294 0 60.0815 10.9019 655 67.2031 586.116 405.099
295 0 61.0323 10.814 660 67.1758 585.758 405.118
296 0 65.0465 11.9299 776 65.3582 585.875 403.68
297 0 65.1269 11.8077 769 66.4187 585.71 400.785
298 0 68.0529 11.7115 797 66.2911 586.124 399.703
299 0 71.1033 12.2076 868 64.6544 585.808 401.388
300 0 73.1089 10.5186 769 66.4369 585.692 402.104
301 0 76.1415 10.9533 834 66.783 586.147 396.102
302 0 77.1243 11.5917 894 66.3915 586.034 393.319
303 1 38.0541 10.1435 386 64.6244 586.161 415.622
304 0 41.0601 9.25472 380 65.5526 585.763 414.453
305 0 41.0395 10.5021 431 64.3805 586.037 412.626
306 0 44.062 10.7122 472 64.3093 585.977 412.593
307 0 45.0437 11.1003 500 63.194 585.564 412.754
308 0 46.0328 10.7098 493 63.7018 585.763 413.024
309 0 47.0415 10.6077 499 64.511 585.571 410.976
310 0 49.0357 9.50328 466 66.0644 585.148 409.762
311 0 49.0956 10.5305 517 65.8259 585.532 409.137
312 0 52.0697 10.87 566 64.7473 585.581 408.364
313 0 53.0218 10.6748 566 64.924 586.049 408.284
314 0 56.0923 10.4649 587 65.2879 585.324 409.305
315 0 55.0514 11.898 655 64.0443 585.684 407.379
316 0 57.0617 9.98919 570 66.9105 585.044 404.918
317 0 60.0132 10.481 629 66.2242 584.933 403.331
318 0 61.0453 11.3522 693 65.3954 584.784 399.782
319 0 63.0458 10.4051 656 66.6113 584.794 400.855
320 0 66.0457 11.4012 753 65.0491 585.348 398.938
321 0 67.1031 10.1784 683 66.6149 585.43 401.741
322 0 70.0267 11.1529 781 65.4341 585.498 400.531
323 0 71.0803 12.2256 869 64.4304 585.349 397.9
324 0 73.1029 11.176 817 66.5716 585.043 396.798
325 0 78.0452 12.6721 989 63.4631 584.97 396.952
326 0 78.123 10.4963 820 67.3756 585.196 393.278
327 1 40.0257 9.91864 397 64.937 585.204 413.758
328 0 40.018 9.77059 391 65.5115 584.944 413.345
329 0 42.0352 9.611 404 64.7921 584.99 414.161
330 0 43.0646 10.3101 444 63.5338 585.144 411.009
331 0 45.0202 9.84004 443 63.8758 585.126 410.178
332 0 46.0553 10.1617 468 63.4979 585.545 408.885
333 0 48.0192 10.5791 508 62.4213 584.472 410.642
334 0 50.0452 10.2108 511 62.8317 584.526 408.816
335 0 50.038 10.572 529 63.5161 584.654 407.31
336 0 52.0511 11.5271 600 62.1833 585.45 406.103
337 0 53.1227 8.47096 450 66.1356 585.522 407.971
338 0 56.1547 12.8039 719 60.3046 585.417 406.159
339 0 59.1018 11.6071 686 61.9096 585.179 405.545
340 0 59.0521 10.8887 643 63.6858 585.664 405.625
341 0 60.1328 11.0589 665 63.6526 585.932 404.253
342 0 61.043 11.1233 679 63.7747 585.708 403.987
343 0 62.059 11.054 686 64.3367 586.143 402.523
344 0 65.0615 11.4661 746 63.6702 585.996 400.743
345 0 66.0717 10.3524 684 65.2807 585.468 399.067
346 0 68.0298 11.0099 749 64.9159 585.451 398.613
347 0 69.0533 10.4702 723 65.5643 585.082 397.199
348 0 72.0465 11.1872 806 64.6179 584.557 396.661
349 0 75.1714 11.2676 847 64.7544 584.348 393.699
350 1 35.0355 8.27732 290 65.1586 584.252 417.507
351 0 37.0755 8.90076 330 64.4879 584.297 415.8
352 0 39.0361 10.2469 400 62.645 584.258 414.45
353 0 37.0341 10.5848 392 124.997 584.214 414.776
354 0 41.0369 11.1363 457 62.081 584.656 412.243
355 0 43.0498 9.10573 392 64.75 584.635 411.916
356 0 43.053 10.8471 467 62.3662 585.842 412.473
357 0 44.0657 10.6432 469 62.3859 584.578 411.996
358 0 45.0262 11.5044 518 61.112 584.029 411.077
359 0 46.094 11.1511 514 62.3405 585.119 409.054
360 0 49.0185 11.0774 543 61.7551 585.07 408.685
361 0 48.0273 11.1603 536 61.9981 584.61 409.465
362 0 52.0394 10.5305 548 62.2135 584.911 409.396
363 0 52.0504 11.2775 587 62.0256 585.298 407.474
364 0 53.0839 9.92767 527 63.8178 584.985 409.083
365 0 56.0575 12.4158 696 60.2155 584.546 408.51
366 0 57.0632 11.6537 665 61.1865 585.245 406.668
367 0 59.0469 11.8042 697 60.9699 585.273 406.68
368 0 60.0788 10.7359 645 62.524 585.288 406.862
369 0 62.076 12.2431 760 61.2671 585.684 403.705
370 0 64.0539 11.0376 707 62.5431 585.281 404.177
371 0 66.0714 12.3654 817 61.623 585.247 399.983
372 0 67.0744 13.1347 881 60.983 585.241 402.033
373 0 69.0494 10.9197 754 63.8767 585.698 399.554
374 0 70.1838 11.7549 825 63.0727 585.659 398.956
375 1 37.0322 8.15506 302 64.5099 586.195 416.851
376 0 38.1064 10.7593 410 62.2829 586.212 412.42
377 0 41.1242 10.6507 438 60.7808 586.632 413.966
378 0 41.0569 9.88873 406 60.6207 584.741 414.315
379 0 42.0768 11.2414 473 59.2326 584.89 411.693
380 0 40.0321 9.21761 369 62.9458 585.268 412.108
381 0 45.0199 11.4616 516 58.7636 585.328 411.326
382 0 46.052 11.5304 531 58.6573 584.301 411.727
383 0 47.0456 11.2231 528 59.6439 584.621 409.682
384 0 48.035 11.0128 529 59.9093 585.053 408.628
385 0 50.108 10.2379 513 60.0546 585.072 407.501
386 0 50.1351 11.3693 570 59.4561 585.225 406.788
387 0 52.0353 9.72416 506 61.1008 585.144 406.148
388 0 55.0802 13.3079 733 56.5061 585.207 405.651
389 0 54.0485 10.0095 541 60.3697 585.248 407.157
390 0 58.0474 10.7671 625 58.8976 584.688 404.485
391 0 59.0695 11.1394 658 58.6201 585.214 400.862
392 0 60.1368 9.99388 601 60.3078 585.211 401.23
393 0 64.0757 11.861 760 57.7671 584.68 400.667
394 0 64.0619 10.6303 681 59.4156 584.946 398.884
395 0 68.0777 10.6055 722 58.3532 584.74 400.627
396 0 69.0289 10.0538 694 60.2867 584.451 396.236
397 0 73.0737 12.7953 935 56.6075 584.859 398.199
398 0 74.0496 10.7225 794 59.7683 584.016 395.63
399 1 39.0246 11.0187 430 58.4721 584.749 414.428
400 0 38.0354 9.6489 367 61.1553 585.082 414.302
401 0 42.0454 10.3935 437 58.0801 585.307 414.76
402 0 43.0151 10.9032 469 58.1471 585.122 414.006
403 0 43.0876 11.2561 485 59.3526 584.986 411.586
404 0 47.071 11.1746 526 58.7281 585.144 411.456
405 0 47.0416 11.7981 555 58.9676 585.384 409.45
406 0 50.0436 12.629 632 57.943 584.71 409.032
407 0 50.0176 11.9958 600 59.405 585.065 410.028
408 0 52.0465 12.4504 648 58.8025 585.191 409.066
409 0 52.0435 13.8922 723 57.2697 585.722 408.936
410 0 53.0355 10.7098 568 62.2447 585.21 404.873
411 0 52.0259 9.91813 516 63.6453 585.574 406.467
412 0 57.0674 12.3713 706 60.0467 585.397 405.034
413 0 59.0245 13.2657 783 58.7982 585.636 404.562
414 0 61.1626 12.0989 740 60.5216 585.762 404.001
415 0 63.1 12.3455 779 59.7035 586.005 404.108
416 0 65.0651 11.865 772 60.3653 586.404 402.598
417 0 65.2197 11.1469 727 61.608 586.641 402.099
418 0 67.1119 11.1754 750 61.6733 586.083 401.292
419 0 70.211 12.5479 881 60.2736 586.075 399.677
420 0 74.0635 10.9501 811 61.894 585.702 397.224
421 0 74.1681 11.4605 850 61.6871 585.344 395.515
422 0 80.1929 11.4973 922 60.6139 585.557 395.979
423 0 82.1142 11.5692 950 60.9284 585.595 394.64
424 1 44.0674 12.912 569 58.4077 586.039 413.963
425 0 45.0603 12.7163 573 58.192 585.771 411.918
426 0 47.062 11.5592 544 59.6801 585.287 409.96
427 0 48.13 11.3235 545 59.4661 585.114 410.233
428 0 48.061 11.5062 553 59.4828 585.32 409.986
429 0 51.0398 10.9131 557 59.8851 585.384 408.417
430 0 51.0374 11.8345 604 58.6159 585.548 410.002
431 0 53.0699 11.3058 600 59.1717 585.432 406.99
432 0 54.0959 12.5148 677 58.1699 585.433 406.189
433 0 54.0926 11.3324 613 59.3002 585.524 406.633
434 0 58.0934 13.0135 756 56.8532 585.238 405.153
435 0 60.0568 11.8555 712 58.3989 585.708 404.101
436 0 61.1861 12.4865 764 57.9804 585.763 403.27
437 0 64.0831 11.766 754 58.7984 585.519 401.025
438 0 65.0897 12.0603 785 58.8013 585.637 399.127
439 0 69.0609 11.2944 780 58.5256 585.872 399.997
440 0 71.1458 12.383 881 57.857 585.573 399.033
441 0 72.0835 10.9179 787 59.7853 585.732 396.423
442 0 76.154 12.1727 927 57.8145 585.901 395.813
443 0 76.0562 11.268 857 59.2964 585.532 392.522
444 0 80.0859 8.65321 693 61.5801 585.299 395.215
445 1 42.0364 10.8715 457 57.6236 585.628 413.201
446 0 44.0494 10.5336 464 58.4418 585.968 410.017
447 0 44.1994 12.1269 536 57.0914 585.668 409.045
448 0 47.1065 10.2534 483 58.6418 585.495 409.872
449 0 48.0902 10.7506 517 58.1161 585.83 409.776
450 0 49.0533 10.5803 519 58.4528 585.422 408.69
451 0 49.1897 10.7949 531 59.0188 585.478 406.9
452 0 53.0491 12.4602 661 57.1316 586.009 405.272
453 0 55.0548 12.8054 705 56.4582 585.888 404.643
454 0 55.224 10.4846 579 58.6874 586.036 406.444
455 0 59.0588 12.0727 713 56.6045 585.426 402.909
456 0 62.0801 12.1456 754 56.191 585.956 403.336
457 0 62.1214 10.8336 673 58.2615 586.55 400.632
458 0 65.2245 13.1086 855 55.531 586.193 400.898
459 0 64.2081 10.5906 680 58.8456 586.238 399.494
460 0 69.1922 11.9522 827 56.8513 586.213 400.682
461 0 71.1422 11.962 851 57.6921 586.243 397.841
462 0 75.1052 12.0231 903 57.5006 585.918 396.585
463 1 40.1748 8.78659 353 60.1275 586.079 412.11
464 0 43.0488 10.7785 464 57.6185 585.474 411.519
465 0 43.0534 10.7541 463 59.2052 585.724 409.181
466 0 47.1056 10.9541 516 58.7248 586.372 409.578
467 0 48.0416 12.1145 582 57.3694 585.632 409.399
468 0 47.0459 12.0308 566 58.3092 585.523 409.392
469 0 51.0206 10.9956 561 59.4296 585.444 405.968
470 0 53.1346 11.3297 602 59.3173 585.027 403.294
471 0 54.0551 11.9323 645 59.0388 584.636 404.594
472 0 58.0624 12.521 727 58.3329 584.64 403.466
473 0 60.062 11.0219 662 59.8293 584.589 404.16
474 0 61.0264 13.404 818 57.588 584.848 402.55
475 0 64.1266 13.1303 842 57.9477 584.945 400.042
476 0 66.0321 12.4182 820 59.1561 584.943 400.895
477 0 67.1075 11.7126 786 60 585.2 401.473
478 0 70.1387 13.0171 913 58.4852 585.813 399.559
479 0 72.1741 10.7102 773 61.4812 585.712 399.838
480 0 72.0647 10.9624 790 62.1418 585.981 397.106
481 0 76.0316 12.0608 917 60.5802 586.036 393.857
482 0 79.0988 12.6424 1000 59.941 586.148 395.691
483 0 82.0881 13.851 1137 57.7872 586.514 394.353
484 1 46.0531 9.66275 445 60.2584 586.533 410.796
485 0 45.0523 7.67997 346 64.5867 586.445 409.367
486 0 49.0627 12.9223 634 57.6877 586.278 410.834
487 0 49.0232 9.40371 461 62.9306 586.152 407.97
488 0 50.0569 10.0885 505 62.8792 586.25 406.867
489 0 56.0445 11.9369 669 59.6054 586.413 407.239
490 0 57.0869 12.3496 705 59.5121 586.176 406.955
491 0 59.0538 13.784 814 57.7973 585.482 404.412
492 0 60.1031 11.1309 669 61.275 585.436 404.447
493 0 62.0697 11.8899 738 60.6192 585.322 403.344
494 0 64.2162 10.8072 694 62.4121 586.11 401.058
495 0 66.0565 12.9283 854 60.123 586.204 400.403
496 0 67.0601 11.3629 762 62.4987 585.741 400.072
497 0 69.0959 11.8097 816 61.8652 585.369 400.809
498 0 74.0564 11.8018 874 61.6133 585.435 398.557
499 0 75.1314 11.3668 854 63.0152 585.608 396.253
500 0 78.1284 14.425 1127 58.8314 585.537 393.712
501 0 81.0938 11.0613 897 62.6288 585.453 395.977
502 0 84.1261 12.4932 1051 61.0523 586.018 394.484
503 1 46.0672 10.4413 481 62.2744 585.674 410.277
504 0 44.0194 9.74571 429 64.4895 585.69 408.583
505 0 49.0717 10.9432 537 61.7076 585.428 408.808
506 0 51.1161 11.0337 564 62.2181 585.339 407.715
507 0 53.1089 11.6741 620 61.5306 585.668 407.871
508 0 56.0788 12.1793 683 61.2899 585.43 405.808
509 0 55.1962 11.287 623 63.114 586.128 405.807
510 0 59.1496 12.1218 717 61.0572 585.819 405.594
511 0 61.1468 11.5951 709 62.2595 586.22 404.148
512 0 62.132 12.731 791 60.7927 586.558 404.282
513 0 63.118 12.437 785 61.9643 586.546 404.571
514 0 66.1013 12.496 826 62.1114 586.271 400.609
515 0 68.1429 13.0021 886 61.5779 586.073 400.877
516 0 67.1561 12.2848 825 64.2158 586.018 399.035
517 0 72.0855 11.639 839 65.124 585.46 397.508
518 0 72.1096 11.8708 856 65.514 585.369 395.614
519 0 76.0544 12.925 983 63.3774 585.541 396.299
520 0 78.1222 12.5573 981 64.3293 585.425 393.158
521 0 81.074 11.7177 950 64.9211 585.186 393.82
522 0 82.1611 12.4268 1021 64.9765 584.749 389.083
523 0 85.0924 12.41 1056 64.4242 584.786 391.812
524 0 89.0555 11.2177 999 66.3834 585.008 389.925
525 0 92.1953 12.8748 1187 63.7565 585.122 389.722
526 1 48.0147 10.7259 515 61.9728 585.126 412.612
527 0 50.0949 9.94113 498 62.7972 585.367 410.727
528 0 51.097 11.7815 602 61.8787 585.06 407.842
529 0 52.0618 10.2954 536 64.0597 585.368 407.466
530 0 54.0881 11.2224 607 63.2257 585.285 406.896
531 0 55.1531 11.6222 641 62.1778 585.314 404.111
532 0 59.0571 12.5811 743 61.1736 584.989 404.567
533 0 60.0232 10.5126 631 64.6498 585.42 403.572
534 0 60.0293 12.2274 734 63.1757 584.654 401.899
535 0 62.0693 12.341 766 63.7807 585.285 400.258
536 0 67.152 11.7048 786 63.3117 584.57 403.094
537 0 66.1685 11.0476 731 64.9001 584.933 402.932
538 0 68.0549 11.9609 814 65.1904 586.33 397.833
539 0 68.0628 12.4444 847 64.6128 586.581 400.194
540 0 73.0607 12.4417 909 65.0836 586.622 395.458
541 0 74.0855 12.5261 928 65.3006 586.211 393.664
542 0 76.0861 10.6327 809 67.8331 586.104 396.271
543 0 81.1348 12.2759 996 65.2118 586.475 394.076
544 0 83.1825 12.4666 1037 64.4118 586.533 394.721
545 0 86.2963 12.7584 1101 64.1045 586.035 390.213
546 1 43.0916 9.42179 406 66.0049 585.924 411.889
547 0 46.0651 9.74707 449 64.7906 586.303 412.457
548 0 46.0287 9.97204 459 65.6928 586.292 410.259
549 0 49.1541 10.5383 518 64.61 586.444 409.392
550 0 50.047 11.1495 558 65.0448 585.733 406.914
551 0 51.0698 11.0241 563 65.9805 586.023 406.412
552 0 53.0936 10.1142 537 66.4488 585.966 408.92
553 0 57.1015 11.3832 650 65.1846 585.749 406.262
554 0 58.0981 12.2379 711 64.0577 585.7 405.141
555 0 60.1436 11.6222 699 64.701 586.162 404.153
556 0 63.1404 11.0706 699 65.5007 586.748 404.557
557 0 63.0622 11.6076 732 64.6776 586.32 401.551
558 0 65.0937 12.6587 824 63.7172 586.525 399.112
559 0 66.2479 10.4909 695 65.8978 586.255 402.132
560 0 69.0625 12.2932 849 63.8045 586.3 398.682
561 0 69.144 12.163 841 64.6908 585.9 395.99
562 0 72.0404 11.6185 837 65.5125 586.21 397.658
563 0 74.1391 11.4919 852 65.8157 585.918 395.704
564 0 77.0365 10.5924 816 66.7549 585.188 394.612
565 0 79.0859 12.2019 965 64.8404 585.361 393.99
566 1 43.1553 11.1458 481 65.262 585.682 412.495
567 0 42.0939 10.5479 444 67.3311 585.568 410.802
568 0 45.1121 10.2412 462 66.8009 585.688 411.255
569 0 45.2209 11.3001 511 66.4775 585.859 410.605
570 0 48.08 11.1689 537 66.1304 586.022 409.371
571 0 51.1473 11.5744 592 65.473 586.027 407.77
572 0 52.1079 13.3953 698 63.2794 585.857 405.59
573 0 53.1206 11.5774 615 65.6244 585.554 407.964
574 0 55.1481 11.4963 634 65.6341 585.727 407.476
575 0 58.0686 13.1396 763 63.7038 585.848 404.038
576 0 59.0168 12.2169 721 65.3454 585.641 403.716
577 0 63.0863 13.5687 856 62.5537 585.877 405.056
578 0 61.1398 10.2552 627 68.7687 586.187 402.616
579 0 60.0426 11.242 675 68.4385 586.671 397.178
580 0 69.1105 13.9053 961 63.2362 586.935 399.921
581 0 71.1437 13.1705 937 63.6734 586.848 401.404
582 0 72.2164 12.878 930 64.8022 586.843 398.603
583 0 73.0534 12.9358 945 64.7735 586.581 396.286
584 0 76.2065 11.167 851 67.275 586.743 393.958
585 0 77.1784 11.9075 919 66.4788 586.306 394.9
586 1 38.059 8.93351 340 70.1882 586.35 410.974
587 0 39.1053 10.4334 408 68.8358 586.265 410.461
588 0 46.0324 11.9915 552 63.7228 586.138 413.562
589 0 46.0368 11.2953 520 66.2288 586.433 412.662
590 0 50.0806 12.1005 606 64.2673 586.597 411.899
591 0 51.2035 11.9718 613 64.6427 586.574 410.835
592 0 55.0634 11.968 659 63.6161 586.876 410.39
593 0 57.0992 11.4538 654 64.633 586.494 408.968
594 0 57.1318 12.5149 715 64.4462 586.558 405.411
595 0 58.1213 11.5964 674 64.9837 586.34 407.39
596 0 61.1669 12.5722 769 63.7906 586.359 405.282
597 0 63.1235 12.8478 811 63.619 586.12 404.37
598 0 65.1688 12.6748 826 63.8305 585.729 404.064
599 0 65.0534 12.3437 803 65.3624 585.664 403.118
600 0 69.2419 12.2469 848 64.3231 585.923 402.947
601 0 71.1474 13.7602 979 62.8315 586.335 397.602
602 0 73.1514 12.9868 950 63.1579 585.941 399.554
603 0 74.0844 12.6072 934 64.4283 586.092 398.853
604 0 79.3029 13.2656 1052 62.5922 586.048 398.986
605 1 42.0917 11.5462 486 63.4588 585.833 415.004
606 0 41.0733 10.2013 419 66.969 586.296 413.406
607 0 45.0642 9.98576 450 65.9378 585.887 413.533
608 0 45.1094 11.8379 534 65.3764 586.268 409.283
609 0 48.1115 11.3694 547 64.1024 586.431 411.505
610 0 48.0644 12.2128 587 64.724 586.463 408.356
611 0 50.1126 12.452 624 63.883 586.207 408.776
612 0 53.1175 13.0277 692 63.1691 586.195 407.832
613 0 55.0353 12.8645 708 63.4562 586.243 406.61
614 0 54.1024 12.5133 677 65.1654 585.91 405.058
615 0 57.0791 12.7717 729 64.3882 586.28 404.196
616 0 58.064 12.4173 721 65.7171 586.682 404.096
617 0 61.0734 12.2639 749 65.6435 585.818 403.597
618 0 62.086 11.8867 738 67.1585 586.012 401.808
619 0 65.0812 11.816 769 66.814 585.762 401.221
620 0 65.0902 12.6133 821 65.257 585.553 402.234
621 0 68.0768 12.0893 823 66.2989 585.938 401.073
622 0 70.0289 12.2378 857 66.3232 585.865 398.936
623 0 71.083 11.4936 817 67.7797 586.285 396.13
624 0 77.082 13.4013 1033 64.0242 585.837 396.189
625 0 77.0304 11.3072 871 66.6739 585.591 397.682
626 0 80.1091 13.0073 1042 64.1123 585.607 395.544
627 0 81.1503 13.1238 1065 64.5493 585.534 392.213
628 0 84.0906 13.2476 1114 64.3465 585.678 392.02
629 0 87.0736 13.1613 1146 64.4625 585.801 390.044
630 0 91.1292 13.2779 1210 64.157 585.721 387.325
631 0 93.0843 11.8924 1107 66.4463 585.5 385.023
632 1 50.0316 10.5333 527 64.7932 585.97 407.49
633 0 51.0631 11.7502 600 63.97 586.863 406.28
634 0 54.221 11.3056 613 63.8532 586.432 407.334
635 0 53.041 11.7079 621 63.467 586.828 408.847
636 0 56.1339 11.7042 657 63.8067 586.731 405.639
637 0 58.0809 11.9316 693 63.912 586.716 402.804
638 0 61.061 12.5448 766 62.342 586.719 402.911
639 0 62.0819 12.3063 764 63.1348 586.863 401.301
640 0 64.0541 10.8034 692 64.7269 586.689 403.095
641 0 65.1063 11.7807 767 63.4641 586.6 399.897
642 0 67.0711 12.5688 843 62.3132 585.706 399.582
643 0 69.0542 12.5843 869 61.9298 586.458 400.297
644 0 71.048 10.7674 765 64.7242 586.048 395.582
645 0 72.0503 11.5891 835 63.0048 586.022 398.811
646 0 77.0966 11.972 923 61.9859 586.609 398.154
647 0 77.1022 12.464 961 62.4547 586.196 392.902
648 0 81.1046 13.3408 1082 60.8965 585.883 392.369
649 0 83.1126 13.0185 1082 61.1488 585.435 394.921
650 0 87.1071 12.2149 1064 61.828 585.163 393.659
651 1 46.0378 8.79712 405 62.6296 585.279 416.928
652 0 48.1173 9.06118 436 61.3188 584.601 419.679
653 0 46.0855 9.07011 418 62.2823 584.72 420.112
654 0 51.0699 14.0396 717 56.5314 584.795 420.038
655 0 53.0997 11.7703 625 59.1392 585.542 420.09
656 0 53.1448 11.5345 613 59.646 584.941 418.817
657 0 53.0905 11.3015 600 60.4967 585.508 417.122
658 0 56.0296 12.4755 699 58.8312 584.933 416.712
659 0 57.0617 9.84899 562 62.0178 584.786 414.804
660 0 59.0626 11.327 669 59.6547 585.007 417.19
661 0 62.091 12.8038 795 58.0176 584.785 413.624
662 0 64.0876 12.2333 784 58.5765 584.93 409.523
663 0 66.0811 12.7722 844 57.6363 585.534 410.076
664 0 68.1959 10.8951 743 59.8371 585.136 411.729
665 0 72.0618 11.1155 801 59.1348 585.406 410.386
666 0 73.0583 11.9494 873 58.1294 585.472 410.393
667 0 74.0725 11.2457 833 58.7731 586.115 409.533
668 0 76.0926 10.6186 808 60.0582 585.844 406.235
669 0 79.1042 10.2144 808 60.4901 585.861 403.623
670 0 82.1065 10.6203 872 59.3796 585.633 404.157
671 1 42.0173 11.9713 503 55.7734 585.416 424.169
672 0 45.0595 9.96461 449 57.5857 585.448 421.679
673 0 45.0382 9.59186 432 57.8773 584.866 420.961
674 0 49.1052 11.8725 583 54.8045 585.13 420.06
675 0 50.0682 10.3459 518 56.2587 584.732 418.205
676 0 52.0547 11.2574 586 55.2935 584.695 417.319
677 0 53.1205 11.4833 610 55.5623 584.52 413.359
678 0 52.0273 8.43788 439 59.738 584.255 412.396
679 0 55.1524 10.7702 594 56.3502 585.094 415.847
680 0 60.0852 9.17031 551 57.5953 585.142 413.185
681 0 60.0904 9.10296 547 58.1298 584.834 411.457
682 0 62.0915 10.5489 655 56.945 584.38 409.151
683 0 65.0928 13.0275 848 54.2099 584.534 408.428
684 0 64.2894 12.0237 773 56.1578 584.699 407.233
685 0 68.1104 11.3933 776 56.4974 584.724 408.086
686 0 71.1164 11.8679 844 55.9313 584.537 406.179
687 0 73.1375 10.5828 774 57.5904 585.13 405.424
688 0 75.1544 11.8822 893 55.916 584.978 403.928
689 0 76.1847 9.84449 750 58.928 585.191 400.777
690 1 43.1067 10.2768 443 55.8894 584.56 419.652
691 0 42.0224 9.35215 393 57.542 584.422 419.964
692 0 43.067 9.28785 400 57.865 584.492 417.598
693 0 41.0244 8.629 354 58.7316 584.206 416.088
694 0 44.0677 7.19348 317 59.429 584.281 417.401
695 0 48.0506 10.2808 494 56.4433 584.745 414.883
696 0 51.1063 10.2531 524 56.3664 584.683 414.67
697 0 52.0868 11.2504 586 55.9608 584.536 410.077
698 0 54.0983 10.7582 582 56.2027 584.873 411.778
699 0 57.161 10.4967 600 56.5433 585.118 411.105
700 0 58.0547 10.3523 601 57.6123 585.043 409.494
701 0 61.0398 9.96071 608 58.1793 585.347 408.817
702 0 63.0869 9.78016 617 59.1297 585.718 404.319
703 0 66.153 12.1385 803 57.462 585.726 406.895
704 0 67.0957 12.3406 828 57.3684 585.421 407.931
705 0 70.1326 12.234 858 53.2156 585.312 407.423
706 1 35.0345 8.22046 288 60.4375 585.49 420.149
707 0 36.0253 11.1866 403 58.1191 584.439 415.638
708 0 37.0149 11.4819 425 56.7812 584.16 418.202
709 0 39.0564 11.4194 446 57.222 584.762 415.334
710 0 39.0365 12.6548 494 56.3198 584.298 412.87
711 0 40.0538 10.4609 419 57.2697 584.644 414.169
712 0 42.0154 12.4002 521 55.1171 584.975 412.321
713 0 43.0172 10.2517 441 57.6667 584.837 409.236
714 0 43.0555 11.1484 480 57.375 584.794 411.379
715 0 49.0407 11.6842 573 49.4503 584.66 407.131
716 0 47.0298 9.82356 462 58.8788 585.403 408.939
717 0 47.0793 10.2168 481 59.2807 585.112 406.027
718 0 50.0403 10.2118 511 58.5342 585.613 406.957
719 0 51.0826 10.1209 517 59.147 585.489 405.843
720 0 54.0747 10.2081 552 58.692 585.902 404.627
721 0 56.0358 11.4391 641 57.2715 585.931 403.722
722 0 56.0477 11.0263 618 58.1278 585.997 403.751
723 0 59.2905 12.9194 766 56.1567 585.679 399.698
724 0 62.1313 10.8963 677 57.6381 585.451 400.326
725 0 64.051 11.4128 731 57.4295 584.884 399.754
726 0 65.1172 11.9938 781 57.178 585.04 397.551
727 0 67.043 11.4255 766 57.4308 585.127 396.42
728 0 70.0734 12.5297 878 55.951 585.005 396.082
729 0 73.1191 12.336 902 56.0455 585.194 393.414
730 0 76.1461 10.5849 806 57.4541 585.144 393.803
731 1 42.0571 8.29824 349 57.7851 586.103 412.613
732 0 46.0235 10.9075 502 55.9323 586.036 408.902
733 0 47.0488 9.56454 450 57.8089 586.162 408.487
734 0 49.026 12.8503 630 54.6905 585.583 406.992
735 0 47.0347 9.09967 428 58.722 585.832 406.584
736 0 51.0283 10.5628 539 56.3395 585.571 407.39
737 0 53.1125 11.711 622 55.5932 585.429 404.471
738 0 54.0331 12.1592 657 55.3303 585.329 403.443
739 0 54.0297 12.197 659 55.7511 585.528 404.167
740 0 58.0229 10.5303 611 57.8773 584.848 402.751
741 0 60.0111 14.0307 842 54.3159 585.135 400.499
742 0 58.0279 11.6151 674 57.8027 585.318 400.804
743 0 61.0897 11.1475 681 58.0954 585.435 401.579
744 0 65.0999 12.3042 801 57.1311 585.665 397.388
745 0 66.073 11.3208 748 58.4666 585.779 397.547
746 0 68.0559 12.4016 844 57.2547 585.85 396.435
747 0 73.051 14.8389 1084 54.0286 586.481 395.673
748 0 73.187 13.2674 971 56.4882 586.746 392.518
749 0 74.1489 11.868 880 57.7386 586.118 394.692
750 0 76.1019 12.6015 959 57.5057 586.165 390.458
751 0 79.1437 11.5739 916 58.8821 586.058 390.571
752 1 38.0231 8.41593 320 61.5656 585.516 411.844
753 0 42.0357 12.0612 507 58.7613 585.74 407.306
754 0 45.0287 12.3033 554 58.3827 585.758 406.125
755 0 47.0343 12.6291 594 57.6801 585.847 405.769
756 0 49.1076 13.4399 660 56.4652 585.627 406.503
757 0 51.0743 11.2777 576 58.9583 585.783 406.248
758 0 51.1498 14.7019 752 55.9069 585.418 404.387
759 0 51.0741 12.6679 647 58.7991 585.821 404.026
760 0 54.0603 12.8005 692 58.0145 585.598 404.686
761 0 54.0329 11.9557 646 60.1981 586.091 401.08
762 0 56.0405 12.491 700 59.3914 585.936 403.483
763 0 57.0768 13.7008 782 57.6061 585.839 400.276
764 0 60.0821 11.5842 696 59.7198 585.819 402.843
765 0 63.0322 13.4376 847 57.8973 585.927 399.149
766 0 64.0513 14.1761 908 57.2841 586.402 399.896
767 0 66.0514 13.2775 877 58.5393 586.309 398.016
768 0 68.1001 13.6123 927 58.1942 585.888 399.927
769 0 69.0468 12.6726 875 59.7966 585.341 395.442
770 0 72.064 12.4611 898 59.9087 585.301 397.244
771 0 72.064 12.4195 895 142.816 584.309 397.2
772 1 38.0363 10.3059 392 61.8929 584.944 411.997
773 0 42.0459 12.7004 534 59.0974 585.127 412.479
774 0 43.0581 10.869 468 61.3483 585.543 412.16
775 0 44.0891 11.8623 523 60.782 585.214 411.275
776 0 46.053 12.5942 580 59.3862 584.669 411.557
777 0 47.0935 11.2967 532 60.968 584.707 411.756
778 0 48.027 12.5346 602 59.5399 584.615 413.729
779 0 51.1416 13.7266 702 58.0057 584.835 410.416
780 0 53.0667 12.4749 662 59.3671 584.536 410.471
781 0 55.0621 14.2748 786 57.6285 585.401 409.039
782 0 56.0203 12.6204 707 59.983 585.332 407.426
783 0 57.0976 13.2755 758 59.062 585.873 409.579
784 0 60.1267 13.904 836 58.39 585.803 407.586
785 0 58.0598 12.9005 749 60.7824 585.714 407.331
786 0 61.1555 12.3783 757 61.4254 585.511 406.715
787 0 66.0823 14.5425 961 58.5005 585.839 405.05
788 0 64.1222 13.178 845 60.8686 585.52 404.71
789 0 67.0543 12.9298 867 61.218 585.478 400.694
790 0 70.1552 13.855 972 59.7562 585.059 401.366
791 1 40.0444 10.9628 439 61.4032 584.964 417.082
792 0 42.0145 10.4012 437 61.6064 584.989 418.245
793 0 42.1301 11.9392 503 60.3141 585.223 418.193
794 0 43.0244 13.8061 594 59.7104 585.404 416.029
795 0 45.0486 12.3422 556 61.4227 585.554 415.257
796 0 45.0391 12.3892 558 62.0233 585.778 412.925
797 0 49.0246 13.4422 659 59.8528 585.633 414.701
798 0 52.0971 13.7436 716 59.7304 584.764 414.124
799 0 52.0865 13.1128 683 60.9693 585.016 412.463
800 0 54.0239 12.6055 681 60.9956 585.131 414.891
801 0 56.0243 13.2443 742 61.0822 585.686 412.991
802 0 58.055 13.1255 762 61.5853 585.911 412.114
803 0 57.0763 11.5985 662 63.9471 585.766 410.613
804 0 61.1029 14.4347 882 60.0782 585.658 410.325
805 0 65.149 11.7884 768 62.151 585.715 411.174
806 0 65.0597 12.9727 844 61.2701 585.908 411.769
807 0 70.0614 14.0306 983 59.8321 586.005 409.716
808 0 72.0477 13.033 939 60.9148 585.589 408.231
809 0 75.0429 12.7794 959 61.2617 585.424 409.316
810 0 76.0958 13.6013 1035 61.143 586.173 407.396
811 0 81.131 12.8311 1041 61.9731 585.722 406.205
812 1 40.0405 11.9879 480 60.0479 585.673 427.04
813 0 43.0567 11.7752 507 60.8521 585.795 424.935
814 0 43.031 10.202 439 62.3417 585.358 426.567
815 0 46.0741 12.2846 566 60.2721 585.378 423.641
816 0 45.0298 10.3487 466 62.8648 585.627 424.558
817 0 50.0363 12.6508 633 59.613 585.979 425.787
818 0 51.2012 13.0466 668 59.7141 585.954 425.629
819 0 53.0976 12.8819 684 59.943 585.994 425.744
820 0 53.0104 11.7524 623 62.6003 586.225 424.387
821 0 58.1271 12.3006 715 60.9608 585.927 424.241
822 0 59.0507 12.7179 751 61.3449 585.889 422.716
823 0 58.0361 10.3556 601 64.4343 585.651 422.381
824 0 60.0752 9.82103 590 65.2373 585.602 421.881
825 0 64.0512 11.0068 705 63.0809 585.152 423.396
826 0 65.0975 12.0281 783 62.7101 585.572 418.06
827 0 69.1519 11.641 805 63.0745 584.976 416.72
828 0 73.0548 12.4017 906 61.9702 585.24 417.073
829 0 76.0823 12.2893 935 61.7594 584.937 417.884
830 0 79.0939 12.2007 965 62.2933 585.576 413.684
831 0 81.1617 12.1116 983 62.6307 585.752 413.186
832 0 81.0642 11.349 920 64.0913 585.9 410.316
833 0 88.0953 12.2368 1078 62.7523 585.875 408.318
834 0 87.0482 11.6143 1011 64.4481 585.679 406.394
835 0 93.1347 13.2711 1236 62.1553 586.35 404.161
836 0 92.08 10.7081 986 65.7809 585.655 403.71
837 0 98.1296 12.2797 1205 63.8556 586.057 400.088
838 0 103.078 12.9805 1338 63.0105 585.862 398.584
839 0 106.069 11.7754 1249 65.0504 586.004 396.236
840 1 56.0901 9.32428 523 64.6023 585.685 424.046
841 0 61.0959 10.7209 655 62.8473 585.458 421.456
842 0 62.0586 11.0863 688 63.343 585.557 422.863
843 0 63.0902 9.47849 598 65.9515 585.691 420.375
844 0 64.1016 10.4678 671 65.1982 585.367 417.769
845 0 69.1255 11.3851 787 63.7103 585.878 417.496
846 0 71.0659 10.1455 721 65.3606 585.882 416.122
847 0 76.1235 11.1923 852 64.0352 585.728 412.751
848 0 81.192 12.5382 1018 61.8782 585.664 413.493
849 0 80.3692 11.049 888 64.4831 585.466 412.391
850 0 87.1663 13.4685 1174 60.9532 585.612 409.924
851 0 87.2074 10.1597 886 66.2968 585.31 409.357
852 1 48.0901 10.2932 495 65.7576 585.014 426.992
853 0 48.0212 11.1617 536 64.8675 585.427 425.024
854 0 52.045 10.7215 558 64.7473 585.561 426.023
855 0 54.0875 12.2209 661 62.8094 585.418 424.726
856 0 56.0271 11.3516 636 64.0818 584.929 423.401
857 0 58.0653 11.2632 654 63.8165 585.153 423.206
858 0 60.0581 10.6897 642 64.7991 585.397 421.523
859 0 58.0505 9.49174 551 66.9347 585.515 419.94
860 0 65.029 12.3791 805 62.605 585.841 419.985
861 0 64.075 11.7362 752 64.0505 585.678 417.726
862 0 70.0672 12.2739 860 63.2581 585.597 415.294
863 0 71.0669 11.5243 819 64.0574 585.043 414.416
864 0 74.1126 11.604 860 64.1326 585.283 413.448
865 0 76.0465 11.4535 871 64.6544 585.788 413.561
866 0 80.1467 12.6144 1011 62.5747 585.839 412.947
867 0 81.1302 11.7219 951 64.3481 585.426 407.588
868 0 85.0832 11.6827 994 64.6479 585.037 405.262
869 0 90.1227 11.562 1042 64.0672 586.543 408.015
870 1 49.0802 11.7563 577 61.7834 585.886 425.782
871 0 51.0994 12.0745 617 61.3047 585.404 423.549
872 0 52.0831 10.2337 533 63.9662 585.674 425.295
873 0 54.039 10.6035 573 63.7679 586.099 424.143
874 0 56.0441 9.52821 534 66.0524 586.024 422.017
875 0 58.0393 12.0952 702 62.9615 586.311 419.883
876 0 58.0873 10.5359 612 64.8627 586.003 421.428
877 0 63.1101 12.4861 788 62.4315 586.316 418.259
878 0 65.098 11.5365 751 63.5646 585.802 417.514
879 0 66.154 12.5163 828 62.8502 586.198 416.675
880 0 69.1058 11.6922 808 64.2933 586.755 415.447
881 0 71.109 11.1378 792 64.9091 586.38 414.249
882 0 74.1597 12.945 960 62.2656 586.63 413.967
883 0 75.0933 10.8931 818 64.934 586.232 412.87
884 0 78.0876 12.3451 964 63.3755 586.707 410.598
885 0 82.0582 12.4911 1025 62.9171 586.298 408.26
886 0 84.059 12.0748 1015 63.3675 586.395 411.783
887 0 85.0962 12.4682 1061 63.0415 586.281 411.308
888 0 88.2163 10.803 953 65.7219 585.921 405.088
889 1 47.2517 10.8144 511 65.0333 585.802 424.067
890 0 48.0616 8.65556 416 67.6635 585.822 425.233
891 0 53.1797 12.1663 647 62.7048 585.74 424.51
892 0 54.1942 11.0713 600 65.2 585.325 421.04
893 0 56.0518 11.2931 633 64.7741 585.329 418.668
894 0 59.0858 12.0164 710 63.7577 585.344 418.548
895 0 61.0903 12.1623 743 63.6824 585.209 416.933
896 0 62.1121 11.4631 712 65.5478 585.629 416.329
897 0 65.1092 12.1488 791 64.6094 585.593 415.756
898 0 67.1239 12.6334 848 63.5436 585.324 415.376
899 0 69.082 12.3042 850 64.1565 584.853 411.721
900 0 70.0958 10.7567 754 66.5212 585.285 411.09
901 0 72.0763 12.4035 894 64.3982 586.205 412.652
902 0 75.1874 11.0657 832 66.4519 586.325 409.751
903 0 79.152 12.356 978 64.4755 586.323 406.088
904 0 80.121 12.7432 1021 64.2635 586.176 405.058
905 0 85.141 12.2973 1047 64.4422 585.969 404.248
906 0 88.3485 11.0811 979 66.1297 586.258 403.59
907 0 92.1634 11.599 1069 65.7091 586.252 401.315
908 0 94.2276 11.7163 1104 66.0625 586.568 400.168
909 1 46.2076 10.7125 495 65.3798 586.347 421.923
910 0 49.1615 11.3097 556 64.1547 586.094 420.928
911 0 49.0551 9.3772 460 67.5239 585.667 420.561
912 0 54.1477 12.0042 650 62.7785 585.923 420.342
913 0 54.0497 11.4524 619 64.3134 586.289 416.803
914 0 58.0953 12.4278 722 62.2091 586.342 417.666
915 0 58.0397 10.9753 637 64.4788 586.505 414.347
916 0 61.1224 11.6815 714 63.2969 586.873 413.471
917 0 64.0848 11.8593 760 62.675 586.254 412.843
918 0 66.1185 11.5096 761 62.9185 587.729 411.469
919 0 69.1365 13.4227 928 59.7769 587.183 412.885
920 0 70.0663 11.6176 814 62.8845 587.066 408.419
921 0 73.0405 12.0755 882 61.7245 587.798 409.392
922 0 76.055 13.556 1031 60.7284 587.435 404.612
923 0 76.0412 11.7962 897 63.34 587.601 402.861
924 0 80.08 12.3626 990 62.2879 587.882 401.797
925 0 84.0494 12.5283 1053 61.7094 586.912 402.443
926 1 42.1482 9.41914 397 64.6121 587.32 421.166
927 0 45.0222 11.3499 511 62.0352 586.888 421.018
928 0 45.0951 9.57975 432 64.9444 586.833 418.924
929 0 48.0667 10.7975 519 63.869 586.626 418.276
930 0 51.1219 13.2429 677 59.8833 586.564 419.3
931 0 52.102 11.7462 612 62.1062 586.338 418.905
932 0 54.0711 12.0952 654 61.2875 586.113 418.362
933 0 57.1295 13.4956 771 59.1958 586.073 416.444
934 0 58.1422 12.8478 747 59.9531 586.471 416.839
935 0 58.1296 10.9583 637 63.1052 586.597 415.631
936 0 59.0387 12.0599 712 62.2683 586.465 411.044
937 0 65.0647 15.5691 1013 56.7522 586.359 411.597
938 0 63.0341 11.7873 743 62.031 585.568 411.207
939 0 68.1046 13.0241 887 59.6742 586.791 411.793
940 0 66.0664 11.8214 781 62.242 586.481 408.899
941 0 71.0951 13.5593 964 59.0311 586.413 411.594
942 0 73.1338 14.3709 1051 58.7222 586.304 409.267
943 0 76.0752 12.3825 942 60.8524 586.688 407.507
944 0 76.1094 13.1784 1003 60.8006 586.324 407.253
945 0 80.1066 13.507 1082 60.2357 586.189 405.862
946 0 84.1666 11.6673 982 62.167 585.912 403.255
947 1 44.0414 10.1041 445 62.9483 585.065 421.712
948 0 46.0536 11.1609 514 61.0272 586.014 423.401
949 0 49.0456 12.886 632 60.5111 586.014 419.646
950 0 50.0899 11.679 585 61.6462 585.752 419.725
951 0 50.0551 10.5883 530 62.9962 585.738 420.128
952 0 53.1394 12.3637 657 60.8737 585.67 417.925
953 0 57.1105 12.2745 701 60.2668 585.621 419.531
954 0 56.0339 12.082 677 61.3072 585.3 417.355
955 0 61.0652 12.6422 772 59.0233 585.324 418.036
956 0 62.1332 12.7307 791 58.9975 585.665 417.463
957 0 64.12 11.0886 711 61.0211 585.845 415.416
