time division length width area intensity CMx CMy
0 0 13.0033 8.61321 112 60.3929 334.375 496.152
1 0 14.0143 7.92047 111 60.5946 333.937 495.892
2 0 15.0069 7.92966 119 59.3445 333.899 497.345
3 0 15.0082 8.5953 129 57.3023 333.442 499.287
4 0 13.017 6.06896 79 67.2152 332.62 498.329
5 0 14.0041 6.42668 90 65.0778 332.667 497.244
6 0 14.0014 7.21358 101 61.7525 332.158 497.059
7 0 15.0407 9.24159 139 55.8777 332.388 496.604
8 0 16.1204 14.5778 235 37.0894 332.345 498.966
9 0 16.0026 8.6236 138 56.6087 332.957 498.152
10 0 14.0013 7.42789 104 61.3173 332.875 498.346
11 0 14.0013 7.49931 105 120.857 332.838 498.39
12 0 13.0005 6.30744 82 66.4146 332.049 498.524
13 0 13.002 7.4604 97 63.4021 332.041 498.526
14 0 15.0002 8.86654 133 57.1579 332.271 497.632
15 0 12.0007 6.99961 84 67.0714 331.167 498.905
16 0 14.0012 7.57078 106 62.5189 331.83 498.208
17 0 12.0001 5.99993 72 69.2083 331.764 498.806
18 0 15.0032 8.73149 131 57.1527 332.374 498.977
19 0 16.0016 7.06179 113 59.5133 331.947 499.673
20 0 16.0074 9.0583 145 55.5241 331.903 498.545
21 0 14.0038 5.28427 74 68.8378 331.473 497.338
22 0 14.0008 7.28531 102 61.7549 330.863 498.147
23 0 15.0106 8.19419 123 58.0813 331.276 497.821
24 0 14.0067 6.3541 89 64.5056 330.978 497.955
25 0 14.0013 7.85642 110 60.2455 331.673 497.609
26 0 16.0007 7.56216 121 58.3802 332.124 498.025
27 0 14.0017 6.78488 95 63.3053 331.147 497.989
28 0 15.0005 7.46643 112 60.0804 331.161 497.634
29 0 15.0011 7.6661 115 58.687 331.426 497.73
30 0 12.0002 7.08319 85 65.9176 331.247 498.494
31 0 14.0026 7.64145 107 62.1121 331.15 498.598
32 0 15.0012 7.19944 108 61.2315 331.361 500.019
33 0 15.0002 5.79993 87 65.4828 330.69 500.069
34 0 16.0043 6.93562 111 60.1261 330.982 500.856
35 0 15.0002 6.53325 98 62.7653 330.663 499.684
36 0 15.0002 6.46658 97 129.66 329.619 499.711
37 0 13.0031 6.46002 84 62.6429 330.476 498.81
38 0 13.0007 6.15354 80 65.925 330.35 499.512
39 0 13.0003 6.38447 83 66.7108 330.301 499.06
40 0 15.004 6.06504 91 65.989 330.088 498.077
41 0 12.0003 7.49983 90 65.5222 330.189 498.578
42 0 15.0094 6.52925 98 62.3469 330.786 497.735
43 0 14.0002 8.78557 123 58.6423 330.748 498.203
44 0 12.0003 7.33315 88 64.7727 331 498.898
45 0 13.0005 7.7689 101 62.4653 330.891 498.901
46 0 14.0038 7.49799 105 60.5905 330.733 497.952
47 0 13.0002 6.6922 87 65.2414 331.103 498.874
48 0 15.0007 9.39958 141 54.8865 331.475 498.525
49 0 13.0034 6.07536 79 67.9241 330.734 499.177
50 0 12.0014 6.83255 82 66.6707 330.207 499
51 0 14.0049 7.64019 107 60.785 330.467 497.804
52 0 13.0002 5.53836 72 67.5 330.5 498.583
53 0 13.0003 6.30755 82 65.9146 331 498.854
54 0 14.0018 5.71356 80 66.125 330.562 498.65
55 0 14.0127 7.06503 99 62.3232 330.929 498.889
56 0 14.0031 6.14152 86 63.5 330.523 498.395
57 0 16.018 8.24074 132 55.5682 330.705 496.902
58 0 14.0003 7.85695 110 59.6091 330.845 498.482
59 0 13.0021 7.61416 99 61.6869 330.949 498.04
60 0 14.0025 6.14176 86 63.7093 330.779 498.849
61 0 14.0101 6.63809 93 62.7097 331.29 497.849
62 0 14.0006 5.57118 78 66.1538 331.282 498.769
63 0 13.0042 6.53636 85 63.3176 331.259 500.294
64 0 14.0028 7.927 111 59.1712 331.739 498.694
65 0 13.0003 6.15371 80 66.3375 330.85 500.137
66 0 13.0023 6.07587 79 65.6076 330.835 500.228
67 0 14.0007 7.78531 109 59.3394 330.661 500.147
68 0 14.0029 7.49846 105 61.2571 330.486 500.238
69 0 14.0004 5.99982 84 64.631 330.631 501.762
70 0 14.0013 6.14229 86 63.6047 330.314 501.244
71 0 14.0001 5.78565 81 65.1605 330.58 501.16
72 0 14.0019 4.28514 60 70.65 330.117 500.717
73 0 14.0023 4.49925 63 138.032 331.127 500.635
74 0 12.0088 6.49523 78 65.9872 330.244 501.013
75 0 13.001 7.23021 94 61.2021 330.777 501.096
76 0 13.0156 5.68549 74 65.2027 330.338 500.73
77 0 12.0002 5.83326 70 64.9 329.729 501.457
78 0 13.0014 6.15316 80 63.6625 330.05 501.812
79 0 13.0112 6.22542 81 62.5062 330.062 500.938
80 0 12.0004 5.91645 71 65.1549 330.549 502.099
81 0 12.0004 5.91645 71 122.423 332.549 502.099
82 0 13.0003 5.53834 72 64.5556 330.236 501.042
83 0 13.0003 5.30755 69 66.971 330.304 501.217
84 0 13.007 5.9199 77 65.1299 330.935 500.675
85 0 13.0026 5.7681 75 64.1467 330.56 501.36
86 0 13.0014 6.46082 84 63.119 330.583 501.381
87 0 14.0002 7.07134 99 59.3131 330.737 501.879
88 0 13.0023 6.53729 85 61.6471 330.459 501.106
89 0 12.0017 6.08248 73 64.0959 330.342 501.904
90 0 11.0023 6.08965 67 66 329.731 501.343
91 0 13.0044 5.69036 74 64.7838 329.541 501.838
92 0 13.0026 7.15239 93 60.4946 329.817 500.624
93 0 13.0017 5.99922 78 62.6282 329.821 500.769
94 0 14.0125 7.3506 103 58.301 330.427 500.845
95 0 13.0064 7.30408 95 59.6316 330.442 500.758
96 0 13.0001 5.07687 66 65.3485 330.015 501.455
97 0 13.0024 6.92181 90 60.0556 330.411 500.944
98 0 12.0007 5.49968 66 66.9697 330.348 501.682
99 0 13.0006 6.69202 87 62.3563 330.736 501.161
100 0 12.0019 7.08224 85 61.7882 330.035 501.012
101 0 12.0006 6.41633 77 62.6234 329.974 500.987
102 0 13.0009 6.61492 86 61.686 330.128 500.36
103 0 13.0006 6.69201 87 60.9885 330.621 501.276
104 0 13.0017 6.53762 85 62.0471 331.024 502.106
105 0 13.0041 7.92058 103 56 330.087 500.961
106 0 13.0055 5.6899 74 61.3649 330.122 500.865
107 0 13.0015 5.84549 76 61.6184 330.263 501.592
108 0 13.0043 6.0749 79 59.6582 330.456 501.342
109 0 13.0003 6.99984 91 57.9451 331.286 501.176
110 0 13.0005 5.6921 74 60.6351 331.041 502.378
111 0 12.0007 6.08296 73 61.5068 330.945 502.932
112 0 13.0021 6.22974 81 60.4691 330.519 501.58
113 0 13.0011 6.61484 86 59.4884 330.779 501.884
114 1 27.0141 8.47707 229 45.1485 331.908 488.489
115 0 17.0041 4.93998 84 51.7976 331.56 489.238
116 0 22.0457 9.75247 215 44.4186 332.358 486.907
117 0 21.0646 10.634 224 43.7589 333.049 487.049
118 0 21.0635 7.83345 165 46.8303 332.2 488.43
119 0 21.0559 6.45901 136 47.9412 332.449 488.419
120 0 25.0295 7.59105 190 45.3632 332.942 487.953
121 0 25.0521 6.98544 175 46.56 332.126 490.097
122 0 26.0256 8.76059 228 44.4912 331.732 488.118
123 0 24.0116 5.41406 130 48.9615 331.315 491.377
124 0 18.0789 6.3057 114 48.693 331.596 490.009
125 0 18.0062 8.55262 154 46.1753 331.844 488.935
126 0 15.0329 6.45253 97 50.2165 331.227 490.629
127 0 20.0272 4.79349 96 49.3229 331.74 489.479
128 0 17.0348 6.04646 103 50.0485 331.33 491.01
129 0 19.2749 7.0558 136 45.4485 331.985 487.875
130 0 18.0452 5.31997 96 50.1562 332.24 492.115
131 0 19.0131 4.418 84 49.7976 331.988 490.881
132 0 21.8239 7.10232 155 43.1806 330.445 487
133 0 18.0183 7.2149 130 46.0615 333.569 490
134 0 16.1385 4.46137 72 49.9167 332.806 490.583
135 0 18.1491 4.07735 74 50.0946 332.932 490.946
136 0 17.0587 4.92417 84 49.4167 332.417 491.774
137 0 19.0125 6.78501 129 47.2403 332.814 492.496
138 0 18.0116 6.93996 125 46.624 332.856 491.136
139 0 18.007 6.83066 123 46.8618 332.813 490.528
140 0 17.0504 5.33712 91 48.9121 332.868 491.835
141 0 19.4819 9.188 179 42.6145 332.676 488.911
142 0 18.0111 5.82974 105 45.819 332.79 489.905
143 0 18.0337 4.71341 85 47.7647 332.588 492.671
144 0 19.053 7.45288 142 44.5915 332.944 492.986
145 0 20.1476 4.81448 97 45.701 331.856 490.773
146 0 15.1345 6.01274 91 47.5824 332.231 493.231
147 0 20.0302 4.74285 95 47.6842 331.053 493.747
148 0 17.0146 5.93607 101 47.4257 331.614 492.95
149 0 17.1263 8.40812 144 44.6806 331.819 492.076
150 0 20.907 6.36151 133 42.4737 330.188 489.444
151 0 16.0079 5.68468 91 46.989 333 492.659
152 0 20.0124 5.29671 106 46.4906 332.453 492.623
153 0 19.0446 8.29633 158 43.9747 332.019 490.854
154 0 19.5399 5.83422 114 44.614 331.728 490.421
155 0 18.0659 5.03712 91 47.9451 332.275 492.396
156 0 18.1051 8.7268 158 42.8481 332.93 490.405
157 0 19.0178 7.78217 148 44.1622 332.953 491.581
158 0 22.6244 6.4532 146 44.1164 332.986 490.747
159 0 11.0141 4.63044 51 50.7647 332.706 494.392
160 0 14.0034 3.07068 43 50.907 332.581 492.349
161 0 17.0826 8.72234 149 44.0604 332.738 492.255
162 0 19.0844 4.5063 86 47.5233 333.081 492.163
163 0 19.0444 8.24389 157 43.3949 334.076 491.096
164 0 18.0339 6.98683 126 43.9127 334.032 490.571
165 0 17.0204 7.57913 129 44.7519 333.93 491.93
166 0 16.1936 5.68127 92 46.8261 333.196 492.315
167 0 13.0129 3.84234 50 50.7 332.84 494.18
168 0 28.1193 10.2065 287 40.331 332.812 490.495
169 0 24.1879 5.0025 121 46.438 333.314 495.107
170 0 26.1374 5.35632 140 45.9214 332.736 493.193
171 0 19.0102 6.73324 128 44.9688 332.609 490.492
172 0 17.0345 5.69432 97 46.3505 333.309 491.309
173 0 16.0208 5.36803 86 47.6512 332.477 492.849
174 0 21.2094 6.12936 130 44.4 333.377 489.569
175 0 28.1568 6.71242 189 42.2275 333.402 488.185
176 0 28.2878 6.64597 188 43.4628 333.559 491.112
177 0 30.1114 8.07003 243 41 333.115 488.16
178 0 29.0626 8.8774 258 41.5659 333.372 489.574
179 0 29.276 7.34389 215 42.3907 332.474 489.237
180 0 22.0771 12.7281 281 39.6335 332.822 487.74
181 0 22.0171 5.49573 121 44.686 332.091 488.264
182 0 21.0664 5.55387 117 45.2051 332.496 488.932
183 0 24.145 9.60862 232 40.25 333.228 486.815
184 0 20.1501 7.49374 151 43.1192 332.861 488.755
185 0 23.0851 9.96312 230 40.713 332.822 488.074
186 0 21.1329 5.20516 110 45.4273 333.055 488.509
187 0 23.4114 11.661 273 39.2857 333.139 487.795
188 0 29.3587 4.01925 118 44.4661 333.661 487.347
189 0 22.0478 9.20726 203 40.4828 333.837 485.621
190 0 23.1609 7.38312 171 42.4737 333.07 487.035
191 0 23.1609 7.599 176 71.267 333.182 487.006
192 0 23.4189 10.1627 238 39.6723 333.891 484.71
193 0 24.2324 8.58356 208 40.4519 333.923 485.38
194 0 24.2784 10.6267 258 39.2093 333.891 484.376
195 0 26.8779 10.6779 287 37.6167 334.449 483.324
196 0 23.4562 14.3672 337 37.3294 334.267 485.472
197 0 24.0657 7.27177 175 41.3543 333.571 487.966
198 0 24.3803 10.0491 245 39.0204 334.273 484.086
199 0 26.8711 7.44294 200 40.15 334.155 486.07
200 0 26.35 7.32447 193 40.4922 333.321 486.187
201 0 23.0504 5.81335 134 43.9851 333.343 487.955
202 0 24.1828 11.6612 282 38.5142 333.482 485.67
203 0 22.407 8.658 194 36.9536 334.222 483.768
204 0 24.1047 10.8278 261 35.6322 333.954 481.966
205 1 0 0 0 -nan -nan -nan
206 1 26.2778 17.4672 459 33.4292 333.691 483.996
207 0 25.0569 6.5451 164 37.6951 333.762 486.232
208 0 24.0833 8.30451 200 36.61 334.235 484.275
209 0 29.0609 6.15948 179 36.581 334.419 483.447
210 0 27.1113 2.80326 76 40.0921 332.355 489.487
211 0 29.213 4.03929 118 38.3983 332.67 488.195
212 0 29.0607 4.26693 124 38.9919 333.339 486.694
213 0 26.2198 10.3357 271 35.0554 333.948 483.03
214 0 26.2269 9.91347 260 35.1346 333.831 483.423
215 0 25.1519 17.6528 444 32.982 333.014 485.98
216 0 23.0661 8.15049 188 35.9574 333.952 485.282
217 0 25.4035 7.71546 196 36.1276 333.648 486.071
218 0 23.0746 7.62745 176 36.625 333.244 487.006
219 0 23.14 5.61799 130 36.9538 333.546 483.654
220 0 25.0881 8.56981 215 36.2326 333.228 486.521
221 0 31.3232 2.80942 88 38.75 333.318 485.182
222 0 30.1856 5.03551 152 36.7829 333.908 482.75
223 0 30.0904 5.88227 177 37.4746 333.254 487.22
224 0 31.6752 7.86104 249 35.6064 333.683 481.888
225 0 31.594 7.37482 233 36.4893 332.421 485.82
226 0 33.9434 4.65481 158 37.9304 332.81 488.101
227 0 33.5686 10.2775 345 34.8638 332.812 484.426
228 0 29.3023 3.71984 109 37.8807 333.89 483.881
229 0 30.1715 5.7339 173 37.1445 333.63 484.457
230 0 29.1212 1.71696 50 41.08 331.5 489.96
231 0 23.088 10.395 240 34.9708 333.592 486.517
232 0 24.3833 7.75121 189 36.4497 332.434 485.116
233 0 25.1905 11.2344 283 35.0212 333.159 483.081
234 0 24.4914 8.24778 202 35.7129 334.094 482.985
235 0 24.0872 7.5974 183 35.9891 332.989 485.634
236 0 21.0144 8.70832 183 35.7049 332.896 483.415
237 0 24.1862 6.82208 165 35.897 333.321 482.97
238 0 22.269 6.69093 149 36.5235 333.094 484.476
239 0 24.1383 9.15556 221 35.3348 332.864 484.575
240 1 63.1321 10.7394 678 63.4204 334.183 431.572
241 1 2 4.5 9 30.3333 326.889 477.333
242 1 21.0643 10.5391 222 34.8874 333.55 486.185
243 0 24.2921 8.6448 210 34.8714 334.19 483.014
244 0 23.3754 7.10147 166 36.0422 333.084 485.512
245 0 23.1971 11.079 257 34.3774 332.191 485.961
246 0 23.2246 10.6353 247 34.3198 332.506 484.259
247 0 23.0716 8.23523 190 35.6947 333.195 487.042
248 0 24.4481 10.1439 248 34.5363 332.855 482.359
249 1 3 10 30 30.0667 340.5 472.6
250 1 26.4719 12.9571 343 33.2391 333.662 481.519
251 0 24.2126 6.77334 164 36.1463 333 484.78
252 0 24.2954 6.2975 153 35.8758 334.144 482.595
253 0 22.0228 4.63156 102 37.6078 332.353 486.314
254 1 4 3.25 13 34.3077 333.231 475.154
255 1 23.0895 5.63027 130 36.3308 333.031 487.5
256 0 23.4038 9.52836 223 34.3901 333.018 482.462
257 1 71.9053 12.3078 885 54.0588 332.52 442.237
258 0 73.9445 13.9835 1034 51.6567 332.728 441.847
259 1 22.0351 6.21736 137 36.2117 333 486.423
260 0 21.1412 12.724 269 33.5799 333.126 484.914
261 0 20.2037 5.93952 120 36.3917 332.967 485.642
262 1 8.29917 9.51903 79 30.9873 333 477.089
263 1 21.0979 5.0716 107 36.6729 333.252 485.084
264 0 21.0032 6.80848 143 36.049 332.853 486.755
265 0 23.0548 7.54722 174 35.6034 332.925 487.988
266 0 21.1075 6.11157 129 36.907 332.907 486.194
267 0 22.0457 12.837 283 33.7456 333.233 485.445
268 0 21.3113 11.3555 242 33.9132 332.731 485.025
269 0 23.6178 11.8978 281 33.5231 333.694 482.975
270 0 22.1302 10.8901 241 34.2324 333.564 485.394
271 1 4 6.75 27 31.8519 328.259 476.556
272 0 5 4.4 22 31.0909 326.864 477.136
273 0 4 7.75 31 31.6452 331.194 476.065
274 1 23.4757 7.92307 186 35.0484 331.962 483.753
275 0 24.2178 17.8381 432 32.0185 332.13 484.44
276 0 15.1179 11.708 177 34.3616 329.486 472.288
277 0 13.0652 6.35275 83 39.3374 330.072 468.241
278 1 32.169 3.26401 105 40.0095 330.981 481.171
279 1 22.1693 15.6072 346 32.7139 331.809 483.5
280 0 23.093 10.0463 232 34.069 333.375 489.056
281 0 24.4581 10.1807 249 34.3936 333.651 483.446
282 0 23.0319 7.07714 163 35.773 334.086 484.368
283 0 20.0052 10.8472 217 34.4654 332.516 483.097
284 0 22.0798 5.48012 121 36.876 333.595 486.083
285 1 5 16 80 30.0375 335.038 476.038
286 1 153.796 11.2941 1737 57.6874 333.926 416.143
287 1 135.725 12.9674 1760 55.492 333.698 423.801
288 1 6 4 24 34.2083 334.75 475.375
289 1 23.1553 15.5904 361 33.1025 332.429 483.213
290 0 29.1222 5.90615 172 34.7093 332.419 481.802
291 0 26.022 7.10937 185 35.5622 332.87 486.962
292 0 23.0685 11.921 275 34.1382 332.807 485.375
293 0 23.0811 12.2178 282 33.617 333.532 484.007
294 0 23.154 5.44181 126 36.5952 332.627 485.992
295 0 24.2854 8.44129 205 34.4732 333.302 482.332
296 0 23.1305 10.8082 250 33.792 333.04 484.096
297 0 20.0913 11.2984 227 34.4273 332.392 487.718
298 1 98.8803 7.07927 700 60.1257 334.31 435.593
299 1 21.0324 5.6104 118 36.8305 333.212 486.83
300 0 22.2651 3.63798 81 37.9383 333.198 487.395
301 0 23.6898 11.144 264 34.0492 333.526 485.402
302 0 22.0232 2.86061 63 38.0476 332.889 485.794
303 0 24.3502 15.9753 389 32.3368 332.429 483.918
304 1 5 6.4 32 31.0625 328.812 476.656
305 1 0 0 0 -nan -nan -nan
306 0 23.3093 10.1676 237 34.443 332.97 483.861
307 1 3 6.33333 19 30 323.895 476.842
308 1 20.0624 7.82559 157 35.5032 332.936 486.796
309 0 23.0685 9.4501 218 34.4037 333.569 486.362
310 1 85.0946 12.5037 1064 59.844 333.754 422.321
311 0 80.2788 6.52726 524 56.3435 333.097 451.971
312 1 150.331 9.48576 1426 63.5926 333.702 402.081
313 1 163.802 8.93761 1464 61.2322 333.089 410.668
314 1 52.1653 10.1983 532 60.3778 333.265 440.382
315 0 54.0673 9.74712 527 61.6964 332.954 433.283
316 0 57.0517 9.46509 540 61.3778 333.167 437.093
317 0 54.1037 9.62966 521 62.2668 333.086 433.699
318 0 58.1148 11.0299 641 60.6427 332.789 432.047
319 1 76.8645 12.1252 932 54.6309 332.654 439.92
320 0 80.157 13.6233 1092 52.848 333.127 440.68
321 0 80.5555 12.6745 1021 54.7326 333.848 438.325
322 0 80.869 15.3953 1245 52.09 333.204 440.306
323 0 83.734 13.6743 1145 53.6585 332.901 439.31
324 0 86.4841 13.1816 1140 54.8807 333.298 437.046
325 0 79.031 8.65483 684 63.671 333.287 429.213
326 0 79.0561 11.2072 886 61.3262 333.605 426.016
327 0 77.1623 9.74569 752 64.3152 333.219 423.136
328 1 92.5553 11.982 1109 58.9793 333.236 427.502
329 1 46.0291 7.75596 357 63.7927 333.667 439.356
330 0 48.0418 8.74239 420 62.9214 333.929 439.9
331 0 45.0743 8.09774 365 63.2603 333.474 440.789
332 0 48.0766 7.75845 373 63.9839 333.772 440.335
333 0 49.1039 9.30679 457 63.1969 334.042 439.945
334 0 51.0619 11.9267 609 60.3481 333.742 440.596
335 0 50.0549 9.80923 491 64.558 334.128 437.972
336 0 55.0789 11.1658 615 62.3951 334.081 437.766
337 0 57.0622 11.356 648 62.4352 334.008 436.157
338 0 59.0989 12.0645 713 62.1753 333.175 432.752
339 1 90.8744 9.06746 824 58.4126 332.873 443.964
340 1 65.0982 10.2768 669 64.0897 333.248 433.851
341 1 96.4101 8.45347 815 59.0564 332.882 443.352
342 1 67.0806 12.3285 827 61.7956 333.747 433.195
343 0 65.0914 10.6158 691 65.7077 333.281 429.323
344 0 70.1566 13.4556 944 60.8824 334.082 430.084
345 1 102.85 10.9674 1128 57.1365 332.488 440.379
346 1 69.1296 8.75167 605 65.9702 332.797 433.552
347 1 281.471 9.28336 2613 65.589 333.103 372.26
348 0 279.939 7.4552 2087 66.4475 332.515 383.197
349 1 117.28 11.0249 1293 65.1647 333.075 410.437
350 1 22.2204 11.3409 252 33.3373 332.405 485.171
351 0 23.0231 5.12529 118 35.8559 332.042 484.025
352 0 25.6893 7.62963 196 34.3827 332.265 482.5
353 0 19.0083 9.15388 174 34.9483 331.977 484.586
354 0 0 0 0 -nan -nan -nan
355 0 0 0 0 -nan -nan -nan
356 0 0 0 0 -nan -nan -nan
357 0 20.0116 8.54504 171 34.8304 332.83 485.667
358 0 19.1367 8.41316 161 35.0373 332.534 485.981
359 0 26.689 7.94334 212 34.5094 332.425 483.566
360 0 20.1907 11.3914 230 33.1739 332.222 486.465
361 0 0 0 0 -nan -nan -nan
362 0 20.1124 9.09886 183 34.1421 332.847 486.311
363 1 137.665 12.4069 1708 60.3091 333.153 417.075
364 0 140.601 13.2289 1860 58.1586 332.911 421.597
365 1 23.0611 16.3479 377 32.0504 332.08 484.663
366 0 23.0741 11.3981 263 32.7186 332.787 482.544
367 1 5 4.6 23 33.0435 330.304 477.13
368 0 0 0 0 -nan -nan -nan
369 0 2 15.5 31 31.3871 337.29 475.323
370 1 0 0 0 -nan -nan -nan
371 0 21.065 8.35509 176 34.4545 333.602 483.642
372 0 0 0 0 -nan -nan -nan
373 0 0 0 0 -nan -nan -nan
374 0 0 0 0 -nan -nan -nan
375 0 0 0 0 -nan -nan -nan
376 0 20.0542 9.57405 192 33.8698 332.12 486.422
377 0 22.1077 10.2227 226 33.6062 333.199 483.978
378 0 20.4304 4.74782 97 36.3196 332.639 483.474
379 1 118.949 15.0148 1786 57.4793 333.284 425.436
380 1 136.898 9.42307 1290 60.4636 333.629 432.45
381 0 129.019 14.2925 1844 59.8102 333.127 414.449
382 1 101.837 6.63804 676 66.5178 333.701 431.854
383 0 98.5279 6.36368 627 67.9649 333.517 431.083
384 0 107.219 9.52256 1021 58.6543 332.981 440.384
385 0 107.907 10.6666 1151 57.6811 333.234 437.248
386 1 87.489 14.036 1228 58.013 332.422 432.879
387 1 167.365 10.3486 1732 61.1495 332.22 418.08
388 1 137.336 9.56778 1314 66.1941 332.945 409.771
389 1 147.363 8.50284 1253 62.4852 332.579 423.514
390 1 19.034 10.7177 204 33.6078 331.382 483.074
391 0 17.0251 5.63872 96 35.7917 331.438 482.167
392 0 17.0608 5.4511 93 35.4839 331.785 485.806
393 0 20.0978 9.70253 195 33.6718 331.354 483.077
394 0 0 0 0 -nan -nan -nan
395 0 21.1413 5.58149 118 34.9746 332.288 481.322
396 1 4 8.75 35 29.8857 338.543 473.771
397 1 23.2084 9.78092 227 33.0749 332.705 484.753
398 0 19.1041 13.7144 262 32.5153 332.79 482.275
399 0 0 0 0 -nan -nan -nan
400 0 20.327 15.8902 323 32.0929 332.201 483.359
401 0 22.0596 18.994 419 30.8735 331.434 483.823
402 0 20.0401 13.473 270 32.3259 332.204 484.333
403 0 19.0706 8.49475 162 34.1358 332.179 484.623
404 0 21.0558 7.2664 153 34.5033 332.216 485.373
405 0 23.2676 13.7101 319 32.1411 332.448 482.003
406 0 22.1496 15.2598 338 32.071 330.979 484.908
407 1 78.2771 10.9994 861 65.8026 333.027 427.418
408 0 91.6717 13.3629 1225 59.4302 332.356 432.743
409 1 20.0176 8.54248 171 34.0994 332.322 484.386
410 0 20.1122 10.5906 213 33.446 332.493 482.61
411 0 0 0 0 -nan -nan -nan
412 0 21.4598 12.2089 262 32.4389 333.844 481.378
413 1 0 0 0 -nan -nan -nan
414 1 23.4971 11.7887 277 32.9639 331.675 484.542
415 0 21.0394 6.03628 127 35.2362 332.614 485.386
416 0 20.0151 5.79562 116 34.9914 332.741 484.802
417 0 16.0203 4.99366 80 35.8 332.562 486.1
418 0 20.0406 5.43895 109 35.4771 332.899 487.184
419 0 22.0161 5.45055 120 35.35 332.342 486.392
420 0 17.0223 8.51822 145 34.1379 332.938 484.897
421 0 19.0198 3.68037 70 36.7429 332.5 483.771
422 1 3 5.33333 16 33.625 331.875 475.938
423 0 6 8.33333 50 32.3 332.58 476.56
424 1 200.331 8.32124 1667 64.072 333.428 405.229
425 1 182.456 13.269 2421 58.1425 333.332 410.139
426 0 173.372 7.28492 1263 65.6097 333.793 410.975
427 0 171.278 5.23709 897 64.466 333.986 426.417
428 1 20.0324 9.78417 196 33.5 332.031 488.949
429 0 19.2838 7.05255 136 34.9412 333 487.265
430 0 20.0317 6.19017 124 35.1452 333.419 486.54
431 0 17.013 13.1664 224 32.8571 333.129 485.022
432 0 15 0.999999 15 39.6 332.6 488.133
433 0 21.3517 15.3617 328 32.0732 332.009 486.302
434 0 19.0512 10.9704 209 33.3732 332.656 484.024
435 1 71.1587 10.7928 768 56.9323 333.656 446.608
436 0 70.1277 14.3025 1003 52.319 333.07 449.654
437 1 19.0327 11.8743 226 32.7212 332.363 489.195
438 0 16.0566 5.91658 95 35.8632 332.284 486.958
439 1 93.2119 8.61478 803 57.721 333.592 444.9
440 1 80.1306 14.5512 1166 53.9348 333.557 440.743
441 1 18.0211 6.15946 111 35.4144 332.486 486.216
442 0 21.0307 8.32117 175 33.8857 332.651 489.514
443 0 23.0924 15.4163 356 31.7809 331.837 486.317
444 0 20.5727 15.5546 320 31.9094 331.316 486.628
445 0 17.2775 6.01939 104 35.0192 332.029 486.471
446 0 18.0152 5.27333 95 34.7368 332.379 484.842
447 0 20.141 10.923 220 33.3455 332.277 485.514
448 0 19.1394 3.23939 62 36.1613 332.258 485.306
449 0 19.0066 7.83937 149 34.557 331.846 486.96
450 0 21.089 10.8587 229 33.1004 331.07 484.969
451 0 20.123 12.9702 261 32.7548 332.222 486.234
452 0 18.0088 6.77448 122 35.2295 331.656 487.73
453 0 20.0449 19.9053 399 31.5815 330.85 485.87
454 0 17.2987 19.4812 337 31.3947 330.371 487.561
455 0 20.1649 17.2081 347 31.3602 330.899 486.96
456 1 113.126 12.0396 1362 63.2849 333.09 418.435
457 1 136.212 9.60264 1308 62.3326 333.619 424.881
458 0 138.301 10.0361 1388 60.6218 333.298 429.303
459 0 135.134 14.6373 1978 58.3099 333.166 415.91
460 0 129.191 12.4079 1603 63.8416 333.583 403.42
461 1 20.0357 18.2674 366 31.4235 331.727 484.358
462 0 20.071 8.2208 165 33.7455 333.23 487.376
463 0 20.0255 12.4341 249 32.747 331.964 487.755
464 0 16.0079 2.18642 35 37.0857 332.629 487
465 0 18.0037 7.66509 138 34.3116 332.797 486.964
466 0 19.103 14.291 273 32.0659 331.971 485.993
467 0 21.0332 15.0239 316 31.6171 332.535 486.411
468 0 18.0153 15.5978 281 31.9004 331.541 487.669
469 0 20.0979 6.36884 128 34.1797 332.484 486.695
470 0 0 0 0 -nan -nan -nan
471 0 19.0937 9.58431 183 33.3388 331.109 486.76
472 0 22.12 9.31286 206 32.8592 331.738 486.835
473 0 18.026 11.8163 213 32.4366 331.174 486.573
474 0 21.0156 11.658 245 32.3347 331.253 487.31
475 0 17.0446 7.33372 125 34.12 331.728 485.664
476 0 0 0 0 -nan -nan -nan
477 0 18.0124 4.82999 87 34.9195 332.678 487.425
478 0 20.1041 15.6187 314 31.5159 331.213 485.01
479 0 20.0343 7.08785 142 33.3732 331.268 488.655
480 0 21.1133 9.80423 207 32.657 331.923 486.053
481 0 19.0467 9.87047 188 33.0266 331.016 486.558
482 0 19.0126 8.57327 163 33.2515 332.245 487.239
483 0 20.221 19.1385 387 30.6098 331.641 486.036
484 1 2 7 14 30.5 331.714 478.357
485 0 0 0 9 32.2222 336.778 478
486 1 134.349 8.49279 1141 57.9623 333.05 430.954
487 0 132.367 7.44145 985 59.998 332.968 428.056
488 1 114.465 11.8027 1351 56.9282 333.014 425.828
489 1 20.0113 9.8944 198 32.7424 331.808 484.924
490 0 20.1407 8.83781 178 32.8146 332.36 483.91
491 0 23.4107 15.762 369 30.7127 331.935 482.718
492 0 19.0673 10.2269 195 32.7333 332.646 485.133
493 0 21.1686 11.6682 247 31.8704 333.182 484.389
494 1 86.4666 9.495 821 56.6492 333.334 440.017
495 1 104.351 8.04018 839 57.5256 333.219 438.212
496 1 84.5195 16.4578 1391 50.2049 332.888 440.209
497 1 103.459 9.78164 1012 55.8943 333.048 435.012
498 1 86.3738 11.8091 1020 55.0098 333.423 437.624
499 1 103.413 8.68361 898 57.5557 333.5 435.705
500 1 85.8952 9.83757 845 57.2438 332.888 435.953
501 1 21.2452 7.53113 160 32.9938 332.662 484.506
502 0 21.1918 7.36134 156 32.7051 331.699 485.269
503 0 18.0229 9.37697 169 32.4201 332.172 483.704
504 1 1 20 20 27.8 321.4 477.2
505 1 18.029 16.1406 291 31.0859 331.701 485.285
506 1 0 0 1.04732e-303 -nan 423 -0.0697295
507 1 13.0857 4.81443 63 34.7302 331.397 486.222
508 1 1 18 18 31.6111 332.889 476.778
509 1 21.1691 16.0611 340 30.8618 332.159 483.956
510 1 55.0307 5.92397 326 68.6687 333.583 386.175
511 1 126.54 12.7153 1609 56.8825 333.668 416.878
512 1 147.002 12.374 1819 53.7532 333.545 428.13
513 1 124.612 14.8702 1853 52.1587 332.901 429.854
514 1 147.539 10.1736 1501 56.0526 333.362 427.596
515 1 125.614 7.57879 952 61.5903 332.905 421.399
516 0 126.48 8.13569 1029 57.5782 333.013 433.819
517 1 166.232 13.6676 2272 54.5669 332.75 416.76
518 1 145.094 11.6131 1685 53.2237 332.418 409.044
519 1 20.0334 10.5823 212 32.434 331.66 484.797
520 0 20.227 12.5575 254 31.7126 331.311 485.768
521 0 22.1573 23.0173 510 29.6157 330.365 483.696
522 0 18.0157 19.4275 350 30.5743 330.674 483.974
523 1 0 0 1.04732e-303 -nan 422 -0.0918374
524 0 0 0 0 -nan -nan -nan
525 0 3 13 39 27.4615 320.256 478.513
526 1 23.3516 15.8447 370 30.5351 330.762 486.286
527 1 4 5.25 21 31.2381 329.905 478.524
528 1 22.1349 6.64111 147 33.1224 332.456 486.204
529 1 1 8 8 32.5 332.375 476.5
530 0 2 5.5 11 31.7273 329.273 477.364
531 0 3 5.33333 16 31.625 330.75 477.062
532 1 21.233 12.7632 271 31.5387 331.435 485.686
533 0 21.1948 8.35109 177 31.8814 333.616 481.362
534 1 184.863 11.3706 2102 59.7845 332.885 391.162
535 1 69.0737 9.85904 681 64.4552 332.783 369.314
536 0 64.0488 10.3359 662 57.0438 333.784 431.068
537 1 186.635 7.89241 1473 59.3747 333.296 404.115
538 0 178.49 15.1997 2713 50.1648 332.561 415.155
539 1 160.032 13.4536 2153 55.0107 333.051 400.905
540 1 177.635 11.4335 2031 55.7499 333.047 401.323
541 0 172.763 13.7877 2382 54.8472 333.256 391.932
542 0 177.605 13.834 2457 54.4274 332.797 393.84
543 1 21.1186 9.28093 196 32.3776 332.388 483.224
544 0 18.0294 4.32626 78 33.7949 331.667 486.5
545 0 21.2645 5.87835 125 32.896 332.784 483.408
546 0 22.2429 11.3295 252 30.1349 333.377 480.052
547 0 17.0136 3.93802 67 34.4925 331.672 484.045
548 0 20.3099 7.48402 152 31.6316 332 481.816
549 1 1 14 14 31.7143 334.286 475.571
550 0 1 9 9 30.3333 329.444 474.556
551 0 3 5 15 31.4 332.4 475.067
552 0 2 9.5 19 28.6842 339.316 473.158
553 1 18.0082 3.33181 60 34.45 331.867 486.083
554 0 21.0487 6.9838 147 32.1837 332.197 481.197
555 0 21.2051 15.6566 332 30.5693 331.298 483.81
556 1 79.64 10.9744 874 51.3181 331.998 437.153
557 0 82.1893 16.0848 1322 46.4455 331.695 438.462
558 0 80.5385 15.0487 1212 47.8111 331.918 437.356
559 1 69.1552 11.7996 816 54.152 332.64 429.352
560 0 70.1703 12.4554 874 53.7231 332.923 426.365
561 0 71.1463 12.4532 886 54.1716 333.188 425.591
562 0 74.1331 13.0306 966 53.7122 333.185 427.539
563 0 75.1224 12.4197 933 54.6099 332.677 424.06
564 1 177.104 15.4034 2728 47.8574 331.664 419.098
565 0 169.432 14.1827 2403 49.8344 332.201 412.587
566 1 190.809 12.751 2433 51.6946 332.144 405.307
567 1 156.143 12.5334 1957 56.5278 332.472 388.739
568 1 170.012 13.1932 2243 52.9434 332.127 404.757
569 0 168.437 13.1859 2221 50.6254 331.717 415.423
570 0 168.597 6.90997 1165 55.1871 331.507 421.566
571 1 152.315 8.10161 1234 59.7909 331.581 398.344
572 1 113.75 14.3737 1635 50.8728 331.089 421.651
573 0 115.642 18.6005 2151 47.1437 330.346 424.468
574 0 105.238 13.1797 1387 55.2466 331.676 404.229
575 0 107.234 11.321 1214 57.271 331.767 406.334
576 0 113.242 12.619 1429 55.5046 331.067 409.901
577 0 116.224 13.1729 1531 54.8472 331.731 409.434
578 1 22.1709 15.3355 340 30.2147 330.715 483.303
579 0 22.1709 15.3355 340 53.6206 329.715 483.303
580 0 0 0 0 -nan -nan -nan
581 1 76.131 11.7166 892 54.3856 332.094 426.673
582 0 81.1358 13.1754 1069 52.579 332.593 426.37
583 0 81.2017 14.15 1149 52.2141 332.382 423.587
584 0 82.1515 12.1726 1000 54.219 332.339 424.434
585 0 83.2913 13.5668 1130 53.5283 332.825 421.117
586 1 119.331 9.57842 1143 52.9195 332.539 426.711
587 1 91.1566 12.6486 1153 53.987 332.341 419.621
588 1 45.0861 11.4448 516 53.4516 333.124 440.965
589 0 49.3502 11.4285 564 52.4202 332.619 441.695
590 0 50.2008 11.5536 580 52.8121 332.728 441.16
591 0 52.1505 9.08907 474 55.3776 332.911 441.021
592 0 53.1939 13.7422 731 51.5253 332.767 438.699
593 0 56.1238 11.7063 657 53.5738 332.409 436.7
594 0 59.2773 12.703 753 52.421 332.288 438.708
595 0 62.2411 11.6965 728 52.8269 332.573 437.716
596 0 62.2657 13.5709 845 52.5657 332.22 433.554
597 0 62.2903 13.421 836 52.0275 331.984 437.833
598 0 62.1566 10.9562 681 55.3965 332.239 434.687
599 0 67.1463 11.9441 802 54.2506 332.294 432.732
600 0 70.2033 13.6034 955 52.1623 332.153 433.795
601 0 69.1027 10.6942 739 55.5656 332.598 430.785
602 0 70.0701 12.5446 879 53.8794 332.042 430.456
603 0 76.1141 13.69 1042 52.0125 331.961 431.513
604 0 77.2681 14.0291 1084 52.3017 332.347 429.2
605 0 77.218 11.7201 905 55.0453 332.433 425.499
606 0 80.1986 13.1548 1055 53.4104 332.634 424.396
607 0 82.1277 13.9539 1146 53.014 332.985 421.232
608 1 48.1664 11.1904 539 53.4453 331.98 443.896
609 0 47.1108 11.5472 544 53.3732 331.963 443.103
610 0 42.0663 9.88914 416 57.9014 332.144 394.798
611 0 50.0434 10.2311 512 54.459 332.646 441.449
612 0 52.0868 11.884 619 53.0452 331.838 441.21
613 0 53.3896 11.594 619 53.6575 332.325 440.598
614 0 56.042 12.6334 708 52.2401 331.993 439.364
615 0 57.2242 11.551 661 52.9274 331.912 440.654
616 1 68.4727 15.4806 1060 45.9991 331.169 447.474
617 0 67.1748 12.0879 812 51.5012 331.841 439.741
618 0 61.0459 11.5487 705 53.295 332.126 437.688
619 0 64.0393 12.383 793 52.488 331.683 436.652
620 0 64.0458 12.2412 784 52.0689 331.895 438.94
621 0 69.2951 12.6993 880 52.1 332.143 433.051
622 0 69.0467 11.427 789 53.711 332.196 429.597
623 0 72.0816 15.0663 1086 50.3867 332.53 430.486
624 0 75.1052 13.754 1033 51.3427 332.47 434.121
625 0 76.1244 12.3219 938 52.8518 332.501 433.982
626 0 78.0939 12.5746 982 53.5346 332.475 427.616
627 0 78.0939 12.5746 982 125.386 331.475 427.616
628 0 82.05 9.68921 795 55.8415 332.248 433.984
629 1 55.108 9.81708 541 52.1941 332.373 448.721
630 0 48.0423 10.5324 506 53.8518 332.385 448.879
631 0 48.115 12.2 587 53.2794 332.186 447.843
632 0 49.1277 11.8263 581 54.3494 332.299 445.94
633 0 51.1659 9.79168 501 56.8483 332.766 445.447
634 0 49.0562 9.31585 457 58.2079 332.077 444.184
635 0 54.0154 10.6451 575 56.4365 332.343 445.014
636 0 55.0576 12.2417 674 56.0104 332.331 441.181
637 0 55.0576 12.2599 675 130.258 332.341 441.163
638 0 60.1206 12.8076 770 55.6779 332.038 439.309
639 0 61.1419 11.4161 698 57.3424 332.056 441.096
640 0 61.1419 11.4815 702 128.074 331.077 440.82
641 0 65.1906 14.2812 931 55.1643 332.503 436.345
642 0 67.1556 12.4338 835 57.2467 332.329 435.007
643 0 69.0752 12.0738 834 57.6271 331.681 435.434
644 0 74.1403 12.6247 936 57.1517 331.918 433.718
645 0 77.1659 11.2485 868 58.712 331.636 434.355
646 0 78.1449 13.6925 1070 56.7196 332.088 432.392
647 0 78.1149 11.6751 912 59.0132 332.027 432.452
648 0 82.1541 11.3445 932 59.6084 332.198 431.126
649 1 46.0647 11.1582 514 56.5428 332.072 449.288
650 0 47.0684 12.7474 600 55.2967 331.647 448.692
651 0 48.0701 13.3555 642 54.2757 331.861 449.497
652 0 52.0153 10.9199 568 57.8151 332.375 444.798
653 0 53.0589 13.9091 738 54.5962 331.641 444.304
654 0 55.1682 12.4166 685 56.1927 332.162 443.02
655 0 58.0626 13.3649 776 54.9613 332.036 444.602
656 0 59.0933 12.218 722 56.9709 332.31 439.15
657 0 58.1197 9.9622 579 59.6321 333.069 439.978
658 0 64.0239 13.2451 848 55.4493 332.935 440.443
659 0 66.0608 11.111 734 57.7752 332.706 436.52
660 0 66.1057 11.769 778 58.347 332.794 434.969
661 0 69.0864 11.5942 801 58.2422 332.285 434.471
662 0 70.055 11.5338 808 58.7426 332.454 431.377
663 0 73.066 11.9755 875 58.784 332.331 430.789
664 0 77.1138 14.0442 1083 56.108 331.653 428.748
665 0 73.0966 10.7529 786 60.9796 332.585 429.14
666 0 81.1317 13.4473 1091 57.8011 332.822 427.665
667 0 81.1317 13.4719 1093 137.279 333.851 427.618
668 0 86.0408 10.8902 937 60.3106 332.436 429.509
669 0 88.0483 12.6862 1117 58.9167 332.356 424.226
670 1 50.1042 11.7356 588 57.2534 331.912 444.085
671 0 49.0586 9.53962 468 60.094 332.058 442.444
672 0 53.0448 11.2358 596 58.9748 331.914 441.158
673 0 51.1829 10.9802 562 60.3897 331.706 438.847
674 0 55.1041 11.1244 613 60.1697 331.431 439.478
675 0 56.0706 11.6817 655 59.6947 331.376 436.113
676 0 58.1985 10.4642 609 61.0903 332.284 435.76
677 0 61.2544 11.7706 721 59.4216 331.938 436.757
678 0 61.1155 12.2064 746 59.9303 331.666 433.072
679 0 64.1384 11.4128 732 60.6366 332.022 432.872
680 0 65.091 12.06 785 60.1847 331.82 432.581
681 0 67.1512 10.8412 728 61.3242 331.566 430.519
682 0 71.0935 11.9983 853 59.6413 331.757 429.814
683 0 72.0917 11.3883 821 60.8721 331.295 428.68
684 0 75.1058 11.6103 872 60.3635 331.618 427.013
685 0 78.1923 12.5204 979 59.0419 331.858 425.842
686 0 81.0969 12.1953 989 58.7068 331.367 428.232
687 1 39.0145 9.32986 364 60.717 331.86 444.728
688 0 42.0298 10.0881 424 60.2076 332.153 441.811
689 0 45.3148 11.2546 510 58.3216 331.559 440.99
690 0 45.0532 11.1424 502 58.6215 331.054 440.683
691 0 48.0341 12.6577 608 56.1628 330.939 441.65
692 0 49.185 11.1416 548 58.7646 330.799 438.469
693 0 49.1254 11.2569 553 59.7125 331.226 437.868
694 0 51.06 10.0274 512 60.6113 331.617 435.895
695 0 54.104 11.6627 631 58.5927 331.897 436.048
696 0 56.0699 11.9137 668 58.4626 332.262 434.78
697 0 56.1345 11.6328 653 58.1547 331.859 436.003
698 0 59.0721 11.7314 693 58.9755 332.39 432.701
699 0 60.0867 11.8995 715 58.9538 332.049 433.081
700 0 61.1959 11.0628 677 59.7696 332.01 431.4
701 0 64.1289 11.6484 747 59.3829 332.676 433.063
702 0 65.1904 11.3207 738 60.0664 331.848 431.377
703 0 65.1904 11.3667 741 138.422 330.83 431.278
704 0 70.0956 11.9979 841 59.0642 331.853 430.486
705 0 71.19 11.5044 819 60.5006 332.111 426.199
706 0 72.2556 9.89542 715 62.4867 332.759 428.098
707 1 41.1839 8.76557 361 60.9529 333.086 443.981
708 0 42.1096 11.2564 474 59.2658 332.629 442.099
709 0 41.0803 8.37385 344 63.0204 332.483 442.017
710 0 45.2133 11.3683 514 58.5156 332.352 441.051
711 0 44.0653 8.32855 367 62.3379 332.529 439.504
712 0 46.0338 8.81962 406 62.266 332.606 438.458
713 0 50.293 10.7967 543 59.0092 332.696 437.011
714 0 50.1953 9.92126 498 61.3353 333.163 436.048
715 0 51.104 10.8211 553 60.6962 333.443 434.036
716 0 51.0569 11.2619 575 60.7322 333.294 433.562
717 0 56.1628 11.5023 646 60.1997 332.726 433.088
718 0 59.1891 12.5023 740 58.827 332.769 432.684
719 0 57.1668 10.4606 598 62.5117 332.833 433.453
720 0 61.2251 12.5765 770 59.8273 332.583 429.282
721 0 62.213 11.2677 701 61.7332 333.073 429.9
722 0 63.1921 12.0743 763 61.3892 332.577 426.616
723 0 68.0755 13.1178 893 59.3606 332.681 428.075
724 0 69.1588 14.0257 970 58.601 332.935 425.862
725 0 71.0338 11.7409 834 61.301 332.647 424.698
726 0 72.0764 11.7653 848 61.9363 332.808 423.757
727 0 75.1226 12.1668 914 61.0252 332.794 422.428
728 0 78.129 12.6714 990 59.9505 332.417 424.085
729 0 81.1966 11.3675 923 62.2254 332.479 420.394
730 0 82.2301 11.3462 933 61.8424 332.285 421.766
731 0 86.084 11.1868 963 62.459 331.767 416.549
732 0 88.1083 10.9184 962 62.3441 332.306 416.131
733 1 45.0833 10.2255 461 61.2777 332.954 437.863
734 0 47.0903 12.4017 584 57.8647 333.113 438.493
735 0 48.1305 11.9259 574 58.0767 332.936 439.195
736 0 51.0847 12.0584 616 58.4334 332.795 435.218
737 0 51.1402 12.9839 664 57.5708 332.846 435.523
738 0 54.1114 12.1416 657 58.4612 332.951 435.769
739 0 54.1325 11.1209 602 60.4286 332.688 432.623
740 0 55.1551 12.2745 677 59.1994 332.452 432.612
741 0 56.0565 9.82936 551 62.5572 332.724 432.194
742 0 59.0678 12.4095 733 59.7176 332.716 430.457
743 0 62.1688 10.6806 664 61.872 332.916 427.979
744 0 61.0989 11.2768 689 61.3861 333.158 430.431
745 0 64.1822 13.711 880 58.4545 333.256 427.874
746 0 63.0372 11.1839 705 62.7376 333.031 425.332
747 0 67.1083 12.3532 829 60.1677 332.904 425.949
748 0 75.0526 12.871 966 45.6522 332.57 426.546
749 0 72.114 12.3693 892 60.3632 332.352 422.359
750 0 74.096 13.0641 968 59.6312 332.158 421.09
751 0 77.1099 12.8777 993 59.7754 332.762 422.757
752 0 78.1069 11.7915 921 61.6602 332.471 422.702
753 1 42.0841 10.2176 430 62.9465 332.656 436.06
754 0 42.0783 9.14961 385 65.0416 332.41 435.979
755 0 44.0244 10.6078 467 63.4839 332.323 435.934
756 0 47.0632 11.4314 538 61.9721 332.429 434.909
757 0 48.0651 12.5247 602 60.6495 332.661 437.304
758 0 47.0531 11.6464 548 63.1332 332.099 435.635
759 0 49.0347 10.5436 517 64.9923 332.11 434.164
760 0 53.0365 12.6328 670 61.5358 332.439 433.96
761 0 53.0881 11.1701 593 64.7858 332.479 432.088
762 0 57.0954 13.0834 747 60.5341 332.198 434.124
763 0 56.1015 11.7822 661 62.888 331.658 429.666
764 0 59.0373 12.094 714 62.4776 331.433 428.762
765 0 61.0662 12.0525 736 62.2174 331.997 429.488
766 0 62.1142 12.9922 807 61.7869 332.337 427.37
767 0 65.1031 13.7935 898 60.5011 332.481 425.784
768 0 64.0468 12.2098 782 63.5384 332.12 427.031
769 0 69.0546 12.5843 869 61.8308 331.644 425.947
770 0 70.0759 13.7851 966 60.3023 332.255 427.849
771 0 72.0872 14.1357 1019 60.4563 331.998 424.229
772 0 76.1796 13.14 1001 61.1898 331.868 424.523
773 0 76.0668 12.2787 934 63.0236 331.995 421.958
774 0 81.0993 13.3787 1085 60.7143 332.449 423.422
775 1 45.0289 12.6585 570 59.421 332.889 440.367
776 0 46.077 11.5459 532 60.2688 332.701 440.692
777 0 47.024 10.5691 497 62.9074 332.117 439.94
778 0 48.0276 13.284 638 60.2006 332.373 438.984
779 0 48.0777 11.1486 536 63.1325 332.694 438.325
780 0 50.0414 11.0309 552 63.1232 332.069 436.991
781 0 52.0198 11.8609 617 63.5494 332.449 434.462
782 0 54.0167 12.1629 657 63.1142 332.594 434.128
783 0 54.015 12.1633 657 63.0868 332.594 435.446
784 0 57.0249 13.5029 770 61.3208 332.038 435.231
785 0 58.0775 14.1535 822 60.0779 332.201 437.796
786 0 62.0453 13.4579 835 61.4371 331.781 434.638
787 0 64.0415 13.5069 865 61.785 332.06 433.258
788 0 63.0771 12.0646 761 64.8594 331.816 430.658
789 0 65.0314 12.4248 808 63.9332 331.589 430.322
790 0 67.0955 12.2363 821 64.0438 332.195 428.104
791 0 69.0854 11.7536 812 64.1626 332.129 428.642
792 0 72.1538 13.9701 1008 61.6677 332.316 425.562
793 0 73.0802 10.8648 794 65.4899 332.217 426.927
794 0 75.0388 12.4735 936 63.5053 332.166 423.574
795 0 78.0575 12.2474 956 63.7134 332.117 422.208
796 1 43.0434 11.3374 488 61.9488 332.525 441.086
797 0 44.0437 12.4649 549 61.2787 332.364 439.854
798 0 44.0682 11.5276 508 63.2185 331.87 437.74
799 0 45.0164 10.7294 483 63.0476 332.538 438.681
800 0 47.0324 8.97254 422 65.6493 331.948 434.576
801 0 49.063 11.6992 574 63.1812 332.303 435.176
802 0 51.1239 11.2667 576 62.842 332.358 436.446
803 0 53.0652 11.7591 624 63.1763 332.072 433.016
804 0 53.0331 10.2577 544 64.8915 332.031 434.36
805 0 55.0477 10.9178 601 64.5607 331.937 431.539
806 0 56.0219 10.7815 604 65.5281 332.253 430.209
807 0 58.1812 8.85166 515 67.6854 332.064 429.241
808 0 62.0511 10.7653 668 65.4252 332.184 427.271
809 0 59.0618 7.38209 436 71.0963 332.47 424.071
810 0 59.0987 7.73282 457 71.232 332.429 421.873
811 0 63.0909 8.09943 511 70.5734 333.186 417.888
812 1 120.122 4.33727 521 74.5547 332.472 358.023
813 1 130.047 2.6375 343 77.6035 332.542 354.834
814 0 131.037 0.610515 80 82.1625 333.188 398.625
815 0 128.167 1.78673 229 79.048 332.799 400.406
816 0 124.12 2.99709 372 78.8253 332.804 379.691
817 1 46.0494 10.9448 504 64.8948 332.923 438.542
818 0 49.1393 11.0299 542 65.1734 332.86 438.397
819 0 51.0408 11.2655 575 65.5687 332.843 437.061
820 0 51.0844 10.6099 542 66.0738 333.247 438.188
821 0 53.0363 11.049 586 65.3345 332.817 437.882
822 0 56.0872 13.1046 735 62.9061 332.943 435.922
823 0 59.0861 14.8597 878 59.9806 332.642 435.621
824 0 59.0692 13.1371 776 63.317 333.092 433.473
825 0 60.027 12.611 757 64.7305 332.627 430.026
826 0 64.0418 13.9753 895 61.6436 332.287 430.898
827 0 65.0873 11.523 750 64.952 332.337 429.639
828 0 67.1111 12.8742 864 63.0278 332.253 427.823
829 0 71.07 12.2555 871 62.7038 332.158 430.42
830 0 73.0886 11.7392 858 63.8776 332.69 426.504
831 0 76.0582 11.2677 857 64.3979 332.863 427.208
832 0 76.0582 11.2414 855 143.192 332.862 427.152
833 1 40.0926 11.1991 449 62.9466 333.096 443.114
834 0 42.0475 12.5097 526 60.5741 332.985 443.447
835 0 43.0176 11.042 475 64.0295 332.398 441.189
836 0 45.0235 12.4157 559 61.9034 332.148 440.809
837 0 46.0162 12.8433 591 62.3959 331.951 438.052
838 0 48.0127 12.1426 583 63.0738 332.333 439.25
839 0 48.0676 12.6904 610 64.2262 332.574 435.303
840 0 49.076 10.7792 529 66.8885 332.457 434.771
841 0 53.0626 12.4004 658 64.0608 332.453 434.116
842 0 52.0208 12.2836 639 65.9687 332.434 433.911
843 0 54.0192 12.1623 657 66.3394 332.326 434.44
844 0 59.1281 13.2255 782 63.9425 332.051 433.666
845 0 57.0227 12.0654 688 67.0596 332.722 432.062
846 0 61.0709 13.3451 815 64.4663 333.075 431.15
847 0 63.104 12.519 790 65.7253 332.608 429.43
848 0 65.0351 12.6393 822 64.8601 332.791 430.507
849 0 67.1539 12.0767 811 66.6991 332.698 427.424
850 0 67.1539 12.0469 809 155.383 333.696 427.429
851 0 72.0742 11.6269 838 67.6313 332.541 425.845
852 0 72.0578 11.463 826 68.339 332.559 424.569
853 0 75.1072 10.9843 825 68.5127 332.398 423.647
854 0 79.0472 12.7392 1007 66.0248 332.255 421.546
855 1 39.0186 9.25199 361 69.723 332.543 438.249
856 0 40.0247 10.0688 403 69.2556 332.506 438.241
857 0 47.0382 12.4367 585 63.7641 332.85 439.232
858 0 46.006 11.455 527 66.6205 332.336 436.945
859 0 48.0442 10.6985 514 67.2704 333.031 436.037
860 0 52.0533 11.5651 602 65.2292 332.975 436.829
861 0 50.0606 11.0866 555 67.209 332.883 434.901
862 0 52.0394 10.7611 560 67.3482 332.698 435.214
863 0 57.0699 13.0892 747 63.3708 332.582 433.652
864 0 56.1147 12.4032 696 65.6422 333.217 432.034
865 0 60.024 12.2618 736 65.0706 333.182 433.045
866 0 61.0214 12.0941 738 65.832 333.327 430.901
867 0 61.0425 11.2708 688 67.952 332.828 428.539
868 0 66.061 11.8375 782 65.2366 332.533 429.293
869 0 68.0913 11.8811 809 65.3523 333.494 430.106
870 0 69.0288 12.6614 874 65.1968 332.994 427.365
871 0 73.0429 13.5674 991 63.2553 332.792 427.191
872 0 74.0559 11.7884 873 66.2944 332.202 424.715
873 0 75.105 10.9846 825 67.1685 332.681 425.353
874 0 79.0986 12.7689 1010 65.3168 332.604 421.043
875 1 38.0233 9.83606 374 67.4011 332.12 438.941
876 0 43.0676 10.2397 441 65.6939 333.104 440.172
877 0 43.0675 10.9131 470 66.1043 333.143 437.313
878 0 46.0388 11.4034 525 64.3314 332.617 439.023
879 0 45.0701 10.3173 465 66.6194 332.787 437.166
880 0 47.0301 12.3538 581 64.7711 333.091 433.997
881 0 46.0271 10.2983 474 67.7257 333.027 435.88
882 0 48.0538 11.4039 548 66.0383 332.726 434.104
883 0 53.0323 12.0493 639 64.4695 332.513 433.452
884 0 54.0662 12.0593 652 63.3696 332.466 433.977
885 0 55.106 12.231 674 65.2255 332.399 430.702
886 0 55.1278 12.0992 667 65.7691 332.375 431.559
887 0 57.0463 11.4644 654 66.2446 332.549 432.087
888 0 60.0345 11.2935 678 65.9956 332.913 427.912
889 0 60.108 11.0302 663 66.9035 332.472 427.715
890 0 64.1077 12.0422 772 64.8148 332.975 428.032
891 0 66.0984 13.0109 860 63.7221 332.791 425.843
892 0 69.0617 12.4671 861 63.3635 333.452 427.433
893 0 70.067 12.431 871 63.6269 333.333 426.108
894 0 74.0959 12.8212 950 63.2126 333.574 421.821
895 0 77.1564 11.8202 912 64.1096 333.132 420.906
896 1 39.0132 10.7399 419 65.0573 333.489 438.453
897 0 43.0234 12.4351 535 60.8206 333.557 438.478
898 0 44.0337 11.1051 489 62.1432 333.233 439.16
899 0 44.0366 10.1734 448 63.9754 333.438 438.19
900 0 46.0569 12.984 598 60.1706 333.724 435.358
901 0 49.0314 12.2167 599 60.7563 333.214 434.881
902 0 50.0243 11.5544 578 61.3114 333.538 433.974
903 0 50.0999 10.3194 517 63.2379 333.76 433.799
904 0 49.0426 9.54272 468 65.2949 333.959 433.034
905 0 53.0669 12.2298 649 61.1495 333.633 431.549
906 0 54.032 11.5117 622 62.6833 333.695 428.99
907 0 57.0622 11.1107 634 62.7981 333.404 430.189
908 0 60.069 12.1527 730 60.5575 333.153 432.681
909 0 64.1016 10.6706 684 61.5643 332.955 430.883
910 0 63.0544 10.0231 632 63.2595 333.033 429.332
911 0 66.1704 10.9263 723 62.2835 333.734 428.27
912 0 70.0349 11.2801 790 61.1975 333.735 426.299
913 1 35.0524 11.4686 402 59.8085 333.756 442.336
914 0 38.0332 10.3594 394 60.2538 333.548 441.096
915 0 39.0309 11.3756 444 59.0518 333.59 440.77
916 0 37.0587 10.8477 402 60.9254 333.376 439.144
917 0 41.0341 12.5018 513 58.2729 333.468 436.688
918 0 43.1411 13.1661 568 56.6813 335.299 436.826
919 0 42.0514 10.9628 461 60.8785 334.349 436.037
920 0 45.0455 10.5449 475 61.3642 333.253 435.352
921 0 46.0527 11.2263 517 61.6886 333.828 433.151
922 0 49.038 13.4182 658 58.3419 333.163 433.942
923 0 50.0372 12.4707 624 59.5785 334.696 435.332
924 0 51.0377 11.8932 607 60.4399 334.568 433.756
925 0 51.0498 10.9501 559 62.2809 333.916 434.27
926 0 57.0442 13.5859 775 57.8594 333.703 432.622
927 0 55.0371 12.8641 708 60.3079 332.914 431.753
928 0 57.0404 13.1486 750 60.0267 333.007 429.9
929 0 59.0222 12.6054 744 60.418 333.032 430.405
930 0 62.1164 13.1366 816 59.3088 332.616 429.161
931 0 62.0397 11.5088 714 61.895 332.594 429.189
932 0 66.1049 11.3002 747 61.7122 332.972 428.948
933 0 64.0827 10.3772 665 64.2045 332.621 425.338
934 0 72.0877 12.1103 873 60.646 333.082 426.293
935 0 72.0724 11.7104 844 62.0355 332.682 424.483
936 0 76.0437 12.6112 959 60.7664 333.114 424.15
937 1 39.0803 10.2353 400 62.435 333.382 439.275
938 0 40.061 10.9333 438 61.5342 333.336 437.571
939 0 43.0353 13.0126 560 58.0696 333.477 437.577
940 0 44.0835 12.2495 540 59.2537 333.117 437.063
941 0 45.0503 11.587 522 60.2529 332.944 436.119
942 0 47.1341 11.7749 555 60.9369 333.396 433.712
943 0 49.041 12.459 611 58.9313 333.103 435.682
944 0 51.04 11.873 606 59.4241 332.86 435.248
945 0 52.0426 11.7019 609 61.0443 332.603 431.278
946 0 53.0359 12.105 642 60.4564 332.607 429.226
947 0 56.0331 11.5289 646 60.9489 332.19 430.577
948 0 57.1371 11.2886 645 61.1411 332.639 431.846
949 0 58.0934 12.411 721 61.0416 332.545 429.527
950 0 61.0596 12.6761 774 59.5711 332.979 432.5
951 0 62.0656 13.0185 808 59.8131 333.318 429.171
952 0 64.0285 12.6975 813 60.1021 332.449 429.355
953 0 70.0595 13.7455 963 57.9907 332.647 429.237
954 0 68.1697 13.1143 894 58.8591 332.48 432.169
955 0 70.1556 12.3297 865 60.8104 333.092 427.815
956 0 72.0918 12.9696 935 60.2941 332.082 426.691
957 0 74.0477 11.8167 875 61.8754 332.391 423.818
