time division length width area intensity CMx CMy
0 0 84.1571 13.3203 1121 83.1338 262.035 484.382
1 1 43.0224 11.4591 493 84.8682 262.158 506.03
2 0 43.0468 13.1253 565 83.0549 262.195 504.398
3 0 44.1034 11.9945 529 85.3422 261.66 505.155
4 0 47.0161 12.4 583 83.3499 261.285 505.446
5 0 50.0485 12.7476 638 82.2492 261.028 502.824
6 0 50.1126 12.3123 617 83.2512 260.46 503.571
7 0 52.107 12.8773 671 81.9925 260.44 501.246
8 0 56.0396 14.811 830 50.7831 261.336 501.805
9 0 55.0573 13.3134 733 80.8431 260.794 499.804
10 0 56.0609 11.8978 667 83.3328 260.76 499.391
11 0 58.075 12.8627 747 81.4003 260.1 500.087
12 0 62.0805 12.7254 790 80.8114 260.267 497.184
13 0 61.1144 12.6484 773 81.5019 260.092 497.622
14 0 65.0744 15.367 1000 75.966 260.059 496.321
15 0 65.0338 13.0855 851 80.396 259.383 496.34
16 0 68.0642 12.8996 878 79.5194 259.869 495.935
17 0 71.1107 14.4563 1028 76.3677 260.017 493.747
18 0 72.2138 12.7676 922 80.1876 260.127 491.401
19 0 75.1093 14.3125 1075 76.9274 260.127 491.094
20 0 77.078 13.4669 1038 78.0857 259.516 489.96
21 0 80.1827 12.3842 993 79.5458 259.821 490.237
22 0 81.0603 13.2617 1075 78.7088 258.908 486.667
23 0 83.1075 12.0567 1002 81.007 259.09 485.369
24 1 44.0519 10.079 444 79.482 259.358 507.387
25 0 47.0152 12.3364 580 77.4466 259.729 503.897
26 0 48.0764 12.5009 601 76.8752 260.113 505.358
27 0 49.0512 11.8448 581 77.8709 259.291 505.57
28 0 51.0749 11.8845 607 78.0923 259.262 504.163
29 0 53.0307 12.0308 638 78.0878 259.395 504.144
30 0 54.0527 13.1168 709 76.8533 259.652 504.302
31 0 53.0734 12.7936 679 78.7231 259.43 503.738
32 0 54.0623 11.6902 632 80.5443 259.377 503.283
33 0 58.117 14.0062 814 76.629 259.004 502.155
34 0 60.0267 13.3441 801 77.5056 259.039 502.801
35 0 61.0584 12.4635 761 79.5808 259.075 500.736
36 0 63.0364 13.8491 873 77.2474 258.662 500.07
37 0 62.0869 11.7094 727 81.2407 258.858 500.243
38 0 66.0536 12.8835 851 79.6651 258.723 497.078
39 0 68.0227 12.8192 872 80.8108 258.357 494.83
40 0 71.0492 13.2021 938 79.0704 258.223 496.543
41 0 73.1143 13.3626 977 79.1372 258.273 495.096
42 0 75.0822 12.8393 964 80.2956 258.858 492.912
43 0 77.0437 13.0316 1004 80.6355 258.768 492.697
44 0 79.0926 13.4273 1062 79.8136 258.997 492.494
45 0 80.1412 12.7775 1024 82.0732 258.919 490.877
46 0 82.1049 12.8738 1057 82.3254 258.789 489.322
47 1 43.0199 12.5059 538 78.3829 259.314 509.708
48 0 45.0409 11.8781 535 78.8991 259.026 509.856
49 0 44.1174 10.7214 473 82.74 258.856 508.531
50 0 46.0655 11.8527 546 80.6886 258.441 507.811
51 0 48.0348 11.7831 566 79.7014 258.461 508.47
52 0 49.0294 11.4625 562 81.6032 258.541 506.06
53 0 49.0533 10.3969 510 82.1039 259.159 508.359
54 0 51.1007 11.5067 588 81.8895 258.529 505.837
55 0 50.0133 12.6167 631 80.4279 258.878 506.29
56 0 51.0506 11.6355 594 82.2643 258.896 504.264
57 0 53.0225 11.844 628 81.1672 258.408 505.081
58 0 56.0717 12.4305 697 80.2123 258.967 502.631
59 0 56.0142 12.6932 711 81.0084 258.965 501.018
60 0 60.1635 12.5325 754 79.3979 259.028 503.106
61 0 59.0817 12.1188 716 81.5726 259.207 500.644
62 0 61.1336 13.2824 812 78.9212 259.323 500.268
63 0 63.0258 11.773 742 81.8491 259.318 500.507
64 0 64.0534 11.506 737 82.6323 259.536 500.247
65 0 65.067 13.4323 874 80.3879 259.114 496.756
66 0 68.0532 12.0788 822 82.0146 258.914 497.9
67 0 68.0698 11.2091 763 83.8663 258.664 498.27
68 0 72.0501 13.0187 938 81.1535 258.553 496.564
69 0 74.0644 13.2722 983 81.5127 258.517 495.172
70 1 37.0212 11.4799 425 80.1788 258.172 514.052
71 0 37.0211 10.8587 402 83.1045 258.59 513.251
72 0 39.0234 10.9165 426 82.1761 258.113 513.688
73 0 42.0661 12.1951 513 80.4347 258.61 511.565
74 0 41.0516 11.3028 464 83.3621 258.547 511.7
75 0 42.0186 11.7091 492 82.9634 258.622 511.835
76 0 43.0339 11.4096 491 83.8737 258.505 510.697
77 0 44.0131 11.7011 515 82.9631 257.975 511.468
78 0 44.0398 11.694 515 83.9631 258.138 510.957
79 0 47.0363 13.0112 612 81.6977 258.069 507.735
80 0 48.0357 13.3651 642 80.6558 258.774 508.85
81 0 48.0357 13.4275 645 142.812 259.781 508.919
82 0 50.0581 11.6265 582 84.1271 258.399 507.366
83 0 52.0359 12.4722 649 82.6564 258.217 506.581
84 0 53.0854 12.9037 685 81.4058 258.972 505.834
85 0 54.02 12.0696 652 83.2776 258.77 505.423
86 0 56.0574 12.4337 697 82.6772 258.605 504.73
87 0 56.0941 11.2133 629 84.5596 258.774 506.211
88 0 57.0386 11.8867 678 83.8909 258.426 503.608
89 0 59.0991 11.8276 699 85.0315 258.506 501.28
90 0 60.0357 10.9435 657 86.9939 257.881 500.111
91 0 65.136 12.9268 842 81.7458 257.72 500.195
92 0 65.0469 12.1297 789 83.7212 257.834 498.977
93 1 31.0384 9.5688 297 85.101 257.774 516.168
94 0 32.1575 9.57785 308 85.9156 258.302 515.805
95 0 33.0071 11.0582 365 84.5781 258.54 513.211
96 0 35.0126 9.73936 341 85.956 258.328 513.141
97 0 38.0139 10.5225 400 83.6975 258.775 511.565
98 0 38.013 11.3645 432 82.4977 258.644 511.648
99 0 39.0901 10.9746 429 82.4662 258.851 511.963
100 0 40.052 11.2604 451 81.8004 258.215 511.284
101 0 43.059 11.3333 488 80.6967 258.422 510.904
102 0 43.0689 11.2843 486 81.8951 258.475 509.313
103 0 43.031 11.0385 475 82.8716 258.695 508.882
104 0 46.1128 11.4502 528 81.2386 259.121 508.403
105 0 46.0227 11.0163 507 83.5168 258.061 506.704
106 0 48.0945 12.1012 582 81.8127 258.179 506.863
107 0 50.0699 12.0631 604 81.0215 258.278 507.747
108 0 50.0443 11.6497 583 83.1201 258.425 506.52
109 0 51.0481 11.2443 574 84.4408 258.925 505.627
110 0 53.0743 10.9092 579 84.6062 259.071 505.104
111 0 54.029 12.1046 654 82.1713 258.835 505.304
112 0 56.0446 12.0618 676 82.6036 258.615 504.043
113 0 58.0561 11.8851 690 82.8159 258.616 503.323
114 0 59.0604 11.6322 687 83.9563 258.429 502.964
115 0 62.0339 13.5571 841 79.6552 258.759 501.24
116 0 63.0725 11.6533 735 83.8531 258.748 499.714
117 0 63.0726 11.8593 748 84.1203 259.067 498.964
118 0 66.0439 12.098 799 83.7409 259.292 498.939
119 0 70.0462 12.2062 855 83.4982 259.267 496.112
120 0 71.1121 12.8108 911 82.9912 259.477 496.692
121 0 74.0421 13.4113 993 81.9265 258.968 494.894
122 0 75.019 13.05 979 82.6456 258.461 493.736
123 1 39.0153 11.3289 442 85.9977 258.566 511.002
124 0 42.0356 11.8471 498 83.2369 258.683 511.39
125 0 42.0309 10.4209 438 88.1096 258.783 510.801
126 0 43.066 11.1457 480 87.1875 258.554 510.485
127 0 45.0641 11.5835 522 86.6092 258.87 508.793
128 0 46.0174 11.8216 544 86.2298 258.504 508.338
129 0 46.0254 12.4279 572 86.1416 258.892 507.241
130 0 50.0586 14.0435 703 80.3144 259.265 507.445
131 0 50.0243 11.5544 578 86.282 259.073 506.874
132 0 51.1028 12.5433 641 85.0468 259.48 505.594
133 0 53.0114 12.884 683 84.0615 260.209 503.079
134 0 54.0473 12.4706 674 85.5312 259.49 503.184
135 0 54.054 11.914 644 87.1071 259.575 503.236
136 0 57.0388 12.4301 709 84.7461 259.14 503.145
137 0 58.0579 12.1258 704 85.8068 259.236 502.281
138 0 59.0288 12.045 711 86.5752 259.461 499.325
139 0 63.0642 13.0343 822 82.438 259.478 500.809
140 0 63.0414 12.7535 804 84.6828 259.545 497.893
141 0 67.0754 12.8214 860 82.7535 259.593 498.686
142 0 68.0536 12.8134 872 83.195 259.721 497.31
143 0 70.2271 12.7728 897 83.2598 259.349 497.013
144 1 35.0816 10.0337 352 86.5312 259.094 513.642
145 0 37.0486 11.6873 433 82.3995 259.21 512.956
146 0 37.0677 12.113 449 81.0022 258.717 513.174
147 0 38.0513 10.6698 406 84.5567 258.318 511.631
148 0 40.0311 11.2912 452 81.9226 258.48 511.825
149 0 42.0249 11.7073 492 80.376 258.114 511.467
150 0 43.0421 13.1731 567 77.4092 258.642 511.18
151 0 44.0331 12.4452 548 79.6588 259.385 509.578
152 0 44.0233 12.8796 567 80.0476 259.226 508.376
153 0 46.0152 12.6263 581 80.58 258.637 506.504
154 0 47.0623 13.174 620 79.5097 258.769 505.911
155 0 51.0427 13.1851 673 77.7058 259.316 506.232
156 0 50.0194 12.1953 610 80.9852 259.525 506.408
157 0 50.0195 12.3552 618 82.0761 259.172 503.977
158 0 52.0343 12.2611 638 81.2367 259.45 505.774
159 0 54.0428 12.2681 663 81.2504 259.851 504.573
160 0 55.024 12.4855 687 80.6565 259.233 503.413
161 0 55.0495 12.08 665 81.9398 259.129 502.459
162 0 57.0633 12.933 738 80.1951 259.542 502.236
163 0 60.1009 12.895 775 79.8826 260.83 501.368
164 0 61.0485 13.5466 827 78.3906 260.177 501.827
165 0 63.086 11.9995 757 81.2629 260.123 499.964
166 0 65.0208 13.365 869 78.5339 259.646 499.488
167 0 65.0789 13.184 858 79.4009 259.597 498.162
168 0 69.0957 13.0978 905 78.7735 259.452 497.282
169 0 69.088 12.3176 851 80.4806 260.122 496.001
170 0 71.1295 12.6811 902 79.3237 259.333 496.305
171 0 75.0631 11.6835 877 80.2839 259.208 495.912
172 0 78.0699 14.7048 1148 75.0505 259.555 493.274
173 1 38.0303 10.6494 405 80.7383 259.383 510.519
174 0 40.0956 11.0236 442 78.9548 259.781 511.133
175 0 43.0491 12.4277 535 75.514 260.221 509.884
176 0 43.0214 12.7146 547 74.8336 259.808 510.082
177 0 44.1228 11.1734 493 78.1156 260.201 508.008
178 0 46.0469 12.3352 568 75.2641 259.607 507.079
179 0 48.0426 13.488 648 72.7006 258.776 506.924
180 0 48.0178 13.0785 628 74.121 258.877 506.379
181 0 51.0275 12.3463 630 74.6984 258.324 505.763
182 0 50.0438 13.4482 673 73.8692 258.93 504.697
183 0 52.0984 12.0157 626 75.3946 259.097 504.334
184 0 54.0456 13.5441 732 72.7213 259.336 503.143
185 0 57.0271 13.1692 751 72.6658 258.877 502.317
186 0 58.1179 12.9048 750 72.8307 259.32 500.468
187 0 59.1245 13.1079 775 73.1716 259.034 499.665
188 0 59.1155 11.5537 683 75.1245 259.704 500.256
189 0 62.0413 11.4924 713 74.6339 259.432 498.401
190 0 65.067 11.9415 777 72.8224 259.273 498.147
191 0 65.067 12.003 781 134.9 259.283 498.019
192 0 66.0905 12.4224 821 73.4616 259.491 494.96
193 0 69.0493 12.368 854 72.9602 259.292 493.952
194 0 71.0621 11.0185 783 75.2452 259.539 492.679
195 0 74.1112 11.6582 864 73.713 259.542 493.62
196 0 76.0996 11.6558 887 73.8929 259.972 489.476
197 0 79.2165 11.4875 910 73.9209 259.768 489.948
198 0 81.0674 12.064 978 73.1227 259.827 489.104
199 0 82.0744 12.1719 999 73.4905 259.885 488.565
200 0 88.0637 12.3206 1085 71.9751 259.155 488.985
201 0 88.2292 11.7535 1037 73.7647 259.14 486.561
202 1 45.0747 11.2702 508 74.1457 259.533 506.781
203 0 46.068 12.6552 583 71.4117 259.755 507.089
204 0 48.0609 12.172 585 73.2462 259.46 503.333
205 0 47.0231 11.0584 520 75.4365 259.15 504.958
206 0 50.07 11.5638 579 74.3748 259.63 503.549
207 0 51.1351 13.0439 667 70.7631 259.4 503.523
208 0 52.1273 13.4287 700 70.7443 259.514 502.256
209 0 53.0857 11.6604 619 73.5493 259.318 503.59
210 0 55.1007 10.8891 600 74.2417 258.972 503.68
211 0 58.0672 13.4844 783 69.802 259.415 501.512
212 0 54.0403 11.1028 600 75.81 259.515 500.387
213 0 58.0223 10.6166 616 75.7516 259.343 498.532
214 0 62.028 12.1397 753 72.2497 259.108 499.952
215 0 63.1454 14.4587 913 69.3658 259.333 497.642
216 0 65.127 11.9459 778 73.2532 259.454 496.287
217 0 65.0392 12.5924 819 72.9805 259.443 493.965
218 0 68.0272 13.7592 936 70.6186 259.435 494.8
219 0 69.0839 12.4342 859 72.8498 258.995 495.513
220 0 73.0664 12.8513 939 71.8466 259.018 493.035
221 0 76.1665 13.4836 1027 70.7001 259.103 490.193
222 0 77.1053 13.073 1008 71.1488 259.043 491.142
223 0 79.0313 11.7295 927 73.2438 259.329 489.831
224 0 83.0762 12.627 1049 71.6606 258.913 485.334
225 1 42.1318 11.7726 496 72.9597 258.288 506.935
226 0 44.0961 10.4998 463 76.0022 258.348 505.758
227 0 45.01 11.3975 513 73.8889 258.351 506.345
228 0 45.0365 11.4574 516 74.9535 258.787 506.014
229 0 48.0556 12.3815 595 73.1765 258.808 503.961
230 0 48.0407 12.9682 623 73.3258 258.032 503.647
231 0 49.0871 11.5509 567 75.8342 258.677 503.062
232 0 52.0323 12.1079 630 74.4048 257.23 503.351
233 0 54.0309 12.4929 675 73.8519 258.416 500.644
234 0 53.0561 11.3842 604 77.2483 258.187 499.692
235 0 57.0181 13.5571 773 72.2238 258.116 501.056
236 0 59.0186 12.4029 732 74.0232 258.347 500.634
237 0 60.0415 13.4907 810 72.9593 257.983 496.527
238 0 63.0593 13.1146 827 73.3821 258.207 496.891
239 0 64.0927 12.2479 785 74.986 258.469 496.411
240 0 66.1207 13.2334 875 73.2503 258.856 496.642
241 0 71.1274 15.0013 1067 69.7526 258.775 493.473
242 0 71.0882 13.0823 930 73.8774 258.876 493.658
243 0 75.0468 13.9113 1044 71.954 259.123 493.125
244 0 76.0379 13.3881 1018 74.1631 258.365 490.012
245 0 78.0295 12.9566 1011 74.6142 257.977 488.663
246 0 80.0909 13.2225 1059 74.6534 258.355 486.301
247 1 40.0182 10.4203 417 76.0815 258.597 510.52
248 0 39.0147 10.8164 422 78.0829 258.024 506.275
249 0 45.0167 11.7512 529 74.3006 258.548 505.529
250 0 44.0597 11.5525 509 75.2102 258.075 506.815
251 0 48.123 11.7408 565 74.8885 258.255 505.312
252 0 48.0365 12.4905 600 74.5883 258.415 504.688
253 0 49.0606 12.5559 616 74.3117 258.164 505.089
254 0 49.0196 11.9952 588 76.318 258.486 503.255
255 0 52.035 11.7037 609 76.5534 258.123 503.412
256 0 51.0228 12.759 651 76.0307 257.318 501.413
257 0 56.0869 12.8016 718 74.1574 257.496 502.618
258 0 56.0443 12.9183 724 74.511 257.779 502.051
259 0 58.0276 13.304 772 73.8187 258.069 501.113
260 0 58.0213 13.8225 802 73.6534 258.357 501.389
261 0 61.0439 12.9907 793 74.9206 258.346 499.617
262 0 61.1307 12.5633 768 76.7201 258.422 495.918
263 0 65.2125 13.433 876 73.9349 258.017 497.583
264 0 66.0408 12.8103 846 76.3475 257.827 495.07
265 0 67.0523 12.3635 829 76.421 258.171 496.627
266 0 69.0612 12.4093 857 77.0922 257.94 494.475
267 0 73.0382 12.3497 902 76.9479 258.766 492.738
268 0 74.0641 12.7187 942 76.7898 258.238 491.795
269 0 76.1135 12.2186 930 78.1097 258.133 489.446
270 1 41.019 10.1416 416 78.2404 258.976 508.147
271 0 43.0351 9.87565 425 78.7153 258.974 507.581
272 0 45.021 11.1281 501 76.2774 258.689 506.99
273 0 45.0318 11.5252 519 76.6802 258.329 505.954
274 0 46.0177 11.2783 519 76.8189 257.744 506.337
275 0 48.0496 11.8003 567 76.3298 258.071 504.593
276 0 47.0116 10.8484 510 79.1608 258.657 503.743
277 0 50.0579 11.8063 591 76.956 258.521 502.65
278 0 51.0691 11.553 590 77.7729 258.285 502.392
279 0 53.0234 10.9952 583 77.2607 257.877 504.189
280 0 52.0548 11.315 589 78.4567 258.919 500.598
281 0 56.0604 13.0574 732 74.9221 259.191 500.025
282 0 58.0226 12.34 716 75.3799 259.096 499.728
283 0 59.0839 11.0859 655 78.0122 258.632 498.363
284 0 60.1147 12.2433 736 76.8397 258.836 499.799
285 0 63.0444 11.4998 725 77.0924 258.468 498.52
286 0 63.1577 12.0492 761 76.887 258.89 497.051
287 0 65.0397 12.3617 804 75.9838 258.802 497.356
288 0 70.1203 12.7495 894 74.6521 258.287 495.798
289 0 70.0206 10.6826 748 78.2527 258.215 495.644
290 0 72.1158 12.5493 905 75.7403 257.891 493.254
291 0 74.0435 12.3306 913 76.0033 258.657 492.908
292 0 76.0831 12.1709 926 76.9006 258.457 489.104
293 0 80.0635 12.5525 1005 75.5194 258.606 489.896
294 0 82.1102 12.5076 1027 75.0633 257.99 491.322
295 1 39.011 9.04872 353 77.779 257.348 510.703
296 0 42.0287 9.32697 392 76.4796 257.579 511.161
297 0 41.0162 10.2886 422 78.0948 258.201 507.72
298 0 44.0406 9.69561 427 77.9859 258.564 509.115
299 0 42.0571 10.1053 425 78.9671 258.96 507.614
300 0 49.0231 10.9336 536 74.5466 258.763 507.927
301 0 48.0311 11.0137 529 75.8733 259.081 506.376
302 0 49.0208 10.0366 492 78.3293 258.303 505.514
303 0 50.0584 10.3879 520 77.8154 258.335 503.687
304 0 50.0723 10.385 520 78.1885 257.956 503.583
305 0 53.1496 10.6304 565 76.9115 257.926 503.513
306 0 52.0493 10.8743 566 78.1484 257.94 500.724
307 0 55.1021 10.8889 600 76.8817 257.795 500.755
308 0 58.0325 11.1662 648 75.9105 258.767 500.032
309 0 59.095 11.2192 663 75.5309 258.557 498.685
310 0 61.0618 12.0697 737 74.0502 258.145 497.193
311 0 63.0756 9.89289 624 77.3365 257.938 497.676
312 0 64.1272 11.9918 769 74.2861 258.173 496.316
313 0 63.0856 9.33653 589 79.1256 257.82 495.822
314 0 68.0726 10.9589 746 74.9102 257.614 495.709
315 0 70.0844 11.1437 781 74.6389 257.553 492.236
316 1 38.0159 9.36449 356 75.4719 257.225 507.876
317 0 38.0686 10.2447 390 74.2897 257.208 506.074
318 0 41.0053 10.0719 413 73.1671 256.806 506.421
319 0 38.0759 8.92954 340 76.2882 257.188 506.279
320 0 41.0456 10.6954 439 73.2118 258.134 505.934
321 0 44.047 10.1256 446 73.5381 258.307 503.886
322 0 44.0476 11.4195 503 71.8767 257.964 502.374
323 0 46.1157 10.8423 500 72.392 257.636 503.678
324 0 45.0704 11.3378 511 72.8669 258.247 501.225
325 0 48.0631 10.0077 481 74.6258 257.62 500.842
326 0 48.0943 11.7893 567 72.6984 257.806 501.22
327 0 51.0994 10.6655 545 74.2771 257.484 499.633
328 0 51.2597 11.0808 568 73.6989 257.972 499.831
329 0 54.1108 11.9385 646 72.6625 258.375 497.681
330 0 55.1051 10.108 557 75.6894 258.521 496.585
331 0 57.2159 12.2344 700 71.4386 258.287 495.149
332 0 59.1323 10.9585 648 73.7284 258.585 494.1
333 0 60.1904 10.6828 643 74.2846 258.585 494.129
334 0 64.2107 11.4623 736 72.0258 258.201 494.721
335 0 64.0613 12.5973 807 70.5886 258.737 493.706
336 0 66.1216 12.0082 794 71.2695 258.605 493.447
337 0 69.217 11.4278 791 72.3287 258.621 492.468
338 0 70.2815 11.6674 820 72.2037 257.75 489.196
339 0 72.3442 11.238 813 73.0935 257.745 488.881
340 0 75.1463 12.2029 917 71.4678 257.643 487.848
341 0 78.2919 12.1085 948 71.1656 257.822 486.199
342 0 81.2865 11.5517 939 71.7444 258.132 485.587
343 0 81.1781 10.7172 870 73.9046 257.754 482.752
344 1 40.0475 9.23903 370 70.4595 258.67 506.603
345 0 42.1219 8.83151 372 71.2984 257.454 506.527
346 0 42.0723 9.88773 416 70.4351 257.344 505.767
347 0 44.1273 9.72188 429 70.4779 257.65 504.981
348 0 45.0138 9.73036 438 70.2785 256.966 505.575
349 0 45.0678 9.56336 431 71.8376 257.302 503.724
350 0 49.0375 9.56412 469 70.7377 257.348 505.207
351 0 48.0644 10.5483 507 70.2032 257.227 502.795
352 0 49.0157 10.0988 495 71.3192 256.96 500.8
353 0 53.064 9.1399 485 71.6082 257.128 501.014
354 0 54.0745 10.8924 589 69.7419 257.633 501.34
355 0 54.0537 9.45356 511 73.09 258.143 499.755
356 0 59.0494 11.0247 651 69.47 258.132 498.846
357 0 60.1066 11.0637 665 70.1263 258.045 498.644
358 0 59.1247 10.4694 619 71.4992 257.787 497.985
359 0 61.0609 11.1364 680 70.5074 258.026 496.407
360 0 62.0963 9.74294 605 72.7521 257.46 495.088
361 0 66.1228 11.6904 773 68.3803 257.7 496.409
362 0 66.0859 10.6225 702 70.7863 257.812 495.048
363 0 67.1 10.5663 709 71.5049 257.946 495.501
364 0 70.1155 10.9391 767 70.8879 257.79 493.772
365 0 74.0787 10.5023 778 71.2416 257.594 493.995
366 1 38.0631 10.8504 413 67.8523 258.288 509.915
367 0 38.0258 10.0195 381 69.6982 258.15 509.42
368 0 40.102 9.4509 379 70.7678 258.491 508.704
369 0 40.0816 9.38087 376 72.5 259.181 505.277
370 0 42.1386 9.68234 408 69.9804 259.181 508.373
371 0 44.0296 10.9245 481 68.3368 259.229 505.684
372 0 46.0396 10.0566 463 70.0173 258.883 506.343
373 0 48.034 10.4093 500 68.78 258.446 506.582
374 0 49.0397 10.6444 522 69.0862 259.159 504.5
375 0 51.0781 10.8853 556 69.1673 258.599 504.248
376 0 53.0907 11.6028 616 67.5828 257.924 502.144
377 0 53.0485 11.8571 629 68.6057 257.843 499.011
378 0 55.0454 11.7903 649 68.7381 257.647 499.143
379 0 57.0664 11.3727 649 69.2758 257.998 499.305
380 0 59.161 11.156 660 69.8515 258.158 498.994
381 0 60.1398 11.6894 703 69.8364 257.592 497.444
382 0 61.0625 11.4309 698 70.1819 257.88 496.344
383 0 64.1584 11.2066 719 70.58 257.577 494.878
384 0 64.1024 10.8732 697 71.3228 257.598 493.888
385 0 67.1322 11.3656 763 69.4771 257.722 495.081
386 0 68.1479 10.5946 722 71.91 256.891 492.62
387 0 71.2339 11.9887 854 69.5375 256.856 491.63
388 1 39.0439 9.47652 370 72.3459 257.376 507.576
389 0 40.0556 10.2358 410 71.0244 257.095 508.68
390 0 41.0158 9.09405 373 73.059 257.223 505.718
391 0 40.1063 10.7714 432 72.4005 256.907 503.701
392 0 42.1283 10.7291 452 70.7987 257.301 506.389
393 0 44.1066 9.86247 435 72.5333 257.437 505.662
394 0 44.1357 11.1927 494 71.3441 257.565 503.678
395 0 47.106 11.3574 535 71.0112 257.615 501.832
396 0 47.1852 10.8509 512 73.3652 257.869 502.236
397 0 50.0418 12.4696 624 70.4471 258.454 502.417
398 0 50.1402 10.4507 524 75.0878 258.382 501.565
399 0 52.1 11.8042 615 72.9675 258.34 501.317
400 0 55.0526 12.2428 674 71.9496 258.487 500.472
401 0 56.0934 10.6251 596 74.9698 257.592 499.762
402 0 57.0291 11.9763 683 74.0322 257.754 498.331
403 0 59.0649 11.0218 651 75.2289 257.266 498.309
404 0 62.0813 12.1293 753 72.9429 257.019 496.454
405 0 62.1089 12.5908 782 73.0141 256.873 494.954
406 0 66.051 11.0218 728 75.0865 256.522 495.135
407 0 66.1123 11.299 747 74.7269 256.981 495.635
408 0 70.1942 11.1548 783 74.7688 256.516 494.188
409 0 71.148 11.8204 841 74.3401 257.014 492.272
410 0 73.1027 11.8053 863 74.2572 257.562 490.728
411 0 75.0599 11.7773 884 74.0633 257.653 489.614
412 0 79.101 12.3766 979 71.951 257.311 489.91
413 0 82.0278 12.447 1021 72.0901 257.165 487.611
414 1 40.0568 10.1356 406 75.367 257.601 505.064
415 0 42.0489 9.77433 411 73.9197 257.572 504.813
416 0 45.0469 11.3437 511 69.908 257.728 504.268
417 0 45.0275 10.2826 463 72.6998 257.857 505.019
418 0 47.0859 10.4278 491 72.5601 258.189 503.273
419 0 46.0439 10.8375 499 72.521 258.194 503.257
420 0 47.0752 11.3223 533 71.1276 258.402 500.555
421 0 51.0654 12.435 635 68.3717 258.386 500.616
422 0 52.1023 11.8037 615 69.4992 257.959 500.875
423 0 53.0342 12.3317 654 69.0642 257.859 499.526
424 0 54.0197 10.4221 563 71.4476 257.824 502.066
425 0 55.0315 10.0125 551 72.7477 257.966 500.421
426 0 57.0741 11.1609 637 71.5604 258.129 497.761
427 0 59.0153 11.1497 658 71.465 258.09 496.737
428 0 59.0193 11.9453 705 70.5433 257.743 496.787
429 0 61.0274 11.3556 693 71.9351 258.411 494.834
430 0 62.0264 11.1404 691 72.7019 258.692 495.051
431 0 65.2022 11.61 757 71.2338 258.76 495.613
432 0 67.0308 11.8453 794 71.2015 258.467 493.181
433 0 68.0929 11.5577 787 71.8818 258.652 494.973
434 0 72.1246 11.4663 827 72.1717 258.044 491.793
435 0 75.052 12.3781 929 70.5727 257.994 491.564
436 0 76.0631 11.2407 855 72.7509 257.542 490.898
437 1 38.0223 8.83691 336 73.9405 257.83 506.851
438 0 43.0179 9.60065 413 72.6852 258 506.516
439 0 45.0456 10.9445 493 71.6552 257.813 503.929
440 0 43.0382 7.89996 340 76.0441 258.015 505.538
441 0 47.1173 10.5269 496 71.9435 257.845 502.702
442 0 50.0552 10.9879 550 70.5909 258.155 502.116
443 0 53.0559 10.668 566 70.8339 257.686 501.429
444 0 50.051 11.8279 592 71.1486 257.581 498.475
445 0 55.0419 11.9364 657 69.6469 257.623 500.467
446 0 56.0286 11.2621 631 71.42 257.468 498.431
447 0 55.0234 10.8863 599 73.2538 257.653 498.543
448 0 57.0427 10.7113 611 73.1178 257.203 498.025
449 0 58.0308 10.6668 619 73.5897 257.391 496.459
450 0 62.0306 12.1069 751 71.0439 257.242 497.077
451 0 64.0434 13.1942 845 68.8201 257.796 496.531
452 0 67.136 11.4544 769 71.6281 257.295 495.005
453 0 69.0341 10.9801 758 72.3153 257.402 493.288
454 0 69.0338 12.8343 886 69.6569 257.866 492.615
455 0 71.0709 12.185 866 69.9861 257.745 491.367
456 0 74.0187 12.3753 916 69.8155 257.216 489.909
457 0 76.0266 11.9169 906 70.5265 257.954 488.554
458 1 41.0448 9.37999 385 71.9558 257.584 508.013
459 0 43.0685 10.7503 463 70.0281 257.475 508.292
460 0 42.0365 11.2283 472 70.4004 257.905 507.436
461 0 45.1572 10.8067 488 70.6701 258.164 504.848
462 0 45.0304 10.5928 477 70.9455 258.155 506.205
463 0 48.0784 10.6701 513 70.4639 258.228 505.094
464 0 50.0294 11.1335 557 70.3411 258.305 503.027
465 0 51.0373 12.6966 648 68.1775 258.088 502.647
466 0 52.0607 11.7555 612 69.7533 258.011 502.778
467 0 55.0469 11.5719 637 69.573 257.788 502.52
468 0 56.1083 11.7273 658 70.1094 257.451 500.146
469 0 55.0546 11.6975 644 70.9705 257.682 500.017
470 0 57.039 11.3256 646 71.9133 257.286 498.828
471 0 60.0967 10.5996 637 72.956 257.367 498.419
472 0 62.0711 11.7768 731 70.6553 257.376 498.859
473 0 65.1205 12.592 820 69.8963 256.676 495.568
474 0 65.0382 11.7316 763 71.4391 256.782 497.657
475 0 66.0529 11.2486 743 72.5895 256.82 496.406
476 0 70.082 11.7291 822 71.7348 257.175 494.247
477 0 70.0209 12.2963 861 71.7747 257.576 492.732
478 0 73.0641 13.276 970 70.2979 257.214 490.159
479 0 74.0431 11.1827 828 73.7657 257.18 491.457
480 0 77.0378 11.6956 901 73.3518 257.19 488.911
481 0 80.1029 12.1594 974 72.9394 256.319 487.689
482 1 42.0263 9.99374 420 72.0857 257.562 507.552
483 0 41.0296 7.89674 324 76.1512 256.929 505.62
484 0 45.0306 9.43803 425 73.0965 257.005 504.052
485 0 48.048 10.6768 513 70.3099 257.63 504.817
486 0 48.0565 10.9247 525 70.6038 258.055 503.48
487 0 51.0402 10.4819 535 70.4785 257.845 503.469
488 0 51.0872 9.72847 497 72.2918 258.151 500.811
489 0 54.0689 10.0427 543 71.0755 258.068 500.573
490 0 55.0889 9.5482 526 71.7947 258.194 499.684
491 0 57.0541 11.8133 674 68.6855 258.257 498.831
492 0 58.106 10.5841 615 69.678 258.58 499.585
493 0 61.0358 10.8297 661 69.5734 258.657 495.88
494 0 63.1236 10.5032 663 69.6425 258.469 496.357
495 0 64.067 10.052 644 70.3059 258.191 495.199
496 0 66.0963 11.0747 732 68.9071 258.1 494.224
497 0 66.0529 10.8247 715 69.249 257.997 493.397
498 0 70.1753 10.9725 770 67.8831 258.431 493.652
499 0 72.1532 10.9212 788 68.0546 258.028 491.03
500 0 73.0793 10.8102 790 67.7025 257.752 491.09
501 1 40.0448 7.31681 293 67.8669 258.017 507.171
502 0 39.0391 10.0668 393 63.8092 258.165 508.099
503 0 42.0399 9.01524 379 64.4908 258.686 507.483
504 0 44.0302 9.87959 435 63.8368 258.076 505.823
505 0 45.1016 10.0218 452 63.3628 258.031 504.635
506 0 46.0282 9.38556 432 65.6528 257.942 503.514
507 0 47.0881 10.7671 507 63.6824 257.432 502.572
508 0 51.0375 10.2474 523 63.9159 258.547 502.65
509 0 49.05 9.56168 469 66.0213 258.704 501.209
510 0 53.0888 10.8497 576 63.3368 258.568 500.099
511 0 54.0639 9.95118 538 64.6989 258.71 501.112
512 0 56.066 10.0061 561 64.6328 258.802 498.581
513 0 56.016 8.99743 504 66.7956 258.234 497.71
514 0 60.0467 11.4911 690 62.6739 258.509 498.467
515 0 58.1854 9.74472 567 66.6966 257.974 495.164
516 0 61.0825 10.625 649 66.1495 258.174 496.106
517 0 64.0758 11.2679 722 65.3892 257.978 494.708
518 0 71.2749 14.2126 1013 54.7887 257.115 495.344
519 0 68.17 11.0459 753 66.0664 258.211 492.329
520 0 71.1264 10.6149 755 66.7523 258.012 490.515
521 0 72.1453 10.4234 752 67.2261 257.935 487.39
522 0 74.1358 10.6696 791 66.6448 257.45 489.618
523 0 76.0625 10.9252 831 66.3887 257.442 489.19
524 0 79.1698 11.1154 880 65.8182 257.256 486.507
525 0 80.1837 10.5258 844 66.8069 257.181 486.966
526 0 88.1071 11.1569 983 64.5717 256.261 483.235
527 1 44.0716 9.80223 432 65.2963 257.479 504.782
528 0 46.0758 8.74646 403 66.7146 257.561 504.938
529 0 46.0657 9.76866 450 66.7778 257.289 502.838
530 0 48.0958 9.46028 455 66.7846 257.923 501.873
531 0 49.0681 9.70081 476 67.4643 258.204 499.586
532 0 51.0175 9.54575 487 67.8378 256.998 500.69
533 0 54.0144 10.886 588 66.2874 257.9 497.544
534 0 55.0149 11.4878 632 65.5886 257.331 497.309
535 0 57.0366 10.4319 595 67.3445 257.482 495.151
536 0 59.0168 9.37021 553 68.6329 257.667 496.313
537 0 60.0919 10.667 641 66.0858 257.721 496.062
538 0 63.0601 11.0529 697 65.0287 257.4 496.479
539 0 65.0817 9.6955 631 67.2409 257.591 494.022
540 0 68.0869 9.64943 657 67.2633 257.744 491.927
541 0 68.1117 10.5121 716 66.4525 257.728 490.271
542 0 71.0693 10.0325 713 66.3548 257.383 491.422
543 0 73.1618 10.3059 754 66.6459 257.66 488.186
544 0 73.2042 9.90381 725 67.6786 257.752 485.334
545 0 77.2708 10.3273 798 66.1491 257.944 485.053
546 0 81.1839 10.544 856 65.7465 257.798 482.389
547 0 82.1649 10.3329 849 66.1154 257.711 483.568
548 0 85.3049 11.2303 958 64.4541 258.031 483.437
549 0 88.1641 10.3103 909 66.055 257.548 480.003
550 1 44.06 8.91965 393 65.2188 257.656 502.038
551 0 46.0852 9.22204 425 64.1435 257.108 503.951
552 0 47.0845 9.87586 465 64.6344 257.376 501.301
553 0 48.0896 10.1061 486 65.7675 257.634 498.864
554 0 51.0662 10.2808 525 65.2819 258.278 501.219
555 0 54.0849 10.7239 580 64.2466 257.662 499.795
556 0 51.0494 9.06964 463 68.2592 257.378 499.14
557 0 54.1015 10.203 552 67.0344 257.489 493.591
558 0 56.0604 9.68598 543 67.954 257.729 496.155
559 0 60.1014 11.2144 674 64.9585 257.639 495.843
560 0 58.1137 10.5827 615 67.0114 258.111 494.907
561 0 58.0802 9.55576 555 69.4847 258.2 494.171
562 0 64.1305 11.6481 747 65.0201 258.095 495.086
563 0 64.12 12.1959 782 65.11 257.592 493.835
564 0 67.0895 11.7008 785 65.6777 257.411 492.664
565 0 67.0647 10.8701 729 67.8176 257.951 491.695
566 0 71.1081 10.3223 734 68.3392 257.218 492.936
567 0 72.0706 11.6969 843 67.7117 257.41 491.514
568 0 73.1151 11.434 836 69.0359 257.288 486.805
569 0 76.1081 10.5508 803 70.0262 257.115 487.35
570 1 39.0323 10.8116 422 68.7962 256.377 504.645
571 0 38.0526 8.48825 323 74.0217 256.337 503.814
572 0 40.0369 9.64111 386 71.1399 255.891 503.176
573 0 41.1478 9.86687 406 72.2266 255.591 502.456
574 0 44.0718 10.4602 461 70.7527 256.15 502.249
575 0 46.0707 10.5707 487 70.499 256.269 503.752
576 0 48.107 11.3705 547 68.9342 255.514 501.673
577 0 49.1086 11.2607 553 69.8264 256.197 501.553
578 0 51.106 11.212 573 69.8691 256.668 501.328
579 0 53.0311 13.5392 718 67.1114 257.274 499.621
580 0 52.0434 11.3751 592 71.7922 256.927 499.647
581 0 55.1274 12.462 687 70.1281 256.282 498.054
582 0 56.0628 11.826 663 70.4103 256.84 499.62
583 0 57.0522 11.8663 677 72.1433 256.634 496.199
584 0 60.0715 11.2866 678 73.0487 256.676 496.668
585 0 59.1156 11.7397 694 73.5115 257.092 495.048
586 0 60.0301 11.7274 704 74.2585 256.972 493.344
587 0 63.0326 12.5649 792 72.7588 256.525 493.883
588 0 65.1116 12.0101 782 73.954 257.092 493.643
589 0 67.0381 13.7086 919 71.2318 256.761 491.672
590 0 68.0525 11.932 812 74.6897 256.873 491.246
591 0 71.0606 12.3275 876 73.3288 256.934 491.735
592 0 71.0895 11.4504 814 75.8759 257.049 486.572
593 0 71.0338 11.755 835 75.9461 256.57 489.125
594 0 75.0781 11.7211 880 75.3398 256.697 488.051
595 0 77.1153 12.0988 933 74.2454 257.043 485.697
596 1 42.0784 9.64866 406 75.2217 256.766 505.044
597 0 43.0293 11.2714 485 72.6639 256.761 505.843
598 0 43.0421 10.0832 434 76.9908 256.885 503.668
599 0 45.0382 11.2127 505 75.5327 256.947 503.046
600 0 47.0362 10.9915 517 75.2708 256.994 502.845
601 0 47.0744 12.1722 573 72.6841 257.164 502.154
602 0 51.0532 11.6937 597 73.6265 256.605 499.171
603 0 52.0553 11.9488 622 73.0193 256.794 499.28
604 0 52.065 11.1015 578 75.3356 257 497.623
605 0 54.0617 10.858 587 75.4037 256.853 497.267
606 0 54.0938 11.6095 628 74.8694 257.022 497.889
607 0 57.0394 10.747 613 75.9282 257.364 495.884
608 0 59.1183 12.4665 737 72.6852 256.598 493.867
609 0 60.2233 11.8891 716 72.8478 256.147 495.732
610 0 62.1321 11.3629 706 74.0127 256.567 493.581
611 0 64.0978 10.2812 659 75.7147 256.912 493.373
612 0 66.1136 11.4046 754 74.244 256.025 490.298
613 0 68.0419 11.4929 782 73.8568 256.509 490.647
614 0 69.0404 12.0075 829 72.2256 256.121 491.852
615 0 72.0849 11.1258 802 73.8965 256.211 489.283
616 0 76.0773 10.3579 788 74.2157 255.963 490.239
617 0 76.0537 10.7556 818 74.4841 256.166 488.468
618 1 41.0335 9.35821 384 75.5 256.31 505.216
619 0 43.0598 10.5899 456 73.1711 256.169 504.936
620 0 42.1429 10.8915 459 73.268 256.314 505.028
621 0 44.0212 10.6085 467 73.182 256.338 503.34
622 0 46.1217 12.7489 588 69.2721 256.425 504.233
623 0 47.0234 10.9307 514 72.0895 256.928 503.934
624 0 49.0401 11.4396 561 71.2709 257.064 501.749
625 0 51.096 10.8619 555 72.1838 257.105 500.986
626 0 52.0877 11.5958 604 71.4702 256.907 498.805
627 0 52.1293 11.318 590 71.9305 256.386 499.008
628 0 57.088 11.5085 657 70.5906 256.574 499.845
629 0 55.0555 11.225 618 72.2201 256.974 497.06
630 0 59.093 12.2688 725 70.1255 256.785 495.881
631 0 62.1729 12.1435 755 69.6146 256.644 496.167
632 0 62.051 12.7637 792 69.0972 256.641 495.215
633 0 65.0823 11.447 745 70.694 256.748 497.36
634 0 66.0633 11.4284 755 71.0066 256.245 494.216
635 0 67.0458 11.7532 788 70.0825 256.641 494.572
636 0 69.0978 12.3303 852 69.7512 256.604 489.964
637 0 73.0486 11.9099 870 69.6897 256.608 489.128
638 0 73.1743 11.7254 858 69.5932 256.218 490.386
639 0 76.1183 11.4296 870 70.3402 256.352 489.26
640 0 78.1111 10.1906 796 71.9736 256.349 488.861
641 0 82.0692 10.15 833 71.7227 256.724 484.794
642 1 41.0756 9.93289 408 70.299 256.23 503.348
643 0 42.0501 8.44232 355 71.0197 255.907 505.256
644 0 43.0343 9.29491 400 70.595 255.99 503.915
645 0 45.0376 9.01469 406 71.4778 255.756 502.325
646 0 46.0787 9.98291 460 68.4435 256.243 504.42
647 0 49.1779 11.4279 562 66.9057 256.082 501.142
648 0 51.0961 9.88333 505 67.7465 256.438 504.186
649 0 52.069 10.8126 563 68.0693 256.435 500.796
650 0 55.0575 10.5526 581 68.9604 256.303 498.516
651 0 56.2245 10.5114 591 68.7817 256.75 497.535
652 0 56.0964 8.98454 504 71.2361 256.984 499.778
653 0 58.2386 11.8135 688 68.0698 257.028 496.958
654 0 59.0693 10.6485 629 70.1622 257.542 494.981
655 0 60.1015 10.6986 643 70.4215 257.37 495.305
656 0 63.095 9.76305 616 71.0471 257.481 495.573
657 0 66.1437 10.4016 688 70.0436 258.112 493.305
658 0 69.0933 11.5206 796 68.5226 258.397 490.378
659 0 69.1045 10.7952 746 69.9651 257.924 491.409
660 0 73.1272 10.9809 803 69.741 257.909 489.804
661 0 74.0546 12.0587 893 68.8499 257.47 487.801
662 0 76.0817 11.4219 869 69.7814 257.575 486.056
663 0 78.1548 10.6327 831 72.3586 257.51 485.414
664 0 82.1329 12.4798 1025 68.8663 256.781 485.771
665 0 83.1828 12.0217 1000 69.87 257.805 484.932
666 0 88.2758 12.6649 1118 68.8157 257.916 485.106
667 0 89.186 11.5937 1034 70.7108 257.074 480.4
668 0 91.2286 13.0003 1186 68.656 257.013 480.135
669 0 94.179 11.8604 1117 70.5192 256.894 479.324
670 0 98.2999 11.3327 1114 71.4192 256.237 475.82
671 1 55.1026 10.1992 562 71.7491 256.552 501.858
672 0 56.1853 10.9281 614 72.4023 256.534 498.088
673 0 57.1561 11.2849 645 72.8248 256.264 496.622
674 0 57.1497 10.6387 608 74.3257 256.061 497.025
675 0 60.1201 11.2275 675 73.7956 256.145 493.905
676 0 63.0952 10.6664 673 73.7548 256.872 493.941
677 0 66.0843 11.6064 767 71.9205 256.58 493.941
678 0 67.0952 12.5791 844 70.9964 256.278 490.78
679 0 69.1359 11.4268 790 72.6063 256.586 490.386
680 0 69.1075 10.3896 718 75.2284 256.435 490.231
681 0 73.0948 11.6287 850 72.5659 256.14 487.835
682 0 73.172 10.4958 768 75.4661 256.147 487.152
683 0 77.0952 10.8826 839 75.124 255.719 486.757
684 0 79.1953 12.5134 991 72.0918 255.984 484.723
685 0 81.2035 12.4871 1014 72.3471 256.296 485.661
686 0 83.1628 12.686 1055 71.9545 255.903 483.601
687 0 86.1892 12.2869 1059 72.6959 256.105 483.319
688 0 91.1186 13.5208 1232 70.2167 256.253 480.234
689 0 93.1221 12.6178 1175 71.6698 255.721 479.084
690 0 93.11 12.0288 1120 73.683 255.171 476.599
691 0 98.2236 12.0032 1179 73.0204 255.399 475.569
692 1 53.1208 11.4833 610 71.6377 254.979 498.349
693 0 55.0448 11.3362 624 71.6763 255.287 497.955
694 0 57.0567 11.953 682 70.3578 255.934 497.814
695 0 56.0987 11.6759 655 72.3176 256.276 495.402
696 0 58.0498 11.0422 641 73.6474 256.665 493.715
697 0 63.1183 12.6746 800 70.0088 256.299 492.738
698 0 64.1773 12.9641 832 69.2248 256.779 492.72
699 0 65.0565 11.882 773 72.0906 256.45 489.754
700 0 67.0392 11.456 768 72.3008 256.365 490.701
701 0 68.1436 12.1655 829 71.7684 256.942 491.005
702 0 70.0641 12.7312 892 71.2825 255.984 487.509
703 0 73.0648 12.9885 949 69.5332 255.788 489.879
704 0 75.1449 13.2677 997 69.7813 255.896 487.99
705 0 77.1821 12.8009 988 69.9271 256.238 487.217
706 0 77.0833 12.0649 930 71.9828 256.738 486.297
707 0 79.1035 11.7567 930 72.514 256.795 483.403
708 0 82.2096 12.091 994 71.6177 256.476 483.862
709 0 84.2711 12.6615 1067 71.3215 256.229 479.18
710 0 87.1792 12.4915 1089 71.55 256.438 480.936
711 1 45.1034 10.1101 456 71.2039 256.226 501.796
712 0 44.0633 11.075 488 69.7336 256.537 501.162
713 0 46.0153 9.99668 460 72.2978 256.785 498.454
714 0 49.0477 11.0097 540 69.7056 257.228 497.546
715 0 48.0651 12.3166 592 67.8497 257.571 497.4
716 0 51.1485 11.1245 569 68.5343 257.422 497.761
717 0 51.0187 11.7604 600 67.9333 257.16 497.108
718 0 53.1009 11.2992 600 68.6017 257.318 497.12
719 0 54.0677 12.0774 653 67.8254 257.317 494.957
720 0 58.1406 11.541 671 67.7541 256.964 494.699
721 0 58.0699 11.8306 687 67.7656 257.504 493.29
722 0 58.0558 11.42 663 68.7888 257.008 493.887
723 0 62.1495 11.9229 741 67.5789 257.15 491.389
724 0 64.0454 12.6941 813 65.8881 257.274 492.278
725 0 66.0495 11.885 785 67.3223 257.046 488.808
726 0 68.1295 13.1955 899 65.624 257.069 489.061
727 0 68.1342 12.6515 862 66.6067 257.23 487.76
728 0 72.0791 12.2782 885 66.539 256.815 486.486
729 0 73.1713 12.9832 950 66.1811 256.841 485.7
730 0 75.0555 11.1917 840 68.6774 256.687 485.487
731 0 76.111 12.6788 965 67.1492 256.363 483.578
732 1 42.061 10.0331 422 66.3531 256.763 501.912
733 0 42.0512 11.4384 481 65.0208 257.173 502.239
734 0 43.1131 10.4609 451 66.5499 257.14 501.838
735 0 44.1051 11.0418 487 65.039 257.271 503.183
736 0 46.0649 10.876 501 65.5609 257.503 498.926
737 0 48.0753 11.0868 533 65.6041 257.537 500.527
738 0 50.0478 12.2883 615 63.9171 257.496 499.852
739 0 51.0556 10.9293 558 66.0681 257.321 497.697
740 0 52.0469 11.4704 597 65.6566 257.102 496.452
741 0 54.0772 11.0213 596 66.9782 257.366 496.633
742 0 55.0666 11.2228 618 65.9466 257.383 497.235
743 0 55.0564 10.6436 586 67.8157 257.435 494.413
744 0 60.0367 12.7922 768 64.0807 257.682 494.224
745 0 60.031 10.6278 638 67.6066 257.878 494.379
746 0 63.1066 13.295 839 63.292 257.408 492.355
747 0 63.18 11.0003 695 67.0705 257.472 490.619
748 0 68.2425 13.6279 930 49.3645 257.14 492.39
749 0 68.0968 11.8802 809 65.759 256.956 490.447
750 0 69.163 11.4657 793 66.1564 256.668 489.381
751 1 35.0449 8.56045 300 66.1733 257.573 507.95
752 0 38.0096 10.5237 400 64.2525 257.317 505.62
753 0 38.0209 11.4411 435 63.6851 257.274 502.513
754 0 40.0868 11.2755 452 63.9646 257 501.635
755 0 41.0216 11.1892 459 64.6362 256.336 501.059
756 0 40.0131 9.87176 395 66.7519 256.337 502.286
757 0 43.0395 11.1758 481 65.3534 256.902 501.414
758 0 43.0547 10.9163 470 66.3298 256.394 502.166
759 0 46.0619 12.2661 565 64.5115 256.276 501.407
760 0 48.0471 11.3639 546 66.5147 256.659 499.425
761 0 49.1417 11.9857 589 66.0628 256.749 500.148
762 0 50.0577 11.6266 582 67.354 256.502 497.979
763 0 51.1197 12.5001 639 64.6995 256.408 498.138
764 0 53.1191 11.766 625 66.3072 256.098 498.976
765 0 53.1366 11.6116 617 67.6029 256.611 495.739
766 0 58.1229 13.0929 761 64.7135 257.039 496.213
767 0 57.1442 11.5672 661 67.4402 257.005 496.28
768 0 58.1341 12.2475 712 67.1742 256.823 494.542
769 0 62.0883 13.4003 832 64.8161 256.149 495.413
770 0 63.1799 12.4407 786 67.0814 256.837 493.228
771 0 64.1463 11.1308 714 69.2101 256.546 492.367
772 0 68.145 11.681 796 67.8266 256.401 492.686
773 0 68.1382 11.1098 757 68.716 256.814 493.847
774 1 35.0306 10.2196 358 69.6173 257.383 507.975
775 0 38.0149 10.4696 398 69.1583 257.691 507.764
776 0 39.06 11.2135 438 68.3904 257.409 507.347
777 0 39.0252 10.6342 415 70.4145 256.583 506.682
778 0 42.03 12.158 511 67.7671 256.687 506.673
779 0 41.0194 13.2132 542 67.072 256.867 504.799
780 0 44.0301 13.8769 611 65.6547 256.324 502.615
781 0 46.0628 11.506 530 69.1642 256.519 503.364
782 0 47.0339 12.7355 599 67.1686 256.651 502.28
783 0 47.0211 10.3571 487 71.1129 256.721 502.417
784 0 51.0361 12.5989 643 67.9378 256.165 499.397
785 0 51.0422 11.755 600 69.6483 256.392 501.077
786 0 54.0339 13.4175 725 67.2662 255.919 499.017
787 0 56.0593 13.6284 764 66.4267 256.251 499.266
788 0 56.1718 13.8148 776 67.9897 255.985 496.278
789 0 59.0704 12.4597 736 69.8995 255.83 495.918
790 0 61.0437 13.2528 809 68.3041 256.574 496.625
791 0 62.056 13.23 821 68.7942 256.463 494.933
792 0 63.0535 13.0207 821 69.5225 256.804 494.102
793 0 66.0772 14.4377 954 66.2348 256.8 495.886
794 0 68.0509 13.916 947 67.4076 256.703 494.578
795 0 69.0638 12.2206 844 71.4431 256.685 489.923
796 0 73.0548 13.7705 1006 68.174 256.83 490.308
797 1 38.0453 12.8531 489 69.1738 256.546 506.935
798 0 39.0256 12.1203 473 71.2896 256.04 506.008
799 0 40.0159 12.0452 482 70.8299 256.712 505.394
800 0 42.0109 12.2111 513 70.6589 256.16 504.784
801 0 43.0259 12.2252 526 72.0437 256.489 503.426
802 0 45.0298 12.9692 584 70.0788 256.81 502
803 0 46.0852 13.5401 624 69.3878 256.681 502.478
804 0 49.1104 12.8893 633 70.1517 256.619 500.445
805 0 49.1096 12.9099 634 69.836 256.707 501.528
806 0 51.0495 13.5163 690 69.7725 256.941 499.22
807 0 54.0446 12.2861 664 70.4955 256.783 500.321
808 0 57.0527 12.8478 733 69.2237 256.944 498.325
809 0 58.1323 14.6734 853 67.1712 257.148 496.251
810 0 61.1266 13.4148 820 69.4756 257.212 495.427
811 0 63.2297 13.2691 839 68.5089 257.763 496.803
812 0 62.1096 11.5441 717 72.8159 257.368 493.028
813 0 65.1155 13.0384 849 69.6808 257.509 491.276
814 0 68.1258 12.0219 819 70.265 257.825 492.226
815 0 71.0791 12.6479 899 69.3604 257.707 489.224
816 0 73.0854 12.5196 915 69.4022 257.848 487.537
817 0 74.0799 11.8926 881 70.5902 257.888 486.402
818 1 40.0364 12.5386 502 68 257.751 505.189
819 0 42.0445 11.8922 500 69.712 257.698 503.548
820 0 43.0481 12.2886 529 68.5917 258.104 503.658
821 0 44.0533 12.2125 538 69.723 257.634 502.998
822 0 45.0899 11.2664 508 71.0866 257.87 503.382
823 0 47.1133 12.1197 571 70.3135 257.496 502.431
824 0 49.0303 13.4815 661 68.8351 258 499.918
825 0 52.1594 12.1742 635 71.2362 257.313 497.633
826 0 53.1002 11.6007 616 72.2159 257.119 499.214
827 0 55.1117 12.9374 713 69.9832 256.947 496.868
828 0 56.1673 12.445 699 71.6066 256.986 496.262
829 0 57.1132 13.1493 751 71.4288 256.931 495.173
830 0 60.1463 13.3009 800 70.79 257.3 494.515
831 0 61.0848 12.3599 755 72.9338 257.645 493.019
832 0 64.0818 11.9535 766 72.9765 257.954 493.303
833 0 68.153 12.7507 869 70.603 257.986 492.979
834 0 68.1137 13.5655 924 70.7792 257.857 489.55
835 0 70.0836 13.2413 928 71.2985 257.14 490.139
836 0 72.0998 13.0375 940 72.0798 256.972 488.888
837 0 74.0667 14.1089 1045 70.7885 256.696 485.467
838 0 78.083 13.7802 1076 70.71 257.103 485.679
839 1 43.0605 11.4955 495 74.4747 257.451 502.784
840 0 46.0342 13.2076 608 72.3832 257.266 500.469
841 0 48.0233 13.7017 658 70.7295 257.353 499.774
842 0 51.1403 12.2408 626 73.4409 257.296 500.099
843 0 52.0183 12.6109 656 73.2012 257.322 500.404
844 0 52.0432 12.8163 667 74.084 256.855 497.235
845 0 55.1348 13.0408 719 72.6954 257.565 497.467
846 0 58.0906 13.3584 776 71.2242 257.964 497.937
847 0 57.0931 12.9613 740 74.1419 257.296 492.731
848 0 58.0854 12.5161 727 75.1898 257.543 493.021
849 0 62.0292 13.6065 844 72.2998 257.498 493.556
850 0 64.0912 14.2921 916 71.5819 256.767 491.818
851 0 67.042 14.9309 1001 69.5694 257.104 492.239
852 0 68.1228 13.3729 911 72.6531 257.184 490.733
853 0 69.0914 13.4315 928 72.5291 257.083 487.386
854 0 72.0866 13.1092 945 72.8381 256.866 485.689
855 0 77.0683 13.4167 1034 71.1093 257.097 487.095
856 0 78.0433 13.7232 1071 70.7423 257.154 487.62
857 0 81.0946 14.8222 1202 69.2138 257.427 483.448
858 0 84.0437 13.7191 1153 70.5455 256.871 481.92
859 1 41.022 10.726 440 75.1886 257.9 503.83
860 0 44.109 12.2877 542 71.3007 257.801 503.744
861 0 46.0327 11.6656 537 73.0968 257.765 501.354
862 0 45.033 11.4139 514 73.8677 257.514 501.665
863 0 46.0575 10.552 486 76.1687 257.444 499.335
864 0 50.0462 12.968 649 71.4545 257.924 498.14
865 0 51.0996 13.5422 692 71.1936 257.996 497.782
866 0 53.0813 13.1496 698 71.616 258.042 496.431
867 0 57.0306 12.8177 731 71.5841 257.599 495.945
868 0 55.0715 12.4202 684 73.4854 257.338 494.959
869 0 57.0548 14.0041 799 70.9687 258.186 493.817
870 0 59.0188 13.3347 787 72.1804 257.645 493.452
871 0 62.0264 12.6881 787 72.7192 257.339 492.606
872 0 62.0958 13.3503 829 72.4258 256.673 491.222
873 0 65.118 13.1607 857 72.3816 257.151 490.781
874 0 66.082 12.2424 809 75.0729 256.978 488.759
875 0 69.0491 13.1356 907 73.4024 256.594 487.804
876 0 72.0375 13.3542 962 72.9241 257.537 485.973
877 0 75.1008 14.1543 1063 71.6199 257.546 484.636
878 0 78.1011 14.6093 1141 70.1017 256.921 486.36
879 0 79.0877 12.9603 1025 73.0995 257.157 484.59
880 0 81.074 14.789 1199 71.4762 257.405 481.799
881 1 43.0298 11.4572 493 74.0365 257.219 498.357
882 0 45.0372 10.3914 468 73.8333 256.754 500.267
883 0 49.0362 12.1339 595 71.3933 256.654 498.538
884 0 47.0248 11.2919 531 74.0546 256.708 498.326
885 0 50.0505 10.4494 523 75.4054 256.522 497.61
886 0 52.0197 11.2073 583 73.729 256.727 498.386
887 0 53.0196 11.6183 616 73.2581 256.768 498
888 0 55.0383 12.0643 664 72.8509 257.072 494.53
889 0 57.0793 11.4227 652 73.9571 256.71 493.877
890 0 59.1103 12.1975 721 72.3786 257.16 495.065
891 0 59.0309 11.9429 705 73.6624 256.938 492.823
892 0 62.1003 11.3204 703 74.4182 257.669 492.083
893 0 65.0454 11.9763 779 72.7086 257.564 491.241
894 0 65.0615 10.7129 697 75.3271 257.831 491.251
895 0 68.0787 12.7499 868 71.8917 257.411 489.032
896 0 72.0163 12.6499 911 72.0121 257.754 488.802
897 0 74.0459 12.7218 942 71.9565 257.791 485.814
898 0 76.0255 12.2327 930 72.871 257.437 486.467
899 1 41.027 9.01846 370 72.6622 257.386 503.495
900 0 43.0403 10.4088 448 71.6696 257.518 500.942
901 0 42.0575 10.0101 421 73.2684 257.447 501.62
902 0 45.0458 11.1664 503 71.5348 257.567 499.233
903 0 49.017 11.241 551 69.6697 257.773 501.118
904 0 48.0433 10.6362 511 72.7162 257.912 499.89
905 0 49.0208 10.5465 517 73.7582 257.557 497.153
906 0 49.0346 10.7067 525 74.6 257.413 496.179
907 0 53.0503 10.4429 554 74.2148 257.282 496.641
908 0 56.0591 13.0041 729 69.7023 257.049 496.044
909 0 58.0368 10.7518 624 73.1154 256.83 494.862
910 0 59.0495 10.5505 623 74.4591 256.945 493.756
911 0 60.0357 9.94408 597 75.3166 257.75 494.296
912 0 63.0523 10.9116 688 72.9738 257.714 493.516
913 0 65.0619 10.8666 707 73.8388 257.738 492.133
914 0 64.085 10.2364 656 75.6113 257.627 491.7
915 0 69.0763 11.813 816 72.0392 257.641 490.358
916 0 70.0999 10.7561 754 75.0279 257.782 486.172
917 0 73.1646 12.2874 899 72.1335 257.915 484.961
918 0 77.1096 13.3706 1031 69.5383 259.844 483.663
919 0 80.0688 11.2528 901 72.1132 259.111 486.569
920 1 41.0097 10.0708 413 70.155 258.058 503.593
921 0 41.0745 9.59234 394 71.9924 258.566 501.817
922 0 42.0382 9.84819 414 71.529 258.116 503.01
923 0 43.0232 10.9476 471 70.7176 259.637 501.488
924 0 46.0433 10.2512 472 71.4725 259.396 501.034
925 0 45.0494 10.4774 472 72.5042 259.131 499.737
926 0 44.0569 8.92028 393 75.0509 259.071 500.176
927 0 47.0963 8.74803 412 74.3617 258.097 501.347
928 0 52.0515 11.2773 587 70.3543 258.211 498.652
929 0 52.063 10.0839 525 73.1429 258.541 496.971
930 0 54.0622 10.8579 587 72.1158 258.027 496.567
931 0 55.0551 9.84468 542 74.5609 258.046 495.552
932 0 56.0496 10.7405 602 73.0033 258.543 496.065
933 0 60.0422 11.0256 662 71.7825 258.279 495.42
934 0 58.0337 8.61568 500 77.062 258.642 494.888
935 0 62.0902 11.5799 719 71.4006 258.191 494.93
936 0 65.0443 10.562 687 73.607 258.53 492.255
937 0 65.0245 10.1346 659 74.0516 258.593 490.288
938 0 67.0377 10.2629 688 73.8997 258.42 489.099
939 0 69.0463 10.6161 733 73.1432 258.839 487.965
940 0 70.0234 8.96844 628 76.4459 258.575 484.981
941 0 74.0753 9.85483 730 73.9753 258.407 485.737
942 0 75.1013 9.99983 751 74.7949 258.764 482.703
943 1 38.0576 8.77616 334 70.6527 258.368 503.793
944 0 44.0229 8.35929 368 78.0109 257.772 457.853
945 0 46.0256 9.99443 460 75.1543 257.6 457.163
946 0 47.0188 8.03933 378 78.9841 257.481 455.347
947 0 49.0119 10.2016 500 74.998 256.888 452.016
948 0 49.0443 8.68603 426 76.8662 257.5 450.291
949 0 53.0783 8.60992 457 77.5996 256.871 452.613
950 0 54.0805 9.43039 510 76.8961 257.486 447.741
951 1 88.1293 7.06916 623 77.8941 258.027 460.185
952 1 54.0991 7.94838 430 79.1047 256.837 444.353
953 0 54.1037 11.441 619 65.4992 257.468 495.595
954 0 56.0409 8.56517 480 78.0687 257.081 439.348
955 0 56.0227 9.71035 544 69.1011 258.358 497.2
956 0 57.1057 10.6644 609 67.0296 257.315 497.437
957 0 60.0532 10.3075 619 66.2795 257.271 497.53
