time division length width area intensity CMx CMy
0 0 55.1745 12.3427 681 59.746 285.746 510.289
1 0 54.1465 12.0599 653 60.559 285.312 507.613
2 0 57.169 11.7371 671 60.0894 285.054 508.593
3 0 58.1371 12.0233 699 59.2132 284.738 507.585
4 0 60.1144 12.1768 732 58.3648 284.649 509.5
5 0 59.1701 10.7656 637 60.4929 284.556 505.493
6 0 63.1361 12.4018 783 58.3142 284.171 507.372
7 0 64.0701 12.0649 773 58.6727 284.159 507.955
8 0 65.0816 13.2756 864 57.2546 283.352 506.26
9 0 67.223 12.6147 848 57.3986 283.684 507.619
10 0 67.061 12.4215 833 58.1717 283.72 504.282
11 0 71.0783 12.0993 860 58.0221 284.185 505.838
12 0 73.0654 13.2074 965 57.1762 283.55 503.801
13 0 73.0683 11.0581 808 59.9777 283.283 501.783
14 1 37.0202 9.53533 353 59.9207 283.176 522.68
15 0 37.0639 11.1429 413 60.1913 283.257 520.794
16 0 38.0474 12.1953 464 58.2349 283.713 522.017
17 0 38.0075 10.5505 401 61.6933 283.294 521.564
18 0 42.0742 10.6003 446 60.6973 283.002 521.117
19 0 39.0386 10.528 411 62.5718 282.861 520.73
20 0 43.0234 12.9465 557 59.377 282.7 519.352
21 0 43.0293 12.9679 558 59.1971 283.073 519.894
22 0 45.1095 13.1458 593 59.4199 282.685 518.253
23 0 45.0259 11.7044 527 61.5731 282.188 519.245
24 0 46.0566 12.7452 587 61.2232 283.056 516.574
25 0 48.1425 13.3354 642 60.095 282.257 516.651
26 0 50.039 11.531 577 61.9532 282.452 516.782
27 0 52.0255 13.4357 699 59.7997 283.283 516.994
28 0 51.1246 12.3033 629 62.8967 282.374 513.429
29 0 52.0327 12.6651 659 62.5099 283.439 513.91
30 0 54.1261 12.8773 697 62.1363 282.958 514.247
31 0 58.2114 13.8461 806 60.4566 283.244 513.865
32 0 57.0807 11.4575 654 64.2615 283.638 512.575
33 0 59.0459 11.652 688 64.423 283.586 513.147
34 0 61.0504 13.022 795 63.2264 283.582 508.523
35 0 63.0835 12.2377 772 64.9016 283.837 508.443
36 0 65.1552 12.7235 829 63.9445 284.316 509.764
37 0 68.0987 13.0252 887 63.4713 283.742 508.483
38 0 70.0604 13.574 951 63.327 284.447 508.215
39 0 72.1387 11.8937 858 64.9744 284.983 508.721
40 0 72.0677 11.739 846 66.4551 284.52 505.046
41 0 76.1431 12.2926 936 65.5791 284.887 505.688
42 0 77.0551 12.5365 966 66.205 284.842 501.934
43 1 39.0623 11.4433 447 63.9866 284.817 523.034
44 0 40.018 11.6448 466 64.9077 284.712 520.53
45 0 40.0153 10.7459 430 64.7674 284.512 523.319
46 0 42.1441 10.3455 436 65.9266 285.19 522.681
47 0 45.0287 12.1034 545 63.0477 285.69 520.288
48 0 46.0585 12.9401 596 62.5537 285.136 520.064
49 0 44.0531 11.0321 486 65.9342 285.728 519.158
50 0 46.0436 9.75163 449 66.9844 285.84 518.699
51 0 49.0608 11.1494 547 64.9141 285.614 517.293
52 0 50.0874 10.4817 525 66.5657 285.931 515.971
53 0 50.0667 10.9254 547 66.0256 285.658 515.709
54 0 53.102 10.9036 579 64.9326 285.751 515.434
55 0 57.0378 12.7109 725 63.171 285.622 512.972
56 0 59.0983 12.5553 742 63.0458 285.865 511.685
57 0 58.0558 10.266 596 66.2064 286.73 511.253
58 0 62.1304 11.6368 723 64.13 285.656 511.314
59 0 65.0259 11.8568 771 63.9689 286.17 508.77
60 0 66.1226 11.887 786 63.0725 285.753 511.071
61 0 69.0205 12.4311 858 63.7249 285.167 507.127
62 1 35.0058 10.1698 356 63.8876 284.837 523.264
63 0 36.0382 9.54543 344 64.0698 285.57 523.578
64 0 37.0139 10.8068 400 63.015 285.375 523.74
65 0 40.0079 11.3978 456 61.9978 285.645 521.715
66 0 40.0288 10.5674 423 64.5579 285.991 519.953
67 0 39.0625 9.70241 379 66.0923 285.177 520.549
68 0 43.0417 10.8267 466 64.7275 285.225 518.742
69 0 44.0822 11.2517 496 64.3952 285.359 518.583
70 0 45.0789 12.0677 544 63.4375 284.934 519.294
71 0 48.0609 12.068 580 63.4466 284.012 516.947
72 0 47.032 12.8211 603 63.6103 284.494 515.337
73 0 49.0621 10.9861 539 65.5529 284.436 516.438
74 0 49.0549 10.9061 535 66.4075 285.486 516.336
75 0 51.0246 11.661 595 66.5513 285.103 513.355
76 0 52.2466 11.216 586 67.1672 285.055 515.256
77 0 55.1284 11.6637 643 65.9565 285.372 516.076
78 0 54.0575 11.1178 601 68.8985 284.722 511.546
79 0 56.0561 12.8086 718 66.0655 284.649 510.953
80 0 59.0984 12.7246 752 65.8537 285.52 512.081
81 0 60.0613 11.455 688 68.0988 285.721 511.453
82 0 64.0377 12.5863 806 65.9752 285.576 510.809
83 0 64.1074 11.1064 712 69.2121 285.916 508.077
84 0 64.0587 11.5831 742 69.3423 285.969 507.489
85 1 37.0263 10.6141 393 65.3537 285.135 522.728
86 0 38.0607 10.3256 393 66.0534 286.107 522.282
87 0 39.0354 9.68351 378 67.1799 286.071 520.892
88 0 39.0962 9.23364 361 67.6814 285.889 521.374
89 0 41.0463 10.9876 451 65.8049 285.694 520.186
90 0 44.1133 12.3772 546 62.8608 285.782 519.192
91 0 44.0124 11.6785 514 64.3794 286.068 518.802
92 0 46.0412 11.4463 527 65 286.264 519.171
93 0 48.0674 12.8985 620 63.2048 286.419 518.232
94 0 47.1358 11.2017 528 66.4602 286.608 518.415
95 0 50.1547 11.7237 588 65.8793 285.534 516.915
96 0 50.1624 11.5624 580 66.7466 285.086 515.786
97 0 52.1224 13.3916 698 63.8496 285.629 515.335
98 0 54.0709 12.1877 659 66.3854 285.247 514.115
99 0 55.0713 12.1116 667 66.2069 285.55 512.916
100 0 57.0916 11.2976 645 68.2248 285.242 511.941
101 0 58.0642 11.9695 695 68.2259 285.129 509.222
102 0 59.0501 12.4132 733 67.7435 286.037 508.718
103 0 62.1012 12.6407 785 67.8777 286.12 506.759
104 0 61.1013 11.1291 680 70.5912 285.625 507.637
105 0 66.1045 12.692 839 66.975 285.509 505.325
106 0 70.0571 12.761 894 65.4664 285.738 506.263
107 0 70.1651 11.4017 800 67.215 285.129 507.745
108 0 72.0797 12.0422 868 66.3145 285.874 502.56
109 0 74.0898 11.621 861 66.3693 284.92 503.249
110 0 76.0887 11.9992 913 65.9923 283.697 501.296
111 0 78.0793 11.8085 922 66.244 284.997 498.641
112 0 81.1719 10.6194 862 67.6299 284.901 497.421
113 0 84.0799 11.9172 1002 65.507 285.275 496.71
114 1 42.0191 10.876 457 64.3829 285.269 515.816
115 0 41.0298 9.79777 402 66.0746 284.826 515.264
116 0 44.0671 10.3252 455 65.2527 285.404 514.732
117 0 45.0254 9.59459 432 65.4282 285.273 515.333
118 0 47.0575 9.75402 459 64.8105 285.641 513.706
119 0 48.0662 11.7962 567 61.6949 286.39 511.898
120 0 50.1081 10.8765 545 62.0899 285.782 511.653
121 0 51.1196 11.1308 569 61.9051 285.578 512.418
122 0 51.066 9.77168 499 64.0461 285.705 511.024
123 0 53.044 11.3679 603 62.3483 286.111 509.927
124 0 56.0742 10.8071 606 62.4241 285.685 510.413
125 0 55.0842 10.2933 567 63.0494 284.991 510.831
126 0 59.0839 10.8998 644 62.9053 285.056 508.325
127 0 60.1105 11.5787 696 62.0905 285.759 506.343
128 0 62.2528 10.377 646 63.5991 286.351 505.594
129 0 65.1287 10.9015 710 63.1225 285.637 505.494
130 0 66.1473 10.5976 701 63.1712 285.29 505.809
131 0 68.1816 11.8947 811 61.8348 285.549 502.264
132 0 71.122 10.6859 760 63.0526 285.014 499.558
133 0 74.1082 11.6451 863 61.1054 285.742 500.594
134 0 75.0787 11.1483 837 60.9391 284.953 498.808
135 0 79.1539 11.2439 890 60.582 285.866 498.011
136 1 40.0861 9.72906 390 60.3308 286.428 515.474
137 0 41.0185 7.72822 317 61.7256 285.849 517.246
138 0 43.0354 8.89964 383 61.0705 285.859 514.862
139 0 46.0596 10.2476 472 59.0678 285.4 515.006
140 0 44.1084 9.72605 429 60.993 285.653 514.193
141 0 44.0403 10.1498 447 60.9329 286.123 513.159
142 0 49.1305 10.5433 518 59.7259 285.708 512.925
143 0 48.106 9.68694 466 62.7318 286.315 512.26
144 0 51.0433 10.6772 545 62.244 286.435 511.105
145 0 55.0943 11.1808 616 61.1364 285.896 509.443
146 0 53.1344 10.464 556 62.6169 285.638 509.687
147 0 54.05 9.86125 533 64.045 285.752 507.994
148 0 59.0684 12.0707 713 60.6255 285.377 507.544
149 0 58.033 10.8042 627 63.2041 285.715 506.022
150 0 61.1036 10.6213 649 63.0293 285.023 506.795
151 0 62.0523 11.2808 700 62.2843 286.379 504.849
152 0 65.0888 11.1233 724 62.6519 285.895 502.345
153 0 66.2208 11.0841 734 62.6294 285.924 503.898
154 0 66.1691 11.1532 738 62.6843 286.065 501.182
155 0 70.1995 10.8548 762 63.1522 287.413 501.874
156 0 72.0915 11.208 808 62.5173 286.928 499.413
157 0 75.1637 11.6812 878 61.5763 286.429 497.582
158 0 77.0912 11.4021 879 61.9886 286.725 495.745
159 0 77.2034 10.6861 825 63.463 285.895 494.455
160 0 82.1324 12.4555 1023 61.3304 286.118 496.478
161 0 85.2208 12.2271 1042 61.3378 286.364 495.689
162 1 45.0599 9.01023 406 62.3645 286.776 514.53
163 0 49.1447 11.8019 580 59.4138 286.679 512.752
164 0 46.0716 10.0279 462 63.1299 286.147 510.926
165 0 49.0349 12.0934 593 60.2411 285.55 511.41
166 0 48.0489 10.739 516 62.5581 286.87 510.415
167 0 51.075 11.1601 570 62.0404 286.258 511.302
168 0 54.0633 11.2091 606 61.1815 286.21 511.875
169 0 54.115 12.6767 686 60.3907 286.946 509.831
170 0 54.0933 10.7037 579 63.4991 286.66 508.841
171 0 57.0727 11.1437 636 62.9072 286.311 510.142
172 0 60.052 12.6557 760 61.3816 287.322 506.509
173 0 58.0925 10.0701 585 65.3043 286.296 508.756
174 0 62.0343 11.9934 744 62.4543 286.417 506.538
175 0 64.0871 12.7795 819 61.177 286.033 507.444
176 0 63.0456 12.2134 770 62.661 285.691 505.061
177 0 67.1345 12.1696 817 62.7319 285.887 503.971
178 0 66.1201 10.9195 722 64.8878 285.537 503.882
179 0 70.1508 12.2023 856 62.1822 285.589 504.869
180 0 73.1435 12.9471 947 61.2291 285.872 503.036
181 0 75.0232 11.863 890 62.7517 285.308 502.909
182 0 74.1096 10.8623 805 64.4596 285.575 501.075
183 0 77.1261 10.9302 843 65.0214 285.257 499.985
184 0 81.2514 12.6152 1025 62.438 284.354 497.605
185 0 84.0959 12.2004 1026 62.2719 284.259 497.612
186 0 86.1829 12.3458 1064 62.5865 284.747 494.284
187 0 87.1049 11.6641 1016 63.6407 284.539 493.621
188 0 90.0881 12.0882 1089 62.9761 284.077 494.528
189 0 93.0938 12.4713 1161 62.9053 283.606 491.246
190 0 96.1254 12.775 1228 62.4642 283.082 489.684
191 1 51.0463 9.67749 494 63.7895 282.753 514.798
192 0 52.1448 10.1256 528 64.1591 283.39 512.828
193 0 53.091 9.94518 528 64.9489 283.392 512.847
194 0 57.0415 10.8868 621 63.4895 283.417 512.3
195 0 60.0635 12.0539 724 61.163 283.378 512.569
196 0 62.1385 11.3778 707 62.0566 282.871 509.975
197 0 63.032 12.692 800 61.2188 282.672 510.832
198 0 66.0558 11.9596 790 62.8886 281.861 507.139
199 0 68.1002 12.7166 866 61.2494 282.963 507.676
200 0 68.1131 13.0812 891 61.3143 282.996 507.511
201 0 70.0953 11.3702 797 63.069 282.311 504.538
202 0 72.25 12.8858 931 61.015 281.661 507.344
203 0 72.1445 9.86909 712 64.9649 281.935 504.923
204 0 76.1162 11.7321 893 62.4759 281.755 505.414
205 0 81.0949 13.7987 1119 59.4593 282.257 503.745
206 0 83.0581 12.4732 1036 61.3861 282.972 502.832
207 0 83.1266 10.9231 908 63.5099 282.448 503.387
208 0 87.1154 13.2009 1150 61.0974 282.487 499.557
209 0 88.1684 10.9109 962 63.8191 282.531 501.246
210 0 91.0642 11.1679 1017 63.1957 282.011 498.85
211 1 50.0422 11.1706 559 61.5617 282.349 520.075
212 0 50.1178 10.2359 513 62.5224 281.103 521.519
213 0 51.1101 10.7611 550 62.6636 280.613 520.513
214 0 54.0861 11.4077 617 61.6548 281.276 521.357
215 0 53.0537 10.8758 577 63.1179 280.338 518.955
216 0 54.0593 10.507 568 64.1796 280.074 518.667
217 0 58.1241 11.3894 662 63.0695 279.48 515.06
218 0 58.1671 10.934 636 64.0252 280.461 514.981
219 0 62.1375 12.8747 800 60.8188 280.345 513.855
220 0 61.0546 11.2031 684 64.3889 280.241 514.009
221 0 64.0243 12.1516 778 63.1915 280.886 511.361
222 0 64.1547 10.9111 700 65.2486 280.511 513.269
223 0 68.0582 13.0917 891 62.7419 280.478 507.199
224 0 65.093 11.0765 721 51.1012 279.818 507.666
225 0 72.1439 12.4058 895 63.3419 280.499 505.518
226 0 73.1535 10.9086 798 64.9311 280.31 506.674
227 0 75.1039 11.5174 865 64.8555 280.39 502.88
228 0 77.145 11.796 910 64.7824 280.143 501.348
229 0 79.1392 12.219 967 64.1913 280.529 498.988
230 0 82.0814 11.0622 908 65.6575 281.013 499.205
231 0 85.1206 10.6437 906 66.1457 281.18 499.822
232 0 86.1995 10.9861 947 67.3157 280.973 495.256
233 1 47.1922 9.40833 444 66.6396 280.622 516.806
234 0 48.0935 11.9143 573 63.1117 280.134 517.307
235 0 49.172 9.41593 463 67.1771 281.156 514.272
236 0 52.0538 10.7005 557 66.0736 280.682 512.671
237 0 51.1099 10.1741 520 66.9135 281.262 514.467
238 0 52.0313 10.782 561 66.6916 281.463 510.975
239 0 54.0908 10.242 554 67.2455 281.794 511.171
240 0 55.0947 11.4712 632 65.4066 281.753 509.44
241 0 59.0501 10.1609 600 68.01 281.305 508.6
242 0 58.0323 9.42578 547 68.3839 282.28 506.954
243 0 63.0798 11.2556 710 65.7944 281.89 505.934
244 0 59.0657 9.41324 556 68.696 282.031 500.442
245 1 97.1588 6.17546 600 74.2483 280.853 455.545
246 0 96.2011 5.46771 526 74.7947 281.405 451.627
247 1 110.101 5.74016 632 74.182 281.304 452.891
248 1 64.0745 8.88029 569 69.7206 282.125 499.016
249 0 71.0386 7.03843 500 70.408 281.814 496.854
250 0 78.0296 10.2141 797 64.7064 281.745 503.98
251 0 80.1552 11.3156 907 62.8997 282.355 501.964
252 0 84.0949 11.38 957 62.7764 281.534 499.264
253 1 42.0654 8.86715 373 63.2842 282.035 519.172
254 0 45.0716 9.74006 439 60.8815 282.893 518.39
255 0 45.0222 10.5059 473 60.4841 282.315 519.474
256 0 46.0397 9.57869 441 59.8776 282.844 520.939
257 0 49.0233 12.2595 601 57.2812 282.461 517.334
258 0 49.0391 11.134 546 58.881 281.989 518.059
259 0 51.1373 10.3447 529 59.6389 282.412 515.873
260 0 53.0288 10.4094 552 59.0797 282.908 513.812
261 0 54.04 10.9919 594 58.8603 281.731 515.431
262 0 55.1369 11.6437 642 58.2523 281.09 513.366
263 0 56.0726 10.8253 607 59.173 281.932 513.244
264 0 56.0697 9.25634 519 60.8671 281.913 512.561
265 0 58.108 9.44792 549 60.3078 281.417 512.37
266 0 61.0621 10.2355 625 59.6592 280.869 509.435
267 0 63.0713 9.60817 606 59.8201 280.947 511.931
268 0 64.2023 11.4482 735 58.181 281.864 509.997
269 0 65.0935 9.66302 629 60.6073 280.536 507.498
270 0 66.0929 10.7122 708 59.4054 280.412 505.124
271 0 70.086 9.98773 700 59.6614 281.133 503.469
272 0 70.19 9.1751 644 61.2329 280.714 505.87
273 0 73.1049 12.6394 924 57.4145 280.383 503.998
274 0 74.0746 9.67944 717 60.5146 279.139 502.724
275 0 77.2232 7.5107 580 62.6207 279.879 500.366
276 0 81.0428 10.7721 873 59.6002 280.551 499.984
277 0 87.0851 11.7357 1022 58.1947 279.841 502.454
278 0 89.0796 13.2017 1176 56.2398 280.352 503.138
279 1 46.0796 8.65894 399 60.6742 279.94 520.321
280 0 47.0867 10.7461 506 57.6581 279.848 519.844
281 0 48.0195 10.6207 510 58.4314 280.475 519.8
282 0 50.1636 10.9442 549 57.4681 280.401 520.311
283 0 52.0737 12.3671 644 56.7298 279.939 517.101
284 0 52.0942 11.4216 595 58.205 279.054 517.128
285 0 54.0423 12.8603 695 56.7137 279.263 516.033
286 0 57.0359 12.5184 714 56.409 279.623 518.024
287 0 59.1157 11.4859 679 57.8336 279.376 515.449
288 0 58.0422 10.2167 593 59.5245 279.474 515.201
289 0 61.0527 12.6284 771 56.9442 279.174 513.016
290 0 61.0735 12.0019 733 56.5894 280.063 511.349
291 0 65.0694 11.142 725 57.2786 279.451 513.63
292 0 65.1114 12.1638 792 56.2563 280.122 514.187
293 0 67.084 10.8372 727 57.729 280.578 513.634
294 0 70.1726 11.9277 837 56.8315 280.581 509.305
295 0 71.1129 10.9122 776 58.1302 280.383 510.14
296 0 74.1121 12.4946 926 56.3542 279.725 505.475
297 0 75.0379 12.2072 916 57.0721 279.67 506.059
298 0 78.0667 11.0547 863 58.8934 278.698 505.197
299 0 80.1325 10.6199 851 59.5546 278.976 501.595
300 0 84.047 14.0517 1181 55.718 278.652 502.159
301 0 87.1272 12.6826 1105 57.5575 278.361 500.506
302 0 89.1446 11.4084 1017 59.6234 279.11 495.985
303 0 88.1118 12.2118 1076 58.8578 279.072 497.853
304 0 93.1455 11.627 1083 59.566 278.86 492.524
305 0 96.0907 12.842 1234 57.876 279.098 494.927
306 0 100.102 13.1765 1319 57.1782 279.13 492.906
307 0 103.15 11.5754 1194 59.4246 279.321 491.42
308 0 106.173 14.6554 1556 56.4524 279.344 490.184
309 0 110.252 12.5803 1387 58.8133 279.347 488.562
310 0 113.141 13.1252 1485 58.3448 279.08 484.388
311 0 116.299 12.9064 1501 58.7215 279.135 481.728
312 0 120.179 12.057 1449 59.793 279.179 481.68
313 1 62.0839 10.4858 651 58.0353 279.736 511.025
314 0 64.0729 10.0198 642 57.4034 279.202 512.921
315 0 66.1536 11.5186 762 56.1955 279.281 510.694
316 0 67.152 10.6624 716 57.0908 279.668 510.658
317 0 67.0687 9.97484 669 58.7354 280.055 505.695
318 0 72.0513 11.242 810 56.4457 279.37 507.569
319 0 73.087 10.0428 734 57.7221 279.644 507.993
320 0 77.2849 12.3828 957 55.1797 279.301 507.02
321 0 79.2662 11.2658 893 56.0773 280.189 504.666
322 0 82.1927 10.3172 848 57.4764 280.158 502.488
323 0 86.1631 10.8051 931 56.6208 280.023 499.201
324 0 86.0803 8.73603 752 58.4096 279.848 498.941
325 0 90.1848 10.4563 943 57.035 279.799 497.514
326 0 90.1455 9.5845 864 58.5822 279.767 495.981
327 0 96.1922 10.0112 963 58.5472 279.323 496.246
328 0 100.243 12.0807 1211 56.9752 279.167 491.953
329 1 53.1319 10.5398 560 56.5589 279.689 516.241
330 0 54.1021 8.53941 462 59.342 280.699 515.374
331 0 57.0521 10.5342 601 56.6406 280.308 515.413
332 0 58.127 10.4599 608 57.4441 279.65 513.645
333 0 59.0695 11.4949 679 57.0383 279.713 510.368
334 0 59.0724 10.5633 624 58.3942 278.968 510.67
335 0 62.0587 9.89385 614 59.6987 279.616 508.057
336 0 63.1202 11.7712 743 58.3567 279.52 507.345
337 0 66.0713 10.7914 713 59.0112 279.794 508.447
338 0 68.1086 9.48486 646 60.2709 279.872 508.771
339 0 69.1453 11.3963 788 59.1929 279.921 504.236
340 0 74.081 13.4447 996 55.8424 278.921 505.192
341 0 75.1414 12.4432 935 56.7989 279.434 507.358
342 0 75.1584 11.855 891 57.9428 279.12 505.205
343 0 77.1492 11.4583 884 58.9819 279.51 500.843
344 0 82.2056 12.2984 1011 57.908 278.029 500.089
345 0 82.1358 12.4428 1022 58.2114 278.565 497.175
346 0 85.1723 12.3045 1048 58.209 279.51 498.74
347 0 88.1367 12.6622 1116 58.1514 279.913 494.804
348 0 90.1357 15.2104 1371 55.2006 278.842 493.366
349 0 93.1189 12.8116 1193 57.5205 279.614 494.857
350 0 94.1353 13.1407 1237 57.4899 280.041 493.033
351 0 96.1734 10.034 965 61.0145 279.861 491.659
352 0 100.37 12.2945 1234 58.8266 279.64 488.002
353 0 104.402 13.4002 1399 57.0593 279.61 487.924
354 0 104.377 10.9603 1144 59.9843 279.852 484.195
355 0 108.273 11.9883 1298 58.9253 278.707 482.898
356 0 111.335 12.3412 1374 58.7933 279.29 482.374
357 0 112.193 10.5354 1182 61.2563 279.75 480.773
358 0 117.221 12.165 1426 59.1781 280.203 478.238
359 1 67.1597 11.0334 741 56.4238 280.227 509.219
360 0 67.1279 10.6513 715 56.9007 278.705 509.036
361 0 66.1366 10.7051 708 57.8051 278.657 506.117
362 0 69.1703 11.1319 770 57.1299 278.619 506.244
363 0 72.1163 13.3396 962 54.7131 279.511 505.054
364 0 71.1142 10.1808 724 58.6699 279.968 504.949
365 0 75.1522 13.8253 1039 54.3022 279.579 503.441
366 0 78.1176 11.3675 888 57.8694 280.562 500.614
367 0 78.1038 11.8688 927 57.918 280.312 498.674
368 0 82.1535 11.2351 923 58.467 279.515 498.442
369 0 84.0932 12.0937 1017 56.591 279.255 500.447
370 0 85.1045 12.326 1049 57.3403 279.439 497.365
371 0 87.1821 11.2753 983 58.473 279.372 497.455
372 0 93.1979 12.9295 1205 56.5768 279.454 494.82
373 0 94.2783 12.6222 1190 57.5109 279.554 492.823
374 0 97.0897 12.8953 1252 56.8778 279.75 493.255
375 0 100.196 12.3058 1233 57.5718 279.75 492.648
376 0 102.136 11.7098 1196 58.6798 279.458 491.856
377 1 57.0835 11.054 631 57.3471 279.574 514.746
378 0 57.1266 11.8334 676 57.176 279.124 514.822
379 0 61.1322 12.0068 734 56.6294 279.015 512.822
380 0 61.0671 10.4311 637 58.314 278.118 513.805
381 0 64.133 11.8504 760 56.8382 278.83 511.271
382 0 66.0348 10.8428 716 58.7193 277.941 509.661
383 0 67.1807 14.0665 945 55.5958 278.981 509.09
384 0 69.0258 10.0832 696 60.181 279.191 509.342
385 0 71.1096 10.4627 744 59.9933 279.348 506.007
386 0 73.137 12.5244 916 58.1889 278.298 505.319
387 0 76.1537 11.6606 888 58.6216 278.667 505.044
388 0 76.0931 10.3032 784 60.7997 279.601 501.992
389 0 82.147 14.1576 1163 56.0232 278.72 502.254
390 0 85.0991 11.3867 969 58.9639 278.496 502.077
391 0 85.2898 11.4551 977 59.9079 279.185 498.653
392 0 88.2488 12.0568 1064 58.89 279.237 499.069
393 0 94.3107 11.2819 1064 59.1382 278.694 497.614
394 0 91.1382 10.4567 953 61.4575 278.944 493.655
395 0 96.0997 9.87516 949 61.5659 278.607 496.239
396 0 98.1793 10.9188 1072 60.9608 278.95 494.954
397 1 54.0491 10.9715 593 59.9207 278.954 514.133
398 0 55.0302 8.25002 454 61.793 279.167 516.139
399 0 58.1269 12.2491 712 58.8287 278.837 511.445
400 0 60.0619 10.9887 660 60.1924 279.309 510.659
401 0 61.2178 9.22934 565 61.5628 279.129 512.701
402 0 63.0649 11.3851 718 59.4081 278.482 507.811
403 0 65.1282 11.7614 766 58.5183 279.291 508.602
404 0 68.0879 11.7936 803 58.1905 279.141 507.369
405 0 70.0594 10.1628 712 59.2149 278.989 509.893
406 0 73.0671 12.5775 919 56.7312 279.229 507.001
407 0 74.0596 11.0317 817 58.4639 279.111 503.676
408 0 78.0829 12.8837 1006 55.9036 278.937 500.345
409 0 81.0461 11.5983 940 57.866 279.187 499.393
410 0 83.0698 11.8575 985 57.2376 279.185 500.103
411 0 87.1326 13.3934 1167 55.5124 279.061 497.507
412 0 88.0734 12.0354 1060 57.316 279.336 497.007
413 1 47.0252 13.0143 612 55.1225 278.613 518.361
414 0 49.0866 11.3473 557 55.2657 278.903 521.483
415 0 52.0838 11.3663 592 56.4375 278.444 518.451
416 0 53.0548 12.44 660 55.7561 279.244 515.127
417 0 53.0845 11.3592 603 57.4378 279.02 514.436
418 0 54.0413 10.7325 580 58.5828 279.176 512.957
419 0 57.1116 10.2431 585 58.2342 279.692 511.207
420 0 60.06 12.5208 752 55.5253 279.302 512.549
421 0 61.0813 11.9022 727 56.6465 279.105 514.294
422 0 64.0714 12.1739 780 56.5449 278.963 511.273
423 0 66.0887 11.4846 759 57.1173 278.296 511.874
424 0 64.1232 11.6183 745 57.8376 278.217 509.961
425 0 65.1144 11.4107 743 58.14 278.509 506.664
426 0 68.1232 11.5086 784 57.3801 279.176 506.946
427 0 70.0979 12.1259 850 56.6753 278.749 507.216
428 0 74.1287 11.8847 881 56.4302 278.711 506.838
429 0 76.0957 11.8404 901 56.0089 279.465 506.932
430 0 78.0753 11.3736 888 57.5045 279.211 504.675
431 0 79.1223 12.2721 971 56.9876 279.612 503.158
432 0 82.0398 12.6646 1039 56.5313 279.174 501.214
433 0 84.0822 12.8208 1078 56.7217 278.744 500.279
434 1 45.1605 8.90159 402 56.7562 278.6 523.43
435 0 46.0543 11.0956 511 56.2622 278.528 520.358
436 0 47.0349 10.5666 497 57.004 279.463 519.702
437 0 50.0873 10.7812 540 56.7778 278.941 519.611
438 0 49.0847 9.7179 477 59.6436 278.914 517.621
439 0 52.0692 12.4642 649 55.5624 278.584 518.737
440 0 52.2548 10.8124 565 58.731 278.508 514.791
441 0 54.0158 10.6635 576 58.6146 279.217 515.677
442 0 57.0633 12.2671 700 56.2429 279.577 515.291
443 0 57.0772 12.0714 689 56.8099 278.83 512.659
444 0 59.1646 12.3385 730 56.4521 278.604 511.411
445 0 61.0656 11.3812 695 57.3439 278.915 512.483
446 0 65.1858 11.4596 747 56.7001 278.975 510.325
447 0 64.1447 9.36945 601 58.7587 279.295 512.672
448 0 66.0628 10.1267 669 58.151 279.386 509.402
449 0 67.193 11.4446 769 56.9454 279.494 509.181
450 0 71.0936 11.7029 832 56.732 278.472 504.899
451 0 73.1863 12.1061 886 56.7619 278.576 501.81
452 0 74.1663 10.4765 777 58.2909 279.049 505.465
453 0 78.2053 10.9583 857 57.5613 278.863 503.625
454 0 80.0952 11.8109 946 57.0899 278.611 501.919
455 0 82.1071 12.2401 1005 56.795 278.974 500.301
456 0 84.2198 11.4344 963 57.6563 278.535 496.141
457 0 88.0697 10.7074 943 58.6532 278.718 497.09
458 0 90.1449 12.1693 1097 57.0173 278.959 496.155
459 0 93.1837 11.9549 1114 57.2307 278.375 494.345
460 0 92.115 10.6389 980 59.1592 278.816 490.57
461 1 50.0863 10.3421 518 56.9768 279.519 518.548
462 0 50.0302 11.4731 574 57.0958 278.866 516.059
463 0 53.0803 11.5109 611 56.9656 278.673 514.836
464 0 55.1351 12.152 670 56.1358 278.03 513.421
465 0 55.0475 12.462 686 56.0306 278.146 514.469
466 0 57.0827 13.4367 767 54.9922 278.304 511.189
467 0 57.1083 11.7846 673 56.9584 279.055 513.452
468 0 59.0241 11.6054 685 57.0234 277.999 510.314
469 0 63.1658 12.4435 786 56.07 278.505 508.5
470 0 63.1952 11.6781 738 57.1829 278.625 508.755
471 0 66.0428 11.114 734 57.2766 278.756 509.271
472 0 66.0345 10.9488 723 58.491 278.553 504.632
473 0 68.0553 11.5347 785 57.665 279.217 503.832
474 0 71.0675 10.9755 780 58.6923 278.988 503.308
475 0 75.1526 11.4035 857 58.1914 278.26 501.961
476 0 77.1454 13.2218 1020 56.6029 278.589 502.152
477 0 77.0753 10.9893 847 59.5773 278.081 500.675
478 0 83.0819 12.8066 1064 57.6278 277.677 499.274
479 0 83.1244 11.1038 923 59.818 278.728 499.686
480 1 39.0437 8.47769 331 61.5257 278.118 518.505
481 0 43.0734 10.4241 449 58.1604 278.283 521.889
482 0 44.0296 13.4228 591 56.9289 278.506 519.208
483 0 45.0327 10.3036 464 60.2155 279.289 519.073
484 0 45.0201 12.1724 548 59.219 278.651 517.575
485 0 46.0354 10.1661 468 61.4017 278.932 517.442
486 0 47.0399 10.7994 508 61.3228 279.441 515.48
487 0 50.0209 11.0754 554 61.4043 278.859 514.955
488 0 51.034 10.4832 535 62.2393 278.357 514.908
489 0 52.1564 11.849 618 61.3592 278.413 513.906
490 0 55.0217 10.923 601 61.4742 278.158 516.945
491 0 56.1105 13.1883 740 60.0446 278.904 512.796
492 0 56.1036 11.3897 639 62.3271 278.343 511.693
493 0 59.1319 11.3306 670 62.209 277.843 512.166
494 0 61.0863 12.0158 734 62.1104 278.255 510.801
495 0 64.057 10.6936 685 63.2759 277.993 510.079
496 0 64.0651 9.61522 616 64.776 277.86 510.187
497 0 66.0719 11.2453 743 64.2423 278.883 506.324
498 0 71.0874 12.3088 875 63.1177 278.755 505.798
499 0 75.1468 12.1762 915 63.2907 278.2 506.74
500 0 78.0815 11.5008 898 63.8731 278.037 506.185
501 0 79.07 12.1664 962 64.1809 278.565 504.41
502 1 42.075 11.0517 465 63.0323 278.434 521.525
503 0 44.0465 13.236 583 59.5043 278.154 522.794
504 0 45.0298 10.482 472 63.8242 278.809 521.631
505 0 44.0252 10.5167 463 65.7322 278.371 517.911
506 0 49.1506 9.7659 480 65.0896 278.231 518.333
507 0 51.0536 12.6534 646 61.0619 278.486 518.229
508 0 50.0584 11.7063 586 63.5222 278.201 516.323
509 0 54.0404 12.4907 675 61.9526 277.747 515.653
510 0 51.0405 9.30633 475 65.9853 277.419 516.792
511 0 56.0383 11.7063 656 63.5976 278.037 513.591
512 0 58.0853 12.0512 700 62.74 277.791 515.537
513 0 58.0236 10.7542 624 64.5641 277.683 514.415
514 0 60.0394 12.142 729 63.5075 277.316 510.886
515 0 62.0533 10.2492 636 65.2563 278.325 512.259
516 0 66.0889 11.9082 787 63.2935 278.005 510.32
517 0 66.127 11.2511 744 63.7218 276.882 512.36
518 0 68.0298 12.8179 872 63.2362 277.789 507.819
519 0 71.1044 11.3073 804 64.842 277.45 508.483
520 0 73.1463 10.978 803 65.1818 277.113 508.193
521 0 75.1245 12.2863 923 63.5775 278.401 507.382
522 0 77.0839 12.1556 937 63.8143 277.785 506.165
523 0 82.1999 13.747 1130 62.3965 277.893 501.393
524 1 43.06 11.4027 491 64.5804 278.238 519.534
525 0 46.0573 11.5074 530 63.8925 278.091 519.143
526 0 47.0671 11.6217 547 63.596 277.523 518.759
527 0 49.0136 10.4053 510 65.3176 278.263 516.408
528 0 49.0802 9.90216 486 65.7284 278.475 518.193
529 0 52.0705 11.4844 598 63.8462 277.99 516.512
530 0 53.1011 11.8077 627 63.3876 278.069 516.187
531 0 56.1795 12.1219 681 62.9912 277.824 513.687
532 0 56.1731 10.3608 582 65.0172 277.337 512.656
533 0 57.0424 10.6587 608 64.6299 277.383 512.928
534 0 60.0859 10.7679 647 63.5487 277.784 511.334
535 0 62.1943 9.53463 593 64.4334 278.39 510.642
536 0 64.0894 12.9195 828 60.8043 278.38 509.291
537 0 65.15 10.5756 689 62.7591 277.856 509.074
538 0 68.2212 10.6272 725 62.6786 277.905 507.342
539 0 68.0647 10.1374 690 62.9087 277.693 507.326
540 0 72.0902 11.7492 847 61.3778 278.452 502.623
541 0 74.1056 9.60791 712 62.8596 278.028 506.292
542 0 76.192 11.4973 876 61.5925 278.38 503.3
543 0 80.1342 10.5074 842 62.1485 278.175 501.812
544 0 83.0617 10.1009 839 62.4934 278.278 501.499
545 1 43.0745 10.3309 445 61.5146 277.825 518.196
546 0 43.0371 10.7582 463 61.5594 277.715 518.596
547 0 46.026 11.3414 522 60.6015 278.404 517.956
548 0 48.0341 9.65981 464 62.3772 278.323 517.103
549 0 50.075 11.5427 578 60.1021 277.529 515.941
550 0 51.0305 10.4839 535 61.3383 277.237 515.531
551 0 52.0654 11.0054 573 61.1274 278.052 515.49
552 0 55.0669 9.98785 550 61.14 278.073 516.1
553 0 58.1224 12.9382 752 58.0785 277.992 511.89
554 0 60.1145 13.0085 782 58.4322 278.382 510.235
555 0 62.0812 11.2111 696 59.6911 277.708 511.902
556 0 62.0491 9.23463 573 62.5672 277.394 509.005
557 0 65.0625 9.82133 639 61.4945 277.826 509.117
558 0 68.0742 11.5903 789 59.616 277.582 506.8
559 0 70.0373 11.1655 782 60.1164 277.485 504.047
560 0 74.086 11.8106 875 59.416 277.552 505.358
561 0 73.0536 10.0748 736 61.8505 277.761 501.37
562 0 78.0966 9.12972 713 63.446 277.891 501.158
563 1 40.0434 9.66451 387 58.8837 277.013 523.78
564 0 38.0825 10.2934 392 59.7551 277.26 521.444
565 0 40.0856 11.1761 448 58.5938 276.938 522.009
566 0 42.0977 10.0006 421 61.2827 277.012 519.8
567 0 45.076 8.67425 391 62.4169 277.079 520.514
568 0 47.2605 10.093 477 60.8847 276.847 519.503
569 0 48.2537 10.9836 530 60.4792 277.243 517.204
570 0 51.1727 11.1583 571 59.394 277.757 518.371
571 0 51.2502 9.93166 509 61.7878 277.711 517.515
572 0 53.1394 11.0652 588 60.517 278.524 515.49
573 0 56.1322 10.3149 579 61.2867 277.684 514.703
574 0 56.134 12.2742 689 59.8215 278.129 512.329
575 0 61.1083 11.2587 688 60.6148 278.007 510.908
576 0 60.1624 10.0727 606 62.8548 277.896 510.866
577 0 60.1328 9.2961 559 63.4741 278.596 510.758
578 0 67.1188 12.4555 836 58.9019 278.647 511.783
579 0 66.0672 10.5347 696 62.0445 278.784 510.878
580 0 71.1594 12.8866 917 59.6281 279.979 509.756
581 0 70.0975 12.6538 887 60.708 279.691 508.595
582 0 71.1114 11.8125 840 61.9321 279.844 505.154
583 0 73.1255 11.1179 813 62.6175 279.246 504.383
584 1 42.1 10 421 62.9881 278.767 520.425
585 0 42.1181 10.3044 434 64.477 278.194 519.228
586 0 46.1917 11.7553 543 61.4991 278.234 520.812
587 0 47.0772 13.4885 635 60.4189 278.266 519.729
588 0 47.0525 10.8815 512 64.209 277.74 518.238
589 0 48.1634 12.8729 620 62.3532 278.235 517.774
590 0 49.154 12.0438 592 63.2331 277.647 519.069
591 0 52.133 12.1804 635 63.1244 278.085 517.813
592 0 55.1002 12.1597 670 62.497 278.23 518.61
593 0 56.1003 11.2655 632 64.8687 277.802 515.419
594 0 58.1461 12.0386 700 64.57 277.656 514.953
595 0 59.1069 12.8242 758 63.9578 277.619 514.54
596 0 60.1262 13.0226 783 64.4036 278.405 514.324
597 0 62.0656 12.1807 756 65.0899 278.148 513.093
598 0 65.0923 13.4117 873 63.5475 278.582 510.774
599 0 65.1084 11.8571 772 65.9262 278.149 511.17
600 0 69.0448 13.8895 959 62.9145 278.786 507.8
601 0 71.0713 13.7327 976 63.0686 278.462 508.458
602 0 72.1193 11.8415 854 66.2342 278.775 508.347
603 0 73.1579 11.4273 836 66.6089 278.868 506.019
604 0 77.0815 11.7927 909 65.308 278.488 507.553
605 0 79.115 12.6525 1001 64.8322 279.44 503.731
606 0 83.1383 15.2036 1264 60.8718 279.254 504.292
607 0 83.1637 12.9023 1073 64.767 279.426 498.696
608 0 84.0816 12.7852 1075 64.773 279.213 498.77
609 1 43.0967 11.0449 476 66.6786 278.897 519.202
610 0 43.1408 11.335 489 67.2393 278.513 518.031
611 0 44.0735 10.0287 442 69.1335 279.052 515.69
612 0 47.0383 11.4162 537 65.9851 279.216 515.298
613 0 46.0166 11.5828 533 67.0807 278.844 512.824
614 0 49.0747 11.7983 579 66.5009 279.221 513.23
615 0 49.0527 11.3959 559 67.5742 278.531 512.773
616 0 51.054 13.2801 678 64.851 279.364 510.358
617 0 54.0773 12.3897 670 65.9627 279.091 509.897
618 0 58.046 11.9733 695 64.9842 279.129 512.429
619 0 58.0661 13.2435 769 64.4135 279.148 509.633
620 0 59.1067 11.8937 703 66.2105 279.139 507.718
621 0 61.1308 13.8228 845 63.2639 278.925 508.554
622 0 62.076 11.9853 744 66.5349 278.953 506.039
623 0 65.0767 12.0473 784 66.2385 278.819 504.918
624 0 67.2064 12.469 838 66.0406 279.109 503.523
625 0 68.1138 12.7727 870 65.9322 279.232 503.57
626 0 71.0541 13.1027 931 64.6488 278.786 506.02
627 0 73.079 13.7386 1004 64.5876 277.7 504.049
628 0 76.0835 13.2749 1010 64.9703 278.435 499.901
629 0 79.1345 12.2955 973 66.3165 279.107 502.406
630 0 82.0739 13.0492 1071 65.6723 278.955 499.82
631 0 83.1504 12.6037 1048 66.645 278.804 497.866
632 0 86.1794 12.2303 1054 67.1404 278.897 499.409
633 0 90.0793 13.2106 1190 66.1496 279.033 497.185
634 1 49.0723 10.1483 498 70.0361 278.333 515.767
635 0 51.0681 13.433 686 65.1414 279.067 516.017
636 0 53.1842 13.1994 702 66.3989 279.672 513.595
637 0 55.1025 12.6854 699 67.1016 279.293 512.674
638 0 57.0328 12.8347 732 66.1926 279.061 513.145
639 0 59.0571 12.2763 725 67.1366 278.788 512.874
640 0 60.0656 13.0191 782 66.5486 279.096 510.257
641 0 61.0458 12.0401 735 67.9837 279.418 509.824
642 0 63.1317 12.0067 758 68.1544 279.372 507.689
643 0 67.0622 13.1371 881 65.6981 278.331 508.04
644 0 68.0486 12.3588 841 67.2414 278.178 506.227
645 0 70.0403 12.8498 900 66.8933 279.756 502.442
646 0 73.1147 13.2805 971 66.344 278.935 499.394
647 0 77.1023 13.5534 1045 64.8727 279.475 502.596
648 0 79.184 12.6036 998 65.7735 278.821 502.546
649 0 84.1783 13.5189 1138 64.6696 278.621 498.895
650 0 86.2087 14.0589 1212 63.8787 279.199 496.504
651 0 87.1048 13.2484 1154 65.4289 279.611 494.642
652 0 89.1348 12.3745 1103 66.8948 279.311 493.31
653 0 92.2152 12.4058 1144 66.7937 279.267 492.672
654 1 48.2179 10.1829 491 67.4745 279.34 514.273
655 0 52.2165 13.0993 684 65.1667 279.212 511.531
656 0 54.1497 13.0749 708 65.4477 280.261 512.222
657 0 53.168 11.5671 615 69.0244 279.654 509.276
658 0 56.1044 11.746 659 68.651 279.261 508.091
659 0 59.1748 13.0461 772 65.5298 279.402 509.054
660 0 61.1315 13.7409 840 65.3762 279.817 506.313
661 0 64.3742 12.971 835 65.0874 279.466 509.111
662 0 64.0341 11.7594 753 67.6826 279.382 506.197
663 0 67.2644 13.9301 937 64.9616 279.857 504.855
664 0 69.2508 13.2417 917 65.5747 279.224 504.356
665 0 70.1677 14.0093 983 64.6124 279.46 505.29
666 0 72.0257 13.037 939 66.6624 279.695 502.772
667 0 73.1402 12.2368 895 67.6335 280.028 501.653
668 0 74.2351 13.2282 982 66.3259 279.901 500.021
669 0 81.1693 13.5273 1098 65.0164 279.072 501.016
670 0 82.1033 14.4574 1187 64.0632 279.497 499.167
671 0 83.1573 14.3704 1195 64.0778 280.586 497.115
672 0 86.0986 13.171 1134 65.7275 280.352 495.414
673 0 88.14 13.2403 1167 65.9443 279.601 496.866
674 0 90.12 13.249 1194 66.0168 278.891 491.537
675 0 94.1983 14.4907 1365 64.296 279.338 494.262
676 0 98.1876 13.2705 1303 65.4658 279.856 492.929
677 0 100.087 12.3592 1237 66.7842 280.191 492.819
678 0 102.184 13.7399 1404 65.5826 279.709 488.37
679 0 105.223 13.039 1372 66.3528 279.119 488.406
680 0 110.173 13.2518 1460 65.7329 279.885 485.622
681 0 111.18 13.2577 1474 66.1771 280.356 484.624
682 0 118.099 13.929 1645 64.6182 280.052 482.716
683 0 120.184 12.2146 1468 67.1914 279.391 478.283
684 0 125.132 14.0332 1756 64.5313 280.247 478.06
685 0 127.11 13.7361 1746 64.8173 279.377 477.233
686 0 131.217 13.0167 1708 66.1311 279.992 473.91
687 0 134.295 12.5991 1692 66.2258 279.506 476.485
688 1 71.0776 9.32783 663 67.6817 279.609 506.309
689 0 76.1003 12.155 925 63.8908 279.991 503.596
690 0 77.1497 10.3954 802 65.1247 280.527 505.443
691 0 80.1252 10.2714 823 64.2892 280.713 503.402
692 0 82.1854 10.4641 860 64.7488 279.93 498.852
693 0 85.2495 12.3637 1054 61.8795 279.547 499.764
694 0 88.2309 11.1186 981 62.5912 279.564 499.071
695 0 90.091 11.9657 1078 62.6623 279.445 492.802
696 0 96.1114 13.7549 1322 59.7799 279.208 492.693
697 0 98.1593 10.4626 1027 62.6232 279.547 495.701
698 1 49.0866 9.8805 485 62.3216 279.625 516.68
699 0 53.1122 12.8219 681 59.2467 279.794 513.097
700 0 55.0697 10.8227 596 61.1711 280.656 513.549
701 0 57.1371 11.0436 631 60.7781 279.83 513.461
702 0 57.0479 11.6218 663 60.4842 279.719 509.846
703 0 58.0645 10.6778 620 62.0758 279.8 508.918
704 0 62.1109 11.2541 699 61.2847 279.579 505.619
705 0 62.0876 10.5818 657 62.2922 279.782 507.682
706 0 65.153 10.176 663 61.6833 279.807 507.036
707 0 68.028 11.9216 811 60.1739 279.446 505.535
708 0 69.1341 12.1503 840 59.7202 279.379 503.594
709 0 73.0765 11.5358 843 60.1554 279.573 503.947
710 0 75.0733 11.7752 884 60.2387 279.321 503.794
711 0 77.0732 11.8329 912 60.7719 279.432 501.683
712 0 80.0501 11.4553 917 60.8833 279.924 498.812
713 0 81.0398 11.1674 905 61.5105 279.74 498.715
714 0 86.0638 11.1313 958 61.2902 279.311 499.638
715 0 90.0499 13.2482 1193 58.6773 279.921 497.961
716 1 49.0581 11.7616 577 59.1282 279.499 517.042
717 0 50.0271 10.7342 537 60.4339 279.933 515.628
718 0 53.0554 10.5927 562 60.2011 280.194 517.162
719 0 52.0286 12.6277 657 58.7626 280.72 516.825
720 0 56.0593 11.8446 664 59.5843 279.932 514.05
721 0 57.0582 12.3383 704 59.0426 279.636 513.841
722 0 59.0713 12.6457 747 58.9317 279.772 510.546
723 0 58.0777 11.4674 666 60.8108 279.402 511.565
724 0 61.0831 12.7859 781 59.1408 279.443 509.018
725 0 64.0785 10.5808 678 61.0339 279.674 510.406
726 0 66.083 11.9547 790 59.7114 280.139 507.573
727 0 65.1463 12.7406 830 59.6157 279.877 506.943
728 0 69.0448 13.3971 925 58.6519 279.883 503.805
729 0 70.2051 11.0106 773 61.2652 279.454 505.845
730 0 71.2094 11.3609 809 61.063 278.676 505.241
731 0 75.166 12.1597 914 59.9551 279.565 499.63
732 0 77.0659 13.5339 1043 58.6942 280.022 504.865
733 0 81.0784 12.7901 1037 59.0993 279.009 501.797
734 0 81.1745 11.6416 945 60.2349 278.707 502.528
735 0 84.1453 12.0625 1015 59.9665 279.544 498.969
736 0 87.1592 13.5729 1183 57.9637 279.733 498.611
737 0 90.0712 11.2134 1010 60.5713 279.447 499.734
738 1 46.0572 10.7692 496 61.7863 279.508 517.026
739 0 52.0229 12.2254 636 59.5739 279.445 515.755
740 0 53.1122 12.596 669 59.1734 280.039 515.347
741 0 56.1272 11.8481 665 60.2707 279.365 514.878
742 0 55.0611 12.2409 674 60.4852 279.565 512.613
743 0 58.059 12.7457 740 59.327 279.046 513.741
744 0 58.1447 12.0217 699 60.7268 279.163 511.785
745 0 59.0793 10.0204 592 63.1284 278.554 510.688
746 0 65.0805 12.9378 842 58.7411 278.937 510.627
747 0 65.0781 10.3875 676 61.929 279.229 511.288
748 0 66.1448 11.9133 788 60.3947 279.549 507.596
749 0 69.0689 12.8712 889 59.0619 279.295 508.127
750 0 70.0964 12.7681 895 59.6156 278.792 505.314
751 0 71.1041 12.995 924 59.0887 279.043 505.816
752 0 74.2778 11.834 879 60.6143 278.631 503.371
753 0 76.0695 12.3571 940 60.1479 279.127 499.119
754 0 79.1314 12.713 1006 59.4871 279.649 500.504
755 0 82.0936 12.7659 1048 58.9132 279.597 502.558
756 0 84.1438 11.5517 972 60.4763 279.267 499.474
757 0 87.0397 13.4536 1171 58.4902 279.375 498.887
758 0 91.1776 12.2179 1114 59.8465 279.434 494.582
759 0 92.0703 13.1204 1208 58.0488 278.942 499.286
760 1 50.078 11.4621 574 60.7857 278.707 515.3
761 0 52.0853 11.4236 595 60.2521 279.271 515.533
762 0 53.0517 11.7056 621 60.4976 278.238 514.069
763 0 59.0923 12.6243 746 57.5992 279.151 515.635
764 0 60.0505 14.621 878 56.6982 278.532 513.057
765 0 63.0815 13.1893 832 58.0252 278.888 511.233
766 0 61.1059 13.4684 823 58.0279 279.241 511.762
767 0 63.0347 11.4381 721 60.2191 278.617 509.487
768 0 66.0728 12.4257 821 59.0597 278.883 509.28
769 0 67.0396 13.3652 896 58.0636 278.763 506.333
770 0 71.0715 12.7899 909 58.5578 278.376 506.047
771 0 74.1546 12.1907 904 59.1604 278.558 506.951
772 0 78.2106 14.1924 1110 56.7649 279.721 505.394
773 0 78.0616 12.1443 948 60.0454 278.659 502.355
774 0 80.0656 12.5897 1008 59.5942 278.706 500.419
775 0 84.2782 13.4317 1132 57.8339 278.542 505.458
776 0 86.1824 12.9841 1119 59.513 278.637 496.954
777 0 89.0937 13.0312 1161 58.7339 278.625 502.947
778 0 89.1288 11.6573 1039 61.5659 279.639 496.486
779 0 92.3022 12.6758 1170 60.412 279.248 497.606
780 0 98.1572 13.9063 1365 59.1055 279.514 494.33
781 0 100.16 12.7396 1276 60.5039 278.884 492.463
782 1 48.0441 11.989 576 60.3247 278.882 515.507
783 0 51.0218 11.7401 599 59.813 279.112 517.068
784 0 53.0531 11.1209 590 60.7407 278.973 516.097
785 0 54.0908 11.6841 632 59.7294 279.848 514.563
786 0 53.053 12.1388 644 59.5963 279.339 515.635
787 0 57.0666 10.5666 603 60.6219 278.793 512.297
788 0 61.3828 11.4527 703 59.6102 278.563 509.959
789 0 61.0893 12.1298 741 58.9892 278.459 511.136
790 0 62.0981 11.192 695 59.6115 277.84 508.006
791 0 59.1196 9.38775 555 61.9856 277.953 506.968
792 0 65.0543 14.1728 922 56.2972 278.774 504.275
793 0 68.0648 12.9289 880 57.4955 279.285 508.17
794 0 69.1026 11.302 781 58.6364 279.242 506.735
795 0 74.1539 11.7863 874 58.2128 278.995 503.133
796 0 77.2109 12.6278 975 57.2585 279.355 502.021
797 0 80.1231 11.8318 948 58.1382 278.943 500.571
798 0 81.1685 12.6897 1030 57.3699 278.835 496.946
799 0 84.0499 12.4807 1049 57.877 278.864 496.332
800 1 45.0512 11.8976 536 56.8004 279.118 518.457
801 0 45.0497 11.9646 539 57.0427 279.532 516.692
802 0 50.1501 13.6789 686 54.2551 278.724 517.429
803 0 49.0913 10.287 505 58.5703 278.952 517.889
804 0 50.0958 11.2983 566 57.6272 279.443 515.41
805 0 53.1752 11.4715 610 57.5541 278.69 514.692
806 0 53.0914 10.1711 540 58.7185 278.47 514.659
807 0 56.0791 10.931 613 58.367 278.587 513.436
808 0 54.0853 13.4232 726 56.6281 278.686 511.401
809 0 58.0604 10.5235 611 59.1211 278.624 513.054
810 0 58.166 10.5388 613 59.2121 278.998 512.873
811 0 63.2132 12.4499 787 57.1118 278.714 509.518
812 0 65.1191 12.7766 832 56.47 278.712 511.742
813 0 66.1606 12.6813 839 57.3278 279.542 507.072
814 0 67.1091 11.9954 805 58.6472 279.62 507.906
815 0 71.2851 12.457 888 57.7815 278.947 508.949
816 0 74.1595 12.3518 916 58.5961 278.893 505.991
817 0 77.1516 11.2895 871 59.6923 279.299 504.982
818 0 78.2851 11.9818 938 59.4041 279.296 503.131
819 0 82.2578 11.4883 945 60.019 278.836 502.586
820 0 84.1895 11.3553 956 60.7636 278.827 499.362
821 0 86.1244 12.2613 1056 59.0644 278.902 503.937
822 1 47.3113 11.2024 530 59.3453 278.374 519.583
823 0 48.1584 12.625 608 58.0724 278.4 519.492
824 0 50.1858 12.0951 607 58.5898 278.723 518.791
825 0 53.337 12.2804 655 58.5618 279.105 516.754
826 0 56.2608 12.1221 682 58.0865 278.843 516.713
827 0 55.0931 11.2355 619 59.8239 278.679 515.074
828 0 56.0585 11.6307 652 60.2347 278.836 515.857
829 0 57.1242 12.0614 689 59.1045 278.763 516.148
830 0 62.1893 11.3364 705 59.7121 279.343 512.211
831 0 64.1789 11.1719 717 59.7657 277.861 514.259
832 0 62.1573 10.1838 633 61.6888 278.254 510.562
833 0 66.2398 11.4282 757 60.041 278.975 509.507
834 0 69.1766 10.8852 753 60.2098 278.988 509.586
835 0 71.2673 11.9971 855 59.8222 278.17 507.794
836 0 71.248 10.9056 777 61.0644 278.064 507.045
837 0 76.1995 12.4148 946 59.0106 278.805 504.104
838 0 81.26 11.8262 961 58.7877 278.327 505.363
839 1 38.0685 8.06441 307 62.6352 278.049 522.127
840 0 40.0309 9.74248 390 61.6769 278.056 521.887
841 0 47.2033 9.97811 471 60.1189 277.994 521.193
842 0 44.0998 11.5873 511 59.3288 278.321 521.16
843 0 49.1645 12.1022 595 57.7479 278.393 520.277
844 0 46.1555 8.88301 410 62.122 278.598 518.78
845 0 49.0841 10.6144 521 59.6814 278.701 518.722
846 0 51.1315 11.6562 596 58.807 278.362 517.116
847 0 51.1708 12.8589 658 58.1018 278.796 514.871
848 0 53.1254 9.82582 522 60.6188 278.726 513.609
849 0 57.1546 10.4454 597 58.7705 278.384 513.802
850 0 59.2918 12.4975 741 57.1107 278.146 512.9
851 0 60.2147 11.9406 719 56.8693 278.725 513.14
852 0 60.2289 11.1906 674 58.2656 279.01 510.645
853 0 64.3092 12.611 811 56.4501 278.697 510.713
854 0 64.1107 12.572 806 56.8151 278.739 509.694
855 0 70.221 12.3467 867 56.2526 278.386 506.4
856 0 66.172 12.6791 839 56.646 278.161 508.499
857 0 68.1281 10.8619 740 58.6784 278.201 505.419
858 0 73.2358 11.5244 844 57.3637 277.924 504.904
859 0 74.2116 11.8445 879 57.2935 277.989 504.274
860 0 76.2519 10.5571 805 60.0261 278.386 504.149
861 0 78.2608 10.005 783 60.4138 278.098 505.428
862 0 78.1736 9.41495 736 61.2269 278.613 505.717
863 0 86.2718 12.9243 1115 57.087 278.303 504.4
864 0 87.1551 11.164 973 59.2045 279.087 501.122
865 0 90.2669 11.3109 1021 58.9158 278.406 502.445
866 0 94.2 11.879 1119 58.7167 278.369 498.742
867 1 47.2862 12.4561 589 58.5178 278.221 521.623
868 0 48.2326 10.3042 497 60.7928 279.123 522.282
869 0 50.1983 13.4865 677 58.2836 277.956 517.888
870 0 55.2163 12.3333 681 58.2775 278.636 519.236
871 0 54.259 11.869 644 59.6134 278.255 516.126
872 0 54.3248 11.5233 626 60.1901 278.216 515.364
873 0 58.3419 11.2441 656 59.907 278.3 515.678
874 0 58.1728 13.3568 777 58.0476 277.828 517.188
875 0 60.0854 13.4642 809 58.0099 278.163 514.86
876 0 64.384 11.8974 766 59.4321 277.89 514.094
877 0 64.2701 12.074 776 58.8918 277.517 514.68
878 0 65.3132 10.9472 715 60.2629 277.064 510.566
879 0 67.2928 11.1305 749 59.9466 277.179 512.224
880 0 70.1914 11.5541 811 59.8841 277.557 507.554
881 0 74.2951 12.3023 914 58.9858 277.632 505.689
882 0 75.2722 12.209 919 58.84 278.244 508.664
883 0 79.1672 11.7599 931 59.9817 278.039 505.635
884 1 37.1671 10.1165 376 62.7287 277.665 522.503
885 0 39.2036 10.5092 412 61.8859 278.738 523.456
886 0 42.1631 11.3369 478 61.205 277.569 523.069
887 0 39.1607 10.2143 400 63.625 277.7 523.165
888 0 42.1707 11.074 467 62.4497 277.912 522.764
889 0 45.1197 14.0072 632 58.5063 278.078 523.092
890 0 49.1913 11.0792 545 61.2789 278.477 522.198
891 0 49.0896 12.5892 618 60.0437 278.605 521.197
892 0 49.2362 12.4299 612 60.549 278.69 518.569
893 0 53.1644 12.0005 638 60.8715 278.632 516.933
894 0 53.2169 12.9282 688 60.2805 278.429 516.67
895 0 57.1668 14.0816 805 58.5441 278.322 516.872
896 0 59.0878 13.8269 817 59.0416 278.639 517.272
897 0 61.2917 13.7539 843 59.3464 278.331 516.593
898 0 63.1134 14.5294 917 59.1832 278.901 514.363
899 0 65.271 12.134 792 62.1957 278.609 512.955
900 0 68.178 16.6623 1136 56.9111 279.251 514.516
901 0 71.2361 13.9676 995 59.9769 278.762 512.389
902 0 68.2055 12.3011 839 63.2634 278.1 510.827
903 0 72.1778 12.5939 909 62.3388 278.132 511.855
904 0 76.2174 12.2282 932 63.117 278.531 509.302
905 0 78.2389 13.1904 1032 62.0165 278.211 510.554
906 0 82.2358 13.1208 1079 62.3244 278.401 507.532
907 0 80.2487 11.9503 959 64.5756 277.721 502.759
908 0 85.3423 15.1625 1294 60.6909 278.942 503.99
909 0 87.244 13.6514 1191 62.5097 279.403 504.094
910 1 49.1382 13.5333 665 62.4 279.179 520.959
911 0 50.1986 13.4665 676 62.6228 279.892 522.083
912 0 49.1703 10.5145 517 66.8221 279.074 519.841
913 0 53.1729 14.9324 794 60.8463 279.072 519.134
914 0 55.2337 11.0078 608 64.8931 278.785 517.003
915 0 59.2438 12.9296 766 62.0509 277.826 518.399
916 0 58.1192 14.7455 857 60.6604 278.544 515.954
917 0 60.1316 12.5392 754 62.8355 278.592 515.37
918 0 61.129 13.3161 814 62.2727 278.009 513.005
919 0 65.1033 14.1621 922 60.4729 278.384 515.875
920 0 65.2154 11.8837 775 63.5432 277.992 515.146
921 0 69.4019 13.1553 913 61.7108 278.292 513.542
922 0 71.2779 12.0514 859 62.6601 278.085 512.879
923 0 73.1726 12.6687 927 62.4682 277.63 511.533
924 0 75.2563 15.321 1153 59.6739 278.174 510.887
925 0 75.1872 13.34 1003 62.2134 277.893 509.161
926 0 79.1251 13.6114 1077 61.7883 277.999 508.272
927 0 81.2685 15.0858 1226 60.6476 277.518 505.048
928 0 83.1526 13.0844 1088 62.9697 277.87 506.184
929 1 39.0959 11.4334 447 64.7562 278.311 524.523
930 0 40.084 12.2992 493 63.4828 278.564 525.779
931 0 43.1122 12.1079 522 64.659 278.318 522.579
932 0 45.0424 12.2551 552 64.7464 278.038 522.321
933 0 48.1519 13.9558 672 62.9851 278.074 520.557
934 0 48.1328 12.3409 594 64.9697 278.87 519.449
935 0 48.0661 14.0224 674 63.6291 278.709 516.973
936 0 49.0753 13.897 682 63.8534 278.619 516.163
937 0 50.0776 12.0413 603 66.5456 278.9 514.905
938 0 51.0804 11.2763 576 66.9844 278.655 513.628
939 0 53.0447 12.1596 645 66.0357 278.033 516.921
940 0 56.073 14.9091 836 62.8385 277.459 513.568
941 0 56.0953 12.5501 704 65.598 278.243 510.604
942 0 60.0641 12.0205 722 65.9363 279.159 514.402
943 0 62.0889 14.5598 904 63.5973 278.503 510.325
944 0 61.1129 12.4524 761 66.6386 277.913 508.414
945 0 68.0781 13.7342 935 63.8075 279.601 510.167
946 0 69.1048 13.617 941 64.6302 279.294 507.9
947 0 73.1216 13.6895 1001 64.2288 278.937 508.994
948 0 73.1012 12.1065 885 66.4497 278.595 507.962
949 0 76.1301 12.7676 972 66.2942 279.118 502.476
950 0 81.239 12.4571 1012 66.1235 279.262 504.2
951 0 83.1626 13.2271 1100 65.7973 278.803 502.222
952 0 85.1411 13.5657 1155 64.8952 279.068 501.637
953 0 89.1833 14.644 1306 63.7649 279.143 501.032
954 0 91.1307 14.4518 1317 63.9286 278.923 500.607
955 0 94.1234 14.4704 1362 64.6747 277.725 496.617
956 0 96.227 13.5513 1304 65.411 278.551 496.594
957 0 99.3209 13.5017 1341 65.3743 278.964 495.529
958 0 101.25 13.6889 1386 65.4278 278.595 494.154
959 0 105.115 11.5207 1211 67.2568 278.732 495.685
960 1 58.0503 12.4375 722 66.9903 278.612 514.244
961 0 61.0632 14.8698 908 64.3623 278.717 513.498
962 0 61.0766 13.8351 845 65.9621 278.806 512.218
963 0 65.0869 11.8764 773 67.718 278.4 512.873
964 0 67.1579 14.1904 953 65.0262 278.407 510.449
965 0 69.0826 12.8542 888 66.8119 278.357 508.287
966 0 68.1371 12.1666 829 68.3016 278.829 507.563
967 0 74.2613 11.877 882 67.8878 278.288 507.989
968 0 75.0571 13.8961 1043 65.9482 278.87 506.85
969 0 79.1398 12.2062 966 67.5621 279.05 505.781
970 0 83.2256 13.3493 1111 65.8416 278.976 506.304
971 0 82.1877 13.8098 1135 66.0335 279.354 504.06
972 0 86.0871 11.8601 1021 68.8962 279.414 500.348
973 0 88.0693 12.8649 1133 67.9806 279.632 499.355
974 0 93.1392 12.1216 1129 68.4358 279.363 499.385
975 0 94.1751 12.4874 1176 68.7177 279.021 496.843
976 1 50.1436 12.7633 640 68.2094 279.3 518.931
977 0 53.1368 12.0632 641 68.5835 278.969 518.443
978 0 52.1074 13.2419 690 68.5072 279.168 517.099
979 0 53.1514 12.6243 671 69.8152 278.428 515.875
980 0 54.063 14.0207 758 69.1319 278.314 513.364
981 0 58.1203 15.1066 878 67.8007 279.006 513.501
982 0 59.0514 14.1572 836 69.2703 279.19 512.956
983 0 63.1604 14.2178 898 68.284 279.111 514.689
984 0 62.0447 13.0067 807 71.1636 279.518 512.912
985 0 67.1481 13.9542 937 69.8911 279.383 510.336
986 0 66.1034 12.904 853 72.0129 279.1 511.11
987 0 68.1409 12.298 838 73.463 279.137 509.816
988 0 73.2075 15.7224 1151 68.4431 279.356 508.323
989 0 74.0865 13.5112 1001 72.1838 279.126 506.918
990 0 76.1598 12.3819 943 73.7381 279.151 507.637
991 0 81.1002 13.0579 1059 72.9037 279.364 506.136
992 0 82.1301 13.576 1115 73.3265 279.796 504.384
993 0 87.1517 14.7903 1289 71.8029 278.957 503.933
994 0 88.2657 13.6293 1203 73.6392 279.123 501.963
995 0 88.0319 13.5633 1194 75.1441 279.493 497.862
996 1 48.0866 15.0354 723 72.5712 279.846 520.884
997 0 48.0738 12.6264 607 76.3526 279.171 520.675
998 0 51.1075 14.0879 720 74.6111 278.897 520.431
999 0 52.14 14.2501 743 74.3688 279.238 520.899
1000 0 53.112 12.8784 684 76.5848 278.772 519.054
1001 0 55.0939 13.5042 744 75.8441 279.513 518.024
1002 0 57.3253 14.252 817 74.1114 279.474 518.173
1003 0 58.1075 13.6643 794 75.6952 279.086 517.504
1004 0 60.2603 15.1841 915 73.3858 279.179 517.693
1005 0 62.1008 12.9789 806 76.5372 278.867 517.367
1006 0 64.1187 14.2236 912 75.2029 278.786 515.782
1007 0 67.2662 14.2568 959 75.561 278.938 514.327
1008 0 70.0949 14.0952 988 75.0283 278.412 513.575
1009 0 72.0867 15.3704 1108 73.7771 278.822 512.896
1010 0 76.182 14.6491 1116 74.3737 278.813 511.805
1011 0 77.3638 14.1668 1096 75.6049 279.199 511.769
1012 0 78.1413 13.8083 1079 76.9518 278.703 509.538
1013 0 79.1783 14.019 1110 77.2189 278.411 507.714
1014 0 81.2249 12.6931 1031 79.6557 278.014 506.273
1015 0 87.1595 15.3282 1336 74.485 277.991 507.543
1016 1 49.3112 13.4858 665 76.0947 278.457 524.997
1017 0 50.2458 12.4985 628 77.8631 277.984 523
1018 0 51.0921 13.7595 703 75.9587 278.55 522.853
1019 0 53.1568 13.2062 702 76.4459 278.316 522.272
1020 0 53.224 13.772 733 76.7735 278.224 521.855
1021 0 56.295 13.5181 761 76.2365 277.555 520.252
1022 0 58.2866 12.4728 727 78.5007 277.831 519.843
1023 0 57.212 13.0917 749 78.7891 278.059 516.423
1024 0 62.3032 13.1614 820 77.3561 278.017 517.596
1025 0 63.2487 13.6604 864 76.588 278.154 514.808
1026 0 67.1273 12.886 865 76.8058 277.509 516.662
1027 0 68.1176 13.3593 910 77.0648 277.396 514.121
1028 0 68.3631 12.7993 875 78.088 277.833 513.601
1029 0 74.3603 13.8649 1031 75.4433 277.76 512.016
1030 0 76.1011 12.5754 957 77.6865 277.979 510.611
1031 0 79.2931 13.2798 1053 76.4653 277.563 511.195
1032 0 80.2888 12.318 989 78.088 277.641 510.311
1033 0 84.3876 13.8765 1171 75.4594 277.927 509.064
1034 0 84.2453 12.9622 1092 77.9634 277.947 506.103
1035 1 44.2523 12.2705 543 77.5267 277.952 526.786
1036 0 46.4932 11.9372 555 77.5802 277.535 525.492
1037 0 45.168 12.5753 568 77.4877 277.558 524.452
1038 0 51.3391 14.1413 726 72.9559 276.762 523.186
1039 0 51.1592 12.8423 657 76.2542 277.094 521.154
1040 0 53.1847 12.7104 676 76.0192 277.346 520.512
1041 0 55.3619 12.6621 701 75.485 277.508 518.243
1042 0 56.208 13.6102 765 73.9765 277.553 519.835
1043 0 58.0821 12.7922 743 74.7766 277.673 520.821
1044 0 61.2983 12.692 778 74.1157 277.438 519.776
1045 0 65.2788 14.3385 936 70.844 276.784 517.897
1046 0 67.2731 13.7796 927 71.5264 276.661 516.907
1047 0 66.1234 13.3085 880 72.4955 276.943 515.734
1048 0 69.3276 14.1214 979 70.811 277.154 514.842
1049 0 73.1574 13.3138 974 71.3604 277.19 513.456
1050 0 76.3661 13.3436 1019 71.5289 277.203 512.207
1051 0 78.2608 12.9311 1012 72.3538 277.149 511.019
1052 0 79.2358 12.7594 1011 72.2522 276.921 510.139
1053 0 85.1719 13.9248 1186 70.3263 276.233 508.642
1054 0 87.3239 15.494 1353 68.3873 277.207 507.649
1055 0 85.1579 13.3164 1134 72.7169 277.199 502.563
1056 1 46.2709 12.6213 584 71.3408 277.221 525.079
1057 0 49.3662 12.5389 619 71.0452 276.918 525.166
1058 0 48.1789 13.4914 650 70.66 276.922 524.068
1059 0 50.3107 13.5955 684 69.7442 276.645 523.469
1060 0 52.2107 12.6985 663 71.3514 276.932 520.854
1061 0 52.2287 12.9431 676 70.6124 277.132 523.075
1062 0 54.2388 13.4959 732 70.6913 277.224 520.426
1063 0 53.1694 13.4852 717 71.0642 277.547 520.527
1064 0 56.1833 13.011 731 70.8974 277.614 518.859
1065 0 57.2541 11.9118 682 72.4003 277.375 518.63
1066 0 60.1267 11.5423 694 72.4784 277.382 517.32
1067 0 64.398 13.2147 851 68.5734 277.018 518.391
1068 0 64.1761 12.6838 814 69.7224 276.598 516.459
1069 0 67.3545 13.08 881 69.3712 276.587 512.402
1070 0 68.1726 12.4537 849 70.3852 278.062 513.121
1071 0 71.3113 11.7934 841 70.9976 277.946 512.873
1072 0 73.2347 13.7366 1006 68.829 277.684 509.559
1073 0 77.2899 11.7221 906 70.6115 277.354 509.334
1074 0 76.2366 11.1495 850 71.9471 277.752 508.622
1075 0 81.1615 14.7114 1194 66.8057 277.559 506.694
1076 0 86.2057 12.5978 1086 68.6924 278.005 506.375
1077 1 44.193 12.5359 554 68.5469 278.029 523.791
1078 0 48.3187 11.6932 565 68.0071 277.676 525.839
1079 0 49.0762 11.7572 577 68.6603 278.023 523.355
1080 0 48.0718 12.8558 618 68.4806 277.84 522.497
1081 0 50.038 14.1492 708 66.6737 277.979 521.274
1082 0 51.168 13.1723 674 67.681 278.058 520.453
1083 0 54.1592 12.2971 666 68.0601 277.98 519.656
1084 0 57.1112 13.8677 792 65.1932 277.619 519.242
1085 0 62.2235 15.0586 937 62.9819 277.494 520.253
1086 0 63.1993 13.5761 858 65.1853 277.434 515.46
1087 0 66.0578 13.0946 865 65.7121 278.342 515.637
1088 0 68.0422 14.4469 983 63.6806 278.061 514.805
1089 0 70.1112 12.6656 888 66.0574 277.475 514.262
1090 0 71.0824 14.6168 1039 63.9759 278.171 511.671
1091 0 72.0618 11.9758 863 67.7358 278.109 511.167
1092 0 77.1599 12.338 952 66.5609 278.338 510.484
1093 0 80.0974 14.6072 1170 63.5256 277.562 507.956
1094 1 42.0892 13.2813 559 64.6852 277.723 525.809
1095 0 42.1043 11.2578 474 67.7553 279.025 524.365
1096 0 46.0937 14.9044 687 62.6638 278.098 523.758
1097 0 44.0363 11.1499 491 67.9022 277.094 522.886
1098 0 49.1418 12.0061 590 66.1254 277.72 521.149
1099 0 48.0864 13.4965 649 64.4977 277.582 520.357
1100 0 52.0461 12.7771 665 65.3383 277.95 519.636
1101 0 53.0348 12.5578 666 65.3033 277.886 520.297
1102 0 54.0457 13.6181 736 64.5204 277.614 516.42
1103 0 57.1382 13.9311 796 64.1407 278.303 515.587
1104 0 57.1658 13.2072 755 65.4636 277.51 513.678
1105 0 61.0819 13.3919 818 64.6443 277.812 513.131
1106 0 64.0901 13.169 844 64.5355 278.327 512.242
1107 0 65.2077 14.2161 927 62.9417 278.243 512.063
1108 0 64.0886 12.982 832 65.5998 278.088 511.417
1109 0 68.1597 13.7765 939 64.1938 278.171 507.855
1110 0 71.0917 12.8285 912 64.4539 278.581 506.844
1111 0 72.0777 13.0831 943 64.0583 278.545 508.699
1112 0 74.0667 12.4077 919 65.3177 279.087 504.101
1113 0 75.0904 11.7991 886 65.5406 278.809 504.258
1114 0 80.2253 13.4496 1079 63.0853 278.503 502.099
1115 0 81.0952 12.8738 1044 64.1006 278.966 499.618
1116 0 84.1262 13.6462 1148 62.4007 279.443 502.625
1117 1 45.2049 13.4056 606 61.6815 279.2 520.545
1118 0 47.3929 12.217 579 62.5734 278.183 519.478
1119 0 48.0397 10.9701 527 64.5674 278.085 519.281
1120 0 51.1215 13.3799 684 61.4079 278.076 518.192
1121 0 51.0506 11.6747 596 63.6829 278.362 516.688
1122 0 54.1388 12.0247 651 62.4992 279.012 517.416
1123 0 54.1166 12.5839 681 62.5448 278.645 514.715
1124 0 56.1419 12.8959 724 61.1354 278.655 515.43
1125 0 61.2332 12.9995 796 60.5075 278.734 513.155
1126 0 61.1209 12.8925 788 60.9632 279.311 512.005
1127 0 63.1379 14.112 891 59.3524 278.793 512.047
1128 0 66.0996 14.7505 975 58.4738 278.64 510.691
1129 0 67.0893 15.144 1016 58.0256 278.775 509.845
1130 0 69.0631 13.3356 921 60.6384 278.199 507.716
1131 0 69.0912 12.9973 898 61.5457 278.091 505.953
1132 0 74.2214 13.7831 1023 60.4223 277.979 503.799
1133 0 76.1597 12.3425 940 61.9277 277.959 504.432
1134 0 80.0896 12.948 1037 61.4388 278.336 503.205
1135 0 83.0712 14.5538 1209 58.9884 278.687 503.794
1136 0 84.1063 12.5912 1059 61.7894 278.057 499.424
1137 1 45.0455 11.2331 506 62.0375 277.939 520.81
1138 0 47.0845 13.359 629 60.0238 277.787 518.316
1139 0 47.1426 12.8122 604 61.7848 278.614 518.609
1140 0 49.149 12.4723 613 62.6852 278.749 518.506
1141 0 50.0492 13.3469 668 61.7365 279.205 516.142
1142 0 51.032 13.325 680 61.1529 278.703 517.66
1143 0 54.0912 12.0537 652 62.977 278.359 513.931
1144 0 57.1844 13.3253 762 61.4449 278.762 512.651
1145 0 58.0545 14.0041 813 60.7884 278.143 510.814
1146 0 59.0668 11.5293 681 63.0999 278.026 513.454
1147 0 61.1502 12.5919 770 63.061 278.294 510.712
1148 0 63.0832 12.2695 774 62.8152 278.804 511.397
1149 0 66.1095 12.7516 843 62.5919 278.956 507.836
1150 0 68.1659 13.4672 918 61.9869 278.925 506.692
1151 0 69.0589 14.2053 981 61.6086 278.612 505.644
1152 0 72.0602 14.1687 1021 61.2684 278.489 507.244
1153 0 74.1884 12.4548 924 63.0747 278.762 503.323
1154 0 77.2821 12.3444 954 62.3941 279.452 508.15
1155 0 79.0924 12.2262 967 63.1934 278.741 502.428
1156 0 82.1072 14.5541 1195 60.282 278.458 502.83
1157 0 86.0832 13.6612 1176 60.9983 278.416 499.809
1158 1 45.1167 11.5257 520 61.4769 277.925 520.258
1159 0 44.0975 11.9281 526 61.8403 278.399 519.614
1160 0 49.1396 12.2712 603 61.2852 278.511 517.4
1161 0 49.1256 12.5393 616 61.211 278.625 517.771
1162 0 52.0361 12.7988 666 60.2988 278.616 516.402
1163 0 53.0754 14.6772 779 58.5597 278.874 517.042
1164 0 53.0512 12.2335 649 60.9045 278.727 517.524
1165 0 54.0862 11.7035 633 62.0774 278.498 513.559
1166 0 57.2086 12.7953 732 60.4044 278.582 512.91
1167 0 59.122 11.2818 667 61.8006 278.84 513.639
1168 0 60.1293 11.0096 662 62.2341 278.876 512.846
1169 0 61.1247 12.4009 758 61.0989 278.902 510.596
1170 0 64.1002 11.3104 725 61.7876 278.225 509.772
1171 0 68.1436 11.7106 798 60.9812 278.457 508.746
1172 0 72.1647 12.4853 901 59.9057 278.462 507.103
1173 0 72.0847 12.5131 902 60.4789 278.572 503.804
1174 0 73.1223 12.4312 909 60.7525 278.746 501.108
1175 0 77.0819 11.7018 902 60.0865 278.627 505.475
1176 0 77.1055 12.9822 1001 59.5355 278.549 503.726
1177 0 82.2529 12.6196 1038 60.1397 279.487 498.96
1178 0 84.1956 11.984 1009 60.9158 278.81 499.573
1179 1 43.1694 10.9105 471 61.0998 278.758 518.512
1180 0 48.1212 11.471 552 60.2754 278.152 517.824
1181 0 49.1375 11.2338 552 59.8569 278.5 518.942
1182 0 52.2191 13.1752 688 57.9753 278.722 518.077
1183 0 49.1348 11.6821 574 60.6411 278.838 517.063
1184 0 54.042 11.2135 606 59.5726 278.952 518.046
1185 0 55.1477 13.2009 728 57.9739 278.854 513.195
1186 0 56.1549 11.397 640 59.8156 278.367 514.555
1187 0 60.2885 13.6676 824 56.767 278.604 513.591
1188 0 62.066 11.7617 730 59.0795 278.866 511.584
1189 0 58.2128 12.3684 720 61.0944 278.688 514.153
1190 0 58.0507 11.9551 694 63.0605 279.258 514.431
1191 0 61.1081 11.1933 684 64.3143 279.386 514.398
1192 0 60.0959 11.6481 700 64.9914 279.261 512.719
1193 0 63.0596 12.5278 790 63.881 279.397 512.604
1194 0 62.0873 11.9026 739 65.2598 279.571 511.35
1195 0 64.0754 13.4061 859 63.9837 279.18 510.724
1196 0 62.0345 11.3002 701 67.7447 278.68 505.18
1197 0 68.1009 11.6151 791 65.914 278.842 505.439
1198 0 68.2375 12.5298 855 64.6444 278.582 503.979
1199 0 69.1677 12.6938 878 65.6993 278.68 500.531
1200 0 72.1641 12.1113 874 66.2895 278.728 498.803
1201 0 72.0335 12.8551 926 65.8445 278.827 496.046
1202 0 75.0785 12.6135 947 65.7339 279.388 497.08
1203 1 41.0829 9.76076 401 66.8379 278.928 514.653
1204 0 41.0869 13.7757 566 63.5389 278.998 513.399
1205 0 45.1683 11.9331 539 65.2041 279.581 513.199
1206 0 43.0615 13.3065 573 65.4258 278.264 511.497
1207 0 44.0415 11.0805 488 67.6824 278.672 511.088
1208 0 48.1354 13.0257 627 64.7161 279.777 508.986
1209 0 49.0321 12.1961 598 65.9231 279.799 507.552
1210 0 50.0854 12.8381 643 65.3561 279.14 505.619
1211 0 52.244 13.858 724 64.0677 278.796 504.709
1212 0 54.1784 12.2743 665 66.1023 279.653 505.895
1213 0 57.136 12.4965 714 65.7451 278.945 504.56
1214 0 59.0862 12.7441 753 65.5604 279.304 503.296
1215 0 62.0881 12.2246 759 66.1397 279.906 504.448
1216 0 62.2567 14.9863 933 63.6484 279.738 503.367
1217 0 63.1186 14.3698 907 65.2834 279.907 502.612
1218 0 64.33 12.8867 829 67.3739 279.903 503.374
1219 0 69.1463 15.1129 1045 63.3043 279.765 500.198
1220 0 67.2287 13.3425 897 69.4905 279.726 502.128
1221 0 70.3426 11.6004 816 70.962 280.047 501.227
1222 0 72.4319 13.7508 996 68.6215 279.073 501.581
1223 0 70.2782 12.8489 903 70.9502 279.702 498.794
1224 0 72.1318 12.8376 926 71.4417 280.32 498.618
1225 0 75.2099 14.8385 1116 68.5869 279.934 495.778
1226 1 39.0579 10.9837 429 71.6527 279.744 515.678
1227 0 41.2125 11.3558 468 72.6944 279.833 514.393
1228 0 40.1676 11.2777 453 72.9338 279.201 515.137
1229 0 40.3363 11.3297 457 73.1969 278.722 513.849
1230 0 41.3713 12.3274 510 73.0843 279.71 512.569
1231 0 45.2062 12.8965 583 70.8919 279.509 514.379
1232 0 43.2663 11.8799 514 74.4961 279.195 512.076
1233 0 46.1348 13.2871 613 70.5677 279.144 512.095
1234 0 44.2149 12.3035 544 73.8088 279.298 512.827
1235 0 39.1404 12.1358 475 78.2653 278.935 506.267
1236 0 48.2084 15.433 744 68.9368 278.922 509.503
1237 0 49.1219 14.6167 718 70.5237 279.515 509.166
1238 0 49.1299 14.8382 729 71.0837 278.898 507.834
1239 0 50.3517 13.3263 671 73.7452 278.839 510.1
1240 0 50.1842 12.6534 635 68.7921 278.548 507.932
1241 0 52.5057 17.0267 894 57.5101 278.309 506.323
1242 1 120.369 7.31087 880 54 278.392 500.32
1243 0 122.375 9.72421 1190 46.8286 277.926 477.214
1244 0 123.689 13.5259 1673 42.0359 277.475 473.11
1245 0 116.536 10.9752 1279 46.7811 277.461 485.616
1246 0 119.253 8.77962 1047 51.0611 277.395 497.5
1247 0 119.945 12.8642 1543 43.978 277.806 485.547
