time division length width area intensity CMx CMy
0 0 144.279 19.4345 2804 81.2792 488.998 416.776
1 0 155.547 20.7011 3220 77.1155 488.656 411.866
2 0 157.585 21.8802 3448 76.1917 488.348 410.66
3 0 159.316 21.3349 3399 78.2807 488.126 411.972
4 0 161.736 22.3637 3617 77.2784 487.77 411.912
5 0 161.49 18.1125 2925 85.9709 487.76 411.21
6 0 168.26 22.5841 3800 77.6618 486.886 404.026
7 0 176.262 16.918 2982 86.7646 487.292 404.972
8 0 181.311 24.7255 4483 55.2179 486.435 400.983
9 0 183.229 17.2735 3165 87.6698 487.657 405.563
10 0 186.177 17.8433 3322 86.0036 487.636 395.572
11 0 186.174 17.7683 3308 115.716 487.631 395.929
12 1 302.402 11.6534 3524 106.972 486.755 350.07
13 1 317.804 12.772 4059 103.902 486.288 333.675
14 1 266.613 19.2901 5143 83.0445 486.494 357.145
15 0 268.272 17.5121 4698 87.1926 485.981 356.344
16 0 269.563 17.9735 4845 87.0989 486.393 354.33
17 0 268.321 16.3051 4375 92.5611 486.689 361.574
18 0 277.255 18.2071 5048 88.5424 486.86 354.235
19 1 170.129 13.4369 2286 95.0302 487.29 420.876
20 0 175.309 12.1956 2138 96.8424 486.695 418.82
21 0 186.114 12.0894 2250 96.9658 486.881 408.372
22 0 189.211 12.6261 2389 95.8142 486.015 407.361
23 0 192.162 12.4791 2398 96.7669 486.291 408.05
24 0 196.1 12.3049 2413 97.0808 486.318 407.293
25 0 204.176 13.3904 2734 95.5472 486.6 399.972
26 1 71.1041 12.3481 878 94.787 487.38 463.868
27 0 73.1109 12.9119 944 94.518 486.693 462.672
28 0 77.0516 12.8615 991 92.3269 486.559 461.287
29 0 79.0479 12.2331 967 93.8035 486.757 459.993
30 0 81.0853 13.0727 1060 93.1576 486.958 459.271
31 1 42.0597 10.0809 424 96.7642 486.774 476.925
32 0 45.0265 12.1262 546 91.2418 486.87 478.011
33 0 44.014 12.3597 544 91.9761 486.496 477.118
34 0 47.0377 13.2447 623 89.2135 486.441 475.856
35 0 48.0306 12.9084 620 90.2145 486.684 474.392
36 0 50.0482 12.5879 630 90.4206 486.071 472.476
37 0 53.1325 12.817 681 88.1615 486.394 473.095
38 0 54.0276 13.3265 720 88.0514 486.274 471.071
39 0 55.0162 11.0876 610 91.6262 485.879 471.072
40 0 55.0668 12.7845 704 89.6008 485.753 469.041
41 0 57.161 12.2986 703 89.7482 485.825 469.767
42 0 59.0301 13.3999 791 87.6056 486.459 467.427
43 0 60.037 12.7754 767 88.6688 486.42 466.306
44 0 62.0249 11.2052 695 90.0777 486.574 468.183
45 0 65.0547 13.0967 852 86.2711 486.392 464.445
46 0 66.0228 12.2079 806 88.3685 486.335 464.421
47 0 67.0776 11.9116 799 87.9812 486.735 464.927
48 0 71.0636 13.0728 929 85.591 486.545 462.383
49 0 72.1254 12.506 902 86.6696 486.328 459.092
50 0 75.0749 11.4286 858 88.0455 486.017 461.266
51 1 36.1073 11.992 433 83.9122 486.125 479.266
52 0 34.0202 11.0816 377 88.0902 486.154 478.114
53 0 38.0147 11.5482 439 85.7859 486.827 477.351
54 0 36.0471 10.7082 386 88.4689 486.197 477.881
55 0 37.0567 10.8482 402 89.9702 486.567 476.848
56 0 41.1584 12.9986 535 83.9402 486.647 474.239
57 0 41.1427 12.1042 498 85.9217 486.269 474.498
58 0 42.0406 11.6792 491 86.3829 486.699 474.766
59 0 42.0232 12.2789 516 86.5465 486.756 473.587
60 0 44.0099 13.5879 598 83.5268 486.742 471.823
61 0 44.0575 12.8014 564 85.2447 486.908 471.993
62 0 46.0254 12.5583 578 84.7941 487.114 472.498
63 0 49.039 14.2947 701 81.1398 487.033 471.218
64 0 48.0238 12.3897 595 85.358 487.266 472.46
65 0 51.0886 14.0932 720 81.4708 486.668 468.654
66 0 53.0687 13.492 716 81.9595 486.584 469.624
67 0 56.125 13.3987 752 81.258 486.298 470.06
68 0 56.0795 12.9637 727 83.3714 486.175 466.968
69 0 59.0395 11.9242 704 84.7074 486.158 467.284
70 0 60.0725 13.0176 782 83.0652 485.887 467.361
71 0 59.0588 12.1235 716 85.5042 486.108 465.279
72 0 63.0545 13.7817 869 81.3072 485.803 464.577
73 0 65.0693 12.3561 804 84.2786 486.113 464.765
74 0 67.0375 12.5154 839 83.9952 486.168 462.818
75 0 70.1361 12.9748 910 83.044 486.202 461.285
76 0 75.057 13.6563 1025 79.9454 485.892 460.265
77 0 75.0653 12.8954 968 82.5516 485.472 457.137
78 0 78.1049 11.8943 929 83.4758 485.605 459.09
79 0 80.0878 12.299 985 83.266 485.631 456.046
80 0 84.0657 13.5013 1135 80.6687 486.162 453.416
81 0 84.0657 13.5608 1140 132.277 486.156 453.379
82 0 89.0846 12.6509 1127 82.6673 485.804 452.339
83 0 92.0763 13.0218 1199 81.5179 485.801 452.649
84 0 96.1114 13.2659 1275 80.782 486.234 449.511
85 1 46.0357 11.3173 521 86.0422 486.38 472.372
86 0 50.0616 13.4035 671 80.7154 486.295 472.088
87 0 50.1156 12.3514 619 83.1438 486.386 471.588
88 0 51.0633 12.6705 647 83.1947 486.008 469.362
89 0 54.1479 12.2997 666 83.2432 486.093 468.102
90 0 56.0844 13.2657 744 80.2876 485.34 468.558
91 0 58.0408 12.9736 753 80.6773 485.247 466.313
92 0 59.1592 11.748 695 82.354 485.212 466.669
93 0 62.1105 12.7032 789 80.1914 485.318 464.871
94 0 65.1696 13.6874 892 78.12 485.938 462.762
95 0 67.09 13.221 887 78.8331 485.924 462.213
96 0 70.1474 13.2293 928 77.7295 485.814 462.781
97 0 73.2736 13.7021 1004 76.7689 486.26 460.609
98 0 73.0687 12.3172 900 80.4056 486.107 457.694
99 0 77.0504 13.8351 1066 76.9812 486.429 458.579
100 1 38.0565 11.5092 438 79.4361 485.847 475.626
101 0 39.0957 11.6381 455 79.844 485.976 475.457
102 0 40.1124 11.3431 455 80.7978 485.978 474.422
103 0 42.0937 11.3081 476 80.5168 486.248 473.889
104 0 43.2814 11.5061 498 79.2912 486.779 474.606
105 0 45.1335 11.898 537 79.3296 485.555 471.212
106 0 46.1369 13.8067 637 75.449 485.892 472.609
107 0 48.1119 12.1592 585 78.3128 485.832 471.774
108 0 51.2016 12.4215 636 77.4638 486.079 470.206
109 0 49.0839 11.3479 557 80.1993 486.542 470.937
110 0 52.1229 13.0461 680 76.9456 486.768 469.094
111 0 53.1222 12.3301 655 78.0305 486.27 468.812
112 0 54.2122 11.4181 619 79.3328 486.132 468.729
113 0 54.2122 11.3996 618 154.757 486.154 468.838
114 0 54.2122 11.3443 615 154.553 486.15 468.808
115 0 59.0838 12.2538 724 78.7735 486.077 463.739
116 0 63.1049 11.2511 710 78.8718 486.216 463.904
117 0 66.2124 13.2453 877 74.7355 486.717 463.212
118 0 67.1418 12.4066 833 76.7959 486.764 460.824
119 0 69.0528 13.2507 915 75.1475 486.751 460.631
120 0 72.0422 12.8536 926 75.3369 486.917 460.407
121 0 75.1294 12.8312 964 75.9284 486.525 457.061
122 1 38.1774 11.3418 433 74.8915 486.372 475.226
123 0 37.1129 9.72707 361 77.4488 486.435 474.773
124 0 40.0575 11.3087 453 74.6733 486.607 474.084
125 0 41.0845 12.4135 510 73.9118 486.598 472.682
126 0 41.0845 12.4621 512 142.279 486.631 472.766
127 0 44.0696 12.0491 531 73.9567 486.742 471.766
128 0 43.1982 11.3894 492 75.9532 486.278 471.419
129 0 46.1236 10.5152 485 76.8619 486.668 469.153
130 0 47.108 11.5267 543 74.5856 486.904 469.118
131 0 48.1144 11.1193 535 76.5664 486.86 467.237
132 0 51.1754 12.0957 619 73.6591 487.184 466.097
133 0 51.1314 11.1282 569 76 487.865 464.522
134 0 53.0613 11.4585 608 75.5099 487.15 465.396
135 0 53.129 11.5568 614 75.57 487.2 462.928
136 0 55.1669 12.3262 680 73.8206 486.804 462.997
137 0 57.0924 11.9105 680 74.4735 486.938 462.993
138 0 59.1532 11.1575 660 75.8985 487.161 460.835
139 0 62.05 11.0556 686 75.6545 486.93 460.367
140 0 61.1532 11.463 701 75.0342 487.074 461.983
141 0 64.0366 11.3373 726 75.4201 487.12 459.412
142 0 66.0808 11.7886 779 75.068 487.135 458.84
143 0 70.1633 11.9721 840 74.094 486.827 457.206
144 0 71.0697 12.6777 901 72.8357 486.678 456.07
145 0 74.1348 13.1517 975 71.5826 486.777 456.026
146 1 39.0752 10.3902 406 69.9704 486.692 474.837
147 0 40.072 11.2298 450 70.2533 485.978 472.669
148 0 41.0172 11.2392 461 71.0954 486.139 471.421
149 0 43.0732 10.0294 432 72.4653 485.873 469.972
150 0 46.0914 10.6744 492 69.6463 486.394 471.209
151 0 44.0436 10.694 471 70.9851 487.021 471.008
152 0 46.1375 12.8095 591 68.5448 486.941 468.942
153 0 48.1487 11.0283 531 70.3145 486.371 470.008
154 0 48.0664 9.69492 466 72.912 486.543 468.807
155 0 52.165 11.4061 595 70.3244 486.951 464.82
156 0 52.0743 10.3506 539 72.4638 487.21 466.72
157 0 52.0458 10.9135 568 72.75 487.039 466.326
158 0 54.0517 9.91644 536 73.7407 487.317 466.263
159 0 57.1138 11.0656 632 71.4177 487.57 465.172
160 0 57.0818 10.266 586 73.8345 486.848 461.019
161 0 59.0306 12.0277 710 70.0028 486.756 461.223
162 0 63.0977 11.3633 717 70.6918 487.165 460.487
163 0 63.0639 11.3853 718 71.5822 488.297 459.469
164 0 66.0987 10.9382 723 71.0913 487.563 460.859
165 0 67.1354 10.6352 714 71.3992 487.531 459.86
166 1 35.1226 6.83322 240 72.4833 487.475 475.304
167 0 36.0552 9.15263 330 69.7 487.203 472.285
168 0 38.0441 9.01586 343 69.3294 487.184 474.023
169 0 40.162 11.0801 445 65.4764 487.771 472.456
170 0 41.0615 10.4477 429 68.0536 486.688 471.324
171 0 41.1451 9.35712 385 69.9922 486.47 470.39
172 0 42.0575 8.96392 377 69.8462 487.013 472.366
173 0 46.0732 11.0911 511 66.0176 486.593 469.757
174 0 46.1685 9.16209 423 68.5721 487.043 469.834
175 0 49.0366 10.4208 511 66.8493 487.456 468.446
176 0 46.0437 9.46926 436 69.7431 486.874 466.936
177 0 51.0713 10.2014 521 66.5988 487.441 467.891
178 0 53.1344 11.6497 619 64.7948 486.893 464.706
179 0 53.1393 10.0867 536 66.9235 486.297 465.101
180 0 56.0969 11.2127 629 66.469 486.075 463.137
181 0 56.0821 10.8947 611 67.1849 485.743 463.298
182 0 57.0891 9.07353 518 69.6004 486.454 462.718
183 0 58.1002 11.0499 642 67.5779 486.315 459.905
184 0 65.0768 10.649 693 66.4661 486.687 460.137
185 0 63.0938 9.85834 622 67.6206 486.143 460.082
186 0 67.1624 11.1967 752 65.0612 486.558 456.959
187 0 65.1102 9.78341 637 67.8524 486.405 458.025
188 0 70.1288 10.167 713 66.5259 487.021 455.649
189 0 71.123 8.94226 636 68.1651 486.945 456.382
190 1 35.0906 9.03377 317 66.4921 486.899 471.902
191 0 35.0906 9.03377 317 128.224 486.921 472.003
192 0 40.2171 9.67249 389 64.3805 487.01 470.882
193 0 41.0922 11.097 456 62.1557 486.91 470.998
194 0 42.0972 9.62059 405 64.7506 486.919 470.741
195 0 40.1679 9.63456 387 65.2791 486.912 470.969
196 0 42.1542 9.37035 395 65.6861 487.565 469.709
197 0 46.1202 11.2098 517 62.1161 487.323 468.801
198 0 43.0955 9.46734 408 65.6838 487.331 468.686
199 0 46.0326 11.6439 536 63.4272 487.282 467.328
200 0 48.1917 8.92271 430 66.9721 486.337 467.826
201 0 49.0686 10.7401 527 65.1063 486.307 466.947
202 0 52.1336 10.6457 555 64.6018 486.431 466.946
203 0 53.0293 10.2585 544 65.8566 486.691 464.963
204 0 54.1252 8.83138 478 67.4247 486.167 464.372
205 0 57.0846 10.9662 626 65.1038 485.887 463.944
206 0 56.1034 10.0351 563 66.8401 486.302 465.018
207 0 58.1759 11.448 666 63.8078 486.164 463.923
208 0 61.1019 12.8147 783 61.5109 486.306 461.2
209 0 63.1015 11.2834 712 63.4635 486.108 463.251
210 0 63.1114 9.98235 630 66.1762 485.621 457.527
211 0 63.1114 9.91897 626 131.719 485.602 457.498
212 0 66.0906 10.3192 682 65.7317 486.238 459.318
213 0 69.1075 11.909 823 63.3609 485.981 458.448
214 1 37.05 9.82457 364 64.7006 486.121 472.909
215 0 38.0937 10.3429 394 63.6294 486.355 473.107
216 0 38.1023 8.18847 312 67.3878 486.5 473.468
217 0 40.0964 9.35245 375 65.2053 486.429 473.053
218 0 41.0978 9.5139 391 64.5985 486.614 473.066
219 0 42.0618 11.5544 486 63.072 485.924 470.508
220 0 42.1159 10.2574 432 65.7732 486.046 470.852
221 0 48.125 8 385 66.5636 486.255 472.19
222 0 47.1004 11.019 519 63.4412 485.89 468.719
223 0 48.0785 9.92127 477 64.8595 486.306 466.532
224 0 48.0391 8.65961 416 65.7019 485.918 469.512
225 0 48.0604 9.03031 434 66.2074 485.431 467.94
226 0 51.0911 9.59072 490 65.7388 485.355 465.645
227 0 54.1235 9.21965 499 65.2365 485.495 464.948
228 0 57.0767 11.7386 670 61.5373 485.996 464.36
229 0 57.1004 11.1208 635 63.2315 486.033 462.29
230 0 56.0932 9.68032 543 66.1602 485.157 462.357
231 0 56.0515 9.84809 552 66.2627 485.716 461.422
232 0 61.2779 11.3744 697 62.6141 484.512 463.702
233 0 63.1525 11.2585 711 62.4276 485.428 460.945
234 0 66.1582 11.412 755 61.8066 485.317 458.607
235 0 67.0797 11.0018 738 62.4485 485.075 457.733
236 0 67.1991 9.61323 646 63.9195 485.31 461.012
237 0 68.1936 10.6755 728 62.717 484.978 458.382
238 1 35.1335 9.87662 347 61.3026 485.478 472.945
239 0 37.1151 9.34931 347 62.1873 485.761 472.04
240 0 36.0503 9.98606 360 61.6694 486.05 472.586
241 0 39.0359 10.042 392 59.7832 486.691 469.538
242 0 40.0473 9.289 372 61.7043 487.048 469.473
243 0 40.0255 9.86872 395 61.524 487.316 469.132
244 0 44.0843 10.4799 462 60.026 486.66 469.015
245 0 43.0082 11.1142 478 59.5126 486.176 469.029
246 0 42.0274 9.58899 403 61.5782 486.273 467.457
247 0 48.0299 10.9307 525 59.2743 486.592 468.869
248 0 47.088 10.6821 503 60.1372 486.119 466.553
249 0 49.0192 11.0161 540 59.6963 486.317 462.737
250 0 52.1064 11.822 616 58.5487 485.979 463.536
251 0 50.0342 10.7526 538 60.6952 485.959 464.781
252 0 55.1071 12.3215 679 58.2062 485.943 464.499
253 0 55.0648 9.80662 540 61.9463 485.967 465.511
254 0 54.0457 10.9537 592 61.6976 486.032 461.983
255 0 57.1232 11.5365 659 61.1472 485.58 461.574
256 0 60.18 10.6182 639 62.1988 484.787 463.798
257 0 59.0644 10.6494 629 62.1956 484.731 460.798
258 0 62.181 10.6946 665 61.6737 485.22 462.514
259 0 64.2356 10.4148 669 62.3513 485.586 460.74
260 0 65.1585 10.6663 695 62.9525 485.669 458.694
261 1 32.0635 9.69951 311 61.1608 485.965 475.331
262 0 31.0795 9.39527 292 62.4932 485.99 474.798
263 0 34.1403 11.1598 381 58.7795 485.672 476.373
264 0 31.0323 9.63514 299 63.2341 485.548 474.164
265 0 35.0567 11.7524 412 59.7209 485.833 472.646
266 0 35.0567 11.7524 412 116.604 485.833 472.646
267 0 36.048 10.1809 367 61.9101 486.678 473.471
268 0 36.0407 10.1829 367 62.4114 486.278 472.518
269 0 39.0294 9.58252 374 62.5642 486.257 471.802
270 0 41.0878 10.5627 434 61.3594 486.873 470.611
271 0 41.026 11.8218 485 60.4866 487.272 469.307
272 0 42.0394 9.68138 407 63.4128 486.845 468.99
273 0 43.0309 11.271 485 61.4495 486.346 470.781
274 0 43.0203 12.5522 540 61.063 485.765 468.719
275 0 44.0272 10.4027 458 64.2489 485.956 468.221
276 0 47.0485 11.52 542 62.179 486.277 468.286
277 0 48.1544 11.8577 571 62.2242 486.037 467.641
278 0 49.0695 11.8811 583 62.3619 485.789 468.168
279 0 51.129 11.5981 593 62.9562 485.428 467.538
280 0 50.1095 11.1356 558 63.9032 486.303 469.176
281 0 49.045 9.90927 486 66.3374 486.453 464.43
282 0 54.1697 12.7008 688 62.4593 486.484 463.451
283 0 55.0959 13.7578 758 60.4987 486.1 465.09
284 0 56.1001 10.9804 616 64.401 486.151 462.07
285 0 58.1403 11.7302 682 63.2977 485.721 463.384
286 0 60.097 11.4648 689 63.6807 486.112 462.562
287 0 62.0872 12.4824 775 62.5664 486.138 459.959
288 0 62.0288 11.2206 696 64.5273 485.572 461.762
289 0 64.1264 11.8048 757 64.1374 485.587 460.637
290 0 69.0418 11.312 781 64.4648 485.259 457.032
291 0 71.1628 10.9327 778 65.1298 486.032 458.77
292 0 73.0905 11.0548 808 65.5792 485.774 456.108
293 0 74.0721 10.5843 784 66.6161 485.852 454.511
294 1 39.0646 10.7002 418 65.0813 485.598 470.404
295 0 41.0651 11.2991 464 64.5776 485.364 472.112
296 0 43.0194 11.8319 509 63.7191 485.45 472.76
297 0 42.0722 12.1696 512 65.1191 486.117 470.496
298 0 43.0543 12.0081 517 64.9845 486.255 472.234
299 0 46.0532 11.9644 551 65.098 486.584 468.022
300 0 46.0532 11.9427 550 122.295 487.596 468.025
301 0 47.0968 11.2959 532 66.8571 486.573 466.981
302 0 51.0841 11.8824 607 66.0313 486.026 466.191
303 0 54.1012 12.4766 675 64.0444 486.046 465.978
304 0 55.0168 11.8327 651 64.8756 485.714 466.201
305 0 55.026 10.3042 567 67.6402 485.471 463.963
306 0 57.1429 11.1125 635 66.989 485.529 462.764
307 0 60.2294 11.7385 707 65.6718 485.495 461.154
308 0 62.0308 11.4782 712 65.8483 486.28 461.552
309 0 65.1039 11.8426 771 64.9001 486.198 459.682
310 0 67.1271 12.2007 819 64.9255 485.788 459.248
311 1 32.0324 10.9264 350 65.6771 485.703 475.709
312 0 34.0858 10.1802 347 66.0403 486.017 475.885
313 0 35.1049 10.6823 375 66.0373 485.805 474.976
314 0 36.021 10.4384 376 66.2846 485.423 476.362
315 0 40.0303 11.5662 463 64.3758 485.406 472.752
316 0 40.1194 12.0141 482 64.6514 485.479 470.975
317 0 41.0719 11.7599 483 64.6211 485.47 471.031
318 0 43.0977 10.6038 457 66.3129 485.168 469.212
319 0 43.1208 10.7373 463 67.2484 485.376 468.7
320 0 46.1132 12.491 576 63.7031 486.215 469.116
321 0 47.045 12.9025 607 64.2471 486.349 466.774
322 0 45.0198 10.4399 470 69.2979 485.898 466.051
323 0 48.0603 11.1526 536 67.4067 485.466 467.563
324 0 51.1717 10.6895 547 67.0219 486.057 467.258
325 0 51.0732 10.7689 550 67.5091 485.218 465.245
326 0 53.0732 11.7197 622 66.5611 485.275 462.797
327 0 55.0581 9.80782 540 68.8982 485.05 463.426
328 0 56.067 10.9333 613 68.1876 485.374 461.635
329 0 57.0705 11.0915 633 68.3333 485.758 460.968
330 0 60.1341 11.358 683 67.2855 486.015 461.385
331 0 62.1208 10.4152 647 69.2828 485.635 459.215
332 1 32.0808 8.69678 279 68.7491 485.943 475.022
333 0 32.1044 10.5904 340 66.1765 486.079 475.656
334 0 34.0424 10.5751 360 66.7639 485.861 475.011
335 0 35.1093 10.6524 374 66.5856 486.123 476.267
336 0 36.1203 12.3476 446 64.361 486.112 473.491
337 0 37.0173 11.7242 434 65.7972 486.3 473.846
338 0 37.0553 10.4978 389 68.2751 485.524 473.53
339 0 40.0311 12.7901 512 65.125 485.686 471.131
340 0 42.0697 11.6949 492 65.8659 485.665 471.815
341 0 43.0773 11.5374 497 67.3903 485.785 470.584
342 0 42.0829 10.0041 421 70.8432 486.088 469.789
343 0 44.0232 11.1078 489 68.9448 485.609 470.869
344 0 47.0849 10.2581 483 70.2754 486.414 469.34
345 0 45.0222 10.2172 460 71.7196 485.224 468.557
346 0 47.148 11.3048 533 70.2983 484.906 466.614
347 0 49.0698 11.4735 563 70.2966 485.739 467.144
348 0 50.2479 10.1099 508 72.7598 485.037 465.27
349 0 53.0394 12.1985 647 69.4405 485.323 464.75
350 0 52.1677 10.9455 571 71.6848 485.105 464.856
351 0 55.1026 11.651 642 70.6075 485.019 462.977
352 0 56.0918 11.5525 648 71.3657 484.739 461.128
353 0 58.1492 11.0922 645 72.0046 484.893 461.27
354 0 59.1425 10.6015 627 73.008 485.258 460.553
355 0 66.211 12.143 804 69.1132 485.357 458.394
356 0 64.0702 10.3324 662 73.0302 485.313 455.953
357 1 32.0104 9.27823 297 73.8552 485.798 472.354
358 0 35.1313 9.79185 344 72.2384 485.744 471.738
359 0 36.0082 9.66447 348 72.0632 486.247 471.106
360 0 36.0048 9.80426 353 75.8159 485.108 431.558
361 0 36.051 9.12595 329 73.7781 486.012 468.179
362 0 37.0361 7.6142 282 75.5709 486.216 468.812
363 0 41.0212 9.87296 405 72.0716 485.963 467.77
364 0 44.0448 11.6245 512 68.6211 485.844 468.314
365 0 44.0477 10.92 481 70.7796 485.59 468.383
366 0 44.0477 10.9427 482 127.554 484.604 468.39
367 0 48.0754 11.378 547 69.5923 485.728 466.83
368 0 48.1152 11.0568 532 70.5677 485.961 468.086
369 0 51.0305 11.6009 592 69.1486 486.498 465.645
370 0 53.0287 10.4283 553 71.2676 486.7 462.495
371 0 55.0499 10.3179 568 71.2183 486.567 462.259
372 0 57.0622 9.84891 562 71.0516 486.295 464.358
373 0 57.0558 9.65721 551 71.3194 485.862 463.452
374 0 59.2347 10.6525 631 69.4295 486.395 462.989
375 0 62.0539 11.0227 684 68.7266 486.02 461.614
376 1 32.0277 9.64788 309 69.6246 485.443 472.579
377 0 34.029 9.78578 333 67.3514 485.685 475.144
378 0 35.067 10.4372 366 67.8142 485.317 471.765
379 0 35.0087 11.1687 391 66.9514 485.708 471.404
380 0 38.0451 10.9344 416 65.8534 486.043 472.51
381 0 37.0348 10.2876 381 68.3097 485.745 469.911
382 0 39.1 11.0997 434 65.7972 486.214 470.376
383 0 39.11 10.7389 420 68.0143 485.755 467.483
384 0 40.047 10.5876 424 67.6321 485.62 466.651
385 0 44.0743 10.505 463 66.1015 485.803 467.851
386 0 45.0368 11.3685 512 65.7734 484.818 465.107
387 0 48.0606 10.6532 512 65.4766 484.705 466.406
388 0 45.1904 9.2055 416 68.8702 485.12 466.125
389 0 49.0672 9.76212 479 67.4029 484.967 464.973
390 0 50.0628 9.56799 479 67.929 485.013 460.497
391 0 51.1698 10.3968 532 66.7744 484.632 459.224
392 0 51.0529 9.8917 505 67.3426 484.891 461.715
393 0 53.0559 9.00936 478 69.0063 484.95 458.523
394 0 56.0579 9.32963 523 67.3155 484.952 458.449
395 0 59.0855 10.4425 617 65.6742 485.079 457.83
396 0 61.0923 9.90305 605 66.0711 485.174 456.883
397 0 62.0346 10.1234 628 66.2309 485.885 454.911
398 0 66.1813 10.0179 663 65.2549 485.922 456.635
399 0 66.1194 9.92145 656 65.253 485.954 455.954
400 1 33.0205 9.90295 327 62.1437 486.471 472.419
401 0 33.0091 7.87662 260 62.9308 485.727 473.823
402 0 35.0613 9.01279 316 63.3449 486.003 469.592
403 0 38.0288 7.96764 303 63.9373 485.644 470.482
404 0 39.0922 9.7206 380 61.3553 485.184 469.713
405 0 39.0299 10.351 404 61.4381 485.309 467.5
406 0 43.0376 9.9448 428 61.4416 484.974 465.72
407 0 43.0434 10.199 439 61.1549 485.576 466.845
408 0 45.0141 11.1298 501 60.2794 485.036 466.651
409 0 45.084 9.40466 424 62.6344 485.333 465.175
410 0 48.0356 11.2208 539 60.2839 485.673 466.852
411 0 45.1997 9.69032 438 63.8676 485.459 464.089
412 0 50.0301 10.8934 545 61.956 485.277 463.695
413 0 50.042 9.2922 465 63.2624 485.437 463.202
414 0 50.042 9.21226 461 123.933 485.43 463.195
415 0 57.0546 10.9369 624 61.2051 485.433 463.521
416 0 56.1501 10.276 577 62.669 485.497 459.255
417 0 58.0547 11.0069 639 61.0391 485.546 460.29
418 0 60.0867 10.6679 641 61.6771 486.151 462.532
419 0 60.0749 10.5535 634 62.2445 485.719 456.175
420 0 65.1546 12.0943 788 59.6789 485.949 456.1
421 0 64.1328 11.1487 715 61.365 485.966 456.573
422 0 63.0956 9.76296 616 63.8101 485.498 456.766
423 0 69.0671 10.83 748 61.9773 485.626 453.464
424 0 71.0773 9.4545 672 62.9107 485.677 455.673
425 0 72.198 9.88947 714 62.5994 485.721 455.433
426 0 75.0487 9.26065 695 63.9568 485.814 449.318
427 1 39.0287 9.68519 378 61.3439 486.286 471.114
428 0 39.069 8.06266 315 63.6032 485.886 471.006
429 0 42.0304 10.4686 440 61.0682 486.236 469.623
430 0 42.0421 9.20506 387 63.3204 486.687 469.473
431 0 43.0909 9.83966 424 62.8255 486.712 467.856
432 0 46.083 12.6077 581 59.3528 486.289 466.503
433 0 45.0567 11.4079 514 61.9611 486.216 466.379
434 0 49.0916 12.2832 603 60.3118 485.894 466.655
435 0 49.0698 11.9014 584 61.4469 485.846 465.82
436 0 50.1248 12.6684 635 60.8394 485.496 465.436
437 0 52.0878 10.8471 565 63.5965 485.715 464.306
438 0 51.1076 9.54849 488 66.2787 485.906 465.162
439 0 52.0367 9.83921 512 66.3984 485.824 464.637
440 0 55.0725 11.5303 635 64.4032 485.742 463.709
441 0 57.086 11.614 663 64.3182 485.706 463.896
442 0 60.0249 11.312 679 64.5228 486.1 462.479
443 0 61.1305 11.4018 697 65.2626 485.626 460.139
444 0 60.0777 9.92049 596 68.5554 485.443 461.624
445 0 61.0552 10.5151 642 67.8349 485.363 459.752
446 0 67.0758 14.2227 954 62.63 485.416 456.304
447 0 67.0262 11.8013 791 66.7863 485.413 457.082
448 0 69.0942 11.3468 784 67.6518 484.995 455.031
449 1 34.0264 9.58079 326 67.8804 485.423 472.699
450 0 37.0579 10.9288 405 65.1877 485.595 475.02
451 0 38.0591 9.82683 374 66.7192 486.021 474.751
452 0 38.1011 10.8658 414 66.5266 485.386 472.884
453 0 39.0452 12.652 494 64.4899 485.532 470.852
454 0 43.0635 12.1216 522 63.5345 485.956 471.448
455 0 42.018 11.0667 465 65.6387 485.759 471.935
456 0 44.1748 10.6848 472 66.9089 485.186 469.758
457 0 45.0389 10.2356 461 66.9523 485.957 470.447
458 0 45.0736 10.2943 464 67.8879 485.625 469.371
459 0 47.1411 10.4368 492 67.4472 485.398 468.4
460 0 50.1537 12.6411 634 64.0284 485.803 468.035
461 0 51.1508 11.9451 611 65.4092 485.938 466.074
462 0 51.0679 11.2595 575 66.8226 485.917 465.621
463 0 54.0728 11.2441 608 66.4819 486.012 465.105
464 0 54.063 9.76639 528 68.3314 486.013 464.805
465 0 59.1415 11.278 667 65.5052 485.967 464.358
466 0 59.1293 12.2105 722 64.8172 485.729 461.385
467 0 60.0396 11.3758 683 66.7189 485.482 460.105
468 0 62.0844 12.1931 757 65.2153 485.159 460.004
469 0 65.0462 11.2997 735 65.9932 485.497 460.086
470 0 68.0544 10.9324 744 66.1626 485.114 459.681
471 0 69.1052 11.2727 779 66.8254 485.185 456.442
472 0 73.1274 10.5569 772 66.6749 485.162 456.442
473 0 73.103 11.6821 854 66.2541 484.413 452.174
474 0 77.0944 11.207 864 66.3414 484.479 453.119
475 0 78.0905 10.8208 845 67.5408 484.496 450.436
476 0 79.0736 10.4965 830 68.1325 484.99 450.235
477 1 40.0558 10.1109 405 66.842 485.59 469.059
478 0 42.0464 10.2506 431 66.7239 485.116 468.411
479 0 45.0473 10.5889 477 65.9434 485.26 469.807
480 0 45.0834 9.75969 440 68.1477 485.27 469.466
481 0 49.0182 12.3016 603 64.1658 484.43 465.831
482 0 49.0679 11.4128 560 65.8161 485.702 466.766
483 0 49.0679 11.4535 562 121.457 486.694 466.865
484 0 50.0256 11.9539 598 65.7692 485.174 466.124
485 0 53.0518 10.3107 547 67.6399 485.026 465.633
486 0 54.026 11.2724 609 67.0049 485.612 463.12
487 0 55.0425 10.0831 555 68.6685 485.276 461.308
488 0 59.0752 10.2581 606 67.736 485.493 462.05
489 0 60.0552 10.9233 656 67.5732 485.485 458.858
490 0 61.0712 10.6597 651 67.47 485.551 458.478
491 0 62.1013 11.9321 741 66.1269 485.499 457.883
492 0 64.0531 10.663 683 67.4436 485.855 457.294
493 0 66.0526 12.3386 815 65.4773 485.956 455.199
494 0 67.0766 11.6285 780 66.2923 485.624 454.417
495 0 69.0715 10.1923 704 68.1207 485.364 451.868
496 0 74.0994 11.8759 880 65.7705 485.286 451.62
497 1 34.0117 7.02699 239 71.2301 485.59 470.556
498 0 38.0177 9.33774 355 68.1465 485.823 470.544
499 0 39.0147 9.1504 357 67.5014 485.924 471.535
500 0 38.0086 9.76094 371 67.504 485.116 469.609
501 0 44.102 12.3124 543 63.628 485.346 468.446
502 0 46.0557 12.1809 561 63.8681 485.608 468.036
503 0 46.0124 10.4537 481 66.0769 485.921 468.813
504 0 46.0405 9.53509 439 67.6355 485.533 467.232
505 0 50.032 10.6332 532 65.6598 485.41 465.696
506 0 50.0537 10.5886 530 66.1151 485.125 462.719
507 0 50.0594 10.6673 534 66.4008 484.861 463.296
508 0 52.025 11.7059 609 65.243 485.872 462.938
509 0 54.0168 10.5893 572 66.1241 485.918 461.103
510 0 57.0879 11.964 683 64.1215 485.613 462.211
511 0 57.0283 10.0652 574 66.5296 485.758 462.503
512 0 60.071 12.2189 734 64.1758 485.849 459.302
513 0 63.1404 11.7516 742 64.3127 485.441 460.059
514 0 62.0647 10.6985 664 66.6596 485.52 457.887
515 0 65.0835 10.1562 661 67.1286 484.97 458.245
516 0 68.1132 11.936 813 65.6974 485.342 455.485
517 0 72.1167 12.2163 881 65.5619 485.169 454.545
518 0 72.1104 13.7151 989 56.5652 484.534 460.666
519 0 78.0998 12.9066 1008 64.6696 485.436 453.3
520 1 44.1406 11.2595 497 65.1791 485.495 469.718
521 0 44.0504 11.1463 491 65.4012 485.489 469.263
522 0 46.0595 11.2246 517 65.853 484.936 468.816
523 0 47.1339 11.0536 521 66.3416 484.892 468.129
524 0 48.0186 9.97531 479 66.9123 484.787 469.157
525 0 51.0839 12.5284 640 64.6203 484.684 465.373
526 0 50.1988 11.0959 557 67.0215 484.183 466.226
527 0 52.0532 11.738 611 65.419 484.838 466.319
528 0 57.0642 11.0227 629 65.7297 484.987 464.003
529 0 58.0588 12.6768 736 63.8818 484.603 461.982
530 0 61.0977 11.3425 693 65.7403 485.192 460.683
531 0 62.1038 12.1249 753 65.2324 485.388 460.017
532 0 64.0398 12.0238 770 65.0208 485.275 460.318
533 0 65.0839 10.6939 696 67.3606 485.978 458.336
534 0 68.0775 12.4417 847 65.647 485.462 456.66
535 0 69.1184 10.3446 715 68.3734 485.491 454.954
536 0 71.0315 12.0651 857 66.4037 485.635 453.384
537 1 36.034 10.2958 371 66.3774 486.057 472.202
538 0 39.0618 10.2402 400 66.2375 485.52 470.928
539 0 39.0582 12.0077 469 64.2218 485.817 471.096
540 0 42.0117 10.4257 438 65.5434 485.744 470.63
541 0 42.0548 10.8192 455 66.9978 485.725 465.89
542 0 42.0094 9.97395 419 68.315 485.217 466.711
543 0 46.0305 12.1007 557 64.9785 485.481 465.323
544 0 47.0109 9.65733 454 68.5264 485.282 466.524
545 0 51.0221 11.0932 566 66.3375 485.474 464.175
546 0 51.032 12.6195 644 65.4829 485.155 461.778
547 0 52.0305 8.6872 452 70.4403 484.978 464.615
548 0 55.0834 11.0378 608 67.4819 485.301 461.692
549 0 55.1171 11.7386 647 67.0819 484.733 462.014
550 0 58.059 11.6089 674 67.503 485.058 458.273
551 0 59.0564 10.5492 623 69.3676 484.83 459.878
552 0 59.1178 10.2338 605 70.3471 484.831 460.253
553 0 64.0353 11.5717 741 68.0756 484.962 456.785
554 0 65.0247 11.2419 731 68.751 485.352 457.967
555 1 33.0586 8.62106 285 69.0702 484.909 473.989
556 0 33.0597 9.80045 324 68.6389 484.46 473.355
557 0 32.0945 8.97349 288 70.6181 484.372 472.281
558 0 35.0997 11.5671 406 66.5148 484.786 471.803
559 0 37.0143 11.6712 432 66.5532 484.764 470.225
560 0 37.028 10.5596 391 67.977 485.399 472.064
561 0 37.1613 9.06858 337 70.73 485.436 470.973
562 0 41.0399 11.7203 481 65.6736 485.553 471.576
563 0 42.0248 10.6842 449 67.3408 485.074 470.855
564 0 42.0374 10.5858 445 68.9888 484.829 469.155
565 0 46.0348 12.5992 580 64.4069 485.264 468.497
566 0 46.051 10.8358 499 67.8677 484.802 467.07
567 0 46.0682 11.1791 515 67.767 484.88 467.15
568 0 46.175 10.5252 486 68.7593 484.691 467.29
569 0 48.027 11.0563 531 68.0697 484.525 465.588
570 0 51.0546 11.047 564 67.6808 483.858 463.629
571 0 51.0268 11.5822 591 67.6684 483.778 462.731
572 0 56.0512 11.8106 662 66.8218 483.538 461.156
573 0 56.0481 12.5785 705 66.3305 483.296 459.618
574 0 58.0741 11.3303 658 68.035 483.695 460.315
575 0 58.043 11.3881 661 67.8154 483.713 460.307
576 0 62.0412 12.2983 763 66.2005 483.169 459.617
577 0 65.059 10.9132 710 67.9549 483.745 458.438
578 0 65.0728 11.6331 757 67.572 484.172 458.032
579 0 65.0728 11.587 754 138.179 484.182 457.914
580 0 71.0782 12.4511 885 66.6124 484.638 454.447
581 0 73.0463 13.4435 982 64.9338 484.092 456.458
582 0 75.1694 11.9863 901 67.4251 484.556 452.665
583 1 38.0609 10.0628 383 67.8355 484.585 471.227
584 0 37.0101 10.7268 397 67.6196 484.562 472.232
585 0 40.03 9.39295 376 68.5612 485.013 472.255
586 0 39.0373 11.6555 455 66.8967 485.042 470.558
587 0 43.1125 11.3424 489 66.771 484.622 466.746
588 0 41.034 11.3808 467 67.985 485.171 468.46
589 0 43.0225 10.6456 458 67.8319 484.79 469.55
590 0 45.0096 10.731 483 68.1284 484.803 467.257
591 0 47.0167 10.4006 489 68.09 484.787 467.059
592 0 50.0225 12.1145 606 65.6667 484.667 464.119
593 0 50.0777 10.1043 506 68.9466 484.29 464.708
594 0 49.1258 9.60798 472 70.7945 484.275 463.843
595 0 54.0758 11.225 607 67.4563 484.318 460.707
596 0 56.0738 11.2352 630 67.6222 484.002 461.905
597 0 57.0394 11.0801 632 68.0775 484.057 458.839
598 0 60.042 12.0915 726 66.3072 484.174 460.286
599 0 60.0392 11.809 709 67.1791 483.955 460.794
600 0 60.0392 11.759 706 134.091 483.962 460.762
601 0 66.0418 11.6593 770 66.7558 484.41 457.162
602 0 65.0485 10.2846 669 69.6517 483.738 456.892
603 0 71.0963 11.2383 799 67.7484 483.95 454.375
604 0 74.0499 11.9244 883 66.5742 484.308 451.366
605 1 37.0104 8.99746 333 69.1682 484.306 469.471
606 0 43.0148 12.3446 531 63.2655 484.655 469.469
607 0 41.0856 10.466 430 67.5163 484.919 467.281
608 0 41.0559 8.9634 368 70.3206 484.174 464.353
609 0 45.016 12.0846 544 64.6085 484.011 466.406
610 0 46.0095 13.5189 622 62.6913 484.513 465.482
611 0 48.0943 11.7893 567 64.9647 484.799 465.423
612 0 48.0826 9.77485 470 68.983 483.919 464.123
613 0 50.0732 10.7642 539 67.6883 484.403 462.501
614 0 52.0479 10.548 549 67.7978 484.104 462.679
615 0 52.0473 10.721 558 69.328 483.995 460.26
616 0 53.0462 10.6699 566 69.6025 483.843 461.643
617 0 56.0701 11.2003 628 68.8264 484.005 461.782
618 0 59.1464 10.6684 631 69.1284 484.13 460.914
619 0 59.0919 10.526 622 70.0643 483.952 460.396
620 0 61.0969 11.85 724 68.0801 484.022 458.258
621 0 64.0471 12.038 771 67.7121 484.134 457.274
622 0 67.0416 11.3959 764 67.983 484.076 457.873
623 0 67.108 10.9227 733 69.3861 484.557 456.744
624 0 70.0539 11.7338 822 68.1874 484.502 455.442
625 0 73.0662 11.9891 876 67.6564 484.596 453.34
626 1 38.0491 9.90824 377 67.252 484.722 471.692
627 0 37.0327 8.96506 332 135.509 484.675 470.928
628 0 42.0705 10.4586 440 67.8977 484.448 468.066
629 0 43.023 10.5293 453 67.1302 485.009 467.439
630 0 43.0303 10.7134 461 67.423 484.742 469.614
631 0 45.0203 10.2398 461 68.7809 484.362 466.594
632 0 46.0178 10.6481 490 67.702 484.357 465.612
633 0 50.0447 10.7304 537 66.8715 484.566 466.052
634 0 50.083 14.1365 708 62.3644 483.96 465.263
635 0 50.0342 9.53347 477 69.2348 484.442 463.899
636 0 52.0474 10.2214 532 68.0677 484.259 462.97
637 0 52.0474 10.2791 535 132.047 484.25 462.994
638 0 57.0328 12.5191 714 64.2549 483.8 459.712
639 0 61.049 10.811 660 65.7576 483.955 462.248
640 0 59.0364 10.773 636 67.2924 483.956 458.653
641 0 61.0815 10.9853 671 66.5931 484.408 456.796
642 0 61.0815 10.9526 669 120.196 484.407 456.774
643 0 66.1939 12.403 821 64.6017 483.724 455.315
644 0 68.0741 11.5316 785 65.707 483.865 455.474
645 0 70.0465 11.5923 812 65.6724 483.331 454.398
646 1 36.0124 10.4964 378 65.3704 484.156 472.847
647 0 38.0194 11.2048 426 64.547 484.131 470.904
648 0 36.0151 9.16283 330 68.5091 484.482 470.776
649 0 40.0327 11.2908 452 64.1991 484.361 470.938
650 0 42.0537 12.8645 541 61.8355 484.224 469.739
651 0 42.0455 10.2746 432 65.4514 484.428 468.789
652 0 42.0248 10.2559 431 66.0046 484.661 468.921
653 0 45.0159 10.5518 475 65.219 484.131 469.691
654 0 47.023 11.1435 524 64.7443 484.651 466.874
655 0 48.0487 12.1335 583 63.3379 484.389 466.705
656 0 49.0334 11.8083 579 64.2314 484.489 465.104
657 0 49.1267 11.5009 565 65.4301 485.156 464.784
658 0 51.0691 10.9655 560 65.6089 485.252 464.718
659 0 54.0339 12.2331 661 63.8593 484.868 461.38
660 0 53.0835 10.0031 531 67.791 484.827 460.955
661 0 55.0772 10.0041 551 67.7822 484.314 459.681
662 0 57.0594 11.8823 678 65.6239 484.438 458.28
663 0 61.19 11.1783 684 65.5804 484.32 457.553
664 0 61.0585 12.7746 780 63.8269 483.463 456.247
665 0 64.0893 11.1251 713 65.0182 484.477 457.391
666 0 68.0819 12.2206 832 63.4447 484.919 455.859
667 0 69.1154 13.094 905 62.3646 484.25 456.684
668 0 70.078 11.9724 839 64.2586 484.409 453.833
669 0 71.1217 11.1921 796 65.397 484.265 454.384
670 1 36.0243 10.9371 394 65.5102 483.665 469.822
671 0 38.0434 10.672 406 64.7512 483.865 470.7
672 0 42.025 11.4218 480 63.7688 483.85 469.704
673 0 42.0415 11.5124 484 63.7789 483.653 469.795
674 0 43.0458 11.7085 504 64.1171 483.476 468.712
675 0 47.0075 11.1684 525 64.0667 483.486 466.31
676 0 47.0643 12.7273 599 62.4057 484.538 466.219
677 0 47.0185 13.7605 647 62.6445 483.961 464.782
678 0 49.0556 12.6591 621 63.7343 483.623 462.589
679 0 51.0383 13.3625 682 62.0279 484.003 463.284
680 0 53.0761 11.5871 615 64.2683 483.642 463.816
681 0 53.0333 12.4262 659 64.1138 483.458 460.486
682 0 54.0315 12.3076 665 64.7504 483.582 459.153
683 0 56.0627 12.7001 712 64.5449 483.087 459.743
684 0 59.2126 13.3418 790 62.4646 483.334 460.96
685 0 59.1034 11.8944 703 65.468 483.673 459.848
686 0 61.0171 13.1602 803 63.6301 483.27 457.716
687 0 63.0395 10.4855 661 67.1301 483.598 457.747
688 0 67.0972 12.236 821 64.4434 483.698 456.492
689 0 68.0466 10.6398 724 66.5332 483.351 453.293
690 1 35.028 11.8477 415 63.4602 482.916 469.089
691 0 36.0373 9.71217 350 66.4029 482.949 469.069
692 0 36.0484 9.34855 337 67.4154 482.448 466.528
693 0 38.0874 11.1586 425 64.6471 483.038 466.544
694 0 39.0405 11.3728 444 64.0203 483.502 466.565
695 0 41.0248 11.3346 465 63.7914 483.83 466.854
696 0 43.0398 11.3616 489 63.82 484.129 464.266
697 0 43.0597 9.01075 388 66.9201 483.719 463.724
698 0 46.0895 11.1088 512 63.1602 484.359 464.098
699 0 45.1286 11.6999 528 64.3598 483.843 461.989
700 0 46.0514 11.422 526 65.1863 483.736 461.411
701 0 50.0382 11.4113 571 63.9317 484.42 461.107
702 0 50.0313 11.6927 585 64.1966 483.48 458.959
703 0 50.0313 11.7127 586 123.604 482.469 458.862
704 0 57.068 12.7392 727 61.8996 483.699 460.411
705 0 56.062 11.6478 653 63.9969 483.972 458.225
706 0 58.1369 11.3353 659 64.6404 484.434 456.627
707 0 60.0534 9.87455 593 66.7605 484.558 457.216
708 0 60.065 11.7872 708 64.7881 484.113 454.462
709 0 66.0985 13.0865 865 62.1538 484.003 452.202
710 0 66.0644 10.4443 690 66.0913 484.172 452.277
711 0 68.0758 10.6058 722 64.3033 484.197 454.14
712 0 71.0417 10.8246 769 64.6983 484.374 451.459
713 1 32.0399 9.70665 311 64.746 484.865 468.186
714 0 37.0058 11.4847 425 61.7082 485.289 467.162
715 0 35.0661 9.72449 341 64.6892 485.581 467.003
716 0 38.0298 11.1754 425 62.9482 485.325 464.459
717 0 41.0343 12.258 503 60.8151 485.034 465.565
718 0 39.0282 11.4276 446 62.2085 485.108 466.085
719 0 42.0884 9.31373 392 64.4464 484.913 464.952
720 0 45.0578 12.4729 562 60.8594 484.836 462.475
721 0 45.0311 9.50455 428 64.5981 485.124 463.147
722 0 45.0311 9.48234 427 123.403 486.119 463.227
723 0 49.0193 11.5057 564 62.0337 484.674 460.264
724 0 49.0263 12.0344 590 61.278 484.919 458.975
725 0 49.0456 8.52267 418 65.689 484.691 459.749
726 0 50.0178 10.7362 537 63.5084 484.687 460.998
727 0 53.0614 10.3842 551 64.7005 484.728 456.971
728 0 54.059 9.10117 492 65.7439 484.39 456.5
729 0 58.0822 11.587 673 62.9019 484.418 454.435
730 0 58.0938 10.6552 619 64.0711 484.3 456.097
731 0 59.0799 9.42792 557 66.2047 483.79 455.431
732 0 61.0852 11.5085 703 63.7155 484.245 452.516
733 0 64.0825 9.79987 628 65.4188 484.658 448.734
734 0 65.1038 10.7981 703 64.1422 484.836 452.623
735 0 70.0949 11.4416 802 62.8292 484.829 449.229
736 0 71.1215 10.7141 762 64.1063 484.924 444.19
737 0 73.0561 10.841 792 63.7424 484.986 448.718
738 0 73.0561 10.8547 793 126.41 484.971 448.512
739 1 42.0964 11.83 498 59.6386 484.861 463.209
740 0 43.0228 11.645 501 60.0918 484.553 463.064
741 0 43.0286 10.5046 452 61.0066 484.984 464.681
742 0 45.1152 10.8389 489 61.8221 484.816 460.918
743 0 46.0702 11.0049 507 61.6884 484.921 459.304
744 0 48.1378 11.4671 552 60.6558 485.17 458.996
745 0 51.0717 11.1412 569 60.9666 485.265 460.125
746 0 52.0814 11.1364 580 60.95 484.962 459.541
747 0 53.1124 10.2613 545 62.4606 484.993 458.495
748 0 60.0751 16.5293 993 43.9225 484.249 461.01
749 0 54.2561 11.0955 602 62.1927 484.523 455.596
750 0 58.0759 11.1406 647 61.7326 484.257 453.839
751 0 61.0936 11.7361 717 60.5244 484.939 455.614
752 0 59.1354 10.5859 626 63.1326 484.631 453.256
753 0 64.1963 12.3995 796 60.4083 484.652 450.984
754 0 65.1686 9.52913 621 64.0467 484.398 451.04
755 0 67.3234 10.7095 721 63.4369 484.135 446.868
756 0 70.2672 12.794 899 60.3137 484.161 447.207
757 0 72.1269 11.2025 808 62.2847 484.584 447.151
758 0 74.1159 11.0503 819 62.4017 483.956 447.785
759 1 41.1045 9.68263 398 60.6935 484.347 466.51
760 0 41.156 9.64621 397 61.8816 484.703 464.746
761 0 41.0668 8.8149 362 63.5387 484.655 461.461
762 0 43.0546 10.057 433 62.4111 484.296 459.755
763 0 45.1367 11.2104 506 59.7945 484.071 460.115
764 0 48.1857 9.85769 475 60.6674 483.834 459.756
765 0 47.2187 9.27598 438 62.4087 484.32 458.84
766 0 50.0504 10.5693 529 60.6144 484.684 457.482
767 0 53.0667 10.647 565 60.2796 484.752 458.561
768 0 54.0653 10.9867 594 59.9646 484.49 457.406
769 0 56.218 11.2242 631 60.2821 483.892 455.407
770 0 57.0772 11.0026 628 61.0366 484.447 453.938
771 0 58.147 9.52757 554 62.0614 484.06 457.206
772 0 62.1308 11.3309 704 60.3523 483.896 453.102
773 0 61.0831 9.80631 599 62.4674 484.202 454.703
774 0 64.1632 11.1902 718 60.4986 484.685 456.354
775 0 67.1421 11.9448 802 60.0349 484.807 451.552
776 0 69.1487 10.8606 751 61.3063 484.748 451.804
777 0 71.1389 10.9504 779 61.154 484.144 453.148
778 0 74.1787 11.0274 818 61.2506 484.44 450.572
779 1 40.117 10.4444 419 58.5943 484.995 467.809
780 0 39.098 9.77031 382 59.4529 484.466 466.605
781 0 40.0655 10.9321 438 57.6393 484.683 468.146
782 0 42.0546 10.5339 443 59.5282 484.916 464.643
783 0 43.0451 11.3137 487 57.5216 484.817 467.86
784 0 43.0451 11.337 488 122.553 484.832 467.91
785 0 44.0774 10.7765 475 59.76 484.322 464.916
786 0 46.2002 9.69692 448 61.0871 484.067 461.471
787 0 49.1437 11.9853 589 58.5093 484.032 461.553
788 0 47.1441 9.39671 443 62.8849 483.926 460.571
789 0 52.0812 10.81 563 59.881 483.696 460.073
790 0 52.179 11.6714 609 58.9442 484.274 459.245
791 0 57.1466 12.0567 689 57.9419 484.324 459.255
792 0 57.1302 11.6401 665 59.0752 484.414 458.796
793 0 60.1108 10.6636 641 59.9704 484.14 457.094
794 0 61.1383 11.9565 731 59.3817 484.15 456.068
795 0 63.0791 11.3984 719 59.8192 484.04 454.231
796 0 63.0604 11.8299 746 60.0161 484.233 451.871
797 0 67.2027 11.7704 791 58.8774 484.247 455.317
798 0 70.0837 11.9999 841 59.3674 483.792 451.448
799 0 73.0896 11.5885 847 59.1865 484.341 450.125
800 0 74.222 12.0719 896 59.019 483.595 449.046
801 0 76.2182 10.5224 802 61.0935 483.953 446.445
802 0 80.1216 12.2938 985 58.734 484.103 447.723
803 1 42.0404 9.65737 406 60.0542 484.399 466.685
804 0 47.0746 11.2587 530 58.2415 484.245 465.232
805 0 45.0272 9.72746 438 60.411 484.194 464.489
806 0 47.0658 8.88118 418 61.6172 484.431 464.572
807 0 51.0352 10.7181 547 59.1901 484.34 463.174
808 0 51.1245 10.7189 548 59.6533 484.35 459.949
809 0 55.106 11.8862 655 57.8183 484.669 461.782
810 0 55.0898 10.5464 581 60.8451 484.492 456.496
811 0 55.0898 10.5646 582 125.072 484.503 456.5
812 0 60.1095 11.6288 699 59.1144 484.797 460.461
813 0 61.0741 10.6592 651 61.0138 484.839 457.604
814 0 62.0628 10.9405 679 61.2651 485.021 452.864
815 0 65.0766 11.2329 731 60.7456 485.124 453.09
816 0 67.1005 11.8777 797 60.1506 485.193 454.452
817 0 71.0852 12.3373 877 59.2623 485.145 452.755
818 0 72.1012 11.7196 845 60.0284 484.86 452.391
819 0 75.145 12.9616 974 58.9548 484.934 450.561
820 0 79.1486 12.7861 1012 58.4219 485.057 449.863
821 1 41.0668 10.909 448 60.721 484.788 466.478
822 0 42.035 12.0614 507 59.5247 485.069 465.88
823 0 46.0645 11.9398 550 59.4382 484.776 464.195
824 0 48.0942 12.0597 580 59.0172 485.233 463.584
825 0 49.0469 13.9662 685 57.381 484.623 461.695
826 0 48.0659 11.193 538 61.5242 484.47 461.284
827 0 51.0756 12.4913 638 59.7665 484.414 461.37
828 0 54.0462 11.3051 611 60.9313 484.268 460.722
829 0 55.0668 10.8777 599 61.8831 484.22 459.958
830 0 56.0801 9.4686 531 63.5876 484.508 459.337
831 0 56.0801 9.48643 532 131.316 484.504 459.378
832 0 56.0801 9.50426 533 130.741 484.508 459.336
833 0 62.1818 10.7909 671 62.2504 485.083 457.136
834 0 66.18 11.9674 792 60.5088 485.105 454.322
835 0 68.0535 13.0926 891 60.1055 484.336 452.835
836 0 68.0901 11.0148 750 62.9573 484.047 451.836
837 0 74.0562 12.7201 942 60.258 483.82 451.421
838 0 78.1031 11.1263 869 62.2957 484.226 449.465
839 1 42.0474 9.65577 406 63.399 484.522 465.798
840 0 43.1027 11.1362 480 62.3896 484.594 464.925
841 0 47.0447 9.82044 462 63.6905 484.55 463.496
842 0 49.0284 11.9319 585 62.5607 484.385 461.386
843 0 49.1223 11.9905 589 63.3464 484.397 459.91
844 0 50.0741 11.7027 586 63.471 484.101 460.812
845 0 54.0253 11.1799 604 64.0811 484.71 460.293
846 0 56.0625 12.2542 687 62.9345 485.202 459.787
847 0 55.0772 11.6201 640 64.8703 484.583 459.108
848 0 59.0191 13.0805 772 63.3277 484.799 457.193
849 0 62.1433 13.4206 834 62.6559 484.653 455.79
850 0 64.0801 13.4363 861 63.3333 483.97 454.269
851 0 64.1292 12.7711 819 64.6178 484.194 453.824
852 0 66.1288 12.5513 830 65.0699 484.469 455.692
853 0 69.1433 12.0764 835 65.8168 484.41 452.339
854 0 71.0525 11.6252 826 67.4649 484.121 448.6
855 0 76.0555 13.0694 994 64.8441 484.225 448.072
856 0 78.1211 12.7238 994 65.7465 484.339 449.231
857 0 78.1211 12.775 998 130.087 485.329 449.244
858 1 45.0438 9.61287 433 68.2425 484.672 465.677
859 0 44.0971 10.4769 462 68.0303 485.19 465.418
860 0 49.088 10.4506 513 67.8148 485.255 462.918
861 0 50.1407 13.1829 661 63.9849 485.059 461.829
862 0 52.098 11.152 581 66.4423 484.898 462.164
863 0 53.0481 11.7629 624 65.8638 484.76 460.486
864 0 56.1237 13.1317 737 64.1845 485.407 459.368
865 0 55.1198 13.3709 737 65.4763 485.179 455.605
866 0 60.1438 11.5058 692 66.8092 485.471 456.444
867 0 61.1247 12.4663 762 65.8884 485.005 455.741
868 0 63.1147 12.2158 771 65.9209 484.754 454.789
869 0 64.1101 12.4629 799 66.184 485.592 454.058
870 0 67.1616 11.8669 797 67.2208 485.03 452.26
871 0 70.0992 13.1528 922 65.1356 484.875 451.811
872 0 72.1003 13.2454 955 65.0408 484.016 450.424
873 0 74.0511 12.3563 915 66.5781 484.632 448.972
874 0 77.0938 12.6729 977 66.5271 484.425 447.944
875 0 79.0818 12.6072 997 67.2317 483.949 445.364
876 1 39.1018 10.1786 398 66.4171 485.261 467.264
877 0 41.0135 10.4356 428 66.9112 485.304 465.586
878 0 42.0577 10.8898 458 67.4629 484.871 463.583
879 0 43.2315 9.64575 417 68.1223 485.002 464.211
880 0 44.0643 10.235 451 68.0643 485.153 463.293
881 0 46.033 12.4693 574 65.5888 485.002 461.221
882 0 48.0334 11.3255 544 66.864 484.719 461.737
883 0 49.0686 12.0444 591 66.8223 484.386 459.988
884 0 49.0344 10.8903 534 68.2659 484.579 460.322
885 0 50.0581 11.167 559 69.059 484.406 459.458
886 0 53.1608 13.0547 694 65.7694 484.378 459.318
887 0 56.0964 13.2272 742 64.9394 484.588 458.872
888 0 58.1543 13.1546 765 65.1542 484.852 457.642
889 0 57.0817 12.0003 685 67.7577 484.505 456.486
890 0 60.1697 12.365 744 66.7782 484.929 456.762
891 0 59.0845 11.0858 655 69.2901 484.661 455.2
892 0 63.0456 11.4044 719 68.2267 485.388 453.068
893 0 66.1367 10.3271 683 68.0512 485.303 457.264
894 0 69.0889 13.7215 948 64.5949 485.565 452.188
895 0 71.1475 12.2 868 66.8111 485.147 451.048
896 0 71.0962 12.4198 883 66.8403 485.522 451.835
897 0 75.1778 14.499 1090 63.7624 485.5 447.628
898 0 76.1639 12.565 957 66.6855 485.283 448.705
899 1 38.0984 10.0792 384 66.9557 485.354 466.555
900 0 42.0221 11.3988 479 64.7871 485.574 465.902
901 0 41.0445 10.8906 447 66.0291 485.3 465.499
902 0 44.0453 10.5346 464 66.0323 485.519 464.043
903 0 45.0566 11.874 535 65.1402 485.55 462.793
904 0 44.0638 11.3926 502 66.6673 485.779 463.805
905 0 47.0708 11.5358 543 65.86 485.495 462.195
906 0 49.0368 11.5016 564 64.8156 485.532 463.817
907 0 50.0288 10.394 520 68.1115 485.365 462.596
908 0 51.1078 10.6442 544 66.6452 485.127 465.173
909 0 53.0462 11.9519 634 66.5268 484.998 460.256
910 0 56.0493 11.9894 672 65.9658 484.836 457.998
911 0 57.055 13.1803 752 64.5346 485.698 458.07
912 0 58.0836 12.5509 729 65.9492 485.604 457.043
913 0 62.0496 12.909 801 65.0737 485.548 457.762
914 0 61.0572 11.4647 700 68.4886 485.54 455.12
915 0 65.0428 12.3918 806 66.8598 485.471 454.332
916 0 65.0951 11.0607 720 69.3097 485.09 454.181
917 0 69.0477 12.2669 847 67.7249 485.198 451.848
918 0 69.0863 10.9573 757 71.0687 486.874 449.04
919 1 37.013 9.32106 345 70.8174 486 467.965
920 0 38.0484 9.69818 369 71.7968 485.144 467.279
921 0 41.0938 10.6342 437 70.762 485.595 466.13
922 0 40.0388 10.29 412 73.1116 484.898 465.791
923 0 41.1155 9.41252 387 74.6589 486.354 466.726
924 0 41.018 9.53241 391 75.8107 486.2 466.361
925 0 44.0444 10.4894 462 74.7532 485.682 464.327
926 0 47.0952 10.2346 482 73.4751 485.371 465.691
927 0 49.0482 10.4795 514 72.2335 484.646 467.025
928 0 50.0745 10.7041 536 73.625 484.722 464.174
929 0 52.0884 10.6934 557 74.8474 484.704 463.187
930 0 53.101 11.6005 616 73.5244 484.479 460.875
931 0 55.0235 12.5583 691 71.437 484.427 462.216
932 0 57.0764 12.054 688 72.8576 484.769 461.996
933 0 57.0432 10.9917 627 74.9617 484.426 459.289
934 0 60.0717 10.7205 644 74.8525 484.744 459.444
935 0 63.0661 10.7031 675 75.6578 484.37 458.099
936 0 63.0573 11.7829 743 73.9785 484.709 458.322
937 0 66.0882 10.9702 725 74.8869 484.739 455.877
938 0 68.129 11.7131 798 73.8484 484.789 455.652
939 0 71.1058 11.7712 837 74.356 484.902 453.431
940 1 36.1095 9.942 359 74.351 484.788 470.223
941 0 39.082 10.6699 417 72.976 484.806 468.813
942 0 40.0788 8.7827 352 75.2699 485.031 469.489
943 0 41.014 11.0938 455 72.1802 484.815 468.892
944 0 41.0306 9.87069 405 75.4321 484.393 467.948
945 0 43.1139 10.8086 466 73.8455 484.723 464.092
946 0 44.0682 10.7561 474 73.0781 484.833 464.217
947 0 47.012 11.6566 548 71.7901 484.301 462.571
948 0 47.0707 9.94249 468 76.1688 484.803 462.906
949 0 49.14 10.7652 529 73.5822 484.435 464.452
950 0 50.0591 11.4864 575 73.0956 484.878 462.913
951 0 51.1158 10.9555 560 73.8857 485.302 461.618
952 0 53.065 10.5908 562 73.5249 484.447 461.459
953 0 53.1273 10.296 547 74.1865 484.495 461.587
954 0 56.2343 10.5096 591 72.8122 484.491 462.409
955 0 59.1721 11.644 689 69.6836 485.006 460.768
956 0 60.1748 11.6494 701 69.8816 484.011 458.827
957 0 62.0511 10.7976 670 70.8134 484.272 455.718
