time division length width area intensity CMx CMy
0 0 82.1808 10.7811 886 64.6603 867.6 387.213
1 1 43.0785 9.07645 391 64.202 867.949 408.409
2 0 45.0167 10.0851 454 62.7379 868.068 407.396
3 0 44.0649 10.3711 457 63.8052 867.429 408.114
4 0 47.0914 11.8281 557 61.4991 866.975 405.214
5 0 48.0621 11.5059 553 61.6962 866.702 404.112
6 0 50.0815 11.661 584 60.6507 865.873 404.115
7 0 53.0879 11.7729 625 59.624 865.728 403.995
8 0 48.9434 36.4911 1786 26.7346 863.066 503.306
9 0 55.0585 12.8227 706 59.3371 866.052 401.408
10 0 57.0827 12.0702 689 60.1248 866.319 401.993
11 0 57.0827 12.0877 690 123.061 866.314 402.038
12 0 60.0544 12.7718 767 59.4029 865.665 400.385
13 0 63.1079 13.0887 826 59.27 865.413 396.63
14 0 63.0537 12.196 769 60.632 865.374 399.395
15 0 64.1353 10.2907 660 63.6788 864.698 396.871
16 0 66.0957 11.211 741 62.8502 864.988 395.498
17 0 69.1847 11.9824 829 61.9095 865.218 393.744
18 0 72.0846 10.9732 791 63.0822 865.58 394.085
19 0 74.0265 11.5499 855 62.8328 865.407 392.043
20 0 78.1538 13 1016 60.8524 864.876 390.429
21 0 81.1496 11.9163 967 62.6474 865.119 387.292
22 1 39.0391 11.0402 431 61.949 864.517 408.445
23 0 40.0311 7.76896 311 65 864.778 410.791
24 0 43.0793 10.794 465 62.5957 864.643 407.009
25 0 43.0602 11.1007 478 62.8745 865.023 406.891
26 0 43.0599 10.7292 462 63.5433 865.288 405.461
27 0 49.0511 12.3952 608 60.2763 864.641 406.584
28 0 47.1596 11.0264 520 63.5404 864.448 404.919
29 0 50.0846 10.8616 544 63.2206 864.814 404.803
30 0 52.0541 12.0068 625 61.9072 865.024 404.835
31 0 53.0609 11.4208 606 62.6733 864.81 403.061
32 0 56.0802 11.1269 624 62.2596 864.785 405.197
33 0 57.1097 11.6092 663 62.6169 864.442 401.344
34 0 59.0555 12.2258 722 61.6039 864.429 402.571
35 0 60.1841 11.5977 698 62.8123 864.563 400.026
36 0 64.1045 11.0289 707 63.0382 864.023 400.293
37 0 64.1176 11.6193 745 63.1678 864.342 397.262
38 0 64.1712 10.2538 658 64.9316 864.21 397.524
39 0 68.097 11.7039 797 63.1706 863.952 396.666
40 0 70.0732 10.9314 766 64.3368 863.657 395.311
41 0 70.0732 10.9029 764 136.386 864.643 395.237
42 0 76.3818 12.5292 957 62.2665 864.395 392.87
43 1 40.0218 10.4943 420 63.2881 864.636 409.581
44 0 39.0131 9.91974 387 65.3075 864.879 408.685
45 0 44.0151 11.7005 515 61.3806 864.852 410.132
46 0 43.0219 12.0869 520 62.3423 864.71 408.181
47 0 44.044 10.5122 463 64.4298 865.216 409.043
48 0 46.1781 11.8021 545 63.1835 864.994 407.128
49 0 45.0611 11.1404 502 64.4402 864.673 407.018
50 0 48.0456 12.5506 603 62.7828 863.917 407.539
51 0 49.2322 11.3747 560 64.3 863.914 406.032
52 0 51.1524 11.6319 595 64.4807 863.928 403.597
53 0 54.1049 9.72185 526 65.4658 864.74 405.882
54 0 54.1589 11.1893 606 64.4736 864.16 402.992
55 0 58.097 11.5497 671 63.7139 864.471 400.975
56 0 59.1309 12.0242 711 63.4515 864.543 400.115
57 0 60.065 12.6863 762 62.79 864.164 400.214
58 0 61.0706 11.7241 716 64.0475 864.599 398.763
59 0 63.0242 11.3448 715 64.565 864.585 398.366
60 0 67.1056 12.5474 842 62.5368 864.645 397.203
61 0 67.0271 12.2935 824 63.4697 864.714 396.539
62 0 69.1116 12.8343 887 62.7768 864.895 393.07
63 0 72.0669 12.4329 896 63.0904 864.934 394.426
64 0 72.0669 12.4329 896 141.116 864.92 394.374
65 0 76.0489 12.2421 931 63.2105 864.504 391.961
66 1 39.0432 9.01565 352 64.9176 864.508 411.295
67 0 40.0412 12.2624 491 61.3829 864.161 410.222
68 0 40.0368 11.0648 443 64.4221 864.084 407.178
69 0 43.0252 10.4358 449 63.5791 864.2 409.154
70 0 44.1027 12.1988 538 61.8141 863.639 407.978
71 0 48.046 12.6337 607 60.369 864.135 406.478
72 0 48.0509 11.7584 565 61.4354 863.745 408.046
73 0 49.0713 12.0845 593 61.2293 864.027 405.936
74 0 50.1089 11.0559 554 63.7419 863.995 404.769
75 0 54.0568 12.2279 661 61.7791 864.058 402.408
76 0 53.0778 11.0969 589 64.0051 863.783 403.295
77 0 54.1249 11.3811 616 63.836 863.304 402.979
78 0 56.1861 11.4797 645 64.0155 863.532 401.225
79 0 59.0504 11.7357 693 62.987 863.576 401.176
80 0 61.141 13.8532 847 60.7615 863.998 399.763
81 0 61.141 13.8859 849 138.615 864.053 399.658
82 0 65.164 13.1208 855 61.6749 863.684 398.851
83 0 66.0428 13.143 868 61.7535 863.703 397.715
84 0 67.0649 12.3612 829 63.3366 864.065 396.166
85 0 68.0771 13.3819 911 62.0768 864.01 395.912
86 0 72.1005 13.7724 993 60.857 864.057 395.782
87 0 74.1366 12.423 921 62.3811 864.185 395.444
88 0 74.1373 11.4787 851 63.5805 863.777 394.739
89 0 79.048 12.9921 1027 61.3379 863.81 392.553
90 1 40.0464 11.3868 456 61.8618 863.044 409.537
91 0 41.0227 9.26316 380 64.2053 863.11 410.439
92 0 42.0296 9.89778 416 63.7428 863.031 406.228
93 0 45.0392 12.2782 553 60.5877 863.269 406.146
94 0 44.0527 10.9187 481 62.8628 863.842 406.886
95 0 48.0599 13.4624 647 59.0464 863.912 404.066
96 0 49.1531 11.3523 558 61.5968 863.894 402.271
97 0 50.0451 11.7894 590 60.8576 864.28 402.344
98 0 54.046 12.9889 702 58.6681 864.396 402.732
99 0 55.0812 13.9612 769 57.5332 864.554 401.59
100 0 54.0521 12.0994 654 60.2997 863.813 401.058
101 0 57.0612 14.3881 821 57.5213 863.895 398.636
102 0 58.0238 12.2881 713 60.3338 863.777 397.414
103 0 60.0324 12.2267 734 59.9714 864.229 397.522
104 0 63.134 12.3864 782 59.5102 864.637 396.694
105 0 61.0752 10.5608 645 62.5163 863.405 394.864
106 0 67.0324 11.6213 779 60.7163 863.548 394.361
107 0 67.1374 12.0201 807 60.7323 863.677 393.409
108 0 70.0628 12.0892 847 60.6505 863.891 391.347
109 0 71.1136 10.9402 778 62.2918 864.28 389.677
110 0 75.1764 12.7168 956 59.931 864.424 388.84
111 0 78.0613 13.1051 1023 59.172 864.11 386.225
112 0 78.0975 12.9454 1011 60.361 863.908 386.242
113 0 78.0975 12.8813 1006 136.036 863.888 386.265
114 0 78.0975 12.8429 1003 135.716 863.869 386.259
115 1 45.0277 11.7261 528 60.7746 863.903 406.091
116 0 46.0334 13.9681 643 59.154 864.019 403.403
117 0 46.0434 11.8367 545 62.545 864.464 402.594
118 0 48.0823 12.4994 601 61.2795 864.561 403.496
119 0 50.017 12.9356 647 60.864 864.632 401.632
120 0 49.0168 13.0772 641 61.3339 864.836 401.298
121 0 53.1556 12.9243 687 60.8297 864.376 401.313
122 0 54.0635 12.0229 650 61.6308 863.851 402.946
123 0 57.0239 12.9244 737 61.0122 863.931 399.307
124 0 58.0777 12.6038 732 61.3675 864.001 399.142
125 0 61.0381 13.2868 811 60.6621 864.118 397.816
126 0 61.0381 13.1885 805 133.88 865.102 397.794
127 0 63.0444 12.7846 806 61.4541 864.187 398.217
128 0 63.0509 11.8 744 63.6371 863.699 396.204
129 0 66.1585 12.47 825 62.6279 864.144 394.424
130 0 67.0628 13.2711 890 62.0303 864.528 394.42
131 0 69.0553 12.1062 836 63.4641 864.456 393.663
132 0 72.0676 12.2801 885 63.0972 864.755 392.314
133 0 74.1923 13.1685 977 62.7697 865.525 388.977
134 0 76.084 13.0514 993 63.0433 864.844 386.974
135 0 81.1182 13.7577 1116 61.8728 864.926 385.559
136 0 83.1638 13.4193 1116 62.4722 864.532 384.065
137 0 85.0582 11.9448 1016 64.3681 864.563 384.635
138 0 88.107 12.9729 1143 63.3412 864.842 381.214
139 0 91.1647 13.9857 1275 62.1874 864.811 381.677
140 1 46.026 11.8846 547 64.3766 864.848 404.305
141 0 50.0423 12.6893 635 63.0929 865.044 402.654
142 0 51.0941 12.3498 631 64.2916 865.028 401.807
143 0 53.0285 13.0684 693 63.4401 864.776 399.483
144 0 55.2643 12.1055 669 64.5217 864.647 400.19
145 0 55.0316 11.4843 632 65.5617 864.718 400.476
146 0 56.0236 12.5304 702 64.765 864.192 398.396
147 0 60.0392 13.1747 791 62.7876 863.545 398.948
148 0 61.1751 12.8974 789 63.9797 863.733 397.621
149 0 62.0632 11.9556 742 65.7224 863.365 394.177
150 0 64.0432 11.9763 767 65.8735 863.9 395.524
151 0 69.0855 13.1866 911 63.82 864.827 394.6
152 0 71.041 12.9643 921 64.1998 864.571 394.016
153 0 71.0637 12.7632 907 65.6781 863.967 391.609
154 0 73.1176 12.5961 921 66.2172 864.017 390.697
155 0 77.0743 12.6891 978 66.09 864.608 388.413
156 0 78.1411 12.2215 955 67.1791 864.858 388.554
157 1 43.0271 11.9925 516 65.1608 864.709 407.38
158 0 42.0171 10.8051 454 69.3018 864.916 404.513
159 0 44.0315 12.2639 540 66.7185 865.354 404.083
160 0 48.0261 14.4296 693 63.088 864.752 402.797
161 0 48.0589 11.6732 561 67.6025 864.533 402.291
162 0 48.0518 13.2981 639 66.0391 865.113 400.023
163 0 50.038 11.851 593 67.0422 866.28 403.25
164 0 53.022 13.0512 692 65.5448 865.582 400.801
165 0 54.0242 12.9757 701 66.2183 865.404 399.79
166 0 56.0344 12.6351 708 65.6977 865.12 402.097
167 0 56.0341 12.7244 713 66.9621 864.885 399.907
168 0 58.1439 11.4028 663 68.9608 864.878 397.161
169 0 60.0771 11.3687 683 68.8507 865.479 395.725
170 0 64.2559 11.6098 746 68.1609 864.705 396.003
171 0 65.0555 14.4185 938 65.2228 864.568 392.661
172 0 67.0505 13.6166 913 66.0197 864.93 392.042
173 0 69.062 11.5114 795 69.7296 864.626 391.628
174 0 71.0762 11.6213 826 69.7772 865.035 390.821
175 0 71.0762 11.5932 824 142.461 865.03 390.766
176 1 37.0442 9.90707 367 70.9101 864.997 407.297
177 0 38.0416 11.7503 447 69.1499 865.434 405.421
178 0 40.0202 10.1199 405 70.3185 864.798 406.205
179 0 42.0818 11.1925 471 67.4501 864.047 406.951
180 0 42.0412 11.5125 484 69.3905 864.052 403.122
181 0 45.0524 12.097 545 67.2495 863.42 404.418
182 0 45.0966 13.3491 602 66.5864 864.1 400.596
183 0 47.0298 12.3539 581 68.0706 864.205 400.639
184 0 48.0807 11.5223 554 69.8285 864.495 398.312
185 0 51.0498 11.9491 610 67.3787 864.031 401.533
186 0 53.0499 13.1009 695 66.3669 864.463 398.508
187 0 53.0499 13.0255 691 133.433 865.441 398.48
188 0 55.0613 12.6041 694 67.5043 864.83 396.491
189 0 58.0506 12.6614 735 67.4612 864.616 395.946
190 0 58.0259 12.5461 728 68.6278 864.435 393.72
191 0 58.0259 12.5978 731 142.078 864.439 393.681
192 0 62.0496 12.071 749 68.6355 864.582 393.25
193 0 63.0472 12.2607 773 68.6779 864.479 393.471
194 0 67.1363 13.5992 913 66.5225 864.718 392.115
195 0 70.0808 12.243 858 68.0023 864.624 392.33
196 0 71.1081 14.5412 1034 65.4903 865.262 388.749
197 0 73.0658 12.564 918 68.2026 865.086 388.588
198 0 76.0711 13.093 996 67.4106 865.204 385.924
199 0 78.0991 12.5994 984 68.2358 865.139 385.406
200 0 80.1177 11.6329 932 69.3412 864.297 385.425
201 1 39.0241 10.1476 396 69.2677 864.05 404.672
202 0 42.055 11.4612 482 67.5581 864.156 403.604
203 0 41.0834 10.4665 430 69.5488 864.377 402.712
204 0 46.052 10.7053 493 67.86 864.079 402.081
205 0 49.0424 11.643 571 66.6077 863.741 400.701
206 0 50.1525 11.9834 601 65.9268 864.376 400.884
207 0 51.1518 12.1599 622 65.0048 864.264 398.865
208 0 52.0218 13.0714 680 63.7824 864.268 397.26
209 0 52.028 11.34 590 66.5034 864.097 397.512
210 0 53.0371 10.7283 569 67.6134 863.782 396.819
211 0 53.0371 10.7283 569 146.94 862.8 396.75
212 0 60.0795 12.6665 761 63.8765 864.325 395.13
213 0 62.1704 13.0287 810 63.0543 864.16 395.953
214 0 63.1276 12.1658 768 64.8555 863.95 393.258
215 0 67.0229 12.9657 869 63.2117 864.047 393.928
216 0 67.1969 11.9648 804 65.3906 864.262 393.053
217 0 68.1056 12.4806 850 64.5871 864.144 392.455
218 0 71.058 12.5953 895 64.629 864.267 391.266
219 0 74.0983 13.3201 987 63.3536 863.761 390.192
220 0 76.0603 12.9371 984 64.6037 863.826 388.535
221 0 78.1086 12.2906 960 65.2365 864.114 389.752
222 0 80.1374 12.0044 962 66.4075 863.897 386.677
223 0 85.1456 14.2697 1215 62.8016 864.417 386.109
224 0 87.0918 12.9863 1131 64.8736 864.008 385.409
225 0 90.0684 13.4231 1209 64.6782 863.538 385.39
226 1 44.0805 10.7077 472 68.1377 863.727 404.85
227 0 45.0863 11.2673 508 66.7598 863.782 407.228
228 0 47.0992 12.0384 567 67.4215 864.22 406.392
229 0 50.1401 11.0091 552 67.2591 864.292 408.489
230 0 51.1153 12.1881 623 67.3307 863.653 405.796
231 0 52.1059 12.1291 632 67.2199 864.407 408.095
232 0 55.0919 11.2539 620 68.5032 862.997 407.152
233 0 55.1107 11.4315 630 69.2873 863.973 405.557
234 0 57.14 12.9856 742 67.3423 863.943 404.352
235 0 60.0895 13.5132 812 66.0123 863.802 406.117
236 0 60.118 12.043 724 68.0677 863.989 406.615
237 0 64.1005 12.9172 828 66.5966 863.715 404.251
238 0 66.1849 13.4623 891 66.3625 863.863 404.308
239 0 66.1377 12.2018 807 68.6468 864.144 403.862
240 0 69.1257 12.282 849 68.2156 864.437 403.948
241 0 73.2097 13.5091 989 65.8615 864.556 403.331
242 0 73.2318 11.9893 878 68.6503 864.547 402.933
243 0 76.147 13.6447 1039 67.0318 864.828 401.529
244 0 80.1585 15.1699 1216 64.0362 864.272 404.147
245 0 81.091 12.6278 1024 68.8193 863.689 398.84
246 1 44.0669 9.19057 405 67.2642 864.869 421.351
247 0 42.115 9.52154 401 69.0424 864.768 420.117
248 0 43.1223 9.78611 422 69.3104 864.398 419.481
249 0 45.0438 10.7229 483 68.1698 864.762 416.532
250 0 47.0592 10.9649 516 67.5678 864.5 417.351
251 0 47.1203 10.5899 499 69.0281 864.537 416.1
252 0 49.1022 10.0607 494 68.7814 864.658 417.901
253 0 53.1635 12.3581 657 65.6895 864.314 416.161
254 0 53.1752 10.0611 535 69.7028 864.568 415.858
255 0 53.0821 10.6251 564 68.6684 864.33 418.3
256 0 54.1454 10.4533 566 70.5813 863.465 415.27
257 0 56.108 11.0679 621 69.7746 863.694 415.328
258 0 61.0313 12.6493 772 66.2448 864.106 415.44
259 0 62.0907 11.5959 720 67.8792 864.426 415.947
260 0 59.0579 10.7522 635 71.0661 864.38 413.211
261 0 64.1395 12.5819 807 68.0545 864.507 412.347
262 0 67.209 11.1741 751 69.5166 864.67 412.724
263 0 67.0758 11.1068 745 70.6349 864.178 411.707
264 0 69.1869 11.2738 780 70.1782 864.078 411.31
265 1 39.082 10.7211 419 65.2267 864.995 429
266 0 39.082 10.6955 418 134.426 865.981 429
267 0 40.0888 9.40413 377 68.4987 865.671 428.186
268 0 41.0601 10.0097 411 68.3041 865.126 427.097
269 0 41.0534 10.4498 429 68.7949 864.886 425.107
270 0 43.0633 10.3569 446 68.0987 865.836 425.298
271 0 43.0892 9.39911 405 69.9012 865.988 425.383
272 0 46.1046 11.257 519 67.0867 865.592 423.114
273 0 45.1252 10.216 461 69.3167 865.106 422.499
274 0 47.0572 10.3279 486 69.7202 864.506 421.335
275 0 49.0835 11.0832 544 67.6176 864.735 421.384
276 0 51.1158 10.1143 517 68.5861 864.884 419.87
277 0 50.0597 9.84825 493 69.9797 864.71 419.114
278 0 52.1489 9.33865 487 69.5626 864.573 420.758
279 0 56.1769 12.1936 685 65.4161 863.972 416.759
280 0 54.0915 9.59485 519 69.4836 864.944 417.119
281 0 60.1212 9.64718 580 68.1086 865.216 417.317
282 0 61.143 11.0397 675 66.5126 865.012 414.35
283 0 61.1848 10.3621 634 67.1341 864.569 414.254
284 0 63.1344 10.2638 648 67.6728 864.742 412.248
285 0 67.1562 11.1084 746 64.929 864.464 414.46
286 0 70.1173 12.4791 875 63.152 864.769 410.886
287 0 71.1499 10.5973 754 65.6088 864.666 411.385
288 1 35.0616 7.32995 257 66.5525 865.315 429.424
289 0 36.0588 6.15661 222 68.2207 865.221 428.171
290 0 37.1523 8.37095 311 64.7363 864.72 426.736
291 0 37.0599 8.52675 316 65.1044 865.497 428.494
292 0 38.0711 9.71866 370 64.0892 865.119 424.716
293 0 39.0738 9.23893 361 64.0609 865.294 427.036
294 0 43.081 11.4435 493 60.645 864.633 424.767
295 0 43.0806 9.09923 392 63.5995 864.329 426.416
296 0 42.1301 9.99285 421 63.9192 864.309 424.028
297 0 46.1217 10.1037 466 63.3841 864.753 422.691
298 0 46.0886 11.8901 548 61.4434 864.916 421.394
299 0 46.1018 9.41395 434 65.0415 864.915 419.869
300 0 46.1018 9.43564 435 130.977 864.924 419.844
301 0 51.1834 10.2572 525 63.3105 864.971 420.956
302 0 51.1635 11.1212 569 62.9262 864.239 418.858
303 0 53.182 9.36408 498 65.739 864.291 417.51
304 0 54.128 9.68076 524 65.5802 863.948 415.323
305 0 56.2433 11.0058 619 63.8174 863.678 415.391
306 0 59.2024 10.7259 635 64.1197 863.885 413.676
307 0 57.2165 9.80486 561 66.2941 863.722 414.629
308 0 60.1295 9.84542 592 65.451 864.59 415.541
309 0 62.1043 9.90269 615 64.5691 864.6 415.143
310 0 63.2474 10.5459 667 64.1784 863.774 411.982
311 0 66.1761 10.0943 668 64.4566 863.735 412.702
312 0 68.116 9.0434 616 66.2273 863.93 410.622
313 0 69.1776 8.67333 600 66.7017 863.613 410.572
314 0 72.2276 9.5116 687 65.9214 863.4 411.25
315 0 71.2549 7.43808 530 69.183 863.121 409.117
316 0 75.1705 9.4851 713 65.9621 863.533 407.882
317 0 78.1552 8.61108 673 67.0906 863.325 404.845
318 1 40.1188 9.94547 399 63.0501 863.832 422.06
319 0 41.1373 10.7688 443 61.9594 864.079 421.458
320 0 42.1046 10.1177 426 62.5962 864.908 422.256
321 0 41.212 9.14783 377 64.4403 864.817 419.029
322 0 45.1558 9.32328 421 63.3112 864.42 417.767
323 0 45.2251 9.8839 447 62.9329 863.743 415.805
324 0 46.3151 9.17627 425 64.0376 864.492 417.626
325 0 46.1747 9.57234 442 63.8959 863.681 413.568
326 0 50.1719 10.4242 523 62.218 863.86 414.887
327 0 49.2878 9.47496 467 64.469 863.278 411.054
328 0 53.0931 10.6982 568 61.963 863.66 411.56
329 0 55.2602 9.62719 532 63.2782 863.976 410.998
330 0 55.1753 10.8382 598 62.791 863.975 407.968
331 0 57.1634 9.28916 531 64.3145 863.768 409.083
332 0 59.2344 9.47084 561 64.0642 863.877 405.51
333 0 60.2552 10.9036 657 62.3653 864.091 406.082
334 0 59.1544 8.50317 503 65.8847 863.553 405.511
335 0 62.4244 8.58639 536 65.4254 863.929 403.739
336 0 65.1704 8.86906 578 65.4031 863.96 404.266
337 0 68.2148 10.0125 683 63.7116 863.909 403.836
338 0 71.346 10.8065 771 63.1492 863.056 401.921
339 0 71.2858 10.9699 782 64 863.09 399.939
340 0 74.1457 11.1537 827 63.7715 862.99 398.493
341 0 74.0908 10.5546 782 65.2877 862.954 397.542
342 0 77.2284 10.5013 811 65.2478 863.355 398.044
343 1 40.2707 9.68446 390 64.3231 863.664 416.787
344 0 41.2691 9.11093 376 65.1144 864.471 416.027
345 0 45.2316 10.192 461 62.7744 863.206 415.627
346 0 44.1083 8.61516 380 65.9737 863.197 414.755
347 0 46.1736 8.72794 403 66.7345 863.908 413.685
348 0 47.1964 9.40751 444 66.491 863.178 411.89
349 0 48.1191 9.4557 455 66.9692 863.253 410.143
350 0 51.1245 11.5209 589 63.219 863.465 413.572
351 0 55.1914 10.9437 604 64.1656 863.247 409.854
352 0 53.2229 10.2775 547 65.9141 862.876 409.186
353 0 55.165 10.8765 600 65.795 863.178 407.75
354 0 56.1163 10.3 578 67.2093 863.356 406.152
355 0 60.2206 12.0391 725 63.8993 863.599 406.538
356 0 61.1847 11.7677 720 64.5319 863.5 406.357
357 0 63.2186 11.4523 724 65.2168 863.707 406.649
358 0 66.2314 12.3506 818 63.6406 863.542 403.743
359 0 65.2406 11.312 738 66.0339 863.764 402.912
360 0 66.2268 10.8868 721 66.9015 863.153 401.3
361 0 69.3394 11.4942 797 65.9285 863.484 398.457
362 0 71.1985 11.4188 813 66.1095 863.78 399.331
363 0 73.2632 11.3427 831 65.4501 863.537 400.159
364 0 76.3699 11.3657 868 65.2212 863.401 400.349
365 1 38.2624 8.33717 319 66.489 864.056 418.577
366 0 38.2624 8.36331 320 149.434 864.066 418.65
367 0 42.2266 10.7515 454 64.1498 863.753 415.09
368 0 43.1839 10.0501 434 64.4101 864.336 415.825
369 0 46.1428 11.7462 542 62.4908 864.836 413.31
370 0 47.1997 10.2543 484 65.2645 864.876 412.126
371 0 47.2528 11.2163 530 63.8509 864.991 411.309
372 0 47.1271 9.76083 460 66.487 864.613 410.441
373 0 51.2073 11.8538 607 63.4168 864.026 407.176
374 0 54.1921 11.2378 609 62.6174 864.841 411.007
375 0 54.1795 11.5173 624 63.359 864.176 407.684
376 0 53.1358 9.72978 517 64.8008 863.795 406.936
377 0 54.2343 10.9894 596 64.1141 863.555 404.361
378 0 56.2635 11.1973 630 63.6397 863.5 404.943
379 0 59.1588 11.8326 700 61.6129 863.741 405.324
380 0 59.1081 10.7938 638 64.116 863.892 401.646
381 0 60.1686 10.7697 648 65.0478 863.295 401.807
382 0 61.2003 10.915 668 65.2111 863.675 400.04
383 0 65.1693 11.4931 749 63.9332 863.348 398.792
384 0 66.1674 11.2895 747 63.5448 863.123 399.116
385 0 67.2643 9.63364 648 66.0802 863.262 397.89
386 0 71.2494 10.8773 775 64.0323 862.466 397.154
387 0 73.1856 11.1634 817 64.0024 862.458 396.414
388 0 73.0993 11.1355 814 64.3956 862.834 395.299
389 1 40.1178 9.32254 374 65.4332 863.15 413.631
390 0 39.0989 8.26111 323 67.9009 863.155 409.978
391 0 43.0814 9.60972 414 66.0483 862.802 408.705
392 0 44.1803 10.9551 484 64.2417 863.099 409.603
393 0 44.224 9.79107 433 66.1478 863.335 409.002
394 0 48.1977 10.125 488 65.5102 863.338 406.508
395 0 48.177 9.00844 434 66.7558 863.514 407.783
396 0 50.1997 10.9164 548 63.6277 863.807 408.836
397 0 50.1997 10.9562 550 131.158 862.822 408.931
398 0 53.1252 11.9341 634 63.0331 864.093 403.915
399 0 56.1522 11.0592 621 63.4911 864.061 404.238
400 0 56.0986 11.1233 624 64.0369 864.106 403.022
401 0 60.217 9.94736 599 64.3823 863.536 403.634
402 0 59.147 11.3615 672 63.8259 863.702 401.473
403 0 63.171 11.3818 719 63.0473 863.344 400.452
404 0 64.2413 11.7837 757 63.0568 863.166 399.807
405 0 65.4016 11.4829 751 63.9374 862.842 395.386
406 0 68.1039 10.8364 738 64.1084 862.564 394.725
407 0 69.0752 11.292 780 64.1538 862.814 391.75
408 0 71.095 10.493 746 64.9558 862.276 392.135
409 0 75.0344 12.4343 933 62.2712 862.727 387.588
410 0 76.1189 10.6018 807 64.6369 863.409 389.354
411 1 40.0626 9.33539 374 64.3904 863.583 405.217
412 0 39.0514 9.67956 378 64.5635 863.458 404.611
413 0 43.0876 11.0008 474 62.1118 863.584 406.306
414 0 43.0876 10.8616 468 136.575 863.592 406.271
415 0 47.145 11.0086 519 61.6975 863.836 409.42
416 0 50.062 10.7866 540 61.0907 864.085 409.1
417 0 49.1556 11.2296 552 61.4456 864.005 407.391
418 0 50.0731 10.9839 550 61.3418 864.225 406.158
419 0 52.1191 11.704 610 60.8934 863.946 404.528
420 0 54.0916 10.2049 552 61.6159 864.127 405.072
421 0 54.1052 11.0156 596 61.8171 864.097 402.346
422 0 57.0193 10.628 606 61.2112 863.733 403.751
423 0 60.1255 11.1766 672 60.5208 863.659 401.835
424 0 59.0624 10.9714 648 61.0849 863.833 400.483
425 0 61.1497 11.3819 696 60.7615 863.84 401.453
426 0 63.1091 11.3454 716 60.9553 863.975 399.409
427 0 65.1518 10.7288 699 60.8984 864.086 400.864
428 0 69.2676 11.3329 785 60.2217 863.583 397.293
429 0 72.1467 10.7559 776 60.4201 864.168 397.169
430 0 74.073 11.6507 863 59.6535 864.33 396.188
431 0 75.2167 12.351 929 59.1001 864.406 395.018
432 0 78.1248 11.84 925 59.4811 864.337 392.965
433 0 80.121 11.8945 953 59.6348 864.471 391.738
434 0 84.2405 10.4582 881 60.7242 863.973 390.428
435 0 86.0962 12.1724 1048 59.1947 863.838 386.223
436 1 47.0507 11.0944 522 57.613 863.751 409.611
437 0 49.0957 10.0824 495 59.1111 864.004 409.556
438 0 48.1089 9.56164 460 59.1326 864.278 411.922
439 0 53.1258 11.3504 603 56.9685 864.259 410.624
440 0 52.0862 10.809 563 58.9076 863.988 409.368
441 0 56.1366 12.0955 679 57.2607 863.954 406.897
442 0 58.1813 10.1923 593 59.032 864.317 408.184
443 0 62.0958 10.9991 683 58.3646 863.9 403.952
444 0 62.1622 11.5504 718 58.1755 863.656 401.489
445 0 63.1383 9.7722 617 60.1848 863.674 400.587
446 0 66.1098 11.1481 737 58.5862 863.536 399.661
447 0 68.135 9.73068 663 59.8084 863.784 400.118
448 0 68.1062 9.47051 645 60.7411 863.316 396.446
449 0 74.1437 11.7475 871 57.5488 863.408 396
450 0 78.1021 10.8576 848 57.5012 863.328 395.041
451 0 80.1643 12.0503 966 56.5611 863.879 394.071
452 0 82.1592 11.8916 977 57.0655 863.319 392.414
453 0 83.12 9.58855 797 59.7014 863.361 391.066
454 1 46.1349 10.8161 499 55.8116 864.164 410.595
455 0 46.0996 9.73978 449 57.4009 863.826 409.78
456 0 47.1847 9.53699 450 58.4733 863.313 408.069
457 0 48.1673 10.2767 495 57.5192 863.84 410
458 0 53.125 10.2024 542 57.1605 863.655 409.764
459 0 53.0993 10.0755 535 58.1477 863.264 407.619
460 0 55.1321 11.5541 637 56.2041 863.879 409.033
461 0 55.0488 10.5179 579 58.7081 864.098 406.109
462 0 58.1896 10.3799 604 58.5281 864.002 404.242
463 0 60.0845 11.2342 675 58.1674 864.049 402.493
464 0 62.1077 11.2868 701 58.4836 864.117 398.184
465 0 63.1614 12.191 770 57.4766 863.988 399.845
466 0 66.0486 9.67469 639 59.1784 863.931 402.468
467 0 67.2537 10.334 695 59.3669 863.724 398.727
468 0 69.1479 9.6026 664 60.5407 863.274 395.819
469 0 73.1313 10.3923 760 59.4105 863.753 395.918
470 0 77.1516 11.4968 887 57.4983 863.278 395.782
471 1 38.0553 11.0103 419 56.8401 863.761 413.647
472 0 39.0695 9.93103 388 58.0799 863.781 412.366
473 0 39.0911 9.61855 376 59.1702 863.213 411.971
474 0 44.0256 11.1753 492 56.7378 863.067 409.931
475 0 46.0555 10.7696 496 56.7319 863.161 409.137
476 0 46.0666 10.1592 468 57.0342 863.303 411.066
477 0 48.0927 10.5213 506 57.3636 863.779 409.156
478 0 51.0855 10.1986 521 57.666 863.115 406.892
479 0 50.0669 10.2862 515 58.3767 863.221 406.01
480 0 53.0322 11.031 585 57.6308 863.198 403.422
481 0 56.1132 11.3342 636 57.6761 862.326 402.28
482 0 59.0936 11.981 708 56.2006 864.167 403.992
483 0 59.0936 11.9979 709 123.188 865.133 403.884
484 0 62.1052 11.4644 712 56.9494 863.268 403.403
485 0 64.0894 12.623 809 56.0692 863.147 400.244
486 0 66.171 10.5333 697 57.8565 863.56 400.786
487 0 70.2149 11.6642 819 56.895 863.436 398.387
488 0 72.1737 11.6802 843 56.9751 863.502 396.541
489 0 74.2832 11.3619 844 57.1303 863.518 394.653
490 0 77.1147 11.4375 882 57.0884 863.559 395.171
491 0 76.1731 10.1086 770 59.1896 863.409 392.522
492 0 79.1671 9.42311 746 59.5724 863.744 392.488
493 1 43.139 10.9645 473 55.9619 864.319 409.793
494 0 43.0558 10.1032 435 57.0851 864.074 410.09
495 0 43.0579 9.05756 390 58.9692 863.908 408.569
496 0 47.0465 10.3089 485 56.4722 864.056 408.274
497 0 48.1182 11.1185 535 56.1402 863.346 407.017
498 0 52.0644 10.9288 569 55.4675 863.738 406.353
499 0 52.186 10.8458 566 56.1095 863.507 404.866
500 0 54.0872 11.389 616 55.5568 863.097 403.083
501 0 56.1578 12.2512 688 54.9855 863.186 402.145
502 0 56.0743 11.0568 620 56.7903 863.427 403.129
503 0 58.0594 10.4548 607 57.1153 863.85 401.712
504 0 62.1156 10.078 626 57.4952 863.425 401.896
505 0 61.0898 10.8529 663 57.6787 863.317 399.09
506 0 63.0669 13.2241 834 55.4412 863.085 396.072
507 0 66.1113 11.9193 788 56.5876 862.745 398.631
508 0 69.0811 13.1295 907 55.5799 863.665 396.367
509 0 68.0788 11.1635 760 58.471 863.776 396.329
510 0 71.1931 11.7708 838 57.3664 863.603 398.16
511 0 73.0769 10.3726 758 59.814 863.637 395.945
512 0 79.2138 12.8765 1020 56.75 863.864 393.199
513 0 81.1851 12.5762 1021 57.807 863.326 391.681
514 0 82.2288 11.4802 944 58.9206 863.486 392.064
515 0 85.2508 11.5072 981 59.1947 862.941 389.255
516 0 86.163 9.56327 824 63.2354 863.137 387.038
517 0 91.1614 12.0117 1095 60.3352 862.987 384.795
518 0 97.1489 17.6121 1711 50.0491 862.115 383.277
519 1 52.0516 11.796 614 57.202 863.438 406.129
520 0 54.1013 12.033 651 57.8433 863.19 403.946
521 0 56.0396 11.0993 622 58.9775 863.162 403.121
522 0 57.0991 11.4888 656 59.0457 862.793 401.817
523 0 60.1114 12.9094 776 57.4034 862.829 401.066
524 0 62.1412 12.4072 771 58.0947 862.748 400.785
525 0 63.0646 11.5596 729 60.4883 862.582 396.517
526 0 67.1816 12.6672 851 58.2421 862.109 399.456
527 0 68.1474 10.9028 743 60.6043 862.799 398.168
528 0 68.1474 10.8735 741 138.318 863.798 398.169
529 0 70.0965 12.0833 847 60.4581 862.554 392.958
530 0 75.1462 12.8017 962 58.7682 863.161 392.667
531 0 75.0973 11.8912 893 60.2833 863.276 393.641
532 0 79.0732 11.3692 899 60.4483 863.178 394.427
533 0 82.0693 11.1857 918 61.5632 864.025 389.6
534 0 85.0939 11.3522 966 61.8012 863.503 387.601
535 1 42.0145 7.99723 336 64.1012 863.61 410.188
536 0 46.2043 10.7566 497 59.9658 863.62 409.755
537 0 45.0801 10.9361 493 62.2373 863.623 406.292
538 0 50.1382 11.6678 585 59.6735 863.412 408.776
539 0 52.0375 11.5494 601 61.0716 863.434 405.691
540 0 52.0598 10.2574 534 63.0524 863.448 404.852
541 0 54.0279 10.4391 564 63.4557 863.484 403.103
542 0 57.2033 12.1497 695 61.5842 863.152 402.273
543 0 57.0484 10.4473 596 64.5235 863.252 401.48
544 0 60.0382 10.8431 651 63.9846 863.015 401.588
545 0 61.0832 12.1965 745 63.247 863.145 397.506
546 0 64.051 12.1466 778 62.9152 863.086 398.738
547 0 66.0691 12.0177 794 62.5416 863.147 397.763
548 0 66.0887 10.9398 723 64.4426 863.559 395.054
549 0 68.082 11.354 773 64.2432 862.842 392.935
550 0 72.0962 12.4972 901 61.9556 863.366 393.583
551 0 73.1223 12.2945 899 62.8687 863.058 392.594
552 1 38.0193 9.33736 355 65.2338 863.101 409.346
553 0 40.047 11.4116 457 63.5842 863.328 407.707
554 0 41.0198 11.0191 452 64.1084 863.5 405.916
555 0 43.0452 10.3147 444 65.0833 862.768 405.498
556 0 45.0236 12.2158 550 62.9873 862.295 404.711
557 0 46.0538 11.682 538 63.5855 862.377 402.58
558 0 45.019 11.3285 510 64.7157 862.51 399.584
559 0 49.0344 11.8488 581 63.0568 862.64 402.489
560 0 49.0299 10.361 508 65.063 862.929 402.297
561 0 52.0659 13.0796 681 61.63 863.17 400.355
562 0 53.0917 11.7156 622 62.9952 863.252 401.368
563 0 54.0313 10.6235 574 65.0279 862.507 399.432
564 0 56.0199 12.2992 689 62.9579 862.367 397.627
565 0 60.0955 12.2971 739 62.4262 862.911 397.152
566 0 61.0548 12.0384 735 63.4082 862.326 395.005
567 0 63.0685 12.7322 803 61.9452 862.478 397.589
568 0 62.0388 12.6372 784 62.9809 862.394 394.75
569 0 66.0164 13.3149 879 62.223 862.247 392.109
570 0 66.0518 13.0655 863 62.664 861.55 392.815
571 0 68.0872 12.1903 830 64.4554 861.606 390.09
572 0 71.1184 12.3456 878 63.9328 861.33 389.26
573 0 74.0608 12.2467 907 64.1345 861.11 389.792
574 0 75.1546 11.177 840 65.356 861.43 390.023
575 0 78.0444 12.5441 979 63.5281 861.57 388.485
576 1 43.073 9.79732 422 64.8863 861.036 405.784
577 0 44.0154 9.79203 431 65.0766 861.68 404.891
578 0 46.068 11.2442 518 63.5676 861.965 402.494
579 0 46.068 11.3094 521 137.15 863.979 402.42
580 0 50.0532 11.6476 583 61.9657 862.511 403.78
581 0 52.0733 12.1367 632 62.2136 861.848 399.869
582 0 53.0737 11.2862 599 63.8331 862.454 398.902
583 0 52.0283 10.206 531 65.6346 862.173 398.576
584 0 57.065 11.4781 655 63.4046 862.159 398.921
585 0 58.0173 12.7548 740 62.3743 862.68 397.654
586 0 61.086 11.6721 713 64.2118 862.51 394.736
587 0 62.1807 11.8365 736 64.6807 862.202 392.527
588 0 64.1031 13.3691 857 62.5263 862.781 393.868
589 0 66.0781 11.9253 788 64.283 862.395 394.155
590 0 69.0306 12.7625 881 63.2997 862.576 391.037
591 0 74.1366 14.824 1099 59.4668 862.62 394.46
592 0 74.0987 12.4968 926 63.6058 862.515 391.259
593 0 76.0827 12.0921 920 64.5663 861.996 388.23
594 0 78.0465 11.5828 904 65.0299 862.202 389.569
595 1 43.0268 11.0629 476 62.0273 862.779 410.613
596 0 46.0476 12.6174 581 62.0516 862.284 407.014
597 0 46.1409 11.6816 539 63.0891 862.326 407.137
598 0 47.1225 11.2685 531 64.3352 862.218 406.556
599 0 50.0616 11.5458 578 63.237 862.31 406.261
600 0 50.0616 11.5458 578 142.893 862.325 406.254
601 0 54.1068 12.6417 684 61.8348 862.693 402.825
602 0 54.0298 11.179 604 63.692 862.091 403.321
603 0 56.0491 12.0252 674 63.0727 862.291 400.849
604 0 58.1104 12.7344 740 62.6514 862.464 399.715
605 0 59.0535 12.9713 766 62.7245 862.435 399.288
606 0 61.1002 11.4893 702 64.1482 862.648 399.922
607 0 59.0867 10.4254 616 67.1412 862.977 396.477
608 0 64.1192 11.1823 717 65.3877 862.202 395.877
609 0 67.025 13.5024 905 62.4575 861.887 393.601
610 0 69.0478 11.9917 828 64.2874 862.191 391.271
611 0 70.1085 11.5678 811 65.0358 862.591 392.745
612 0 74.0686 12.3264 913 64.1325 861.874 391.446
613 0 79.1627 12.4427 985 62.6832 862.354 391.933
614 1 42.0422 10.3467 435 63.777 862.133 407.632
615 0 44.0182 10.6774 470 63.7447 862.151 407.2
616 0 46.1253 11.7289 541 63.268 861.884 406.514
617 0 46.0266 10.8633 500 64.634 862.106 406.582
618 0 47.0318 10.9713 516 65.0601 862.083 405.775
619 0 49.0309 10.1365 497 65.1791 862.036 406.326
620 0 50.0745 10.3845 520 66.0308 861.981 403.346
621 0 52.0661 11.7351 611 64.0147 862.102 403.046
622 0 55.0508 12.3522 680 62.9103 862.063 401.507
623 0 54.026 10.6801 577 65.8232 862.712 403.078
624 0 57.0848 13.769 786 61.8868 862.653 401.926
625 0 59.0511 11.634 687 64.7336 862.738 400.721
626 0 61.1281 12.3838 757 63.8732 862.437 400.48
627 0 61.1281 12.4165 759 146.572 862.426 400.325
628 0 64.0958 11.1552 715 65.6196 862.28 399.092
629 0 69.065 12.814 885 63.4124 862.416 395.58
630 0 69.1075 12.2852 849 64.8704 862.343 394.751
631 0 70.1096 11.3822 798 66.1165 862.209 394.382
632 0 71.0662 11.3415 806 66.227 862.295 394.608
633 0 73.0568 11.9085 870 65.7678 862.375 392.892
634 0 76.0619 11.3329 862 66.0847 861.847 392.218
635 0 79.032 12.0837 955 65.399 862.191 390.837
636 0 82.1618 12.3293 1013 65.1194 862.161 390.176
637 0 82.1618 12.3172 1012 148.221 862.165 390.105
638 1 48.0384 10.0545 483 65.6294 861.919 404.986
639 0 49.1301 11.4594 563 65.135 861.858 403.494
640 0 54.1575 11.5404 625 63.8208 861.842 403.456
641 0 53.0481 11.1597 592 64.5912 862.463 401.917
642 0 53.0481 11.1597 592 143.272 861.471 401.796
643 0 57.0808 11.4575 654 64.0336 861.804 399.882
644 0 62.0393 12.0569 748 62.2955 861.849 400.187
645 0 62.1205 13.2806 825 61.5636 861.538 398.143
646 0 65.045 12.2992 800 62.7175 862.02 398.264
647 0 66.0373 13.6287 900 60.9567 861.93 395.359
648 0 67.1705 11.8951 799 62.9925 862.146 396.138
649 0 70.1844 12.5242 879 62.198 862.031 394.419
650 0 71.0818 11.6204 826 63.4746 861.883 394.222
651 0 74.1055 11.713 868 63.2327 862.078 391.348
652 0 77.1303 12.4335 959 61.8655 862.34 390.97
653 0 79.1622 12.0007 950 62.4526 861.655 391.843
654 0 82.1493 12.1608 999 62.4434 862.039 390.092
655 1 42.0697 10.6965 450 62.9933 862.182 408.484
656 0 44.0793 9.75514 430 63.4744 862.302 407.449
657 0 47.0582 11.0714 521 61.5067 863 406.965
658 0 51.0821 11.6479 595 60.0084 863.244 406.202
659 0 49.0797 10.8599 533 61.833 862.835 404.379
660 0 53.0453 11.8955 631 59.7639 863.01 405.726
661 0 54.0881 11.056 598 61.209 862.358 403.319
662 0 53.1218 10.2971 547 62.7898 862.521 400.739
663 0 58.0755 12.8281 745 59.5933 862.467 399.113
664 0 59.0292 12.7903 755 59.4596 861.676 400.751
665 0 60.0491 11.041 663 61.7813 862.668 400.252
666 0 63.0948 11.2054 707 61.2221 863.085 401.649
667 0 64.0527 11.1471 714 62.3221 862.252 397.137
668 0 66.111 12.3126 814 61.6953 862.482 397.666
669 0 68.0517 11.9321 812 61.8251 862.287 397.335
670 0 72.0702 11.9467 861 61.7666 861.734 396.353
671 0 76.0706 13.6189 1036 59.5888 861.776 395.713
672 0 78.0807 11.6674 911 62.787 861.653 393.564
673 1 43.0842 11.8141 509 61.0982 861.515 410.216
674 0 44.0293 11.0835 488 61.8627 861.326 410.354
675 0 46.0595 10.6601 491 63.6884 861.383 408.919
676 0 47.1312 11.4362 539 62.9295 862.393 407.599
677 0 46.0706 11.0483 509 64.4558 861.872 407.603
678 0 50.0937 12.3369 618 62.8641 861.456 405.047
679 0 51.0328 12.1099 618 63.5437 861.9 405.343
680 0 52.118 11.6275 606 64.7442 861.594 402.14
681 0 55.0678 13.2019 727 63.0165 861.422 402.95
682 0 57.0863 12.63 721 63.6325 861.465 403.907
683 0 59.0306 13.1796 778 63.1465 861.067 403.531
684 0 59.0311 12.2308 722 65.5388 861.35 400.619
685 0 59.0522 11.2612 665 67.3023 861.629 400.229
686 0 63.0767 12.1756 768 65.5495 861.354 400.27
687 0 65.0652 13.4634 876 64.0365 861.621 398.904
688 0 68.1077 12.583 857 64.8133 861.798 398.649
689 0 72.158 13.318 961 64.0052 861.274 395.564
690 0 73.0766 13.5748 992 64.4204 860.727 393.172
691 0 76.1174 13.3609 1017 64.5192 860.858 392.196
692 0 78.1126 12.3796 967 65.7539 860.477 390.268
693 0 81.0555 12.3372 1000 65.696 860.903 390.881
694 0 82.116 12.2266 1004 66.0667 861.274 388.32
695 0 88.1869 13.0405 1150 64.4548 861.505 387.117
696 0 89.0469 13.0156 1159 64.5013 862.022 388.874
697 1 47.0878 11.4255 538 64.2714 861.933 407.084
698 0 48.0862 11.8329 569 63.9578 862.557 406.134
699 0 49.0609 11.3532 557 64.3878 862.158 407.232
700 0 50.0848 10.4623 524 66.2882 861.901 405.204
701 0 52.1051 11.2849 588 65.568 862.442 403.151
702 0 54.0967 11.5349 624 64.9696 861.611 403.356
703 0 54.0967 11.4055 617 128.686 860.626 403.282
704 0 58.0956 11.7393 682 64.7947 861.55 400.931
705 0 60.0679 11.6868 702 64.4402 861.999 400.392
706 0 61.1758 11.1155 680 65.5397 862.478 398.026
707 0 61.157 10.9064 667 66.2324 862.522 398.468
708 0 64.1475 11.193 718 65.2451 862.34 396.286
709 0 68.1336 12.4461 848 63.77 862.055 394.825
710 0 68.1028 9.92618 676 66.8683 862.229 395.046
711 0 73.071 11.742 858 62.7786 862.184 395.028
712 1 114.29 9.60717 1098 67.3461 862.082 372.947
713 1 79.1869 10.9488 867 62.9666 862.709 391.877
714 0 80.1533 12.1268 972 61.9578 863.027 391.245
715 1 46.1105 9.56398 441 63.5352 863.664 405.649
716 0 47.1019 8.36485 394 65.1447 863.477 404.949
717 0 49.075 10.4941 515 63.5476 863.091 403.893
718 0 53.067 11.3253 601 61.8902 863.351 404.033
719 0 53.0768 11.2102 595 62.9765 863.062 400.805
720 0 56.2748 11.2306 632 62.5206 862.878 401.522
721 0 59.1836 11.3376 671 61.7004 863.39 401.499
722 0 59.1836 11.3545 672 123.491 864.379 401.327
723 0 64.1192 12.0557 773 61.1811 863.004 397.828
724 0 67.1424 11.4682 770 61.1844 863.029 397.904
725 0 67.0981 10.7753 723 62.8935 862.732 395.053
726 0 69.1233 10.2426 708 63.9633 862.845 394.305
727 0 73.2313 12.481 914 60.9125 862.856 391.62
728 0 76.2479 12.6954 968 60.6126 862.452 389.878
729 0 78.1807 11.6653 912 62.023 862.401 390.052
730 0 81.1502 12.865 1044 60.4732 862.373 386.776
731 0 82.1707 12.7783 1050 61.201 861.846 383.71
732 1 43.0397 11.6869 503 59.2922 862.513 405.219
733 0 44.0828 8.73356 385 61.9065 862.743 406.81
734 0 46.0483 10.8582 500 59.602 863.048 405.242
735 0 48.0432 10.7195 515 59.4388 863.076 404.414
736 0 47.0947 10.2135 481 61.0125 863.181 401.383
737 0 51.1195 11.2482 575 59.4748 863.085 400.48
738 0 51.1195 11.346 580 125.159 863.064 400.5
739 0 52.0575 9.04768 471 62.8259 862.658 397.166
740 0 59.0781 10.7823 637 59.4144 862.447 398.124
741 0 58.1336 11.6972 680 59.4971 862.59 396.971
742 0 59.1358 11.1269 658 60.1216 862.912 395.433
743 0 66.2638 11.7259 777 58.0875 863.118 397.452
744 0 65.1958 12.1634 793 58.2232 863.226 397.388
745 0 66.0775 10.3364 683 61.287 863.303 392.212
746 0 69.3697 12.2532 850 58.7612 862.988 394.305
747 0 73.1417 13.7405 1005 56.1493 863.104 396.189
748 0 79.2387 18.4253 1460 42.9527 862.477 393.646
749 0 78.1424 12.1317 948 59.1772 862.522 388.922
750 0 80.298 11.7438 943 59.6882 862.248 388.474
751 0 83.2444 11.9888 998 59.2715 863.058 390.15
752 0 83.2753 10.9756 914 61.5689 862.539 385.493
753 0 89.1968 11.2896 1007 60.3923 862.597 385.204
754 0 92.1351 13.122 1209 58.727 862.333 380.709
755 1 52.0685 10.659 555 59.3153 862.575 401.656
756 0 54.0641 11.9858 648 58.6111 862.444 399.096
757 0 55.0411 10.3559 570 60.4404 863.026 401.286
758 0 58.0197 9.9449 577 60.7574 862.419 399.835
759 0 60.1872 12.295 740 59.0243 862.242 397.211
760 0 61.0824 12.5404 766 58.8394 862.625 397.845
761 0 64.0521 11.8497 759 58.2727 862.808 400.195
762 0 67.1786 11.462 770 59.3325 862.365 396.161
763 0 67.1402 11.4983 772 59.0155 861.855 392.301
764 0 71.0698 11.2425 799 58.6258 861.733 394.794
765 0 73.1458 13.2202 967 56.6329 862.226 391.697
766 0 75.1543 12.5874 946 57.4683 862.703 389.48
767 0 77.1374 12.4453 960 57.9 862.667 391.215
768 0 79.1011 12.2754 971 57.9712 862.243 390.877
769 0 82.153 12.1481 998 58.5461 861.702 388.377
770 0 84.2598 12.1292 1022 58.8601 862.3 388.811
771 0 89.1618 13.5596 1209 56.8519 861.983 386.506
772 0 90.0928 12.1319 1093 59.2443 861.853 385.568
773 0 92.2401 12.294 1134 59.5282 862.044 384.4
774 0 98.1314 13.5838 1333 57.5551 862.485 385.096
775 1 53.1337 11.0852 589 58.5705 863.085 403.789
776 0 53.1731 13.1645 700 56.7929 862.87 403.496
777 0 54.0788 11.1689 604 59.0414 862.141 403.927
778 0 57.0615 11.4613 654 57.8272 862.7 405.604
779 0 57.0923 11.5953 662 58.5212 862.784 403.183
780 0 58.0605 11.9875 696 58.783 862.269 399.606
781 0 62.1886 12.0279 748 58.8971 862.434 398.404
782 0 60.055 10.3905 624 61.3702 862.643 397.002
783 0 64.0691 11.3471 727 60.1114 862.722 396.864
784 0 64.0691 11.2691 722 142.526 862.698 396.911
785 0 68.1401 13.663 931 58.0086 862.272 392.629
786 0 70.2417 13.0122 914 59.0449 861.91 391.336
787 0 72.1833 12.7315 919 59.5506 861.909 391.866
788 0 75.1428 11.7376 882 60.9728 861.884 389.757
789 0 76.1643 11.6984 891 61.3154 861.517 389.939
790 0 77.1007 11.9584 922 61.1432 862.228 385.764
791 0 82.2716 12.6775 1043 60.0978 862.125 384.48
792 0 84.0549 11.7542 988 61.6174 862.324 383.098
793 1 45.0787 10.7146 483 60.5549 862.106 403.499
794 0 48.0112 11.8306 568 59.294 862.107 404.102
795 0 48.0887 10.2727 494 62.8684 862.128 400.458
796 0 51.0734 12.7268 650 59.6277 862.314 399.723
797 0 52.094 11.5176 600 62.015 862.138 396.997
798 0 53.1552 11.8333 629 62.3259 861.63 397.281
799 0 55.1412 12.0237 663 61.6848 862.335 396.861
800 0 57.1375 12.4262 710 61.5577 861.727 395.054
801 0 57.0595 11.97 683 63.0644 861.985 393.335
802 0 62.0523 13.4242 833 60.7179 862.096 393.272
803 0 64.1026 13.8996 891 59.7677 861.965 395.129
804 0 66.0555 13.3373 881 60.9784 861.829 392.909
805 0 68.1461 14.2928 974 60.0288 861.842 390.415
806 0 72.1109 12.356 891 62.11 862.14 390.52
807 0 74.1864 11.7946 875 62.4914 862.045 390.387
808 0 75.0698 11.5892 870 63.6931 862.228 387.483
809 0 77.1069 11.724 904 64.073 862.49 385.56
810 0 81.1369 12.2139 991 63.3905 862.44 386.359
811 0 81.1369 12.2632 995 144.863 862.454 386.428
812 1 47.0732 9.30465 438 64.0228 862.918 405.064
813 0 45.0609 9.74238 439 65.5171 863.139 402.975
814 0 50.074 12.2019 611 62.126 863.272 401.72
815 0 54.0696 10.394 562 63.3523 863.128 401.639
816 0 56.0287 11.0479 619 62.8191 863.284 400.859
817 0 54.0881 10.0392 543 65.3389 863.149 400.092
818 0 58.0582 13.0386 757 60.6499 863.062 399.931
819 0 60.0564 11.0896 666 62.8604 863.096 401.242
820 0 63.1447 11.4657 724 62.3329 863.271 399.177
821 0 65.1889 13.4379 876 60.5936 862.799 397.6
822 0 67.1659 12.8786 865 61.2197 863.009 396.924
823 0 72.191 12.3561 892 61.3901 862.68 396.488
824 0 72.1706 11.2511 812 62.4446 863.307 397.83
825 0 73.1677 10.3734 759 64.4651 862.671 394.344
826 0 77.1013 11.3487 875 63.0423 862.446 393.215
827 0 80.1376 12.1167 971 61.8507 862.289 392.296
828 0 82.2845 10.5002 864 63.75 862.309 392.109
829 0 86.169 12.696 1094 61.1444 862.173 390.486
830 0 89.3176 13.8606 1238 59.6882 862.595 386.188
831 0 89.3176 13.7823 1231 129.305 862.616 386.177
832 0 89.3176 13.9054 1242 128.279 862.609 386.357
833 1 51.0709 11.1218 568 61.419 863.322 403.806
834 0 54.1003 9.50088 514 63.3774 863.313 403.669
835 0 56.0961 10.9812 616 61.461 862.555 403.38
836 0 59.1014 10.4566 618 61.9142 862.22 400.71
837 0 62.1042 11.1748 694 60.3444 862.225 400.241
838 0 61.153 11.0379 675 61.3082 862.644 399.239
839 0 64.0528 12.1462 778 59.6337 862.797 399.423
840 0 68.0681 12.179 829 59.6007 862.565 395.86
841 0 68.0809 10.9869 748 61.3062 862.634 394.191
842 0 72.1011 11.5116 830 60.812 862.577 396.139
843 0 73.1365 12.0596 882 60.61 862.575 394.746
844 0 75.1369 10.4742 787 63.0419 862.207 390.925
845 0 79.1811 11.6821 925 61.4984 862.685 388.664
846 0 83.1591 12.2175 1016 60.3829 863.187 388.411
847 0 84.0601 11.7297 986 60.9665 862.704 390.398
848 0 88.255 11.1155 981 61.7686 862.804 385.424
849 0 92.1887 12.3334 1137 60.285 862.748 384.544
850 0 96.1653 12.4473 1197 60.2164 862.018 383.352
851 1 55.1382 10.5372 581 60.747 862.663 404.083
852 0 57.1374 11.026 630 60.8683 862.756 403.738
853 0 61.2081 11.0606 677 60.5377 862.674 400.403
854 0 63.2208 10.5661 668 61.8234 862.382 397.219
855 0 65.2291 9.65827 630 62.2984 862.592 399.052
856 0 68.2616 11.0311 753 61.2377 862.683 396.908
857 0 72.1584 9.96418 719 61.8289 863.132 397.847
858 0 73.1775 11.1646 817 60.6181 862.485 394.841
859 0 74.2603 11.3385 842 60.7316 863.226 392.494
860 0 78.2861 11.5602 905 60.0453 863.129 392.337
861 0 81.2674 11.3453 922 60.4837 862.956 387.658
862 0 82.1571 10.4678 860 61.7314 862.79 388.444
863 0 88.1123 12.4046 1093 58.5627 862.681 387.047
864 0 90.2936 11.1304 1005 60.5662 863.21 384.955
865 0 92.1721 10.3502 954 61.6457 863.063 382.297
866 0 98.2474 11.3489 1115 60.1812 863.23 381.57
867 1 57.1996 10.4371 597 57.9749 863.184 402.104
868 0 59.2161 10.9936 651 57.6513 862.682 398.061
869 0 61.2353 11.0884 679 57.0398 863.879 401.496
870 0 63.1571 10.8301 684 57.845 863.384 400.167
871 0 64.1199 12.1179 777 57.1042 863.081 396.737
872 0 67.171 10.9422 735 58.9292 862.457 394.709
873 0 68.169 11.6035 791 58.1252 862.998 394.742
874 0 72.1557 11.8771 857 57.9498 862.841 392.676
875 0 74.1434 11.6936 867 58.5375 862.37 391.078
876 0 77.146 13.6494 1053 56.1472 863.26 390.139
877 0 78.236 12.7435 997 57.3109 863.373 390.918
878 0 81.2204 12.3491 1003 57.674 862.727 388.468
879 0 84.151 12.4419 1047 57.5244 862.874 385.596
880 0 87.1926 12.5928 1098 57.2814 863.036 384.956
881 0 86.1231 10.2992 887 60.2582 862.909 383.947
882 0 91.0928 10.9668 999 59.4274 862.617 383.832
883 0 93.1944 11.3312 1056 59.7159 862.198 379.147
884 0 99.1406 13.2539 1314 56.7017 862.253 379.943
885 0 103.183 13.2968 1372 57.5539 862.28 377.977
886 0 105.157 12.0202 1264 59.0672 862.316 378.68
887 0 107.076 12.5986 1349 59.215 862.382 374.536
888 0 111.199 10.7825 1199 61.6347 862.683 371.401
889 0 114.151 10.6788 1219 62.0057 862.302 370.801
890 1 68.0883 8.7974 599 62.0084 862.785 394.185
891 0 72.1736 10.7519 776 60.6121 862.738 391.427
892 0 75.1346 12.258 921 59.6178 863.524 391.244
893 0 77.1599 13.0379 1006 58.8489 863.322 388.776
894 0 79.1166 10.8447 858 61.3158 863.485 391.676
895 0 82.0898 12.5838 1033 59.9226 863.156 385.535
896 0 83.1347 12.0166 999 60.6807 863.423 386.998
897 0 87.1517 13.4937 1176 58.7704 863.543 383.966
898 0 91.1688 14.5006 1322 57.3404 863.318 386.06
899 0 92.1655 11.4142 1052 61.9972 863.337 382.279
900 0 95.0474 13.1198 1247 60.3585 863.577 379.654
901 0 99.0952 12.9572 1284 60.729 863.288 377.053
902 0 105.224 15.1677 1596 57.5508 863.593 376.852
903 0 105.136 12.2413 1287 62.2595 863.5 372.364
904 0 112.088 13.0612 1464 60.2753 863.877 376.322
905 0 114.165 15.8543 1810 57.6751 863.483 369.451
906 0 118.234 13.338 1577 60.9753 863.536 368.167
907 1 66.1271 9.70857 642 61.6308 863.693 398.227
908 0 70.2184 13.6147 956 57.6925 863.359 395.9
909 0 72.1399 11.0618 798 61.4812 863.071 393.866
910 0 74.1173 13.3437 989 58.9403 863.112 391.931
911 0 75.149 11.8831 893 61.1321 863.812 389.421
912 0 78.0639 11.5162 899 60.8532 863.759 388.269
913 0 82.0652 12.1854 1000 59.617 863.894 388.536
914 0 84.1495 12.8937 1085 59.1521 863.756 386.051
915 0 86.1352 13.0609 1125 59.0027 863.686 383.679
916 0 88.1097 12.9838 1144 59.1643 863.394 382.48
917 0 91.1003 11.9648 1090 60.6872 863.477 379.368
918 0 92.2186 12.8933 1189 59.9302 865.048 375.246
919 0 96.1232 12.3695 1189 60.2178 864.242 378.795
920 0 100.129 11.8746 1189 60.6762 863.237 379.283
921 0 105.153 12.2013 1283 60.6937 863.654 374.865
922 0 109.099 12.4291 1356 60.2456 863.034 373.748
923 0 111.114 10.8537 1206 62.4826 864.499 374.161
924 1 67.0974 12.221 820 57.2988 864.649 397.134
925 0 68.0365 9.64188 656 60.846 863.828 395.736
926 0 67.1226 10.9203 733 59.7654 863.651 394.538
927 0 69.2384 11.2654 780 60.1897 862.776 393.067
928 0 74.0837 12.3509 915 58.6033 862.867 392.591
929 0 76.1468 10.9131 831 60.2828 863.046 392.419
930 0 77.0748 12.3516 952 59.0704 862.667 392.685
931 0 78.1053 12.1247 947 60.1045 862.542 389.379
932 0 83.1694 12.3964 1031 59.2076 863.045 392.133
933 0 86.187 11.3474 978 60.408 862.768 390.03
934 0 87.1575 12.3569 1077 60.3324 863.086 385.258
935 0 90.084 11.5115 1037 61.0154 862.877 390.332
936 0 94.1542 13.0212 1226 59.7912 863.197 386.069
937 0 98.193 11.9357 1172 60.6271 863.066 386.746
938 0 101.163 12.4354 1258 60.4229 863.133 385.537
939 1 54.0521 10.6379 575 60.4156 863.69 405.96
940 0 57.1065 10.174 581 61.2633 863.432 407.2
941 0 56.0751 9.87961 554 62.0921 863.478 406.235
942 0 63.1497 11.2748 712 59.7598 863.862 408.205
943 0 64.1029 10.4988 673 61.0802 863.571 405.686
944 0 65.0508 11.8984 774 59.916 863.062 404.605
945 0 67.1103 11.6077 779 60.5738 862.802 402.308
946 0 70.1202 11.7798 826 61.1743 862.776 399.295
947 0 70.1143 11.3814 798 61.3383 862.257 398.103
948 0 72.1369 12.2406 883 60.8958 862.946 398.009
949 0 77.171 11.468 885 61.2181 862.797 398.746
950 0 81.1468 12.1878 989 60.5571 863.012 396.632
951 0 80.1822 11.3866 913 60.9255 863.544 399.865
952 0 83.0993 12.1541 1010 61.3089 862.7 395.761
953 0 88.1515 11.7412 1035 61.0889 862.98 396.445
954 0 91.213 12.8929 1176 60.3342 862.637 394.047
955 1 52.0442 11.0483 575 58.6539 863.596 414.838
956 0 51.0705 10.5736 540 60.5796 862.713 412.017
957 0 54.1181 11.8629 642 59.1838 862.81 411.29
