time division length width area intensity CMx CMy
0 0 15.0005 3.86655 58 42.5345 344.103 518.19
1 0 16.004 3.18671 51 43.5098 343.784 518.765
2 0 17.0016 1.82336 31 44.0323 343.323 518.806
3 0 17.0106 4.64417 79 39.1772 343.418 516.266
4 1 102.072 13.2749 1355 58.9675 345.328 461.331
5 1 76.1186 6.73948 513 63.2768 344.251 475.571
6 1 19.0179 4.31173 82 38.8537 343.939 515.415
7 0 18.3885 3.96987 73 38.5205 341.603 515.411
8 0 17.032 1.52654 26 42.4231 341.654 516.577
9 0 17.0937 5.08958 87 39.5402 342.218 516.506
10 0 18.0838 1.76954 32 39.875 341.531 514.719
11 1 67.1642 11.9409 802 59.2406 344.353 473.252
12 1 87.1988 7.94736 693 61.7879 345.007 471.173
13 0 89.0343 7.58134 675 62.6489 344.833 469.295
14 1 75.1187 12.8596 966 56.7226 343.896 473.575
15 1 14.0192 4.49383 63 34.746 342.238 513.476
16 0 8.00007 3.37497 27 46.6667 341.667 521.481
17 0 17.0763 8.13994 139 38.9928 342.475 519.59
18 0 16.0089 2.87341 46 43.0435 341.913 519.609
19 0 17.0402 6.10322 104 40.2019 341.75 518.808
20 0 18.0105 5.7189 103 40.534 340.981 518.621
21 0 18.0464 6.76036 122 39.6885 341.82 518.828
22 0 17.0244 4.58167 78 42.4487 341.346 519.654
23 0 18.014 11.1025 200 36.31 341.545 515.84
24 0 19.0361 7.35444 140 39.1857 341.621 516.929
25 0 17.2224 5.98058 103 35.6699 339.32 513.67
26 0 18.0051 3.27684 59 43.3051 340.593 519.22
27 0 17.1521 3.73133 64 42.0625 340.281 517.031
28 0 18.5032 3.78313 70 40.6714 339.043 516.7
29 0 18.0287 5.26938 95 40.9474 340.958 519.442
30 0 20.5724 7.29131 150 38.14 340.587 516.8
31 0 15.0493 4.91719 74 43.7703 340.595 520.986
32 0 19.0483 4.40985 84 42.619 341.214 521.619
33 0 18.1042 4.30839 78 41.3205 340.077 519.038
34 0 17.1147 10.1083 173 38.237 341.318 519.561
35 0 17.0114 4.99666 85 40.6706 340.812 518.529
36 0 19.2052 4.79037 92 39.8478 339.087 517.196
37 0 19.1205 5.59609 107 40.7103 339.551 518.327
38 0 18.2752 10.3419 189 37.8413 340.884 518.36
39 0 16.149 4.45849 72 44.2361 340.25 520.458
40 0 17.1118 7.88931 135 39.1704 341 518.141
41 0 11.0065 7.99524 88 43.375 340.261 521.92
42 0 18.0674 4.87065 88 42.3977 339.307 519.364
43 0 19.1397 6.0607 116 40.9914 339.302 518.828
44 0 14.0034 5.6415 79 43.481 340.038 521.266
45 0 19.0492 11.0766 211 37.7867 339.863 519.1
46 0 16.0225 4.18163 67 44.9851 339.821 521.09
47 0 17.2399 6.32253 109 38.4862 339.789 516.853
48 0 19.0705 7.70824 147 39.8844 340.66 517.918
49 0 16.0313 5.17736 83 44.2771 340.663 521.578
50 0 16.0085 4.18529 67 44.9254 340.045 520.881
51 0 17.0104 6.52542 111 41.7207 340.856 520
52 0 18.298 9.45458 173 37.7919 338.353 515.977
53 0 12.0029 7.83143 94 43.2766 339.383 521.191
54 0 17.0172 6.40528 109 41.945 339 519.211
55 0 17.0274 8.16332 139 39.2302 339.561 517.806
56 0 18.0149 4.55179 82 44 340.402 520.11
57 0 18.2311 3.83959 70 42.7 340.071 517.786
58 0 7.00042 2.85697 20 50.1 339.85 521.4
59 0 16.0496 4.17455 67 45.9851 339.925 520.94
60 0 17.0706 1.93315 33 47.2727 339.939 520.152
61 0 15.0255 2.8618 43 47.2326 339.953 521.93
62 0 14.0009 1.42848 20 42.55 341.95 516.45
63 0 16.0738 5.41252 87 41.1494 340.264 518.667
64 0 17.0573 7.32823 125 40.128 339.832 519.84
65 0 14.0016 2.7854 39 45.9487 339.308 521.923
66 0 19.3364 6.67135 129 37.969 338.473 517.194
67 1 4 3.5 14 34.2143 340.929 512.714
68 1 16.0787 4.47798 72 40.6111 340.319 518.764
69 0 15.013 3.33044 50 42.12 339.74 519.42
70 0 14.0005 0.785687 11 48 338.455 521.364
71 0 14.0336 11.7575 165 37.3515 340.794 518.879
72 0 16.0012 3.06227 49 45.1224 340.469 523.51
73 0 16.0355 4.30295 69 43.2174 340.043 522
74 0 18.9331 8.66207 164 35.8841 338.567 516.787
75 1 3 5.33333 16 34.125 342.688 513.75
76 1 15.2148 8.28144 126 37.8651 339.468 518.873
77 0 13.0001 0.923068 12 48.1667 339.667 522.417
78 1 2 4 8 35.5 345.125 513
79 1 17.0886 11.177 191 36.7644 339.309 518.366
80 1 77.1595 16.0576 1239 57.4899 341.567 479.291
81 0 75.0907 12.5715 944 64.8761 342.304 473.293
82 0 81.0902 14.416 1169 61.0428 342.754 473.267
83 0 82.0651 12.8435 1054 62.3406 342.843 475.385
84 0 81.1394 12.5956 1022 64.7476 342.361 470.866
85 0 85.1024 15.4637 1316 60.3868 342.891 472.189
86 0 90.0877 17.5607 1582 56.3565 342.509 476.492
87 0 89.2687 12.804 1143 64.4576 342.755 469.733
88 0 94.1375 14.7444 1388 60.3754 342.656 473.519
89 0 96.1027 14.3909 1383 62.3883 342.66 467.613
90 1 106.133 10.4397 1108 67.5334 342.029 464.191
91 1 95.1277 12.3834 1178 64.3633 342.288 471.435
92 1 72.126 4.21485 304 69.8257 342.987 486.717
93 0 71.0699 4.61517 328 70.7561 342.183 483.857
94 1 63.1662 9.70455 613 63.0865 342.3 486.917
95 0 60.0693 10.4879 630 63.173 341.968 486.197
96 0 61.2379 11.9697 733 62.1146 342.326 484.625
97 0 61.1069 10.8171 661 65.2088 342.475 482.381
98 0 65.2249 11.2994 737 63.7069 342.474 483.152
99 0 66.1069 12.9033 853 61.6002 341.931 482.701
100 0 61.0769 12.0831 738 71.2778 341.743 415.371
101 0 72.0974 14.0227 1011 60.0682 342.37 480.342
102 0 71.063 11.7924 838 63.0155 342.735 480.803
103 0 66.1669 12.1662 805 65.6845 342.535 474.123
104 0 76.0795 14.0248 1067 60.5033 342.523 477.103
105 0 69.0712 12.0455 832 65.7752 342 473.115
106 1 80.1315 11.581 928 64.1994 342.137 475.651
107 0 74.055 12.4232 920 64.5652 342.103 475.152
108 0 74.1553 11.813 876 66.1804 342.357 472.854
109 0 76.1164 12.1393 924 66.237 341.723 472.174
110 0 77.1176 12.267 946 66.2125 341.704 472.868
111 0 80.1992 11.6086 931 66.4608 341.803 472.914
112 0 84.0301 13.2691 1115 64.2825 341.838 471.585
113 0 85.0692 11.473 976 65.668 342.007 473.441
114 0 87.1459 11.5094 1003 66.7298 342.406 469.745
115 0 91.1862 11.8439 1080 65.2528 342.435 470.681
116 0 92.1055 11.6823 1076 66.3374 342.912 466.323
117 0 95.0954 14.0385 1335 63.5985 342.772 463.578
118 0 99.0484 13.559 1343 63.936 342.248 465.413
119 0 103.116 11.6665 1203 65.8288 342.752 462.738
120 1 54.0471 10.6574 576 63.6493 341.913 488.137
121 0 53.0422 11.2929 599 63.1937 342.182 487.938
122 0 56.0479 11.1869 627 63.0431 341.973 487.388
123 0 56.0424 11.3129 634 63.0426 341.961 486.268
124 0 57.0323 10.7658 614 63.8176 342.125 483.658
125 0 59.0873 11.7115 692 62.2717 341.88 486.074
126 0 62.1405 11.3935 708 62.9096 342.278 484.083
127 0 64.0712 11.2531 721 63.018 342.667 482.878
128 0 65.0276 10.7185 697 63.7102 342.71 482.709
129 0 67.0691 9.90024 664 64.3253 343.494 482.714
130 0 69.0975 10.724 741 64.6559 343.645 478.223
131 0 71.033 12.9799 922 61.923 343.044 479.499
132 0 72.0977 10.5551 761 65.2562 343.375 478.817
133 1 35.0491 9.95746 349 62.6734 342.628 495.633
134 0 37.0159 8.86106 328 62.7043 342.22 495.241
135 0 39.0265 10.4544 408 61.473 342.917 494.875
136 0 39.0378 10.1184 395 62.2203 343.286 494.37
137 0 40.0494 9.26355 371 62.593 343.108 494.121
138 0 42.0323 10.1351 426 61.9718 342.732 492.089
139 0 45.0437 10.4787 472 61.161 342.64 491.693
140 0 46.1219 10.7975 498 61.8434 342.39 491.606
141 0 45.0348 9.74802 439 63.4715 342.711 490.998
142 0 45.0337 10.9474 493 62.284 343.118 491.237
143 0 49.0459 11.948 586 61.4215 343.097 489.932
144 0 49.0477 10.5408 517 63.2573 343.48 488.547
145 0 53.0565 11.7611 624 60.9712 343.284 490.535
146 0 51.0817 11.2173 573 62.9511 342.756 488.3
147 0 56.0976 11.07 621 62.5733 342.414 487.469
148 0 55.11 12.9196 712 60.9761 342.781 487.369
149 0 56.1239 10.5481 592 63.7568 343.012 486.378
150 0 57.0557 9.51702 543 64.9558 343.105 485.998
151 0 61.0458 12.1384 741 62.0675 342.074 485.059
152 0 61.1157 11.0119 673 63.7073 341.805 483.599
153 0 63.105 11.8374 747 63.1299 343.044 483.411
154 0 66.072 10.6853 706 63.7493 343.361 485.137
155 0 67.0724 10.0936 677 65.0148 343.35 480.913
156 1 34.0198 9.87661 336 62.5119 343.307 498.375
157 0 33.0755 9.34225 309 63.8252 342.67 497.019
158 0 34.0282 9.16888 312 63.2917 342.657 498.423
159 0 35.0573 8.18659 287 65.0418 342.491 495.885
160 0 38.0384 10.6209 404 61.8614 342.629 496.168
161 0 38.038 9.91115 377 62.8143 343.363 496.549
162 0 39.0711 9.80265 383 64.5535 343.512 494.42
163 0 38.0662 9.53602 363 65.1185 343.309 494.802
164 0 43.0395 12.0819 520 60.9192 343.206 494.183
165 0 42.0118 10.3304 434 63.97 343.288 493.532
166 0 43.1296 9.15844 395 65.362 343.306 493.299
167 0 44.0245 9.631 424 65.4033 343.469 492.934
168 0 45.0096 9.95342 448 65.1429 343.181 492.1
169 0 48.0331 10.3679 498 64.6627 342.743 489.616
170 0 49.059 11.1091 545 63.4477 342.182 490.161
171 0 49.0352 10.1968 500 65.398 342.876 488.504
172 0 50.0627 9.28836 465 65.6839 342.733 490.742
173 0 53.0323 8.80596 467 65.3405 342.734 491.409
174 0 55.0234 9.90488 545 64.3853 342.503 488.262
175 0 53.0908 7.13871 379 67.6174 342.937 488.641
176 0 56.0272 10.5127 589 64.017 343.275 488.716
177 0 61.0891 11.0167 673 62.7103 343.355 487.36
178 0 62.07 12.6309 784 61.3724 343.421 485.426
179 0 66.0386 10.3879 686 64.1385 343.296 482.899
180 0 66.0842 10.5925 700 64.1443 343.581 482.127
181 0 68.1574 10.2263 697 63.9168 343.29 484.502
182 1 36.0346 11.6832 421 59.8765 343.143 497.741
183 0 35.0259 8.85058 310 63.6935 342.671 499.329
184 0 38.0356 9.70144 369 62.6938 342.488 495.881
185 0 39.0447 10.1166 395 62.7747 343.111 495.385
186 0 41.072 9.95813 409 62.379 343.279 495.037
187 0 42.0378 11.2756 474 61.711 343.477 492.958
188 0 43.0214 10.088 434 63.3871 342.758 493.468
189 0 42.0544 9.17859 386 65.0389 342.148 492.383
190 0 47.049 10.4997 494 62.6964 342.314 492.368
191 0 46.0497 10.5321 485 63.2412 342.06 491.705
192 0 48.0421 8.55499 411 65.219 342.689 492.263
193 0 50.0848 10.0829 505 63.4911 343.147 492.297
194 0 51.0885 10.3742 530 64.0189 343.457 489.683
195 0 54.1431 10.5646 572 63.7238 342.918 486.752
196 0 55.0252 11.1585 614 62.7182 342.617 488.767
197 0 56.0825 11.0908 622 63.4823 342.539 487.185
198 0 57.1136 10.663 609 63.6749 342.783 486.788
199 0 59.0779 9.58058 566 64.4788 343.408 486.387
200 0 62.0392 11.4927 713 62.6452 342.951 484.407
201 0 63.1372 10.1525 641 64.1576 343.017 482.566
202 0 66.1219 10.9646 725 63.309 343.24 480.71
203 0 67.0601 10.677 716 63.9707 343.378 478.376
204 0 68.1214 11.4648 781 63.137 342.999 479.401
205 0 69.0903 11.1593 771 63.5486 342.65 480.772
206 0 74.1316 11.4121 846 63.3948 342.755 476.673
207 0 76.088 10.501 799 63.3304 341.559 474.927
208 0 79.1763 11.4302 905 62.6829 341.513 472.355
209 1 40.039 8.64157 346 62.6763 342.017 495.373
210 0 41.0231 10.7988 443 60.9323 342.481 492.562
211 0 42.0499 10.3924 437 61.3547 342.627 494.023
212 0 45.0803 11.1135 501 61.1497 342.441 491.858
213 0 47.1703 11.5751 546 60.5714 341.965 490.83
214 0 48.1322 10.4712 504 62.3194 342.093 491.498
215 0 48.1206 11.3257 545 62.8404 341.985 487.881
216 0 52.1581 10.9283 570 62.7228 342.847 488.253
217 0 55.0244 11.9402 657 61.449 343.498 486.883
218 0 54.0233 12.4576 673 62.1516 343.125 486.541
219 0 56.0725 13.215 741 61.2105 343.304 485.413
220 0 57.2004 12.0978 692 62.8642 343.197 486.301
221 0 61.2004 12.1895 746 62.3043 343.174 485.988
222 0 60.1168 13.6068 818 62.0269 342.606 480.153
223 0 61.055 12.284 750 64.196 342.911 480.444
224 0 61.0945 11.1794 683 66.5944 342.463 480.795
225 0 65.1642 11.095 723 65.5989 342.758 482.261
226 0 67.0442 11.6341 780 64.9167 343.079 481.926
227 0 66.0883 10.5616 698 67.6934 343.106 480.607
228 0 71.1529 11.9883 853 64.7702 342.962 480.551
229 0 71.095 11.1682 794 66.8892 342.843 478.545
230 0 75.1792 12.5833 946 64.7622 343.004 478.383
231 0 77.0942 13.5289 1043 63.6337 342.125 477.114
232 0 79.0467 12.3977 980 65.4673 341.959 474.618
233 1 37.0079 10.4572 387 65.9044 341.336 496.527
234 0 38.078 10.8462 413 64.4479 341.659 497.552
235 0 41.0333 10.5768 434 65.0991 342.396 495.705
236 0 44.1013 10.5893 467 64.3919 342.332 496.06
237 0 44.2093 10.3146 456 64.6096 342.596 494.746
238 0 47.1386 12.8557 606 61.7838 342.492 493.795
239 0 42.0352 12.2992 517 64.6905 342.876 493.563
240 0 46.1084 11.4296 527 64.2448 343.076 495.924
241 0 47.075 12.1084 570 64.1386 343.081 493.44
242 0 48.0563 12.6935 610 63.7623 342.493 493.464
243 0 49.0498 13.8635 680 62.5662 342.085 490.937
244 0 49.0329 11.1354 546 66.7985 342.511 493.321
245 0 51.0601 12.6714 647 64.6909 342.159 491.291
246 0 52.0403 12.6633 659 64.9833 342.282 489.956
247 0 53.0347 13.0292 691 64.1534 342.184 491.744
248 0 53.0444 13.008 690 65.0058 342.301 487.897
249 0 56.0656 13.1275 736 64.3505 342.182 485.878
250 0 56.1023 11.6573 654 67.1636 342.382 485.125
251 0 57.0803 12.351 705 66.0199 342.25 486.573
252 0 60.1706 12.1322 730 65.6301 342.559 487.879
253 0 62.0947 13.1412 816 64.5502 341.987 485.349
254 0 64.0473 13.3495 855 63.8444 342.273 485.594
255 0 66.0978 13.1169 867 64.4083 342.463 483.201
256 0 67.0605 12.6006 845 65.4805 341.748 483.662
257 0 70.0811 13.4987 946 63.9915 342.373 481.617
258 1 34.0067 8.55715 291 68.4639 342.45 499.419
259 0 34.0626 9.80549 334 67.4461 342.751 499.602
260 0 37.0224 11.7767 436 63.1972 342.674 501.493
261 0 37.0142 10.0502 372 66.9731 342.519 499.027
262 0 38.0165 10.285 391 66.954 342.558 497.437
263 0 42.0318 10.0638 423 65.7778 342.236 498.463
264 0 40.0254 10.3185 413 67.7167 342.002 496.211
265 0 43.0119 9.695 417 66.8873 342.496 496.647
266 0 43.0232 11.273 485 65.5443 342.357 495.666
267 0 43.0652 11.053 476 66.5483 342.765 493.84
268 0 45.0872 12.376 558 64.6022 342.747 494.231
269 0 46.022 10.5819 487 66.7967 342.499 495.218
270 0 48.0236 11.5776 556 65.6097 342.354 491.496
271 0 50.0685 12.6027 631 63.8162 342.143 491.911
272 0 50.0759 10.4841 525 67.1467 342.19 490.648
273 0 51.037 11.619 593 66.0169 341.951 488.693
274 0 53.0626 11.2886 599 65.9232 342.075 488.083
275 0 54.0245 11.865 641 65.649 342.084 487.838
276 0 56.0506 11.6859 655 65.974 342.551 486.347
277 0 57.0404 11.0273 629 66.8474 342.564 486.278
278 0 58.1031 9.81015 570 68.5947 342.253 486.068
279 0 61.1661 12.2617 750 65.4387 342.264 486.149
280 0 58.0844 7.95394 462 71.8268 342.084 484.63
281 0 63.0772 10.4792 661 68.7988 342.047 484.936
282 0 66.1091 12.9483 856 65.2185 341.832 483.931
283 0 68.1466 12.0622 822 66.7762 341.976 480.58
284 0 69.0596 10.2375 707 69.454 342.129 479.56
285 0 72.0758 12.1955 879 66.5051 342.138 481.306
286 0 74.1589 11.3001 838 67.8783 342.038 480.121
287 0 75.1138 11.01 827 68.5284 342.273 478.985
288 0 78.092 12.2548 957 66.6667 342.17 479.672
289 0 81.0923 10.9258 886 68.6738 341.643 477.634
290 0 83.0764 11.1584 927 68.5534 341.329 472.515
291 1 41.0212 9.36102 384 68.1354 341.471 497.484
292 0 44.0276 9.2442 407 68.8231 341.437 492.305
293 0 45.154 10.2538 463 67.3542 342.009 494.378
294 0 46.0228 11.7768 542 65.9852 341.851 493.36
295 0 47.029 9.54731 449 69.3296 341.238 491.92
296 0 49.0744 11.8799 583 65.765 341.41 491.808
297 0 49.0212 11.036 541 67.2699 342.253 489.933
298 0 52.0345 12.8569 669 64.3139 341.741 489.967
299 0 53.0201 10.6563 565 67.5823 341.641 489.352
300 0 54.0532 11.0632 598 66.9013 341.704 490.567
301 0 55.0436 11.4636 631 66.5071 341.872 486.545
302 0 58.0608 11.2641 654 66.8777 341.985 484.775
303 0 59.0756 11.1213 657 66.7763 342.291 484.39
304 0 61.0623 11.087 677 67.0414 342.418 483.326
305 0 63.1184 12.3894 782 65.6138 342.046 481.295
306 0 66.1702 12.5434 830 64.8976 342.549 482.52
307 0 66.0662 11.549 763 66.7444 341.94 479.545
308 0 70.0771 13.8276 969 63.6605 342.008 477.85
309 0 69.0365 10.9652 757 68.0806 342.103 479.135
310 0 72.087 10.4735 755 68.8331 342.321 479.348
311 1 39.0121 9.17663 358 68.4385 341.902 495.86
312 0 40.0388 9.56572 383 69.1749 342.029 494.089
313 0 45.0539 10.321 465 67.0645 341.931 494.31
314 0 43.0449 10.431 449 68.1693 342.688 495.29
315 0 45.0149 9.97448 449 68.6147 342.399 493.452
316 0 48.0307 11.6176 558 66.5789 342.615 492.857
317 0 49.0307 11.5846 568 67.1162 342.445 491.361
318 0 51.0514 10.9889 561 67.2264 342.037 490.182
319 0 54.1084 12.6413 684 65.4459 342.018 488.241
320 0 54.0433 11.1022 600 68.425 340.982 487.838
321 0 56.0757 11.7163 657 67.2922 341.291 486.02
322 0 55.0676 9.71534 535 70.9383 341.252 485.357
323 0 58.0485 11.9728 695 67.3986 341.892 484.322
324 0 61.0784 11.9682 731 66.6922 342.791 485.224
325 0 62.0615 12.6165 783 65.6386 342.838 484.467
326 0 65.0644 12.7412 829 65.6297 342.337 481.653
327 0 64.0764 10.9088 699 68.8054 341.542 480.343
328 0 69.0636 12.3365 852 65.5094 341.708 482.154
329 0 68.0917 11.4258 778 67.7339 341.794 478.452
330 0 71.0695 11.2566 800 67.4125 342.362 478.542
331 0 74.081 11.7169 868 66.5495 342.278 478.06
332 1 41.0523 10.6937 439 64.8519 342.219 493.993
333 0 43.0068 9.62638 414 66.0725 342.159 494.539
334 0 44.0158 9.42844 415 65.8145 342.407 495.494
335 0 45.0565 11.6742 526 63.749 342.202 494.061
336 0 46.0981 11.4972 530 63.9736 342.421 493.249
337 0 46.0436 9.90367 456 66.2039 342.246 493.811
338 0 49.0515 11.967 587 62.7547 341.547 490.775
339 0 52.067 11.6581 607 62.4316 341.357 491.404
340 0 50.0337 11.3523 568 63.8239 341.887 490.468
341 0 54.0593 12.1533 657 62.0426 341.811 488.848
342 0 55.0981 12.3053 678 61.7537 342.038 489.193
343 0 57.0852 11.8069 674 62.2789 341.886 486.88
344 0 57.0538 10.0607 574 64.6603 342.293 487.929
345 0 59.0972 10.3897 614 64.513 341.386 485.94
346 0 61.069 10.9712 670 63.7657 341.206 484.607
347 0 61.1295 11.353 694 63.7911 341.924 482.14
348 0 62.1941 11.0782 689 64.0522 341.894 480.38
349 0 66.0498 11.3399 749 63.486 342.172 480.595
350 0 69.1902 11.4612 793 62.2875 342.006 482.957
351 0 69.0838 9.78522 676 64.9571 342.166 479.518
352 0 73.11 10.8603 794 62.9836 341.438 479.814
353 0 76.1272 10.5613 804 63.5199 341.412 475.53
354 0 77.0665 11.0813 854 62.4813 341.108 478.459
355 0 81.112 12.8341 1041 60.4621 341.305 475.54
356 0 84.1898 11.9967 1010 61.3297 341.7 472.582
357 0 85.111 10.9857 935 62.9198 342.551 470.273
358 1 45.0334 9.37082 422 61.8128 341.915 492.164
359 0 46.1197 8.30448 383 62.1671 342.193 494.339
360 0 48.0655 11.2971 543 61.1934 342.112 487.446
361 0 51.0234 10.309 526 62.2357 340.954 488.711
362 0 52.0405 9.95379 518 62.5598 340.886 489.598
363 0 54.0965 10.9989 595 61.7815 340.844 486.43
364 0 55.0309 9.90353 545 62.8128 341.273 490.317
365 0 57.0447 10.746 613 62.2447 341.452 487.432
366 0 58.0261 10.0127 581 63.3701 341.103 486.074
367 0 59.0657 9.70106 573 64.3229 341.009 483.195
368 0 61.0676 9.89069 604 63.8129 342.522 482.974
369 0 64.0569 10.0067 641 63.0671 342.936 484.454
370 0 65.0251 10.7036 696 62.7629 342.882 477.08
371 0 70.0855 9.78804 686 63.2464 341.84 480.497
372 0 72.0374 11.2719 812 61.5037 341.454 480.181
373 0 73.2053 11.3516 831 61.8496 341.608 476.519
374 0 76.0937 10.1191 770 62.9779 342.106 478.865
375 0 78.0541 9.98025 779 63.2619 342.153 476.404
376 0 81.1002 11.5166 934 61.2837 341.176 473.305
377 0 83.1816 10.8317 901 62.1576 341.628 472.4
378 0 85.061 11.1802 951 61.6446 341.304 470.523
379 1 47.0115 8.82763 415 60.3952 341.504 493.104
380 0 47.0436 8.0351 378 62.0185 341.656 493.066
381 0 50.0467 10.9698 549 59.2149 341.262 490.379
382 0 52.0275 11.3209 589 58.7063 341.553 488.102
383 0 51.0664 9.59535 490 61.3551 341.645 486.712
384 0 53.065 10.3647 550 60.2164 341.996 486.278
385 0 56.0784 10.307 578 60.718 342.249 483.772
386 0 59.0859 11.1363 658 58.9468 341.011 484.205
387 0 61.1115 10.669 652 58.977 341.002 485.974
388 0 63.0948 10.9201 689 59.3266 341.263 482.386
389 0 64.0459 9.44636 605 61.0694 340.995 482.846
390 0 66.0691 11.2004 740 59.5473 340.896 478.18
391 0 69.175 12.5623 869 56.8573 341.311 480.663
392 0 70.1194 12.4644 874 57.8719 341.826 477.47
393 0 72.1229 11.1615 805 60.2137 341.273 474.589
394 0 75.0556 11.0851 832 59.2632 342.1 477.173
395 0 78.1323 11.5701 904 59.0166 342.273 472.838
396 0 79.0671 10.6745 844 60.3033 342.558 471.993
397 0 80.1923 10.4998 842 60.4002 342.529 472.634
398 0 84.0754 10.2884 865 60.5827 342.382 470.501
399 0 87.0606 12.4281 1082 57.6645 342.269 469.774
400 0 90.094 12.1762 1097 57.8213 342.436 470.362
401 0 91.1439 10.9607 999 59.6687 343.316 466.394
402 0 94.0721 12.9263 1216 57.5592 342.348 466.202
403 1 48.0343 9.49322 456 58.7961 341.95 491.805
404 0 49.0413 10.6237 521 58.9731 342.123 488.221
405 0 51.0421 10.893 556 58.5378 341.993 488.594
406 0 53.0687 10.6277 564 59.6099 341.972 487.156
407 0 54.0958 11.0914 600 59.505 342.488 486.315
408 0 55.0426 10.0831 555 61.3045 341.668 482.897
409 0 58.0585 9.93825 577 60.7834 342.48 485.565
410 0 59.0555 10.9558 647 60.1669 342.386 484.192
411 0 62.052 12.5701 780 58.1218 342.717 482.001
412 0 65.0918 12.106 788 57.9937 342.609 483.03
413 0 66.1075 12.9789 858 57.5862 342.545 479.101
414 0 65.0784 9.7882 637 62.27 342.708 479.031
415 0 70.1218 11.9221 836 58.6938 342.917 479.935
416 0 71.1075 11.7147 833 59.2545 343.369 479.974
417 0 74.101 11.12 824 60.017 342.896 477.431
418 0 75.0973 10.4265 783 61.6526 343.162 475.393
419 0 79.0762 12.2919 972 58.9372 342.91 473.899
420 0 81.0837 11.149 904 60.5177 342.722 474.111
421 0 84.0931 11.9986 1009 59.5808 342.818 471.805
422 0 86.1251 11.5878 998 60.2345 343.144 471.912
423 0 88.1283 11.6648 1028 60.4173 343.177 468.127
424 0 93.1046 11.3206 1054 60.1357 343.639 471.886
425 1 45.0226 9.66182 435 60.7333 342.867 492.372
426 0 47.0811 11.2996 532 60.1898 342.47 488.842
427 0 47.1254 10.1644 479 62.5992 342.885 488.198
428 0 49.0888 9.43189 463 63.3823 342.76 487.3
429 0 51.0232 11.0538 564 61.3936 343.057 485.784
430 0 54.1218 11.0307 597 61.5997 343.806 487.504
431 0 55.1278 11.7182 646 61.274 342.933 486.118
432 0 57.118 10.2245 584 62.9709 343.019 486.365
433 0 61.0407 11.7299 716 60.9176 342.585 484.631
434 0 62.0368 11.5577 717 61.947 342.056 481.908
435 0 64.1737 12.9181 829 60.1665 341.684 483.333
436 0 66.1092 11.2541 744 62.2177 342.667 484.253
437 0 68.0977 11.7772 802 61.2855 342.662 483.789
438 0 70.0512 10.9206 765 62.9529 342.37 481.801
439 0 71.0913 11.9705 851 61.9389 342.107 480.216
440 0 76.0937 12.7474 970 60.5866 342.137 477.753
441 0 74.0767 9.71965 720 65.0347 342.435 477.301
442 0 80.0806 12.2127 978 61.0184 342.251 477.485
443 0 81.1719 12.6891 1030 60.932 342.356 475.05
444 0 85.1368 12.4388 1059 61.2049 342.461 472.496
445 1 42.0864 8.41127 354 62.2938 341.825 496.715
446 0 45.05 11.9201 537 59.1415 341.689 492.153
447 0 43.0269 10.4586 450 62.0533 341.569 492.718
448 0 46.0214 11.5164 530 58.8415 341.36 494.611
449 0 48.1057 10.1859 490 62.0653 341.761 490.786
450 0 49.0231 10.9948 539 61.4378 341.839 490.371
451 0 51.0293 10.7585 549 61.827 341.851 489.313
452 0 52.0355 10.3967 541 62.2292 342.226 488.007
453 0 55.0419 11.2096 617 60.5008 342.261 488.58
454 0 56.148 11.8615 666 59.8183 342.706 488.123
455 0 57.0303 11.2046 639 60.6901 342.698 487.227
456 0 60.0693 11.287 678 60.0251 342.537 487.692
457 0 60.0506 11.84 711 59.5598 342.949 488.887
458 0 62.0641 13.1316 815 58.9018 342.423 483.996
459 0 65.035 15.0996 982 56.3635 342.609 483.319
460 0 67.0942 12.3558 829 59.1267 342.129 485.89
461 0 68.0257 15.6117 1062 56.1704 342.452 481.88
462 0 71.0564 12.7364 905 59.2564 342.314 482.024
463 0 74.1626 13.403 994 58.0553 341.427 480.659
464 0 74.1377 12.261 909 60.4147 341.721 476.752
465 0 78.1708 11.4621 896 60.5938 341.999 478.001
466 0 81.0658 12.2493 993 59.6324 342.174 478.669
467 1 40.0479 11.2615 451 59.7472 341.632 495.891
468 0 42.0244 8.39988 353 62.153 341.717 497.255
469 0 42.0273 11.3974 479 60.7077 341.701 494.251
470 0 43.0153 11.4611 493 61.2231 341.862 493.256
471 0 44.0235 10.2445 451 62.9091 342.337 492.942
472 0 46.0088 11.4978 529 61.0643 341.766 494.429
473 0 47.0646 12.0685 568 61.4173 341.732 491.331
474 0 50.0724 11.4434 573 61.9564 342.058 490.962
475 0 52.042 13.7581 716 58.9455 341.67 490.147
476 0 50.0736 11.543 578 63.1505 342.088 490.291
477 0 54.0658 12.4478 673 61.2764 341.857 490.018
478 0 54.02 12.5509 678 61.3614 341.608 489.845
479 0 57.0595 11.5318 658 63.0699 341.67 488.088
480 0 59.0468 12.6171 745 61.4255 341.526 487.393
481 0 61.0755 11.8542 724 62.9613 341.296 485.794
482 0 62.0636 14.1146 876 60.3413 341.455 483.395
483 0 63.0563 11.7038 738 63.8469 341.911 484.438
484 0 64.1128 12.9459 830 62.7855 342.333 482.251
485 0 68.0641 12.5029 851 62.718 342.405 482.592
486 0 70.0543 12.6188 884 63.026 342.753 479.087
487 0 71.0862 13.7157 975 61.1764 342.383 480.795
488 0 71.0797 12.479 887 63.8219 342.425 477.981
489 0 75.0884 11.7195 880 64.7432 342.978 477.145
490 0 76.1282 11.901 906 65.0221 342.525 474.619
491 0 80.065 12.6397 1012 63.6067 342.749 476.419
492 1 41.0136 11.4352 469 64.0384 342.557 494.136
493 0 40.0462 10.1383 406 63.7389 341.897 497.303
494 0 42.0632 11.7442 494 63.8381 342.366 493.741
495 0 42.0432 12.2969 517 64.5861 342.037 492.76
496 0 43.0281 12.1548 523 64.5889 342.447 492.635
497 0 45.066 11.2502 507 65.3787 342.692 492.414
498 0 48.0288 12.6382 607 63.3361 343.245 490.858
499 0 48.069 13.2102 635 63.5528 342.646 489.778
500 0 49.0768 10.9013 535 66.4729 342.308 489.26
501 0 52.0623 13.2534 690 62.8159 342.272 489.852
502 0 53.0795 12.924 686 64.0408 342.971 487.238
503 0 54.0169 12.9219 698 63.106 342.958 489.977
504 0 55.0417 11.355 625 66.4464 342.922 487.251
505 0 56.0934 10.6073 595 67.5479 342.59 486.136
506 0 60.0371 12.1591 730 64.9603 342.66 485.31
507 0 62.0179 13.3671 829 63.0326 342.752 485.147
508 0 63.1076 16.9869 1072 58.3666 342.546 485.52
509 0 64.0778 12.6409 810 65.0037 342.494 482.446
510 0 64.1543 11.6438 747 66.1834 342.382 481.957
511 0 67.0439 11.8877 797 65.463 342.893 481.926
512 0 71.1426 10.2049 726 66.9036 343.269 481.753
513 0 73.0606 12.5375 916 63.7838 342.612 479.947
514 0 76.0914 12.0776 919 64.6714 342.189 477.085
515 0 78.0786 12.9229 1009 63.7998 341.836 475.606
516 1 40.0181 10.0705 403 68.0993 341.586 493.603
517 0 41.043 9.96516 409 67.7579 341.509 494.455
518 0 43.0949 11.7183 505 66.2218 342.471 491.285
519 0 44.0975 11.8601 523 66.0172 342.868 491.023
520 0 47.0206 11.8884 559 65.5188 342.578 489.989
521 0 47.0222 12.2921 578 66.2907 342.263 488.017
522 0 46.0738 10.3747 478 69.0418 342.059 489.056
523 0 48.0256 10.8484 521 68.8464 341.67 485.735
524 0 51.0219 11.6421 594 66.9293 341.874 487.559
525 0 55.1277 12.5164 690 65.3261 341.436 486.838
526 0 56.0511 12.0783 677 65.2925 341.346 486.313
527 0 56.063 12.3076 690 65.2 341.674 485.365
528 0 60.0582 12.9375 777 64.0425 340.949 484.909
529 0 60.2374 12.3677 745 64.9168 341.474 483.373
530 0 65.0561 13.5114 879 62.5836 342.068 483.264
531 0 64.061 11.6139 744 65.8589 341.964 481.569
532 0 65.038 12.1929 793 65.6885 342.318 480.602
533 0 68.0366 11.3174 770 66.3351 341.921 480.709
534 0 70.0291 12.0093 841 66.0678 341.782 479.006
535 1 36.0323 10.5739 381 65.664 342.018 494.409
536 0 38.0234 11.677 444 64.9347 341.932 494.128
537 0 37.0524 11.2813 418 65.7943 341.952 494.388
538 0 40.0749 10.0562 403 66.2084 343.022 494.809
539 0 41.0263 12.4311 510 64.0373 342.175 492.724
540 0 44.0243 9.79006 431 66.2552 341.914 493.07
541 0 44.0992 12.676 559 63.7818 341.556 490.46
542 0 45.0754 11.7581 530 65.3321 341.279 489.845
543 0 48.0226 11.7445 564 64.8191 341.254 490.152
544 0 50.0277 11.7335 587 64.8927 340.991 489.218
545 0 49.0271 10.7492 527 66.9526 340.852 487.628
546 0 51.0847 12.4891 638 64.5502 341.03 486.492
547 0 54.0497 12.174 658 64.6125 341.299 486.401
548 0 54.0773 11.7794 637 65.5165 341.662 485.347
549 0 55.0599 12.0051 661 65.3449 341.287 484.197
550 0 57.0422 11.36 648 67.1559 341.292 481.946
551 0 57.0715 11.9149 680 66.2868 340.959 484.451
552 0 62.1945 11.866 738 65.3591 341.396 483.427
553 0 61.1405 10.484 641 67.83 341.983 483.226
554 1 33.0642 9.3152 308 67.1071 342.013 496.552
555 0 33.0596 11.7969 390 64.1821 341.369 496.092
556 0 33.0127 9.66295 319 68.0564 341.715 496.367
557 0 34.0609 11.0684 377 65.748 341.589 494.029
558 0 35.0398 9.78888 343 68.1137 341.668 493.382
559 0 36.0085 11.3029 407 63.9582 341.457 496.555
560 0 36.0214 10.8269 390 66.3513 341.933 495.095
561 0 38.0259 11.0977 422 65.7867 341.505 494.377
562 0 40.0546 11.6841 468 65.3739 341.806 492.808
563 0 43.0402 12.709 547 62.7349 341.896 493.702
564 0 43.0438 11.9646 515 64.701 341.829 491.243
565 0 43.0184 11.0185 474 66.3165 341.825 492.207
566 0 44.0262 11.6067 511 64.3699 342.331 493.53
567 0 45.0308 11.6587 525 65.4114 341.903 491.749
568 0 47.0225 10.3993 489 67.0491 341.767 490.182
569 0 47.044 10.8834 512 67.2383 341.158 488.176
570 0 49.0457 12.4782 612 64.0719 341.606 488.82
571 0 50.0305 12.2725 614 65.2117 341.617 487.27
572 0 52.0401 13.1821 686 64.2741 341.708 484.848
573 0 54.1403 12.9663 702 64.2806 341.41 485.15
574 0 53.0297 11.503 610 67.0344 341.343 484.292
575 0 57.0547 13.8464 790 62.8253 341.88 484.694
576 0 57.0375 11.8168 674 66.2923 341.237 483.332
577 0 60.0939 10.883 654 66.7309 341.982 484.2
578 0 59.0186 11.4201 674 66.8249 341.223 482.49
579 0 63.1191 11.8506 748 65.635 341.402 482.294
580 0 66.0662 11.2009 740 66.2162 341.477 481.499
581 0 69.0768 11.9432 825 64.2291 341.149 482.402
582 0 69.0847 11.8261 817 65.3072 340.722 480.55
583 0 72.0429 11.9235 859 65.4063 340.901 478.98
584 1 41.0131 11.6548 478 63.6464 340.778 493.238
585 0 40.0546 11.9836 480 64.1917 340.933 492.644
586 0 41.019 10.7024 439 66.7016 341.335 492.203
587 0 40.0541 11.2348 450 66.2667 341.284 492.564
588 0 45.0295 12.836 578 63.673 341.739 491.285
589 0 44.1017 12.1991 538 65.0149 341.532 492.522
590 0 46.0946 12.3876 571 65.4483 341.821 491.177
591 0 47.0715 12.003 565 66.1912 341.735 489.639
592 0 48.0341 11.6376 559 67.093 341.367 489.302
593 0 49.0792 11.4916 564 67.5904 341.507 488.541
594 0 54.0234 14.2531 770 63.2948 341.71 486.362
595 0 54.0461 12.3043 665 66.3188 341.773 487.263
596 0 55.0199 13.3406 734 65.2507 341.56 485.684
597 0 56.03 13.9747 783 64.8825 341.089 485.194
598 0 55.0495 12.625 695 67.8058 341.296 484.072
599 0 59.0429 11.3307 669 68.3632 341.703 485.999
600 0 60.0175 12.8463 771 66.882 341.611 482.681
601 0 63.0512 11.7048 738 66.8103 342.064 486.206
602 0 65.0631 12.6185 821 66.5018 341.798 481.235
603 0 65.035 12.9623 843 66.2811 341.981 482.635
604 0 70.0535 14.1749 993 64.1631 342.127 480.431
605 0 71.0885 13.434 955 65.5717 341.796 479.806
606 0 72.0894 12.6371 911 66.9638 342.099 479.005
607 0 75.086 13.6111 1022 66.1174 341.793 474.612
608 0 77.0744 13.701 1056 66.1155 341.795 473.702
609 0 81.1707 14.3032 1161 64.7907 341.542 473.491
610 1 41.0412 12.0854 496 65.244 341.365 492.599
611 0 41.0401 12.768 524 64.7557 341.185 492.548
612 0 42.0851 9.36199 394 68.8274 340.47 493.345
613 0 44.0503 11.3507 500 66.844 340.878 491.796
614 0 46.0844 12.8243 591 64.7699 340.347 490.338
615 0 45.0647 10.4073 469 69.1471 340.778 490.623
616 0 47.0465 10.479 493 69.1643 340.623 490.331
617 0 49.0675 11.2294 551 68.0726 341.002 491.007
618 0 49.0239 11.0966 544 69.2574 340.908 489.824
619 0 50.0249 11.8941 595 68.3681 340.832 489.388
620 0 53.077 12.3971 658 66.6793 340.667 490.948
621 0 55.0766 12.3827 682 67.3358 341.013 487.938
622 0 57.0836 12.8408 733 66.2237 341.363 487.714
623 0 59.0312 11.9937 708 67.2966 341.559 487.811
624 0 58.0944 12.2387 711 68.2278 341.765 484.816
625 0 60.1294 11.4919 691 68.6715 341.81 486.122
626 0 65.0135 11.3823 740 68.2608 341.962 484.582
627 0 65.036 12.839 835 66.9413 341.816 483.268
628 0 68.1002 12.2173 832 67.6058 341.617 483.069
629 0 70.0428 11.7642 824 68.5437 341.579 480.363
630 0 71.0659 11.8341 841 68.258 341.39 481.654
631 0 73.1082 12.1737 890 68.1506 341.247 480.372
632 0 76.0277 12.1798 926 67.6739 341.396 479.689
633 1 40.0533 9.51232 381 69.6772 341.669 494.751
634 0 43.1009 9.8838 426 68.1127 341.575 495.561
635 0 44.0753 11.2308 495 66.6444 341.475 494.164
636 0 47.0657 12.1532 572 65.0594 340.757 493.577
637 0 48.0653 8.32202 400 69.0175 340.712 492.775
638 0 50.0831 13.1781 660 62.6682 340.521 492.273
639 0 50.0352 11.6718 584 65.9332 340.837 489.796
640 0 52.0585 11.5447 601 65.6406 341.038 489.617
641 0 53.0992 10.471 556 67.1151 341.054 488.218
642 0 56.0546 11.8813 666 64.9595 340.793 488.441
643 0 56.0533 11.8637 665 65.0677 340.408 488.841
644 0 60.0535 11.1401 669 64.9238 340.782 489.83
645 0 61.0351 11.5671 706 64.4405 340.87 489.086
646 0 63.0955 10.1434 640 66.2672 341.045 487.948
647 0 66.0465 11.9915 792 64.5417 341.109 484.362
648 0 67.0474 11.2309 753 65.7649 341.226 483.101
649 0 68.0569 11.5639 787 65.4307 341.559 482.06
650 0 70.0419 12.107 848 64.9658 341.307 482.229
651 0 71.0953 9.86 701 68.0642 341.331 480.207
652 0 77.1426 11.4723 885 64.9695 340.782 481.395
653 0 79.1102 11.3765 900 65.4378 340.894 478.112
654 1 44.018 11.9724 527 61.685 340.433 497.628
655 0 43.0822 9.98091 430 65.2419 341.263 495.233
656 0 44.0281 10.5841 466 64.5773 341.242 494.631
657 0 46.0202 9.88697 455 65.6264 340.985 492.734
658 0 47.058 9.90268 466 65.0901 340.474 493.886
659 0 49.1157 10.7298 527 64.7723 340.359 492.249
660 0 51.0469 12.0673 616 63.461 340.279 490.633
661 0 54.096 10.925 591 63.665 340.861 491.22
662 0 55.0896 11.7264 646 63.4799 340.656 487.373
663 0 55.065 13.0391 718 61.8524 340.989 487.675
664 0 56.0396 11.0458 619 64.769 340.73 485.11
665 0 59.0548 11.4301 675 63.5852 340.356 487.985
666 0 60.0762 10.52 632 65.1218 340.179 485.636
667 0 63.1465 11.402 720 64.5653 340.156 481.828
668 0 67.1516 11.0496 742 63.5404 341.012 486.387
669 0 66.053 9.43182 623 65.8571 340.401 485.726
670 0 70.1623 11.1171 780 64.5731 339.868 480.655
671 0 72.1883 10.2925 743 65.5182 340.027 481.676
672 0 74.1311 9.10549 675 66.5926 340.243 482.764
673 1 38.0482 9.30399 354 62.8023 340.153 497.839
674 0 37.0935 7.79112 289 64.519 340.218 499.519
675 0 41.0452 10.257 421 62.209 340.219 496.553
676 0 41.0433 9.23415 379 63.5435 340.208 496.763
677 0 43.1039 9.95269 429 63.1748 339.585 494.536
678 0 44.0883 9.84388 434 63.5369 339.477 493.938
679 0 46.08 9.85244 454 63.3811 340.004 493.507
680 0 46.101 9.24059 426 64.5962 340.505 492.622
681 0 48.2641 10.6705 515 63.1786 340.301 492.559
682 0 49.0932 9.65511 474 64.6899 340.445 491.489
683 0 52.1105 9.9788 520 63.3635 340.638 492.671
684 0 53.122 9.50642 505 63.9604 340.337 492.919
685 0 54.0741 10.4116 563 63.0782 340.098 491.627
686 0 55.2372 8.40013 464 65.8103 339.821 487.356
687 0 58.1082 9.79207 569 64.0246 340.42 487.316
688 0 59.1101 10.5566 624 63.0657 340.393 486.038
689 0 62.1915 9.6637 601 63.3561 340.779 481.734
690 0 64.1944 9.75163 626 63.1597 340.612 484.236
691 0 65.1827 9.41968 614 64.0684 340.467 479.528
692 1 34.2116 7.77513 266 63.1917 340.019 498.726
693 0 37.0687 9.63077 357 61.2745 340.143 497.146
694 0 38.1399 8.18041 312 63.0737 340.247 494.058
695 0 40.0235 7.99531 320 62.7219 339.875 495.762
696 0 41.0936 10.4153 428 60.1215 340.019 493.54
697 0 40.1061 9.67434 388 61.232 339.918 491.982
698 0 43.0468 10.9648 472 59.8136 340.061 489.778
699 0 45.0735 7.85384 354 63.2345 340.056 491.483
700 0 46.0379 9.70939 447 61.5682 340.237 489.987
701 0 49.1074 10.2632 504 60.752 340.482 488.72
702 0 48.0791 9.62996 463 62.2009 340.516 487.488
703 0 52.0832 10.6176 553 60.7089 340.835 486.85
704 0 53.0781 9.32588 495 62.5212 340.881 486.663
705 0 55.1239 11.7735 649 59.5516 340.57 484.106
706 0 55.1326 10.4475 576 61.8889 341.589 486.359
707 0 58.0396 9.99318 580 62.6276 341.447 483.228
708 0 60.0794 9.97014 599 62.0918 340.596 482.25
709 0 61.0826 10.1011 617 62.389 341.384 482.05
710 0 62.0374 9.86501 612 62.5572 340.822 480.219
711 0 66.059 9.79428 647 60.7403 340.875 482.575
712 0 68.1998 12.3901 845 58.1325 341.221 479.592
713 0 70.0768 11.1877 784 59.7755 341.506 477.227
714 0 73.0855 11.6029 848 59.7394 341.862 475.888
715 0 74.1109 10.1874 755 61.5046 341.788 476.045
716 0 78.1157 11.1117 868 60.9251 341.85 472.54
717 0 78.0697 10.9389 854 61.1991 341.865 473.351
718 1 41.0794 9.71291 399 59.3584 341.471 493.759
719 0 41.1296 8.65557 356 60.9944 341.475 492.871
720 0 42.0972 8.78919 370 61.8432 340.935 490.708
721 0 45.0506 9.70021 437 60.8764 341.222 490.984
722 0 45.2413 9.12882 413 61.9806 340.959 490.133
723 0 46.0873 9.19993 424 61.9717 341.085 487.967
724 0 49.1216 11.2171 551 59.5517 341.236 488.243
725 0 51.082 11.0019 562 59.9947 340.925 486.899
726 0 53.0774 10.8144 574 60.4495 341.028 486.786
727 0 54.0505 11.1932 605 60.4992 340.85 486.387
728 0 55.1037 9.16453 505 63.7109 340.972 485.341
729 0 57.0549 9.69241 553 62.642 340.785 483.139
730 0 59.193 11.2175 664 60.7289 340.396 484.616
731 0 60.1429 11.057 665 61.0752 340.677 481.588
732 0 62.186 12.0284 748 59.8142 341.295 479.849
733 0 63.1893 9.60606 607 63.1746 341.491 481.31
734 0 67.1166 11.6067 779 60.2542 341.769 481.054
735 0 67.0668 11.3767 763 61.0446 341.828 477.946
736 0 70.1555 10.6193 745 61.8819 341.624 476.255
737 0 72.0853 10.5014 757 62.255 341.655 476.729
738 0 73.0906 10.8906 796 62.059 341.681 473.726
739 0 77.1354 10.6566 822 61.9173 341.58 475.977
740 0 77.1574 10.7961 833 62.9232 341.552 470.6
741 0 83.0772 12.6148 1048 59.6679 341.05 472.727
742 0 85.0825 11.6945 995 60.5899 341.532 474.042
743 0 85.1105 9.66978 823 63.7327 341.676 471.683
744 0 88.0594 12.6392 1113 60.7439 341.611 467.98
745 0 92.1648 11.6096 1070 62.3607 341.633 467.339
746 0 95.1081 11.0821 1054 62.8786 341.2 467.716
747 0 96.2441 10.1928 981 63.9378 342.01 465.696
748 0 97.1267 10.8827 1057 63.8278 341.925 459.059
749 0 102.18 12.1354 1240 62.2532 341.51 458.833
750 0 105.219 10.7585 1132 63.932 340.603 460.976
751 0 109.124 11.5648 1262 62.5666 340.905 463.448
752 0 112.277 11.4628 1287 64.1507 340.893 455.835
753 0 116.274 12.9866 1510 61.8808 340.693 455.84
754 0 118.139 10.9194 1290 64.9194 340.474 452.89
755 0 124.211 11.7139 1455 63.9093 340.602 452.698
756 1 67.0346 10.9645 735 62.5551 340.8 479
757 0 67.0475 9.02346 605 64.6 341.152 481.673
758 0 69.0622 9.78827 676 64.4201 340.771 478.738
759 0 73.1297 11.8967 870 61.4414 341.044 476.489
760 0 75.1812 11.1065 835 61.8407 340.749 478.122
761 0 79.1709 13.0856 1036 59.0347 340.883 475.928
762 0 80.0846 11.9374 956 60.6998 340.487 474.655
763 0 80.1695 10.7273 860 61.2953 340.047 473.002
764 0 83.1406 11.3061 940 60.3202 340.003 472.419
765 0 86.0931 11.4295 984 61.0305 339.539 467.328
766 0 89.0978 10.943 975 61.1477 340.751 468.022
767 0 92.0698 11.9149 1097 59.3191 341.088 471.94
768 0 96.1699 11.5317 1109 60.7899 340.742 466.793
769 1 50.1026 10.5983 531 62.4049 340.753 486.473
770 0 53.0598 10.5164 558 62.2545 341.62 487.582
771 0 52.0725 9.04508 471 65 340.49 486.042
772 0 57.0423 12.0086 685 60.7971 340.575 486.21
773 0 57.107 12.5029 714 60.6443 340.087 487.395
774 0 61.0672 11.9213 728 61.0852 341.113 487.011
775 0 61.0455 12.4661 761 62.0197 340.89 483.317
776 0 65.0467 12.7447 829 60.9095 341.233 484.043
777 0 64.1384 13.4709 864 61.0718 340.542 480.588
778 0 68.0732 13.3386 908 61.0606 340.992 481.982
779 0 69.0557 12.9895 897 62.2765 341.282 479.983
780 0 70.1457 13.2439 929 62.2239 340.787 478.884
781 0 74.0264 12.1578 900 63.5844 341.029 479.138
782 0 72.1838 11.6924 844 65.3827 340.524 477.14
783 0 76.1395 12.07 919 64.5985 340.637 476.457
784 0 77.0925 13.2957 1025 63.8556 341.191 476.404
785 0 76.1558 11.9229 908 68.0892 341.22 477.581
786 0 76.0653 11.7399 893 68.8914 340.882 478.377
787 0 70.0832 6.90608 484 51.0165 340.711 479.49
788 0 73.0836 11.7947 862 69.0429 339.879 402.349
789 0 75.1638 12.0803 908 67.9108 340.003 402.11
790 0 77.123 13.083 1009 66.223 339.876 402.263
791 0 78.0902 14.7778 1154 63.9515 339.891 401.343
792 0 78.0797 12.2567 957 68.4744 339.886 404.97
793 0 78.1056 12.6367 987 68.3283 340.124 401.557
794 0 79.16 13.3022 1053 67.5926 340.599 402.947
795 0 80.1074 12.8078 1026 68.2515 340.718 404.348
796 0 80.1988 12.3568 991 69.5459 340.848 404.25
797 0 81.091 13.1457 1066 68.8771 340.211 400.152
798 0 82.0999 13.9708 1147 67.6617 339.689 398.24
799 0 83.167 13.8516 1152 67.0677 340.391 402.565
800 0 85.0535 13.709 1166 66.735 340.145 403.78
801 0 84.1095 12.3292 1037 70.7078 340.135 401.256
802 0 84.0745 11.7396 987 70.6069 340.136 403.867
803 0 86.0766 13.1743 1134 68.0741 340.041 403.095
804 0 85.2009 11.8895 1013 71.1254 340.34 401.812
805 0 85.1335 12.0634 1027 70.7751 340.679 399.946
806 0 88.1512 14.4638 1275 66.662 340.551 399.055
807 0 88.1205 14.5483 1282 66.7785 340.702 397.541
808 0 88.1056 13.0298 1148 69.3624 340.326 397.47
809 0 89.0901 13.1664 1173 69.1986 340.766 399.052
810 0 90.1899 14.3919 1298 67.7357 340.96 398.917
811 0 89.2477 13.5578 1210 68.9504 341.361 400.983
812 0 90.1668 13.2865 1198 69.6978 341.179 402.153
813 0 92.2135 12.8615 1186 69.57 340.635 403.093
814 0 93.2397 14.9078 1390 65.7273 340.735 404.571
