time division length width area intensity CMx CMy
0 0 73.1671 11.8086 864 70.5127 43.7685 479.925
1 0 74.1367 10.9123 809 71.9629 43.5303 478.994
2 0 77.0657 11.7562 906 70.3333 42.8422 480.549
3 1 42.0659 11.1254 468 70.015 42.8462 496.291
4 0 43.0459 10.152 437 71.2243 42.5149 497.169
5 0 44.0582 11.8707 523 70.0382 41.6941 493.908
6 0 46.0558 11.5729 533 69.9212 41.9306 493.687
7 0 46.0744 11.0474 509 70.6365 42.1886 493.234
8 0 47.0538 10.7961 508 70.8563 41.9606 493.969
9 0 49.0292 11.5441 566 69.3428 42.0866 494.746
10 0 53.0245 10.7686 571 69.2382 41.6217 492.52
11 0 54.0654 11.0422 597 68.9564 41.8576 493.425
12 0 56.2048 12.4367 699 67.5408 42.6323 489.768
13 0 58.1385 11.6446 677 68.096 42.1728 490.279
14 0 59.0472 12.5662 742 67.3261 41.4151 489.19
15 0 61.038 10.4689 639 70.133 41.3474 487.797
16 0 62.0928 11.6117 721 69.0846 41.5853 486.903
17 0 63.0551 11.9261 752 69.016 41.3737 486.805
18 0 66.0578 11.7473 776 69.0399 41.3827 485.865
19 0 70.0642 11.7749 825 67.9733 40.9321 486.212
20 0 70.0729 11.9019 834 68.8801 40.3585 483.59
21 0 73.0925 12.5868 920 67.9891 40.5533 482.113
22 0 74.1659 9.95066 738 71.103 40.9864 483.961
23 0 77.0998 11.1025 856 69.9042 41.0818 482.071
24 0 79.2337 11.6617 924 69.3366 40.5541 478.389
25 0 82.0591 11.5283 946 69.3774 40.5962 481.34
26 0 84.1636 11.1687 940 70.1383 39.7202 477.609
27 0 87.126 11.4202 995 69.4523 39.8945 478.598
28 1 42.0351 9.49207 399 72.193 40.3358 496.281
29 0 47.0816 11.342 534 68.4644 40.3221 495.801
30 0 48.0738 9.77663 470 70.334 40.5234 498.249
31 0 50.0678 11.784 590 68.5644 39.8695 495.192
32 0 50.0212 10.2157 511 71.1605 40.5342 496.785
33 0 54.1751 11.2967 612 69.2614 40.4788 495.998
34 0 55.1166 10.5776 583 70.765 40.6621 494.628
35 0 58.0736 12.4497 723 67.7981 39.7994 492.852
36 0 56.0625 11.0234 618 71.1505 39.6003 492.67
37 0 60.1658 11.086 667 70.8801 39.5037 489.895
38 0 63.1094 12.0426 760 69.5829 40.1934 489.48
39 0 63.1187 11.2962 713 71.5905 39.7672 487.017
40 0 66.0541 13.5192 893 67.6562 40.0717 488.713
41 0 66.0854 11.7273 775 71.6529 39.6477 485.332
42 0 68.1633 11.9566 815 70.984 39.2184 485.231
43 0 69.1289 11.2833 780 72.1231 39.1026 485.488
44 0 74.1106 13.183 977 69.1914 39.2907 485.353
45 0 75.0347 12.2743 921 71.3105 38.7058 482.353
46 0 77.0507 12.5502 967 70.8459 39.9131 482.253
47 0 80.1866 12.5707 1008 70.879 39.872 480.801
48 0 85.181 13.1954 1124 69.5845 39.7705 479.804
49 1 44.0639 10.7344 473 71.7928 39.7315 497.989
50 0 44.0415 11.3075 498 71.7992 39.5743 497.253
51 0 44.1019 9.47804 418 74.8397 39.945 495.66
52 0 48.0514 11.4044 548 71.6442 38.7573 495.693
53 0 49.0648 11.1485 547 71.3638 38.6271 496.773
54 0 51.0488 10.7152 547 72.7843 38.6673 495.261
55 0 53.118 13.0841 695 68.7928 38.7755 494.96
56 0 53.1213 12.6503 672 69.7723 40.1607 495.052
57 0 57.0583 11.7424 670 71.1328 39.9955 492.458
58 0 58.0777 11.6396 676 71.6065 39.5503 491.336
59 0 60.0252 10.8788 653 72.8683 39.5008 490.694
60 0 60.0392 11.2093 673 72.9495 40.0773 490.504
61 0 63.0717 12.5413 791 70.7345 40.1163 488.345
62 0 64.0744 10.9872 704 72.8452 40.6875 490.611
63 0 67.0538 12.0948 811 71.0407 40.0592 488.8
64 0 68.079 13.9544 950 68.2042 39.04 487.665
65 0 69.0775 11.9721 827 72.0302 38.6626 486.302
66 0 72.0906 12.2762 885 71.0011 39.4836 485.186
67 0 74.0683 12.2455 907 71.1599 39.183 483.119
68 0 75.0519 12.1516 912 71.4901 39.1853 485.058
69 0 78.0635 12.9638 1012 69.999 38.8073 483.514
70 0 80.062 13.0274 1043 70.0968 38.8754 480.736
71 0 82.0862 12.158 998 71.0591 39.988 479.704
72 0 85.1534 12.6713 1079 69.5209 40.2771 480.839
73 0 88.0867 11.4773 1011 71.6785 39.9337 479.42
74 1 49.072 11.4322 561 69.893 40.1034 495.984
75 0 51.07 13.8046 705 65.644 40.1688 495.66
76 0 52.0371 11.7416 611 69.4746 39.0262 492.601
77 0 53.046 10.9905 583 71.0515 39.2453 491.77
78 0 57.0542 11.9185 680 68.9029 39.525 490.846
79 0 59.1165 12.3485 730 67.311 38.6068 491.192
80 0 61.0294 12.0762 737 68.2103 38.9607 489.296
81 0 60.0524 11.7397 705 68.9376 39.7461 489.828
82 0 63.0358 11.0096 694 68.9928 40.1009 489.96
83 0 66.0907 12.9065 853 66.6893 40.2638 486.505
84 0 65.0964 11.0759 721 69.8738 39.792 486.193
85 0 67.1127 12.4865 838 67.6384 40.2279 486.372
86 0 69.0863 12.9838 897 67.1516 39.8004 483.697
87 0 71.0652 13.0022 924 66.6515 40.1418 485.359
88 0 74.0669 14.0414 1040 64.8202 40.0904 485.18
89 0 74.051 12.3428 914 67.6379 40.1608 484.204
90 0 77.0948 12.6079 972 66.9239 39.5093 482.003
91 0 78.1583 13.3063 1040 66.2827 39.8433 480.37
92 0 79.0397 10.9818 868 69.3687 40.6071 479.346
93 0 84.0629 11.2892 949 67.8061 39.6839 482.364
94 0 85.1213 11.654 992 68.2389 39.8085 479.023
95 0 89.0899 12.8073 1141 66.3716 39.5504 476.865
96 1 47.1206 10.9719 517 65.3985 39.5106 498.002
97 0 48.111 10.6005 510 66.6961 39.798 495.806
98 0 49.0225 11.7701 577 64.8284 39.7782 497.51
99 0 49.0957 11.3656 558 66.7885 39.1111 495.029
100 0 51.0783 10.6307 543 66.9761 39.1418 495.215
101 0 55.0509 10.6447 586 66.4403 39.5 494.123
102 0 53.1178 11.145 592 66.7753 39.875 493.576
103 0 56.1331 11.6865 656 65.6905 39.811 490.765
104 0 58.0776 10.5893 615 67.2098 39.7285 492.233
105 0 57.2284 10.9561 627 67.6842 39.0287 491.057
106 0 62.0378 12.4763 774 64.376 39.3592 491.5
107 0 64.1295 12.2097 783 64.6948 39.3231 489.693
108 0 65.0771 13.2151 860 63.6767 39.5907 486.202
109 0 67.1103 11.8462 795 65.6516 39.0151 488.26
110 0 69.209 11.5303 798 66.1704 38.8346 487.263
111 0 73.1839 12.5984 922 63.6475 39.0748 486.894
112 0 72.2091 10.345 747 67.4043 39.1914 484.187
113 0 76.1551 11.3453 864 65.4977 39.1551 484.659
114 0 79.1703 11.5826 917 65.1243 39.6161 484.31
115 0 80.3546 10.6279 854 66.6429 39.7869 481.874
116 0 84.3236 11.3136 954 65.9172 40.1751 479.211
117 0 86.2111 13.9541 1203 62.0557 40.0091 480.081
118 1 43.1056 9.88271 426 66.5423 39.4437 498.322
119 0 47.0842 10.2582 483 65.5321 39.8219 498.443
120 0 49.1163 11.5033 565 64.1912 38.9858 497.161
121 0 51.2529 11.1799 573 64.3403 39.1902 494.328
122 0 52.1251 10.7626 561 65.1176 39.0731 494.975
123 0 52.1098 9.97893 520 66.1231 38.8577 492.792
124 0 56.1017 10.7662 604 64.7765 38.8974 492.462
125 0 58.0472 11.1461 647 63.966 38.7836 492.584
126 0 58.1296 10.9067 634 64.7634 39.1845 490.751
127 0 61.062 10.1209 618 65.6133 39.521 488.814
128 0 64.087 13.4505 862 60.9443 39.4269 487.658
129 0 64.1156 9.90399 635 65.7591 40.4079 487.506
130 0 66.0599 11.0203 728 64.3764 40.5728 485.588
131 0 65.0898 10.1245 659 66.091 40.0046 483.866
132 0 73.0648 11.7704 860 62.2663 40.2221 486.951
133 0 74.0982 12.389 918 62.2767 39.756 483.194
134 0 73.1444 10.1717 744 65.4274 39.1734 483.876
135 0 78.1215 13.3254 1041 60.7627 39.9462 483.716
136 0 81.0713 13.5066 1095 60.9324 40.3525 479.332
137 0 82.1239 12.0063 986 62.7982 40.1288 479.447
138 0 84.0894 10.691 899 64.8443 40 472.794
139 0 85.1196 10.8553 924 65.237 39.8009 473.365
140 0 90.1476 12.0469 1086 63.6519 39.5884 475.716
141 0 92.1294 13.0252 1200 62.7167 39.9467 474.21
142 0 95.1609 11.8431 1127 64.5954 40.4561 471.607
143 0 97.1276 11.0885 1077 65.7279 40.1857 471.425
144 1 55.0679 9.62447 530 65.3925 40.5642 492.73
145 0 55.1416 10.464 577 65.0416 40.4506 491.768
146 0 57.1276 9.71509 555 66.0649 39.9495 490.049
147 0 59.2348 9.48767 562 66.363 39.5196 489.826
148 0 63.2264 10.6127 671 65.535 39.7988 488.611
149 0 64.1247 10.6511 683 65.8316 40.2313 487.577
150 0 65.112 11.15 726 65.4945 40.3912 488.763
151 0 67.0784 11.5089 772 65.6593 39.1231 484.776
152 0 69.1831 9.61218 665 68.5474 39.2947 481.066
153 0 71.1638 10.5953 754 67.0796 40.4231 482.151
154 0 74.1693 12.1209 899 65.4416 40.6485 480.943
155 0 72.0826 9.07292 654 70.4618 40.8578 476.521
156 0 78.0826 10.9499 855 66.7602 40.9076 480.643
157 0 81.1782 11.2469 913 66.1446 40.0876 480.116
158 0 84.2375 12.1442 1023 65.0137 40.0811 476.262
159 0 85.3279 11.1687 953 66.3966 40.0241 476.298
160 0 86.2004 10.8236 933 67.2294 40.0815 474.502
161 0 88.0962 9.2399 814 69.4091 40.9165 470.867
162 0 93.1219 10.3091 960 67.9594 41.15 471.381
163 0 99.4532 11.4024 1134 64.9295 41.0185 475.621
164 0 103.213 13.0797 1350 63.1437 40.6711 471.95
165 1 56.2294 10.2438 576 63.217 41.0087 494.134
166 0 58.0896 9.96736 579 63.0984 41.0501 494.078
167 0 58.2363 11.6079 676 61.7278 41.0133 494.82
168 0 60.0745 11.519 692 62.6633 40.8035 493.912
169 0 62.4743 12.3091 769 62.1664 40.3498 490.28
170 0 62.0854 8.56884 532 67.0301 39.8835 490.739
171 0 65.1855 10.0022 652 64.7638 40.589 489.124
172 0 68.0978 12.4527 848 63.4493 40.283 486.702
173 0 68.0474 10.3016 701 65.5578 39.8074 488.816
174 0 72.1923 13.3394 963 61.4039 39.8879 485.749
175 0 74.1243 12.9917 963 61.9668 39.9502 484.8
176 0 77.09 11.8692 915 63.0776 40.0809 484.25
177 0 78.11 11.3814 889 64.5343 40.7593 480
178 0 80.1172 11.5081 922 64.9555 40.7527 479.982
179 0 83.0716 12.3869 1029 63.9329 40.4509 478.175
180 0 86.119 12.564 1082 63.0139 40.4593 480.274
181 0 89.1091 12.3893 1104 63.7745 40.4248 478.155
182 1 47.0663 9.22103 434 64.4724 40.3226 497.366
183 0 48.0421 8.57581 412 64.682 40.017 498.005
184 0 49.0439 9.11429 447 63.9239 39.8367 497.456
185 0 51.0977 10.2353 523 63.3346 40.2964 493.925
186 0 54.0458 11.1942 605 61.2727 40.524 495.443
187 0 52.0412 9.79992 510 64.4176 40.6392 492.78
188 0 55.0558 10.1897 561 63.8307 40.0766 492.934
189 0 56.0684 10.9509 614 63.0619 39.3111 490.337
190 0 58.1742 11.5 669 62.4051 39.5904 490.362
191 0 59.0628 10.4804 619 64.609 39.4071 489.258
192 0 59.101 11.0827 655 64.6275 40.1069 487.093
193 0 62.0804 12.0167 746 63.1676 40.3097 487.973
194 0 64.0494 12.3498 791 63.115 40.4703 486.296
195 0 64.1605 10.7855 692 66.1387 39.7919 484.947
196 0 68.1386 12.2104 832 63.8966 39.5901 484.523
197 0 70.2787 10.7003 752 66.133 39.359 485.166
198 0 69.1735 10.6833 739 67.1096 39.6225 482.909
199 0 72.1309 9.99571 721 67.4882 40.5007 484.598
200 0 72.2221 10.1631 734 68.2984 40.0518 479.429
201 0 78.0724 12.6934 991 64.4793 39.8406 480.618
202 0 79.1024 11.7443 929 66.4209 40.0915 478.64
203 0 80.1022 10.5615 846 67.9184 40.2766 478.009
204 0 84.1758 12.2482 1031 65.8157 39.9893 479.308
205 0 85.2046 11.4783 978 67.2945 39.6881 478.1
206 0 90.2385 13.1208 1184 65.4797 39.9037 472.98
207 1 51.0539 10.4595 534 65.2472 38.7378 494.131
208 0 51.0553 11.0077 562 63.8078 38.8345 494.865
209 0 51.0576 12.4957 638 63.9514 39.5329 492.541
210 0 53.0611 10.8177 574 66.1603 39.7178 492.5
211 0 55.0586 11.0973 611 66.0671 39.7021 491.969
212 0 57.0501 11.8317 675 63.9733 39.6148 490.453
213 0 59.0436 13.5662 801 61.6517 39.1548 490.026
214 0 59.0541 11.6842 690 65.5348 39.3391 488.686
215 0 62.0315 11.2362 697 65.8594 39.142 489.522
216 0 62.1398 11.5385 717 67.1395 39.8912 487.121
217 0 65.0594 13.6337 887 63.9425 40.4713 486.339
218 0 68.098 12.4086 845 65.3219 40.1349 486.17
219 0 68.0527 11.8291 805 66.005 40.2671 486.539
220 0 71.1644 11.1573 794 66.5365 40.1801 484.467
221 0 72.1175 12.5628 906 66.2892 40.053 482.308
222 0 75.1679 11.8269 889 66.8616 39.5197 479.279
223 0 79.0986 13.1987 1044 64.7519 39.7586 478.141
224 0 79.1286 11.4244 904 67.5055 39.4148 477.427
225 0 81.1346 11.7089 950 66.9979 39.6611 477.833
226 0 85.1362 11.3935 970 67.6639 39.968 475.719
227 0 85.1028 11.116 946 68.1882 40.1554 475.725
228 0 91.0865 12.6363 1151 65.7194 39.947 473.407
229 0 92.1237 12.2553 1129 66.9858 39.8308 473.063
230 1 51.046 10.2261 522 64.5153 40.067 496.906
231 0 54.2086 9.99842 542 65.4391 39.1494 494.902
232 0 53.0278 10.0325 532 68.0226 39.1015 492.331
233 0 58.045 11.5083 668 65.3338 38.6497 491.734
234 0 59.0674 12.0371 711 64.82 38.7834 492.525
235 0 61.0628 11.9549 730 64.3452 39.5425 492.63
236 0 59.108 10.6585 630 68.2127 39.6302 488.951
237 0 62.0723 11.7605 730 66.6274 40.0521 488.174
238 0 67.0431 11.9326 800 65.6688 40.0288 487.451
239 0 67.0293 11.4278 766 66.218 40.4204 486.903
240 0 69.0999 10.9696 758 66.8984 40.6135 487.011
241 0 69.1249 11.3997 788 67.3312 40.7081 484.741
242 0 74.0499 12.4105 919 65.6159 39.9499 482.736
243 0 75.0853 13.5845 1020 64.0147 39.45 482.327
244 0 76.1177 11.7975 898 67.2673 39.8708 480.031
245 0 79.0287 11.7805 931 67.276 39.4522 480.149
246 0 81.1433 11.5228 935 67.4717 39.6396 481.193
247 0 84.0916 11.4875 966 67.5259 39.5104 480.917
248 0 86.064 12.572 1082 66.8105 39.5619 476.348
249 0 89.1879 12.8156 1143 66.8959 39.5136 473.269
250 1 49.0278 9.85154 483 66.6729 39.6066 496.017
251 0 50.1701 10.6438 534 66.7247 39.6236 494.169
252 0 53.0259 11.0323 585 66.0872 39.6786 496.164
253 0 52.0523 10.9121 568 68.0387 39.3662 493.421
254 0 56.1392 11.8099 663 66.6637 39.6365 494.394
255 0 55.124 10.304 568 70.4542 39.8627 490.82
256 0 61.0886 11.8025 721 66.9903 38.9681 492.484
257 0 60.1085 11.9118 716 68.0042 39.574 491.714
258 0 62.0394 12.0568 748 68.1658 39.8904 490.218
259 0 63.0173 10.997 693 70 40.3622 490.038
260 0 64.0603 10.5213 674 71.2864 40.3309 485.877
261 0 66.0979 10.3785 686 70.5583 39.8265 489.526
262 0 71.0655 11.3276 805 68.8571 39.9242 487.769
263 0 70.0619 11.8752 832 68.7764 39.8726 484.843
264 0 71.0536 10.5976 753 71.3705 39.6481 482.943
265 0 75.0624 10.6578 800 71.0037 40.0087 484.095
266 0 76.123 10.2728 782 71.0959 39.8107 483.779
267 0 79.1262 11.2605 891 69.0662 39.734 482.914
268 0 79.038 11.3743 899 69.9711 39.8131 480.127
269 0 84.0926 11.5111 968 69.1395 39.5682 479.659
270 0 84.042 10.471 880 70.6466 39.4659 479.149
271 0 89.1962 11.2673 1005 68.8746 39.3363 478.673
272 0 90.1249 9.78642 882 71.7857 39.271 475.245
273 1 49.0219 10.2607 503 69.7555 39.3857 492.443
274 0 54.1233 11.6586 631 66.8114 39.6197 495.165
275 0 54.0948 11.4798 621 67.9614 39.496 491.921
276 0 55.0889 11.073 610 68.6377 39.6557 490.857
277 0 56.1358 12.256 688 67.032 39.5233 490.741
278 0 59.0965 9.59448 567 71.1464 39.4162 488.363
279 0 57.0606 10.4275 595 70.3008 39.2067 486.795
280 0 63.0654 11.9241 752 66.6024 39.0957 489.584
281 0 64.1057 11.6838 749 67.5834 39.0668 489.864
282 0 67.0535 12.7659 856 65.8621 38.8984 487.884
283 0 66.0587 12.2467 809 67.5501 38.9938 485.093
284 0 71.1645 12.2533 872 66.7718 39.0665 485.8
285 0 71.0625 11.4829 816 67.2745 39.136 489.257
286 0 73.185 12.5709 920 66.9598 39.1728 482.765
287 0 76.0812 12.6312 961 66.641 39.4131 482.629
288 0 76.186 12.7714 973 66.9363 39.4697 480.77
289 0 78.2276 11.9012 931 68.5027 39.0075 480.946
290 0 80.1542 11.665 935 69.1155 38.6171 479.723
291 0 84.0796 10.9658 922 69.8623 38.9121 478.504
292 0 85.2155 11.2186 956 70.3159 38.6663 473.483
293 1 46.099 9.69651 447 69.5682 39.2886 496.031
294 0 48.0729 9.96404 479 69.3967 39.2025 496.931
295 0 48.0977 9.77178 470 69.8574 38.7404 497.087
296 0 47.0861 9.38707 442 71.1787 38.7964 495.778
297 0 50.1007 9.76034 489 71.0266 39.6176 494.362
298 0 50.09 11.0601 554 69.8195 39.0578 491.686
299 0 54.0375 11.2329 607 69.1631 38.8682 493.685
300 0 57.1331 12.7247 727 66.3466 38.9752 492.187
301 0 59.0891 12.0665 713 67.9144 38.9495 489.973
302 0 60.0709 11.6695 701 68.9929 39.0143 489.914
303 0 61.096 10.95 669 70.4185 39.2646 488.184
304 0 62.2414 11.3108 704 70.831 39.3935 485.587
305 0 66.1551 12.0474 797 68.9561 39.0803 486.068
306 0 66.1193 11.9935 793 69.6759 39.4641 485.407
307 0 68.0169 12.938 880 68.483 39.125 482.25
308 0 71.1982 13.4694 959 67.7758 39.1689 483.63
309 0 71.1066 11.7851 838 70.7243 39.179 482.979
310 0 75.0853 12.3193 925 69.4973 39.4357 482.151
311 0 78.1341 13.8608 1083 67.2484 39.096 479.152
312 0 81.1636 14.1566 1149 66.6493 39.181 480.372
313 0 81.1547 11.8539 962 70.5322 39.0644 478.687
314 0 85.168 12.446 1060 69.2387 39.6774 478.458
315 0 88.2314 14.734 1300 65.5892 39.5077 478.25
316 0 90.1395 12.5694 1133 69.2268 39.8305 475.473
317 0 93.2461 12.4831 1164 69.4184 39.5533 472.351
318 1 51.1718 11.7252 600 69.0333 39.3567 491.46
319 0 54.1297 12.3777 670 67.5358 39.1328 491.904
320 0 56.0929 11.7662 660 68.6561 38.2485 491.28
321 0 58.1145 11.4945 668 68.985 38.4716 490.726
322 0 59.1843 12.5202 741 68.0661 38.5398 487.991
323 0 60.148 12.6189 759 68.3874 39.0026 486.855
324 0 63.1786 13.0107 822 67.0693 39.7567 488.523
325 0 64.0448 11.7574 753 68.5232 39.8579 489.072
326 0 66.0581 12.9886 858 67.2716 39.4114 485.782
327 0 68.1045 13.3324 908 67.3744 38.5485 484.008
328 0 70.0786 12.5573 880 68.1284 38.8705 485.473
329 0 71.134 11.64 828 69.8007 38.8623 485.047
330 0 73.1654 12.4102 908 68.2654 39.3469 483.63
331 0 76.0485 12.3737 941 68.5484 39.4293 481.431
332 0 79.2521 12.2773 973 68.3258 39.6526 478.414
333 0 79.1986 11.6795 925 69.4519 39.72 479.989
334 0 84.1746 12.5216 1054 67.6281 39.9915 480.737
335 0 86.1619 12.9524 1116 67.0493 39.7133 478.005
336 0 87.2361 12.4604 1087 68.3413 39.9246 474.221
337 1 50.2066 10.397 522 67.659 39.7356 496.519
338 0 51.1707 9.61487 492 69.0285 38.8841 493.874
339 0 52.1715 12.5931 657 64.9467 38.7078 494.029
340 0 54.2448 12.1302 658 65.6489 39.1945 492.175
341 0 58.1008 12.0997 703 65.441 39.1408 491.865
342 0 57.141 10.3603 592 68.0152 39.5169 491.032
343 0 60.1723 11.5169 693 66.1414 39.0289 489.87
344 0 61.2496 11.0531 677 66.9941 39.4151 489.69
345 0 63.0303 11.4707 723 66.538 38.5934 487.845
346 0 66.1044 12.4349 822 65.5182 38.4647 484.991
347 0 67.1002 10.76 722 68.1773 39.2909 484.209
348 0 69.2304 10.6745 739 68.3045 39.1191 483.781
349 0 71.0646 11.3277 805 67.7006 39.3801 482.881
350 0 74.1505 11.8138 876 66.726 39.266 482.804
351 0 74.0415 13.1278 972 66.216 39.43 479.223
352 0 76.1787 10.8298 825 69.0521 38.897 477.846
353 0 80.1928 12.8939 1034 65.9033 38.706 477.044
354 0 83.2581 11.9868 998 66.8467 38.516 479.828
355 0 85.1192 12.7821 1088 66.2941 38.7169 476.049
356 0 86.1038 11.068 953 69.382 39.2455 471.465
357 1 49.1452 10.9064 536 65.2612 39.9272 495.828
358 0 47.1726 10.2602 484 67.1921 39.7355 495.632
359 0 48.0531 8.78195 422 69.3981 40.0071 495.13
360 0 52.1241 11.2808 588 66.7585 39.8673 492.563
361 0 52.0565 10.9112 568 68.3028 38.7218 490.38
362 0 55.254 11.6191 642 68.0436 38.6355 490.757
363 0 56.0936 12.1583 682 66.4663 38.305 494.081
364 0 58.0558 10.6277 617 69.9173 38.778 491.69
365 0 58.1436 11.764 684 68.9444 39.0424 489.503
366 0 60.1423 10.9407 658 69.9529 38.7508 490.103
367 0 64.1364 12.411 796 67.9372 38.5302 487.795
368 0 63.0308 10.7408 677 70.9306 40.003 487.848
369 0 68.0882 11.911 811 68.8249 40.3514 486.049
370 0 69.1471 11.3237 783 69.1456 40.1571 486.165
371 0 71.1777 11.9138 848 69.25 39.1875 483.356
372 0 73.0712 10.6472 778 71.4023 38.8432 483.485
373 0 74.0844 11.2574 834 70.5659 38.8873 483.47
374 0 77.2828 12.189 942 69.8153 39.5584 480.484
375 0 80.107 10.873 871 71.4856 39.4822 481.495
376 1 42.0778 9.38737 395 69.4329 38.5848 498.777
377 0 42.0486 8.4664 356 71.8315 39.0618 498.096
378 0 45.1032 9.00157 406 71.1108 38.7635 496.685
379 0 46.0473 10.1635 468 69.9444 38.9167 495.387
380 0 48.1152 12.3662 595 66.7714 39.2555 495.323
381 0 50.0895 9.94219 498 70.3594 38.753 492.867
382 0 51.1056 11.7208 599 67.5927 38.8063 492.775
383 0 54.06 10.5068 568 69.618 39.0634 490.708
384 0 54.0733 10.9481 592 68.5287 39 491.258
385 0 59.0323 11.4514 676 66.6731 39.4689 489.571
386 0 58.1021 11.1528 648 68.3056 38.1914 486.708
387 0 58.0349 10.7522 624 69.3141 38.1186 488.064
388 0 61.1256 11.0428 675 68.7111 38.5141 487.8
389 0 64.0664 12.1437 778 66.8625 38.2674 486.634
390 0 66.0805 11.6222 768 67.7266 38.0078 485.733
391 0 67.0515 11.6179 779 67.4506 38.1309 484.208
392 0 68.125 11.5523 787 68.1868 38.5311 484.164
393 0 72.0842 12.2912 886 66.9176 37.9323 482.263
394 0 73.2682 12.6112 924 66.7565 38.7641 481.368
395 0 74.0671 10.369 768 69.9766 39.0052 481.257
396 0 76.0946 12.6027 959 67.4943 39.5871 477.904
397 0 78.1212 12.0326 940 68.4617 39.4287 477.48
398 0 81.1519 12.0761 980 67.7898 39.1122 480.517
399 0 83.0621 10.4019 864 71.184 39.1551 474.81
400 0 87.0619 11.3483 988 69.3563 39.1913 475.776
401 0 88.1155 11.3714 1002 69.3293 40.014 476.806
402 0 91.1564 11.2115 1022 69.6243 38.9883 473.599
403 1 49.05 9.29665 456 69.7697 39.4189 494.349
404 0 53.0456 10.1799 540 69.6074 39.6278 490.674
405 0 53.0835 11.2087 595 68.1563 39.5092 491.348
406 0 54.0343 11.0485 597 69.1173 39.5276 490.012
407 0 57.1934 11.9594 684 67.4678 39.9298 489.529
408 0 58.0699 11.2278 652 69.1718 39.046 489.526
409 0 61.1053 13.3376 815 66.0037 39.5215 489.053
410 0 62.0664 10.9238 678 68.5605 39.3422 488.425
411 0 63.1224 10.5984 669 69.9238 39.5919 487.564
412 0 64.0626 11.9102 763 67.5924 39.671 488.271
413 0 70.1439 11.3196 794 68.4181 39.5504 486.535
414 0 70.1124 11.6955 820 69.4927 39.6024 483.33
415 0 71.0735 11.861 843 68.8932 39.6868 485.244
416 0 74.0472 12.1274 898 69.3842 40.3719 481.742
417 0 76.0676 11.5818 881 70.3337 40.0227 482.297
418 0 81.0762 12.9508 1050 67.9219 40.3143 480.855
419 0 81.0552 11.7451 952 70.0158 40.1607 480.58
420 0 82.0717 11.624 954 71.3627 40.0755 476.696
421 0 86.0736 11.92 1026 70.4903 40.0429 476.156
422 1 43.0582 9.08074 391 70.5371 39.913 498.033
423 0 44.0405 9.30962 410 70.3585 39.8073 497.688
424 0 48.0214 11.0159 529 67.8412 40.2344 497.146
425 0 49.025 9.09739 446 71.657 39.9372 496.37
426 0 52.1681 12.6514 660 66.9545 39.7152 495.865
427 0 52.0449 10.9329 569 70.6098 39.9156 494.058
428 0 56.1715 10.9664 616 68.9951 39.8036 494.869
429 0 54.1128 10.4966 568 70.8398 40.2377 493.419
430 0 58.0556 11.5407 670 69.094 41.1 492.364
431 0 59.1379 11.2618 666 69.5315 40.012 489.845
432 0 62.1521 10.8444 674 69.1261 40.0712 490.521
433 0 63.1308 11.785 744 67.8441 39.5457 490.708
434 0 66.1091 12.555 830 66.9 39.1554 487.595
435 0 66.1624 10.58 700 69.58 38.8229 490.64
436 0 69.3742 12.4398 863 67.0417 39.8969 487.686
437 0 72.0784 13.1246 946 66.1321 39.7632 484.774
438 0 74.1492 12.6232 936 67.4017 39.5662 483.375
439 0 77.1067 12.5151 965 67.344 39.2477 483.838
440 0 79.1396 12.1305 960 68.1156 39.4635 480.383
441 1 39.0417 9.22091 360 70.2417 39.6361 499.414
442 0 42.0924 10.8095 455 68.3692 39.6022 498.954
443 0 44.0418 9.9678 439 69.0888 39.7175 499.754
444 0 46.1089 11.2559 519 67.6339 39.9788 497.43
445 0 46.1793 10.3726 479 69.1148 39.3361 498.221
446 0 48.3256 11.4018 551 66.9492 38.8802 497.022
447 0 51.082 11.4718 586 66.442 38.9522 497.203
448 0 51.1349 11.2056 573 68.3839 38.7277 493.56
449 0 51.0641 10.6337 543 69.5175 39.2947 493.37
450 0 53.082 9.98455 530 70.2585 39.034 495.145
451 0 55.3214 10.7373 594 69.6296 39.2441 491.912
452 0 59.1184 12.5849 744 65.7621 39.4745 492.184
453 0 58.0809 12.4482 723 66.4758 39.7082 490.866
454 0 60.1259 11.3595 683 68.6003 40.1537 487.512
455 0 63.2014 13.5124 854 65.1475 40.226 486.219
456 0 63.241 12.2705 776 67.7719 40.1649 484.026
457 0 66.1594 12.3036 814 67.6855 40.5012 486.383
458 0 67.1587 12.5375 842 67.3076 39.9846 485.552
459 0 70.2279 12.6018 885 67.313 39.9559 485.584
460 0 72.2548 13.0787 945 66.5778 39.728 483.761
461 0 76.2389 13.6807 1043 65.534 39.8332 482.058
462 0 76.15 11.7925 898 68.5223 39.6581 484.383
463 0 79.257 13.1093 1039 66.9519 38.8479 479.805
464 0 82.1911 12.8116 1053 67.1054 38.9886 478.519
465 1 43.1388 9.45785 408 70.25 39.1887 498.635
466 0 44.0916 11.5668 510 67.1098 39.4333 499.259
467 0 45.151 10.8746 491 68.7271 39.0285 496.332
468 0 47.1015 11.1886 527 68.074 38.9184 495.507
469 0 49.1512 12.3089 605 66.4331 38.9802 495.17
470 0 51.0836 12.2348 625 66.4128 39.2784 494.259
471 0 53.0747 12.9817 689 65.0943 39.6909 492.951
472 0 55.1447 11.8778 655 66.6107 39.0275 493.498
473 0 57.1103 11.6091 663 66.7496 39.0558 491.891
474 0 59.1234 12.6684 749 64.7303 39.3698 492.091
475 0 61.04 11.4515 699 66.2876 39.0243 490.652
476 0 62.0713 13.5489 841 63.6587 39.4293 491.713
477 0 65.0765 11.1254 724 66.5055 39.1616 489.852
478 0 64.0833 11.5319 739 66.3762 38.77 490.24
479 0 66.0985 11.2105 741 66.691 38.7841 489.351
480 0 71.0537 13.0605 928 63.6002 38.8233 487.423
481 0 71.1222 12.9917 924 64.6883 38.4978 484.977
482 0 74.1645 12.0812 896 65.5 38.4955 483.417
483 0 78.131 12.5302 979 64.2329 39.2247 484.195
484 0 80.0933 12.2108 978 64.1299 39.5378 484.871
485 1 45.1296 11.9655 540 62.7019 39.4926 500.23
486 0 45.0217 11.2835 508 63.0354 39.6161 501.285
487 0 45.0397 11.4566 516 63.9632 39.3837 498.477
488 0 46.0745 12.393 571 62.8651 39.3905 496.207
489 0 49.1 11.0998 545 63.7321 39.9578 497.49
490 0 49.0987 9.73549 478 66.1987 39.569 495.259
491 0 53.1179 11.3709 604 62.6738 39.8013 497.664
492 0 53.0577 12.2697 651 62.4962 39.9816 494.035
493 0 51.023 10.8579 554 64.9657 39.3556 493.083
494 0 56.0403 11.2776 632 63.3829 39.5775 494.396
495 0 58.0369 11.1481 647 63.524 39.204 493.414
496 0 58.0753 10.0731 585 64.8137 39.5453 491.79
497 0 60.1067 10.498 631 63.9937 39.8003 492.41
498 0 63.0822 11.9685 755 62.4424 40.4728 488.974
499 0 65.0904 11.8911 774 62.5943 39.7623 488.615
500 0 68.0616 11.6806 795 62.4893 39.3887 487.862
501 0 69.0871 12.202 843 62.2811 39.5635 487.872
502 0 70.0456 12.1492 851 62.6392 39.9765 485.179
503 0 72.029 12.2728 884 62.9231 39.9695 483.672
504 0 73.0724 11.3586 830 64.0795 40.0024 482.818
505 0 76.1013 10.4597 796 65.5666 39.4786 482.068
506 1 39.03 10.6585 416 63.4904 39.6827 500.762
507 0 40.035 9.49169 380 65.1 39.9105 500.684
508 0 40.0398 8.81624 353 66.9717 39.745 499.81
509 0 44.0955 10.9989 485 63.7938 39.5773 496.998
510 0 44.0132 9.24723 407 66.2973 39.5233 498.617
511 0 44.0586 10.8946 480 64.175 40.0542 499.092
512 0 45.0493 10.766 485 65.1649 40.367 497.843
513 0 47.0494 10.1808 479 66.1712 39.8246 496.724
514 0 49.0465 10.4391 512 66.5723 39.3281 493.27
515 0 50.0176 9.67659 484 68.374 39.0331 493.095
516 0 50.0441 11.37 569 68.0914 39.0158 494.109
517 0 54.1208 11.733 635 66.8252 38.9244 494.087
518 0 55.046 11.8265 651 67.278 39.7542 492.303
519 0 54.0209 10.533 569 70.5149 39.9649 489.436
520 0 57.0582 11.9878 684 68.598 39.9137 488.471
521 0 61.0829 11.0669 676 68.713 39.4822 490.565
522 0 62.086 12.7565 792 67.3333 39.5076 486.879
523 0 63.1795 11.3328 716 69.9693 39.0307 486.867
524 0 67.269 12.8737 866 67.664 39.0543 483.259
525 0 68.0802 12.2062 831 69.5487 38.7208 483.921
526 0 71.1251 11.7961 839 69.9249 38.671 483.629
527 0 73.091 12.2587 896 69.8013 39.01 481.25
528 0 74.0404 10.8184 801 72.1348 38.3883 479.874
529 0 78.0639 11.0422 862 71.3991 38.7425 482.195
530 1 40.06 10.9086 437 71.0046 39.3432 498.384
531 0 41.0496 9.7443 400 73.48 39.1425 496.632
532 0 43.0356 11.2697 485 70.866 39.4474 498.126
533 0 46.0251 11.2982 520 71.3962 39.1538 496.481
534 0 45.0296 12.6806 571 69.7776 39.0508 496.995
535 0 48.0323 11.638 559 71.644 39.322 493.76
536 0 52.1718 11.443 597 70.7906 39.0905 494.101
537 0 50.128 11.2512 564 72.3103 39.1507 494.587
538 0 53.0828 11.4726 609 71.5386 40.3415 494.429
539 0 54.0243 11.1616 603 72.8474 39.4859 492.134
540 0 56.0634 12.1291 680 71.2338 39.1676 491.174
541 0 59.1179 10.6228 628 72.8296 38.7962 491.258
542 0 60.0512 12.0397 723 71.61 38.5851 489.627
543 0 61.0895 12.1297 741 71.7854 38.502 487.533
544 0 63.159 12.8881 814 70.6523 38.172 486.706
545 0 65.1125 12.0407 784 71.6747 38.0625 485.7
546 0 66.1697 10.5033 695 74.7669 38.1928 485.174
547 0 70.196 11.9807 841 72.478 38.459 483.529
548 0 72.0704 11.7524 847 72.2798 38.6541 483.963
549 0 75.1501 11.5369 867 72.3622 38.2318 483.943
550 0 77.1135 12.7993 987 71.2715 38.3202 479.299
551 1 41.0623 9.86306 405 73.8938 37.9605 498.511
552 0 41.0505 11.7904 484 71.9587 38.2996 497.18
553 0 44.0841 12.2947 542 70.679 38.9871 497.622
554 0 44.0388 11.944 526 72.0285 39.1597 496.139
555 0 45.0226 12.0384 542 71.9815 38.4557 495.716
556 0 45.0517 11.2759 508 74.1575 39.061 494.86
557 0 49.1227 10.1379 498 74.8534 38.8835 493.906
558 0 49.0626 10.9656 538 74.8773 38.6561 492.721
559 0 50.0245 10.6548 533 75.2195 38.6492 493.694
560 0 51.0246 11.955 610 74.5148 39.1967 491.003
561 0 55.0189 11.6324 640 73.0984 38.7516 493.658
562 0 57.1099 11.9594 683 73.2489 39.1157 491.635
563 0 58.1283 11.9391 694 73.598 39.2075 491.304
564 0 61.0501 13.1368 802 71.8791 39.1047 490.271
565 0 63.1447 13.6353 861 71.6074 38.9884 486.52
566 0 65.1177 11.6558 759 74.552 39.6206 488.025
567 0 64.1757 11.9516 767 74.9009 39.1095 488.299
568 0 68.1418 12.5914 858 73.5967 39.0326 485.403
569 0 72.1785 12.5522 906 72.8885 38.4007 484.985
570 0 71.0532 11.414 811 75.9975 38.9371 482.582
571 0 73.1818 12.1615 890 75.1067 38.791 481.397
572 1 37.0717 10.1425 376 75.5186 38.6915 498.149
573 0 40.0622 10.3339 414 74.9589 38.5362 497.164
574 0 41.0387 11.4282 469 73.5757 38.3475 498.495
575 0 42.1539 11.0785 467 75.1799 39.015 497.323
576 0 46.0395 9.57873 441 76.4853 38.1995 497.918
577 0 45.0514 10.8987 491 75.3625 39.0285 497.073
578 0 48.1419 12.0477 580 72.731 38.1603 496.736
579 0 48.0529 12.7984 615 72.7805 38.3691 494.475
580 0 47.0434 12.2015 574 75.0052 38.5383 494.159
581 0 48.124 11.3041 544 76.6066 38.2426 492.954
582 0 53.1051 12.447 661 73.646 37.7927 490.625
583 0 52.0741 11.8485 617 75.9789 38.0146 491.071
584 0 56.0692 12.2706 688 74.0596 37.984 490.109
585 0 58.0999 11.1188 646 75.661 38.1378 490.139
586 0 57.0753 12.3521 705 74.1121 38.4965 490.491
587 0 61.0792 12.803 782 73.2813 38.4437 487.538
588 0 62.1714 12.0313 748 74.7193 38.6939 489.291
589 0 65.029 12.5944 819 74.1099 38.6862 486.361
590 0 66.1068 12.5706 831 73.9976 39.0866 484.603
591 0 69.0532 12.1066 836 74.012 38.9318 485.929
592 0 67.0363 12.6349 847 74.9256 38.5372 483.02
593 0 70.039 13.1498 921 73.8013 38.6949 482.318
594 0 74.0735 12.7981 948 74.2658 38.6825 480.289
595 0 77.0439 12.3177 949 74.5111 38.8714 479.684
596 1 41.1006 10.0242 412 74.2015 38.6408 498.985
597 0 42.0194 12.8512 540 70.1426 38.1741 498.25
598 0 42.0306 11.1109 467 74.4283 38.3105 496.852
599 0 44.0408 11.2623 496 73.4435 38.7903 497.784
600 0 46.0601 10.9422 504 73.7024 38.6171 496.627
601 0 46.0589 11.3333 522 73.5115 39.182 495.895
602 0 49.0392 12.0924 593 71.9747 38.941 493.042
603 0 49.0532 11.3143 555 73.618 39.0252 492.231
604 0 51.0551 12.32 629 72.256 39.2432 491.477
605 0 52.0466 11.2976 588 73.631 38.9881 491.959
606 0 55.0649 11.9858 660 71.6712 39.3045 491.821
607 0 56.0416 11.5093 645 73.355 38.9612 488.642
608 0 59.0742 11.8834 702 71.4801 38.8903 489.679
609 0 60.0822 11.9337 717 72.0739 38.7448 486.826
610 0 61.0761 11.0027 672 73.2128 38.5774 486.458
611 0 64.1005 10.858 696 73.4626 38.5244 482.872
612 0 64.0737 12.0954 775 71.7768 37.6413 484.945
613 0 69.1675 12.3035 851 70.678 38.1445 481.705
614 0 72.1481 13.6802 987 67.9554 37.5897 482.344
615 0 73.027 11.1466 814 72.285 38.0541 479.623
616 0 72.0851 10.7234 773 74.3001 37.8499 478.45
617 1 38.0255 8.02093 305 72.5607 38.0656 500.636
618 0 41.0612 9.59543 394 70.9492 38.099 499.076
619 0 40.0539 11.16 447 69.2461 38.0828 497.461
620 0 42.0472 10.5358 443 69.8217 38 497.262
621 0 41.0492 9.96364 409 71.0024 38.2274 497.457
622 0 44.1227 10.6748 471 69.7983 38.5881 494.747
623 0 46.0321 10.7317 494 69.8401 38.753 495.462
624 0 46.0157 8.71442 401 71.995 38.9476 496.087
625 0 47.0565 10.5405 496 69.4052 39.1008 494.861
626 0 49.1092 10.1203 497 69.6459 39.1751 491.443
627 0 52.1451 10.4708 546 68.837 38.956 491.725
628 0 51.0928 12.1739 622 67.3135 38.7621 491.141
629 0 54.0929 10.7962 584 69.0428 38.7791 489.021
630 0 57.1359 11.8314 676 67.1272 38.5562 489.355
631 0 58.0982 10.4995 610 69.0951 38.4426 487.993
632 0 60.0968 11.4316 687 67.4279 38.6376 487.191
633 0 61.0906 10.6563 651 69.063 38.9002 486.518
634 0 61.0634 9.97324 609 70.1741 38.9803 483.946
635 0 66.0429 11.5834 765 67.3242 38.7516 485.475
636 0 67.1034 10.8787 730 69.111 38.3288 480.986
637 0 72.019 11.0804 798 68.1115 37.9799 480.09
638 1 36.0249 8.07774 291 70.1821 37.622 498.983
639 0 39.0623 10.7777 421 67.0166 37.9097 495.995
640 0 41.0408 9.28345 381 68.336 38.189 498.777
641 0 41.0729 9.90921 407 68.6658 38.2703 497.007
642 0 44.0189 11.3133 498 67.5402 38.1867 494.934
643 0 43.0705 10.4016 448 69.5379 37.7879 495.83
644 0 46.0708 9.72417 448 69.7232 38.2143 495.879
645 0 45.1116 9.93092 448 70.3996 38.1808 494.529
646 0 51.0947 11.5667 591 66.2623 38.3519 495.904
647 0 49.2155 9.20441 453 70.5386 38.362 493.578
648 0 51.0819 10.0036 511 69.2466 38.4951 492.164
649 0 55.0675 12.4211 684 65.0395 38.8523 491.949
650 0 58.062 11.7461 682 65.3548 38.5718 491.516
651 0 57.0472 11.3415 647 66.915 38.5286 489.621
652 0 61.0826 10.5267 643 67.0871 38.1026 488.062
653 0 63.0616 11.8138 745 64.4671 38.251 489.075
654 0 64.1575 11.3627 729 65.2291 37.9053 486.243
655 0 65.1117 11.7644 766 64.7467 38.6645 484.402
656 0 69.0972 10.5938 732 65.8839 38.6066 481.526
657 0 72.0455 11.7842 849 64.1908 38.2521 481.325
658 0 76.0423 12.3615 940 63.0117 37.9213 481.055
659 1 37.0511 9.2035 341 66.7918 37.8446 497.015
660 0 40.0569 10.2354 410 64.2854 37.6805 497.598
661 0 39.038 10.8868 425 64.1576 38.1647 496.36
662 0 40.1624 9.85996 396 66.553 38.053 494.22
663 0 45.1174 10.1291 457 65.1466 38.3195 493.416
664 0 48.0531 11.5913 557 62.9605 38.018 493.443
665 0 49.036 11.828 580 62.8638 37.7448 490.338
666 0 47.1876 11.147 526 64.6977 37.4468 488.711
667 0 51.0969 12.5056 639 62.9953 37.5712 486.786
668 0 52.12 12.0107 626 63.3179 38.4936 488.641
669 0 52.0757 10.6 552 65.7156 37.6431 489.074
670 0 58.0901 12.7733 742 62.1523 37.1725 486.29
671 0 59.1406 13.9836 827 60.5127 37.4365 489.457
672 0 57.1296 12.6029 720 63.8222 37.5722 485.869
673 0 63.0641 12.7489 804 61.7749 37.709 488.823
674 0 62.0478 11.1527 692 65.1864 37.6777 487.851
675 0 65.164 13.6732 891 61.7059 37.7901 485.187
676 0 66.1072 12.1772 805 64.113 37.728 483.614
677 0 69.0617 13.3069 919 62.7073 36.9478 483.508
678 0 72.1878 12.0519 870 63.6632 36.9862 483.305
679 0 75.0667 12.9485 972 62.6121 37.6595 482.475
680 0 75.0848 11.4537 860 65.3942 38.0198 480.752
681 0 77.0841 12.1037 933 65.2722 38.0461 479.03
682 0 80.0667 11.4529 917 65.711 38.048 480.387
683 0 80.0952 12.0232 963 66.2399 38.2326 473.778
684 0 86.0513 12.4228 1069 65.1394 37.8718 476.508
685 0 89.1428 13.0465 1163 64.7352 37.5752 476.088
686 1 45.0398 10.7682 485 66.9464 37.0454 496.276
687 0 46.1097 11.2124 517 67.5242 37.6983 494.36
688 0 49.1592 12.7952 629 65.3545 37.5374 493.529
689 0 49.1566 12.1245 596 67.1544 37.8674 493.584
690 0 49.1674 11.9591 588 68.5289 37.9133 489.56
691 0 53.0623 13.0036 690 65.8159 37.6246 491.339
692 0 53.1215 12.2173 649 68.037 37.5193 490.025
693 0 53.1657 12.1883 648 68.9769 37.5849 487.927
694 0 57.0714 12.0376 687 68.7467 37.7103 487.306
695 0 60.0794 13.2491 796 65.9987 37.2601 488.349
696 0 62.2242 12.0532 750 68.2427 37.416 487.107
697 0 62.0994 11.8198 734 69.7984 37.3243 483.713
698 0 66.1011 14.0391 928 65.9957 37.4332 484.145
699 0 66.1185 11.9482 790 70.1658 37.3747 482.087
700 0 70.0753 13.3285 934 67.4283 37.8961 483.594
701 0 70.1022 12.1394 851 70.5135 38.3079 480.864
702 0 73.2312 12.1669 891 70.8799 38.0258 480.08
703 0 77.1068 12.8134 988 69.8836 37.9818 479.96
704 1 38.0328 10.4909 399 71.7368 38.1479 498.827
705 0 38.0627 10.4302 397 73.0101 37.7809 498.212
706 0 40.0743 11.853 475 70.96 38.7558 496.731
707 0 42.1009 11.7575 495 71.4242 38.5253 497.004
708 0 43.0285 10.5511 454 73.4493 38.2511 496.064
709 0 44.0728 12.3205 543 71.7109 38.9116 494.495
710 0 45.1221 11.9232 538 72.0911 38.5093 494.671
711 0 47.0665 12.2805 578 69.7059 38.4948 493.324
712 0 49.0515 12.8029 628 68.3217 38.7389 493.678
713 0 49.0904 12.3446 606 69.9653 39.0066 491.639
714 0 52.116 12.1076 631 69.1125 39.1902 492.838
715 0 50.1582 12.3808 621 71.0032 39.0097 489.457
716 0 54.0886 13.293 719 68.8345 39.1613 488.389
717 0 54.1589 11.6694 632 71.4842 39.4019 487.976
718 0 57.0834 13.2613 757 68.8071 38.8626 489.287
719 0 59.0785 14.2014 839 66.8093 38.8856 489.809
720 0 58.1198 12.5431 729 71.4376 38.4925 486.602
721 0 60.069 11.6366 699 71.8627 38.6295 486.986
722 0 65.0489 13.2823 864 69.9178 38.3322 484.126
723 0 63.1885 12.2332 773 72.2122 38.423 484.774
724 0 68.1218 11.685 796 72.2789 38.5691 484.427
725 0 71.1809 13.276 945 70.0497 38.1778 484.085
726 0 72.0957 11.4293 824 73.6201 38.2075 482.659
727 1 38.0386 9.51664 362 75.0912 38.1768 495.472
728 0 43.0391 12.3609 532 69.6203 38.2519 497.137
729 0 41.0297 10.6264 436 73.9518 37.906 497.053
730 0 44.0976 11.5879 511 71.773 37.5714 497.321
731 0 45.0384 11.7899 531 72.2674 37.6761 496.461
732 0 46.0231 12.6893 584 71.0017 38.286 494.997
733 0 48.0311 11.097 533 72.4897 38.3977 495.981
734 0 51.0577 12.5348 640 71.0563 38.7141 493.228
735 0 49.0299 9.95312 488 75.9508 38.752 492.898
736 0 49.0336 11.176 548 74.6277 38.6569 490.901
737 0 54.0276 13.2155 714 70.1373 38.6471 491.863
738 0 54.0465 12.0637 652 72.3896 38.6979 490.609
739 0 56.0171 13.5673 760 70.3868 38.7263 488.263
740 0 57.0611 11.7944 673 73.3076 38.7415 487.883
741 0 58.028 11.2704 654 74.2049 38.2768 486.752
742 0 63.134 11.8795 750 72.308 38.7747 486.857
743 0 65.0807 11.8468 771 72.6096 38.9014 483.04
744 0 66.0685 11.7 773 73.0595 38.7038 483.842
745 0 67.1066 12.3535 829 72.3462 38.9083 481.772
746 0 70.0822 10.9443 767 73.6793 38.4407 482.037
747 0 73.066 11.7291 857 72.0093 39.1914 481.592
748 0 75.0821 12.3864 930 71.9269 39.1269 477.241
749 0 77.0966 10.8435 836 73.5443 38.6292 479.822
750 1 44.061 11.0075 485 69.7093 37.8103 496.961
751 0 45.0604 9.54275 430 73.286 38.0953 495.928
752 0 47.0648 11.0699 521 71.6219 38.1958 494.163
753 0 47.0509 11.1794 526 72.2814 38.1369 490.719
754 0 50.1345 11.8082 592 70.0355 37.8057 490.715
755 0 52.0931 12.1129 631 70.1775 38.0555 488.344
756 0 53.0325 12.3698 656 69.8293 38.2866 488.936
757 0 53.0276 10.5794 561 73.1747 38.6399 487.18
758 0 55.0532 11.3345 624 71.6571 38.0946 489.165
759 0 57.1292 12.0954 691 70.6006 38.2865 487.643
760 0 60.1011 12.662 761 69.6084 38.0329 485.848
761 0 60.1397 11.5731 696 71.7974 38.0934 482.51
762 0 61.0948 12.0141 734 71.0136 37.7807 483.323
763 0 65.0249 12.0723 785 68.9503 37.4981 481.918
764 0 67.1785 11.5811 778 69.9653 37.5103 480.005
765 0 69.1821 12.3731 856 67.9089 37.0631 481.204
766 0 70.157 10.6333 746 70.6903 38.3861 479.259
767 0 74.0865 13.4842 999 66.7337 38.8448 475.805
768 0 76.0948 11.7222 892 69.6783 38.4809 476.016
769 0 78.1347 11.7617 919 69.8618 38.2448 473.335
770 0 83.1526 14.2028 1181 65.7807 38.8815 475.456
771 0 84.1095 11.699 984 70.1545 37.7642 472.822
772 0 86.0959 12.2189 1052 70.0846 37.8489 470.602
773 0 89.1511 12.3162 1098 70.235 37.5137 468.444
774 0 90.2133 11.9716 1080 71.3796 38.5843 468.378
775 0 96.1898 12.2154 1175 71.0877 38.1617 466.597
776 0 101.079 13.4944 1364 68.2713 38.3101 470.08
777 0 102.103 13.4471 1373 69.4392 37.6752 463.795
778 0 106.071 13.6983 1453 69.2491 38.0048 464.9
779 0 110.174 13.6784 1507 69.2535 38.353 462.62
780 0 112.111 14.2805 1601 68.614 37.8588 458.997
781 0 117.217 15.0576 1765 67.8125 38.0669 456.432
782 0 121.104 15.5073 1878 66.4696 37.5213 460.44
783 0 123.149 12.5458 1545 71.6537 37.556 453.941
784 0 128.164 13.5841 1741 69.8518 37.9242 452.272
785 1 65.1727 12.7968 834 68.8681 38.0144 484.969
786 0 64.0395 10.9151 699 73.495 37.9428 483.93
787 0 69.1188 13.4551 930 69.6989 37.8957 479.867
788 0 68.1602 12.7347 868 71.6751 37.6671 478.219
789 0 71.046 11.3448 806 72.727 37.6017 477.964
790 0 74.1021 13.7918 1022 68.9188 37.5489 476.438
791 0 79.1273 13.0296 1031 69.0175 37.4918 476.142
792 0 80.0746 13.962 1118 68.5832 37.4186 473.696
793 0 85.1392 14.3765 1224 66.9101 37.7435 471.673
794 0 87.1656 13.3998 1168 68.8031 38.0539 471.475
795 0 87.1135 12.9027 1124 70.7811 38.3185 467.689
796 1 45.0468 10.3226 465 70.6817 38.5591 490.877
797 0 46.0405 9.75229 449 73.0913 38.5523 488.717
798 0 47.0441 10.8622 511 70.7495 37.818 489.785
799 0 47.1165 11.2275 529 72.1323 38.6767 485.902
800 0 49.1154 11.5239 566 71.2968 38.2473 485.836
801 0 53.145 11.8167 628 70.1592 38.4506 485.459
802 0 55.0741 14.1083 777 66.5792 38.3797 484.077
803 0 57.085 14.0142 800 67.3025 38.43 482.204
804 0 57.0908 13.6274 778 68.338 38.6825 482.986
805 0 60.0524 13.8546 832 67.4159 38.8618 480.675
806 0 61.099 12.4716 762 69.3806 38.7192 482.597
807 0 63.0951 12.6 795 69.5711 38.8755 479.486
808 0 64.0434 13.3972 858 69.0944 38.4988 477.467
809 0 67.1016 14.0086 940 67.9606 38.9404 478.063
810 0 68.0993 13.0398 888 70.4673 39.1137 476.503
811 1 35.0504 11.3551 398 71.2588 39.5503 492.344
812 0 36.0862 10.8352 391 72.0384 39.3402 490.315
813 0 37.0544 12.4412 461 70.1193 38.7072 491.497
814 0 41.0285 12.1623 499 67.8617 38.6373 491.922
815 0 41.0399 12.6219 518 68.1197 39.027 491.303
816 0 42.0865 11.5952 488 70.2152 39.041 488.898
817 0 42.0632 12.1959 513 70.2417 38.9259 486.901
818 0 44.0475 11.8962 524 69.6775 39.0859 487.668
819 0 48.0246 12.0355 578 68.5536 39.2284 487.481
820 0 48.0607 11.3814 547 69.8007 39.0494 487.927
821 0 50.1786 12.4555 625 67.9824 39.2368 487.998
822 0 52.2425 13.7245 717 66.3264 39.0195 484.089
823 0 52.0741 12.6743 660 67.7742 39.1061 485.582
824 0 54.1663 11.8708 643 68.7387 39.2862 483.798
825 0 56.2039 11.2981 635 69.3874 39.4441 483.337
826 0 58.1346 12.0582 701 68.0514 38.7347 483.188
827 0 58.0892 12.4119 721 68.4411 38.9196 481.793
828 0 61.1877 11.8161 723 68.5657 39.1148 483.299
829 0 64.1265 13.7073 879 65.8009 38.7645 481.086
830 0 64.1686 11.8906 763 68.4862 39.0537 481.447
831 0 69.1399 12.453 861 67.3275 38.8362 478.037
832 0 70.1347 12.6328 886 67.3284 39.2314 478.679
833 0 74.0864 12.2695 909 67.0583 38.6073 477.546
834 0 76.1062 12.995 989 66.3013 38.8777 477.647
835 0 77.1298 12.3428 952 67.5809 38.6492 474.545
836 1 41.0357 12.1114 497 66.4608 38.2354 491.978
837 0 43.0344 11.7813 507 67.7199 37.8935 491.071
838 0 43.083 11.6055 500 68.704 38.46 491.374
839 0 46.0801 12.3047 567 67.1605 38.6596 490.922
840 0 46.0427 12.3798 570 67.5719 38.6246 489.842
841 0 48.1212 10.2034 491 70.723 38.3055 487.802
842 0 48.0824 10.2948 495 72.0121 38.1778 487.404
843 0 50.0676 10.9252 547 71.479 38.4698 485.899
844 0 53.1141 12.3884 658 68.8754 38.3283 484.985
845 0 51.0846 10.9231 558 71.8656 38.8513 484.706
846 0 55.0603 11.5147 634 70.2334 38.9101 483.781
847 0 57.2025 13.0589 747 68.178 38.7805 482.371
848 0 58.1928 11.5306 671 70.7809 38.8823 480.921
849 0 62.1822 11.2733 701 70.495 38.873 480.813
850 0 64.1182 12.1806 781 69.4494 38.5198 478.399
851 0 65.0619 12.2345 796 70.0603 38.593 476.437
852 0 69.0731 11.9004 822 69.9209 38.6034 474.234
853 0 74.1344 10.6698 791 70.8799 38.7813 474.292
854 0 73.0863 11.3017 826 70.9189 38.6743 471.127
855 0 75.1479 11.8433 890 70.6337 38.827 468.782
856 0 79.1232 11.5642 915 70.0339 38.3803 472.217
857 1 43.0548 11.497 495 68.6606 38.5273 490.545
858 0 43.0287 11.318 487 69.7515 38.3142 488.528
859 0 47.0752 11.1311 524 68.4427 38.4771 488.584
860 0 46.1489 10.4661 483 70.8116 38.5756 487.511
861 0 47.1178 10.9937 518 70.5579 39.0212 484.699
862 0 51.1962 10.6844 547 69.6984 38.8848 485.183
863 0 52.1418 12.466 650 67.1692 38.7615 481.675
864 0 55.0751 10.8034 595 69.005 39.558 483.015
865 0 55.0955 11.5436 636 68.6258 39.0802 479.242
866 0 57.0763 12.0015 685 67.4745 39.238 482.489
867 0 60.1024 11.1809 672 68.2321 38.6012 481.146
868 0 62.1727 11.6932 727 67.3356 37.8226 480.067
869 0 64.05 11.9594 766 66.9765 38.9726 479.222
870 0 65.1098 11.8723 773 67.3415 38.8512 479.044
871 0 69.0788 11.0019 760 67.5211 38.4171 476.253
872 0 70.0656 10.9041 764 67.9581 38.2932 473.962
873 0 74.1309 12.8556 953 65.0808 38.2707 473.921
874 0 76.0986 12.037 916 65.6943 38.3231 474.16
875 0 79.0599 11.6367 920 67.1533 37.7902 467.799
876 0 82.1835 11.3891 936 66.8515 37.3088 469.624
877 1 41.0423 8.33287 342 68.4035 38.1667 491.17
878 0 43.0653 10.8904 469 66.4264 37.4286 488.149
879 0 46.1277 11.6633 538 64.9554 37.7007 487.914
880 0 45.0738 10.8267 488 66.791 38.9734 486.324
881 0 47.0294 11.5885 545 64.7633 39.0147 488.033
882 0 49.0427 12.2546 601 64.7105 38.8952 485.16
883 0 51.182 12.6607 648 63.5494 38.6651 485.27
884 0 52.1472 12.1004 631 64.3772 38.9017 484.962
885 0 55.0941 12.0521 664 64.9247 38.5211 482.672
886 0 55.1786 11.7074 646 65.0372 38.6997 483.104
887 0 59.0865 12.4055 733 63.5784 38.3424 482.046
888 0 60.0645 14.0016 841 62.1284 38.4839 480.182
889 0 61.1009 12.4712 762 64.4344 37.9488 480.413
890 0 64.2126 12.443 799 64.3392 38.3717 480.076
891 0 65.2331 10.884 710 66.4338 38.7085 479.855
892 0 69.1471 12.2493 847 64.268 38.6187 480.133
893 0 72.0599 11.6153 837 65.0311 38.6631 476.621
894 0 73.1533 13.1915 965 63.7285 39.2269 473.14
895 0 76.0741 12.9611 986 63.6957 38.9452 472.317
896 0 78.0831 11.9232 931 65.0258 39.5145 474.307
897 0 81.052 12.091 980 64.4429 39.1724 472.572
898 0 82.146 10.5909 870 66.5402 39.3517 472.169
899 0 87.0575 12.7961 1114 63.5575 39.0476 469.4
900 0 94.0995 12.3699 1164 63.5344 38.9338 467.249
901 0 93.1357 11.4994 1071 65.2969 38.9925 461.685
902 0 99.0374 11.5512 1144 65.2115 39.7483 462.324
903 0 102.27 12.1345 1241 64.2925 39.245 462.761
904 1 58.0846 11.9653 695 53.1957 38.5324 489.932
905 0 54.0216 12.1988 659 63.0303 39.3566 483.328
906 0 55.1561 11.6397 642 63.3676 39.229 482.738
907 0 56.081 11.733 658 63.7766 38.7204 481.953
908 0 58.0617 13.4512 781 61.1076 39.0333 482.072
909 0 58.0933 12.9275 751 62.3009 38.6804 481.265
910 0 60.0167 9.23076 554 66.1101 38.648 480.821
911 0 66.2814 12.7638 846 61.1631 39.2163 479.506
912 0 67.0819 12.8053 859 60.865 39.4261 477.603
913 0 68.07 11.1356 758 63.2625 39.1491 475.96
914 0 73.0988 10.7252 784 63.0344 39.2832 475.642
915 0 75.1005 12.6098 947 60.6336 39.3907 473.893
916 0 77.0831 11.066 853 62.5873 39.4232 471.89
917 0 79.1549 12.4187 983 61.1617 38.8545 470.505
918 0 84.0803 10.8944 916 62.7096 39.8788 469.737
919 0 87.1559 11.9212 1039 61.8152 39.4552 468.147
920 0 88.1806 10.7166 945 63.581 39.4889 466.941
921 0 92.0869 11.0982 1022 62.8278 38.9853 468.073
922 1 47.0604 10.9434 515 61.2971 38.235 488.402
923 0 46.0424 10.4252 480 63.6521 39.6521 486.502
924 0 50.0122 12.317 616 60.0714 38.3084 486.631
925 0 51.0395 12.0887 617 60.8314 38.3971 486.407
926 0 54.0162 10.4783 566 62.5654 38.6926 485.064
927 0 56.0291 11.3869 638 61.5862 38.5031 483.232
928 0 55.1632 13.8317 763 59.2582 38.0577 483.313
929 0 57.0969 11.4367 653 62.0153 37.9786 481.769
930 0 59.0185 12.3351 728 61.1951 38.4588 481.824
931 0 63.043 10.9132 688 62.4898 38.1919 480.417
932 0 64.033 11.6659 747 62.0402 38.6734 479.533
933 0 68.0309 11.1126 756 62.8624 38.7513 473.642
934 0 72.0857 11.2782 813 62.0812 39.0283 473.943
935 0 73.0422 10.4049 760 63.3961 38.1539 472.142
936 0 77.1101 12.3719 954 60.7568 37.9906 474.92
937 1 42.0314 9.94496 418 60.1388 38.6364 491.029
938 0 40.0722 9.48288 380 62.0316 37.6421 488.955
939 0 46.0421 9.90398 456 60.4693 38.1754 487.748
940 0 46.1928 10.9324 505 59.8772 37.7881 487.562
941 0 49.0459 11.7033 574 58.1533 37.4477 487.237
942 0 48.0621 9.98708 480 61.7125 37.5542 485.079
943 0 51.063 9.3414 477 61.3438 37.2725 486.048
944 0 52.0245 9.89919 515 61.3981 37.066 483.92
945 0 53.0952 10.6224 564 61.0745 37.0798 478.995
946 0 55.0963 10.0188 552 61.7989 36.9402 482.132
947 0 60.1454 10.2086 614 61.1466 36.7964 479.334
948 0 60.0853 10.7181 644 60.8773 37.4736 480.957
949 0 61.0522 10.7777 658 61.3891 36.9939 479.605
950 0 61.1323 10.1419 620 62.6452 37.1581 478.121
951 0 66.0927 11.6503 770 59.8091 37.1013 480.271
952 0 68.1302 10.9349 745 61.6161 36.5906 475.06
953 0 69.216 10.3011 713 61.6213 37.324 476.583
954 0 72.1253 10.3431 746 61.8365 37.0965 478.567
955 0 74.1985 10.2024 757 61.7239 37.4742 477.065
956 1 35.0486 9.3299 327 61.5933 37.1498 493.526
957 0 37.0592 8.8507 328 62.2378 37.3293 493.238
