time division length width area intensity CMx CMy
0 0 82.0649 0.77987 64 42.2812 206.891 371.312
1 0 80.6829 4.83374 390 32.3359 206.408 336
2 0 83.2074 1.09365 91 36.4725 204.637 337.308
3 0 87.7491 3.22511 283 35.1166 206.558 344.767
4 0 77.1397 0.77781 60 41.1833 206.533 364.967
5 0 83.2319 2.2227 185 34.8595 205.481 338.649
6 0 79.9161 1.53911 123 37.5041 205.569 353.659
7 0 70.0175 0.942621 66 42.2424 207.061 380.758
8 1 86.208 1.12519 97 41.0206 204.876 369.454
9 0 83.3725 4.17404 348 32.6552 202.94 336.997
10 0 82.171 4.80705 395 32.7241 204.395 339.962
11 0 85.3807 1.63971 140 37.7929 206.021 358.193
12 0 82.1952 1.59377 131 37.6107 206.985 353.809
13 0 85.1724 1.33846 114 39.2368 205.86 364.588
14 0 85.5052 1.53207 131 39.0534 204.779 367.382
15 0 75.1799 2.06172 155 35.0387 205.039 347.787
16 0 78.6396 1.27162 100 38.97 203.93 369.35
17 0 85.2861 5.44051 464 33.6659 202.696 351.528
18 0 82.5199 7.51334 620 32.0548 203.518 346.892
19 0 84.1641 2.28126 192 35.8333 203.911 349.615
20 0 83.6939 2.03121 170 36.9118 203.447 355.565
21 0 85.1757 3.78042 322 33.3913 202.32 339.276
22 0 81.8508 10.2504 839 30.9404 203.541 345.145
23 0 82.6176 3.28017 271 35.5387 204.454 359.085
24 0 7.00011 5.28563 37 45.4865 205.27 397.811
25 0 70.418 3.53603 249 34 204.39 354.032
26 0 72.8632 6.18968 451 32.306 204.412 353.315
27 0 67.2116 1.19027 80 42.125 204.275 394.212
28 0 78.2712 3.09181 242 34.7851 204 350.806
29 0 84.8418 3.24133 275 35.3927 202.873 357.818
30 0 79.3597 1.4113 112 35.75 202.839 343.241
31 0 86.7601 8.852 768 31.013 202.133 338.652
32 0 84.8558 5.33847 453 33.5188 205.196 353.177
33 0 83.1269 1.45561 121 37.1405 204.413 349.339
34 0 74.3866 1.23678 92 40.7174 205.402 385.739
35 0 80.2136 1.77027 142 36.5634 203.599 352.775
36 0 80.5184 6.79348 547 31.5192 202.55 344.34
37 0 81.8065 2.56703 210 35.6952 203.081 355.619
38 0 82.6867 2.80577 232 32.7802 201.987 334.996
39 0 83.2776 1.16478 97 39.6907 203.454 378.608
40 0 86.1666 3.09865 267 34.8315 202.378 342.865
41 0 78.5628 2.83849 223 34.5516 203.637 351.103
42 0 76.1917 4.5018 343 33.0962 203.843 348.12
43 0 74.0619 0.810134 60 35.7833 203.217 345.483
44 0 86.1556 3.58653 309 34.1812 202.084 345.236
45 0 79.0091 0.78472 62 42.3548 204.984 393.629
46 0 89.0889 4.23173 377 32.2812 201.419 331.809
47 0 82.0823 4.0569 333 33.039 202.243 343.676
48 0 86.5714 5.41749 469 31.4499 202.211 330.787
49 0 86.1264 1.26558 109 36.7706 202.697 341.303
50 0 81.6916 1.1017 90 35.6889 202.167 341.967
51 0 86.7929 3.58324 311 33.9968 202.428 339.203
52 0 86.1185 2.56623 221 34.1312 201.846 337.299
53 0 81.1326 0.998366 81 40.3333 203.333 374.037
54 0 72.9228 2.00212 146 36.4521 202.411 365.007
55 0 84.8296 1.06095 90 40.5 202.656 374.478
56 0 84.6538 4.81963 408 32.8333 201.706 338.988
57 0 84.3376 1.11457 94 39.0532 202.149 365.383
58 0 85.2271 1.66614 142 38.0704 203.528 370.289
59 0 83.7934 1.5037 126 37.0714 202.667 351.421
60 0 84.1378 1.08156 91 38.3187 202.56 356.89
61 0 82.227 4.20786 346 33.2601 202.552 346.882
62 0 70.5074 4.55271 321 31.0748 202.738 344.455
63 1 88.8807 2.54273 226 34.5487 201.535 343.022
64 0 83.2647 2.65419 221 33.9186 202.964 337.756
65 0 82.1476 1.22949 101 36.4653 201.554 352.634
66 0 82.2795 1.56783 129 36.6202 201.977 361.38
67 0 80.4335 2.08868 168 35.0536 202.357 347.988
68 0 83.7416 2.63907 221 33.9321 201.077 344.529
69 0 83.8987 3.59958 302 33.7947 201.576 348.056
70 0 71.1335 10.7966 768 65.1406 203.365 288.289
71 0 82.4802 2.29146 189 35.0899 202.698 348.069
72 0 91.1258 9.10828 830 31.9795 202.492 371.581
73 1 79.7512 8.61429 687 30.3799 202.052 342.633
74 0 79.1854 8.39801 665 31.9489 202.25 357.994
75 0 84.5533 4.69526 397 31.801 202.511 333.267
76 0 79.0718 5.86808 464 31.7134 201.761 346.004
77 0 86.5965 5.23116 453 31.8278 201.991 335.444
78 0 84.8446 9.88866 839 30.4517 202.125 339.194
79 0 83.1592 0.865809 72 39.8056 204 381.833
80 0 75.4123 1.32604 100 36.16 200.64 357.92
81 1 86.2046 3.6309 313 32.6518 201.326 332.281
82 0 82.5317 1.89018 156 36.5 202.141 359.763
83 0 81.6539 11.8059 964 29.9212 201.673 346.273
84 0 87.2254 4.94122 431 31.7773 201.174 337.404
85 0 80.2575 8.41043 675 30.2119 201.227 340.827
86 1 4 15 60 28.7667 194.317 326.267
87 1 78.5252 1.34989 106 35.5943 200.274 348.774
88 1 0 0 0 -nan -nan -nan
89 1 81.7296 5.73844 469 31.9979 201.825 345.055
90 0 74.2785 4.28119 318 32.7956 202.248 353.654
91 0 73.5008 1.46937 108 36.0833 203.806 362.528
92 0 80.4852 2.33583 188 33.734 201.973 341.319
93 0 89.0915 4.2316 377 32.7294 201.191 335.737
94 0 84.0947 3.18688 268 33.694 203.011 345.672
95 1 69.0072 3.34748 231 34.2944 201.519 367.178
96 0 79.9879 5.9009 472 31.7542 200.729 346.57
97 0 77.6435 1.77735 138 33.9275 201.797 344.428
98 0 75.5458 4.077 308 32.5584 202.731 348.828
99 0 73.8515 3.5612 263 34.711 203.422 376.418
100 0 72.2473 14.3535 1037 29.6847 201.802 354.129
101 1 84.5913 5.07144 429 32.6667 202.713 342.711
102 0 79.2136 6.5519 519 31.1329 202.304 340.455
103 0 77.9337 5.27371 411 31.9027 202.039 349.964
104 0 81.4578 3.5233 287 32.878 203.693 344.652
105 0 75.1738 1.98207 149 35.8725 202.96 362.43
106 0 71.801 6.35089 456 31.0241 202.173 349.634
107 0 81.3578 5.64174 459 31.0305 202.174 335.845
108 0 82.7699 13.2415 1096 29.7409 203.328 346.406
109 0 80.6265 4.37822 353 33.3399 202.986 349.657
110 0 80.1417 1.45991 117 34.8974 203.778 340.897
111 0 81.305 1.8941 154 36.2468 203.364 363.214
112 0 86.7126 1.94897 169 34.7396 202.964 343.497
113 0 81.9275 5.24854 430 31.7093 201.088 342.577
114 0 81.0619 1.09793 89 38.2247 204.955 368.427
115 0 83.1276 5.8705 488 31.6578 203.52 340.646
116 0 82.4484 1.90422 157 36.4331 203.236 371.873
117 0 81.2661 0.7014 57 41.1404 203.316 389.947
118 0 0 0 0 -nan -nan -nan
119 0 84.6508 1.59479 135 36.2074 203.896 347.822
120 0 88.197 16.3838 1445 57.3633 203.635 278.851
121 0 78.743 1.77794 140 35.4929 203.521 351.386
122 0 78.895 2.94062 232 33.5647 202.759 348.177
123 0 83.3794 7.59181 633 31.2054 202.883 338.518
124 0 81.8286 3.87395 317 32.4921 202.511 341.543
125 0 92.0171 4.81432 443 33.0542 202.327 341.977
126 0 84.1506 0.522872 44 42.4318 205.614 387.773
127 0 82.3291 2.34425 193 34.6218 203.684 344.197
128 0 84.9509 0.988806 84 37.4405 201.893 355.738
129 0 75.0573 0.266463 20 37.05 205.2 344.55
130 0 81.9801 5.28177 433 32.5312 203.231 344.788
131 0 84.6432 3.8042 322 33.559 203.22 347.96
132 0 76.1368 0.840592 64 37.9531 203.969 358.297
133 0 86.2316 1.55396 134 37.1194 203.672 359.052
134 0 87.5688 3.22033 282 33.4184 203.234 338.833
135 0 79.387 5.12678 407 30.9533 201.447 338.803
136 0 83.9912 2.23833 188 35.8883 204.08 367.814
137 0 86.9952 3.73584 325 32.1446 201.545 333.948
138 1 160.152 4.90783 786 66.5496 203.476 282.485
139 0 162.16 4.64973 754 68.1671 203.566 277.513
140 0 165.078 4.44032 733 68.3697 203.554 279.254
141 0 167.141 5.12141 856 67.4416 202.597 272.549
142 0 172.136 5.54794 955 65.845 203.598 276.342
143 1 85.3176 1.12521 96 36.3958 202.479 346.896
144 0 85.5029 5.04076 431 32.2993 202.364 343.22
145 0 84.1226 0.68947 58 39.8103 203.362 380.172
146 0 92.8202 8.36025 776 30.7423 202.753 335.524
147 0 85.7059 2.31023 198 35.4141 203.237 365.071
148 0 87.039 4.03268 351 33.3219 202.829 348.957
149 0 87.2829 3.05902 267 33.236 202.607 338.906
150 0 81.0904 0.38229 31 39.3226 203.387 361.581
151 1 0 0 0 -nan -nan -nan
152 1 86.3838 1.30812 113 37.0973 202.301 376.46
153 0 85.3749 3.11567 266 33.1992 202.064 342.718
154 0 78.2071 6.06083 474 31.4979 202.713 349.791
155 1 164.238 4.84053 795 60.8667 204.906 300.921
156 0 169.66 7.06119 1198 53.2078 203.689 319.039
157 1 76.1808 13.4155 1022 57.7045 204.598 286.65
158 0 87.5175 6.95861 609 31.4581 202.273 340.695
159 0 83.1739 1.15421 96 35.4375 203.542 342.542
160 0 76.5957 0.953056 73 37.6164 204.014 365.356
161 0 79.6419 1.43141 114 37.0351 204.474 381.263
162 0 72.9927 8.22 600 30.8733 202.902 352.743
163 1 171.046 5.10388 873 64.6827 204.222 274.907
164 0 162.342 13.4962 2191 60.9256 203.657 252.309
165 1 84.87 1.61423 137 36.1022 204.197 357.942
166 0 86.269 3.86002 333 32.2793 203.222 334.553
167 0 77.961 1.16725 91 37.4066 204.121 370.615
168 0 85.064 0.223361 19 42.2105 204.526 376
169 0 85.5948 1.23839 106 36.3396 204.491 358.009
170 1 7 7 49 31.5102 204.388 322.878
171 1 86.1576 0.568725 49 39.9796 201.939 377.082
172 1 0 0 3.95252e-322 -nan 324 0.0217416
173 1 80.0235 0.899736 72 39.0278 204.736 395.236
174 0 87.7096 2.25745 198 31.4798 200.434 329.076
175 0 79.018 0.822597 65 36.9077 202.862 356.523
176 0 81.5675 5.32075 434 29.9332 201.06 333.83
177 0 87.458 1.58934 139 33.8993 202.698 337.058
178 0 81.4015 2.40782 196 33.8214 204.23 347.541
179 0 81.2125 3.64476 296 31.4291 203.818 334.905
180 0 85.8213 3.46068 297 31.138 202.576 329.394
181 0 86.2945 3.82412 330 32.3545 202.191 346.139
182 0 83.8086 2.8756 241 33.3817 202.32 347.598
183 0 81.4413 1.27699 104 36.3654 203.875 367.683
184 0 75.1769 2.42096 182 33.1429 202.764 352.379
185 0 79.448 6.6081 525 30.5238 202.013 345.025
186 0 86.0938 1.30091 112 36.9464 204.688 388.893
187 0 87.3073 3.89429 340 32.9706 203.774 350.035
188 0 77.7915 1.20836 94 36.9894 203.521 371.128
189 0 77.9669 3.42453 267 32.1311 202.97 345.734
190 0 81.7378 1.98195 162 33.7469 203.827 346.327
191 0 86.0263 9.48547 816 30.3738 203.27 343.32
192 0 83.2063 1.03358 86 37.3488 202.93 366.419
193 0 88.762 10.669 947 30.4752 200.889 345.135
194 0 79.3744 7.57171 601 30.6439 201.898 346.065
195 0 69.2178 4.14634 287 31.7596 202.251 354.456
196 1 85.3307 3.57433 305 32.0885 201.423 342.797
197 0 84.0478 2.56996 216 33.1435 204.366 347.472
198 0 83.2634 1.84955 154 35.0779 203.377 361.916
199 0 78.1504 3.60843 282 32.266 202.202 353.131
200 0 75.2469 1.0233 77 35.8442 203.571 358.455
201 0 80.5207 1.58965 128 35.2031 202.555 362.773
202 0 90.5909 4.86804 441 31.8163 202.678 343.698
203 0 79.5542 1.33242 106 35.2547 203.472 361.868
204 0 85.7704 4.22057 362 32.7127 202.401 358.798
205 0 89.2864 16.4863 1472 49.5 203.806 285.847
206 0 84.8937 2.55614 217 33.8756 202.608 354.507
207 0 79.8156 2.04221 163 34.4417 203.791 383.178
208 0 83.0128 0.686641 57 38.6316 203.965 398.456
209 0 83.6713 3.44204 288 31.9931 203.097 347.705
210 0 84.5317 2.46062 208 33.4375 202.466 354.716
211 0 74.0112 7.16108 530 30.3887 201.8 355.992
212 1 88.1795 2.75574 243 33.0823 202.955 351.527
213 0 85.2246 0.762691 65 34.7692 202.231 347.523
214 0 86.6203 4.50241 390 32.3385 202.682 359.98
215 0 83.1383 0.45707 38 39.0789 201.816 382.921
216 0 78.9336 3.34458 264 31.1098 201.223 344.042
217 0 77.7893 1.24696 97 35.2062 201.794 365.062
218 0 81.2576 2.07981 169 33.3314 201.473 353.947
219 0 82.7004 4.44979 368 31.0163 202.068 344.557
220 0 81.8027 1.83368 150 32.9733 201.613 346.64
221 0 87.5853 4.29296 376 31.7128 202.053 343.806
222 0 83.3785 1.17536 98 36.2755 203.296 388.602
223 0 82.9986 5.77118 479 30.2088 202.286 340.85
224 0 83.1612 4.62957 385 30.9169 202.582 343.59
225 0 89.8046 0.879688 79 35.6076 201.304 350.266
226 0 89.968 6.19109 557 31.3537 201.917 346.251
227 0 5 1.2 6 45.6667 203.833 400.333
228 1 5 25.2 126 29.6905 201.008 321.698
229 0 2 14.5 29 27.6207 195.69 412.207
230 1 0 0 0 -nan -nan -nan
231 1 0 0 0 -nan -nan -nan
232 0 0 0 0 -nan -nan -nan
233 1 11.1802 7.69216 86 29.2907 199.593 417.965
234 0 23.0143 10.3848 239 31.2594 202.326 391.368
235 0 20.32 4.97046 101 33.5248 201.931 391.505
236 1 34.6936 25.5955 888 28.7714 200.981 401.24
237 1 51.6768 12.9845 671 30.0134 201.264 405.21
238 1 85.921 4.38775 377 31.1671 200.175 340.366
239 1 8.11454 16.2671 132 29.4773 203.462 324.439
240 1 0 0 0 -nan -nan -nan
241 0 83.8338 4.78327 401 30.7855 201.544 338.18
242 0 91.8708 8.63169 793 30.0668 201.314 334.68
243 0 84.2129 6.21045 523 30.8719 202.564 347.122
244 0 84.4578 14.6109 1234 51.9076 202.673 285.345
245 0 87.796 1.52627 134 34.8209 202.306 364.261
246 0 78.4898 2.0767 163 32.0491 201.313 341.129
247 0 78.7364 4.2039 331 30.0151 200.42 339.982
248 1 193.411 6.24577 1208 50.5604 202.702 319.668
249 1 141.037 3.17647 448 60.721 202.558 295.645
250 1 156.427 4.36626 683 46.7511 202.542 350.555
251 1 71.5068 8.65652 619 57.1309 202.95 292.391
252 0 82.3527 23.5208 1937 28.2788 201.573 373.748
253 0 69.3275 8.04875 558 29.2097 200.419 350.892
254 0 77.5758 7.95352 617 29.2512 201.585 342.23
255 0 77.1712 1.01074 78 34.6667 203.308 355.038
256 0 72.6264 17.2251 1251 49.2678 202.986 294.456
257 0 81.7348 2.6794 219 32.4338 202.123 348.511
258 0 73.2123 11.9789 877 57.3375 203.333 285.591
259 0 84.8666 0.765908 65 36.6615 203.154 372.723
260 0 79.823 12.8409 1025 54.9698 202.615 287.617
261 0 75.927 1.44876 110 33.8091 202.173 352.082
262 0 79.0531 15.1417 1197 53.3166 203.084 285.651
263 0 90.8592 1.88203 171 32.5146 200.491 330.357
264 0 84.5821 5.11929 433 31.8938 201.85 369.464
265 0 72.1258 0.651639 47 34.0426 202.83 348.638
266 0 81.1489 1.24463 101 33.7624 200.911 346.188
267 1 0 0 0 -nan -nan -nan
268 1 70.9957 11.6063 824 29.1371 202.09 356.852
269 0 70.6637 1.88215 133 34.1654 202.18 372.722
270 0 79.6699 4.51865 360 30.1417 201.792 336.386
271 0 87.6194 0.741845 65 36.5692 203.077 374.185
272 0 98.849 23.7635 2349 28.2801 200.658 368.768
273 1 12.1941 2.70623 33 32.4242 200 325
274 0 6 5.16667 31 31.5806 201.903 322
275 1 85.7646 7.12415 611 30.8462 202.458 343.817
276 0 91.6356 6.43855 590 30.761 202.671 341.78
277 0 87.4229 3.08844 270 31.6259 202.337 334.037
278 1 120.092 9.08469 1091 29.9028 202.813 391.435
279 1 97.1803 1.10105 107 34.9907 202.131 400.43
280 1 87.5803 4.4188 387 32.2791 201.997 351.165
281 0 86.3521 3.43941 297 31.5522 201.68 334.62
282 0 80.7688 16.5039 1333 49.6212 202.044 291.914
283 0 72.1696 15.1172 1091 52.4381 202.259 291.553
284 0 71.2487 12.6458 901 57.8413 202.634 282.529
285 1 86.6802 1.13059 98 35.8367 202.765 363.592
286 0 79.2258 13.6445 1081 56.2488 201.851 282.34
287 1 167.369 7.2176 1208 54.3013 201.883 302.762
288 0 158.077 4.23845 670 64.3284 202.231 280.704
289 1 147.747 6.89018 1018 41.6945 201.789 363.418
290 1 112.146 5.50175 617 48.8849 200.165 326.852
291 1 71.5333 8.3178 595 56.8302 201.84 297.822
292 1 130.052 3.68313 479 63.1628 201.695 289.601
293 0 132.029 3.44621 455 63.5714 202.053 291.092
294 1 94.2075 19.2129 1810 28.6702 200.734 382.6
295 1 77.1445 1.30923 101 34.9802 202.535 359.485
296 1 100.387 15.6494 1571 29.7715 201.945 371.804
297 0 93.0671 16.6439 1549 29.774 200.492 366.094
298 1 78.0802 0.81967 64 35.25 201.109 354.047
299 1 94.8552 25.8499 2452 28.429 200.477 370.255
300 0 106.62 21.0749 2247 28.3934 199.615 385.851
301 1 77.5837 3.10632 241 32.4025 201.166 347.573
302 1 101.581 8.54487 868 29.5138 200.639 402.901
303 0 107.754 25.4283 2740 28.5599 200.433 370.816
304 1 71.2077 13.3974 954 56.8816 202.118 289.176
305 0 81.2985 13.3336 1084 55.0978 202.814 291.081
306 0 79.2938 12.1699 965 57.7036 202.248 288.216
307 0 84.2636 11.0605 932 58.5279 202.365 286.579
308 0 80.1507 23.0316 1846 48.4252 202.105 289.408
309 0 88.7269 12.9048 1145 55.8245 202.56 286.868
310 0 88.5898 17.598 1559 50.6209 202.584 291.143
311 0 97.1788 16.6703 1620 50.4599 201.89 290.181
312 1 37.0803 10.302 382 66.0314 201.819 254.487
313 1 167.088 4.02781 673 65.4264 201.62 280.733
314 1 97.4303 12.4397 1212 54.9777 202.223 289.882
315 1 203.289 4.98305 1013 56.615 203.32 310.416
316 1 117.297 15.4991 1818 53.1727 202.861 282.508
317 0 111.487 17.4101 1941 52.3297 202.576 281.315
318 1 127.562 16.3058 2080 51.4995 202.289 284.339
319 1 62.1863 14.1671 881 55.2622 202.128 296.137
320 0 68.5415 17.2013 1179 51.7829 201.276 293.93
321 0 71.2597 16.8117 1198 50.4466 201.324 298.757
322 0 78.2578 13.4172 1050 53.4181 201.696 297.104
323 0 79.4502 13.971 1110 54.0604 201.978 294.993
324 1 0 0 0 -nan -nan -nan
325 1 87.3271 3.75599 328 32.439 200.384 382.844
326 0 76.258 12.0512 919 61.21 201.336 284.775
327 0 85.49 14.9491 1278 53.7277 201.789 294.052
328 1 72.0481 14.4348 1040 60.5615 202.235 283.372
329 1 166.331 4.35276 724 63.779 201.631 294.706
330 0 161.231 6.32631 1020 62.0137 201.143 282.652
331 1 5 12.2 61 30 201.148 334.016
332 0 0 0 0 -nan -nan -nan
333 1 69.6737 10.3482 721 29.3426 200.523 347.074
334 1 99.3865 19.4191 1930 28.8648 201.682 376.842
335 1 71.9534 6.17066 444 30.1509 201.16 345.583
336 1 109.978 16.5578 1821 28.9901 201.938 389.857
337 1 70.9006 1.72072 122 32.3361 201.311 346.664
338 1 91.5025 9.51887 871 30.4168 201.349 373.156
339 1 1 14 14 30.8571 199.357 332.786
340 1 96.8493 10.6454 1031 29.2047 200.681 397.511
341 1 73.7544 13.6128 1004 56.8665 202.445 296.115
342 0 73.5443 19.5121 1435 50.2474 201.856 301.292
343 0 80.773 29.0072 2343 27.8054 202.626 375.274
344 0 81.2206 12.4845 1014 58.8698 201.439 292.549
345 0 80.1422 11.8414 949 61.3024 202.131 288.603
346 0 79.3856 14.1839 1126 57.786 202.355 291.099
347 0 78.4124 15.5332 1218 57.6864 201.86 288.163
348 1 90.2376 12.7774 1153 56.3174 201.869 294.892
349 0 87.7548 12.9452 1136 58.7342 201.882 289.823
350 0 88.4063 15.0102 1327 51.3512 201.568 302.494
351 0 102.211 15.6735 1602 29.1536 200.323 367.681
352 1 115.739 7.91436 916 30.1703 199.978 385.539
353 1 100.909 16.6388 1679 29.0179 200.009 381.67
354 0 94.21 18.0448 1700 29.1629 199.762 372.449
355 1 0 0 0 -nan -nan -nan
356 0 0 0 0 -nan -nan -nan
357 1 3 26.3333 79 29.5949 201.823 328.519
358 1 94.2338 16.406 1546 29.0563 200.291 376.717
359 1 0 0 0 -nan -nan -nan
360 0 7.01499 16.1084 113 29.6018 204.965 329.805
361 0 2 3 6 34 206.833 327.667
362 1 0 0 0 -nan -nan -nan
363 0 24.2694 14.0094 340 30.1824 200.847 400.159
364 0 0 0 0 -nan -nan -nan
365 0 0 0 0 -nan -nan -nan
366 1 80.1519 4.6911 376 31.6064 201.574 375.122
367 1 6 3 18 29.3333 197.889 422.167
368 1 0 0 0 -nan -nan -nan
369 0 0 0 0 -nan -nan -nan
370 1 10.0141 5.99156 60 29.3167 200.25 425.733
371 1 0 0 0 -nan -nan -nan
372 1 0 0 0 -nan -nan -nan
373 1 0 0 0 -nan -nan -nan
374 0 0 0 0 -nan -nan -nan
375 0 0 0 0 -nan -nan -nan
376 0 0 0 0 -nan -nan -nan
377 1 14.2629 9.3249 133 28.5188 199.985 419.481
378 1 0 0 0 -nan -nan -nan
379 1 25.7269 16.4031 422 27.2844 200.206 432.649
380 0 0 0 0 -nan -nan -nan
381 1 102.075 10.7862 1101 29.8538 201.846 381.864
382 1 83.4846 13.212 1103 29.0888 200.918 390.185
383 0 72.1611 13.7747 994 58.7746 202.58 288.093
384 0 60.0239 11.7287 704 65.0597 202.179 284.868
385 0 61.0991 11.375 695 65.8906 201.755 283.127
386 1 234.332 7.74116 1814 60.4531 201.795 281.506
387 1 137.139 16.8005 2304 60.1775 201.468 254.758
388 0 138.127 13.2993 1837 65.5095 201.688 246.882
389 0 153.196 25.4707 3902 51.357 201.881 237.181
390 1 97.174 16.5065 1604 52.0586 201.783 293.197
391 0 94.1777 14.4833 1364 57.2001 202.656 283.518
392 0 97.9126 22.5405 2207 28.2266 201.261 381.793
393 0 95.9892 15.5226 1490 28.355 200.715 389.159
394 1 123.313 8.30408 1024 30.2773 201.13 380.101
395 1 0 0 0 -nan -nan -nan
396 0 12.0329 26.1782 315 26.9079 199.902 423.787
397 1 0 0 0 -nan -nan -nan
398 0 0 0 0 -nan -nan -nan
399 0 0 0 0 -nan -nan -nan
400 1 139.461 17.7756 2479 28.434 200.616 398.238
401 0 120.203 10.6237 1277 63.2592 202.104 266.769
402 0 119.139 13.2535 1579 61.7429 202.087 258.863
403 1 59.0544 10.5665 624 66.101 201.827 222.506
404 1 128.096 19.0326 2438 55.6153 201.24 245.417
405 0 131.124 15.2299 1997 59.2394 201.866 252.436
406 0 128.139 30.3264 3886 27.5098 200.619 380.885
407 1 70.0718 12.7013 890 61.2966 202.304 280.346
408 0 81.1713 9.95426 808 61.755 202.165 283.527
409 0 81.4345 12.2307 996 57.5241 203.201 288.152
410 1 92.1515 11.1447 1027 56.5803 202.174 290.175
411 1 41.1119 12.4052 510 27.8922 200.578 431.582
412 0 41.4667 23.0064 954 26.8375 199.651 440.802
413 1 27.8333 21.3054 593 27.0961 198.395 432.558
414 1 3 8.33333 25 27.96 200.76 422.84
415 1 0 0 0 -nan -nan -nan
416 0 22.5379 17.038 384 27.1068 197.836 428.38
417 1 0 0 0 -nan -nan -nan
418 1 0 0 0 -nan -nan -nan
419 1 0 0 0 -nan -nan -nan
420 0 0 0 0 -nan -nan -nan
421 1 0 0 0 -nan -nan -nan
422 0 0 0 0 -nan -nan -nan
423 1 14.1495 25.5839 362 26.1906 202.486 447.475
424 0 0 0 0 -nan -nan -nan
425 1 126.583 13.2719 1680 28.2988 200.926 419.142
426 1 0 0 0 -nan -nan -nan
427 1 265.524 11.3399 3011 48.3846 202.034 312.592
428 1 286.295 4.38708 1256 63.0414 202.873 266.647
429 1 144.301 13.3055 1920 59.7828 202.878 251.472
430 0 151.24 14.2753 2159 55.9949 203 264.562
431 1 15.2377 31.8946 486 26.0638 202.123 442.362
432 0 11.1191 22.1241 246 27.7642 201.309 420.402
433 0 13.3161 29.8136 397 26.995 201.65 421.572
434 0 7.01902 19.6609 138 27.7609 200.58 419.514
435 0 14.063 12.7996 180 27.0667 204.639 433.844
436 0 21.0714 20.0271 422 27.2346 202.917 432.967
437 1 0 0 0 -nan -nan -nan
438 0 0 0 0 -nan -nan -nan
439 1 51.0965 6.18437 316 28.0665 202.538 458.81
440 1 64.0739 11.6272 745 63.2524 203.293 284.129
441 1 76.6442 16.5179 1266 53.6556 202.802 291.33
442 0 70.101 15.1353 1061 58.8049 202.857 282.199
443 0 72.1744 13.9523 1007 59.5035 202.805 283.134
444 0 73.115 13.0343 953 60.9927 203.111 282.157
445 1 89.2156 15.0534 1343 54.4155 203.631 288.474
446 1 162.198 2.5586 415 59.8843 203.239 316.988
447 1 40.0194 11.2196 449 62.833 203.497 293.828
448 0 43.1072 11.8078 509 62.3556 202.925 291.57
449 0 44.023 11.6757 514 62.2899 203.833 291.698
450 0 50.0578 11.6665 584 60.9401 203.58 292.69
451 0 50.1261 12.5683 630 59.2111 203.586 294.403
452 0 53.0193 13.9949 742 58.0957 203.584 291.373
453 0 51.0793 13.7433 702 58.9829 203.44 291.187
454 1 166.867 7.55094 1260 45.5698 203.134 346.136
455 1 176.854 10.2288 1809 42.2758 202.43 355.71
456 1 0 0 0 -nan -nan -nan
457 0 0 0 0 -nan -nan -nan
458 0 0 0 0 -nan -nan -nan
459 0 0 0 0 -nan -nan -nan
460 1 19.679 11.1794 220 27.4227 203.245 445.005
461 1 0 0 0 -nan -nan -nan
462 1 28.0546 29.4069 825 25.8655 201.801 452.875
463 1 0 0 0 -nan -nan -nan
464 1 0 0 0 -nan -nan -nan
465 1 0 0 0 -nan -nan -nan
466 0 0 0 0 -nan -nan -nan
467 1 46.0612 11.0288 508 62.3465 203.268 295.157
468 0 49.0477 11.4378 561 62.4724 203.016 293.642
469 0 50.0521 12.9065 646 61.7043 203.067 293.02
470 0 55.2965 12.1346 671 61.5246 203.458 293.475
471 0 50.1294 11.2908 566 66.1555 203.855 290.59
472 0 58.2655 16.0987 938 57.0885 204.025 294.118
473 0 57.1043 14.4823 827 61.0653 203.619 289.168
474 0 58.0651 12.2449 711 64.2968 203.62 287.911
475 0 63.1474 12.6529 799 62.5332 203.407 288.763
476 0 63.089 15.5019 978 59.7301 203.308 288.449
477 0 68.3221 14.5341 993 60.0373 202.763 287.358
478 0 68.135 15.1758 1034 60.0174 202.939 285.916
479 0 69.0556 14.0466 970 62.7495 202.833 280.574
480 0 71.0522 14.6231 1039 61.2753 203.004 283.618
481 1 194.127 9.5556 1855 45 201.967 351.157
482 1 76.0576 13.2794 1010 63.2693 202.521 278.931
483 0 79.3496 14.1904 1126 61.5488 203.108 280.515
484 0 80.0412 12.7934 1024 64.2529 203.068 274.2
485 0 86.1889 13.1223 1131 63.0424 203.696 274.262
486 1 46.0601 11.1376 513 62.8655 203.072 295.06
487 0 47.1442 11.5179 543 62.5028 203.35 293.387
488 0 48.0693 13.0853 629 61.965 203.409 291.283
489 0 51.0592 13.925 711 59.4402 204.135 294.475
490 0 53.0367 13.5001 716 59.9777 204.376 293.803
491 0 56.0492 12.9529 726 61.4036 203.963 290.282
492 0 55.1026 13.3206 734 62.1403 204.334 288.436
493 0 58.0684 12.8986 749 62.5567 203.366 286.905
494 0 62.0354 14.1371 877 60.398 203.725 287.128
495 0 62.1341 12.4247 772 62.7979 204.028 287.078
496 0 63.0938 14.7082 928 60.3125 204.172 287.497
497 0 66.0374 14.1889 937 60.7289 203.902 285.482
498 0 68.0696 13.9857 952 61.6786 204.617 281.614
499 0 70.1195 13.5911 953 61.5876 204.341 282.615
500 0 75.0774 14.172 1064 60.3468 203.853 280.659
501 0 78.0684 13.7444 1073 60.6449 204.195 280.023
502 0 78.0741 11.5659 903 63.2392 203.777 280.146
503 0 80.186 14.0548 1127 61.0692 203.392 275.407
504 0 83.0869 15.0686 1252 60.3179 203.407 274.99
505 0 88.1173 15.3091 1349 59.387 203.027 274.69
506 1 48.0433 12.7177 611 61.7692 203.398 291.997
507 0 51.1967 12.9891 665 61.591 203.504 289.695
508 0 55.0452 13.4253 739 59.8566 203.648 290.877
509 0 55.162 13.7232 757 59.9432 203.507 289.797
510 0 55.1002 12.8312 707 61.2928 203.231 288.628
511 0 59.0613 12.1569 718 61.7855 203.571 286.974
512 0 61.0683 12.7398 778 61.4897 203.853 285.685
513 0 62.048 14.3921 893 59.7424 203.335 284.236
514 0 66.112 13.0839 865 60.9884 203.972 283.858
515 0 67.021 13.0854 877 61.2657 204.166 283.99
516 0 67.0551 13.3472 895 62.8961 203.229 282.201
517 0 72.0581 14.974 1079 59.8508 203.803 283.609
518 0 75.1252 13.1647 989 62.3873 203.611 280.579
519 0 80.1046 14.3937 1153 60.3339 203.854 280.882
520 0 81.194 13.0798 1062 62.532 203.707 279.361
521 1 44.0575 10.0096 441 64.1202 203.898 297.041
522 0 47.022 13.5894 639 62.2128 203.623 295.228
523 0 48.0529 13.9222 669 62.6323 203.244 294.634
524 0 49.0269 12.8501 630 63.4873 203.51 295.219
525 0 50.1051 13.5116 677 63.2733 203.549 296.291
526 0 54.1122 13.3796 724 62.1271 202.809 297.3
527 0 56.0885 13.6213 764 61.9058 202.495 296.759
528 0 58.4348 14.1868 829 61.8106 202.77 294.152
529 0 60.1141 12.7424 766 63.2467 203.195 294.819
530 0 61.1013 14.4678 884 61.8869 203.072 293.837
531 0 62.098 13.9296 865 62.7723 202.385 293.071
532 0 65.2472 16.1233 1052 59.307 202.553 295.375
533 0 65.1026 14.6999 957 62.535 203.335 292.599
534 0 68.3074 14.0541 960 61.974 203.206 294.623
535 0 69.0967 14.0672 972 63.0031 203.393 291.797
536 0 71.1838 12.7838 910 64.3934 203.44 292.193
537 0 75.093 13.5166 1015 63.6818 204.049 291.053
538 0 76.0522 13.1094 997 63.7653 203.509 292.389
539 0 79.0509 13.3838 1058 63.983 203.781 290.204
540 0 83.3307 13.9324 1161 63.0112 203.654 288.102
541 1 46.39 11.7913 547 61.8848 203.66 309.104
542 0 48.0656 13.5856 653 61.0597 203.09 307.686
543 0 49.1038 14.561 715 61.1762 202.752 305.669
544 0 49.056 12.6182 619 63.42 203.171 307.042
545 0 52.0636 14.3286 746 61.9571 202.895 303.941
546 0 51.0339 12.0312 614 65.3208 203.091 305.718
547 0 53.0529 12.7232 675 64.5407 203.68 305.117
548 0 57.0482 13.8479 790 62.5709 203.333 306.223
549 0 58.086 17.5946 1022 57.9677 203.241 307.758
550 0 59.085 11.4242 675 64.8489 203.379 307.433
551 0 61.0524 13.6604 834 62.6271 203.904 307.077
552 0 63.1154 13.4357 848 62.7559 203.825 307.55
553 0 68.0726 14.3376 976 61.1578 203.922 307.927
554 0 68.0751 13.2354 901 62.7958 203.59 308.344
555 0 72.0757 14.013 1010 61.3059 203.776 308.45
556 0 71.1186 13.822 983 63.0509 203.644 306.11
557 0 77.145 14.2459 1099 60.8699 203.48 308.601
558 0 78.0865 13.0112 1016 62.314 203.744 309.791
559 0 82.1339 16.4244 1349 57.9429 203.404 314.007
560 0 82.1087 12.2886 1009 63.2101 203.53 312.791
561 1 44.1217 11.3776 502 60.5757 203.396 334.45
562 0 44.0513 11.8271 521 60.4664 203.785 337.035
563 0 47.0427 12.8182 603 59.3615 204.023 337.507
564 0 48.0802 13.3319 641 58.4384 204.036 340.287
565 0 49.0254 12.0754 592 60.1047 204.331 341.16
566 0 53.0815 14.5814 774 56.4496 204.181 344.13
567 0 53.027 12.0316 638 59.5157 203.74 344.724
568 0 56.1087 12.8322 720 58.1958 203.664 346.378
569 0 58.052 14.177 823 57.39 202.593 343.31
570 0 59.0645 14.0524 830 57.606 202.845 344.974
571 0 63.0521 13.3857 844 57.9028 203.198 347.962
572 0 61.0583 11.8575 724 59.4807 204.122 349.724
573 0 62.1114 15.6976 975 56.8533 203.497 345.557
574 0 68.0987 13.1868 898 57.8953 203.7 349.084
575 0 69.1428 12.9153 893 58.8499 203.63 347.247
576 1 207.614 12.4943 2594 55.6696 204.088 322.367
577 1 146.215 9.64336 1410 63.5362 203.668 319.433
578 1 115.45 11.1737 1290 53.9915 203.93 357.845
579 0 105.496 12.6261 1332 53.7695 203.538 357.997
580 1 37.6601 16.3568 616 28.2062 201.797 437.279
581 0 31.1065 11.5732 360 32.3778 202.831 404.217
582 0 30.8235 23.4237 722 27.4432 202.271 428.562
583 1 185.165 14.5276 2690 60.4636 202.444 303.396
584 0 179.363 11.9088 2136 58.9382 202.481 327.772
585 1 141.164 11.1502 1574 62.3399 202.438 329.833
586 1 163.664 12.2141 1999 54.0385 202.485 353.514
587 1 12.4667 23.1015 288 26.9062 202.253 443.872
588 0 11.6002 27.3271 317 27.0347 203.098 433.631
589 1 161.347 8.93104 1441 59.4233 203.255 347.128
590 1 106.16 11.784 1251 61.4844 203.478 345.076
591 0 108.13 10.6908 1156 61.2379 203.383 349.365
592 1 130.364 9.30471 1213 56.5416 203.664 361.584
593 0 133.431 9.45059 1261 56.9976 203.722 359.668
594 1 151.521 8.22327 1246 57.9222 203.55 359.378
595 1 104.096 13.1225 1366 60.7782 203.161 345.96
596 0 105.075 12.0009 1261 62.6757 203.607 342.615
597 1 129.292 11.1763 1445 53.4768 203.444 368.663
598 1 77.1684 13.4252 1036 61.2346 203.388 353.581
599 1 98.0931 12.427 1219 58.7162 203.531 358.486
600 1 124.587 13.7013 1707 53.2332 203.669 366.162
601 1 84.2868 12.0185 1013 62.9635 204.067 352.963
602 0 84.2778 12.613 1063 62.6849 203.746 352.94
603 0 82.0958 10.1954 837 66.0526 204 352.097
604 0 76.8879 9.71544 747 58.162 203.45 369.916
605 0 278.188 28.9768 8061 48.0485 202.19 247.135
606 0 278.126 26.621 7404 50.5282 202.417 244.489
607 1 306.616 32.239 9885 46.6363 202.486 273.997
608 1 257.357 13.7202 3531 65.2512 203.064 273.224
609 1 334.056 12.7494 4259 58.1197 202.688 311.402
610 1 62.0931 14.3655 892 61.2758 203.267 359.781
611 0 61.0513 13.6934 836 62.622 203.23 361.001
612 0 63.1515 16.3258 1031 60.4442 202.693 357.88
613 0 64.054 13.473 863 63.4206 203.056 358.509
614 0 68.0833 13.2632 903 64.2193 203.155 355.846
615 1 131.863 6.05934 799 66.3404 203.454 356.315
616 1 71.2535 13.9081 991 64.6428 203.233 353.854
617 0 72.1302 11.7704 849 67.1449 203.596 355.29
618 0 78.1034 12.125 947 66.2101 203.006 355.473
619 0 80.1438 12.0658 967 67.3071 202.683 351.828
620 0 81.1045 14.3642 1165 64.7322 202.911 352.361
621 1 70.0844 7.60511 533 65.0507 203.76 371.769
622 1 46.1036 12.8623 593 64.371 204.046 369.686
623 0 46.1742 13.2975 614 65.2313 203.948 367.309
624 0 48.0782 13.5821 653 64.7167 203.949 367.606
625 0 51.0953 14.8546 759 63.0553 203.85 366.744
626 0 54.2111 13.7795 747 63.8902 203.53 365.932
627 0 52.1106 11.8402 617 67.8023 203.412 364.546
628 1 143.392 14.2965 2050 59.099 203.58 350.385
629 1 113.218 14.2027 1608 66.1866 203.208 336.037
630 0 117.263 15.3074 1795 65.1382 203.827 334.634
631 0 117.172 12.9211 1514 69.0192 203.756 332.156
632 0 112.125 8.28539 929 62.1905 204.042 368.258
633 1 65.1011 11.9967 781 68.5186 204.134 357.913
634 0 68.143 13.3102 907 66.0011 204.493 358.185
635 0 70.2225 14.1123 991 65.7619 204.178 354.45
636 0 70.2166 12.7463 895 68.2927 203.655 353.105
637 0 75.2295 13.5984 1023 66.7478 203.002 348.522
638 0 76.0509 14.6612 1115 65.4287 203.583 350.714
639 1 41.0858 10.1008 415 67.4506 203.458 369.164
640 0 43.1618 12.5111 540 65.8926 203.859 366.826
641 0 43.0952 11.9503 515 67.7262 203.682 364.808
642 0 46.2126 13.7408 635 64.0882 203.337 367.559
643 0 49.1168 13.132 645 65.8543 203.184 363.606
644 0 49.1525 12.8986 634 66.5126 203.453 362.793
645 0 52.1746 14.509 757 63.967 203.173 360.316
646 0 51.0977 14.3451 733 64.6439 202.794 360.572
647 0 54.0551 13.8562 749 65.3685 202.754 357.302
648 0 55.2071 12.5346 692 67.3887 203.828 354.792
649 0 58.0591 13.7274 797 65.3864 203.951 355.028
650 0 58.1189 12.7841 743 67.7187 203.612 352.312
651 0 61.1552 12.9834 794 66.5491 203.888 353.537
652 0 63.081 13.7601 868 65.6555 203.118 351.945
653 0 64.0471 13.209 846 66.6903 203.527 352.187
654 0 69.1939 15.0736 1043 63.8418 203.136 351.278
655 0 70.1572 14.2252 998 65.6744 204.284 349.112
656 0 72.1521 13.4577 971 66.1627 204.048 348.623
657 0 74.2159 14.1075 1047 65.4823 203.099 347.931
658 0 77.0872 12.7907 986 66.5548 202.878 347.864
659 0 80.1153 14.0672 1127 65.0843 203.098 346.294
660 1 41.0922 13.2385 544 64.8713 203.156 362.476
661 0 43.2027 11.8743 513 66.2066 203.452 361.963
662 0 44.1134 14.236 628 63.4459 203.465 362.107
663 0 45.0984 13.9473 629 64.3672 203.843 359.876
664 0 47.1604 13.7827 650 63.9831 203.375 359.431
665 0 48.1402 14.0216 675 63.5244 202.999 358.982
666 0 49.0622 14.3899 706 62.3838 203.278 359.915
667 0 51.0682 12.1406 620 66.2613 202.913 356.153
668 0 51.1561 13.9964 716 63.9609 203.088 357.87
669 0 53.1124 13.0666 694 64.562 203.706 357.706
670 0 56.044 13.9533 782 63.2647 203.547 356.451
671 0 58.0766 12.9312 751 64.6485 203.029 354.22
672 0 56.136 11.9887 673 67.0936 203.184 353.287
673 0 60.0942 14.2443 856 64.1192 202.838 351.199
674 0 62.1592 13.8033 858 64.5536 202.721 352.24
675 0 65.1844 14.0831 918 64.1405 203.343 349.517
676 0 66.0941 13.4203 887 65.2221 202.539 346.413
677 0 66.1091 13.8408 915 64.8984 202.126 347.353
678 0 71.1786 12.869 916 65.1867 202.18 347.198
679 0 73.1888 13.7043 1003 64.2822 202.693 346.395
680 0 75.1485 15.2365 1145 62.7528 203.031 343.588
681 0 77.0561 14.0547 1083 63.7507 203.194 346.772
682 1 39.055 13.7755 538 62.0836 203.121 364.704
683 0 38.0847 11.8946 453 64.2494 203.024 365.656
684 0 40.0466 12.1109 485 64.4041 202.804 364.353
685 0 41.0798 12.1714 500 64.562 202.924 363.668
686 0 43.0458 12.0105 517 64.3868 202.801 364.012
687 0 43.0704 12.4912 538 64.4907 203.9 363.918
688 0 43.1332 11.5456 498 65.9116 203.564 362.209
689 0 46.0594 12.397 571 64.2732 203.646 360.848
690 0 47.0823 11.4693 540 64.9852 204.443 361.126
691 0 51.2438 13.348 684 62.2822 204.262 361.314
692 0 48.1294 11.8431 570 65.7982 203.893 359.228
693 0 54.256 13.5469 735 61.698 203.645 361.339
694 0 54.0711 14.0001 757 61.8388 203.696 359.448
695 0 56.1709 13.2097 742 62.752 203.367 358.473
696 0 58.0287 13.6657 793 62.6482 202.46 354.368
697 0 60.1038 11.7796 708 64.5833 202.846 351.907
698 0 64.1589 14.1679 909 61.2002 202.832 351.887
699 0 65.1316 12.5592 818 63.3814 202.719 348.752
700 0 69.1212 14.8435 1026 60.4074 203.268 348.427
701 0 68.1617 13.8934 947 62.5206 203.912 348.912
702 0 73.1521 17.2107 1259 58.1231 204.058 349.417
703 0 73.0634 12.8655 940 63.5394 204.131 348.706
704 0 78.3868 14.5943 1144 61.5271 203.662 344.683
705 0 82.0794 15.0342 1234 60.2585 203.763 345.788
706 0 82.374 13.3537 1100 62.0109 204.529 347.68
707 1 48.2338 12.4601 601 61.6106 204.609 361.3
708 0 49.0211 13.3208 653 61.3737 203.813 361.084
709 0 50.2275 12.8615 646 62.4412 204.636 358.528
710 0 50.0639 12.8635 644 63.2391 204.815 357.652
711 0 53.148 12.3617 657 61.4855 204.24 358.892
712 0 56.0521 14.6828 823 59.0049 204.187 354.652
713 0 55.0866 13.978 770 60.0571 203.204 353.93
714 0 59.1831 16.9812 1005 56.1323 203.02 355.3
715 0 60.0852 14.779 888 58.6453 203.351 352.961
716 0 62.1381 15.5299 965 57.8435 202.767 352.332
717 0 67.1172 15.242 1023 57.8035 202.711 351.318
718 0 63.1081 13.7066 865 60.9896 202.987 350.624
719 0 65.1678 13.5803 885 61.2271 203.478 348.54
720 0 70.059 13.8312 969 60.1342 203.525 350.838
721 0 72.0702 14.5136 1046 59.9226 202.863 348.992
722 0 77.1399 15.3617 1185 58.8489 203.668 348.136
723 0 76.0746 12.1328 923 62.8472 203.441 346.542
724 0 82.2196 13.7315 1129 60.6386 203.252 347.942
725 0 83.1215 14.8337 1233 60.3804 202.977 345.593
726 0 86.1245 14.8274 1277 60.7447 202.995 344.216
727 1 46.0836 10.546 486 64.0268 202.3 364.523
728 0 44.126 13.7108 605 62.4463 203.21 361.301
729 0 49.2516 14.8422 731 59.3858 202.272 364.672
730 0 46.2032 11.4061 527 28.1082 203.156 453.63
731 1 0 0 0 -nan -nan -nan
732 0 0 0 0 -nan -nan -nan
733 1 9.02062 17.848 161 26.7205 200.72 471.752
734 0 14.5006 14.6201 212 28.8774 199.278 412.288
735 0 0 0 0 -nan -nan -nan
736 1 0 0 0 -nan -nan -nan
737 1 14.4035 15.9683 230 27.3609 201.63 462.37
738 0 21.0464 8.64754 182 29.9121 201.808 419.187
739 0 27.2376 17.6227 480 30.6271 203.948 401.567
740 1 69.0354 14.9054 1029 59.6152 203.351 356.064
741 0 73.1352 14.8355 1085 60.8203 202.97 350.453
742 0 74.2054 15.2145 1129 60.767 203.446 349.082
743 0 77.0461 13.8488 1067 61.6973 203.319 350.503
744 0 79.1125 16.8747 1335 58.6382 203.188 350.42
745 0 83.0901 15.0921 1254 60.9681 202.962 346.951
746 1 119.168 12.3355 1470 57.1007 202.729 356.457
747 1 84.1743 12.9493 1090 62.7495 203.427 349.436
748 0 81.2338 10.1313 823 65.6233 202.994 351.239
749 1 49.0237 14.0544 689 60.9579 202.694 362.874
750 0 50.0672 15.4193 772 59.285 203.326 363.653
751 1 92.788 9.37621 870 55.0701 202.986 375.34
752 1 52.1224 12.7776 666 63.7988 202.577 359.167
753 0 54.1054 12.5311 678 63.2773 203.249 360.944
754 0 56.2167 12.4874 702 64.1667 203.818 358.342
755 0 59.0656 14.9156 881 60.8831 203.185 357.431
756 0 61.0845 15.3067 935 60.5572 203.364 357.08
757 0 62.0931 14.0917 875 62.5691 203.287 355.594
758 0 63.1232 14.4163 910 62.3264 203.114 355.103
759 0 65.1344 13.4952 879 63.7986 203.265 353.014
760 0 69.0499 15.3657 1061 60.786 203.285 354.777
761 0 69.0748 15.5918 1077 61.1811 203.344 350.593
762 0 73.1094 14.4167 1054 62.7694 203.088 348.443
763 0 75.1218 13.6312 1024 62.0439 203.389 348.451
764 0 81.2165 13.3347 1083 61.7821 203.78 347.151
765 0 82.1159 12.8477 1055 63.3109 203.291 343.893
766 0 86.1383 12.7121 1095 63.5269 203.765 343.387
767 0 89.1406 13.6414 1216 62.4967 203.076 342.089
768 1 47.1249 11.4589 540 63.0074 203.091 361.713
769 0 52.336 13.1458 688 60.9738 203.512 361.631
770 0 53.1454 11.6661 620 62.4903 203.774 363.068
771 0 54.0885 13.0712 707 62.3126 203.96 357.496
772 0 57.1526 13.5077 772 61.2228 203.4 358.017
773 0 58.0794 12.9134 750 61.996 203.231 358.337
774 0 62.1244 12.1691 756 62.5516 203.448 356.336
775 0 62.0811 14.8193 920 59.9554 203.31 355.059
776 0 65.0575 13.4343 874 61.27 202.522 353.457
777 0 65.0378 12.3159 801 62.4095 203.546 352.539
778 0 68.0662 12.8404 874 62.0286 203.304 350.006
779 0 70.0498 14.3184 1003 60.2124 202.869 348.214
780 0 72.0824 12.6522 912 61.6513 202.856 348.75
781 0 77.0418 11.8896 916 61.822 202.626 348.009
782 0 82.1557 13.9735 1148 59.5139 203.241 345.882
783 0 80.097 12.1228 971 61.7405 203.041 346.134
784 0 83.0479 13.8595 1151 59.8358 202.12 343.77
785 1 46.0651 10.7891 497 61.1288 202.642 360.205
786 0 47.0583 11.0076 518 59.9344 202.471 361.681
787 0 48.0278 12.5344 602 59.789 202.884 358.262
788 0 50.1512 11.8641 595 60.674 203.182 357.521
789 0 53.1008 15.5553 826 55.799 203.159 358.828
790 0 56.0614 9.9712 559 61.1628 202.549 356.741
791 0 58.1947 12.1832 709 58.6065 202.551 356.384
792 0 59.056 11.904 703 59.4893 202.378 353.626
793 0 63.1033 12.5667 793 58.6381 202.456 353.939
794 0 64.1718 12.9808 833 58.1068 203.459 352.299
795 0 68.1859 13.8738 946 57.2896 203.662 349.126
796 0 71.3868 13.1957 942 57.8397 203.294 347.874
797 0 70.0717 13.7859 966 57.9027 203.145 347.697
798 0 76.0791 14.5506 1107 56.7191 203.319 346.591
799 0 79.1081 13.7154 1085 56.9908 203.058 346.749
800 0 80.3143 12.2394 983 59.4435 203.12 344.74
801 0 82.0601 12.0034 985 60.2376 203.586 340.187
802 1 47.0787 10.578 498 59.3233 203.861 359.645
803 0 47.0667 10.1983 480 59.8312 203.467 360.421
804 0 51.0369 10.463 534 59.0243 203.76 360.816
805 0 53.0343 12.8407 681 56.3436 203.753 360.369
806 0 56.0698 12.5558 704 57.5085 203.036 357.166
807 0 58.086 12.3265 716 57.2612 203.398 358.113
808 0 55.1084 10.8332 597 60.268 204.052 357.826
809 0 60.1288 14.8016 890 55.9494 203.89 355.804
810 0 62.0422 12.7816 793 58.9016 203.861 354.865
811 0 62.1383 13.1159 815 59.5068 203.782 353.434
812 0 65.1377 15.306 997 56.9669 204.351 351.662
813 0 64.0453 12.9596 830 60.9675 204.028 347.547
814 0 69.0836 13.7515 950 59.4032 203.148 348.828
815 0 72.1915 14.1152 1019 58.7556 202.758 346.865
816 0 74.1616 13.4436 997 59.668 202.803 346.062
817 0 76.162 13.8652 1056 59.3788 202.538 343.729
818 0 77.047 13.3036 1025 59.678 203.001 345.629
819 0 80.1338 12.3793 992 61.6482 203.128 341.799
820 0 85.0928 14.6076 1243 59.1126 203.605 339.321
821 1 44.0723 13.8863 612 58.8676 203.94 359.498
822 0 45.1006 13.1262 592 60.1453 204.068 358.042
823 0 47.047 12.1155 570 61.3579 203.807 357.26
824 0 46.0746 13.3696 616 60.3929 203.7 356.636
825 0 50.1006 12.1156 607 62.0181 203.867 352.621
826 0 54.1191 13.8768 751 58.9068 203.743 353.268
827 0 55.0588 13.7126 755 59.4742 203.332 352.269
828 0 56.3373 11.9991 676 61.534 204.145 351.503
829 0 58.2472 14.3183 834 58.7842 204.013 351.693
830 0 60.1735 14.6576 882 58.576 203.828 347.883
831 0 64.1258 12.9901 833 59.7275 203.484 347.826
832 0 63.0593 12.9402 816 60.6164 203.556 345.744
833 0 67.2514 13.5611 912 58.8947 203.513 347.219
834 0 69.1984 13.3818 926 59.9773 203.391 343.938
835 0 69.0446 13.2378 914 60.6871 203.544 340.287
836 0 70.0731 11.9447 837 61.9188 203.135 341.01
837 0 78.0612 14.7192 1149 57.6188 203.863 344.041
838 0 79.1093 11.8949 941 61.3943 204.436 340.732
839 0 83.1446 13.1097 1090 59.5349 204.305 340.039
840 0 85.1194 12.3474 1051 61.0552 203.857 337.416
841 1 48.1637 15.3435 739 55.0758 203.848 356.706
842 0 51.1978 14.024 718 56.6128 204.226 357.015
843 0 50.1472 13.261 665 58.2451 204.483 355.982
844 0 53.3171 11.8536 632 59.8924 203.97 353.413
845 0 54.2456 13.1071 711 58.7398 203.669 353.322
846 0 55.0638 12.7125 700 59.96 203.459 350.364
847 0 59.1547 12.797 757 58.7741 203.517 350.987
848 0 65.0573 16.8928 1099 53.7079 203.749 345.985
849 0 67.1386 19.8842 1335 51.0974 203.354 346.616
850 0 64.1123 16.4867 1057 55.4674 202.923 343.704
851 0 67.1754 13.8592 931 58.4135 203.242 343.911
852 0 69.1539 16.5428 1144 55.0481 203.421 346.451
853 0 68.2089 14.6462 999 57.7427 203.429 345.104
854 0 73.2065 10.6821 782 61.0767 203.607 345.909
855 0 74.1295 15.0547 1116 56.2204 203.487 348.538
856 0 79.0516 14.5348 1149 57.3429 203.209 344.202
857 0 81.1127 15.2134 1234 57.1678 203.496 341.554
858 0 84.0734 13.4763 1133 58.6902 203.597 341.065
859 1 44.0247 10.267 452 60.469 203.46 359.615
860 0 48.0737 10.8999 524 59.7481 203.555 359.16
861 0 47.0846 11.5324 543 58.814 203.862 360.087
862 0 53.1268 12.1408 645 58.7829 203.664 356.243
863 0 52.0779 14.1519 737 56.8507 203.309 355.734
864 0 54.1024 14.0105 758 57.7916 204.133 353.859
865 0 58.1256 16.9633 986 53.7515 204.203 355.08
866 0 59.1658 12.2875 727 58.6685 204.425 352.325
867 0 62.208 13.6478 849 57.5783 204.171 347.807
868 0 66.0729 13.3489 882 56.9082 203.749 344.079
869 0 68.0872 15.2158 1036 55.4363 203.812 349.323
870 0 69.1274 16.8963 1168 55.1241 203.703 347.016
871 0 72.1048 15.8103 1140 55.3658 203.325 345.713
872 0 71.1016 12.4751 887 59.6043 202.97 346.266
873 0 73.1238 13.484 986 58.1217 203.565 349.158
874 0 77.0839 15.2431 1175 57.1515 203.357 343.899
875 0 74.0993 16.1945 1200 56.7908 203.298 345.59
876 0 84.1324 14.3345 1206 57.5589 202.975 345.663
877 0 85.2792 14.0832 1201 58.632 202.928 340.938
878 0 90.241 12.6772 1144 59.375 202.688 342.115
879 0 92.2136 14.4881 1336 58.1834 203.281 338.123
880 0 92.1668 14.3761 1325 58.3758 203.827 338.222
881 1 51.0816 12.0591 616 58.461 203.933 358.601
882 0 51.0289 10.641 543 60.8324 203.969 357.389
883 0 57.1406 12.513 715 57.3874 204.365 358.841
884 0 58.37 13.3288 778 58.3445 204.125 353.861
885 0 58.0721 12.054 700 59.93 203.9 354.451
886 0 58.1396 12.5216 728 59.3668 204 355.591
887 0 62.1757 12.5773 782 60.1496 204.125 350.214
888 1 147.171 8.6702 1276 48.3143 203.547 386.105
889 1 68.0883 13.8937 946 58.3584 203.439 349.916
890 0 69.101 13.2126 913 59.8653 203.562 349.785
891 0 71.0893 13.5745 965 59.9067 203.361 347.449
892 0 76.22 12.3852 944 60.625 203.613 348.315
893 0 79.1573 13.9469 1104 58.8469 203.003 347.672
894 1 48.1757 11.209 540 58.7426 203.463 363.022
895 0 47.0272 13.1413 618 58.3366 203.413 360.518
896 0 46.0985 11.8225 545 60.4037 203.974 361.943
897 0 49.124 13.3743 657 58.2222 203.671 362.314
898 0 50.06 12.3851 620 60.0387 203.96 358.865
899 0 52.079 12.385 645 59.8667 203.575 358.529
900 0 54.1456 11.783 638 60.163 203.354 358.531
901 0 56.1722 12.0344 676 60.074 203.513 355.493
902 0 57.0689 12.1082 691 60.5543 204.501 356.425
903 0 57.0681 12.7392 727 60.469 204.113 355.305
904 0 59.0666 13.798 815 59.2098 204.064 354.082
905 0 62.0784 12.0815 750 61.008 203.329 351.709
906 0 64.1789 14.5842 936 57.6944 203.718 353.923
907 0 64.0352 13.7268 879 59.5995 203.871 351.421
908 0 68.2806 12.3461 843 61.2076 203.657 349.764
909 0 71.1109 12.0375 856 61.1951 204.166 348.439
910 0 71.111 13.1766 937 61.3874 203.824 345.625
911 0 74.1216 13.5588 1005 60.3632 203.459 348.058
912 0 81.1632 14.1197 1146 59.3979 203.531 346.647
913 0 83.1408 12.7013 1056 60.768 204.134 347.069
914 1 45.4174 11.1631 507 58.8876 203.704 363.556
915 0 43.236 12.027 520 58.6827 203.925 363.275
916 0 47.0353 12.8202 603 58.1758 203.972 362.343
917 0 48.0223 10.7034 514 60.8366 204.041 360.2
918 0 50.0772 12.8202 642 58.1713 204.368 360.14
919 0 52.0455 12.931 673 58.4146 204.545 359.062
920 0 48.0526 11.9244 573 61.9302 204.588 356.073
921 0 53.0606 13.0229 691 59.7265 204.425 355.738
922 0 51.1821 13.9111 712 59.2275 204.249 356.277
923 0 57.0608 13.8799 792 58.3788 203.082 355.092
924 0 56.0579 12.7012 712 60.4958 203.152 356.024
925 0 61.1242 12.401 758 60.0251 202.423 352.786
926 0 59.0505 12.3962 732 60.5219 203.489 354.205
927 0 61.0333 12.1573 742 60.6806 203.621 353.753
928 0 64.1648 12.0471 773 61.3881 203.461 348.426
929 0 67.0605 13.4207 900 58.7722 203.693 353.004
930 0 71.0511 12.3292 876 59.871 202.81 351.006
931 0 70.0389 10.9511 767 62.7197 202.557 346.773
932 0 74.0569 11.5587 856 62.0935 201.979 345.461
933 0 76.1363 13.3576 1017 60.4592 202.283 345.506
934 0 80.159 13.0615 1047 60.7698 203.191 344.105
935 0 80.1784 15.0539 1207 59.2709 203.498 343.263
936 0 84.07 13.1795 1108 61.648 203.013 339.965
937 0 85.1004 11.7038 996 63.1345 203.091 341.292
938 0 90.1599 11.7791 1062 63.0716 202.238 337.636
939 1 52.0399 12.3559 643 59.0964 202.919 361.036
940 0 47.0978 13.6524 643 59.7527 202.83 357.359
941 0 53.0283 12.201 647 60.3338 202.886 355.923
942 0 57.0782 14.3663 820 57.9634 202.678 353.898
943 0 58.0568 12.6256 733 59.09 202.517 355.299
944 0 62.0741 12.1629 755 59.1245 202.152 352.836
945 0 62.1408 12.1498 755 60.2927 201.599 350.959
946 0 63.1164 11.8194 746 61.0094 201.803 350.264
947 0 66.0585 13.4426 888 59.1498 201.059 346.467
948 0 70.0652 15.3571 1076 56.9126 201.086 348.033
949 0 69.1519 13.9982 968 58.9514 201.518 344.164
950 0 72.1536 12.7229 918 60.3758 201.737 346.373
951 0 75.1358 15.0261 1129 57.7502 201.866 347.299
952 0 78.118 12.8907 1007 60.3704 201.636 345.547
953 0 77.1381 12.536 967 61.3206 202.113 344.943
954 0 81.1574 12.9009 1047 61.1242 201.968 344.42
955 1 45.1128 10.0415 453 62.2627 202.115 358.89
956 0 48.2249 10.6584 514 61.1673 202.156 361.465
957 0 49.0905 12.6297 620 58.4855 201.895 361.573
