time division length width area intensity CMx CMy
0 0 43.1737 8.26893 357 64.7871 358.913 457.594
1 0 42.0709 8.41437 354 64.5678 358.542 456.551
2 0 43.0202 10.1813 438 63.8219 358.224 453.169
3 0 46.094 1.45355 67 72.4328 358.552 466.463
4 0 42.2316 5.99077 253 69.4387 358.186 450.802
5 0 48.0871 9.39961 452 65.0642 358.055 447.648
6 0 51.2116 8.90424 456 65.8925 357.748 446.195
7 0 52.1136 9.05713 472 65.7352 357.447 442.409
8 0 51.044 12.1464 620 58.4936 356.915 494.642
9 0 53.0228 11.2027 594 59.8283 357.14 493.822
10 0 54.123 10.0327 543 61.2983 357.029 492.444
11 0 54.0571 11.1734 604 60.5099 357.272 494.212
12 0 59.0273 12.5535 741 58.7854 357.769 492.629
13 0 62.1383 12.6975 789 58.1179 357.695 494.053
14 0 60.1234 11.3101 680 61.1559 356.734 488.24
15 0 66.1205 11.3732 752 60.3178 356.795 488.886
16 0 67.1487 11.5415 775 59.8271 356.065 490.13
17 0 67.0876 11.5968 778 60.608 356.264 485.607
18 0 68.1759 11.177 762 61.4934 355.55 485.781
19 0 73.1729 13.6116 996 58.3102 355.936 483.69
20 0 72.0916 10.1399 731 62.6566 356.025 483.709
21 0 77.118 11.6056 895 60.9128 355.762 481.981
22 1 41.0373 10.3564 425 61.9741 355.776 499.798
23 0 45.0399 11.7673 530 60.0245 355.966 499.966
24 0 46.1432 12.1361 560 59.8393 356.668 495.986
25 0 44.0343 10.0149 441 62.5782 356.184 498.934
26 0 47.1294 12.1792 574 60 356.521 497.915
27 0 50.0869 11.7396 588 60.2976 355.947 495.447
28 0 50.0523 11.2083 561 61.6898 355.991 493.848
29 0 51.1084 11.5245 589 61.584 356.282 494.733
30 0 52.0658 10.7364 559 62.3041 356.39 495.499
31 0 54.0422 12.1387 656 61.7332 356.558 492.188
32 0 54.0597 11.2098 606 62.9868 356.617 494.842
33 0 57.1648 11.5805 662 62.7704 356.42 491.983
34 0 58.046 11.577 672 62.244 356.594 494.487
35 0 61.1212 11.7799 720 61.7986 355.803 494.457
36 0 61.0674 11.3809 695 62.7727 355.698 490.882
37 0 63.0408 13.3406 841 60.9251 354.834 490.388
38 0 65.0573 14.0492 914 60.3917 355.27 489.104
39 0 70.1442 13.2727 931 60.6165 355.656 487.015
40 0 69.1221 11.458 792 63.4748 355.52 486.186
41 0 72.2777 11.3866 823 63.3414 355.632 484.876
42 0 73.1481 10.5813 774 64.5026 354.479 482.34
43 0 78.0702 13.2573 1035 61.2928 355.128 481.218
44 0 82.106 12.7031 1043 61.8476 356.048 479.986
45 0 83.1119 11.683 971 63.4284 356.682 479.088
46 1 44.1262 10.3566 457 64.884 355.862 497.932
47 0 45.0488 13.1413 592 62.049 356.002 497.159
48 0 49.0289 12.5844 617 62.5948 355.697 496.799
49 0 48.0446 10.2405 492 65.8171 356.244 496.01
50 0 50.0819 11.1617 559 64.3703 356.05 496.043
51 0 53.0673 12.6443 671 62.5723 355.788 494.894
52 0 56.0863 14.4777 812 60.4335 355.154 493.509
53 0 59.0423 13.8883 820 60.5268 354.232 494.309
54 0 60.017 11.4134 685 64.1679 354.556 493.32
55 0 60.163 10.804 650 65.1692 355.263 493.895
56 0 61.0359 11.1082 678 66.0324 355.111 489.291
57 0 64.0991 13.6351 874 62.3044 355.309 491.003
58 0 68.1055 13.6846 932 62.383 355.248 490.765
59 0 67.101 12.5334 841 64.8216 355.547 488.245
60 0 70.1408 13.4872 946 63.574 355.088 489
61 0 74.0835 14.1867 1051 62.7298 355.529 488.059
62 0 76.1142 13.598 1035 63.4763 355.408 487.384
63 0 76.1684 11.7634 896 66.4185 355.752 486.093
64 0 79.0832 12.0632 954 66.434 355.698 485.039
65 0 81.1281 12.2029 990 66.3818 355.395 484.422
66 1 45.0995 13.57 612 62.1111 355.198 503.147
67 0 48.1455 12.5661 605 63.9405 355.54 501.288
68 0 49.0349 14.6426 718 62.0752 355.804 500.816
69 0 55.3951 14.4778 802 59.6608 355.324 502.731
70 0 51.0235 12.0925 617 65.5154 355.282 500.314
71 0 52.0917 11.5565 602 65.995 355.475 500.641
72 0 54.093 12.5155 677 65.3191 355.761 498.838
73 0 54.0172 11.1446 602 67.9518 355.319 497.615
74 0 57.1454 11.8295 676 66.4571 355.51 497.996
75 0 57.0258 11.5562 659 67.3839 355.59 498.017
76 0 61.1102 12.7475 779 65.5481 354.933 496.526
77 0 61.042 13.1876 805 66.5391 355.276 492.605
78 0 63.0705 12.9221 815 66.8344 355.214 489.963
79 0 63.0822 12.238 772 68.3303 355.325 490.645
80 0 67.0351 12.1131 812 67.0345 354.709 494.135
81 0 68.0717 11.9139 811 68.0444 353.755 491.518
82 0 68.0676 12.3848 843 68.1934 355.947 488.988
83 0 73.1255 12.417 908 67.6795 355.524 488.562
84 1 38.064 13.2671 505 63.1743 355.246 507.287
85 0 38.0811 13.0511 497 63.672 354.785 507.517
86 0 37.0524 11.1464 413 67.8499 354.225 505.029
87 0 39.0937 11.2806 441 67.5692 354.864 505.127
88 0 39.0134 11.8677 463 68.149 354.985 503.721
89 0 42.0421 12.7253 535 66.5065 355.946 503.045
90 0 45.0351 12.7456 574 65.7875 355.378 502.878
91 0 44.1004 12.1768 537 67.5494 355.086 501.71
92 0 46.0301 12.557 578 66.7163 355.123 502.867
93 0 47.0364 14.5207 683 65.4553 354.93 498.577
94 0 47.0516 11.2855 531 69.8098 354.802 498.991
95 0 49.0981 13.6665 671 66.6438 354.313 497.917
96 0 44.0916 9.25347 408 73.902 354.495 492.564
97 0 42.0173 6.18792 260 75.7192 354.485 486.692
98 0 44.1561 8.53789 377 74.8806 355.066 489.363
99 0 47.1284 8.40257 396 74.0783 354.141 486.727
100 0 46.0496 9.09888 419 73.8568 354.852 487.095
101 0 44.0743 6.48905 286 73.7902 355.178 478.976
102 0 43.0404 6.64492 286 72.4371 355.437 475.35
103 0 47.0754 6.81885 321 74.0405 355.355 476.477
104 1 0 0 1.04732e-303 -nan 410 0.00304251
105 1 53.0397 7.44725 395 73.7165 355.747 476.134
106 0 55.0602 8.89935 490 72.7918 356.322 475.949
107 0 58.0555 8.8536 514 73.393 356.148 477.158
108 0 57.054 6.80058 388 76.4639 355.943 475.74
109 0 59.0742 6.73729 398 76.6131 355.947 472.55
110 1 19.0174 8.62368 164 75.4451 355.829 494.268
111 0 21.0053 4.57028 96 76.5417 355.562 492.594
112 1 33.0176 7.32943 242 76.0578 354.45 497.562
113 0 36.0212 8.80037 317 74.5142 355.416 496.189
114 0 39.0497 7.75934 303 74.2574 356.02 496.043
115 0 39.0158 7.25348 283 75.1519 355.293 497.474
116 0 43.0359 9.29456 400 73.0175 355.352 494.25
117 0 40.0363 7.99275 320 75.1969 355.056 493.269
118 0 43.0548 9.15112 394 73.9391 355.266 492.563
119 0 46.0281 7.95166 366 74.1667 355.814 488.959
120 0 47.1285 9.03911 426 74.108 355.636 493.944
121 0 48.0932 9.33603 449 73.1982 355.849 490.479
122 0 52.0512 8.97193 467 73.5632 356.146 492.904
123 0 52.1117 9.1726 478 73.8933 356.293 489.521
124 0 56.056 9.02669 506 73.0415 356.464 486.949
125 0 58.0747 11.3647 660 71.0697 356.783 489.497
126 0 58.0292 8.25447 479 74.5219 356.365 488.812
127 0 56.0281 6.3361 355 77.138 356.104 484.259
128 0 62.1967 10.2578 638 72.5031 356.085 487.039
129 0 67.1231 12.1866 818 69.9083 355.946 487.174
130 1 32.1544 9.11229 293 72.7713 355.724 501.43
131 0 32.0372 9.64504 309 75.055 355.566 466.686
132 0 31.0223 7.05945 219 76.1598 354.68 499.329
133 0 37.0957 9.94726 369 72.0217 355.06 500.48
134 0 38.0365 10.043 382 71.699 355 499.529
135 0 43.0477 14.4491 622 65.172 356.053 502.522
136 0 43.0579 11.5658 498 69.4518 355.689 501.916
137 0 45.0785 12.2231 551 68.5245 356.381 502.339
138 0 45.0395 13.8767 625 67.0528 355.902 501.219
139 0 45.065 10.4959 473 71.8457 355.93 499.634
140 0 49.052 13.1697 646 67.8065 355.847 499.65
141 0 50.0742 12.6013 631 68.7623 354.96 498.431
142 0 53.1476 12.5688 668 69.1153 355.885 496.127
143 0 51.0658 11.7887 602 71.4203 355.447 495.448
144 0 54.042 11.2135 606 71.5182 355.771 497.715
145 0 56.0556 13.2725 744 69.2231 355.948 493.786
146 0 58.1083 13.0274 757 68.963 355.387 495.993
147 0 57.0618 10.918 623 72.4928 355.878 494.573
148 0 63.0959 13.3923 845 68.8615 355.923 492.026
149 0 64.0786 13.3274 854 69.2834 356.097 491.09
150 0 66.1182 12.5684 831 70.3369 356.024 489.191
151 0 67.0694 12.7182 853 70.7233 355.079 488.581
152 0 70.0793 12.4002 869 70.4614 354.781 488.922
153 0 73.1901 13.4991 988 69.3553 355.906 488.057
154 1 37.1009 10.0267 372 71.6344 356.126 503.401
155 0 40.0108 12.6216 505 68.2772 356.784 502.511
156 0 40.0219 10.4943 420 70.8381 356 503.4
157 0 41.0456 10.1594 417 71.6403 356.542 503.372
158 0 42.0669 10.935 460 71.1087 356.6 502.689
159 0 42.0113 9.30702 391 73.3887 356.936 501.849
160 0 46.134 12.7672 589 68.9168 356.572 498.971
161 0 49.0843 11.7349 576 70.1128 356.826 499.951
162 0 49.1146 12.2774 603 69.5224 356.501 499.64
163 0 48.1003 12.0581 580 70.731 356.145 495.397
164 0 51.0413 10.8148 552 71.7808 355.803 496.658
165 0 53.1107 12.0315 639 70.4053 355.961 495.394
166 0 55.0873 12.0536 664 69.9232 356.224 495.205
167 0 57.0832 12.2453 699 69.9871 356.386 494.691
168 0 58.0855 12.1889 708 69.2048 356.254 495.98
169 0 60.0888 12.8643 773 69.2445 355.294 492.705
170 0 60.127 11.1764 672 71.5208 355.391 490.982
171 0 63.1 11.252 710 71.6732 355.57 488.835
172 0 65.0816 11.0323 718 71.3245 356.38 490.358
173 1 31.0052 10.2886 319 69.0063 356.317 504.784
174 0 30.0636 8.9477 269 72.0929 356.468 503.041
175 0 32.0146 7.46534 239 73.4519 355.339 503.159
176 0 34.0162 6.40871 218 74.2431 355.509 499.17
177 0 33.0151 7.45113 246 73.9024 356.26 500.187
178 0 28.0377 7.34724 206 75.7476 356.306 497.592
179 0 34.0215 10.2876 350 71.5086 356.483 497.04
180 0 34.0956 7.47898 255 75.2549 356.522 497.882
181 0 36.0776 8.70346 314 73.0127 356.261 496.169
182 0 32.0215 7.15145 229 75.8341 356.659 494.651
183 0 34.0524 8.07578 275 73.4291 356.702 491.218
184 0 31.045 9.01916 280 74.2321 356.343 489.529
185 0 25.0634 8.21914 206 73.9709 355.942 484.733
186 1 46.1035 9.04487 417 81.2806 355.835 441.367
187 0 56.2261 10.4222 586 77.1724 356.21 439.742
188 0 54.0488 9.75044 527 79.3264 355.894 437.723
189 0 55.0532 10.5716 582 68.7646 355.955 491.96
190 0 58.0496 10.5255 611 68.419 355.846 491.134
191 0 60.0498 11.274 677 66.7563 355.143 489.864
192 0 61.0884 12.9484 791 64.5651 355.121 491.47
193 0 60.1674 11.6674 702 67.3205 355.218 486.966
194 0 66.0727 12.1533 803 65.7983 355.793 487.567
195 0 68.1994 12.4635 850 65.4788 355.421 485.769
196 0 68.0326 11.7444 799 66.6834 356.106 485.861
197 0 69.0609 11.946 825 67.0242 356.656 482.55
198 0 73.0834 11.3979 833 67.2857 355.894 481.821
199 0 75.02 10.7971 810 67.963 355.691 483.521
200 0 76.0439 11.1252 846 68.091 355.494 481.449
201 1 42.0763 9.22134 388 65.3969 356.028 501.786
202 0 42.0738 9.60217 404 66.6312 356.012 499.542
203 0 44.0411 9.24136 407 66.801 356.093 500.418
204 0 45.1015 9.77794 441 66.5011 355.492 497.383
205 0 46.0329 11.318 521 65.0806 355.716 495.729
206 0 48.0623 9.57091 460 67.1044 356.259 495.68
207 0 50.0709 9.46658 474 65.4072 355.89 495.745
208 0 52.1018 11.4775 598 63.1906 355.286 493.351
209 0 53.0138 12.0346 638 62.5282 355.448 494.382
210 0 56.024 11.4772 643 63.1602 355.519 492.86
211 0 58.0596 11.4882 667 63.4093 355.859 491.576
212 0 60.0694 11.1704 671 62.7407 355.566 489.624
213 0 61.0455 8.96052 547 64.7422 355.623 491.636
214 0 63.0367 11.3109 713 62.5919 355.938 488.708
215 0 64.1516 11.4728 736 62.4307 354.463 486.696
216 0 68.0718 10.6946 728 63.8379 354.284 484.051
217 0 74.0489 10.439 773 63.0065 354.433 487.366
218 0 72.1234 10.8009 779 63.751 354.743 485.774
219 0 74.0652 11.3684 842 63.6888 355.014 482.286
220 0 75.0516 11.0857 832 64.0469 354.88 480.987
221 0 80.0942 11.6238 931 62.5908 355.317 481.14
222 0 83.149 9.98208 830 64.6108 355.054 478.516
223 0 85.2012 12.0538 1027 62.221 355.769 478.488
224 0 88.1114 11.9735 1055 62.1687 355.006 477.327
225 0 87.1177 9.57325 834 65.1427 354.85 475.736
226 0 93.1164 10.5996 987 63.6576 355.42 474.689
227 1 48.0389 9.38823 451 62.0066 355.313 498.514
228 0 48.0913 9.89783 476 62.1092 355.607 495.842
229 0 53.0507 10.4994 557 61.2908 355.214 494.077
230 0 54.1168 10.7545 582 60.4467 355.607 495.455
231 0 54.0363 10.6965 578 60.9689 355.258 495.529
232 0 58.06 10.7992 627 60.2935 355.767 495.175
233 0 57.0674 10.1109 577 61.7279 355.345 494.333
234 0 62.0832 10.8564 674 61.2389 355.709 491.042
235 0 62.1028 11.3038 702 61.8989 355.926 488.056
236 0 62.1082 11.0613 687 62.4076 355.21 488.454
237 0 62.1082 11.1096 690 123.833 355.216 488.488
238 0 67.0696 10.7948 724 62.2597 355.891 488.646
239 0 70.1484 10.4065 730 62.5986 355.67 486.789
240 0 75.0892 12.0656 906 60.2494 355.785 485.757
241 0 74.0262 11.7931 873 61.3585 355.81 480.451
242 0 76.1167 9.51172 724 63.8246 355.57 480.816
243 0 81.1594 13.0607 1060 59.4858 355.292 480.268
244 1 66.0581 6.00986 397 68.864 355.675 470.118
245 1 83.1763 10.7963 898 62.1392 355.359 479.38
246 0 85.1018 11.1513 949 62.0938 355.351 476.808
247 0 91.0839 12.2634 1117 60.419 355.023 476.017
248 0 94.1076 11.5081 1083 61.1708 355.049 474.176
249 0 96.1494 11.3157 1088 61.5928 354.595 471.139
250 0 100.104 12.3271 1234 60.3136 355.096 469.039
251 1 52.0839 10.1183 527 61.3093 354.787 492.979
252 0 54.0789 9.98542 540 62.0611 355.202 491.47
253 0 59.0314 10.9603 647 60.4297 354.235 492.688
254 0 59.0545 10.8713 642 60.5498 354.66 490.611
255 0 62.0845 11.8709 737 59.555 354.891 490.358
256 0 62.022 10.722 665 61.6015 355.203 489.833
257 0 65.0941 10.2313 666 61.6051 355.728 488.853
258 0 68.0583 10.1384 690 60.2493 355.362 492.381
259 0 68.0302 9.99556 680 61.5912 355.193 486.76
260 0 72.0544 10.9639 790 59.9595 354.753 487.952
261 0 72.0818 11.2927 814 60.0958 354.796 482.984
262 0 75.1432 10.0342 754 60.8382 354.959 484.603
263 0 75.0872 10.8674 816 60.5907 355.553 479.938
264 0 78.0963 10.9096 852 60.3732 355.007 479.75
265 0 82.209 11.9087 979 58.7834 355.097 480.624
266 0 83.1215 10.8396 901 60.2186 355.204 477.178
267 0 86.1533 12.9421 1115 58.1435 355.23 475.715
268 0 89.1317 9.974 889 61.378 355.089 479.139
269 0 92.225 11.0491 1019 59.9735 355.403 478.255
270 0 94.235 10.7709 1015 61.3773 355.009 470.732
271 1 49.0631 10.4559 513 60.3158 354.495 495.513
272 0 53.2013 12.199 649 57.4777 355.245 497.874
273 0 53.0988 10.8665 577 60.0121 355.222 494.91
274 0 53.1191 10.8436 576 60.5052 355.106 493.389
275 0 56.0555 11.114 623 60.3547 355.056 490.721
276 0 58.1229 10.8219 629 60.7917 355.052 490.37
277 0 59.089 11.2204 663 60.3062 355.272 488.611
278 0 63.059 13.0988 826 58.0448 354.86 488.776
279 0 66.116 11.9789 792 59.1376 354.697 486.99
280 0 68.0516 12.0938 823 58.7862 354.337 489.132
281 0 68.0663 9.91681 675 61.8874 354.292 488.041
282 0 73.0734 13.0554 954 58.0912 354.19 483.111
283 0 75.1346 12.1648 914 58.8972 354.386 486.981
284 0 75.0806 10.8683 816 60.9755 354.668 484.085
285 0 78.1306 12.5303 979 59.1062 355.09 482.544
286 0 80.0511 11.2928 904 60.2721 353.823 482.351
287 0 86.062 11.5731 996 59.8384 354.076 481.794
288 0 88.052 13.2422 1166 58.3216 354.408 478.818
289 0 88.0936 10.3526 912 61.9353 354.522 473.879
290 0 94.1244 12.5897 1185 58.7485 353.819 476.741
291 0 95.1375 12.4031 1180 59.2407 354.144 473.639
292 0 97.1787 13.0173 1265 58.6933 353.575 471.037
293 0 103.087 11.5825 1194 59.8342 353.955 471.965
294 1 53.0309 9.78674 519 60.1233 354.185 494.875
295 0 55.0881 8.96745 494 60.2348 354.458 495.696
296 0 56.0566 11.5954 650 58.2246 353.912 490.585
297 0 60.0596 12.2711 737 57.0298 354.733 490.653
298 0 61.0684 11.1187 679 58.218 354.987 490.177
299 0 61.0439 12.3845 756 57.1349 354.201 486.861
300 0 66.0596 11.1869 739 57.9026 353.93 488.214
301 0 66.049 11.3098 747 57.9652 353.874 485.042
302 0 67.112 12.4121 833 56.8944 353.921 485.58
303 0 68.199 9.83885 671 59.7332 354.346 482.942
304 0 72.0781 11.2517 811 57.9716 354.474 483.982
305 0 75.1103 11.2634 846 57.7104 354.864 483.742
306 0 77.0739 10.8208 834 58.4724 354.451 479.567
307 0 78.1575 11.8735 928 57.7284 354.858 478.006
308 0 81.1567 11.5086 934 57.9636 354.464 476.081
309 0 82.1034 11.4003 936 58.1741 354.86 477.827
310 0 85.1574 11.8956 1013 57.4521 354.908 476.158
311 0 88.0555 12.6398 1113 56.6712 354.101 475.313
312 0 91.2369 11.3551 1036 58.2172 353.952 474.159
313 0 95.2837 13.1712 1255 56.1968 353.706 473.296
314 0 99.1468 11.1249 1103 58.175 354.626 474.466
315 1 47.1492 9.3957 443 58.4289 355.052 498.894
316 0 49.1332 8.83313 434 59.2281 355.304 497.032
317 0 50.0529 11.7276 587 57.4634 354.838 494.698
318 0 53.0799 12.1703 646 56.9737 354.714 492.529
319 0 51.0979 7.53455 385 61.4623 354.184 496.691
320 0 54.0302 10.7532 581 58.463 353.348 493.585
321 0 57.0569 12.286 701 57.224 353.619 490.531
322 0 57.045 12.4989 713 57.5414 353.945 490.957
323 0 61.0909 12.1786 744 57.3427 353.886 491.051
324 0 63.1464 11.9563 755 57.4066 354.117 489.05
325 0 64.0302 10.7762 690 59.2623 353.932 487.046
326 0 69.1192 13.5997 940 55.9128 353.462 485.046
327 0 69.0833 14.2002 981 55.686 354.335 483.989
328 0 70.0716 12.5586 880 57.2818 354.434 486.383
329 0 72.0801 11.4456 825 59.2133 353.718 480.655
330 0 78.0733 13.641 1065 56.0704 353.273 479.715
331 0 79.1407 12.3704 979 57.7406 353.834 480.318
332 0 82.2708 15.8744 1306 54.5521 354.475 475.783
333 0 84.1066 12.282 1033 58.4356 354.896 476.83
334 0 88.1632 12.1706 1073 58.534 355.41 472.506
335 0 92.1171 13.5371 1247 57.1628 355.224 474.208
336 0 94.3712 14.284 1348 56.388 355.441 472.773
337 1 46.0695 8.85618 408 59.8407 355.017 496.434
338 0 49.0919 11.4479 562 56.7313 354.792 495.927
339 0 50.0576 10.8875 545 57.4569 354.743 495.565
340 0 54.0314 12.2336 661 55.1059 354.899 497.474
341 0 51.0311 11.9535 610 56.9869 354.638 494.867
342 0 53.101 11.0732 588 57.8946 354.456 492.857
343 0 53.2162 10.354 551 58.7622 354.45 492.495
344 0 59.0797 12.6778 749 55.9987 353.825 490.376
345 0 60.1206 13.8222 831 55.0156 354.497 491.066
346 0 60.0232 9.92949 596 59.4228 354.609 489.716
347 0 65.0725 12.4323 809 56.8084 354.3 488.744
348 0 66.1135 11.6466 770 58.1896 354.296 486.387
349 0 68.1864 12.2898 838 57.1897 354.408 484.58
350 0 73.0921 12.2448 895 56.7452 354.362 486.768
351 0 72.0943 11.7346 846 58.6088 354.085 482.673
352 0 75.1047 11.4906 863 58.7057 354.023 481.155
353 0 79.1062 11.4909 909 57.3157 353.355 485.296
354 0 80.0675 10.5411 844 59.769 353.669 482.172
355 0 85.047 12.7576 1085 57.5088 352.838 478.875
356 1 43.1564 11.215 484 58.0351 353.752 495.89
357 0 46.0296 12.0575 555 56.2829 353.557 499.4
358 0 46.0527 11.3566 523 57.7323 354.191 497.969
359 0 49.0662 10.5979 520 58.9135 354.204 497.046
360 0 49.0423 11.6022 569 58.3673 354.181 495.16
361 0 51.0938 10.7449 549 59.8033 354.224 494.794
362 0 52.1274 11.7021 610 59.259 354.348 493.807
363 0 53.0408 11.0481 586 59.9437 354.439 495.159
364 0 57.0483 10.3421 590 60.5729 354.724 494.07
365 0 58.0847 11.466 666 59.7958 355.338 492.916
366 0 62.1555 12.2757 763 59.1232 354.729 490.894
367 0 60.0536 9.65804 580 62.9345 354.509 489.75
368 0 64.0536 10.4756 671 60.9881 354.712 491.736
369 0 67.157 12.7611 857 58.8716 354.454 487.755
370 0 67.0804 11.8365 794 60.4169 354.195 482.809
371 0 70.051 11.7486 823 60.0875 354.375 487.558
372 0 75.1429 12.9221 971 58.4933 354.511 486.296
373 0 76.0478 12.6368 961 59.8002 354.204 483.754
374 0 76.1719 10.7914 822 62.1144 354.175 483.041
375 1 37.093 11.9699 444 58.5293 354.624 504.257
376 0 39.0203 10.1998 398 61.1709 354.716 501.563
377 0 39.0374 10.1953 398 61.5452 354.349 500.701
378 0 42.0293 12.8958 542 58.3358 354.386 499.712
379 0 44.0756 10.8223 477 60.826 355.036 500.48
380 0 46.075 12.1758 561 59.1961 355.501 499.333
381 0 45.1007 11.4189 515 61.1612 355.316 497.693
382 0 47.1205 10.4413 492 62.5732 354.565 495.465
383 0 48.0668 11.5672 556 61.4784 354.734 493.626
384 0 51.046 12.8707 657 59.3866 354.446 493.588
385 0 52.0556 12.5827 655 60.0901 353.924 491.725
386 0 52.0432 11.1254 579 61.62 354.458 492.168
387 0 59.0877 12.8792 761 58.8949 354.285 491.94
388 0 57.1634 13.1378 751 59.1944 354.188 490.529
389 0 61.068 10.5292 643 61.661 354.667 491.378
390 0 63.0325 13.2313 834 58.8489 354.085 489.778
391 0 66.1224 11.9173 788 60.0761 354.76 487.798
392 0 66.069 10.8826 719 61.4826 355.223 488.651
393 0 68.1368 10.4202 710 62.0648 354.897 487.384
394 0 71.0737 11.0589 786 61.7595 354.079 483.219
395 0 74.329 11.9065 885 60.8599 354.327 482.63
396 0 76.105 10.3935 791 62.3742 354.549 483.059
397 1 41.0222 9.48268 389 62.4473 354.141 498.45
398 0 42.0492 10.5115 442 60.095 354.753 500.441
399 0 44.0369 11.0135 485 59.7113 354.647 499.27
400 0 45.0262 9.92756 447 61.0134 354.389 497.438
401 0 44.0589 9.73697 429 61.2308 354.336 496.89
402 0 49.086 10.5122 516 60.1124 354.479 495.727
403 0 51.1067 13.1881 674 57.7389 354.386 494.644
404 0 53.0568 10.894 578 59.6713 353.971 492.863
405 0 53.0391 10.2566 544 61.2482 354.41 491.991
406 0 54.1134 9.62792 521 61.9002 354.726 491.683
407 0 59.0953 10.3223 610 60.7918 354.675 491.01
408 0 60.0874 11.4333 687 59.6521 354.309 490.425
409 0 62.077 10.5675 656 61.1128 355.267 489.375
410 0 59.1713 9.00774 533 63.3527 354.55 489.036
411 0 64.0904 9.37738 601 62.4093 354.181 487.992
412 0 65.0889 9.94025 647 62.0062 354.193 485.849
413 0 67.163 10.6904 718 61.3872 354.448 484.953
414 1 33.0216 8.63072 285 62.4702 353.326 500.495
415 0 33.0328 8.23425 272 62.9154 353.713 501.812
416 0 33.0325 9.68742 320 62.1094 353.866 501.244
417 0 37.1458 9.7723 363 61.7355 354.248 499.799
418 0 38.0538 11.7728 448 60.0625 354.232 497.911
419 0 40.0213 10.6193 425 60.2729 354.2 500.631
420 0 42.0545 11.9607 503 59.6203 354.292 496.08
421 0 40.0256 9.34402 374 63.3717 353.797 496.578
422 0 43.0578 10.8923 469 61.7335 355.48 495.964
423 0 44.0928 10.0697 444 62.732 355.236 497.41
424 0 46.065 11.614 535 60.8636 355.394 496.748
425 0 49.0605 10.3138 506 61.3972 355.051 498.613
426 0 50.0294 12.1529 608 59.8816 354.589 493.212
427 0 54.0666 10.8385 586 61.1433 355.188 493.367
428 0 54.0383 11.899 643 60.4619 355.16 491.743
429 0 55.1556 10.0262 553 62.2984 355.217 491.309
430 0 57.0279 10.9946 627 61.2217 355.561 489.113
431 0 60.0596 11.1056 667 60.1094 355.351 491.832
432 0 61.0947 11.4904 702 59.7934 355.594 490.615
433 0 60.0386 11.0429 663 60.9201 355.713 487.769
434 0 66.0622 10.7626 711 60.8467 355.698 486.383
435 0 65.0513 10.8684 707 61.1075 354.952 484.41
436 0 69.1111 8.92766 617 62.6175 354.472 485.041
437 0 72.1414 11.2418 811 59.6486 354.94 484.953
438 0 72.1064 8.90351 642 62.4953 355.623 480.481
439 0 77.0746 12.17 938 58.774 355.314 479.89
440 0 78.0972 10.3717 810 60.6099 355.446 477.614
441 0 81.0819 11.0876 899 59.891 355.184 475.863
442 1 39.0702 11.0058 430 57.7046 355.049 499.605
443 0 39.1315 10.4008 407 57.9681 355.002 499.278
444 0 43.1071 11.5758 499 56.982 355.379 496.701
445 0 43.0322 9.82984 423 58.2884 355.638 497.189
446 0 44.0835 9.32322 411 59.2409 355.769 496.645
447 0 48.0733 10.484 504 57.7877 355.669 496.474
448 0 51.2175 10.6409 545 56.9927 354.976 494.934
449 0 49.0649 11.4542 562 56.6779 356.187 492.053
450 0 53.0954 13.1273 697 54.2252 355.92 494.953
451 0 53.1308 10.8976 579 56.8048 355.765 490.781
452 0 56.0639 12.8068 718 55.0432 355.833 491.205
453 0 57.0824 12.9637 740 54.7595 355.607 490.365
454 0 59.0676 9.76846 577 57.5615 355.995 488.863
455 0 59.1082 10.946 647 56.5379 355.558 485.102
456 0 64.0471 13.131 841 54.3329 354.993 484.816
457 0 65.0633 12.0652 785 55.2382 355.485 485.306
458 0 67.0509 10.6635 715 56.6657 355.436 484.234
459 0 71.0422 11.7254 833 55.7083 355.737 484.132
460 0 74.1082 11.0919 822 55.9416 355.311 483.103
461 0 76.1938 9.46271 721 57.38 355.907 481.531
462 0 79.0523 14.0034 1107 53.4137 355.679 478.566
463 0 82.0793 10.5873 869 56.3245 355.412 479.549
464 1 36.0088 8.08135 291 57.4261 354.904 497.216
465 0 40.0348 11.7648 471 53.983 354.786 497.58
466 0 41.0604 8.79192 361 56.8366 354.753 495.568
467 0 42.0278 10.2313 430 55.7093 355.349 494.472
468 0 43.0236 8.87885 382 56.733 355.12 492.39
469 0 47.0832 9.28144 437 55.984 355.048 492.158
470 0 45.0523 8.1017 365 56.9808 355.521 489.619
471 0 49.0444 12.5193 614 52.9479 356.08 490.5
472 0 51.0184 9.27117 473 55.2495 356.002 494.662
473 0 51.1837 7.32655 375 57.8773 355.787 489.339
474 0 54.0569 11.3214 612 54.3023 355.73 488.072
475 0 56.1055 10.0168 562 55.2224 355.61 487.614
476 0 58.1375 11.3696 661 54.0303 355.528 486.083
477 0 59.0292 11.4011 673 53.896 354.932 485.847
478 0 62.0633 8.63635 536 56.4403 355.265 486.25
479 0 63.0642 9.38726 592 55.7466 354.986 484.838
480 0 64.0702 10.6758 684 54.9693 355.32 482.95
481 0 69.0762 11.5525 798 53.8998 355.271 482.153
482 0 71.0818 10.8326 770 54.6169 354.532 479.244
483 0 75.1737 9.69754 729 55.4129 355.273 478.151
484 0 77.2888 9.26396 716 55.7668 355.18 479.11
485 0 79.1541 9.94264 787 55.1677 355.991 475.69
486 0 82.1217 11.2029 920 54.2109 355.014 474.433
487 1 46.0723 10.1145 466 52.7167 355.311 495.485
488 0 45.0658 9.1422 412 53.9466 355.434 496.522
489 0 48.0411 8.61763 414 53.93 356.205 496.558
490 0 47.0815 9.51541 448 53.5179 356.241 496.248
491 0 51.0178 11.1922 571 52.3573 356.126 491.856
492 0 51.083 9.00496 460 53.75 356.546 492.415
493 0 53.217 11.1618 594 51.9832 355.367 491.404
494 0 57.112 11.7313 670 51.2328 355.909 488.094
495 0 57.0538 10.3937 593 52.7842 356.295 488.049
496 0 59.0955 9.17159 542 53.1697 356.1 488.707
497 0 62.0634 10.8921 676 51.9379 356.072 485.512
498 0 66.1233 13.1572 870 50.2805 356.805 483.239
499 0 69.2026 11.8059 817 50.6658 356.431 483.023
500 0 69.1546 10.209 706 52.551 355.861 480.04
501 0 72.1787 11.1806 807 51.777 356.108 481.338
502 0 76.2878 13.3049 1015 49.666 355.777 477.677
503 0 78.2783 12.2001 955 50.3916 355.488 481.363
504 0 80.104 12.2591 982 50.9328 355.551 474.018
505 0 83.0853 12.5052 1039 51.0106 355.11 473.373
506 0 89.1484 10.8695 969 52.1641 355.386 472.7
507 1 41.0144 10.1428 416 51.9904 355.608 495.202
508 0 43.0442 11.221 483 51.3106 355.708 493.563
509 0 46.102 9.21868 425 52.8518 355.793 493.447
510 0 45.0539 11.4973 518 51.0348 355.583 496.224
511 0 48.0476 11.5302 554 51.1606 355.664 493.857
512 0 49.0755 11.0035 540 52.6056 355.937 491.596
513 0 54.0929 12.7189 688 51.1352 355.638 492.254
514 0 55.0794 11.2383 619 52.378 356.17 492.105
515 0 55.0413 12.8267 706 51.6884 356.312 489.242
516 0 59.2354 12.8639 762 52.3451 355.535 488.785
517 0 57.1198 11.0119 629 54.6693 356.003 490.218
518 0 64.1303 10.9621 703 54.4652 355.764 487.128
519 0 64.0387 11.087 710 54.9366 355.925 483.831
520 0 65.0821 10.2025 664 56.3584 355.845 484.06
521 0 67.0998 11.4307 767 55.3664 355.927 481.325
522 0 70.0518 12.7049 890 54.5573 355.582 482.352
523 0 74.1485 10.2632 761 56.615 355.35 482.562
524 0 75.0796 13.6788 1027 53.5394 355.511 479.884
525 0 79.1665 12 950 54.8642 355.488 479.608
526 0 79.1758 12.0491 954 54.9623 354.795 477.531
527 0 82.0972 11.194 919 55.7943 354.367 478.094
528 0 86.1115 11.0438 951 55.9022 354.727 478.844
529 0 90.1172 10.9413 986 56.0822 355.187 476.766
530 0 89.0512 11.0049 980 56.651 355.024 475.216
531 0 96.087 11.0213 1059 56.8102 354.496 470.822
532 1 49.08 9.06683 445 57.6202 354.903 493.499
533 0 51.0832 11.2953 577 55.9844 355.371 493.56
534 0 53.0298 10.3338 548 57.2172 355.398 491.08
535 0 57.0969 9.84292 562 57.2349 355.665 491.096
536 0 57.1694 12.2093 698 55.649 355.597 489.438
537 0 59.1444 11.2775 667 56.7466 356.145 488.903
538 0 61.0783 9.87257 603 58.2405 355.653 487.849
539 0 63.0837 10.6842 674 58.2849 355.872 484.981
540 0 66.0993 11.4827 759 56.7088 355.813 487.787
541 0 68.2752 10.1794 695 59.0374 355.691 482.299
542 0 71.0646 10.793 767 57.7784 355.128 484.347
543 0 75.182 13.0217 979 55.5516 354.782 484.267
544 0 77.1216 13.2777 1024 55.7148 355.134 482.057
545 0 78.1974 10.6142 830 58.9916 354.824 475.352
546 0 82.2677 11.025 907 58.936 355.126 474.75
547 1 41.0289 10.8216 444 57.7432 355.622 497.806
548 0 41.04 9.55166 392 59.0485 354.962 498.566
549 0 41.041 10.2337 420 59.3429 355.055 496.629
550 0 44.0613 11.1209 490 58.0939 355.318 495.265
551 0 46.0862 11.2398 518 57.9189 355.759 496.68
552 0 47.0167 13.1868 620 56.321 355.931 493.829
553 0 48.1399 9.26466 446 60.4933 355.771 493.948
554 0 50.0599 10.4675 524 59.5344 355.553 493.227
555 0 51.1543 10.6931 547 58.8757 355.708 492.484
556 0 53.1636 12.0195 639 57.4898 355.546 491.748
557 0 54.0849 11.5374 624 58.2692 355.527 488.99
558 0 56.127 10.9395 614 58.7427 355.847 486.604
559 0 57.1103 9.50792 543 60.7017 355.591 487.595
560 0 61.147 12.6744 775 56.3794 355.524 490.775
561 0 61.0869 11.41 697 58.2023 355.29 490.088
562 0 68.1084 12.8472 875 56.432 355.674 487.934
563 0 67.133 12.2741 824 57.2488 355.839 489.733
564 0 69.0831 12.1737 841 57.3971 355.727 486.621
565 0 72.072 11.1 800 58.6062 356.235 484.434
566 0 72.1075 10.942 789 58.8948 355.99 484.683
567 0 77.1588 11.8457 914 57.9179 355.397 483.024
568 0 79.0665 12.7867 1011 56.9733 355.379 480.533
569 1 39.0818 9.87673 386 59.2539 354.277 496.668
570 0 44.1133 11.6065 512 56.8457 354.709 498.334
571 0 44.0634 13.9345 614 55.0831 355.031 499.042
572 0 43.0597 9.3591 403 61.1414 355.779 496.856
573 0 46.0633 11.4408 527 58.2372 355.288 497.543
574 0 50.0923 10.5206 527 59.0493 355.647 495.133
575 0 49.1266 12.1116 595 58.0622 355.54 492.358
576 0 50.0447 11.9493 598 58.5502 356.254 493.38
577 0 52.1171 11.3782 593 58.8145 355.774 494.165
578 0 53.0581 15.2663 810 55.4123 355.952 490.012
579 0 55.0598 11.3513 625 59.2768 355.232 489.502
580 0 57.022 9.82076 560 60.1946 355.171 492.198
581 0 58.0745 10.0733 585 60.5248 355.104 488.903
582 0 62.0563 12.3598 767 58.2451 354.733 484.417
583 0 66.1901 13.295 880 56.7886 354.39 487.075
584 0 66.0548 11.8084 780 58.9538 354.382 483.406
585 0 71.0877 12.8152 911 57.2843 354.181 484.98
586 0 70.1506 11.2045 786 59.5165 354.127 482.482
587 0 75.1041 10.7584 808 59.8688 354.812 481.557
588 1 36.0797 10.1996 368 59.3777 355.071 501.155
589 0 36.0668 11.9501 431 58.761 354.886 499.629
590 0 39.0851 9.13392 357 60.5406 355.176 499.423
591 0 41.0278 12.7475 523 57.4589 355.258 497.289
592 0 43.0171 12.0417 518 58.1371 355.444 493.72
593 0 44.046 11.0566 487 59.0657 355.546 494.402
594 0 48.0472 13.0913 629 56.5119 355.3 493.951
595 0 47.0396 10.8632 511 59.5616 354.894 493.258
596 0 50.0316 11.053 553 58.2007 355.306 494.801
597 0 47.0459 11.7757 554 58.5975 354.857 492.91
598 0 53.0503 11.9321 633 57.7425 354.962 492.615
599 0 54.2537 11.5384 626 58.8147 355.184 490.444
600 0 56.0869 13.0155 730 56.8685 355.442 491.386
601 0 55.0547 11.9699 659 58.9514 355.71 487.263
602 0 59.1594 13.2861 786 56.5127 355.386 488.024
603 0 59.0541 10.7867 637 60.0204 355.636 486.154
604 0 62.1147 11.5915 720 58.5792 355.018 486.481
605 0 65.0777 10.5412 686 59.2566 355.452 485.216
606 0 67.1878 12.2939 826 58.2482 355.657 483.402
607 0 71.0653 13.2273 940 57.0319 354.771 481.7
608 0 71.1832 12.8682 916 57.7969 355.422 478.872
609 0 74.0265 11.3878 843 58.8304 354.967 482.075
610 0 78.1424 12.8867 1007 57.3833 354.934 480.628
611 1 37.0974 9.46159 351 59.4359 354.929 499.245
612 0 40.0962 11.3477 455 56.9319 354.279 499.448
613 0 40.0521 8.66371 347 61.4121 354.651 494.651
614 0 44.1193 12.4435 549 57.0838 355.04 495.497
615 0 45.1722 9.82906 444 59.4189 355.153 497.113
616 0 47.0613 11.6869 550 57.8782 354.822 495.487
617 0 47.2726 11.402 539 58.3859 355.165 496.774
618 0 50.2175 11.8485 595 58.5563 354.582 493.775
619 0 52.078 11.5212 600 58.3983 354.27 494.065
620 0 53.0275 9.44793 501 60.489 354.589 492.156
621 0 55.1237 13.8053 761 56.1038 355.3 491.809
622 0 56.0576 11.4704 643 59.0233 355.484 488.848
623 0 56.0806 10.3066 578 60.5536 355.573 488.749
624 0 59.1089 12.5869 744 57.8454 355.602 488.05
625 0 61.0526 10.8759 664 59.738 355.474 487.101
626 0 65.1132 12.9006 840 57.3595 355.035 485.711
627 0 65.0844 8.80396 573 61.4887 355.028 487.246
628 0 70.1334 12.5475 880 57.9148 355.29 483.384
629 0 69.1472 13.1893 912 57.8246 354.976 482.702
630 0 75.1234 11.9803 900 58.8344 355.491 480.853
631 0 76.2128 11.7434 895 59.2581 355.602 480.661
632 1 40.0569 11.7832 472 57.2924 355.797 499.271
633 0 42.0431 10.4179 438 58.9315 355.548 499.089
634 0 41.017 11.2149 460 59.5544 356.05 497.387
635 0 44.0311 10.5834 466 60.3541 355.642 493.964
636 0 44.0383 11.1948 493 60.2536 355.103 495.136
637 0 48.0336 9.68072 465 60.4344 354.656 494.417
638 0 46.1014 11.2795 520 60.0596 355.365 494.462
639 0 49.177 11.2451 553 60.1646 355.02 491.512
640 0 52.0659 11.6199 605 59.0645 355.311 493.749
641 0 50.078 10.4038 521 61.6257 355.328 491.023
642 0 54.0664 11.6338 629 59.9952 354.865 489.696
643 0 56.1491 10.4009 584 60.7894 354.767 491.947
644 0 57.1039 12.3984 708 59.1497 355.213 487.117
645 0 59.2552 12.2521 726 59.3333 354.853 488.426
646 0 62.0182 13.0123 807 58.8451 354.378 485.704
647 0 63.058 11.5925 731 60.0547 354.369 486.627
648 0 66.206 13.9262 922 57.5163 355.426 486.321
649 0 69.1355 11.1665 772 60.3251 355.648 483.194
650 0 70.0213 11.0823 776 61.2216 355.276 482.385
651 1 36.0097 11.5802 417 59.9281 355.564 500.489
652 0 38.0685 10.1659 387 60.8553 354.734 499.315
653 0 39.1258 11.1691 437 59.9748 355.224 499.68
654 0 39.0306 10.3765 405 61.316 354.714 496.793
655 0 40.0747 10.3058 413 61.3874 355.952 497.538
656 0 43.0544 10.9396 471 60.5584 355.713 496.227
657 0 48.099 10.4368 502 60.4502 354.751 494.833
658 0 47.0701 11.9184 561 59.2745 354.481 494.547
659 0 48.0274 12.2847 590 59.0627 354.753 492.386
660 0 48.0906 13.4538 647 58.1206 354.844 492.291
661 0 51.1388 12.339 631 59.1315 355.185 489.574
662 0 55.1063 12.612 695 58.5727 355.161 489.315
663 0 57.1524 11.5131 658 59.2492 355.327 492.018
664 0 56.0865 10.6799 599 61.5626 355.094 485.426
665 0 60.1408 11.2735 678 60.1711 354.56 486.475
666 0 62.0277 11.9463 741 59.5695 354.795 485.586
667 0 65.159 11.1266 725 60.2152 354.593 485.425
668 0 64.089 10.1109 648 61.9059 354.634 485.694
669 0 69.1003 10.767 744 61.0108 355.276 484.031
670 0 73.0674 11.072 809 60.4351 355.129 481.438
671 1 39.0392 11.6037 453 58.457 354.651 497.327
672 0 39.0356 10.0934 394 61.3147 354.86 494.695
673 0 41.0808 11.2948 464 59.694 354.534 495.474
674 0 43.0595 11.4028 491 59.2037 354.246 496.55
675 0 44.05 12.1226 534 59.5375 354.944 493.85
676 0 47.0528 12.4116 584 58.7072 354.12 490.808
677 0 48.063 9.36272 450 61.6156 353.736 490.756
678 0 50.0503 12.7072 636 58.1604 353.995 487.807
679 0 53.0975 10.2076 542 60.666 354.138 487.753
680 0 53.0339 11.5021 610 59.1541 354.661 487.885
681 0 53.0339 11.4832 609 115.654 354.652 487.86
682 0 57.0363 10.3092 588 60.1837 354.325 482.497
683 0 57.0586 9.13097 521 61.5931 354.244 486.301
684 0 61.1468 10.6792 653 59.4318 354.006 484.568
685 0 63.1231 10.8993 688 59.577 354.31 483.429
686 0 63.0618 9.89506 624 60.6266 354.293 481.921
687 0 67.0946 11.998 805 58.0248 355.415 479.473
688 0 72.1022 10.4435 753 59.0651 355.029 480.131
689 0 72.0526 12.1439 875 57.6731 354.982 475.469
690 0 74.075 9.46338 701 59.6505 355.874 478.705
691 1 36.0202 8.35643 301 60.0365 355.678 495.365
692 0 40.2079 10.2716 413 57.5956 355.412 493.874
693 0 41.0289 12.3572 507 55.7022 355.195 493.045
694 0 45.0372 8.81494 397 58.6625 355.176 492.39
695 0 44.0734 10.9817 484 56.8099 354.74 488.147
696 0 45.0501 9.9001 446 57.9753 353.93 488.984
697 0 46.0947 7.65815 353 60.2153 354.371 485.487
698 0 48.0357 9.18067 441 58.6122 354.227 485.351
699 0 54.0975 12.422 672 54.5536 354.321 486.632
700 0 54.0891 10.8525 587 57.1414 354.576 486.359
701 0 57.0621 11.0231 629 56.6582 355.374 486.432
702 0 57.0606 11.9697 683 56.3646 355.568 485.269
703 0 60.1907 11.1977 674 56.9228 355.657 484.853
704 0 62.1679 11.5655 719 56.8595 355.214 482.488
705 0 63.1593 9.61062 607 59.1153 355.142 482.72
706 0 68.0932 10.75 732 57.4112 355.999 482.44
707 0 69.0909 13.171 910 54.9209 356.059 481.203
708 0 70.0769 10.517 737 57.8399 355.11 476.775
709 0 75.2278 12.0966 910 56.1582 356.208 478.097
710 0 76.0554 11.7546 894 57.3904 356.24 475.745
711 1 37.0205 9.48124 351 57.2365 356.239 495.353
712 0 39.1071 9.28221 363 57.1432 355.981 494.342
713 0 39.0939 10.155 397 56.5113 355.111 492.239
714 0 38.1073 9.13211 348 58.3218 354.876 492.69
715 0 44.0752 10.6863 471 56.5499 355.093 489.994
716 0 45.0918 10.8002 487 56.8563 354.754 490.889
717 0 44.118 10.2452 452 57.4248 354.241 489.841
718 0 46.1913 12.34 570 55.4 354.563 489.419
719 0 47.132 12.221 576 55.0556 355.257 491.616
720 0 52.1058 10.8049 563 56.6234 355.06 487.025
721 0 50.0805 10.6029 531 57.6422 354.497 489.088
722 0 54.1379 11.0459 598 56.8696 355.139 488.042
723 0 56.0623 12.5931 706 55.3541 355.091 487.079
724 0 57.1578 12.5442 717 55.5816 354.855 486.969
725 0 60.0748 12.4678 749 55.9479 354.617 481.486
726 0 59.1633 10.5809 626 58.5559 354.479 482.551
727 0 63.1644 11.3513 717 57.2441 353.755 482.389
728 0 66.0884 11.6511 770 57.0338 354.731 479.221
729 0 68.1075 12.1426 827 56.4389 353.842 477.347
730 0 71.1364 10.8524 772 57.8731 354.924 477.139
731 0 71.0563 10.1047 718 58.2716 354.996 481.861
732 0 75.0868 11.7464 882 56.8016 354.805 474.651
733 0 74.0908 12.1608 901 56.9268 355.06 475.433
734 0 80.1482 12.0901 969 56.709 355.352 472.132
735 0 83.083 12.4454 1034 56.1828 355.469 473.331
736 0 84.0946 11.6298 978 57.5675 354.778 470.498
737 1 43.0448 10.5936 456 57.6996 354.822 492.474
738 0 33.0509 6.68665 221 63.1312 354.846 484.728
739 1 49.0954 8.65661 425 60.4 355.212 445.014
740 0 50.0541 12.8461 643 55.3359 354.764 490.109
741 0 47.0784 9.72846 458 59.2664 354.382 490.845
742 0 50.0447 10.8903 545 58.8239 354.857 488.108
743 0 55.0754 12.2922 677 55.8818 354.897 489.258
744 0 58.0341 13.113 761 54.8633 354.949 489.217
745 0 58.0929 13.5817 789 55.1838 354.536 486.413
746 0 59.0549 12.5646 742 56.4245 354.449 488.113
747 0 59.0885 11.3558 671 58.2578 355.222 485.601
748 0 65.1263 11.7925 768 57.3255 354.732 483.452
749 0 64.2671 10.9543 704 58.9446 354.409 481.493
750 0 68.1067 12.6566 862 56.6218 355.099 482.416
751 0 71.2261 12.8324 914 56.9781 355.204 480.046
752 0 73.0988 13.7485 1005 55.993 354.22 480.419
753 0 71.0999 13.3193 947 56.9599 354.873 480.842
754 0 77.1411 12.3281 951 57.7245 355.502 477.778
755 0 80.1403 11.4674 919 58.5528 354.834 476.557
756 0 79.1254 11.4628 907 59.1014 355.143 475.427
757 0 85.1891 13.2998 1133 56.9885 354.835 474.086
758 1 44.0955 10.4773 462 58.5346 354.615 493.887
759 0 47.0482 12.1365 571 56.9142 354.914 492.427
760 0 49.018 11.7304 575 57.2035 354.837 491.624
761 0 48.0938 12.1429 584 57.9092 355.05 489.396
762 0 50.0253 11.9739 599 57.6544 354.731 489.032
763 0 52.0545 12.5638 654 55.2324 355.229 490.347
764 0 53.0212 12.7873 678 55.4395 355.473 488.712
765 0 55.1642 13.3601 737 54.8277 354.989 487.798
766 0 58.0451 13.679 794 54.5592 355.482 486.132
767 0 61.1799 13.8771 849 53.722 354.674 483.992
768 0 60.1018 11.7301 705 56.5106 354.63 485.501
769 0 63.2103 12.0233 760 55.9329 355.15 482.987
770 0 67.1552 13.9676 938 53.629 355.254 483.949
771 0 66.0837 12.2723 811 55.1689 355.482 486.015
772 0 69.1258 13.8443 957 54.1275 355.062 483.424
773 0 71.1326 13.0601 929 55.3079 354.771 480.456
774 0 73.1226 13.3474 976 55.2234 355.054 477.748
775 0 75.1767 12.5305 942 55.9395 354.831 477.585
776 0 81.2808 13.7056 1114 54.1652 354.144 478.057
777 0 82.1161 12.2875 1009 55.9306 355.014 476.172
778 0 85.0917 12.0811 1028 56.073 354.983 477.445
779 0 88.1111 14.4023 1269 53.9764 354.575 473.604
780 1 45.1918 12.2367 553 55.3671 354.501 493.239
781 0 48.0719 12.7725 614 54.7541 354.34 493.555
782 0 50.018 13.6951 685 53.6788 355.042 493.896
783 0 50.0497 10.7693 539 56.9388 354.653 492.455
784 0 50.0211 10.7755 539 58.0835 353.852 487.872
785 0 55.121 11.0666 610 56.8541 354.395 489.851
786 0 54.0193 10.922 590 56.9288 354.108 489.505
787 0 57.0658 12.4242 709 55.8181 354.64 485.955
788 0 59.0482 13.1757 778 55.0861 354.702 484.504
789 0 59.0949 13.7406 812 54.8091 354.701 482.808
790 0 62.0289 12.8972 800 54.9812 354.142 483.964
791 0 67.0624 12.1529 815 54.6503 354.266 484.486
792 0 67.0521 12.4978 838 55.0811 354.044 481.538
793 0 69.2429 12.059 835 55.9246 354.005 479.115
794 0 70.2158 12.1625 854 55.8185 354.96 478.79
795 0 74.2462 10.8692 807 56.8996 355.221 478.701
796 0 75.0768 12.8135 962 55.4595 354.91 472.764
797 0 80.1611 11.9135 955 56.6314 354.719 472.665
798 0 84.0698 12.4064 1043 55.6491 354.948 471.536
799 0 86.0831 11.5934 998 56.6262 354.709 471.842
800 0 89.0787 12.764 1137 56.0449 354.624 469.326
801 0 91.1407 12.563 1145 56.9214 355.178 467.276
802 1 45.0672 11.738 529 55.4348 355.469 491.539
803 0 46.1442 11.074 511 56.775 354.93 488.785
804 0 50.1034 11.7756 590 55.5898 355.41 488.976
805 0 52.1025 12.0724 629 55.566 355.494 487.773
806 0 53.0621 9.93175 527 58.6964 354.454 485.951
807 0 56.1621 12.5886 707 55.2277 354.82 489.245
808 0 57.0776 12.4392 710 56.2789 355.501 486.632
809 0 60.084 12.8154 770 56.1701 355.351 486.273
810 0 60.0621 13.7358 825 56.3673 355.487 483.662
811 0 59.0543 10.2787 607 60.6606 355.295 483.824
812 0 62.0493 10.2821 638 60.9326 355.729 480.5
813 0 68.1532 12.2665 836 58.2667 355.618 482.867
814 0 68.1444 12.3708 843 58.6429 354.631 480.33
815 0 71.1714 13.2357 942 58.448 354.331 476.446
816 0 72.1397 10.8262 781 61.1204 354.353 475.432
817 0 74.0823 12.1621 901 60.3907 354.115 471.608
818 1 41.1555 11.5902 477 57.4591 354.532 495.182
819 0 39.0551 9.03852 353 62.1785 354.654 493.164
820 0 38.0138 9.52285 362 62.5718 355.215 491.928
821 0 43.0443 10.3382 445 61.5191 355.294 492.454
822 0 47.0432 13.0518 614 58.0342 355.402 490.995
823 0 47.0561 10.4981 494 61.3036 355.356 490.885
824 0 48.1168 12.6983 611 59.5172 355.226 489.047
825 0 50.1275 12.2089 612 60.5408 355.283 486.748
826 0 50.1484 11.4261 573 61.5445 355.164 485.644
827 0 52.0318 9.97466 519 63.4624 354.788 485.543
828 0 55.0401 11.1373 613 61.6166 355.564 485.715
829 0 56.0201 10.6569 597 62.7638 355.499 482.757
830 0 59.1211 10.284 608 62.6941 355.441 483.271
831 0 60.1065 11.0637 665 62.1113 355.159 480.895
832 0 62.0434 11.4597 711 61.6554 355.056 479.581
833 0 65.0716 8.59054 559 64.4741 355.005 476.592
834 0 69.0926 10.9129 754 61.1538 354.874 480.785
835 0 71.1122 9.60455 683 62.8258 355.019 478.334
836 1 33.1627 9.0463 300 62.2467 354.583 495.047
837 0 37.0296 10.3431 383 61.752 355.501 495.125
838 0 39.086 9.95242 389 61.8123 356.039 491.92
839 0 41.0756 10.0546 413 60.7119 355.731 491.637
840 0 42.1634 9.24973 390 61.641 355.5 492.936
841 0 43.1777 9.81989 424 61.0212 355.368 490.134
842 0 45.0606 12.0948 545 60.6679 355.881 488.593
843 0 47.0398 13.0528 614 58.2117 356.121 488.033
844 0 53.0461 12.6117 669 56.7982 355.405 490.665
845 0 51.1141 12.6384 646 58.5464 355.195 485.926
846 0 51.1042 10.5471 539 60.4471 355.059 486.683
847 0 54.2434 13.1629 714 57.2157 355.001 488.678
848 0 57.0716 12.6157 720 57.9667 355.36 486.45
849 0 59.1239 10.774 637 59.9231 354.964 484.124
850 0 58.1898 12.5623 731 58.9138 354.524 479.94
851 0 63.2325 14.502 917 56.349 354.784 480.972
852 0 64.111 14.6465 939 56.7625 355.022 479.11
853 0 66.2492 13.9473 924 57.0465 355.081 478.241
854 0 69.2139 12.8153 887 58.4679 355.127 477.14
855 0 69.0316 11.473 792 60.3081 355.134 476.76
856 1 37.0492 9.95973 369 59.7317 354.997 494.16
857 0 39.064 11.0844 433 59.8568 355.095 491.919
858 0 42.028 10.9927 462 58.8983 355.147 493.381
859 0 42.0641 11.53 485 58.365 354.81 492.643
860 0 46.1822 13.2735 613 56.2529 355.29 492.718
861 0 46.1081 11.1044 512 59.2344 355.371 490.461
862 0 47.0942 12.2096 575 57.8765 355.198 490.198
863 0 46.0221 11.2772 519 59.8285 354.732 488.351
864 0 47.012 8.48719 399 62.8446 355.789 488.747
865 0 51.0611 11.5352 589 59.8557 355.795 484.214
866 0 53.0464 12.5739 667 58.3883 356.112 486.009
867 0 57.0692 14.4036 822 56.2372 355.808 485.569
868 0 55.0535 9.49985 523 61.8776 355.489 485.08
869 0 60.122 12.9902 781 58.0551 355.434 484.941
870 0 58.0516 9.83608 571 62.7093 355.333 483.299
871 0 64.0977 12.0909 775 59.3536 355.066 482.819
872 0 64.1018 11.6689 748 60.5241 354.636 477.57
873 0 66.1411 12.4582 824 59.8143 355.096 480.733
874 0 68.1822 12.1879 831 60.775 355.047 479.442
875 0 73.1732 13.9942 1024 58.2324 355.054 477.45
876 0 75.0928 14.0759 1057 58.7124 354.876 475.339
877 0 75.1606 13.4911 1014 59.9458 354.629 471.659
878 0 78.0847 12.2687 958 61.3706 354.53 472.887
879 0 82.1084 13.5796 1115 59.5614 355.13 474.318
880 0 82.1247 13.029 1070 60.5458 355.612 474.267
881 1 41.0448 9.86726 405 63.3062 355.706 489.44
882 0 44.0591 12.5513 553 60.1754 355.76 490.85
883 0 46.0899 11.0002 507 62.0079 355.882 488.903
884 0 47.0806 10.79 508 62.3937 355.795 486.722
885 0 48.0693 10.6305 511 63.137 355.556 487.121
886 0 51.0874 14.7982 756 58.3188 355.893 487.471
887 0 49.0401 11.5212 565 63.2 355.846 486.6
888 0 54.05 11.2303 607 62.5535 355.736 485.868
889 0 54.0637 11.1165 601 63.2729 355.221 481.571
890 0 58.1241 12.2324 711 61.1561 355.271 485.236
891 0 56.0242 10.8703 609 63.9195 355.138 480.378
892 0 61.0621 12.1024 739 61.7334 355.512 480.256
893 0 62.0192 12.738 790 60.9392 354.832 481.09
894 0 64.2171 12.7069 816 61.0833 355.094 479.566
895 0 67.1163 11.3087 759 62.2885 355.038 476.765
896 0 70.0524 12.7476 893 60.6103 355.588 476.006
897 0 72.1303 10.5503 761 63.0552 355.435 477.47
898 0 74.0787 11.9197 883 61.923 355.613 474.308
899 0 78.0736 11.9887 936 61.2511 355.271 472.939
900 1 38.1139 9.78647 373 60.9893 355.086 490.016
901 0 41.1151 10.9692 451 59.2262 355.239 488.965
902 0 38.1015 9.92086 378 61.7064 356.056 489.071
903 0 41.0277 10.822 444 59.518 355.662 491.714
904 0 43.0517 9.84863 424 60.6439 355.823 489.646
905 0 45.0314 10.2151 460 60.5783 355.059 486.587
906 0 45.0243 7.86242 354 63.3616 355.412 487.218
907 0 49.1009 10.3461 508 61.0177 355.553 485.307
908 0 52.0463 12.7771 665 58.2271 355.564 485.053
909 0 55.142 11.7152 646 58.9381 355.814 482.638
910 0 56.0429 11.1522 625 59.8128 355.486 482.139
911 0 58.0987 11.5837 673 58.9495 355.091 481.129
912 0 57.0194 10.5227 600 60.3983 355.068 482.757
913 0 61.1541 10.3019 630 60.7508 355.649 479.302
914 0 63.1067 12.2808 775 58.9368 355.239 476.925
915 0 65.0335 10.7791 701 60.0228 355.342 478.378
916 0 69.0299 11.9369 824 58.5922 355.433 474.893
917 0 70.0328 10.9806 769 59.9701 355.391 472.217
918 0 73.0577 12.1274 886 58.6162 355.687 471.885
919 0 76.0717 12.3962 943 58.0202 355.979 471.102
920 0 81.1335 11.1421 904 59.354 355.984 469.5
921 1 41.0358 8.84593 363 59.4518 355.95 489.383
922 0 39.0089 8.17762 319 60.0314 355.84 491.285
923 0 42.0649 10.2223 430 58.507 354.393 487.535
924 0 43.0244 11.7143 504 56.871 354.79 486.752
925 0 44.1053 8.57041 378 59.9815 353.942 487.833
926 0 48.0435 11.6561 560 56.7357 355.054 487.868
927 0 47.0946 9.49153 447 58.8949 355.188 488.492
928 0 50.0586 10.9472 548 57.6661 354.905 485.106
929 0 51.1723 10.5135 538 58.0613 355.011 482.74
930 0 52.0634 8.54728 445 60.0157 354.247 483.712
931 0 54.0742 9.9123 536 58.819 354.112 481.209
932 0 57.1439 10.8848 622 57.7267 353.365 480.373
933 0 62.054 11.6995 726 56.4669 353.647 481.595
934 0 63.0689 14.2225 897 54.5652 354.553 478.678
935 0 65.1311 9.64209 628 59.4952 354.914 479.167
936 0 66.0637 10.8986 720 58.6625 354.458 478.335
937 0 70.0642 11.3039 792 57.5076 354.535 478.083
938 0 73.037 11.7749 860 57.2372 353.673 476.116
939 1 37.0679 9.76585 362 57.6436 354.337 495.039
940 0 36.0481 10.7357 387 58.0052 354.22 491.039
941 0 38.0253 9.3622 356 58.618 354.374 491.438
942 0 39.0277 9.58294 374 58.869 354.163 488.671
943 0 41.0158 12.5561 515 55.2447 354.019 490.808
944 0 39.0718 10.9798 429 56.965 353.538 491.016
945 0 44.0941 10.1374 447 57.8255 353.121 487.454
946 0 46.0311 9.81945 452 58.1659 353.285 486.363
947 0 47.0379 9.88564 465 57.7656 352.581 486.325
948 0 47.0195 10.5488 496 57.9153 352.683 485.984
949 0 50.0434 11.2702 564 56.6702 353.053 484.014
950 0 50.0849 10.2825 515 57.9068 353.32 484.219
951 0 53.0583 10.6298 564 56.3901 353.484 487.138
952 0 54.0664 11.0235 596 56.9765 352.946 479.901
953 0 56.0417 11.0275 618 56.5874 353.319 482.146
954 0 60.115 11.1952 673 56.6226 353.281 482.162
955 0 63.0668 12.7167 802 54.2606 353.327 478.874
956 0 65.0264 9.90367 644 56.9876 353.3 477.665
957 0 65.0294 10.6567 693 56.0563 353.079 477.734
