index division length width area intensity CMx CMy
1908 0 71.1735 11.9005 847 140.607 857.93 497.058
1909 0 74.1836 12.0512 894 135.61 859.569 495.345
1910 0 76.1339 11.795 898 138.941 858.967 494.315
1911 0 77.191 11.8796 917 135.373 859.164 493.451
1912 0 77.191 11.8796 917 155.939 859.164 493.451
1913 0 83.4625 11.9335 996 137.903 858.978 490.87
1914 0 83.2467 12.0245 1001 129.69 858.974 490.269
1915 0 85.4826 11.9907 1025 151.265 857.978 489.841
1916 0 88.2909 11.8245 1044 148.342 855.774 488.213
1917 0 92.2953 12.0916 1116 147.807 856.927 486.695
1918 0 95.3766 12.0365 1148 143.183 857.062 485.761
1919 0 97.2129 12.2 1186 154.776 856.253 483.728
1920 0 101.234 12.2686 1242 149.507 857.03 483.134
1921 0 103.285 12.4607 1287 150.634 856.973 481.686
1922 0 104.374 12.6564 1321 89.1991 856.098 481.187
1923 0 109.326 12.8606 1406 148.677 856.71 479.426
1924 0 117.374 12.9245 1517 150.16 857.191 475.802
1925 0 117.487 12.8184 1506 148.135 856.735 475.279
1926 0 119.248 12.5705 1499 159.416 856.49 475.234
1927 0 122.477 13.031 1596 154.69 857.367 472.988
1928 0 126.594 13.2234 1674 151.449 855.975 470.977
1929 0 133.417 12.847 1714 159.62 858.435 468.934
1930 0 131.486 13.203 1736 160.37 857.79 468.077
1931 0 139.305 13.0289 1815 164.201 857.978 465.18
1932 0 143.532 13.1748 1891 156.032 859.034 461.722
1933 0 148.525 12.6645 1881 164.668 858.252 460.753
1934 0 153.343 12.7622 1957 160.888 856.996 457.577
1935 0 157.534 12.9432 2039 165.702 857.767 456.052
1936 0 164.567 12.9127 2125 167.699 858.277 452.68
1937 0 167.671 13.27 2225 167.418 858.103 452.078
1938 0 170.918 13.1876 2254 169.816 856.686 450.137
1939 0 175.958 13.0998 2305 168.086 857.028 447.539
1940 0 180.887 13.0081 2353 166.481 857.397 445.455
1941 1 139.476 12.2243 1705 159.408 857.713 464.493
1942 0 139.476 12.2243 1705 169.585 857.713 464.493
1943 0 146.599 12.4149 1820 165.834 856.879 459.481
1944 0 152.603 12.4571 1901 160.203 857.734 457.81
1945 0 156.999 12.6179 1981 170.868 856.298 455.411
1946 0 156.999 12.6179 1981 174.803 854.298 455.411
1947 1 167.597 12.8523 2154 164.534 859.466 450.332
1948 0 174.696 12.7249 2223 167.538 857.706 447.514
1949 0 180.606 13.0727 2361 161.029 858.369 443.632
1950 0 186.512 12.5676 2344 168.667 857.433 441.701
1951 0 193.612 12.7833 2475 169.271 857.111 437.705
1952 0 199.755 12.7256 2542 170.548 858.242 435.153
1953 0 207.771 12.7737 2654 163.437 858.426 432.179
1954 0 213.837 12.8228 2742 161.004 857.023 429.643
1955 0 220.622 12.6234 2785 153.676 856.716 424.854
1956 0 231.912 13.0394 3024 170.057 856.376 420.62
1957 0 238.297 12.8999 3074 161.539 858.513 417.927
1958 0 243.032 13.0765 3178 157.999 856.151 415.121
1959 0 251.041 13.1492 3301 166.231 855.518 413.683
1960 0 258.259 13.1341 3392 168.344 856.156 409.458
1961 1 220.119 12.2207 2690 167.672 858.479 430.919
1962 0 225.194 12.6202 2842 165.316 858.336 425.724
1963 1 139.642 12.6681 1769 171.92 859.63 464.963
1964 0 147.109 12.7252 1872 174.189 858.494 462.025
1965 0 150.923 12.9205 1950 172.714 858.928 459.817
1966 0 151.716 12.9914 1971 172.395 857.458 459.461
1967 0 156.809 12.9138 2025 172.061 856.356 457.85
1968 0 161.952 13.0038 2106 173.424 857.543 455.728
1969 0 168.119 12.9313 2174 170.132 856.432 452.945
1970 0 172.681 12.9661 2239 161.726 856.15 449.679
1971 0 180.64 12.6495 2285 163.438 856.858 445.796
1972 0 180.64 12.6495 2285 168.171 858.858 445.796
1973 1 193.865 13.2309 2565 169.509 855.166 439.55
1974 0 200.637 12.9238 2593 168.171 856.598 436.072
1975 0 207.974 13.4103 2789 169.841 857.087 431.946
1976 0 214.785 13.4088 2880 164.8 857.134 429.256
1977 1 143.574 12.5302 1799 168.1 858.211 462.274
1978 1 70.2104 11.8643 833 153.254 859.813 497.66
1979 0 72.2323 11.8783 858 154.42 858.915 496.157
1980 0 75.257 12.1583 915 159.103 857.223 494.941
1981 0 77.1738 12.271 947 156.595 856.858 492.92
1982 0 81.2174 11.8571 963 159.075 857.429 492.359
1983 0 81.2327 11.7687 956 149.476 857.583 491.365
1984 0 84.1321 11.5533 972 153.561 858.354 490.504
1985 0 85.0907 11.9402 1016 145.857 857.629 490.25
1986 0 85.3146 13.081 1116 139.029 856.744 489.051
1987 0 91.2185 11.8507 1081 149.602 857.988 488.322
1988 0 97.424 12.5944 1227 139.891 858.468 485.496
1989 0 96.3062 12.5952 1213 149.328 858.502 484.968
1990 1 163.72 12.9978 2128 148.552 857.906 455.54
1991 0 162.504 13.1258 2133 155.416 858.304 455.015
1992 1 55.0586 12.6047 694 147.288 859.016 504.337
1993 0 57.0904 12.8568 734 139.665 859.503 503.849
1994 0 58.0402 12.9565 752 144.477 856.871 502.23
1995 0 60.132 13.038 784 143.004 857.862 501.05
1996 0 62.1377 13.0034 808 141.775 855.496 500.869
1997 0 66.2388 12.7871 847 139.263 858.244 499.629
1998 0 66.2388 12.7871 847 166.471 864.244 499.629
1999 0 66.0875 14.2084 939 146.866 857.078 497.707
2000 0 71.1549 12.9858 924 144.42 857.545 496.077
2001 0 74.2274 12.3405 916 142.166 857.034 494.636
2002 0 78.1734 12.92 1010 131.653 860.903 493.783
2003 0 87.1847 13.3624 1165 144.612 858.993 489.444
2004 0 87.1847 13.3624 1165 172.438 857.993 489.444
2005 0 85.075 13.0943 1114 149.067 857.713 489.28
2006 0 85.075 13.0943 1114 170.389 856.713 489.28
2007 1 45.0459 12.0988 545 150.017 857.2 509.112
2008 0 46.0193 11.9081 548 155.551 857.487 508.796
2009 0 48.0197 12.9947 624 156.686 858.497 508.223
2010 0 48.0548 12.8811 619 156.911 857.509 507.063
2011 0 50.0243 12.8138 641 153.674 856.378 506.626
2012 0 51.1015 12.4067 634 160.703 857.644 505.756
2013 0 52.0589 12.6011 656 155.239 857.761 505.296
2014 0 52.0593 12.9276 673 152.924 858.675 504.863
2015 0 56.1038 12.6551 710 160.065 860.294 503.804
2016 0 57.1086 12.59 719 152.001 858.014 502.446
2017 0 60.0447 12.3241 740 148.795 858.149 501.738
2018 0 62.0515 12.4413 772 151.421 858.356 500.719
2019 0 65.0573 12.5735 818 152.634 857.773 499.039
2020 0 65.1202 12.6842 826 151.738 856.631 498.34
2021 0 66.0834 12.8323 848 150.828 856.783 498.439
2022 0 69.1701 12.6644 876 147.016 856.957 497.161
2023 1 161.255 13.8104 2227 147.271 855.045 455.495
2024 0 161.463 13.774 2224 155.057 855.274 456.048
2025 0 161.262 13.5432 2184 150.966 856.553 455.533
2026 0 168.398 13.6878 2305 155.551 855.901 452.55
2027 0 170.307 13.5872 2314 153.287 855.112 451.956
2028 0 176.315 14.0034 2469 149.452 856.947 449.365
2029 0 182.218 13.9778 2547 166.908 857.252 446.141
2030 0 190.421 13.7275 2614 158.428 855.126 442.824
2031 0 194.389 13.8177 2686 161.528 854.858 440.622
2032 0 200.265 13.7168 2747 169.066 855.248 437.718
2033 0 207.372 14.0569 2915 163.942 855.484 435.646
2034 1 160.178 14.3653 2301 168.32 857.276 455.929
2035 0 166.423 14.349 2388 171.362 856.926 452.51
2036 0 166.423 14.349 2388 180.293 855.926 452.51
2037 0 178.379 13.903 2480 169.203 856.783 449.142
2038 0 184.242 13.9002 2561 170.111 857.237 444.579
2039 0 192.311 13.8785 2669 167.099 856.452 441.848
2040 0 199.447 13.6828 2729 163.826 857.523 438.676
2041 0 207.37 14.0474 2913 168.32 857.759 435.048
2042 0 215.447 14.0963 3037 173.584 858.246 432.281
2043 0 215.447 14.0963 3037 185.198 860.246 432.281
2044 1 295.809 16.3754 4844 156.194 856.724 386.651
2045 0 296.852 16.5133 4902 151.265 855.23 386.381
2046 0 295.332 16.6084 4905 150.577 854.374 386.698
2047 0 296.493 16.9212 5017 158.702 856.132 385.294
2048 1 270.833 18.6203 5043 143.051 855.483 393.015
2049 0 274.695 17.7324 4871 152.806 855.086 394.693
2050 1 219.417 14.1147 3097 177.482 855.822 430.851
2051 0 223.509 14.3126 3199 179.39 856.331 429.203
2052 0 233.391 14.3193 3342 169.347 855.259 424.398
2053 0 243.354 14.481 3524 161.804 855.851 419.855
2054 0 253.532 14.507 3678 163.761 855.277 415.326
2055 0 260.411 14.5309 3784 163.315 853.715 410.878
2056 0 271.496 14.921 4051 162.196 855.782 405.099
2057 1 211.352 14.0808 2976 159.73 854.789 435.868
2058 0 218.243 14.3189 3125 163.723 855.243 432.486
2059 0 230.372 14.3854 3314 153.116 856.113 427.227
2060 0 239.338 14.3103 3425 145.251 851.872 423.275
2061 0 246.327 14.4361 3556 139.197 852.837 418.966
2062 0 254.331 14.489 3685 138.963 854.944 415.122
2063 0 254.331 14.489 3685 177.551 856.944 415.122
2064 0 253.527 13.3319 3380 174.322 853.475 419.394
2065 0 253.527 13.3319 3380 176.666 849.475 419.394
2066 0 253.527 13.3319 3380 176.666 845.475 419.394
2067 1 218.288 13.9219 3039 177.962 854.134 434.648
2068 0 225.321 14.1043 3178 173.662 855.753 430.805
2069 1 182.243 14.2063 2589 180.36 854.437 449.442
2070 0 187.287 14.2455 2668 179.362 855.779 447.627
2071 0 192.196 14.5112 2789 173.717 855.876 444.616
2072 0 201.286 14.5663 2932 170.418 855.823 440.97
2073 0 206.375 14.7159 3037 171.51 857.56 438.287
2074 0 212.567 14.6025 3104 173.157 856.994 435.992
2075 0 217.294 14.7726 3210 170.161 857.501 433.255
2076 0 222.282 14.9135 3315 168.972 857.036 430.027
2077 0 230.269 14.9955 3453 171.397 855.939 426.946
2078 0 239.578 15.1266 3624 167.48 855.245 422.387
2079 0 250.326 14.8846 3726 169.218 854.438 418.719
2080 0 259.256 15.1433 3926 165.695 856.273 414.217
2081 1 194.348 14.5821 2834 171.329 857.517 444.064
2082 0 201.32 14.3801 2895 176.22 856.676 441.575
2083 0 208.603 14.2759 2978 175.222 855.225 438.065
2084 0 215.48 14.3169 3085 174.888 857.83 434.796
2085 0 224.411 14.42 3236 172.59 856.674 430.972
2086 0 232.38 14.2611 3314 169.349 856.163 428.553
2087 0 240.29 14.5824 3504 169.751 856.559 423.147
2088 0 249.352 14.5497 3628 164.908 858.06 419.949
2089 1 179.203 14.2074 2546 174.238 858.224 452.121
2090 0 185.346 14.6267 2711 178.342 857.076 448.354
2091 0 191.478 14.1844 2716 162.997 856.604 446.376
2092 1 156.265 14.597 2281 166.484 856.888 460.858
2093 0 160.195 14.7695 2366 175.757 857.248 459.347
2094 0 166.307 14.9062 2479 173.777 855.558 456.583
2095 0 171.257 14.6505 2509 177.512 855.698 454.217
2096 0 175.281 14.5823 2556 179.47 856.141 451.793
2097 0 183.342 14.7757 2709 168.26 854.325 448.403
2098 0 190.394 14.7064 2800 178.009 855.41 444.732
2099 0 196.363 14.9112 2928 174.872 855.397 441.079
2100 0 202.522 14.9021 3018 177.891 854.937 439.226
2101 0 210.44 14.8499 3125 176.586 854.078 435.307
2102 0 216.388 14.987 3243 165.952 856.197 432.642
2103 0 225.332 15.1376 3411 172.515 855.877 427.322
2104 0 234.31 15.057 3528 171.937 855.907 424.179
2105 0 241.437 15.1302 3653 172.511 855.38 420.057
2106 0 241.437 15.1302 3653 181.115 854.38 420.057
2107 1 295.731 15.416 4559 167.842 853.339 393.161
2108 0 294.742 15.159 4468 163.814 853.45 393.816
2109 0 294.772 15.3033 4511 158.777 854.146 393.719
2110 0 287.774 15.401 4432 163.877 854.942 395.985
2111 0 297.626 15.3045 4555 167.401 854.868 392.267
2112 0 298.67 16.3659 4888 162.964 855.4 386.762
2113 0 297.752 16.3223 4860 162.812 854.463 386.739
2114 0 297.835 16.4991 4914 163.642 853.977 387.243
2115 1 308.761 14.1825 4379 167.566 853.993 389.917
2116 0 308.624 14.5906 4503 165.569 854.579 387.687
2117 0 308.768 14.5093 4480 167.161 852.763 387.708
2118 0 308.848 14.7451 4554 169.608 852.943 387.919
2119 0 307.522 14.4445 4442 167.881 855.714 387.13
2120 1 316.555 15.7287 4979 160.561 854.239 377.883
2121 1 191.179 13.5946 2599 173.568 854.903 444.745
2122 0 200.255 13.5777 2719 179.256 854.995 440.757
2123 0 203.328 14.0758 2862 175.586 855.957 439.5
2124 1 118.21 14.2036 1679 175.325 856.537 476.921
2125 0 121.207 14.4299 1749 173.852 858.417 475.648
2126 0 127.445 13.904 1772 168.709 856.484 472.963
2127 0 130.346 14.4231 1880 166.102 857.283 470.911
2128 0 134.458 14.5548 1957 174.987 856.928 468.768
2129 0 141.273 14.2844 2018 170.696 857.346 465.93
2130 1 95.2788 14.5363 1385 181.095 857.059 485.844
2131 0 97.2894 14.2873 1390 180.124 857.743 485.235
2132 0 102.301 14.3889 1472 178.219 858.029 483.423
2133 0 105.225 14.5308 1529 178.35 857.97 481.307
2134 0 107.435 14.3063 1537 179.454 857.398 480.604
2135 0 112.245 14.1566 1589 174.784 856.919 477.878
2136 0 115.166 14.4313 1662 177.405 857.748 476.794
2137 0 119.125 14.5058 1728 170.911 858.629 474.678
2138 0 124.494 14.1854 1766 177.133 856.108 472.887
2139 0 124.637 14.5542 1814 176.616 857.004 471.809
2140 1 210.51 14.5314 3059 172.146 854.85 433.971
2141 0 217.516 14.422 3137 167.752 853.977 430.085
2142 0 225.703 14.9932 3384 167.458 854.735 425.395
2143 0 231.433 14.475 3350 162.349 855.288 423.188
2144 0 240.514 14.5854 3508 162.225 855.017 420.14
2145 0 240.343 13.7969 3316 168.914 856.504 421.894
2146 1 225.457 14.5793 3287 167.489 856.101 426.728
2147 0 225.286 14.213 3202 167.504 855.097 427.426
2148 0 225.255 14.4414 3253 166.942 855.159 426.713
2149 0 228.46 14.3263 3273 171.004 855.377 426.306
2150 1 137.182 14.1126 1936 180.583 856.952 467.058
2151 0 142.273 14.184 2018 175.905 856.444 464.986
2152 0 146.454 14.0727 2061 181.144 856.657 463.355
2153 0 151.44 13.9857 2118 175.369 856.127 460.942
2154 0 155.576 13.9418 2169 174.246 855.642 459.609
2155 0 163.483 14.2278 2326 180.133 855.288 454.878
2156 0 168.63 14.3509 2420 180.746 856.04 452.794
2157 0 176.466 14.1444 2496 175.179 855.565 449.494
2158 0 181.457 14.2072 2578 176.109 854.924 447.289
2159 0 189.512 14.1363 2679 178.499 855.044 444.356
2160 0 195.534 14.2533 2787 180.628 855.085 440.66
2161 0 204.428 14.455 2955 175.964 855.922 436.159
2162 0 212.461 14.2426 3026 176.499 857.016 434.599
2163 1 137.387 13.9242 1913 178.842 856.325 467.71
2164 0 145.253 14.1752 2059 175.853 855.285 463.077
2165 0 147.373 14.0867 2076 174.86 855.455 462.577
2166 0 152.274 14.0011 2132 171.326 857.201 460.53
2167 0 155.316 13.9586 2168 176.476 858.419 459.482
2168 0 163.343 14.2093 2321 175.599 856.912 455.122
2169 0 165.392 13.7189 2269 172.472 856.019 455.376
2170 0 169.355 14.1419 2395 174.013 856.769 452.841
2171 0 175.369 14.3298 2513 181.339 855.878 450.447
2172 0 182.313 14.2282 2594 178 856.063 446.899
2173 0 191.456 14.3427 2746 178.001 856.347 441.842
2174 0 193.342 14.3269 2770 174.448 856.315 441.55
2175 0 201.384 14.4351 2907 171.566 856.711 438.819
2176 0 207.395 14.6725 3043 173.409 857.108 435.862
2177 0 214.409 14.533 3116 176.326 855.962 433.143
2178 0 223.53 14.6378 3272 172.913 855.922 427.457
2179 0 228.313 14.7561 3369 175.781 856.483 424.89
2180 1 201.359 14.3475 2889 171.348 856.417 436.949
2181 0 201.23 14.4561 2909 175.653 855.319 437.185
2182 0 201.353 14.487 2917 171.061 856.336 437.164
2183 0 201.534 14.3152 2885 177.843 854.786 437.377
2184 0 201.191 14.1905 2855 166.786 856.296 437.252
2185 0 203.478 14.3456 2919 175.992 857.872 437.19
2186 0 212.261 14.0016 2972 170.635 855.575 433.472
2187 0 222.403 14.5142 3228 169.723 856.58 427.945
2188 0 223.352 14.3406 3203 172.236 855.201 427.703
2189 0 232.39 14.4197 3351 167.822 855.249 424.549
2190 0 237.386 14.4153 3422 173.68 855.412 422.539
2191 0 245.318 14.5974 3581 172.142 855.387 418.643
2192 0 249.403 14.7432 3677 168.341 855.196 416.873
2193 0 253.683 15.204 3857 177.642 856.204 413.383
2194 0 254.296 14.5657 3704 166.604 855.314 414.624
2195 0 254.341 14.685 3735 173.255 856.978 414.228
2196 0 259.052 22.5591 5844 131.487 857.169 386.944
2197 0 255.746 21.8303 5583 131.251 856.038 390.076
2198 0 266.126 20.2198 5381 131.243 854.639 392.675
2199 0 264.46 19.674 5203 134.978 857.287 395.328
2200 0 269.519 18.4774 4980 142.869 857.124 395.72
2201 0 271.617 17.2633 4689 154.776 855.151 398.614
2202 0 278.548 14.8233 4129 167.597 853.918 403.045
2203 0 278.642 16.2933 4540 162.564 854.574 397.189
2204 1 176.336 13.9847 2466 171.572 857.907 452.499
2205 1 120.228 14.6971 1767 172.345 856.568 477.225
2206 0 120.228 14.6971 1767 181.71 854.568 477.225
2207 0 127.354 14.1024 1796 171.061 856.384 475.066
2208 0 130.223 14.3062 1863 167.288 856.488 471.983
2209 0 133.273 14.5566 1940 170.196 857.673 471.085
2210 0 137.169 14.3254 1965 173.401 858.965 470.123
2211 0 142.201 14.5076 2063 167.633 858.764 467.711
2212 0 147.393 14.2748 2104 162.551 857.78 465.387
2213 0 151.342 14.2128 2151 170.35 857.473 464.445
2214 0 156.328 14.4696 2262 164.328 856.898 461.322
2215 0 161.2 14.2742 2301 162.193 856.281 459.665
2216 0 166.309 14.4069 2396 171.525 858.421 457.69
2217 0 171.268 14.5445 2491 171.033 857.374 455.3
2218 0 177.232 14.4218 2556 173.982 856.455 452.589
2219 0 182.189 14.6606 2671 161.915 856.334 449.282
2220 0 190.217 14.6464 2786 169.322 856.59 446.637
2221 0 197.247 14.6923 2898 168.765 855.978 443.061
2222 0 206.395 14.8744 3070 168.867 856.478 438.477
2223 0 212.22 15.0363 3191 167.536 855.983 435.891
2224 1 156.249 14.5345 2271 175.089 857.432 462.147
2225 0 160.306 14.753 2365 175.977 855.542 459.181
2226 0 160.306 14.753 2365 181.001 853.542 459.181
2227 1 189.423 14.9348 2829 168.632 857.911 445.94
2228 0 190.2 14.8212 2819 168.081 857.244 445.818
2229 0 190.475 14.4954 2761 161.413 856.823 446.542
2230 0 195.408 14.5491 2843 166.355 856.411 444.38
2231 0 200.325 14.4515 2895 165.807 856.913 441.954
2232 0 209.394 14.5372 3044 163.267 856.156 438.499
2233 0 213.315 14.7669 3150 160.388 855.397 435.642
2234 1 137.226 14.5381 1995 171.84 856.17 471.072
2235 0 141.351 14.418 2038 170.58 858.554 469.906
2236 0 148.23 14.2144 2107 171.557 858.527 466.534
2237 0 150.251 14.356 2157 168.844 858.02 466.178
2238 0 154.158 14.2581 2198 167.281 858.874 463.939
2239 0 158.199 14.3237 2266 168.815 858.415 461.707
2240 1 118.152 15.023 1775 171.863 857.896 478.047
2241 0 121.156 14.9312 1809 173.95 858.301 477.38
2242 0 126.235 14.8137 1870 176.815 859.042 475.297
2243 0 133.349 14.7433 1966 163.94 856.411 473.176
2244 0 137.237 14.8357 2036 164.367 856.793 470.335
2245 0 142.269 14.831 2110 165.675 858.11 467.768
2246 0 148.325 14.6637 2175 171.648 858.279 465.766
2247 0 153.374 14.4484 2216 168.304 857.871 463.361
2248 0 159.206 14.5158 2311 167.158 856.043 460.614
2249 0 166.271 14.6808 2441 171.904 857.126 457.058
2250 0 174.253 14.7085 2563 170.221 855.924 453.47
2251 0 181.337 14.5695 2642 163.718 856.893 450.349
2252 0 188.362 14.642 2758 169.236 857.1 446.841
2253 0 196.414 14.5713 2862 161.783 855.856 443.248
2254 0 204.282 14.245 2910 168.623 855.133 440.25
2255 0 211.578 14.6565 3101 166.446 856.465 436.587
2256 1 136.21 14.5364 1980 179.675 856.994 469.317
2257 0 142.272 14.7745 2102 177.431 856.382 465.885
2258 0 147.267 14.7283 2169 179.065 855.799 463.57
2259 0 152.363 14.6099 2226 179.685 854.465 460.963
2260 0 159.328 14.511 2312 174.011 856.448 457.579
2261 0 162.419 14.6473 2379 171.11 856.24 456.027
2262 0 169.384 14.4642 2450 174.148 856.951 453.977
2263 0 176.369 14.549 2566 176.047 856.584 450.674
2264 1 128.24 14.7457 1891 177.333 858.692 472.245
2265 0 133.366 14.6964 1960 181.24 858.529 470.023
2266 0 136.35 14.8221 2021 176.15 859.492 467.196
2267 0 143.372 14.71 2109 163.908 858.111 464.915
2268 0 143.372 14.71 2109 181.541 858.111 464.915
2269 0 151.473 14.8211 2245 177.988 857.981 460.728
2270 0 160.36 14.9788 2402 171.97 858.415 456.428
2271 0 166.419 14.788 2461 167.169 856.753 454.347
2272 0 170.395 14.6307 2493 172.801 857.542 452.503
2273 0 175.355 14.5192 2546 170.892 858.05 450.443
2274 0 183.454 14.3578 2634 170.687 856.92 447.276
2275 0 190.313 14.3973 2740 170.904 857.739 444.215
2276 1 153.241 14.0889 2159 173.942 858.461 460.857
2277 0 159.269 14.5101 2311 172.162 858.653 457.005
2278 1 122.295 14.3914 1760 172.744 857.929 473.429
2279 0 124.146 14.9421 1855 176.86 859.486 472.288
2280 0 129.102 14.4537 1866 173.111 857.383 469.907
2281 0 133.29 14.4947 1932 175.24 858.568 467.656
2282 0 136.277 14.4998 1976 183.435 857.815 467.887
2283 0 140.462 14.6232 2054 178.45 859.391 465.652
2284 0 143.505 14.7312 2114 175.678 859.081 463.025
2285 0 150.294 14.6513 2202 173.38 859.433 460.219
2286 0 154.332 14.6956 2268 176.973 859.258 459.077
2287 0 162.359 14.7759 2399 181.229 858.397 455.353
2288 0 168.316 14.853 2500 174.996 857.397 451.667
2289 0 172.228 14.8408 2556 177.915 857.302 450.542
2290 0 176.4 14.8129 2613 177.879 855.858 448.768
2291 0 180.358 14.7762 2665 177.639 857.663 447.75
2292 0 184.467 14.8048 2731 177.308 858.713 445.174
2293 1 262.727 18.4755 4854 145.476 855.354 397.786
2294 0 263.371 17.9101 4717 150.623 856 398.821
2295 0 263.447 18.1631 4785 149.376 855.429 397.972
2296 0 264.576 17.8323 4718 150.977 856.556 399.494
2297 1 303.617 13.4874 4095 170.798 857.047 397.777
2298 1 276.441 21.3536 5903 123.366 856.967 380.947
2299 0 274.824 18.8157 5171 135.171 855.783 397.159
2300 0 268.597 19.6279 5272 134.803 856.377 395.824
2301 0 277.765 19.4301 5397 137.482 854.483 392.374
2302 0 277.765 19.4301 5397 143.836 855.483 392.374
2303 0 279.524 19.0717 5331 146.718 855.442 389.585
2304 1 198.256 14.3249 2840 175.788 856.798 440.999
2305 0 203.476 14.3457 2919 177.023 857.527 437.896
2306 0 210.376 14.6072 3073 176.901 856.882 434.78
2307 0 220.37 14.4575 3186 168.32 857.307 431.093
2308 0 226.416 14.7295 3335 175.161 857.13 427.732
2309 0 231.5 14.527 3363 171.761 855.586 424.871
2310 0 238.336 14.7858 3524 167.15 855.651 421.63
2311 0 246.268 14.7076 3622 170.815 856.146 418.39
2312 0 254.391 15.1263 3848 173.214 856.08 413.591
2313 1 270.476 19.0257 5146 145.562 856.761 394.298
2314 0 275.445 17.0561 4698 160.536 856.625 398.291
2315 0 281.687 15.0806 4248 174.225 856.529 401.581
2316 1 272.6 21.8929 5968 129.403 858.107 381.315
2317 0 271.593 19.7096 5353 135.507 856.329 391.081
2318 0 271.345 19.3591 5253 147.145 856.483 392.848
2319 0 277.49 18.6709 5181 149.132 856.268 391.392
2320 0 281.775 17.4217 4909 150.569 856.515 393.592
2321 0 290.918 14.853 4321 171.429 856.316 395.068
2322 1 315.658 15.7259 4964 165.545 857.113 379.954
2323 1 313.857 15.7874 4955 163.493 855.939 380.669
2324 1 314.863 18.0491 5683 150.703 855.734 373.059
2325 1 54.1861 15.2253 825 176.999 860.135 506.903
2326 0 55.0144 14.7961 814 182.485 858.437 506.711
2327 0 57.0469 14.9877 855 176.505 860.529 506.315
2328 0 58.1448 15.1174 879 180.612 859.878 504.823
2329 0 59.1016 14.8219 876 177.106 859.41 504.82
2330 0 63.154 14.9793 946 177.57 859.109 503.552
2331 0 64.0798 14.6848 941 179.189 858.924 503.235
2332 0 64.1119 14.9894 961 180.51 860.511 502.508
2333 0 68.0917 14.6861 1000 180.986 858.818 501.539
2334 0 70.1558 14.3965 1010 173.009 860.656 500.352
2335 0 72.1111 14.5747 1051 171.48 860.675 498.86
2336 0 74.201 14.6629 1088 174.744 858.876 498.694
2337 0 74.212 14.8493 1102 175.839 860.77 498.106
2338 0 78.1654 14.5845 1140 176.984 859.587 496.66
2339 0 84.1795 14.1602 1192 178.664 858.191 494.78
2340 0 84.2223 14.4974 1221 182.156 858.116 494.044
2341 0 86.5308 14.5844 1262 177.232 857.768 493.181
2342 0 90.3919 14.4261 1304 172.28 859.108 491.458
2343 0 93.2253 14.3952 1342 180.406 858.105 489.692
2344 0 95.1048 14.4157 1371 177.607 857.96 489.086
2345 0 98.2187 14.3761 1412 179.857 856.844 487.392
2346 0 103.276 14.4564 1493 180.013 857.008 484.79
2347 0 106.267 14.2284 1512 170.003 857.821 483.792
2348 0 110.229 14.5515 1604 175.554 858.171 481.46
2349 0 113.414 14.1781 1608 172.416 857.765 480.896
2350 0 118.344 14.4156 1706 172.414 857.42 477.852
2351 0 123.284 14.2111 1752 171.97 859.062 475.883
2352 0 128.2 14.3994 1846 171.418 857.442 473.182
2353 1 65.1709 14.485 944 176.711 859.695 501.921
2354 0 67.0669 14.7912 992 178.837 858.517 500.33
2355 0 70.1828 14.3625 1008 180.812 858.49 499.68
2356 0 72.0511 14.6146 1053 174.05 858.338 498.241
2357 0 75.0827 14.3575 1078 173.691 858.269 497.652
2358 0 77.0699 14.5323 1120 173.004 856.509 496.41
2359 0 79.1581 14.4774 1146 177.756 856.996 495.649
2360 0 81.1661 14.3163 1162 168.614 858.665 494.654
2361 0 83.3078 14.5004 1208 176.617 857.733 493.512
2362 0 87.202 14.4607 1261 175.297 858.414 492.199
2363 0 91.139 14.3736 1310 164.452 858.541 490.01
2364 0 93.1407 14.4405 1345 171.224 858.451 488.975
2365 0 99.23 14.4815 1437 175.521 860.09 486.94
2366 0 98.1055 14.5659 1429 179.043 858.085 486.761
2367 1 50.1225 14.8037 742 182.621 860.178 508.698
2368 0 51.2958 14.933 766 179.29 860.791 507.873
2369 0 54.2238 15.5282 842 179.743 859.629 506.097
2370 0 56.2188 14.7282 828 182.889 859.246 506.014
2371 0 58.3123 15.1083 881 180.018 857.578 504.791
2372 0 60.1958 14.7851 890 181.867 858.201 504.237
2373 0 62.0859 14.7376 915 182.808 859.362 503.881
2374 0 62.0859 14.7376 915 189.435 860.362 503.881
2375 0 65.0727 14.9371 972 175.772 859.654 501.627
2376 0 68.1266 14.8107 1009 180.129 857.8 500.349
2377 0 71.2653 14.7617 1052 178.129 857.572 498.934
2378 0 73.3062 14.6236 1072 176.183 858.036 498.553
2379 0 74.1472 14.6061 1083 25.7045 857.167 497.347
2380 0 75.0984 14.9271 1121 172.562 856.666 496.987
2381 0 77.2087 14.4543 1116 179.142 857.632 495.984
2382 0 79.1344 14.5702 1153 176.42 857.594 495.043
2383 0 80.2136 15.172 1217 171.358 857.765 493.679
2384 0 85.2626 14.2384 1214 176.389 858.505 492.722
2385 0 87.1302 14.771 1287 82.2681 857.333 491.291
2386 0 87.1044 15.0165 1308 167.729 858.66 490.446
2387 0 91.31 14.96 1366 176.764 859.157 489.015
2388 0 95.2175 14.3986 1371 172.02 860.606 488.336
2389 0 99.1936 14.4364 1432 175.806 859.976 486.76
2390 1 182.336 14.4843 2641 171.782 859.222 448.445
2391 0 182.274 14.3466 2615 169.412 858.713 448.13
2392 0 181.293 14.4959 2628 172.7 857.719 448.753
2393 0 182.397 14.2492 2599 175.013 856.589 449.312
2394 0 189.364 14.2847 2705 175.176 857.537 446.076
2395 0 197.503 14.2884 2822 162.374 856.582 441.475
2396 1 127.254 14.53 1849 172.333 857.15 473.108
2397 0 133.231 14.5161 1934 177.514 858.922 471.432
2398 0 138.403 14.4506 2000 176.349 857.69 468.848
2399 0 142.377 14.595 2078 178.361 857.124 466.849
2400 0 148.374 14.6724 2177 177.214 856.803 463.849
2401 0 154.26 14.508 2238 176.849 856.836 461.997
2402 0 160.454 14.4278 2315 173.324 858.103 459.405
2403 0 165.586 14.6752 2430 171.489 857.092 457.344
2404 0 169.363 14.4896 2454 172.064 857.324 454.752
2405 0 175.28 14.6452 2567 174.427 857.149 451.962
2406 0 180.389 14.563 2627 162.756 856.715 448.57
2407 1 132.184 14.5328 1921 177.599 856.378 471.592
2408 0 139.383 14.2628 1988 174.507 858.103 468.693
2409 0 142.255 14.3896 2047 165.951 857.245 467.94
2410 0 142.255 14.3896 2047 183.223 856.245 467.94
2411 0 151.331 14.3526 2172 176.857 856.218 463.717
2412 1 98.2728 14.6226 1437 178.299 858.232 486.839
2413 0 101.413 14.6036 1481 178.682 857.037 485.602
2414 0 105.267 14.487 1525 180.041 856.126 483.454
2415 0 109.208 14.6143 1596 173.852 858.82 481.403
2416 0 113.25 14.5872 1652 176.262 857.514 480.025
2417 0 116.293 14.7042 1710 178.467 856.743 478.279
2418 0 122.277 14.5489 1779 168.066 857.548 475.421
2419 0 127.442 14.5321 1852 174.015 857.365 473.281
2420 0 132.418 14.4693 1916 170.364 857.755 470.949
2421 0 137.318 14.288 1962 169.439 857.551 469.19
2422 0 140.229 14.2695 2001 167.917 857.07 467.553
2423 0 147.274 14.1233 2080 171.812 858.023 463.914
2424 0 151.214 14.1059 2133 164.257 858.575 462.064
2425 0 158.352 13.8805 2198 170.056 857.62 460.028
2426 0 162.247 14.1266 2292 162.889 857.736 458.375
2427 0 166.587 14.0768 2345 170.329 857.646 456.016
2428 0 172.306 13.8359 2384 164.498 858.304 454.79
2429 1 130.244 14.1504 1843 168.521 860.035 471.588
2430 1 88.2437 14.222 1255 171.528 859.615 490.36
2431 0 91.427 14.4159 1318 178.452 858.672 489.657
2432 0 93.2089 14.2905 1332 172.806 856.593 489.065
2433 0 96.2908 14.3004 1377 172.053 857.206 487.671
2434 0 99.4233 14.1416 1406 173.812 858.592 486.432
2435 0 102.237 14.3784 1470 178.098 857.262 484.548
2436 0 102.384 14.807 1516 170.315 855.942 483.611
2437 0 110.605 14.4206 1595 174.421 857.281 480.725
2438 0 113.243 14.3144 1621 175.518 857.212 479.423
2439 0 114.277 14.8412 1696 170.305 858.192 478.128
2440 0 121.311 14.3845 1745 171.904 856.834 476.28
2441 1 198.64 14.5741 2895 173.375 856.881 441.916
2442 0 206.532 14.5402 3003 163.039 856.554 438.224
2443 0 213.449 14.7623 3151 163.636 857.049 434.083
2444 1 176.481 13.9675 2465 169.215 856.326 453.514
2445 0 185.417 14.1141 2617 173.933 856.751 449.908
2446 0 190.515 14.3873 2741 171.526 856.685 445.701
2447 0 197.653 14.4192 2850 164.884 855.823 442.132
2448 0 205.776 14.4866 2981 171.873 859.07 438.623
2449 1 162.653 14.3803 2339 174.04 858.372 457.192
2450 0 169.331 14.0494 2379 170.193 858.064 455.369
2451 0 174.869 14.4279 2523 173.658 859.615 452.311
2452 0 182.439 14.3226 2613 175.824 858.579 450.046
2453 0 189.112 14.5311 2748 172.537 857.634 445.789
2454 0 195.315 14.6225 2856 175.39 856.192 442.024
2455 0 201.36 14.5859 2937 172.756 858.339 439.725
2456 0 209.352 14.2774 2989 171.963 857.325 436.508
2457 0 217.416 14.6861 3193 171.334 857.444 432.029
2458 1 165.286 14.611 2415 181.008 857.252 455.061
2459 0 173.467 14.4811 2512 171.144 857.732 451.878
2460 0 180.221 14.7874 2665 175.774 857.556 448.132
2461 0 186.221 14.4506 2691 171.466 857.912 446.035
2462 0 191.352 14.6171 2797 178.863 856.967 442.822
2463 0 199.255 14.6797 2925 172.574 858.198 439.331
2464 0 199.255 14.6797 2925 180.531 858.198 439.331
2465 0 199.255 14.6797 2925 180.531 858.198 439.331
2466 1 310.702 20.3893 6335 128.88 854.825 369.479
2467 0 311.704 15.8419 4938 158.676 854.829 381.535
2468 0 322.619 16.0592 5181 158.231 853.549 375.663
2469 1 319.099 12.4632 3977 170.599 854.793 399.047
2470 0 320.945 13.1206 4211 167.416 855.734 394.605
2471 1 268.603 19.7503 5305 142.105 856.556 393.089
2472 0 271.88 17.3496 4717 158.54 855.952 397.719
2473 0 280.502 15.2584 4280 159.156 856.996 398.958
2474 1 269.636 17.8463 4812 151.225 857.806 395.652
2475 0 268.69 17.6039 4730 155.416 857.02 396.618
2476 0 269.572 17.6576 4760 149.408 858.108 396.53
2477 0 268.479 17.6625 4742 154.539 857.298 397.46
2478 0 268.357 17.4208 4675 158.764 857.292 398.231
2479 1 205.278 14.0249 2879 171.367 858.652 436.926
2480 0 213.305 13.9284 2971 171.286 858.67 433.525
2481 1 157.268 14.4785 2277 169.944 858.025 456.652
2482 0 163.395 14.517 2372 161.21 859.056 452.461
2483 0 169.185 14.694 2486 172.028 858.775 449.814
2484 0 175.25 14.6762 2572 169.16 858.994 447.757
2485 0 183.386 14.7448 2704 169.007 858.979 445.011
2486 0 190.184 14.6069 2778 165.765 858.941 441.251
2487 0 197.372 14.5309 2868 169.014 857.877 437.608
2488 0 203.318 14.7208 2993 160.811 857.714 434.372
2489 0 211.428 14.5251 3071 166.712 857.072 431.057
2490 1 169.41 13.665 2315 167.853 858.106 452.407
2491 0 173.275 14.2548 2470 171.121 857.285 449.22
2492 1 130.269 14.4164 1878 174.378 857.754 466.666
2493 0 133.204 14.504 1932 174.443 859.15 464.433
2494 0 139.37 14.7736 2059 171.098 857.972 460.792
2495 0 143.201 14.5041 2077 178.338 859.783 460.036
2496 0 143.201 14.5041 2077 181.582 860.783 460.036
2497 0 143.201 14.5041 2077 181.582 861.783 460.036
2498 1 153.268 14.6737 2249 176.331 856.894 455.817
2499 0 162.193 14.4828 2349 175.442 857.484 451.854
2500 0 166.425 14.499 2413 171.945 857.789 449.297
2501 0 171.362 14.5131 2487 174.295 855.29 448.062
2502 0 174.473 14.6499 2556 176.076 858.076 445.525
2503 1 189.582 14.7008 2787 169.536 858.376 438.929
2504 0 189.395 14.6624 2777 175.179 858.65 438.404
2505 0 196.342 14.5206 2851 163.757 858.391 435.584
2506 0 204.402 14.7112 3007 176.577 857.542 432.269
2507 0 210.47 14.9713 3151 172.924 858.72 428.141
2508 1 293.393 13.4904 3958 167.085 857.254 397.158
2509 0 294.57 13.5927 4004 169.847 858.6 396.592
2510 0 293.775 13.364 3926 168.098 857.721 397.816
2511 0 294.908 17.9107 5282 140.962 857.434 386.687
2512 1 311.843 11.9996 3742 167.696 856.507 404.001
2513 0 312.109 12.0343 3756 176.355 857.501 402.653
2514 0 314.872 11.8937 3745 173.887 855.917 399.42
2515 0 314.872 11.8937 3745 177.552 858.917 399.42
2516 1 208.487 13.9769 2914 173.22 859.024 430.985
2517 0 213.53 14.0261 2995 177.206 858.134 428.405
2518 0 221.404 13.988 3097 176.814 857.456 424.309
2519 0 229.449 14.269 3274 171.377 857.774 420.62
2520 0 236.517 14.147 3346 178.455 857.938 417.17
2521 0 235.382 13.4335 3162 171.926 859.111 418.244
2522 0 236.432 14.3678 3397 171.991 858.686 418.112
2523 0 236.432 14.3678 3397 178.211 857.686 418.112
2524 0 234.621 14.679 3444 167.838 857.242 415.16
2525 0 234.537 14.4369 3386 166.574 855.236 416.038
2526 0 239.624 14.3308 3434 167.138 856.017 411.786
2527 1 271.545 18.5273 5031 129.345 855.761 388.978
2528 0 267.556 19.0577 5099 138.271 856.98 385.626
2529 1 195.564 13.2386 2589 174.988 856.868 435.488
2530 1 151.34 13.2351 2003 175.064 857.651 455.035
2531 0 153.559 13.2978 2042 174.586 858.29 453.896
2532 0 160.513 13.3385 2141 167.366 857.203 449.933
2533 0 167.739 13.0381 2187 169.645 857.678 447.16
2534 0 175.356 13.1276 2302 173.237 857.482 443.665
2535 1 57.0687 12.4061 708 153.031 857.424 498.715
2536 0 58.2623 12.6669 738 165.66 858.146 497.606
2537 0 58.2623 12.6669 738 174.329 858.146 497.606
2538 0 63.0792 12.4447 785 169.692 858.632 494.717
2539 0 66.058 12.8372 848 167.225 858.337 493.61
2540 0 68.2443 12.4992 853 167.416 857.83 492.422
2541 0 71.0478 12.8646 914 165.434 857.836 490.321
2542 1 36.0816 12.3609 446 163.706 858.971 506.491
2543 0 37.0427 12.4991 463 174.076 859.762 506.456
2544 0 39.098 12.3024 481 171.037 859.769 505.264
2545 0 39.0553 12.8792 503 174.881 858.938 505.193
2546 0 40.0532 12.5084 501 175.254 858.078 504.208
2547 0 41.0603 13.1757 541 171.384 859.074 503.887
2548 0 43.1019 12.9229 557 175.025 857.005 503.18
2549 0 45.0913 12.9737 585 174.126 859.118 502.354
2550 0 44.0461 13.3497 588 172.582 858.713 502.039
2551 0 46.0718 13.2185 609 178.171 858.676 501.369
2552 0 47.15 13.3828 631 176.024 859.493 500.521
2553 0 48.1289 13.6093 655 177.388 859.258 500.206
2554 0 50.1679 13.3552 670 173.652 858.59 499.606
2555 0 50.3849 13.7938 695 174.747 858.321 498.672
2556 0 54.2796 13.4489 730 175.336 859.227 497.089
2557 0 54.2294 14.033 761 174.64 858.105 495.712
2558 0 57.2334 13.7332 786 176.765 857.469 494.968
2559 0 59.1577 13.8444 819 167.846 859.993 493.625
2560 0 60.1915 13.7727 829 176.148 857.741 492.778
2561 0 64.3074 13.6998 881 169.628 856.211 490.859
2562 0 66.5384 13.3607 889 169.012 856.984 490.435
2563 0 68.1831 13.8304 943 172.894 857.16 488.785
2564 0 72.1707 13.4542 971 171.333 856.248 487.629
2565 0 72.3568 13.5025 977 172.259 858.453 486.951
2566 0 75.3163 13.3836 1008 176.963 857.388 486.156
2567 0 76.1823 13.5464 1032 166.77 857.615 485.602
2568 0 80.376 13.2129 1062 171.318 857.007 484.494
2569 0 82.169 13.3262 1095 173.522 856.25 483.306
2570 0 85.1258 13.5094 1150 162.631 858.162 482.27
2571 0 86.1406 13.4315 1157 169.643 858.155 481.525
2572 0 90.2763 13.4033 1210 169.893 859.267 480.808
2573 0 92.3262 13.4306 1240 170.514 858.639 479.015
2574 0 95.1725 13.6909 1303 175.4 859.902 478.447
2575 0 97.2798 13.5999 1323 167.125 857.714 477.342
2576 0 98.3331 13.5865 1336 177.532 858.354 477.368
2577 0 101.544 13.5803 1379 177.073 858.769 475.52
2578 0 102.284 13.7558 1407 173.242 857.909 474.903
2579 0 106.278 13.9916 1487 172.674 858.225 472.927
2580 1 54.2455 13.9551 757 176.933 857.059 496.085
2581 0 56.2024 13.7183 771 174.84 858.922 495.91
2582 0 59.328 13.7035 813 178.561 858.775 495.022
2583 0 62.1942 13.5543 843 181.333 857.252 494.282
2584 0 62.1619 13.867 862 175.374 856.574 493.165
2585 0 64.3217 13.2304 851 171.115 857.843 492.665
2586 0 67.2164 13.4045 901 180.119 856.54 491.368
2587 0 70.178 13.6225 956 175.728 858.871 489.69
2588 0 73.292 13.3166 976 174.373 858.639 488.453
2589 0 75.1626 13.5307 1017 175.871 858.444 487.102
2590 0 78.1969 13.4404 1051 179.793 859.284 485.391
2591 0 80.0908 13.4972 1081 174.584 858.853 484.55
2592 0 84.1481 13.0722 1100 174.942 857.928 483.767
2593 1 43.0742 13.3258 574 174.746 860.071 501.679
2594 0 45.1359 13.3153 601 176.874 860.704 500.992
2595 0 47.0589 13.175 620 176.929 858.473 500.411
2596 0 48.1651 13.2046 636 178.162 858.371 499.017
2597 0 48.0365 13.9894 672 173.36 857.972 498.485
2598 0 51.0896 13.7406 702 169.775 857.286 497.528
2599 0 52.1168 13.8343 721 179.693 855.938 496.951
2600 0 54.0598 13.8735 750 182.203 856.957 495.848
2601 0 55.0431 14.0617 774 169.273 854.915 494.614
2602 0 59.0615 13.9177 822 170.996 855.779 493.758
2603 0 60.0885 13.9794 840 171.008 856.056 492.927
2604 0 61.0626 14.4278 881 178.541 853.806 492.63
2605 0 63.1134 14.1491 893 180.297 855.777 491.587
2606 0 65.0507 14.358 934 174.16 857.148 490.223
2607 0 68.1405 14.4261 983 177.674 854.716 489.338
2608 0 70.0433 14.4625 1013 176.714 855.44 488.151
2609 0 73.0614 14.2483 1041 175.512 857.404 486.886
2610 0 74.0695 14.4729 1072 176.816 856.284 486.084
2611 0 76.1433 14.7091 1120 173.246 855.568 484.842
2612 0 80.1044 14.7183 1179 177.064 855.251 482.691
2613 0 82.0448 14.5286 1192 162.476 855.362 481.889
2614 0 86.039 14.6329 1259 176.562 854.291 480.409
2615 0 90.1311 14.6897 1324 179.006 854.99 478.704
2616 0 91.0967 14.7206 1341 177.105 854.884 476.373
2617 0 97.093 14.4501 1403 176.756 855.566 474.697
2618 0 99.0893 14.3911 1426 176.229 854.39 473.906
2619 0 103.141 14.2233 1467 174.643 855.318 472.524
2620 0 105.158 14.3213 1506 169.569 855.988 470.969
2621 0 109.356 14.2837 1562 174.246 855.784 468.978
2622 0 114.164 14.2601 1628 172.569 856.453 467.146
2623 0 117.195 14.0023 1641 172.982 855.533 465.015
2624 0 122.2 14.1408 1728 171.914 855.617 463.635
2625 0 126.294 14.2445 1799 170.268 856.823 461.462
2626 0 130.199 14.2014 1849 174.938 855.328 460.062
2627 0 133.23 14.6964 1958 170.239 854.912 456.863
2628 0 138.203 14.6162 2020 177.924 856.758 455.484
2629 0 143.188 14.4845 2074 178.296 856.492 453.294
2630 0 148.207 14.473 2145 168.907 856.432 450.666
2631 0 154.199 14.6045 2252 171.711 854.577 447.79
2632 0 161.183 14.2446 2296 173.827 854.791 444.821
2633 0 166.268 14.0496 2336 175.278 856.922 442.591
2634 0 171.194 14.1302 2419 176.291 856.8 439.112
2635 0 178.225 14.4817 2581 171.186 855.181 435.805
2636 0 184.202 14.5927 2688 167.495 855.394 432.074
2637 0 191.267 14.3099 2737 165.9 855.257 430.127
2638 0 197.264 14.6605 2892 170.775 855.396 426.025
2639 0 202.187 14.6943 2971 165.875 857.46 424.297
2640 0 209.333 14.7755 3093 172.119 856.223 421.794
2641 0 216.403 14.644 3169 168.427 856.225 418.052
2642 0 224.231 14.7036 3297 169.822 855.241 414.831
2643 1 283.484 22.4457 6363 123.118 855.251 361.396
2644 1 255.559 21.1458 5404 132.642 856.543 382.547
2645 0 260.303 19.2698 5016 143.502 856.768 385.536
2646 1 194.36 13.5418 2632 170.03 856.016 430.125
2647 0 203.285 13.4737 2739 174.286 855.702 427.169
2648 1 135.224 13.4665 1821 165.798 856.282 457.608
2649 0 140.194 13.2174 1853 164.378 857.656 455.064
2650 0 144.303 13.5964 1962 170.554 858.009 452.251
2651 0 150.197 13.935 2093 165.326 858.094 449.139
2652 0 154.333 13.7883 2128 168.651 859.482 447.67
2653 0 160.397 13.6162 2184 169.18 858.238 445.65
2654 0 166.392 13.8108 2298 173.007 858.44 442.892
2655 0 172.441 13.8714 2392 172.266 857.711 439.237
2656 0 176.502 13.6712 2413 172.77 858.586 438.466
2657 0 183.499 13.5696 2490 172.923 856.674 435.388
2658 0 189.632 13.9164 2639 173.452 856.44 433.036
2659 0 196.261 14.4553 2837 171.199 859.681 428.308
2660 0 203.374 14.579 2965 169.573 854.381 424.39
2661 0 209.481 14.5073 3039 164.942 854.426 422.166
2662 0 218.296 14.3063 3123 163.333 854.068 418.092
2663 0 227.698 14.4006 3279 174.744 854.842 414.426
2664 0 234.5 14.7463 3458 167.266 854.298 409.949
2665 0 243.559 14.9738 3647 170.993 855.434 405.325
2666 0 327.773 16.1453 5292 156.364 853.006 359.915
2667 0 336.872 16.5938 5590 159.564 854.79 356.245
2668 1 312.428 22.7797 7117 127.855 852.79 346.274
2669 0 314.197 23.8131 7482 124.492 855.254 341.548
2670 1 204.413 13.6929 2799 176.39 855.228 426.125
2671 0 212.498 14.0707 2990 174.202 856.181 422.816
2672 0 220.3 14.1716 3122 176.224 855.348 417.733
2673 0 230.589 14.476 3338 171.507 855.34 412.918
2674 0 237.457 14.5837 3463 171.75 853.715 409.379
2675 0 247.574 15.769 3904 163.152 854.114 401.097
2676 0 247.63 14.9659 3706 157.548 853.88 401.701
2677 0 248.348 15.2165 3779 168.677 854.678 401.695
2678 0 249.488 15.2312 3800 167.597 853.637 401.765
2679 1 182.519 13.4452 2454 168.925 855.481 439.33
2680 1 145.379 13.6333 1982 171.749 855.735 454.146
2681 0 148.418 13.3811 1986 174.326 855.255 452.689
2682 0 155.244 13.3081 2066 168.857 855.132 449.521
2683 0 158.419 13.7168 2173 178.854 856.237 448.05
2684 0 163.415 13.5606 2216 178.398 855.098 445.679
2685 0 173.365 13.7167 2378 176.573 855.985 440.731
2686 0 181.48 13.6158 2471 174.373 855.741 437.938
2687 1 122.254 13.4719 1647 179.787 857.395 464.648
2688 0 128.311 13.3738 1716 178.332 856.2 462.598
2689 0 133.29 13.1443 1752 180.118 856.002 460.225
2690 0 138.174 13.3093 1839 178.248 854.792 457.177
2691 1 73.1782 12.9 944 170.001 856.404 487.728
2692 0 74.1237 13.2211 980 176.13 856.166 486.628
2693 0 76.0884 13.3529 1016 178.115 857.426 485.396
2694 0 81.2379 12.8881 1047 177.768 856.861 483.908
2695 0 82.1203 12.8592 1056 176.806 857.894 482.8
2696 0 86.2227 13.1288 1132 173.114 857.681 481.011
2697 0 91.1522 13.1538 1199 172.213 857.625 479.133
2698 0 91.1346 12.9808 1183 165.726 858.684 478.671
2699 0 94.1508 13.266 1249 172.301 859.389 476.97
2700 0 94.1508 13.266 1249 179.641 859.389 476.97
2701 0 101.238 13.1868 1335 168.337 858.596 473.672
2702 0 102.132 13.2672 1355 172.258 858.818 472.5
2703 0 105.238 13.5977 1431 178.005 859.622 471.382
2704 0 108.14 13.2514 1433 175.461 858.768 469.586
2705 0 111.14 13.4065 1490 181.054 859.284 468.942
2706 0 116.254 13.5049 1570 168.868 860.903 465.904
2707 0 120.306 13.3991 1612 173.36 858.771 464.397
2708 0 123.205 13.8306 1704 173.113 859.593 462.518
2709 0 128.279 13.8292 1774 169.564 860.28 460.414
2710 1 66.0865 13.6336 901 183.208 859.877 488.938
2711 0 68.0948 13.2169 900 174.007 857.281 488.454
2712 0 72.1465 13.4171 968 171.572 860.749 486.006
2713 0 74.1565 13.5389 1004 175.752 859.978 484.827
2714 0 76.2442 13.5486 1033 169.653 858.272 483.705
2715 0 79.0947 13.4396 1063 171.621 859.893 481.932
2716 0 81.1474 13.2229 1073 177.176 858.893 480.858
2717 0 85.1241 13.0515 1111 175.11 857.914 479.852
2718 0 88.0744 12.9549 1141 168.65 858.462 479.66
2719 0 89.1897 12.9387 1154 175.588 858.923 478.451
2720 0 93.0935 13.3199 1240 176.032 861.106 476.661
2721 0 95.1898 13.3523 1271 179.035 857.923 475.478
2722 1 110.304 13.3631 1474 177.733 858.354 468.546
2723 0 109.339 13.3255 1457 169.034 859.99 468.498
2724 0 109.173 13.2542 1447 174.522 858.887 468.983
2725 0 109.159 13.3566 1458 176.347 859.432 468.68
2726 0 112.449 13.6062 1530 171.793 857.907 467.743
2727 0 116.059 13.226 1535 166.811 857.053 465.243
2728 0 120.262 13.6701 1644 170.58 859.001 463.21
2729 0 125.098 13.4374 1681 176.878 857.415 461.551
2730 0 129.389 13.641 1765 167.678 855.383 458.868
2731 0 133.413 13.462 1796 170.192 857.709 456.887
2732 0 135.51 14.1614 1919 178.423 857.139 455.713
2733 0 134.328 13.869 1863 170.784 856.945 455.711
2734 1 44.1205 12.9418 571 170.862 857.778 497.615
2735 0 46.4239 12.7951 594 170.532 859.439 497.599
2736 0 48.0201 13.057 627 165.255 858.469 497.418
2737 0 50.3142 12.7996 644 171.868 858.332 497.604
2738 0 51.0964 13.1125 670 173.175 859.078 497.452
2739 0 51.125 13.379 684 172.358 859.58 497.174
2740 0 53.1947 13.2908 707 170.76 857.144 496.621
2741 0 54.2498 13.3825 726 161.435 858.778 496.545
2742 0 57.1143 13.6568 780 171.763 856.39 495.254
2743 0 60.3134 13.4796 813 174.816 856.812 494.812
2744 0 61.2505 13.7795 844 171.019 858.24 494.011
2745 0 65.2734 13.5124 882 167.07 857.161 492.644
2746 0 67.4545 13.6388 920 166.488 856.587 491.555
2747 0 70.2023 13.3186 935 159.831 855.566 490.088
2748 0 71.2924 13.5639 967 167.781 856.592 489.053
2749 0 76.3046 13.6034 1038 167.558 854.434 487.393
2750 0 78.1978 13.7216 1073 162.67 855.728 485.783
2751 0 81.2417 13.3429 1084 167.847 856.543 485.284
2752 0 85.215 13.4366 1145 172.112 856.052 484.066
2753 1 41.2072 13.3472 550 170.46 857.084 504.445
2754 0 43.1405 13.3053 574 169.249 856.594 504.324
2755 0 44.1306 13.8906 613 171.664 854.517 503.53
2756 0 46.2018 13.9172 643 132.645 855.547 503.708
2757 0 47.34 13.9417 660 171.33 855.559 503.164
2758 0 48.3461 13.7343 664 175.364 855.422 502.904
2759 0 50.1723 14.1313 709 171.962 855.74 502.293
2760 0 53.2404 13.749 732 174.31 856.287 501.295
2761 0 56.3491 13.6648 770 178.208 855.736 500.999
2762 0 55.47 13.9535 774 175.911 856.001 500.782
2763 0 57.4286 13.8607 796 177.611 855.889 500.637
2764 0 59.389 14.4303 857 179.543 857.414 500.198
2765 0 59.3982 14.327 851 185.497 856.294 499.743
2766 0 63.322 14.4026 912 177.49 858.484 498.836
2767 0 65.3452 14.1709 926 177.846 857.558 498.076
2768 0 70.337 14.1746 997 175.257 855.396 496.037
2769 0 69.4701 14.2363 989 179.723 856.372 495.946
2770 0 70.2858 14.5264 1021 178.525 856.68 495.118
2771 0 71.3427 14.4654 1032 178.147 854.741 494.879
2772 0 77.3282 14.1216 1092 177.916 855.954 492.764
2773 0 80.3752 13.7356 1104 173.058 856.65 492.451
2774 0 83.3954 13.7298 1145 175.019 854.693 491.075
2775 1 188.658 14.0678 2654 168.231 853.015 443.985
2776 1 144.485 14.1399 2043 170.301 855.58 463.283
2777 0 144.485 14.1399 2043 180.359 857.58 463.283
2778 0 155.452 14.3067 2224 175.303 856.645 459.272
2779 0 161.553 14.3606 2320 177.688 856.023 456.866
2780 0 166.463 14.2975 2380 177.618 855.737 455.18
2781 0 172.349 14.2792 2461 168.588 855.167 451.961
2782 0 181.214 14.3532 2601 172.403 854.613 448.637
2783 0 187.329 14.5039 2717 172.872 854.772 444.824
2784 0 196.279 14.5507 2856 175.888 854.572 440.192
2785 0 202.297 14.3452 2902 172.918 854.944 437.934
2786 0 212.272 14.4013 3057 171.28 855.43 434.382
2787 0 219.312 14.0758 3087 166.5 855.974 430.232
2788 0 231.412 14.472 3349 168.385 854.891 426.096
2789 1 144.179 13.8369 1995 175.663 854.722 466.432
2790 0 149.198 13.6932 2043 172.293 853.682 463.994
2791 0 152.24 13.7021 2086 175.021 853.407 462.519
2792 0 158.214 13.7978 2183 173.854 853.458 460.376
2793 0 163.243 13.8628 2263 173.328 853.313 459.092
2794 1 124.133 13.5178 1678 177.119 853.56 475.655
2795 0 128.316 13.7239 1761 171.487 855.447 473.352
2796 0 134.308 13.8562 1861 172.769 854.457 471.783
2797 0 137.28 14.2556 1957 174.234 854.987 470.599
2798 0 142.239 13.9554 1985 167.607 854.006 467.577
2799 0 148.257 14.0635 2085 171.033 853.663 465.313
2800 0 151.324 14.089 2132 172.1 853.59 463.815
2801 0 156.312 14.2344 2225 171.255 854.855 461.33
2802 0 164.349 14.1772 2330 163.035 854.65 458.179
2803 0 169.412 14.4146 2442 171.748 856.637 455.169
2804 0 176.344 14.2959 2521 173.451 854.879 452.121
2805 0 184.393 14.2576 2629 173.076 855.943 449.112
2806 0 189.536 14.3245 2715 173.889 854.138 447.192
2807 0 199.268 14.0263 2795 173.52 854.609 443.677
2808 0 204.245 14.1497 2890 174.513 854.04 440.22
2809 0 213.483 14.1978 3031 174.464 854.584 436.832
2810 1 262.53 18.615 4887 142.372 851.786 397.123
2811 0 263.738 19.6331 5178 135.816 853.819 394.689
2812 0 264.907 18.9085 5009 138.946 853.691 397.211
2813 0 262.939 18.2362 4795 139.62 852.193 403.8
2814 0 265.464 18.2247 4838 140.327 853.403 400.471
2815 0 269.59 16.6624 4492 150.384 851.114 403.314
2816 0 273.591 14.3243 3919 168.934 852.459 410.382
2817 0 275.686 23.69 6531 119.953 851.908 375.352
2818 1 140.502 13.8076 1940 174.303 853.358 472.273
2819 0 145.325 14.0513 2042 174.14 853.611 470.096
2820 0 149.378 14.1185 2109 174.887 854.434 468.816
2821 0 155.407 14.002 2176 174.807 855.178 466.921
2822 0 157.391 14.4418 2273 173.467 856.039 465.253
2823 0 165.384 14.1852 2346 171.236 854.443 462.054
2824 0 172.363 14.3883 2480 173.905 855.062 457.545
2825 0 180.374 14.3812 2594 178.825 855.133 455.305
2826 0 188.4 14.3365 2701 170.904 854.145 451.553
2827 0 197.424 14.3751 2838 171.258 854.986 447.139
2828 0 205.532 14.4746 2975 169.65 856.182 443.742
2829 0 216.5 14.2309 3081 176.939 855.02 439.721
2830 0 227.73 14.5523 3314 168.316 854.432 434.349
2831 1 274.673 17.9631 4934 139.246 851.85 400.873
2832 0 273.878 18.4462 5052 139.03 853.241 398.464
2833 1 202.485 13.7738 2789 177.16 853.729 447.589
2834 0 208.622 13.7665 2872 173.294 853.311 444.289
2835 0 214.694 14.006 3007 169.67 851.93 442.485
2836 0 222.614 13.903 3095 167.059 852.765 438.601
2837 0 231.762 14.4286 3344 166.496 851.598 433.128
2838 1 187.505 13.221 2479 175.985 852.043 457.32
2839 0 192.637 13.2529 2553 174.74 852.792 454.876
2840 0 198.702 13.3416 2651 174.132 852.728 453.005
2841 0 203.564 13.2931 2706 169.591 854.119 452.067
2842 0 210.801 13.6337 2874 169.728 853.343 447.989
2843 0 210.801 13.6337 2874 177.918 853.343 447.989
2844 1 115.684 13.4677 1558 170.027 853.314 491.058
2845 0 118.715 13.6967 1626 169.891 852.763 488.502
2846 0 122.496 13.5597 1661 174.86 855.072 488.216
2847 1 70.348 13.1631 926 172.756 854.88 512.386
2848 0 74.2613 13.1428 976 174.704 855.593 510.188
2849 0 73.192 13.2528 970 174.795 853.875 509.966
2850 0 78.2306 13.3579 1045 173.295 855.518 507.906
2851 0 81.3435 13.5844 1105 173.544 855.084 506.583
2852 0 83.3106 13.2276 1102 171.334 855.332 506.273
2853 0 85.4553 13.3754 1143 172.847 854.869 504.442
2854 0 89.3774 13.415 1199 173.111 857.177 503.939
2855 0 90.3236 13.7063 1238 171.014 856.246 502.849
2856 0 95.4302 13.5387 1292 170.187 855.751 502.176
2857 0 96.3019 13.7484 1324 167.009 855.892 501.423
2858 0 99.3183 14.0155 1392 166.838 854.854 498.422
2859 0 103.268 13.6538 1410 171.489 855.344 497.621
2860 0 105.357 13.7248 1446 171.701 855.193 496.525
2861 0 109.413 13.7461 1504 172.338 856.676 495.143
2862 0 113.56 14.0542 1596 169.095 855.98 493.415
2863 0 117.383 13.8095 1621 166.808 855.08 492.029
2864 0 121.379 13.981 1697 167.965 854.08 489.887
2865 0 126.359 14.0552 1776 172.405 853.068 488.21
2866 0 129.378 14.1291 1828 169.881 852.803 486.313
2867 0 132.599 14.1781 1880 169.207 854.065 484.564
2868 0 139.688 13.9954 1955 170.595 854.417 481.925
2869 0 142.382 14.1029 2008 176.178 853.8 480.636
2870 0 147.368 14.1957 2092 170.064 853.825 478.265
2871 1 76.2399 13.4969 1029 175.882 854.443 512.19
2872 0 78.3297 13.5708 1063 177.706 852.379 511.054
2873 0 81.2416 13.4783 1095 174.122 852.364 510.374
2874 0 84.2328 13.522 1139 168.597 855.647 509.506
2875 0 85.2387 13.4798 1149 178.047 855.333 509.138
2876 1 177.507 14.0896 2501 173.353 852.957 466.981
2877 0 182.622 14.1932 2592 171.485 852.968 465.332
2878 0 187.493 14.2778 2677 171.896 852.742 463.306
2879 0 193.459 14.2872 2764 170.154 851.961 461.388
2880 0 200.509 14.5081 2909 170.881 851.32 458.326
2881 0 205.553 14.551 2991 161.797 853.593 456.5
2882 1 176.416 14.5735 2571 172.59 852.618 470.772
2883 1 114.196 14.7729 1687 178.203 853.996 499.347
2884 0 116.287 14.4384 1679 174.061 852.096 499.114
2885 0 120.368 14.6551 1764 179.392 851.229 498.142
2886 0 124.246 14.5518 1808 182.655 850.223 496.929
2887 0 126.26 14.8582 1876 170.143 851.632 496.316
2888 0 130.257 14.6019 1902 178.979 850.965 496.004
2889 0 135.277 14.4814 1959 179.228 851.54 494.464
2890 0 139.359 14.7102 2050 173.522 852.357 492.173
2891 0 143.234 14.7451 2112 174.785 851.161 491.018
2892 0 148.249 14.5768 2161 172.222 851.69 489.227
2893 0 154.264 14.5076 2238 174.74 852.639 486.793
2894 0 159.209 14.6914 2339 172.411 850.753 484.792
2895 0 163.299 14.8562 2426 176.14 851.733 482.705
2896 0 168.259 14.8105 2492 167.306 851.063 480.505
2897 0 174.283 14.5854 2542 168.367 849.535 478.216
2898 0 180.503 14.8031 2672 176.023 850.772 476.142
2899 0 183.249 15.1542 2777 170.127 851.62 472.656
2900 0 192.346 14.8742 2861 169.652 851.326 471.175
2901 0 198.281 15.0494 2984 169.639 852.138 467.828
2902 0 204.256 14.7952 3022 166.707 851.97 466.236
2903 0 208.372 15.2755 3183 169.829 850.856 463.169
2904 0 217.431 15.1726 3299 177.554 851.374 460.18
2905 0 225.387 15.2626 3440 171.294 851.085 456.329
2906 0 233.302 15.1864 3543 169.02 851.869 452.673
2907 0 242.479 15.1436 3672 167.523 850.005 449.282
2908 0 249.563 15.1104 3771 168.155 852.108 445.811
2909 1 221.474 14.1868 3142 174.497 851.935 462.11
2910 0 231.604 14.4903 3356 172.01 852.035 456.492
2911 0 238.659 14.8874 3553 170.985 850.345 452.311
2912 1 207.501 14.2939 2966 169.087 852.356 468.228
2913 1 175.266 14.8231 2598 182.166 852.398 481.507
2914 0 179.393 14.9337 2679 175.318 852.552 480.449
2915 0 185.433 15.1483 2809 175.716 851.093 476.853
2916 0 193.354 14.9725 2895 170.254 850.959 473.105
2917 0 198.293 14.9728 2969 177.858 850.634 470.581
2918 0 207.361 14.7038 3049 172.485 849.749 467.593
2919 1 164.187 14.9464 2454 174.86 851.017 485.348
2920 0 172.315 14.8159 2553 181.732 851.057 481.763
2921 0 174.399 14.8911 2597 180.939 851.01 481.256
2922 0 182.379 14.8647 2711 174.341 851.637 478.276
2923 0 187.453 15.1024 2831 173.063 851.443 475.085
2924 0 192.39 15.1359 2912 175.823 849.755 472.202
2925 0 199.242 15.1022 3009 173.637 851.045 469.509
2926 0 205.644 14.8752 3059 174.911 849.636 466.48
2927 0 210.472 15.0138 3160 179.455 850.871 464.923
2928 0 220.364 15.0388 3314 179.65 852.078 460.531
2929 0 229.344 15.0516 3452 165.576 850.318 456.632
2930 1 167.284 14.7832 2473 183.624 850.801 484.386
2931 0 171.181 14.7271 2521 177.453 851.204 483.111
2932 0 177.206 14.7399 2612 177.436 850.748 479.665
2933 0 182.331 14.7095 2682 177.346 851.78 478.333
2934 0 190.307 14.9127 2838 175.996 851.184 473.575
2935 0 196.357 14.988 2943 178.722 851.471 470.831
2936 0 202.457 15.2625 3090 171.975 852.536 467.269
2937 0 211.323 14.8445 3137 172.054 851.301 463.892
2938 0 219.354 15.1444 3322 174.231 850.28 459.05
2939 0 228.3 15.2344 3478 175.207 850.14 455.366
2940 0 237.35 15.2517 3620 165.719 851.768 451.207
2941 1 185.334 14.0611 2606 175.672 854.09 477.655
2942 0 192.456 14.2318 2739 179.856 852.97 474.348
2943 0 200.215 14.5443 2912 170.45 851.797 470.674
2944 0 208.229 14.2584 2969 181.361 851.102 467.266
2945 0 211.239 14.7416 3114 178.761 851.266 465.462
2946 0 221.272 14.8595 3288 174.307 850.85 460.963
2947 0 230.453 14.823 3416 171.922 851.211 455.901
2948 0 238.468 14.916 3557 172.27 850.784 451.828
2949 0 248.443 15.4804 3846 164.495 852.416 445.827
2950 1 205.25 14.363 2948 175.775 853.72 468.647
2951 0 205.38 14.4464 2967 173.436 853.213 469.735
2952 0 205.348 14.3854 2954 180.055 851.652 469.529
2953 0 205.253 14.3969 2955 174.793 852.67 470.384
2954 1 149.384 14.4393 2157 181.322 853.54 495.026
2955 0 154.338 14.3062 2208 181.572 851.5 493.724
2956 1 52.0976 14.8951 776 182.393 852.8 539.042
2957 0 52.1498 15.0144 783 179.683 852.038 538.319
2958 0 55.0771 14.634 806 170.279 854.842 537.716
2959 0 58.1065 14.6111 849 185.196 852.949 536.858
2960 0 60.069 14.5499 874 180.449 852.347 535.926
2961 0 61.1366 14.8029 905 175.441 854.664 535.381
2962 0 64.0733 14.6551 939 183.946 851.671 534.184
2963 0 65.0547 14.8798 968 180.142 852.939 533.303
2964 0 67.0712 14.7604 990 180.198 850.982 532.476
2965 0 69.1308 14.7836 1022 177.763 851.998 531.711
2966 0 73.1347 14.5348 1063 177.034 852.878 529.867
2967 0 74.1513 14.6862 1089 178.043 853.087 529.272
2968 0 77.101 14.2411 1098 179.197 852.416 528.493
2969 0 79.1549 14.2632 1129 176.706 852.934 527.408
2970 0 84.1943 14.2171 1197 181.088 852.866 526.051
2971 0 84.09 14.211 1195 179.126 852.307 525.644
2972 0 85.1159 14.6154 1244 174.88 852.76 525.03
2973 0 85.1925 14.8839 1268 181.369 852.573 524.383
2974 0 92.2183 14.4765 1335 179.198 849.764 521.554
2975 0 96.1479 14.7585 1419 179.03 851.858 519.679
2976 0 97.1031 14.7781 1435 176.466 853.231 519.233
2977 0 101.134 14.3769 1454 168.792 853.517 518.677
2978 0 102.202 14.8334 1516 175.146 853.24 516.73
2979 0 108.27 14.4084 1560 174.599 854.133 514.841
2980 1 56.0614 14.1809 795 175.152 854.265 539.633
2981 0 58.1192 14.0057 814 168.167 853.806 538.758
2982 0 60.2292 13.9467 840 174.976 852.931 537.706
2983 0 62.3044 13.9477 869 179.684 853.34 536.56
2984 0 63.2049 14.1919 897 177.285 854.056 536.21
2985 0 67.1386 14.1796 952 177.595 854.742 534.621
2986 0 68.0791 14.3509 977 179.644 853.568 533.576
2987 0 71.1897 14.5808 1038 177.338 854.617 531.853
2988 0 74.0927 14.3064 1060 173.866 853.168 531.168
2989 0 77.0988 14.1118 1088 172.494 852.466 529.67
2990 0 79.0985 14.0584 1112 174.341 854.444 528.779
2991 0 80.1035 14.0693 1127 176.148 854.506 528.272
2992 0 84.0763 13.9278 1171 174.947 854.445 527.161
2993 0 86.1127 14.1326 1217 170.27 853.763 525.48
2994 0 90.119 14.0259 1264 168.736 852.851 524.052
2995 0 90.1775 14.3273 1292 169.043 851.451 522.24
2996 0 94.1299 13.9488 1313 168.298 852.772 521.618
2997 0 94.1299 13.9488 1313 168.385 851.772 521.618
2998 0 94.1299 13.9488 1313 168.385 850.772 521.618
2999 0 103.227 14.1049 1456 176.42 851.796 518.918
3000 0 107.246 14.1264 1515 173.214 850.935 517.424
3001 0 110.156 14.2707 1572 179.604 850.959 515.989
3002 0 114.172 14.084 1608 176.552 851.358 514.887
3003 0 117.297 14.0583 1649 174.094 852.028 513.922
3004 0 124.511 14.0951 1755 170.418 852.577 511.548
3005 0 127.221 14.0857 1792 175.581 853.301 510.145
3006 0 132.394 14.5098 1921 169.554 852.239 507.848
3007 0 139.393 14.2834 1991 173.358 852.489 504.524
3008 0 144.353 14.3468 2071 173.457 850.611 502.852
3009 0 149.343 14.1754 2117 173.772 849.732 500.487
3010 0 155.325 13.9256 2163 167.154 851.24 498.257
3011 0 157.196 14.2052 2233 168.016 851.291 497.39
3012 0 164.423 13.9396 2292 179.145 849.97 494.557
3013 0 171.366 14.0402 2406 168.741 850.946 491.37
3014 0 175.578 13.9938 2457 168.386 851.33 491.838
3015 0 180.486 14.3501 2590 178.943 850.743 487.706
3016 0 190.283 14.3155 2724 171.544 849.182 483.67
3017 0 193.349 14.3988 2784 171.037 851.619 483.554
3018 1 149.327 13.8488 2068 174.666 852.136 503.844
3019 0 155.365 13.774 2140 172.08 853.442 501.304
3020 0 158.726 13.9108 2208 166.788 853.477 499.562
3021 0 166.304 14.0406 2335 173.08 853.377 495.796
3022 0 171.42 14.2982 2451 171.2 851.562 493.573
3023 1 118.228 13.863 1639 181.043 853.278 517.703
3024 0 124.279 13.7111 1704 180.2 852.167 515.8
3025 0 129.68 13.5873 1762 173.478 852.03 513.461
3026 0 132.214 13.8791 1835 184.037 850.644 511.369
3027 0 137.343 13.7466 1888 179.2 850.797 509.781
3028 0 142.316 13.8986 1978 177.113 852.416 507.128
3029 0 150.332 13.8493 2082 175.844 852.633 503.723
3030 0 154.341 13.6127 2101 173.344 854.185 501.872
3031 0 157.261 13.7606 2164 177.83 851.279 499.912
3032 0 164.654 13.9869 2303 175.304 852.826 496.747
3033 0 170.744 13.8219 2360 178.087 850.556 493.12
3034 0 175.677 13.9005 2442 174.63 851.77 491.372
3035 0 184.648 13.9617 2578 170.975 849.992 486.94
3036 0 190.284 13.7374 2614 177.218 850.938 484.886
3037 1 147.389 13.2778 1957 180.168 852.046 505.569
3038 0 152.36 13.4878 2055 174.212 850.542 503.206
3039 0 157.556 13.4682 2122 173.585 850.19 500.766
3040 0 161.318 13.4951 2177 171.748 851.93 499.215
3041 0 167.413 13.5951 2276 169.371 852.411 497.693
3042 0 174.482 13.6404 2380 174.797 852.618 493.538
3043 0 181.54 13.5232 2455 177.946 852.531 490.837
3044 0 187.469 13.4902 2529 168.837 851.549 487.123
3045 0 194.324 13.9664 2714 170.37 852.013 483.626
3046 0 201.328 13.8083 2780 172.473 851.817 481.704
3047 0 210.275 13.8771 2918 173.276 852.219 477.02
3048 1 142.288 13.1915 1877 174.832 852.431 509.268
3049 0 148.168 13.1 1941 177.526 850.901 506.747
3050 1 76.1014 13.1929 1004 176.844 852.596 540.091
3051 0 78.1493 13.1415 1027 173.976 853.447 539.287
3052 0 81.0798 13.3202 1080 170.406 853.249 538.095
3053 1 41.1429 12.7118 523 170.946 853.228 556.359
3054 0 42.1483 12.7407 537 167.344 853.285 556.398
3055 0 43.0313 13.1067 564 174.498 853.982 556.037
3056 0 45.0566 13.1612 593 171.769 853.826 555.094
3057 0 48.0879 13.2258 636 169.36 854.829 554.226
3058 0 48.0591 13.2337 636 175.94 853.852 554.003
3059 0 50.1493 13.1009 657 165.697 853.078 553.269
3060 0 51.0827 12.7245 650 169.348 853.228 553.325
3061 0 52.1501 13.3461 696 171.299 853.318 552.685
3062 0 53.0962 13.4096 712 162.07 855.018 552.383
3063 0 54.066 13.761 744 170.757 854.507 551.456
3064 0 56.1454 13.465 756 170.636 853.069 551.241
3065 0 58.1137 13.508 785 172.018 852.721 550.665
3066 0 58.123 13.7811 801 174.042 852.487 550.198
3067 0 61.1645 13.2593 811 177.021 854.244 549.062
3068 0 66.0617 13.1695 870 175.538 853.771 547.745
3069 0 66.058 13.3368 881 174.085 853.65 547.564
3070 0 66.0581 13.9271 920 171.152 854.796 546.853
3071 0 65.1037 14.1467 921 173.236 852.074 546.343
3072 0 72.125 13.6984 988 175.985 852.634 544.975
3073 0 76.2152 13.37 1019 175.901 852.262 543.069
3074 0 76.21 13.699 1044 171.96 851.197 543.402
3075 0 80.1485 13.3502 1070 173.073 853.526 540.834
3076 0 83.1296 13.509 1123 171.559 851.232 540.355
3077 0 86.1577 13.4753 1161 165.332 852.822 539.161
3078 0 86.1577 13.4753 1161 178.233 852.822 539.161
3079 1 184.458 13.7322 2533 169.315 851.072 493.31
3080 0 191.407 13.6724 2617 166.422 850.771 490.24
3081 0 195.321 14.1511 2764 176.882 851.232 488.523
3082 1 149.527 13.6631 2043 177.572 851.16 511.297
3083 1 50.1499 13.6192 683 170.82 851.287 556.988
3084 0 51.217 13.4721 690 164.254 850.896 557.014
3085 0 52.226 13.6331 712 166.806 851.055 556.118
3086 0 56.2502 13.4222 755 168.97 851.976 555.246
3087 0 58.146 13.4661 783 152.008 849.692 554.822
3088 0 59.2179 13.4588 797 172.91 852.396 554.346
3089 0 61.1187 13.2202 808 172.276 852.317 554.455
3090 0 60.1484 14.5141 873 171.663 851.867 552.95
3091 0 66.3027 13.6646 906 169.85 851.944 551.642
3092 0 68.0931 13.3494 909 168.189 851.088 551.635
3093 0 73.1381 13.5634 992 174.526 852.875 549.062
3094 0 73.1619 13.7093 1003 172.784 852.961 548.846
3095 0 75.132 13.5229 1016 174.256 853.158 548.03
3096 0 77.1046 13.553 1045 172.805 853.152 547.466
3097 0 80.1763 13.6075 1091 178.236 852.975 546.046
3098 0 82.1388 13.3311 1095 170.947 853.026 545.322
3099 0 85.1098 13.7587 1171 170.271 851.891 542.827
3100 0 86.0841 13.9747 1203 167.16 851.42 542.839
3101 0 86.2084 14.0589 1212 171.28 850.582 542.352
3102 0 86.2084 14.0589 1212 180.209 849.582 542.352
3103 0 97.1305 13.7341 1334 172.458 850.803 538.873
3104 0 100.184 13.595 1362 178.358 852.938 538.239
3105 0 107.144 13.7572 1474 169.151 852.098 534.79
3106 0 107.117 13.8261 1481 175.216 853.138 534.558
3107 0 107.045 14.3958 1541 171.47 850.884 533.411
3108 0 116.101 13.8155 1604 175.262 852.771 531.171
3109 0 118.198 14.0611 1662 179.387 849.265 529.569
3110 0 123.193 13.8887 1711 173.028 852.172 527.775
3111 0 128.078 14.1086 1807 176.711 851.759 526.371
3112 0 132.204 13.9557 1845 165.023 851.806 524.499
3113 1 63.1278 13.5756 857 167.071 852.432 557.811
3114 0 67.1002 13.3383 895 161.99 854.771 556.549
3115 0 70.1003 13.6804 959 166.863 852.051 555.112
3116 0 72.1005 13.4257 968 165.146 850.716 554.684
3117 0 76.1259 13.1755 1003 164.461 850.669 553.617
3118 0 78.1415 13.6163 1064 159.488 851.401 552.422
3119 0 80.1624 12.9487 1038 161.047 849.906 552.046
3120 0 81.127 13.5343 1098 165.31 850.605 550.429
3121 0 85.1324 13.6023 1158 167.708 852.475 549.165
3122 0 89.0905 13.7164 1222 164.63 853.201 548.223
3123 0 92.1086 13.3429 1229 165.07 852.096 547.267
3124 1 44.0461 12.8048 564 164.77 853.67 569.78
3125 0 46.0597 13.0483 601 166.562 850.298 569.231
3126 0 47.0773 13.4035 631 168.628 851.997 569.12
3127 0 50.0731 13.0609 654 163.624 851.648 568.321
3128 0 51.0446 13.1649 672 169.454 851.993 567.417
3129 0 58.0382 13.0776 759 171.203 852.777 564.872
3130 0 58.0443 13.0934 760 172.407 851.592 565.046
3131 0 57.0843 13.3837 764 174.641 852.429 564.158
3132 0 58.0476 13.9368 809 178.108 851.248 563.041
3133 0 62.0408 13.4266 833 170.202 851.324 562.086
3134 0 65.056 13.2501 862 176.401 851.736 561.139
3135 0 66.0757 13.2878 878 176.993 852.507 560.62
3136 0 69.1196 13.2958 919 178.832 853.163 559.188
3137 0 71.013 13.2793 943 164.562 851.66 558.262
3138 0 74.0583 13.6784 1013 172.011 853.286 556.862
3139 0 76.0869 13.4977 1027 176.936 851.435 555.836
3140 0 82.1126 13.6885 1124 172.067 854.272 553.101
3141 0 81.1219 13.7694 1117 173.455 853.02 552.617
3142 0 85.0889 13.5858 1156 170.267 853.052 551.42
3143 0 85.0857 13.6333 1160 167.249 852.581 551.073
3144 0 89.1053 13.3662 1191 169.496 853.646 550.051
3145 0 94.1412 13.7134 1291 172.745 852.445 547.142
3146 0 96.0974 13.351 1283 174.744 851.64 546.652
3147 0 99.0614 13.5976 1347 169.44 851.489 545.209
3148 0 103.193 13.499 1393 179.675 851.35 543.031
3149 0 107.116 13.5554 1452 174.74 849.166 542.157
3150 0 109.165 13.7407 1500 174.909 852.385 539.827
3151 0 113.121 13.7994 1561 167.69 851.798 537.527
3152 0 118.132 13.5865 1605 179.639 850.923 535.839
3153 0 122.104 13.8734 1694 175.682 850.538 534.117
3154 0 127.149 13.9678 1776 177.891 852.03 531.282
3155 0 132.233 13.8165 1827 179.315 850.739 529.602
3156 0 137.272 13.8702 1904 178.462 850.324 527.611
3157 0 143.206 13.7424 1968 177.48 851.618 524.979
3158 0 148.158 13.8029 2045 170.359 850.886 522.365
3159 0 153.225 13.503 2069 171.718 850.74 519.758
3160 0 157.358 13.3962 2108 172.705 851.314 518.355
3161 0 164.294 13.3967 2201 164.1 850.545 515.529
3162 0 170.536 13.6276 2324 169.694 850.254 512.87
3163 0 176.439 13.4664 2376 171.375 850.924 510.262
3164 1 92.215 12.601 1162 163.275 852.046 550.011
3165 0 96.3305 12.862 1239 162.402 854.089 548.028
3166 0 98.3506 12.8418 1263 165.096 851.971 547.154
3167 0 102.327 12.6164 1291 159.312 852.988 546.226
3168 0 105.193 12.9761 1365 157.927 853.521 544.15
3169 0 107.198 12.7148 1363 168.515 851.912 543.217
3170 0 115.191 13.074 1506 165.068 850.872 540.362
3171 0 114.191 13.1534 1502 104.544 850.812 540.018
3172 1 59.1297 12.3796 732 162.555 851.346 566.511
3173 0 61.0553 12.3003 751 164.539 854.153 566.194
3174 0 61.068 12.7071 776 166.034 851.381 565.561
3175 0 64.1372 12.3174 790 161.611 849.828 565.633
3176 0 66.164 12.5748 832 166.27 852.273 563.959
3177 0 68.0362 12.802 871 162.604 849.925 562.678
3178 0 70.2195 12.7458 895 170.449 851.661 562.105
3179 0 73.2046 12.5402 918 159.488 852.676 561.13
3180 0 75.2124 12.6841 954 164.534 851.664 560.371
3181 0 78.0906 12.7032 992 164.889 850.115 559.091
3182 0 80.1565 12.8374 1029 165.018 850.009 557.638
3183 0 82.1425 12.9409 1063 166.896 849.752 556.614
3184 0 84.2058 12.9445 1090 162.951 851.447 555.39
3185 0 88.236 12.7046 1121 165.194 852.643 554.201
3186 0 88.2949 13.2057 1166 168.067 852.615 553.888
3187 0 92.2896 13.0242 1202 174.077 851.947 552.135
3188 0 93.2299 13.3326 1243 173.792 851.134 551.273
3189 0 95.1598 13.1568 1252 168.895 851.18 550.303
3190 0 97.345 13.1902 1284 164.3 852.92 549.745
3191 0 100.302 13.1702 1321 174.695 852.286 549.161
3192 1 110.233 13.544 1493 163.703 853.47 543.753
3193 0 111.256 13.3746 1488 170.209 855.264 544.31
3194 0 111.372 13.3606 1488 171.683 853.347 543.901
3195 0 116.232 13.2666 1542 175.23 853.524 541.632
3196 0 119.378 13.6122 1625 163.16 851.928 539.363
3197 0 124.398 13.5694 1688 167.548 851.56 537.481
3198 0 126.577 13.4227 1699 168.742 851.255 536.216
3199 0 132.443 13.3039 1762 163.424 851.547 534.976
3200 0 138.374 13.2322 1831 169.317 853.514 532.609
3201 0 144.569 13.4538 1945 169.885 852.276 528.726
3202 1 78.1678 12.7802 999 167.259 852.335 561.232
3203 0 81.3561 12.3408 1004 165.761 852.953 560.591
3204 0 81.2274 12.7912 1039 163.687 852.939 558.982
3205 0 85.2366 12.6354 1077 167.451 854.03 557.858
3206 0 86.1808 12.5898 1085 163.536 853.209 557.265
3207 0 91.1892 12.5453 1144 169.199 853.844 555.525
3208 0 97.2063 12.5815 1223 173.383 855.818 553.453
3209 0 97.2345 13.0612 1270 165.57 855.072 552.969
3210 1 145.425 13.182 1917 168.455 852.198 530.226
3211 0 151.244 13.0782 1978 172.641 853.587 528.13
3212 0 151.244 13.0782 1978 182.195 855.587 528.13
3213 1 55.1271 12.6072 695 165.849 851.961 573.407
3214 0 58.1483 12.7777 743 163.707 853.777 571.404
3215 0 59.0981 12.9446 765 161.754 853.511 571.081
3216 0 62.136 12.2312 760 161.487 854.079 570.938
3217 0 63.0849 12.6813 800 167.691 852.768 570.251
3218 0 68.1727 12.6004 859 159.596 853.536 567.02
3219 0 68.2668 12.7148 868 156.652 853.699 566.933
3220 0 76.1344 12.7012 967 156.448 854.814 563.491
3221 0 76.1724 12.5767 958 159.727 855.13 563.347
3222 0 75.2892 12.6844 955 166.636 853.39 563.209
3223 0 79.2901 12.8515 1019 164.134 853.778 561.23
3224 0 81.3247 12.6038 1025 161.371 853.272 560.328
3225 1 167.492 13.0872 2192 171.077 851.586 521.39
3226 0 171.46 13.3501 2289 167.391 852.022 518.767
3227 0 174.597 13.6085 2376 166.584 851.839 517.024
3228 1 138.661 13.0679 1812 177.236 852.57 534.95
3229 0 144.502 12.8303 1854 170.086 851.6 532.838
3230 0 148.58 13.2252 1965 176.71 853.984 530.59
3231 0 154.692 13.3814 2070 173.868 855.223 528.675
3232 0 158.557 13.4148 2127 171.44 853.23 526.764
3233 0 161.624 13.3334 2155 174.673 854.194 526.079
3234 0 167.479 13.5122 2263 176.647 853.814 524.513
3235 0 172.685 13.8808 2397 170.829 852.203 521.031
3236 0 178.572 13.5296 2416 168.293 853.096 518.764
3237 0 184.482 13.7412 2535 173.156 853.001 515.336
3238 0 190.527 13.8143 2632 173.701 852.115 513.522
3239 0 199.868 13.9492 2788 169.634 851.793 509.273
3240 0 205.563 13.6309 2802 171.66 851.176 506.992
3241 0 212.589 14.1212 3002 163.799 851.774 502.725
3242 0 222.63 13.7268 3056 165.998 850.641 499.326
3243 0 231.898 13.8681 3216 166.94 852.281 493.495
3244 0 242.509 13.5212 3279 169.336 851.626 491.094
3245 1 268.379 17.4977 4696 139.934 849.079 468.689
3246 0 270.757 17.6763 4786 144.44 848.776 465.09
3247 0 274.776 16.2278 4459 153.745 849.865 467.119
3248 0 281.025 14.0165 3939 171.318 848.973 471.688
3249 1 202.67 12.9521 2625 165.459 850.67 511.772
3250 0 202.67 12.9521 2625 178.391 849.67 511.772
3251 0 203.49 13.0866 2663 171.347 851.494 511.758
3252 1 49.228 11.8835 585 162.634 851.665 582.916
3253 0 51.2007 11.328 580 155.552 852.036 583.133
3254 0 51.2115 11.6966 599 160.341 851.392 582.043
3255 0 54.1838 11.5533 626 165.954 851.406 581.128
3256 0 55.2484 11.7831 651 160.914 854.117 580.215
3257 0 56.1409 12.148 682 160.07 852.84 579.604
3258 0 59.1792 11.7609 696 151.675 853.33 578.318
3259 0 59.1638 12.3386 730 161.748 851.94 577.649
3260 0 62.1444 12.2457 761 163.251 852.652 576.641
3261 0 64.1776 11.9668 768 163.701 853.047 575.406
3262 0 66.1626 12.2426 810 152.212 854.495 574.711
3263 0 67.2422 12.388 833 160.298 854.005 573.665
3264 0 71.2394 12.4369 886 163.65 853.498 572.129
3265 0 73.3305 12.7096 932 164.403 853.161 570.701
3266 0 74.2067 13.0581 969 164.936 852.397 569.94
3267 0 78.1708 13.01 1017 164.125 852.774 568.126
3268 0 81.185 13.0566 1060 163.645 852.404 567.514
3269 0 83.1533 12.7836 1063 170.02 853.426 566.958
3270 0 84.1149 12.9585 1090 168.212 852.788 565.894
3271 0 85.1803 13.6769 1165 167.815 852.924 564.76
3272 0 91.16 13.1637 1200 167.865 852.29 562.468
3273 0 94.1974 12.8454 1210 175.052 853.666 562.112
3274 0 98.2568 12.8541 1263 164.857 852.843 559.675
3275 0 100.27 12.9351 1297 172.355 854.404 558.63
3276 0 100.284 13.4818 1352 171.437 854.156 557.217
3277 0 100.316 13.6668 1371 169.625 854.312 556.514
3278 0 109.402 12.9066 1412 165.407 853.746 553.724
3279 0 113.459 13.1237 1489 161.485 854.403 552.364
3280 0 116.258 13.2636 1542 173.658 855.498 551.706
3281 1 56.1419 12.8068 719 170.701 854.113 578.949
3282 0 59.2279 12.7136 753 169.958 855.509 579.004
3283 0 63.203 12.5785 795 168.243 855.031 577.253
3284 0 62.0519 12.9408 803 160.06 855.151 577.22
3285 0 62.0519 12.9408 803 171.437 855.151 577.22
3286 0 66.181 12.8133 848 172.774 855.728 575.702
3287 0 71.1366 12.4409 885 169.806 856.245 574.859
3288 0 73.2934 12.6887 930 165.744 855.912 573.752
3289 0 73.3347 12.8316 941 172.457 853.406 573.469
3290 0 77.366 12.6671 980 171.298 853.798 572.126
3291 0 78.1995 12.8773 1007 172.706 853.338 572.068
3292 0 86.4345 12.6917 1097 164.562 853.82 568.951
3293 0 85.2055 12.687 1081 171.772 852.463 569.078
3294 0 85.2012 12.9458 1103 168.664 852.621 568.547
3295 0 88.2304 12.8527 1134 165.886 852.718 567.503
3296 0 90.1617 12.7438 1149 167.722 851.515 566.015
3297 0 90.2804 13.4138 1211 169.457 851.254 565.944
3298 0 91.2633 13.2912 1213 174.323 853.265 565.462
3299 0 97.3046 13.021 1267 168.803 852.532 564.377
3300 0 104.269 13.0145 1357 169.94 852.644 561.36
3301 1 54.0541 12.7095 687 163.789 851.616 584.496
3302 0 56.1493 12.4489 699 165.923 852.727 584.037
3303 0 57.1927 12.4666 713 158.581 851.84 583.271
3304 0 58.2403 12.5514 731 158.995 853.112 582.327
3305 0 61.2402 12.5734 770 150.681 852.234 581.578
3306 0 63.3238 12.2229 774 158.112 851.817 581.162
3307 0 65.196 12.332 804 153.623 853.479 580.022
3308 0 69.4299 12.3002 854 153.957 853.434 578.754
3309 0 72.1954 12.106 874 149.54 853.717 577.558
3310 1 39.156 11.186 438 148.53 852.107 593.717
3311 0 38.2237 11.8251 452 150.436 852.728 594.08
3312 0 40.1425 11.9076 478 152.569 854.249 593.255
3313 0 42.0697 11.6236 489 155.378 853.004 592.538
3314 0 44.0311 5.70051 251 153.773 858.064 593.701
3315 0 44.0221 6.38316 281 157.972 857.238 592.89
3316 0 46.1621 12.0878 558 154.851 852.355 590.812
3317 0 48.1019 7.19306 346 159.945 855.462 590.997
3318 0 50.1028 6.38687 320 156.962 854.081 590.475
3319 0 51.2413 9.73824 499 165.938 853.16 537.95
3320 0 52.0537 9.52862 496 168.494 852.716 535.421
3321 0 51.2488 10.3027 528 170.14 849.928 532.996
3322 0 55.196 9.69273 535 173.439 851.802 530.163
3323 0 58.1531 9.8361 572 172.357 850.573 526.65
3324 0 60.1974 9.9506 599 170.846 852.479 525.434
3325 0 62.1841 9.8739 614 170.002 849.878 522.715
3326 0 63.2243 10.439 660 171.721 849.591 519.039
3327 0 65.2717 10.5252 687 180.063 850.336 515.211
3328 0 68.1134 10.3651 706 171.967 849.601 512.411
3329 0 73.1492 10.2667 751 169.005 848.976 507.842
3330 0 73.0824 10.4266 762 176.957 851.092 504.374
3331 0 37.0122 10.2939 381 188.052 851.165 556.845
3332 0 41.018 9.77619 401 182.466 851.362 554.873
3333 0 42.0595 9.67676 407 178.985 852.639 552.813
3334 0 42.0222 10.2565 431 181.144 851.847 550.935
3335 0 42.0178 10.7098 450 180.738 850.76 550.02
3336 0 45.0842 10.7577 485 177.262 850.647 547.334
3337 0 46.0644 10.3116 475 181.293 850.872 545.787
3338 1 95.162 11.0758 1054 169.279 851.861 520.267
3339 0 98.0881 11.0411 1083 186.676 851.773 518.323
3340 0 102.101 10.9009 1113 181.287 853.58 516.977
3341 0 106.28 11.084 1178 183.824 850.886 513.626
3342 0 108.178 10.9819 1188 186.731 850.223 512.829
3343 0 108.24 11.5022 1245 181.961 848.848 506.827
3344 0 113.113 11.3338 1282 181.332 850.346 503.907
3345 0 113.124 11.3504 1284 184.878 849.691 499.426
3346 0 118.212 11.5894 1370 171.391 848.977 496.01
3347 1 59.1006 11.5904 685 189.342 848.458 524.53
3348 0 59.1006 11.5904 685 201.447 846.458 524.53
3349 0 66.0586 11.4141 754 184.662 849.907 519.45
3350 0 68.0375 10.7 728 189.525 848.87 516.282
3351 0 39.0416 10.0662 393 179.728 851.69 565.15
3352 0 73.0574 11.0598 808 184.527 849.656 508.073
3353 0 75.0882 11.2401 844 182.693 849.718 505.295
3354 0 78.0798 10.8735 849 182.832 850.092 500.986
3355 0 45.0561 10.2095 460 190.426 851.044 558.272
3356 0 47.0318 10.3547 487 180.733 850.238 557.279
3357 0 48.0778 10.8158 520 183.569 849.952 555.248
3358 0 55.0233 10.7591 592 181.404 850.115 552.358
3359 0 52.0657 10.8901 567 179.037 850.233 550.612
3360 0 51.0473 11.6363 594 177.305 849.455 549.482
3361 0 55.0508 11.1352 613 175.648 850.914 546.346
3362 0 55.1347 11.4084 629 181.997 850.618 545.372
3363 0 60.223 10.9427 659 183.12 850.533 542.363
3364 0 61.0984 10.8186 661 185.319 850.537 541.458
3365 0 63.1222 10.4718 661 183.929 850.785 538.41
3366 0 65.0976 10.8913 709 183.608 850.56 535.638
3367 0 65.106 10.721 698 181.361 850.543 532.626
3368 0 69.1569 10.7726 745 184.797 849.715 529.881
3369 0 70.1966 10.841 761 184.235 850.56 527.67
3370 0 73.2467 11.0585 810 183.547 851.128 523.272
3371 0 76.1916 10.8017 823 185.05 851.317 519.638
3372 0 79.2022 10.6563 844 187.421 850.309 514.783
3373 0 84.2115 10.7824 908 183.899 849.48 510.947
3374 0 125.241 10.2203 1280 186.357 849.538 525.794
3375 0 128.307 10.5528 1354 182.775 850.539 521.726
3376 0 134.383 10.7603 1446 180.821 849.093 518.707
3377 0 137.141 10.996 1508 179.086 849.668 515.272
3378 0 141.278 10.8509 1533 185.267 849.674 511.31
3379 0 147.211 11.1948 1648 171.877 847.661 506.14
3380 1 49.1142 10.0175 492 175.439 848.173 554.116
3381 0 51.1428 10.6564 545 167.56 848.466 551.391
3382 0 52.1779 10.56 551 170.125 848.149 549.098
3383 0 54.1162 9.88612 535 170.677 849.234 547.071
3384 0 56.1567 10.6488 598 173.38 847.928 544.356
3385 0 58.136 10.3894 604 170.74 848.709 542.058
3386 0 58.2039 11.1161 647 163.992 849.532 538.958
3387 0 56.05 11.8109 662 171.654 846.95 536.178
3388 0 65.1092 10.8587 707 178.86 847.612 532.478
3389 0 61.1982 11.4382 700 177.771 847.424 530.377
3390 0 59.0607 11.649 688 183.054 847.814 528.331
3391 1 73.1007 10.7386 785 182.014 851.585 520.325
3392 0 74.1098 10.7543 797 183.196 849.408 516.124
3393 0 39.0167 9.58565 374 163.062 851.735 567.58
3394 0 42.0439 9.44251 397 170.277 850.345 565.516
3395 0 44.0308 9.92487 437 168.018 848.181 564.053
3396 0 46.0203 10.4736 482 153.952 848.303 560.981
3397 0 47.0896 9.9385 468 162.427 852.192 558.41
3398 0 48.0538 11.0085 529 163.802 848.025 555.465
3399 0 51.0405 10.2664 524 165.027 852.408 553.191
3400 0 51.0834 10.7667 550 162.782 848.469 551.856
3401 0 54.1836 10.3168 559 162.964 847.392 550.492
3402 0 56.0667 11.3793 638 163.099 849.527 546.652
3403 0 58.0892 10.7593 625 162.195 850.578 543.808
3404 0 60.1874 10.6002 638 165.083 849.892 541.397
3405 0 62.0959 10.355 643 171.86 848.988 538.871
3406 0 62.2114 10.6251 661 162.781 849.531 536.29
3407 0 66.313 11.2949 749 161.449 850.14 533.163
3408 0 69.1175 10.9379 756 167.955 848.911 529.447
3409 0 70.1164 10.668 748 163.059 849.717 525.838
3410 0 36.0236 8.82755 318 167.704 849.462 575.698
3411 0 76.2298 10.1929 777 165.369 849.223 518.14
3412 0 42.0442 9.27595 390 174.585 851.113 571.656
3413 0 41.0677 9.76436 401 162.259 848.342 571.431
3414 0 44.1217 10.4257 460 178.393 848.794 526.13
3415 0 45.1708 10.0507 454 175.626 850.553 523.703
3416 0 41.0607 10.7402 441 169.156 850.252 565.587
3417 0 44.136 10.9888 485 159.536 848.635 562.45
3418 0 46.0883 10.6318 490 177.078 848.551 561.361
3419 0 50.1232 10.7136 537 176.054 848.769 560.216
3420 0 52.161 10.4484 545 177.393 850.462 558.706
3421 0 56.1218 10.1208 568 169.188 850.715 556.644
3422 0 54.1247 10.4758 567 179.21 850.758 555.339
3423 0 62.3371 10.732 669 172.937 850.963 551.529
3424 0 61.0873 10.9024 666 176.524 850.194 550.569
3425 0 58.0917 11.413 663 165.425 851.849 549.523
3426 0 59.0901 11.4402 676 174.598 851.189 546.007
3427 0 60.0862 11.7831 708 174.455 851.233 544.653
3428 0 64.1327 11.3671 729 177.417 851.444 542.646
