index division length width area intensity CMx CMy
0 0 79.0339 15.0189 1187 165.167 786.851 511.24
1 1 43.0621 12.0524 519 173.559 784.26 529.603
2 0 45.057 13.3165 600 180.477 785.952 529.268
3 0 46.0643 13.3075 613 169.63 788.506 529.259
4 0 46.043 13.4222 618 174.683 788.505 526.835
5 0 47.0518 13.7083 645 168.079 790.746 527.552
6 0 49.0096 14.0177 687 171.164 789.994 527.713
7 0 50.0545 13.8849 695 165.671 791.334 528.931
8 0 52.0193 13.7065 713 178.065 788.412 528.992
9 0 53.1031 13.8787 737 175.033 788.056 529.853
10 0 54.0837 13.9598 755 179.67 788.29 529.932
11 0 55.0825 14.0698 775 173.528 786.423 530.363
12 0 57.0576 13.8632 791 181.736 786.576 531.293
13 0 58.0391 14.3352 832 177.63 786.581 531.231
14 0 60.1155 14.4056 866 177.284 784.886 531.461
15 0 61.0384 14.2861 872 176.202 782.859 531.232
16 0 64.0848 14.1687 908 166.78 783.754 530.501
17 0 66.142 14.3479 949 178.96 784.4 530.139
18 0 67.0425 14.5132 973 177.545 784.122 529.228
19 0 69.0693 14.2176 982 171.555 783.149 528.909
20 0 72.1293 14.3492 1035 179.158 782.588 527.506
21 0 74.0569 14.4754 1072 177.177 782.253 526.189
22 0 76.1152 14.7014 1119 169.515 783.336 524.618
23 0 80.0534 14.1655 1134 167.34 782.413 523.929
24 0 82.0617 14.3307 1176 171.199 781.721 521.652
25 0 86.0991 14.1813 1221 169.821 782.953 520.714
26 0 85.1386 14.7407 1255 168.98 781.901 518.653
27 0 88.0832 14.6225 1288 169.072 781.363 517.388
28 0 91.0889 14.8536 1353 173.687 781.591 516.174
29 0 93.0516 14.6908 1367 162.044 781.792 514.395
30 0 98.2794 14.703 1445 175.929 781.541 511.405
31 0 100.197 14.5713 1460 171.666 782.648 508.94
32 0 103.148 14.8427 1531 170.274 783.688 506.822
33 0 108.239 14.7267 1594 172.25 784.773 503.022
34 0 110.259 14.5657 1606 180.433 784.568 500.497
35 0 113.198 15.0356 1702 179.384 785.592 497.965
36 0 117.096 15.1159 1770 180.814 786.707 494.674
37 0 121.142 15.2631 1849 177.441 787.862 491.653
38 0 128.302 15.2452 1956 172.166 785.606 488.191
39 0 132.098 15.11 1996 169.282 786.627 486.321
40 0 136.199 15.1176 2059 172.274 789.055 483.643
41 0 142.413 15.3568 2187 172.749 788.306 480.663
42 0 147.214 15.1209 2226 170.157 787.124 478.068
43 0 154.312 14.9372 2305 168.482 788.843 475.275
44 0 158.184 15.2734 2416 169.807 789.865 472.96
45 0 165.2 15.2482 2519 177.923 790.326 469.703
46 0 170.315 15.2599 2599 174.703 789.702 467.991
47 0 177.564 15.1213 2685 173.834 789.294 464.737
48 0 182.224 14.8279 2702 170.252 790.389 463.398
49 0 188.359 14.9608 2818 169.971 787.479 460.465
50 0 193.478 15.2679 2954 170.724 788.574 457.967
51 1 150.385 14.2766 2147 172.848 787.898 481.132
52 0 153.413 14.3729 2205 168.039 787.567 479.36
53 0 159.213 14.3895 2291 175.671 787.698 476.688
54 0 167.198 14.438 2414 175.052 787.561 474.014
55 1 51.0421 12.8717 657 162.948 788.799 531.405
56 0 53.0871 12.4512 661 164.973 788.533 530.678
57 0 56.0831 12.535 703 165.253 786.572 529.798
58 0 58.1394 12.5388 729 166.115 787.487 528.62
59 0 60.0414 12.6413 759 165.208 787.129 527.458
60 0 62.0759 12.6458 785 158.675 786.823 526.396
61 0 65.1059 12.7177 828 162.153 785.589 525.421
62 0 67.1096 12.8 859 166.885 788.756 524.319
63 0 70.145 12.631 886 161.1 787.823 522.788
64 0 72.0897 12.4567 898 165.009 787.15 521.629
65 1 39.0314 11.4523 447 151.438 787.159 537.521
66 0 39.0239 11.7877 460 158.411 788.589 537.533
67 0 39.0239 11.7877 460 168.065 789.589 537.533
68 0 40.0696 12.6779 508 157.959 787.012 535.701
69 0 43.0412 11.8956 512 162.449 785.703 534.607
70 0 44.058 12.4609 549 165.166 787.393 533.475
71 0 46.0374 12.2292 563 156.901 787.341 532.664
72 0 48.0824 12.541 603 163.887 787.854 531.338
73 0 49.0216 12.3211 604 164.055 786.637 530.275
74 0 50.0621 12.8041 641 165.426 787.412 529.448
75 0 53.0139 12.6193 669 169 788.879 527.74
76 0 55.0659 12.5486 691 170.567 789.071 526.686
77 0 57.1143 12.8514 734 166.971 789.219 525.195
78 0 58.0484 12.6791 736 169.23 788.76 524.231
79 0 59.1143 12.941 765 175.446 789.548 523.323
80 0 61.0722 13.0829 799 176.385 789.085 522.297
81 0 64.0192 13.1523 842 171.248 790.957 520.733
82 0 65.1847 12.8404 837 176.937 789.795 519.774
83 0 67.07 13.2697 890 176.422 789.042 518.515
84 0 70.1074 13.408 940 174.798 789.184 517.466
85 0 73.0849 12.8754 941 178.834 790.536 516.845
86 0 75.1352 13.2162 993 174.24 789.322 514.865
87 0 79.0661 13.0144 1029 169.966 788.878 513.633
88 1 39.0652 12.0568 471 164.718 788.488 532.473
89 0 39.0277 12.094 472 173.282 789.633 532.983
90 0 41.0651 12.2001 501 172.918 789.465 532.569
91 0 43.0483 12.1491 523 166.625 789.539 531.577
92 0 44.033 12.2635 540 168.619 790.774 531.393
93 0 45.0073 12.6202 568 163.805 790.609 530.93
94 0 46.0408 12.4238 572 162.767 790.376 530.274
95 0 48.0656 12.691 610 166.059 791.798 529.569
96 0 47.0383 13.0957 616 162.916 789.063 528.805
97 0 50.1147 12.4514 624 160.832 790.062 528.438
98 0 53.1008 12.5045 664 165.98 789.922 527.617
99 0 54.0805 12.5369 678 165.044 790.08 526.968
100 0 55.0589 12.8408 707 161.279 790.14 525.924
101 0 57.0337 12.8696 734 165.79 788.208 524.869
102 0 59.0644 12.698 750 166.055 788.669 524.149
103 0 61.0553 13.1356 802 162.335 789.171 522.906
104 0 63.0566 12.7822 806 162.529 787.031 521.907
105 0 63.0777 13.3803 844 169.11 788.363 521.254
106 0 66.0713 13.4854 891 172.119 788.363 520.167
107 0 67.0465 13.5577 909 169.558 789.399 519.457
108 0 72.0742 13.167 949 168.432 788.401 517.959
109 0 73.074 13.3837 978 164.404 788.425 515.887
110 0 75.07 13.3475 1002 173.006 787.325 515.288
111 0 78.0746 13.359 1043 169.11 789.694 513.43
112 0 81.1007 13.2305 1073 164.623 790.035 511.814
113 1 43.0718 11.8407 510 175.833 790.227 530.273
114 0 43.0308 12.1773 524 171.429 789.592 529.958
115 0 46.0501 12.2692 565 167.745 789.041 528.665
116 0 47.0455 12.456 586 171.828 790.358 528.06
117 0 47.1072 12.652 596 181.7 789.128 527.438
118 0 51.0599 12.1034 618 172.409 790.01 526.951
119 0 51.1929 12.365 633 176.362 791.348 525.461
120 0 53.1633 12.4898 664 173.542 791.648 524.634
121 0 55.2387 12.799 707 175.803 790.943 523.907
122 0 57.0337 12.554 716 168.932 790.975 522.626
123 0 58.1309 13.0911 761 169.668 790.325 522.359
124 0 60.094 13.0795 786 172.693 789.335 520.805
125 0 62.1606 13.1434 817 177.024 790.821 520.49
126 0 63.1119 13.1037 827 166.469 792.206 519.41
127 0 66.1396 13.1238 868 162.766 791.221 518.537
128 0 68.1761 13.1571 897 170.386 790.753 517.632
129 0 70.1728 13.481 946 166.504 790.067 515.909
130 0 72.1424 13.2238 954 174.713 789.217 515.029
131 0 76.1111 13.2044 1005 171.217 790.266 513.779
132 0 78.1392 13.1048 1024 166.764 790.938 512.489
133 0 81.153 13.111 1064 173.335 790.034 510.778
134 1 41.1485 11.3978 469 168.177 790.011 529.812
135 0 43.0581 12.1696 524 169.342 789.422 529.038
136 0 44.0686 12.5486 553 173.772 791.646 528.698
137 0 47.1293 12.3278 581 168.196 789.609 527.997
138 0 48.0875 12.5396 603 171.57 788.469 527.421
139 0 50.1706 12.4376 624 172.213 788.048 526.614
140 0 51.057 12.2608 626 172.647 788.99 525.728
141 0 53.0731 12.6053 669 163.127 790.564 525.138
142 0 54.0702 12.6687 685 167.845 789.191 524.374
143 0 56.0859 12.6235 708 176.112 790.552 524.056
144 0 57.0377 12.9037 736 172.724 789.787 522.92
145 1 72.0803 12.9162 931 166.596 789.295 514.39
146 0 74.0871 12.9172 957 172.706 788.206 513.24
147 0 75.0557 13.1103 984 164.811 789.827 512.529
148 0 78.1602 12.8838 1007 165.851 790.784 511.492
149 0 82.0717 12.9033 1059 164.873 790.35 510.273
150 1 41.0321 11.3326 465 160.604 790.422 530.452
151 0 43.0237 11.5285 496 161.337 790.355 529.667
152 0 44.0856 11.7045 516 157.424 788.814 529.37
153 0 45.0435 12.1882 549 158.9 790.133 528.792
154 0 44.0314 12.4911 550 159.46 789.242 528.055
155 0 46.0944 12.6263 582 152.868 788.732 527.481
156 0 49.0174 12.0774 592 158.311 789.986 526.608
157 0 51.1105 12.0523 616 152.224 788.881 525.893
158 0 52.0804 11.8279 616 152.984 788.39 525.823
159 0 53.0593 12.3447 655 148.142 787.849 524.038
160 0 54.1434 12.4115 672 151.482 787.772 523.283
161 0 56.0882 12.1772 683 158.464 789.485 523.091
162 0 57.0502 12.5854 718 153.078 787.936 521.926
163 0 59.0899 12.6418 747 154.126 788.853 521.822
164 0 61.0636 12.6426 772 147.096 788.567 520.582
165 0 63.0508 12.8309 809 150.763 789.533 519.632
166 0 65.0358 12.6546 823 151.233 788.379 519.233
167 0 68.1281 12.4471 848 147.719 788.498 518.104
168 0 70.0881 12.627 885 145.171 788.647 517.426
169 0 70.0907 13.026 913 152.3 787.63 516.589
170 0 73.1129 12.5833 920 151.322 789.061 515.428
171 0 77.1129 12.7994 987 148.018 788.69 514.073
172 1 38.0355 10.832 412 152.927 787.917 533.549
173 0 40.0224 10.4691 419 153.017 791.396 532.621
174 0 40.1071 11.4942 461 146.716 787.881 532.659
175 0 41.0558 12.1055 497 148.835 787.477 531.871
176 0 44.0941 11.9517 527 146.825 788.655 531.431
177 0 43.0095 12.4856 537 148.415 788.989 530.896
178 0 46.0319 12.5782 579 142.019 790.323 530.123
179 0 48.0914 12.1643 585 154.256 788.991 529.549
180 0 49.0875 12.3453 606 146.982 788.845 529.068
181 0 48.0791 12.7914 615 155.584 787.38 529.06
182 0 50.1343 12.646 634 151.15 786.746 528.109
183 0 53.067 12.814 680 153.443 789.053 526.481
184 0 55.0537 12.8965 710 158.213 787.421 526.434
185 0 55.1112 13.2278 729 152.904 790.413 525.715
186 0 57.0508 13.2514 756 159.704 790.18 524.79
187 0 59.1276 13.3271 788 153.468 788.459 523.301
188 0 61.0858 13.1618 804 159.049 790.761 522.664
189 0 62.0867 13.4973 838 160.777 789.112 521.116
190 0 65.1119 13.2541 863 160.251 789.008 520.255
191 0 67.0641 13.6884 918 153.715 790.023 518.899
192 0 71.0742 13.3944 952 159.803 790.579 517.803
193 0 73.0638 13.5087 987 159.947 790.656 516.929
194 0 75.0526 13.6304 1023 161.174 790.252 515.518
195 0 78.0572 13.6951 1069 158.931 789.23 514.388
196 0 81.1782 13.6613 1109 161.589 789.537 512.96
197 0 83.0299 13.6216 1131 162.368 790.021 511.006
198 0 85.0498 14.321 1218 160.729 791.223 509.33
199 0 89.0823 13.6952 1220 164.777 790.416 507.78
200 0 92.0944 13.9639 1286 165.785 790.832 506.712
201 0 94.1264 14.0981 1327 160.766 789.276 505.022
202 1 50.0999 12.3353 618 164.791 791.199 527.278
203 0 52.0863 12.2873 640 157.33 788.062 526.361
204 0 53.0473 12.8565 682 167.128 788.246 523.95
205 0 55.0747 12.7463 702 169.922 789.765 523.095
206 0 56.0595 12.8613 721 168.322 791.012 522.416
207 0 59.0632 12.6983 750 166.903 791.075 520.917
208 0 60.0377 13.3083 799 170.118 791.031 519.763
209 0 62.0607 13.3418 828 165.62 791.207 518.786
210 0 66.1327 12.9134 854 175.336 789.699 517.561
211 0 68.0578 13.4151 913 172.241 789.062 516.335
212 0 70.1537 13.0713 917 171.194 790.577 515.42
213 0 73.1144 13.3763 978 174.108 789.827 513.12
214 0 73.1094 13.6371 997 162.426 789.378 512.072
215 0 76.1032 13.5474 1031 175.646 790.229 510.819
216 0 80.1072 13.4195 1075 173.66 791.327 509.252
217 0 83.0844 13.2757 1103 172.833 792.001 507.403
218 0 87.1225 13.3146 1160 171.661 791.208 506.174
219 0 90.1172 12.9942 1171 160.868 789.781 503.974
220 1 47.0799 11.831 557 170.041 792.355 525.858
221 0 48.0483 12.4666 599 168.434 790.641 524.496
222 0 50.068 12.2234 612 168.111 790.908 523.845
223 0 51.0772 12.4322 635 170.263 791.276 522.677
224 0 53.0587 12.5144 664 174.331 791.123 522.178
225 0 53.0815 12.6033 669 172.889 790.254 522.251
226 0 55.0937 12.5786 693 169.319 791.154 520.664
227 0 57.0637 12.3721 706 164.514 790.776 519.605
228 0 60.0655 12.2699 737 169.293 791.796 519.031
229 0 62.0418 12.411 770 169.391 790.735 517.288
230 0 63.0998 12.7259 803 174.268 791.527 515.777
231 0 65.0758 13.2768 864 168.762 791.321 514.834
232 0 68.11 12.7 865 174.988 791.969 513.844
233 0 72.0973 12.8021 923 167.388 791.138 511.745
234 0 74.108 12.6572 938 168.732 790.746 511.235
235 0 77.1365 12.6659 977 174.105 791.018 509.775
236 0 79.1771 12.491 989 175.754 790.946 508.245
237 0 82.2388 12.9136 1062 174.042 792.226 506.36
238 1 45.0269 11.4376 515 166.482 791.986 525.66
239 0 45.0608 11.7619 530 166.509 789.785 524.568
240 0 46.0572 11.8765 547 159.287 792.653 524.676
241 0 48.0868 12.2695 590 165.388 790.4 523.129
242 0 50.0462 12.1288 607 167.446 791.547 522.318
243 0 50.192 12.2729 616 165.5 791.291 522.239
244 0 51.0367 12.7947 653 169.545 792.787 521.037
245 0 53.0359 12.7084 674 170.291 791.895 520.702
246 0 55.1208 12.5179 690 170.355 791.216 520.229
247 0 57.1475 12.494 714 171.499 790.417 518.947
248 0 58.0492 12.6789 736 165 790.342 518.205
249 0 61.0603 12.7906 781 170.183 791.329 517.271
250 0 62.0847 12.8534 798 170.987 791.48 516.91
251 0 63.1277 13.2747 838 169.148 791.573 515.746
252 0 65.0236 13.1952 858 175.2 792.04 515.274
253 0 68.0591 12.9299 880 170.477 792.669 513.777
254 0 70.0334 13.3222 933 173.405 791.691 512.008
255 0 71.0735 13.5494 963 165.231 790.361 510.709
256 0 75.0791 13.1594 988 167.426 790.741 508.605
257 0 78.1023 12.9574 1012 171.031 791.851 506.47
258 1 40.063 11.1824 448 163.969 792.083 524.71
259 0 43.0105 11.7181 504 163.988 792.228 524.095
260 0 44.0284 12.3784 545 161.539 791.721 523.976
261 0 45.0232 12.1937 549 169.625 791.104 524.361
262 0 47.0696 12.0247 566 166.253 791.661 523.452
263 0 49.0482 12.294 603 163.98 790.604 522.478
264 0 50.1237 12.3295 618 159.063 792.081 522.065
265 0 51.0201 12.6225 644 171.3 791.312 521.207
266 0 53.0274 12.8613 682 168.764 790.934 520.639
267 0 55.0672 12.6391 696 170.032 790.098 520.069
268 0 55.0226 13.4127 738 170.618 790.967 519.106
269 0 57.0146 12.9265 737 158.347 790.016 518.556
270 0 59.0718 13.0181 769 172.16 790.671 517.908
271 0 61.0545 12.9229 789 171.537 790.584 517.299
272 0 62.1162 13.1045 814 171.275 790.093 516.251
273 0 64.0579 13.0975 839 172.317 789.343 515.302
274 0 66.0553 13.0043 859 172.042 790.505 514.575
275 0 68.0731 13.4414 915 167.485 791.487 513.034
276 0 72.0829 13.0544 941 163.33 791.564 511.806
277 0 74.0469 13.2619 982 166.441 792.114 510.632
278 0 77.0593 13.3144 1026 166.685 791.43 508.985
279 0 78.061 13.3742 1044 165.945 791.841 508.435
280 0 82.2058 13.2108 1086 165.729 793.916 507.226
281 0 86.0556 13.0381 1122 164.859 791.891 505.99
282 1 44.0697 11.323 499 173.096 791.599 526.265
283 0 45.0504 12.031 542 164.673 790.965 525.836
284 0 47.0821 11.618 547 170.867 793.452 525.91
285 0 48.0563 12.0692 580 167.745 790.547 524.833
286 0 50.0757 12.2215 612 172.237 790.458 524.126
287 0 51.0503 12.1253 619 169.645 791.191 524.037
288 0 52.1794 12.4378 649 165.82 790.37 523.892
289 0 54.1214 12.1763 659 161.953 793.483 523.102
290 0 54.1093 12.9183 699 174.406 791.236 522.707
291 0 58.1785 12.5648 731 170.204 790.624 521.725
292 0 59.1163 12.8222 758 168.489 790.588 520.579
293 0 63.1336 12.7824 807 165.157 793.212 519.144
294 0 64.0518 12.5523 804 165.444 793.974 518.51
295 0 65.0918 13.1046 853 166.544 792.178 517.55
296 0 70.1528 12.5155 878 156.497 793.815 516.195
297 0 71.0899 12.8007 910 169.396 791.153 515.2
298 0 73.2134 12.6753 928 160.99 789.078 513.77
299 0 76.1769 12.6022 960 164.074 792.157 512.505
300 0 79.1778 12.8571 1018 161.238 791.302 510.607
301 0 80.2312 13.1121 1052 160.048 791.649 509.703
302 0 85.2764 12.6178 1076 155.807 791.507 508.012
303 0 86.1603 12.8249 1105 160.875 789.703 506.399
304 1 46.0263 11.1893 515 159.874 791.233 527.814
305 0 47.0189 11.6336 547 155.995 791.064 525.925
306 0 50.0259 11.8339 592 160.61 791.446 524.899
307 0 48.1167 12.4073 597 150.513 793.556 524.926
308 0 50.0383 12.3705 619 147.491 792.431 524.481
309 0 53.0298 12.0121 637 160.388 791.651 523.863
310 0 53.0327 12.4451 660 157.385 791.639 523.644
311 0 55.014 12.4877 687 165.534 792.6 522.277
312 0 58.0674 12.5372 728 158.975 792.838 521.059
313 0 59.0601 12.919 763 156.071 790.877 520.527
314 0 61.1186 12.9911 794 157.19 793.174 519.641
315 0 63.0537 12.6083 795 160.439 792.616 518.857
316 0 65.0579 12.6964 826 162.215 790.86 517.615
317 0 66.0448 13.1729 870 161.957 791.091 516.361
318 0 69.0958 13.1991 912 165.154 791.099 514.982
319 0 71.0903 13.3211 947 160.828 791.848 513.503
320 0 73.1003 13.1874 964 158.47 792.485 512.626
321 0 76.1099 12.9155 983 158.177 790.723 511.528
322 0 78.0659 13.1299 1025 160.988 790.695 509.935
323 0 82.0781 13.1216 1077 156.746 791.161 508.864
324 0 85.0518 13.3683 1137 150.278 791.014 507.341
325 0 87.0433 13.1314 1143 162.658 790.751 505.505
326 0 91.0863 12.9108 1176 158.716 790.945 503.453
327 1 47.0908 11.3398 534 161.234 790.809 526.174
328 0 47.0333 12.2467 576 167.29 791.91 525.413
329 0 49.083 12.2242 600 163.522 791.032 524.917
330 0 50.0531 12.207 611 164.974 789.331 524.038
331 0 52.0321 12.1848 634 159.975 789.098 523.525
332 0 52.0913 12.5549 654 168.42 787.971 522.606
333 0 55.0395 12.2276 673 164.019 788.412 522.174
334 0 57.0538 12.5145 714 171.402 790.585 521.301
335 0 58.0807 12.7753 742 167.759 790.332 519.895
336 0 60.197 12.8412 773 167.49 790.767 518.801
337 0 60.0969 13.029 783 164.655 791.488 518.53
338 0 61.1509 13.1478 804 170.067 789.756 517.429
339 0 63.1099 12.6129 796 170.969 790.668 516.784
340 0 66.0383 12.841 848 168.678 791.84 515.519
341 0 69.1237 12.7163 879 168.077 790.931 514.19
342 0 71.124 12.9351 920 158.865 789.852 512.905
343 0 72.1647 13.2613 957 172.15 787.968 511.356
344 0 74.1184 13.1142 972 172.955 787.879 510.539
345 0 74.206 13.5973 1009 170.971 788.329 509.945
346 0 79.1382 13.3564 1057 172.344 790.654 508.237
347 0 81.117 13.6223 1105 172.904 790.486 507.098
348 0 83.17 13.5746 1129 171.706 789.834 505.863
349 0 87.1557 13.757 1199 167.835 787.498 503.595
350 0 90.1276 13.614 1227 169.378 787.434 502.314
351 0 93.186 13.4677 1255 173.261 787.818 500.862
352 0 97.1938 13.6943 1331 174.623 789.19 498.779
353 1 46.0282 12.0361 554 170.07 789.336 523.554
354 0 48.1569 12.2516 590 171.458 789.883 523.083
355 0 49.0402 12.1941 598 164.41 788.117 522.632
356 0 50.0898 12.5375 628 167.99 788.307 522.283
357 0 51.155 12.4328 636 168.965 786.481 521.258
358 0 51.079 12.6862 648 163.924 788.889 520.427
359 0 53.0772 13.0188 691 166.237 787.741 519.315
360 0 55.1362 12.587 694 169.02 787.775 518.826
361 0 57.1362 13.0215 744 162.894 789.649 518.026
362 0 59.0607 12.7327 752 169.222 788.999 516.981
363 0 62.0907 12.7555 792 168.417 790.09 516.413
364 0 63.1356 12.9246 816 165.767 789.333 514.653
365 0 64.1208 13.1783 845 161.543 789.025 513.964
366 0 67.0777 12.9402 868 166.652 788.709 513.131
367 0 70.0533 13.2471 928 165.207 788.216 511.293
368 0 73.0645 12.7285 930 160.144 789.491 510.047
369 0 75.1717 13.1166 986 163.086 788.921 508.774
370 0 78.2546 12.8427 1005 162.557 788.141 507.329
371 0 79.0961 13.1991 1044 166.905 788.18 506.528
372 1 41.0568 11.3501 466 165.223 788.824 526.152
373 0 41.1247 12.1582 500 157.35 789.554 524.904
374 0 42.1248 12.3205 519 157.987 787.358 524.43
375 0 45.2008 11.6812 528 155.758 789.29 523.822
376 0 45.1854 12.3491 558 150.862 788.495 522.772
377 0 46.2131 12.0961 559 156.249 790.317 522.435
378 0 48.3377 12.3713 598 162.256 788.788 521.346
379 0 49.1898 12.3806 609 155.013 788.593 521.154
380 0 51.0571 12.6525 646 157.474 788.776 519.929
381 0 53.1075 12.6159 670 156.113 788.436 519.491
382 0 54.1444 12.7068 688 155.839 788.776 518.302
383 0 56.2286 12.9116 726 159.325 788.209 517.528
384 0 58.1733 13.3051 774 161.066 789.207 516.267
385 0 61.1785 13.0601 799 160.297 790.471 515.219
386 0 63.0955 12.7901 807 163.108 788.612 514.669
387 0 64.1499 13.1879 846 168.229 789.254 512.941
388 0 67.199 13.1698 885 166.478 789.382 511.875
389 0 70.1627 12.7846 897 159.027 788.893 510.886
390 0 72.2155 12.9335 934 158.123 789.617 509.157
391 0 75.1337 13.0967 984 164.543 789.242 508.493
392 0 78.307 13.6131 1066 166.201 789.129 506.084
393 1 40.1141 12.0656 484 160.839 789.519 525.428
394 0 42.0683 12.0281 506 169.144 791.445 525.401
395 0 43.0908 12.4157 535 165.497 791.036 524.265
396 0 46.0408 12.2934 566 170.569 790.491 523.208
397 0 45.0312 13.2131 595 167.566 790.249 523.037
398 0 48.0322 12.096 581 163.797 789.571 522.673
399 0 49.0453 12.5802 617 160.912 790.46 521.786
400 0 51.0513 12.5952 643 161.998 790.285 521.529
401 0 53.0452 12.7815 678 167.777 791.274 520.535
402 0 53.0586 13.0987 695 162.57 790.371 520.138
403 0 56.1089 12.6896 712 168.701 790.976 519.235
404 0 57.0777 12.9473 739 156.378 789.785 518.434
405 0 59.0693 13.0186 769 172.653 791.276 518.226
406 0 61.1478 12.8705 787 169.914 791.822 516.884
407 0 65.1202 13.0221 848 158.545 790.548 515.667
408 0 67.1233 12.5888 845 170.626 790.657 515.33
409 0 70.1307 12.7904 897 154.143 790.491 513.642
410 0 71.0498 12.822 911 164.044 790.696 512.974
411 0 74.0959 12.7672 946 167.328 790.785 511.413
412 0 77.2521 12.5175 967 163.759 791.679 510.327
413 1 39.0525 11.4717 448 168.882 790.734 528.458
414 0 40.0239 11.9179 477 164.249 790.447 528.168
415 0 41.0365 11.4289 469 158.113 790.676 527.977
416 0 42.0885 11.9035 501 163.994 790.852 527.164
417 0 45.0297 11.9033 536 161.571 792.397 525.929
418 0 44.0693 12.3442 544 167.145 792.869 525.789
419 0 48.1169 11.7838 567 162.138 791.811 525.152
420 0 48.015 12.2045 586 163.311 792.261 525.099
421 0 49.0191 12.5869 617 155.784 793.182 523.556
422 0 49.0499 12.7217 624 166.502 791.154 523.117
423 0 52.0104 12.2668 638 166.003 791.408 522.406
424 0 53.0693 12.8511 682 160.639 789.96 521.227
425 0 55.0099 12.9795 714 163.913 791.725 520.94
426 0 55.032 13.1015 721 161.777 792.413 520.368
427 0 58.0938 12.6692 736 162.874 791.446 519.122
428 0 59.0401 12.8218 757 161.148 791.239 518.76
429 0 61.0868 13.0634 798 159.201 790.128 517.355
430 0 64.0582 12.9414 829 157.545 791.701 515.771
431 0 65.1116 12.9163 841 161.614 790.944 514.862
432 0 66.1141 13.0381 862 162.709 790.3 514.374
433 0 68.1458 13.2363 902 156.28 790.359 512.539
434 0 70.0409 13.2637 929 155.078 789.316 511.511
435 0 73.0606 13.0303 952 166.611 790.932 510.429
436 0 76.0827 12.7099 967 158.556 790.248 509.144
437 0 78.1105 12.6616 989 162.181 790.067 507.878
438 0 81.0598 12.8177 1039 161.16 790.15 506.874
439 1 43.1077 10.9261 471 162.715 791.391 525.573
440 0 44.1101 11.3126 499 157.984 791.411 524.447
441 0 45.0787 11.6463 525 154.998 792.263 523.503
442 0 47.0693 12.4922 588 156.813 791.77 523.5
443 0 46.127 12.7691 589 154.154 791.491 522.319
444 0 49.0895 12.5893 618 155.995 792.579 521.966
445 0 51.1526 12.4138 635 150.176 790.794 520.381
446 0 51.0288 12.8163 654 148.008 790.517 520.07
447 0 54.1255 12.5634 680 153.701 791.047 518.832
448 0 55.0515 12.8789 709 152.949 788.551 517.615
449 0 58.071 12.898 749 156.669 789.385 517.224
450 0 58.0529 13.057 758 156.847 789.24 516.236
451 0 60.0502 12.9725 779 148.062 790.635 515.46
452 0 60.0123 13.4472 807 150.746 791.157 514.87
453 0 63.118 13.3559 843 156.673 791.119 513.763
454 0 65.0268 13.0408 848 149.042 791.379 512.798
455 0 66.0708 13.5007 892 162.751 790.714 511.498
456 0 68.0654 13.9278 948 156.935 790.501 510.457
457 0 69.0612 13.9007 960 155.19 791.036 509.972
458 0 72.0916 13.4551 970 146.937 791.896 508.464
459 0 74.07 13.8248 1024 156.955 788.852 506.993
460 0 77.1183 13.9007 1072 162.854 790.596 505.451
461 0 80.1411 13.6135 1091 158.761 790.183 504.291
462 0 81.1203 14.0779 1142 164.992 792.208 503.211
463 0 82.2189 14.0722 1157 169.525 792.646 502.175
464 0 87.1576 13.9632 1217 164.186 791.237 499.937
465 0 90.2539 13.9163 1256 161.373 793.68 499.22
466 0 93.1446 13.9139 1296 162.424 791.495 497.147
467 0 96.2261 13.7801 1326 171.413 789.639 495.867
468 0 100.13 13.9419 1396 171.101 790.968 494.684
469 0 102.214 14.323 1464 166.089 791.148 492.732
470 1 57.1722 12.0338 688 168.56 790.94 515.983
471 0 58.0799 12.7583 741 163.366 792.623 515.27
472 0 60.0705 12.502 751 165.529 790.923 514.097
473 0 60.0988 12.9786 780 161.763 791.785 512.947
474 0 62.0561 13.0044 807 159.103 792.024 512.439
475 0 66.1006 12.8289 848 160.061 792.575 511.116
476 0 68.0577 12.9596 882 159.392 791.709 509.451
477 0 69.0742 12.7978 884 159.58 793.235 508.359
478 0 70.1045 13.2516 929 158.761 791.526 507.818
479 0 74.0711 12.704 941 151.179 793.306 506.244
480 0 75.1034 13.5546 1018 154.933 791.683 504.528
481 0 79.2615 13.6889 1085 153.739 791.806 502.533
482 0 80.2911 13.2144 1061 153.449 790.849 501.948
483 0 83.2295 13.4688 1121 151.228 790.201 500.124
484 0 87.2729 13.2687 1158 151.943 791.02 498.681
485 0 91.3162 13.2507 1210 154.324 791.166 496.733
486 0 94.2222 13.3302 1256 151.028 790.536 495.433
487 0 97.2291 13.3911 1302 151.833 789.883 493.598
488 1 51.1179 10.916 558 151.518 791.039 517.765
489 0 52.1595 11.925 622 155.354 790.674 516.963
490 0 53.1321 12.3089 654 148.899 789.518 515.83
491 0 53.1321 12.3089 654 158.076 791.518 515.83
492 0 57.1188 12.6403 722 148.352 792.446 514.242
493 0 57.1335 12.6196 721 150.961 794.158 513.906
494 0 62.088 12.5306 778 151.92 791.663 512.771
495 0 63.0631 12.4796 787 149.915 791.963 511.612
496 0 65.0335 12.7627 830 155.171 791.139 510.519
497 0 67.0564 12.4671 836 161.067 791.301 509.775
498 0 69.0504 12.8167 885 151.298 790.115 508.421
499 0 72.0962 12.7052 916 158.646 791.49 506.999
500 0 73.0936 13.5716 992 155.556 792.512 506.28
501 0 77.2112 13.0033 1004 155.74 792.171 505.742
502 0 78.1195 13.0825 1022 160.429 792.108 504.762
503 0 82.1291 13.1866 1083 155.998 791.849 503.302
504 0 84.0353 12.8517 1080 159.103 791.881 501.658
505 0 85.1422 13.2249 1126 159.666 791.392 500.48
506 0 89.2007 13.1277 1171 154.325 792.372 499.099
507 0 92.2112 13.0136 1200 159.378 792.761 497.302
508 0 94.2601 12.9429 1220 154.379 791.301 495.93
509 0 100.137 12.7425 1276 156.603 790.815 494.208
510 1 56.0986 11.8363 664 148.581 790.861 515.352
511 0 57.067 11.5478 659 149.355 792.92 515.543
512 0 60.0392 11.226 674 153.647 790.608 513.936
513 0 60.0664 11.8702 713 153.241 792.028 513.217
514 0 61.1037 12.1433 742 149.791 791.451 512.916
515 0 63.0659 12.2412 772 146.618 791.328 510.952
516 0 65.1082 12.2565 798 151.013 790.652 510.519
517 0 68.1508 12.3109 839 150.212 791.073 508.967
518 0 68.1348 12.49 851 148.769 791.345 508.538
519 0 71.0807 12.3662 879 143.834 791.392 507.526
520 0 75.1619 12.3866 931 145.656 790.337 505.554
521 0 76.2389 12.4346 948 145.659 792.946 504.883
522 0 80.2249 11.9539 959 145.186 793.097 504.202
523 0 83.2377 12.0618 1004 145.533 789.726 502.354
524 1 43.1188 10.4595 451 144.131 791.013 521.774
525 0 45.0522 10.6987 482 145.251 792.237 521.297
526 0 46.0423 11.4894 529 144.319 792.667 520.805
527 0 46.1072 11.5817 534 146.365 792.361 520.76
528 0 48.1188 11.8457 570 136.344 791.684 519.916
529 0 49.0613 11.7404 576 141.358 793.024 519.434
530 0 49.0493 12.2937 603 135.073 793.425 518.864
531 0 51.2116 12.1262 621 138.531 792.527 517.562
532 0 53.1169 11.8983 632 143.677 791.987 517.429
533 0 55.2461 12.5258 692 140.497 791.516 516.272
534 0 57.1094 12.4148 709 142.535 791.094 515.962
535 0 58.07 12.4505 723 138.793 791.035 515.351
536 0 60.1471 12.5027 752 145.328 792.781 515.019
537 0 61.0409 12.336 753 143.695 792.264 513.942
538 0 65.2409 12.7374 831 145.394 794.042 513.055
539 0 67.1513 12.792 859 152.597 792.763 511.99
540 0 69.0564 12.6418 873 151.167 791.339 511.024
541 0 70.1895 13.2926 933 147.438 792.183 510.209
542 0 73.153 13.0412 954 151.752 792.016 508.756
543 0 73.1568 13.3822 979 163.93 792.383 507.664
544 0 76.3536 13.372 1021 156.682 793.061 506.796
545 0 80.215 13.389 1074 159.568 792.464 505.439
546 0 83.0759 13.6983 1138 160.554 792.446 503.958
547 0 86.0795 13.5805 1169 158.216 791.406 502.409
548 0 87.2809 13.2904 1160 158.321 792.866 500.957
549 0 90.115 13.6825 1233 157.317 791.973 498.93
550 0 93.2499 13.6837 1276 159.765 791.19 497.207
551 0 98.2001 13.6762 1343 155.062 790.946 495.983
552 0 101.103 13.689 1384 161.902 791.608 494.236
553 0 104.248 13.842 1443 164.568 791.714 492.859
554 1 55.1122 12.0481 664 159.911 792.742 517.211
555 0 55.1183 12.3552 681 160.586 792.432 517.501
556 0 56.217 12.5941 708 156.583 791.702 516.91
557 0 59.1494 12.2909 727 161.517 792.796 515.838
558 0 62.1276 12.3295 766 166.435 793.15 514.83
559 0 62.1366 12.8427 798 161.986 792.692 513.39
560 0 64.1419 12.7218 816 163.075 791.221 512.233
561 0 66.222 13.1678 872 161.837 792.331 511.416
562 0 70.1894 12.7655 896 164.984 791.492 509.847
563 0 73.2049 12.7587 934 165.678 791.339 508.179
564 0 74.1018 12.8877 955 165.157 789.867 507.511
565 0 78.1805 12.7398 996 163.14 790.88 505.741
566 0 80.2056 12.4555 999 160.7 791.684 505.078
567 0 81.3679 12.9166 1051 162.537 792.049 502.791
568 0 85.3212 12.3885 1057 152.921 790.916 501.129
569 0 89.3551 12.2992 1099 164.348 791.12 500.712
570 1 47.0778 10.8119 509 154.678 791.136 521.267
571 0 48.0454 11.5308 554 152.973 790.928 520.011
572 0 49.029 11.7073 574 151.918 789.706 519.758
573 0 51.0403 11.775 601 148.275 791.787 518.631
574 0 51.0374 11.854 605 148.441 791.792 517.831
575 0 54.0738 11.5768 626 143.743 790.23 517.163
576 0 55.0481 11.5717 637 144.819 792.518 516.498
577 0 57.05 11.7967 673 150.949 793.431 515.694
578 0 58.1004 12.0997 703 145.839 792.114 514.838
579 0 60.0989 11.9636 719 145.967 792.537 513.794
580 0 63.0382 12.1038 763 141.885 792.157 512.688
581 0 65.1337 12.175 793 150.429 792.368 511.328
582 0 67.0908 12.1775 817 147.184 790.999 510.59
583 0 69.0919 12.3459 853 145.658 793.658 509.163
584 0 73.0741 12.0699 882 150.688 793.827 507.167
585 0 75.1123 12.0753 907 154.221 793.117 505.904
586 0 77.0634 11.8863 916 153.572 794.359 505.012
587 0 79.0868 12.1386 960 153.614 792.916 503.352
588 1 42.0356 11.4903 483 155.702 792.714 521.783
589 0 45.0883 11.422 515 156.483 792.097 520.478
590 0 46.0274 11.3411 522 148.182 791.958 520.004
591 0 46.0444 11.7495 541 158.791 791.811 519.558
592 0 47.0476 12.1366 571 153.989 791.065 518.49
593 0 48.0586 12.6928 610 152.321 792.111 517.633
594 0 51.1091 12.0135 614 146.477 791.866 516.567
595 0 52.0419 12.0672 628 153.49 790.123 516.202
596 0 54.0859 12.2583 663 150.116 791.104 515.493
597 0 54.0648 12.5405 678 155.286 792.058 514.886
598 0 57.0674 12.4414 710 155.737 791.594 513.804
599 0 59.0927 12.5735 743 148.219 792.261 512.575
600 0 62.082 12.3868 769 149.804 791.319 512.233
601 0 62.0205 12.2379 759 153.456 792.041 511.428
602 0 63.0432 13.0228 821 155.566 790.843 510.639
603 0 65.0967 12.8578 837 149.366 790.455 509.324
604 0 66.1285 13.005 860 151.479 793.162 508.314
605 0 70.0454 12.806 897 152.699 792.483 507.191
606 0 73.0863 13.0257 952 155.559 791.65 505.64
607 0 74.2376 12.6082 936 161.005 792.189 505.447
608 0 77.1398 13.0024 1003 152.523 794.192 504.313
609 0 78.1736 13.3805 1046 156.526 790.555 502.794
610 0 80.1662 13.2974 1066 151.394 790.826 501.091
611 0 86.1768 12.8921 1111 152.407 791.882 499.257
612 1 46.1287 10.4057 480 156.423 793.042 519.181
613 0 46.1812 11.1517 515 165.602 791.513 519.163
614 0 47.3259 11.7906 558 159.557 790.047 517.923
615 0 50.0616 12.6644 634 169.732 789.822 517.744
616 0 52.0509 12.8144 667 164.465 791.513 516.472
617 0 54.0659 12.9842 702 169.547 792.544 515.782
618 0 55.0539 12.7512 702 154.208 791.822 514.698
619 0 56.1453 13.2335 743 167.849 790.406 514.398
620 0 57.0299 13.2913 758 168.846 792.516 513.695
621 0 59.1341 13.4779 797 158.816 792.011 513.183
622 0 61.3327 13.5328 830 169.671 792.341 512.258
623 0 62.1475 13.6771 850 169.373 791.562 511.179
624 0 64.1251 13.7388 881 167.617 793.582 509.639
625 0 65.196 14.1113 920 163.815 792.558 508.491
626 0 68.2268 13.9828 954 173.564 793.494 507.53
627 0 71.2175 14.0275 999 166.29 791.55 506.269
628 0 72.4848 14.2375 1032 170.267 791.702 504.563
629 0 76.2225 13.946 1063 171.13 790.838 501.517
630 0 79.4894 13.9515 1109 168.757 791 500.96
631 0 81.4902 13.9403 1136 162.754 789.897 500.298
632 0 83.3699 14.0938 1175 160.39 790.563 499.355
633 0 87.3535 13.909 1215 175.017 792.043 498.399
634 0 89.503 14.0889 1261 172.368 791.102 496.595
635 0 93.5254 13.9213 1302 169.033 790.514 495.135
636 0 95.5052 14.1563 1352 166.742 789.903 493.335
637 0 100.23 13.938 1397 169.669 788.98 491.615
638 1 51.5614 12.6063 650 173.802 791.071 515.892
639 0 52.3856 12.9616 679 164.87 788.719 514.434
640 0 52.1827 13.1844 688 172.224 791.749 515.093
641 0 56.1064 13.1001 735 169.282 790.273 513.671
642 0 56.2033 13.4868 758 163.803 794.047 513.496
643 0 59.1409 13.341 789 173.82 792.551 512.734
644 0 60.0918 13.7623 827 167.244 791.407 511.468
645 0 62.1773 13.5741 844 170.031 793.159 510.257
646 0 65.2406 13.7185 895 169.721 792.399 509.245
647 0 66.3696 13.5604 900 160.758 790.493 508.508
648 0 69.2486 13.7765 954 168.273 792.68 507.252
649 0 71.2191 13.5778 967 164.113 791.294 506.446
650 0 74.2933 13.9716 1038 169.689 791.504 505.45
651 0 76.2527 13.888 1059 167.99 791.974 504.083
652 0 79.297 13.7458 1090 162.366 791.343 503.688
653 0 82.1648 14.0328 1153 164.879 792.218 502.088
654 0 82.2562 14.0901 1159 159.566 791.319 501.307
655 0 86.4028 14.0505 1214 167.611 791.604 500.129
656 0 89.1859 14.1614 1263 165.768 790.624 498.924
657 0 89.1859 14.1614 1263 167.79 791.624 498.924
658 0 95.2157 13.9578 1329 160.27 791.686 496.578
659 0 98.1427 13.9796 1372 162.481 791.11 495.501
660 0 99.1799 14.0855 1397 159.217 790.046 493.98
661 0 105.133 13.7349 1444 159.511 791.871 492.326
662 0 107.131 13.7682 1475 159.494 791.953 490.967
663 1 59.2509 11.6454 690 160.223 792.219 515.336
664 0 62.079 12.613 783 156.42 791.06 513.934
665 0 64.0439 12.71 814 149.69 790.676 513.437
666 0 66.1874 12.661 838 153.017 790.069 512.384
667 0 68.0824 12.9402 881 156.826 791.211 511.128
668 0 70.2368 13.2124 928 158.003 791.764 509.987
669 0 70.1456 13.5575 951 160.097 791.544 509.614
670 0 74.1545 13.4314 996 155.074 790.543 508.571
671 0 76.071 13.448 1023 158.64 791.328 507.585
672 0 78.1806 13.4688 1053 156.728 792.066 506.251
673 0 80.0729 13.6376 1092 162.613 791.893 505.624
674 0 82.0978 13.7154 1126 163.107 789.982 504.307
675 0 85.2037 13.6496 1163 159.101 790.327 503.008
676 0 89.2205 13.7412 1226 164.497 790.355 501.698
677 0 90.1104 13.8275 1246 151.901 790.872 500.194
678 0 93.4769 13.8858 1298 159.696 790.708 498.446
679 0 96.2896 13.8333 1332 157.604 791.102 497.156
680 0 99.347 13.8404 1375 155.951 790.868 495.156
681 1 50.094 11.678 585 161.036 791.203 519.639
682 0 53.1847 11.8079 628 155.688 789.443 518.347
683 0 53.0545 12.6285 670 154.491 789.225 518.663
684 0 55.0736 12.6739 698 159.48 790.857 518.168
685 0 56.0719 13.1438 737 148.464 790.807 517.117
686 0 59.2168 12.7835 757 158.975 791.186 516.349
687 0 61.0903 12.8989 788 160.5 791.598 515.864
688 0 63.102 12.8681 812 161.441 791.214 514.176
689 0 65.1112 12.8856 839 163.708 791.509 513.426
690 0 66.1997 13.3384 883 166.732 789.467 512.076
691 0 69.3124 13.3165 923 153.529 789.417 510.728
692 0 71.1801 13.2621 944 162.601 791.874 509.227
693 0 75.2082 13.0704 983 162.765 790.72 507.587
694 0 76.2731 13.4517 1026 162.146 791.267 506.679
695 0 78.2424 13.3559 1045 162.958 790.786 505.344
696 0 81.3735 13.5179 1100 172.003 789.474 504.313
697 0 84.0967 13.0921 1101 168.711 791.382 503.214
698 0 85.0642 13.3899 1139 165.512 792.214 501.744
699 1 42.0437 11.8924 500 163.144 791.844 523.7
700 0 44.0633 11.9601 527 161.182 791.531 523.157
701 0 46.037 12.0555 555 157.816 792.054 522.076
702 0 46.0395 12.4024 571 164.357 792.391 521.532
703 0 48.0919 12.2682 590 161.297 790.388 520.754
704 0 50.0689 12.0234 602 164.535 792.271 519.777
705 0 51.0355 12.3248 629 158.203 791.812 519.218
706 0 53.111 12.5398 666 162.658 790.599 518.048
707 0 55.1584 12.455 687 168.464 790.591 516.782
708 0 57.0461 12.5162 714 167.21 792.566 516.094
709 0 58.0755 12.897 749 164.134 793.056 515.443
710 0 59.0618 12.9864 767 167.473 791.51 514.692
711 0 62.0354 12.8153 795 164.496 792.332 513.707
712 0 63.0953 13.0913 826 160.933 792.51 512.439
713 0 65.0808 12.8148 834 162.863 792.311 511.375
714 0 67.1942 13.0517 877 160.295 790.245 510.311
715 0 70.1071 12.9231 906 154.535 791.45 508.758
716 0 72.1754 12.8576 928 153.751 791.502 508.004
717 0 73.0936 13.0791 956 160.188 792.038 507.421
718 0 76.1697 13.1155 999 160.446 790.412 505.734
719 0 78.1606 13.1396 1027 160.75 790.807 504.334
720 0 79.1928 13.4229 1063 154.647 790.55 503.181
721 0 83.122 13.1614 1094 161.49 791.597 501.368
722 0 87.1449 13.0817 1140 152.433 791.13 499.633
723 1 45.0822 11.2018 505 161.083 791.602 519.855
724 0 48.1038 11.7662 566 155.164 791.97 518.973
725 0 48.0163 12.5582 603 155.935 792.912 518.239
726 0 51.1604 12.1578 622 150.424 791.754 517.907
727 0 52.1038 12.3216 642 74.4034 791.447 516.829
728 0 53.0193 12.8821 683 155.271 791.892 516.362
729 0 54.0546 13.2089 714 153.307 791.881 515.183
730 0 56.0407 13.401 751 153.59 791.838 514.064
731 0 61.1399 12.7086 777 150.829 790.921 513.178
732 0 62.0334 13.2187 820 157.433 793.041 512.362
733 0 62.1678 13.3831 832 160.371 791.548 510.756
734 0 66.062 13.0483 862 162.463 791.883 510.159
735 0 69.0748 13.1452 908 158.417 791.51 508.449
736 0 71.0575 13.2991 945 160.222 791.059 507.489
737 0 72.0838 14.0254 1011 161.473 791.494 506.232
738 0 75.0881 13.6373 1024 159.256 791.682 505.207
739 0 77.0676 13.6633 1053 162.578 792.843 503.822
740 0 81.1552 13.468 1093 163.047 792.563 502.723
741 0 84.1531 13.5586 1141 168.187 791.826 501.029
742 0 87.2201 13.5405 1181 167.976 793.188 499.604
743 0 90.228 13.6432 1231 162.439 791.134 498.035
744 0 92.3605 13.5881 1255 172.31 792.517 496.797
745 1 48.0921 13.0999 630 168.876 792.956 518.571
746 0 48.0538 13.4433 646 171.95 793.576 518.031
747 0 51.0434 13.1065 669 171.145 793.587 517.408
748 0 52.0343 13.6256 709 171.653 792.069 516.286
749 0 55.0237 13.4124 738 171.752 792.835 515.454
750 0 55.0432 13.9345 767 171.065 792.558 514.383
751 0 56.0961 13.7086 769 169.191 792.674 513.395
752 0 60.1179 13.3404 802 170.617 791.718 512.409
753 0 63.2948 13.5872 860 169.72 791.921 510.664
754 0 65.2961 13.4158 876 165.912 793.129 510.15
755 0 66.2042 13.8511 917 170.614 793.261 509.238
756 0 69.2092 13.4375 930 168.606 792.474 508.228
757 0 70.3016 13.6554 960 167.18 792.235 507.132
758 0 74.2158 13.582 1008 174.259 791.819 505.558
759 0 75.1938 14.0304 1055 166.207 792.881 503.872
760 0 77.2056 14.0922 1088 165.962 792.193 502.798
761 0 81.2503 13.7353 1116 170.663 790.886 501.203
762 0 85.1993 14.3194 1220 163.758 792.027 499.007
763 0 87.3514 13.8063 1206 163.869 792.236 497.233
764 1 46.1195 12.034 555 166.35 791.895 517.674
765 0 46.1358 12.5933 581 167.184 791.513 516.954
766 0 49.0919 12.7108 624 167.747 792.224 515.971
767 0 51.1258 12.8506 657 165.444 792.469 516.033
768 0 52.1383 13.0614 681 166.213 792.448 515.931
769 0 52.148 13.5 704 166.97 792.575 515.197
770 0 56.1289 12.9167 725 164.146 792.665 514.197
771 0 57.2247 13.5606 776 164.561 791.602 512.823
772 0 58.168 13.547 788 163.59 792.382 511.803
773 0 61.1398 13.1338 803 164.154 792.487 511.07
774 0 64.2075 13.6121 874 171.78 793.281 509.999
775 0 65.1805 13.8845 905 170.799 792.103 509.587
776 0 68.1332 13.7525 937 173.939 792.112 508.286
777 0 68.1358 14.0748 959 176.407 791.951 507.577
778 0 72.2626 13.963 1009 170.559 792.891 506.112
779 0 74.1109 14.1949 1052 168.245 793.288 504.702
780 0 77.1439 14.1424 1091 169.031 792.943 503.705
781 0 81.0918 14.1198 1145 164.064 791.102 502.003
782 0 83.2035 14.0018 1165 157.435 791.912 500.859
783 0 85.1378 14.2475 1213 174.127 791.773 499.592
784 0 89.1433 14.1906 1265 167.721 791.965 497.587
785 0 93.1236 13.713 1277 173.092 791.255 496.233
786 0 94.3087 14.1556 1335 170.603 791.479 494.19
787 0 100.328 13.6353 1368 172.706 790.676 492.535
788 0 103.355 13.8649 1433 173.259 790.692 490.174
789 1 56.0949 12.7462 715 167.926 792.685 514.488
790 0 58.1029 12.6155 733 170.64 792.889 514.169
791 0 59.0998 12.775 755 169.256 793.118 513.885
792 0 62.2074 12.6351 786 168.621 794.163 512.866
793 0 62.1154 13.3139 827 169.445 791.779 510.953
794 0 66.1104 12.9027 853 169.978 792.209 510.879
795 0 68.1495 13.1035 893 171.385 792.766 510.129
796 0 70.1522 13.2854 932 172.681 791.271 508.928
797 0 73.1792 12.8862 943 171.438 792.527 508.17
798 0 75.1158 13.3527 1003 172.598 792.525 507.117
799 0 78.1342 13.4384 1050 170.91 791.579 506.222
800 0 80.2088 13.4399 1078 160.891 793.061 504.242
801 0 84.0839 13.1416 1105 166.063 792.513 502.681
802 0 86.1067 13.3091 1146 166.983 791.216 501.999
803 1 44.0867 11.7269 517 169.369 791.986 522.493
804 0 47.0926 12.0613 568 165.785 792.169 521.697
805 0 47.0665 12.3017 579 164.528 789.974 520.972
806 0 49.1192 11.9505 587 162.24 790.835 520.739
807 0 50.0474 12.3483 618 164.769 792.502 519.68
808 0 52.129 12.3156 642 163.768 791.156 519.045
809 0 52.0923 12.0939 630 163.106 791.748 518.419
810 0 52.0923 12.0939 630 168.875 790.748 518.419
811 0 55.0625 12.4949 688 169.77 792.311 518.4
812 0 56.147 12.7166 714 160.314 791.228 517.289
813 0 58.1389 12.5217 728 164.554 791.069 516.394
814 0 60.0643 12.703 763 158.611 792.201 514.913
815 0 61.0984 12.7663 780 168.885 791.996 514.436
816 0 64.0423 12.6791 812 164.347 791.877 513.057
817 0 66.0924 12.6943 839 169.926 791.634 513.076
818 0 67.1303 13.4962 906 169.177 790.102 511.175
819 0 70.1315 13.0041 912 163.795 790.97 510.511
820 0 72.0714 12.8484 926 167.761 790.532 509.648
821 0 74.123 12.7761 947 163.226 790.641 508.8
822 0 79.1652 12.695 1005 166.786 792.613 507.065
823 1 41.0249 12.0171 493 166.105 791.641 524.517
824 0 43.0665 11.6564 502 165.402 791.733 523.761
825 0 45.0817 12.3332 556 156.865 791.198 522.342
826 0 46.0362 12.1209 558 165.256 791.5 521.837
827 0 47.0135 12.5921 592 159.093 792.203 520.961
828 0 48.1197 12.6559 609 163.424 791.729 520.218
829 0 50.0571 12.4458 623 165.902 792.636 519.223
830 0 54.1497 12.6871 687 163.135 792.314 518.332
831 0 53.1282 12.7051 675 169.551 792.727 517.71
832 0 55.0588 12.3504 680 166.103 792.053 516.963
833 0 57.0472 12.6211 720 165.476 792.529 516
834 0 58.0767 12.1047 703 166.057 791.896 515.496
835 0 59.0497 12.8197 757 171.662 790.732 514.326
836 0 61.1189 13.0565 798 163.713 791.44 513.479
837 0 63.0822 12.9514 817 161.799 791.646 511.974
838 0 65.0908 12.9819 845 167.333 791.747 510.685
839 0 66.0502 13.3686 883 170.949 792.858 509.418
840 0 70.0347 12.8936 903 169.152 793.302 508.383
841 0 71.0947 13.1515 935 170.082 792.16 507.868
842 0 73.0984 12.8867 942 176.138 790.182 505.939
843 0 76.0853 13.0249 991 173.325 792.003 504.413
844 0 77.072 13.2733 1023 171.873 791.652 503.459
845 0 80.1174 13.5301 1084 172.826 791.937 501.729
846 1 38.0374 12.0934 460 172.53 792.554 522.509
847 0 40.0876 12.1235 486 164.488 790.37 522.302
848 0 40.1173 12.8872 517 169.642 791.725 521.985
849 0 42.1052 12.5638 529 170.25 793.197 521.34
850 0 42.0838 12.9266 544 168.603 791.204 521.206
851 0 44.2141 12.6883 561 169.579 794.415 520.496
852 0 44.1621 13.2693 586 167.056 793.244 519.539
853 0 47.0682 12.6625 596 164.091 791.503 518.886
854 0 48.0193 12.7032 610 166.898 793.826 518.454
855 0 48.0437 13.3836 643 156.166 792.387 517.593
856 0 51.0343 12.6777 647 167.547 791.651 517.314
857 0 50.1024 13.6121 682 168.389 793.327 516.874
858 0 51.0852 13.4677 688 166.013 791.44 515.701
859 0 54.0389 12.9536 700 167.117 792.001 515.121
860 0 55.1341 13.4218 740 169.492 791.882 514.135
861 0 58.0742 13.1211 762 169.542 792.364 513.441
862 0 58.0231 13.598 789 162.242 792.251 512.602
863 0 60.0554 13.754 826 165.499 792.978 511.339
864 0 62.0886 13.4485 835 159.546 793.347 510.944
865 0 64.1327 13.3629 857 161.552 792.05 509.503
866 0 65.0653 13.8015 898 161.38 792.715 508.548
867 0 69.0322 13.5444 935 160.85 792.522 507.794
868 0 71.1066 13.6556 971 160.813 793.021 507.229
869 0 71.0425 14.0198 996 160.769 793.155 505.646
870 0 75.0819 13.8515 1040 160.705 792.452 504.793
871 0 78.0952 14.0213 1095 162.23 793.072 503.415
872 0 81.1248 13.7196 1113 158.845 793.649 502.024
873 0 84.114 13.6481 1148 167.563 792.765 500.538
874 0 87.0527 13.6469 1188 166.912 793.315 499.223
875 0 90.154 13.2107 1191 161.715 793.277 498.875
876 1 47.0887 12.7632 601 165.572 793.065 519.023
877 0 47.061 12.6857 597 167.288 792.224 519.122
878 0 49.1575 13.2635 652 165.558 793.594 517.871
879 0 51.0827 12.9202 660 164.983 793.188 517.353
880 0 52.1046 13.5881 708 166.626 792.883 516.288
881 0 54.0364 13.75 743 168.773 792.688 515.747
882 0 55.0275 13.5205 744 173.614 793.226 514.812
883 0 57.0364 13.7982 787 172.356 794.117 514.282
884 0 57.1038 14.0271 801 174.556 792.261 513.428
885 0 59.1037 14.06 831 173.995 793.065 512.671
886 0 60.0623 14.1353 849 175.859 792.107 512.194
887 0 63.0477 14.3542 905 171.412 792.015 511.246
888 0 67.2111 14.1346 950 179.123 792.589 509.949
889 0 67.0943 14.3231 961 177.114 791.585 508.623
890 0 71.0765 14.407 1024 177.365 791.93 507.577
891 0 72.2166 14.7058 1062 175.467 791.41 506.432
892 0 74.2001 14.69 1090 177.106 792.093 504.92
893 0 78.0716 14.7429 1151 173.874 792.043 503.763
894 0 81.1082 14.5238 1178 173.774 791.688 502.53
895 0 82.0663 14.6833 1205 170.238 791.156 501.36
896 0 88.1184 14.1855 1250 175.928 792.394 500.102
897 0 89.129 14.911 1329 173.104 791.287 498.482
898 0 92.1201 14.492 1335 173.518 791.954 497.301
899 0 95.0818 14.314 1361 170.181 791.946 495.747
900 0 99.1688 14.3291 1421 176.308 791.167 493.771
901 0 102.16 14.7808 1510 163.861 791.082 491.36
902 0 108.087 14.516 1569 167.614 791.751 490.006
903 1 56.047 13.1318 736 166.261 792.17 514.804
904 0 58.0698 13.6215 791 167.999 791.383 513.686
905 0 61.095 13.4708 823 169.015 792.091 512.08
906 0 63.0667 13.5571 855 163.649 791.099 511.461
907 0 64.0402 13.757 881 172.237 792.087 510.229
908 0 66.0579 13.9726 923 170.338 790.947 509.02
909 0 69.1347 14.1318 977 166.579 792.208 507.466
910 0 73.1065 14.0206 1025 169.233 791.243 505.024
911 0 75.1138 13.819 1038 175.281 792.144 505.089
912 0 78.1987 13.8365 1082 168.552 790.847 503.078
913 0 81.3183 14.1174 1148 170.384 790.804 501.388
914 0 85.1265 13.7795 1173 172.425 790.887 500.506
915 0 86.215 14.1971 1224 169.12 788.888 498.81
916 0 91.1494 13.8235 1260 165.449 790.999 496.887
917 0 93.177 14.3383 1336 167.445 791.362 494.931
918 0 97.165 14.0174 1362 170.352 790.732 493.999
919 0 102.138 13.7754 1407 168.721 790.301 492.101
920 1 52.0817 12.7492 664 169.619 791.53 516.342
921 0 53.099 12.9381 687 168.514 791.402 515.409
922 0 56.0783 13.2315 742 169.881 790.193 514.166
923 0 58.1127 13.4394 781 168.394 790.807 513.003
924 0 61.148 13.5409 828 161.859 791.775 511.586
925 0 63.1502 13.365 844 167.994 790.508 510.95
926 0 64.1295 13.691 878 165.101 791.648 509.866
927 0 68.2494 13.2455 904 169.935 792.479 509.332
928 0 71.2016 13.539 964 169.412 791.924 507.911
929 0 72.1388 13.4324 969 174.231 790.631 506.582
930 0 76.1324 13.5685 1033 167.047 792.059 504.799
931 0 77.2052 13.9498 1077 174.26 791.563 504.063
932 0 79.0688 13.8487 1095 178.868 792.661 502.9
933 0 84.1261 13.7532 1157 175.18 792.425 501.534
934 0 86.0662 13.9311 1199 172.534 792.177 499.618
935 0 90.1352 13.8348 1247 176.46 792.187 498.751
936 1 44.0179 12.245 539 173.215 794.365 521.204
937 0 45.0911 12.6189 569 173.158 790.362 520.404
938 0 48.1385 12.4225 598 167.042 792.323 519.706
939 0 48.1176 12.8227 617 169.582 791.765 519.222
940 0 51.0726 12.355 631 163.873 790.783 518.816
941 0 51.0844 13.1351 671 166.365 791.162 517.627
942 0 52.0892 13.1889 687 172.169 791.074 517.047
943 0 56.0701 12.6984 712 169.562 791.35 516.646
944 0 58.0997 12.5818 731 164.955 792.337 515.717
945 0 58.0951 12.9787 754 165.997 792.398 515.377
946 0 61.0448 12.7939 781 164.862 791.745 514.274
947 0 63.0375 13.0399 822 162.646 792.344 513.38
948 0 64.1066 13.1032 840 167.204 792.043 512.649
949 0 66.1658 13.1337 869 160.359 792.4 511.993
950 0 68.1963 13.2265 902 159.7 792.635 510.247
951 0 70.17 13.1253 921 156.414 792.389 509.286
952 0 72.5332 13.2629 962 165.389 793.613 508.075
953 0 74.3344 13.2913 988 164.973 792.544 507.285
954 0 78.396 13.1002 1027 166.047 792.111 505.901
955 0 79.2006 13.3585 1058 165.503 792.331 505.009
956 0 83.3638 13.2072 1101 164.381 793.969 503.058
957 0 85.4395 13.2257 1130 155.657 793.818 501.906
958 0 86.4518 13.4063 1159 159.146 792.989 500.894
959 0 90.487 13.2616 1200 161.457 793.488 499.123
960 0 91.4984 13.3008 1217 158.331 792.033 497.648
961 0 94.4915 13.4721 1273 163.281 793.519 496.721
962 0 99.5676 13.0966 1304 160.643 792.788 495.031
963 0 102.438 13.2959 1362 162.11 791.373 493.594
964 1 54.3403 11.4832 624 162.375 793.276 516.833
965 0 56.0133 12.1578 681 159.949 792.728 516.194
966 0 58.1282 12.2144 710 162.131 792.338 515.373
967 0 59.1459 12.2747 726 164.47 792.887 513.883
968 0 62.2137 12.3445 768 153.762 792.862 512.418
969 0 64.213 12.1159 778 163.361 789.922 511.374
970 0 67.2543 12.252 824 166.659 791.87 509.675
971 0 68.276 12.6106 861 163.607 791.821 508.387
972 0 71.2525 12.3504 880 160.392 792.458 506.603
973 0 73.4104 12.0419 884 162.706 792.08 506.209
974 0 75.383 12.1115 913 162.29 792.2 504.363
975 0 79.2674 11.9091 944 160.888 792.174 502.643
976 0 82.1871 12.2525 1007 160.814 792.855 501.677
977 1 41.2578 11.0525 456 154.743 793.588 521.162
978 0 43.2195 11.5457 499 149.774 790.689 519.864
979 0 44.11 11.29 498 151.924 791.976 519.612
980 0 46.0903 11.2605 519 151.021 792.091 519.293
981 0 46.0668 11.9392 550 148.715 791.011 518.618
982 0 48.1339 11.5719 557 153.203 791.601 517.639
983 0 51.0641 11.4758 586 151.744 790.631 516.983
984 0 52.1153 11.0524 576 155.052 789.17 516.981
985 0 54.1345 11.73 635 149.266 790.701 515.688
986 0 55.0391 11.9188 656 146.427 791.46 514.851
987 0 57.1445 11.9872 685 157.301 791.492 513.839
988 0 59.1337 12.2265 723 153.163 792.769 512.813
989 0 61.1851 12.1762 745 151.328 792.161 511.619
990 0 62.1329 12.1514 755 153.072 791.013 510.605
991 0 65.182 12.5188 816 157.994 792.495 509.9
992 0 67.0883 12.3569 829 158.891 791.578 509.043
993 0 69.081 12.5939 870 159.474 790.925 507.139
994 0 70.1213 12.678 889 158.772 791.957 506.765
995 0 73.1243 12.9369 946 160.44 792.174 505.586
996 0 76.1621 12.6966 967 156.569 791.105 504.198
997 0 76.2343 12.6321 963 158.173 790.961 503.813
998 0 80.1444 12.4151 995 159.855 791.448 502.449
999 0 83.3211 12.6379 1053 165.365 791.705 501.162
1000 0 85.2213 12.9897 1107 163.572 791.553 499.407
1001 1 46.14 11.14 514 166.16 792.626 520.228
1002 0 48.0949 11.5813 557 166.359 792.666 518.817
1003 0 50.0969 11.9768 600 160.813 792.18 517.433
1004 0 51.1209 11.9521 611 153.55 792.059 517.224
1005 0 52.033 11.9924 624 153.426 792.255 516.534
1006 0 52.0423 12.6051 656 156.794 791.439 516.724
1007 0 55.0853 12.0177 662 158.606 791.202 515.937
1008 0 56.0435 12.187 683 165.845 792.045 515.091
1009 0 56.0886 12.4624 699 162.087 792.152 514.206
1010 0 60.0719 12.6515 760 158.201 792.463 512.384
1011 0 61.1423 12.3973 758 168.722 791.938 512.175
1012 0 64.0838 12.5461 804 164.402 792.297 511.218
1013 0 65.0472 12.6216 821 162.756 792.764 510.301
1014 0 68.1004 13.392 912 164.01 793.065 508.454
1015 0 68.1102 12.9496 882 167.96 789.548 508.077
1016 0 72.2572 13.2167 955 164.525 791.754 506.175
1017 0 76.2288 13.2496 1010 165.152 791.459 504.563
1018 0 79.0755 13.3164 1053 165.066 791.16 503.465
1019 0 81.1545 13.271 1077 164.87 790.324 502.277
1020 0 84.0825 13.4154 1128 160.699 790.142 500.433
1021 0 87.0923 13.3077 1159 165.238 790.972 499.099
1022 0 88.1878 13.3919 1181 168.892 790.272 498.114
1023 0 93.2316 13.3109 1241 161.203 791.218 496.729
1024 0 96.2042 13.409 1290 168.219 791.411 495.019
1025 0 100.327 13.7651 1381 158.991 790.642 492.931
1026 0 102.326 13.4667 1378 162.686 790.017 491.28
1027 0 104.321 13.3435 1392 164.925 790.909 486.402
1028 0 109.268 13.2426 1447 159.24 790.95 484.681
1029 0 113.206 13.1 1483 162.941 789.802 482.814
1030 0 115.309 13.1559 1517 158.595 791.145 481.018
1031 0 60.054 13.0882 786 160.109 791.959 491.864
1032 0 62.0465 12.8613 798 161.316 791.623 492.451
1033 0 66.0818 12.7418 842 163.854 790.433 492.719
1034 0 68.0556 12.9306 880 160.156 790.255 490.519
1035 0 71.0665 12.8612 914 158.584 792.513 486.568
1036 0 73.084 12.9851 949 156.277 792.384 487.465
1037 0 75.1181 12.9529 973 163.431 791.332 488.262
1038 0 77.2338 13.2714 1025 160.258 791.767 490.734
1039 0 79.1589 13.1634 1042 156.911 791.312 492.56
1040 0 82.2339 13.9845 1150 153.917 791.965 495.964
1041 0 85.1825 13.16 1121 160.531 791.181 497.586
1042 0 84.0627 13.6089 1144 164.583 790.483 497.88
1043 0 90.077 13.7327 1237 159.479 792.091 498.083
1044 0 92.2037 13.7955 1272 163.186 791.286 496.469
1045 0 96.1349 13.7515 1322 164.138 791.247 494.162
1046 0 97.1171 14.4053 1399 167.33 791.649 492.287
1047 0 101.097 13.9767 1413 164.018 791.734 490.716
1048 0 106.124 13.748 1459 167.736 791.337 488.801
1049 1 52.0369 11.7224 610 164.602 791.403 516.654
1050 0 54.1459 12.2447 663 165.247 791.635 515.858
1051 0 55.0568 12.7686 703 165.053 792.659 515.879
1052 0 57.074 13.0883 747 165.637 792.799 515.253
1053 0 60.205 13.0554 786 167.77 791.955 514.64
1054 0 62.0464 13.1998 819 156.744 792.652 512.828
1055 0 61.1704 13.3888 819 167.212 792.746 512.652
1056 0 64.0585 13.4721 863 164.861 791.913 510.925
1057 0 66.1092 13.3113 880 170.605 792.491 510.735
1058 0 69.1303 13.8 954 162.749 792.351 509.238
1059 0 69.1369 13.8421 957 166.257 792.428 508.116
1060 0 73.0398 13.3215 973 164.297 791.836 507.244
1061 0 74.1192 13.883 1029 171.08 792.479 506.19
1062 0 77.1329 13.924 1074 166.156 791.831 505.595
1063 0 78.1363 13.7324 1073 167.131 790.611 504.044
1064 0 81.1957 13.9909 1136 169.033 791.392 502.82
1065 0 84.3533 13.9769 1179 162.824 791.064 501.872
1066 0 87.1769 13.7422 1198 170.581 792.377 500.398
1067 0 90.246 13.8289 1248 167.754 793.082 499.09
1068 0 93.1842 13.9723 1302 170.039 792.551 497.521
1069 0 95.3191 14.0371 1338 172.767 793.401 495.694
1070 0 98.3547 14.0308 1380 170.062 790.736 494.046
1071 0 102.216 14.0096 1432 171.34 789.529 492.023
1072 0 106.34 13.5885 1445 168.692 791.527 491.153
1073 1 54.3165 12.5929 684 164.161 792.001 516.48
1074 0 56.0439 12.4367 697 166.363 791.472 516.006
1075 0 59.2025 12.6346 748 162.242 791.314 515.32
1076 0 60.0895 12.731 765 163.221 792.067 514.156
1077 0 62.0788 12.8546 798 161.982 790.274 513.167
1078 0 65.1762 12.7807 833 162.687 790.185 511.574
1079 0 66.1584 13.2107 874 163.955 791.545 510.961
1080 0 67.1288 13.0793 878 166.76 792.007 510.392
1081 0 69.1542 13.0144 900 159.452 791.772 509.417
1082 0 71.1841 13.2473 943 165.7 791.055 507.199
1083 0 74.2149 13.5148 1003 157.082 791.93 506.138
1084 0 77.1801 13.0604 1008 166.025 791.375 504.915
1085 0 79.1227 13.3843 1059 158.535 792.585 503.625
1086 0 80.205 13.3533 1071 160.671 792.528 501.174
1087 0 83.163 13.4795 1121 166.247 791.207 501.043
1088 0 86.2387 13.5554 1169 166.157 792.926 498.991
1089 0 89.2001 13.3856 1194 163.755 791.495 497.353
1090 0 92.1852 13.5271 1247 157.463 793.402 495.935
1091 0 96.1499 12.8133 1232 165.463 792.274 495.78
1092 0 98.3255 13.0688 1285 158.692 792.28 493.539
1093 1 52.0921 11.9788 624 157.907 792.503 517.304
1094 0 54.256 12.3304 669 159.114 792.139 516.809
1095 0 55.1152 12.3378 680 151.957 793.076 516.678
1096 0 57.1048 12.4683 712 159.093 794.416 516.029
1097 0 58.095 12.8066 744 156.149 792.565 515.009
1098 0 61.1059 12.8466 785 154.341 791.827 513.694
1099 0 63.0427 13.0229 821 146.371 793.255 511.772
1100 0 66.2072 12.627 836 154.58 792.047 511.383
1101 0 66.2958 13.0023 862 145.726 792.249 509.915
1102 0 69.112 13.1526 909 154.921 790.817 509.315
1103 0 72.2484 12.9692 937 157.449 792.386 507.847
1104 0 75.258 12.889 970 158.478 791.406 506.798
1105 0 76.2231 13.2112 1007 151.217 792.9 505.68
1106 0 78.141 13.3477 1043 157.812 792.11 504.016
1107 0 81.1557 13.4556 1092 157.049 791.802 502.549
1108 0 85.2288 12.8947 1099 161.503 790.338 501.384
1109 0 87.1804 13.2484 1155 154.555 791.257 500
1110 0 90.1715 13.1638 1187 160.052 789.866 498.985
1111 0 93.1416 13.152 1225 161.252 790.719 496.967
1112 0 97.2008 13.076 1271 155.111 790.869 494.732
1113 1 50.1538 11.7638 590 152.947 792.59 518.759
1114 0 51.0881 12.1946 623 155.279 791.867 518.209
1115 0 54.0264 12.3828 669 155.556 790.738 517.514
1116 0 56.0588 12.1301 680 155.316 791.235 516.079
1117 0 57.0415 12.6048 719 155.787 791.332 514.873
1118 0 59.1634 12.7106 752 154.412 791.185 514.037
1119 0 61.0495 12.8748 786 153.396 791.198 512.83
1120 0 64.0914 12.5446 804 145.896 791.131 511.933
1121 0 64.0377 13.1329 841 154.284 791.276 510.353
1122 0 66.0523 13.2925 878 150.262 790.059 509.733
1123 0 70.0726 13.0008 911 155.207 790.098 508.632
1124 0 71.1402 13.6491 971 159.621 791.443 508.674
1125 0 75.0509 13.4442 1009 157.47 790.964 506.007
1126 0 78.1599 13.6515 1067 161.256 792.326 505.746
1127 0 81.0888 13.3064 1079 157.533 792.571 505.126
1128 0 83.1562 13.4085 1115 170.31 791.201 503.946
1129 0 86.2702 13.4461 1160 169.234 789.986 502.815
1130 0 89.1554 13.6728 1219 163.69 791.15 500.938
1131 0 91.1674 13.4478 1226 169.774 789.131 499.525
1132 0 95.0918 13.5869 1292 163.959 791.094 498.18
1133 0 98.1372 13.2162 1297 170.567 790.264 497.347
1134 1 52.0984 12.5532 654 168.384 790.37 519.52
1135 0 52.0738 13.0968 682 159.107 791.235 519.114
1136 0 55.0398 12.6999 699 166.893 790.621 518.176
1137 0 57.0612 13.1438 750 162.2 791.803 516.9
1138 0 60.0615 12.9867 780 165.873 791.132 516.164
1139 0 61.0228 12.9624 791 168.046 790.944 515.051
1140 0 63.0761 13.2697 837 165.207 792.416 514.756
1141 0 65.075 13.3692 870 170.31 792.844 513.006
1142 0 68.0708 12.9277 880 171.56 793.78 512.665
1143 0 70.0807 13.4845 945 162.205 793.466 511.33
1144 0 71.0779 13.647 970 167.095 790.925 509.708
1145 0 74.1089 13.6016 1008 159.105 792.332 508.853
1146 0 77.0306 13.2415 1020 158.781 791.87 507.871
1147 0 79.0826 13.3531 1056 171.074 791.738 506.604
1148 0 82.0628 13.5384 1111 165.611 792.549 505.097
1149 0 84.0932 13.8061 1161 167.326 793.129 504.315
1150 0 85.2127 13.613 1160 162.814 791.691 502.271
1151 0 88.0499 13.8671 1221 170.713 791.4 500.945
1152 0 94.105 13.5593 1276 170.524 791.047 499.622
1153 1 49.0925 12.6292 620 171.89 791.926 520.871
1154 0 51.0141 12.6436 645 163.687 792.674 520.214
1155 0 52.0694 12.6946 661 169.601 792.995 519.725
1156 0 54.0269 12.7529 689 165.109 792.28 518.649
1157 0 55.0646 12.676 698 170.255 792.775 517.917
1158 0 57.1057 13.0635 746 165.93 792.068 516.972
1159 0 59.0488 12.6844 749 160.505 791.003 515.806
1160 0 61.0305 13.354 815 166.481 791.226 514.713
1161 0 62.0543 12.9081 801 165.382 790.345 514.222
1162 0 66.0638 13.3053 879 160.295 790.943 512.016
1163 0 69.0494 13.0197 899 160.404 792.341 511.677
1164 0 70.0999 13.2097 926 154.766 790.864 510.713
1165 0 72.108 13.0221 939 158.323 792.569 510.12
1166 0 76.3205 13.1026 1000 158.345 791.852 508.183
1167 0 78.1188 13.2747 1037 150.34 791.536 506.232
1168 0 80.1802 13.4073 1075 154.594 790.158 505.566
1169 0 83.2249 13.1691 1096 158.179 791.769 504.509
1170 0 86.2187 13.1874 1137 160.285 791.472 502.395
1171 0 87.2513 13.4095 1170 166.486 791.386 501.03
1172 1 44.0867 11.9764 528 159.792 794.034 523.566
1173 0 46.0517 12.0082 553 164.767 793.034 523.445
1174 0 48.0181 12.3703 594 157.714 793.047 522.16
1175 0 49.0406 12.2551 601 167.824 792.441 521.879
1176 0 50.145 12.2844 616 154.438 792.01 521.287
1177 0 52.0123 12.8239 667 161.138 793.558 520.633
1178 0 52.0401 13.1053 682 164.933 793.191 519.727
1179 0 54.2018 12.9885 704 162.95 792.307 519.132
1180 0 56.1007 12.7271 714 159.81 792.947 518.23
1181 0 56.0666 13.4126 752 164.688 793.263 517.503
1182 0 56.0427 13.6146 763 162.594 791.944 516.814
1183 0 59.0858 13.5566 801 156.409 791.84 515.511
1184 0 61.0818 12.7698 780 163.763 792.719 515.112
1185 0 64.1988 12.8974 828 164.066 793.402 514.307
1186 0 65.096 13.1037 853 164.354 794.08 512.917
1187 0 68.0654 13.2667 903 159.754 792.573 511.962
1188 0 70.0814 13.2703 930 158.175 791.491 510.752
1189 0 73.1269 13.6065 995 163.544 792.632 509.067
1190 0 75.0575 13.0833 982 165.51 792.056 508.442
1191 0 77.0263 13.4499 1036 160.531 791.089 507.036
1192 0 79.1006 13.4386 1063 158.307 792.842 506.215
1193 0 83.1875 13.3433 1110 157.909 793.121 503.637
1194 0 86.0803 13.4177 1155 159.448 792.394 503.58
1195 0 89.0477 13.7117 1221 161.72 791.438 501.753
1196 1 50.0246 11.4944 575 159.398 792.711 521.435
1197 0 51.0271 12.2092 623 163.745 792.557 520.576
1198 0 52.0385 12.5676 654 161.994 790.006 520.206
1199 0 54.0885 12.6275 683 154.218 789.691 519.242
1200 0 56.1385 12.3623 694 158.578 791.219 518.96
1201 0 55.0604 12.9312 712 156.308 792.435 518.798
1202 0 58.0448 13.145 763 160.769 790.436 517.214
1203 0 58.0448 13.145 763 162.81 788.436 517.214
1204 0 60.0661 12.8192 770 158.599 792.553 515.71
1205 0 63.0981 13.1541 830 155.451 792.614 514.086
1206 0 64.0997 13.1514 843 151.631 792.326 514.074
1207 0 68.1257 13.1228 894 151.54 793.38 512.265
1208 0 70.1342 13.0179 913 156.863 791.142 511.204
1209 0 72.1978 12.6874 916 157.355 791.584 510.453
1210 0 75.2053 13.0842 984 153.07 793.282 509.036
1211 0 77.1919 12.9936 1003 148.989 791.963 507.941
1212 0 80.2465 13.0224 1045 148.835 791.435 505.952
1213 0 82.17 13.4234 1103 153.17 792.747 504.64
1214 0 84.1194 13.6711 1150 152.611 793.148 503.555
1215 0 88.1906 13.1987 1164 152.291 792.229 501.925
1216 1 43.1498 11.4485 494 151.7 794.46 524.425
1217 0 44.0847 12.0223 530 151.823 792.391 523.86
1218 0 47.0973 12.3149 580 148.79 791.059 522.929
1219 0 48.0525 12.2366 588 150.759 790.832 522.422
1220 0 50.0393 12.2104 611 150.039 791.054 522.172
1221 0 51.0849 12.5673 642 148.843 793.417 520.746
1222 0 52.0458 12.5466 653 149.698 792.161 520.309
1223 0 53.0394 12.8961 684 150.355 792.827 519.288
1224 0 53.0277 13.2384 702 148.007 791.432 518.39
1225 0 57.0732 12.8607 734 150.805 795.091 517.402
1226 0 59.0675 12.9005 762 143.051 792.083 516.185
1227 0 60.044 13.3402 801 149.72 792.886 515.955
1228 0 64.027 13.1195 840 148.92 792.565 514.546
1229 0 65.1584 12.7535 831 149.594 793.8 514.065
1230 0 67.1411 13.3599 897 147.462 790.546 512.512
1231 0 70.0491 13.2764 930 143.482 791.069 510.606
1232 0 70.1668 13.4394 943 146.593 791.56 509.691
1233 0 73.1194 13.5805 993 151.292 791.173 509.116
1234 0 76.1331 13.2268 1007 152.092 792.388 507.728
1235 0 79.2646 13.3225 1056 150.044 794.136 506.901
1236 0 81.189 13.3392 1083 151.618 792.239 506.065
1237 0 85.066 13.7658 1171 152.182 792.479 503.779
1238 0 87.2388 13.4459 1173 155.644 793.246 503.06
1239 0 91.1571 13.6687 1246 154.066 792.419 501.36
1240 0 94.1301 13.8319 1302 153.497 792.79 499.549
1241 0 97.1188 13.952 1355 158.72 791.215 498.373
1242 1 53.1266 12.5926 669 164.93 791.798 519.972
1243 0 57.0361 12.7463 727 167.106 792.446 519.073
1244 0 56.0614 13.1285 736 159.863 791.702 518.622
1245 0 59.0349 12.9923 767 159.776 791.224 518.03
1246 0 61.039 13.1064 800 162.342 790.748 517.19
1247 0 63.029 13.3431 841 169.793 790.703 516.369
1248 0 65.0524 13.1894 858 168.495 792.707 515.057
1249 0 67.0781 13.2085 886 168.699 791.808 513.878
1250 0 69.0528 13.4535 929 172.027 790.466 512.703
1251 0 71.0545 13.4122 953 172.56 790.23 512.243
1252 0 74.0636 13.5559 1004 174.296 791.124 510.844
1253 0 76.1308 13.5031 1028 165.324 791.12 509.083
1254 0 80.1584 13.3111 1067 169.42 791.362 507.7
1255 0 83.105 13.4408 1117 169.113 791.799 506.306
1256 0 86.0834 13.4288 1156 165.799 791.893 505.274
1257 0 89.1265 13.2172 1178 172.475 790.335 503.669
1258 1 45.0287 12.7919 576 169.064 790.531 524.318
1259 0 47.0971 12.7821 602 169.455 790.043 523.738
1260 0 48.0367 13.115 630 164.949 791.606 523.17
1261 0 50.051 13.0467 653 171.101 790.818 522.646
1262 0 52.033 12.9533 674 163.421 791.285 521.454
1263 0 53.0267 13.5969 721 169.338 791.861 520.791
1264 0 55.0648 13.1663 725 172.171 791.768 520.578
1265 0 55.0333 13.5373 745 169.717 791.86 520.203
1266 0 56.0665 13.8229 775 170.283 789.964 519.31
1267 0 60.0454 13.4065 805 165.312 789.933 517.607
1268 0 62.0328 13.7669 854 165.803 790.434 516.089
1269 0 63.0615 13.9705 881 160.915 790.061 515.117
1270 0 66.0814 13.7406 908 166.17 788.933 514.559
1271 0 68.063 13.7814 938 163.432 788.762 513.15
1272 0 70.0712 13.6718 958 168.522 792.14 512.338
1273 0 73.162 13.6 995 162.517 790.447 510.675
1274 0 75.132 13.6027 1022 167.276 791.934 508.715
1275 0 77.079 13.6613 1053 162.19 791.236 507.444
1276 0 81.1856 13.7956 1120 157.938 790.362 505.533
1277 0 83.0901 13.8645 1152 154.202 789.036 504.839
1278 0 84.2724 13.5038 1138 167.202 791.426 503.804
1279 1 42.1926 12.0637 509 162.919 789.051 525.417
1280 0 44.1305 13.0069 574 159.521 789.11 525.552
1281 0 45.0177 12.8838 580 161.414 789.372 525.338
1282 0 44.0473 13.3947 590 158.844 790.597 524.82
1283 0 49.0254 12.9729 636 159.481 790.215 523.487
1284 0 50.1429 12.8034 642 154.662 790.699 523.215
1285 0 51.0751 13.2354 676 162.978 790.615 522.142
1286 0 53.0521 13.647 724 156.836 789.351 520.999
1287 0 55.0381 13.4634 741 165.633 789.447 520.371
1288 0 56.0612 13.3247 747 164.617 790.719 520.033
1289 0 57.0654 13.4582 768 162.133 791.289 519.478
1290 0 59.0804 13.744 812 169.914 790.922 518.644
1291 0 63.1511 13.0639 825 170.322 790.545 517.645
1292 0 65.1162 13.5297 881 170.908 790.312 516.733
1293 0 65.1399 13.9085 906 164.789 790.139 515.465
1294 0 69.0753 13.6083 940 154.597 790.239 514.35
1295 0 70.0659 13.5872 952 169.559 790.04 513.118
1296 0 72.1018 13.8415 998 165.968 790.171 512.32
1297 0 75.0567 13.7762 1034 171.831 789.587 510.663
1298 0 79.1663 13.6422 1080 170.273 789.552 508.778
1299 0 81.0734 13.5926 1102 160.35 788.946 507.581
1300 0 85.059 13.5083 1149 170.093 788.574 506.261
1301 0 88.1217 13.4927 1189 160.387 790.275 505.464
1302 1 43.0253 12.2486 527 163.383 790.342 526.269
1303 0 44.013 12.5417 552 173.514 791.435 525.183
1304 0 45.0199 12.9054 581 163.539 789.336 524.802
1305 0 46.0831 12.9549 597 161.181 790.755 523.777
1306 0 49.0254 12.5445 615 168.82 790.92 522.883
1307 0 49.0526 13.3734 656 162.012 791.398 522.087
1308 0 52.0308 13.2806 691 165.467 790.372 521.048
1309 0 54.0573 13.3007 719 164.843 788.896 520.125
1310 0 55.1194 13.5524 747 164.985 788.953 519.224
1311 0 57.0566 13.4428 767 164.91 790.974 518.189
1312 0 60.0487 13.1227 788 153.288 793.015 517.132
1313 0 61.0291 13.5345 826 150.019 791.697 515.619
1314 0 64.0435 13.5689 869 164.055 789.745 514.612
1315 0 67.0413 13.3798 897 162.434 790.072 514.292
1316 0 69.0277 13.4728 930 156.012 790.19 513.167
1317 0 72.0372 13.5347 975 165.166 790.259 511.348
1318 0 76.0859 13.4848 1026 165.244 789.006 510.372
1319 0 77.144 13.8831 1071 161.753 790.815 508.458
1320 0 81.0502 13.5225 1096 167.213 790.484 506.598
1321 1 40.0302 12.1658 487 169.431 788.54 526.665
1322 0 41.0491 12.8383 527 158.171 789.843 526.326
1323 0 44.0256 12.0157 529 159.429 790.633 525.284
1324 0 46.0513 12.7467 587 158.995 789.295 524.566
1325 0 48.0773 12.2511 589 167.604 790.582 524.263
1326 0 47.0585 13.2176 622 169.982 791.41 523.619
1327 0 51.0164 12.2902 627 168.589 788.715 523.147
1328 0 51.0423 12.5582 641 166.378 788.087 522.346
1329 0 53.101 12.5233 665 162.66 788.965 521.779
1330 0 55.095 12.7779 704 166.557 785.56 520.916
1331 0 57.0579 12.8291 732 159.922 787.141 519.721
1332 0 59.0644 13.0366 770 161.966 788.751 518.529
1333 0 60.0825 12.7991 769 168.399 788.212 518.726
1334 0 63.0393 12.8174 808 170.494 789.797 517.505
1335 0 64.0642 12.5343 803 166.826 789.097 516.737
1336 0 64.0322 13.0872 838 169.175 789.22 515.388
1337 0 67.1043 12.9798 871 161.762 788.904 515.147
1338 0 70.0635 12.7313 892 164.928 788.559 513.393
1339 0 71.1179 12.8097 911 166.259 788.243 512.993
1340 0 73.042 12.8693 940 164.622 788.411 511.29
1341 0 76.1529 12.8951 982 158.602 788.192 509.859
1342 0 80.1315 12.9662 1039 161.603 786.529 508.115
1343 1 42.0339 12.1331 510 165.159 789.139 526.173
1344 0 45.0319 12.1247 546 165.181 789.987 525.767
1345 0 45.0523 12.6076 568 168.815 789.206 525.232
1346 0 48.062 12.4423 598 166.51 790.401 524.602
1347 0 49.081 12.6118 619 165.68 788.84 523.519
1348 0 51.0426 12.6561 646 165.218 788.3 522.525
1349 0 52.0357 13.2409 689 165.99 788.235 521.745
1350 0 53.0873 12.9409 687 167.499 787.453 521.595
1351 0 53.2993 13.1334 700 164.804 789.883 521.219
1352 0 53.2993 13.1334 700 173.84 792.883 521.219
1353 0 57.1466 13.1066 749 173.001 788.152 519.311
1354 0 58.1901 13.3012 774 171.717 789.371 519.165
1355 0 60.0847 13.3645 803 175.636 789.384 518.365
1356 0 63.1445 13.0653 825 171.328 788.052 517.618
1357 0 65.1742 13.4102 874 167.736 788.695 516.078
1358 0 66.114 13.4162 887 167.857 787.455 514.933
1359 0 68.2461 13.2608 905 174.295 787.762 514.051
1360 0 70.2038 13.703 962 174.563 786.779 512.824
1361 0 72.2764 13.4622 973 167.621 786.751 511.08
1362 0 75.3108 13.4111 1010 172.056 787.343 510.855
1363 0 78.1823 13.5836 1062 170.463 788.082 508.87
1364 0 80.2749 13.9147 1117 168.527 788.143 507.474
1365 0 84.173 13.5911 1144 164.766 787.531 506.197
1366 0 88.1722 13.4509 1186 165.238 787.941 505.067
1367 1 45.0481 12.0538 543 166.587 787.576 525.63
1368 0 47.0268 12.5035 588 169.434 788.039 524.418
1369 0 48.1397 13.0038 626 164.347 789.551 524.12
1370 0 51.1 12.8376 656 163.447 788.39 523.027
1371 0 51.0712 13.021 665 169.789 789.474 522.405
1372 0 53.0577 13.5701 720 156.596 790.114 521.421
1373 0 55.0385 12.9546 713 160.823 788.805 520.638
1374 0 55.0355 13.6094 749 161.586 789.467 519.704
1375 0 58.0403 13.3356 774 145.602 789.078 518.74
1376 0 60.2174 13.0693 787 157.292 789.994 518.226
1377 0 61.0581 13.2333 808 152.342 790.936 517.569
1378 0 62.025 13.414 832 145.591 790.572 516.907
1379 0 63.1277 13.5598 856 156.14 790.547 515.694
1380 0 66.0512 13.4441 888 156.768 790.667 514.641
1381 0 69.0295 13.516 933 153.661 791.561 513.723
1382 0 69.0533 14.134 976 153.927 790.391 512.593
1383 0 75.0514 13.5107 1014 158.616 791.057 511.588
1384 0 76.0392 13.9007 1057 152.439 791.667 509.928
1385 0 77.0477 13.7837 1062 151.476 789.67 508.824
1386 0 81.1097 13.6605 1108 151.323 790.357 507.466
1387 0 84.1738 13.5909 1144 150.842 790.011 505.821
1388 0 86.1267 13.6775 1178 152.213 791.636 504.674
1389 1 43.0424 11.6862 503 155.068 791.865 527.072
1390 0 45.0376 12.2342 551 159.617 792.886 526.12
1391 0 47.0945 12.5068 589 153.679 792.362 525.57
1392 0 48.0857 12.8313 617 155.621 791.934 524.846
1393 0 49.0422 13.4374 659 158.325 790.801 524.132
1394 0 49.0533 13.6382 669 159.281 792.021 523.855
1395 0 52.1333 13.2737 692 156.78 790.926 523.455
1396 0 53.1695 13.7297 730 161.03 790.585 521.836
1397 0 53.035 13.8022 732 155.824 791.294 521.571
1398 0 55.0484 13.7697 758 148.393 792.865 521.098
1399 0 57.0596 14.073 803 158.804 791.989 519.492
1400 0 59.2245 14.4366 855 160.109 793.433 517.204
1401 0 60.1917 14.5203 874 164.604 791.984 516.384
1402 0 64.1293 14.2057 911 161.401 792.463 515.71
1403 0 65.1725 14.4693 943 165.85 791.539 514.815
1404 0 68.191 14.4007 982 160.244 793.312 513.592
1405 0 72.0986 14.6327 1055 165.851 791.316 511.946
1406 0 72.1109 14.6025 1053 161.418 792.545 511.511
1407 0 76.1858 14.4253 1099 159.278 792.541 509.353
1408 0 78.1357 14.3724 1123 168.353 791.527 508.653
1409 0 80.0789 14.6356 1172 166.748 792.529 507.186
1410 0 85.1466 14.293 1217 161.057 791.29 505.496
1411 0 86.2452 14.8066 1277 157.409 791.31 504.038
1412 0 90.2471 14.283 1289 157.003 790.767 502.694
1413 1 43.042 13.3126 573 157.688 790.504 525.838
1414 0 45.0662 13.4691 607 165.198 790.837 525.091
1415 0 47.1501 13.8706 654 157.543 791.335 524.68
1416 0 49.2352 14.0347 691 156.052 791.787 523.674
1417 0 51.0747 14.1362 722 154.035 789.767 522.747
1418 0 51.304 14.5992 749 160.266 791.045 522.391
1419 0 53.1438 14.903 792 159.936 790.158 521.874
1420 0 55.26 14.6942 812 156.032 788.35 520.943
1421 0 57.1533 14.5748 833 163.504 790.468 519.982
1422 0 60.2112 14.8976 897 159.835 791.793 518.95
1423 0 62.2303 14.7034 915 159.017 793.064 518.25
1424 0 65.2433 14.3923 939 157.23 791.752 517.414
1425 0 67.194 14.8227 996 160.492 790.933 516.198
1426 0 69.3174 14.9602 1037 159.684 791.219 515.036
1427 0 71.1984 14.9161 1062 150.363 790.944 513.93
1428 0 74.1518 14.8479 1101 157.794 789.79 512.3
1429 0 76.189 15.1859 1157 150.739 790.451 510.979
1430 0 80.173 15.242 1222 156.818 791.391 509.57
1431 0 83.1696 14.9935 1247 155.976 791.15 508.649
1432 0 85.2643 15.1177 1289 163.031 790.22 506.997
1433 0 88.3052 14.8009 1307 157.494 788.941 505.341
1434 0 92.3178 14.6017 1348 164.37 789.68 504.489
1435 1 49.2054 13.8196 680 168.878 789.488 523.931
1436 0 51.1847 15.0826 772 168.701 789.381 522.455
1437 0 52.2296 15.1447 791 168.217 789.282 522.029
1438 0 54.1563 14.7351 798 171.396 790.704 521.223
1439 0 57.1375 14.8414 848 170.358 790.123 520.644
1440 0 60.195 15.0012 903 167.543 788.689 518.939
1441 0 62.1293 15.4355 959 166.752 788.848 517.613
1442 0 64.1269 15.0015 962 172.778 787.4 517.23
1443 0 67.1657 15.1714 1019 172.156 788.332 515.472
1444 0 69.118 15.0612 1041 173.015 788.474 514.877
1445 0 72.2308 14.9521 1080 175.481 788.594 512.824
1446 0 75.1748 15.4174 1159 171.889 789.135 511.173
1447 0 77.2235 15.4875 1196 174.59 790.374 509.843
1448 0 79.158 15.3996 1219 177.507 791.409 508.654
1449 0 82.178 15.3691 1263 172.401 790.937 506.357
1450 0 87.092 15.1564 1320 170.899 788.87 505.496
1451 0 90.2088 15.3089 1381 169.95 787.697 503.467
1452 0 96.0771 14.9047 1432 170.089 789.272 501.714
1453 0 97.2174 15.3573 1493 169.268 789.053 500.295
1454 0 101.316 14.7756 1497 170.019 788.967 499.355
1455 1 48.0192 14.3068 687 168.435 790.972 522.584
1456 0 51.1246 14.2593 729 169.96 790.077 521.652
1457 0 55.0236 14.0849 775 172.619 788.867 521.778
1458 0 56.065 14.1265 792 170.723 789.631 520.646
1459 0 57.2338 14.3097 819 175.755 789.775 519.498
1460 0 59.1747 14.2966 846 177.832 790.009 518.768
1461 0 61.0284 14.5014 885 173.416 791.919 517.296
1462 0 64.1799 14.4749 929 172.496 790.46 515.67
1463 0 65.0171 14.5193 944 172.602 790.286 514.941
1464 0 67.1044 14.5445 976 170.036 788.815 513.747
1465 0 70.0486 14.3757 1007 173.064 790.939 512.447
1466 0 73.097 14.515 1061 172.764 791.568 510.671
1467 0 76.0854 14.5363 1106 174.524 792.725 509.139
1468 0 79.2109 14.4551 1145 166.351 792.51 507.82
1469 0 82.2343 14.5317 1195 169.536 791.912 505.897
1470 0 85.0776 14.3634 1222 167.591 791.507 504.418
1471 0 90.205 14.1456 1276 173.288 793.65 502.938
1472 0 90.1911 14.4471 1303 165.38 789.942 500.637
1473 1 49.0911 12.4462 611 162.584 791.597 521.643
1474 0 51.2557 12.4084 636 164.259 791.711 521.403
1475 0 53.0656 12.4563 661 162.209 792.832 520.245
1476 0 55.1451 12.5306 691 168.22 791.602 520.067
1477 0 57.0646 12.4771 712 158.267 793.228 518.386
1478 0 59.0831 12.914 763 169.094 791.683 516.596
1479 0 62.0931 12.7711 793 165.096 792.714 515.868
1480 0 63.1275 12.4352 785 164.427 792.363 515.578
1481 0 66.1227 12.507 827 165.543 789.911 514.618
1482 0 67.3154 12.8945 868 169.112 790.47 513.565
1483 0 71.2028 12.8085 912 166.945 791.828 512.41
1484 0 74.2335 12.9187 959 169.98 790.561 510.529
1485 0 77.1511 13.0264 1005 163.672 789.554 508.914
1486 0 79.2945 13.0526 1035 167.743 790.858 507.843
1487 0 83.2654 12.8385 1069 171.928 791.244 507.146
1488 0 86.369 12.574 1086 169.699 791.287 504.999
1489 1 44.207 12.1926 539 158.939 791.234 524.896
1490 0 46.0826 12.1521 560 164.618 791.034 524.405
1491 0 48.2057 11.7828 568 162.011 792.567 523.248
1492 0 49.0175 12.4853 612 161.724 791.028 523.034
1493 0 52.1343 11.854 618 160.951 791.549 522.176
1494 0 52.1143 12.4534 649 163.803 792.153 520.732
1495 0 55.1281 12.5889 694 168.014 791.297 520.037
1496 0 58.1309 12.4374 723 155.047 790.458 518.415
1497 0 60.2007 12.0763 727 157.38 792.829 516.497
1498 0 59.3127 12.6448 750 153.901 793.981 516.045
1499 0 62.4219 12.6398 789 157.806 791.373 514.63
1500 0 67.2214 12.2729 825 149.978 791.63 513.181
1501 0 67.4189 12.4594 840 151.756 793.094 512.673
1502 0 69.235 12.3348 854 155.882 791.194 511.002
1503 0 74.2719 12.2523 910 153.884 792.129 509.903
1504 0 77.2322 12.443 961 154.586 791.949 508.243
1505 0 80.2055 12.1937 978 155.157 791.77 507.456
1506 0 82.2816 12.044 991 154.079 791.663 505.988
1507 1 42.2457 10.652 450 146.436 792.638 525.838
1508 0 44.2019 10.7009 473 147.11 790.723 524.355
1509 0 46.1599 10.6803 493 150.475 790.765 523.89
1510 0 47.0628 11.0066 518 147.502 790.452 522.749
1511 0 50.0519 11.2683 564 148.413 790.679 521.956
1512 0 50.0164 11.2963 565 151.642 791.347 521.182
1513 0 52.0811 11.6357 606 152.137 790.634 519.889
1514 0 53.1673 11.3792 605 153.321 790.698 520.074
1515 0 55.0584 11.5695 637 150.788 791.188 518.543
1516 1 67.199 12.2026 820 156.501 792.059 512.349
1517 0 69.3871 12.1492 843 161.262 792.192 511.65
1518 0 70.4579 12.2626 864 153.545 790.975 511.104
1519 0 74.4371 12.252 912 151.935 790.805 509.252
1520 0 75.588 12.1448 918 163.35 791.725 508.521
1521 0 77.3681 12.4728 965 159.59 790.62 507.658
1522 0 82.2931 12.419 1022 160.29 789.711 505.834
1523 0 85.4826 12.3183 1053 165.973 788.687 504.002
1524 1 45.3188 10.6358 482 155.392 791.044 523.778
1525 0 47.217 11.5001 543 151.748 791.499 523.238
1526 0 50.0393 11.5709 579 148.373 789.61 522.902
1527 0 51.0798 12.0987 618 153.699 789.673 522.35
1528 0 52.049 11.835 616 159.494 789.891 522.261
1529 0 54.0847 12.0922 654 160.043 791.05 521.405
1530 0 56.1342 12.1851 684 156.496 790.292 520.751
1531 0 57.0697 12.5986 719 156.542 789.933 519.965
1532 0 59.0979 12.2678 725 157.967 790.364 518.749
1533 0 61.0716 12.5099 764 160.809 789.183 518.623
1534 0 61.0892 12.6373 772 162.834 791.869 518.093
1535 0 63.1597 12.6505 799 154.324 791.063 517.184
1536 0 64.0518 13.13 841 165.064 790.655 516.836
1537 0 66.087 13.0131 860 165.052 790.612 515.962
1538 0 67.0421 13.2603 889 167.648 790.789 515.4
1539 0 70.111 13.1648 923 162.804 789.015 514.575
1540 0 69.0933 13.7206 948 166.349 790.377 513.781
1541 0 73.1749 13.3379 976 166.456 791.432 512.268
1542 0 76.4548 13.1843 1008 161.397 791.218 511.198
1543 0 79.2386 13.0744 1036 163.972 790.849 508.913
1544 0 81.3183 13.5148 1099 158.985 791.051 507.626
1545 0 84.253 13.2814 1119 157.875 789.093 506.502
1546 1 41.3183 11.7623 486 166.249 790.027 527.381
1547 0 44.1384 11.9397 527 165.953 791.047 526.226
1548 0 46.1603 12.1316 560 167.941 791.025 525.461
1549 0 48.234 12.5016 603 164.837 788.383 524.244
1550 0 51.1345 12.3791 633 163.27 787.711 523.619
1551 0 51.2341 12.5893 645 163.315 788.581 522.89
1552 0 52.2109 12.3346 644 156.696 790.388 522.29
1553 0 54.2578 12.5143 679 164.686 791.138 521.24
1554 0 55.2193 12.9121 713 164.247 790.972 519.816
1555 0 55.2193 12.9121 713 169.398 791.972 519.816
1556 0 59.2813 12.9383 767 161.73 791.863 518.417
1557 0 61.3048 12.707 779 164.354 790.272 518.232
1558 0 64.2771 12.5395 806 166.763 788.712 517.746
1559 0 64.1888 12.9306 830 169.359 790.686 516.796
1560 0 66.1379 13.0031 860 167.38 789.679 515.85
1561 0 67.3233 13.1158 883 169.435 790.83 514.676
1562 0 71.1082 13.0505 928 165.205 791.568 513.749
1563 0 73.1998 13.0055 952 165.551 790.301 512.491
1564 0 76.2805 13.0702 997 158.246 790.686 511.512
1565 0 77.3412 13.1366 1016 162.829 790.565 510.643
1566 0 80.5734 13.2674 1069 165.552 790.138 508.677
1567 0 84.4065 12.8426 1084 164.033 790.876 507.395
1568 1 45.2509 11.5357 522 165.207 790.358 526.626
1569 0 46.2292 11.9838 554 164.249 789.027 525.581
1570 0 47.032 12.247 576 156.641 789.774 524.882
1571 0 48.0536 12.4652 599 163.397 788.795 524.73
1572 0 51.0633 12.318 629 155.591 789.744 523.175
1573 0 53.0934 12.3932 658 160.243 789.997 522.67
1574 0 54.1188 12.7128 688 158.497 789.984 522.144
1575 0 54.1081 13.1034 709 154.657 789.968 521.646
1576 0 58.0863 12.6708 736 157.24 790.391 520.808
1577 0 59.1677 12.473 738 155.202 790.218 520.146
1578 0 61.1192 12.3856 757 154.542 790.359 518.868
1579 0 63.2055 12.7995 809 154.398 788.316 517.742
1580 0 65.1811 13.2093 861 152.317 789.699 516.479
1581 0 68.1506 12.8392 875 146.56 788.542 515.03
1582 0 70.1257 12.9054 905 155.388 789.192 513.633
1583 0 70.2488 13.2814 933 147.135 787.818 512.785
1584 0 74.1155 12.8988 956 149.358 789.423 512.186
1585 0 77.2312 12.974 1002 153.041 789.979 510.039
1586 0 78.1666 12.7036 993 151.583 788.907 508.88
1587 0 80.2632 13.1692 1057 155.478 789.429 507.285
1588 0 83.1894 13.0786 1088 144.302 788.727 506.374
1589 0 88.3081 13.0113 1149 151.058 789.206 503.965
1590 0 90.1484 12.9786 1170 147.593 788.645 501.491
1591 0 94.2699 13.0158 1227 152.355 788.182 501.405
1592 0 96.1335 13.0236 1252 161.241 788.384 500.899
1593 0 100.274 12.9844 1302 164.672 788.087 500.285
1594 1 54.2897 12.3044 668 162.44 787.844 522.585
1595 0 57.2011 12.1851 697 157.169 788.928 521.307
1596 0 57.0658 12.4242 709 150.962 788.329 521.283
1597 0 58.0557 12.6258 733 151.214 789.45 520.778
1598 0 61.0971 12.8157 783 149.917 787.777 520.14
1599 0 64.0779 12.8594 824 150.89 787.004 518.783
1600 0 66.1292 12.9746 858 161.24 788.724 517.746
1601 0 68.0614 12.5181 852 165.863 787.197 516.773
1602 0 71.0508 12.7937 909 161.53 786.255 515.087
1603 0 73.0332 13.131 959 161.913 788.819 513.87
1604 0 75.1174 12.9531 973 163.734 788.29 512.38
1605 0 79.0488 12.992 1027 158.448 788.936 511.553
1606 0 80.068 13.1263 1051 160.472 787.9 510.398
1607 0 83.1247 13.1249 1091 163.577 788.243 508.827
1608 0 88.1305 13.0715 1152 168.734 788.519 507.08
1609 0 91.0596 13.1342 1196 171.647 788.82 504.754
1610 0 94.1313 12.9712 1221 169.138 789.356 503.943
1611 0 98.2321 13.3358 1310 165.685 787.117 498.758
1612 1 51.0383 12.089 617 164.488 786.796 525.156
1613 0 53.0542 12.327 654 164.881 788.115 524.442
1614 0 54.1963 12.8422 696 173.711 788.934 522.629
1615 0 55.2995 13.0019 719 160.548 788.242 522.344
1616 0 57.1482 13.0013 743 169.062 787.253 521.474
1617 0 58.111 13.8184 803 162.853 786.082 520.059
1618 0 61.0602 12.9217 789 167.179 788.606 519.565
1619 0 62.0644 13.2443 822 160.799 787.871 518.88
1620 0 64.0561 13.2852 851 165.503 786.741 517.929
1621 0 66.0661 13.4411 888 161.619 788.334 517.211
1622 0 68.1352 13.9429 950 167.987 788.199 515.581
1623 0 69.1611 13.4469 930 167.244 789.035 515.373
1624 0 73.2323 12.9315 947 169.69 787.807 514.169
1625 0 75.1752 13.0894 984 165.133 787.679 513.234
1626 0 78.1678 13.2535 1036 164.798 787.398 512.196
1627 0 78.4167 13.2115 1036 158.766 788.953 510.458
1628 0 83.2251 13.2172 1100 164.141 788.718 508.106
1629 0 87.2561 12.9962 1134 159.758 787.996 506.574
1630 1 43.08 12.3955 534 154.865 789.199 527.191
1631 0 45.1242 12.3216 556 156.897 789.21 526.34
1632 0 47.1529 12.6397 596 163.158 790.767 526.096
1633 0 47.0926 12.9744 611 157.203 787.822 525.3
1634 0 49.1183 12.928 635 156.378 789.208 524.641
1635 0 52.145 13.0405 680 156.56 789.779 522.744
1636 0 53.1699 13.1842 701 152.66 789.405 521.034
1637 0 55.4338 12.8261 711 146.615 790.075 519.982
1638 0 58.1306 13.3665 777 154.835 790.135 516.539
1639 0 57.3864 13.6095 781 152.575 789.04 516.602
1640 0 60.2737 13.2894 801 160.893 787.296 515.905
1641 0 63.3926 13.2192 838 154.585 788.871 514.222
1642 0 64.65 13.2869 859 158.53 787.338 514.179
1643 0 66.3711 13.5902 902 153.817 788.268 512.83
1644 0 68.5251 13.5133 926 147.623 789.158 511.335
1645 0 69.4634 13.849 962 157.146 790.332 510.502
1646 0 73.532 13.5723 998 162.186 789.538 509.662
1647 0 74.7515 13.7924 1031 162.85 788.138 508.407
1648 0 77.6681 13.5319 1051 167.311 787.352 507.814
1649 0 79.5213 14.1346 1124 166.577 788.567 506.041
1650 0 83.3918 14.1261 1178 161.712 788.175 504.846
1651 0 87.3503 14.3903 1257 160.941 787.746 503.271
1652 0 91.4717 14.8898 1362 155.162 787.898 500.195
1653 0 91.5508 14.1233 1293 167.483 788.655 500.656
1654 0 96.5685 13.8555 1338 165.288 789.889 498.919
1655 0 99.8802 13.8266 1381 162.118 787.08 496.885
1656 0 101.802 13.8406 1409 162.258 788.951 495.752
1657 1 59.5626 12.4239 740 164.369 787.719 517.903
1658 0 60.5012 12.8097 775 157.17 788.641 516.8
1659 0 62.4333 13.1821 823 160.631 789.171 515.53
1660 0 64.4995 12.9923 838 162.544 790.029 514.247
1661 0 66.5564 13.312 886 160.181 789.593 513.015
1662 0 69.6065 13.2746 924 157.47 789.134 511.957
1663 0 71.6455 13.2458 949 158.608 789.09 510.576
1664 0 73.7867 13.2273 976 162.499 790.046 509.464
1665 0 74.75 13.4849 1008 159.95 790.149 508.802
1666 0 78.4865 13.2125 1037 162.641 788.908 507.851
1667 0 80.4954 13.5784 1093 158.938 788.916 506.679
1668 0 84.5562 13.3521 1129 163.866 789.215 505.386
1669 0 86.4475 13.754 1189 161.364 787.654 503.807
1670 0 89.6061 13.6821 1226 147.156 788.778 502.08
1671 0 92.5858 13.7278 1271 157.633 788.125 500.151
1672 0 93.6353 13.7128 1284 160.548 789.299 499.555
1673 0 99.5944 13.5751 1352 164.03 788.737 497.917
1674 0 101.72 14.0091 1425 159.232 788.709 496.549
1675 0 105.552 13.7467 1451 168.296 788.059 494.303
1676 0 109.435 13.9992 1532 164.993 788.484 492.7
1677 0 112.435 13.8125 1553 167.588 788.69 490.478
1678 0 117.549 13.8751 1631 159.752 788.249 488.948
1679 0 120.459 13.598 1638 165.802 788.226 487.839
1680 1 61.3276 12.2131 749 163.331 789.097 516.706
1681 0 65.4584 12.4354 814 157.891 790.412 515.017
1682 0 67.3454 12.4433 838 151.374 788.58 513.93
1683 0 68.4732 13.173 902 146.69 788.984 512.407
1684 0 70.2859 13.0752 919 155.674 788.546 512.135
1685 0 73.389 13.3126 977 159.508 788.151 511.178
1686 0 75.4883 12.9027 974 162.285 790.633 510.557
1687 0 77.2254 13.0527 1008 157.909 789.859 509.562
1688 0 79.2552 13.4755 1068 156.847 788.908 507.76
1689 0 84.145 13.3104 1120 154.686 788.528 506.87
1690 0 84.1649 13.7468 1157 157.226 788.765 505.555
1691 0 89.0944 13.4689 1200 159.651 787.922 504.723
1692 0 91.1168 13.5211 1232 160.053 789.067 502.654
1693 0 95.1803 13.6268 1297 164.728 789.522 501.214
1694 0 97.1406 13.5783 1319 155.368 789.149 500.369
1695 0 103.158 13.426 1385 164.222 787.31 498.721
1696 0 104.162 13.5942 1416 164.386 786.946 496.828
1697 0 109.351 13.2966 1454 168.685 787.542 494.37
1698 0 112.459 13.1159 1475 164.212 787.782 492.684
1699 1 59.327 11.7821 699 165.81 789.415 519.275
1700 0 60.215 12.472 751 162.932 788.172 517.908
1701 0 63.1768 12.4888 789 159.445 787.427 517.582
1702 0 65.0454 12.5143 814 157.493 787.033 516.694
1703 0 69.1537 12.4795 863 163.874 788.362 514.459
1704 0 70.0323 12.737 892 155.034 788.748 513.497
1705 0 72.0978 12.7882 922 168.849 788.578 512.616
1706 0 74.2197 12.8941 957 166.004 788.294 511.534
1707 0 78.1312 12.6454 988 163.581 788.004 510.275
1708 0 79.2017 12.828 1016 163.166 787.012 507.951
1709 0 82.1803 12.9228 1062 171.53 788.044 506.676
1710 0 87.1349 12.6241 1100 167.444 786.125 504.725
1711 0 88.2125 12.9233 1140 161.699 786.916 502.671
1712 0 91.2637 13.072 1193 168.849 787.37 501.313
1713 0 94.1834 13.3145 1254 159.342 786.457 500.166
1714 0 100.204 12.9735 1300 156.502 787.503 498.165
1715 1 53.3111 11.0859 591 155.2 787.051 521.895
1716 0 54.3046 11.5828 629 149.342 788.297 520.483
1717 0 56.1445 11.7198 658 152.502 786.552 520.068
1718 0 58.2205 11.5423 672 148.385 786.192 519.344
1719 0 60.1663 11.6012 698 153.845 785.979 518.486
1720 0 62.1454 12.0202 747 157.463 785.434 517.157
1721 0 63.1495 12.1299 766 150.436 787.02 516.949
1722 0 65.1325 12.1138 789 152.144 785.729 515.906
1723 0 65.1708 12.2754 800 151.672 786.498 514.825
1724 0 68.1916 12.4649 850 156.705 787.938 514.552
1725 0 70.2029 12.3214 865 153.647 787.237 513.192
1726 0 72.1907 12.3977 895 156.125 787.977 512.23
1727 0 74.0801 12.7295 943 152.804 787.045 510.425
1728 0 78.1482 12.4891 976 160.366 788.059 509.426
1729 0 78.1482 12.4891 976 162.666 789.059 509.426
1730 0 82.2113 12.5895 1035 156.036 787.645 507.045
1731 0 85.2253 12.6723 1080 158.146 788.152 506.325
1732 0 89.3715 12.6439 1130 151.082 787.737 504.081
1733 0 93.1546 12.5276 1167 161.97 787.155 502.574
1734 1 50.1589 10.4069 522 152.517 788.013 524.83
1735 0 51.133 10.7563 550 147.438 786.953 524.096
1736 0 51.081 11.2958 577 147.302 785.52 523.537
1737 0 53.0746 11.7194 622 144.637 786.982 522.278
1738 0 53.1561 11.9271 634 145.785 785.904 521.522
1739 0 55.1064 12.122 668 146.972 787.058 521.103
1740 0 56.0878 12.1417 681 142.298 787.076 519.858
1741 0 59.118 11.8746 702 144.124 786.497 519.543
1742 0 60.0795 12.1173 728 142.22 786.372 518.911
1743 0 62.0831 11.9839 744 147.671 787.742 517.965
1744 0 64.1629 12.3436 792 145.611 787.657 517.539
1745 0 66.1046 12.6315 835 145.068 788.328 516.008
1746 0 67.0874 12.4912 838 146.027 789.401 514.919
1747 0 69.083 12.4343 859 145.257 788.186 514.598
1748 0 69.1619 13.1286 908 148.004 786.88 513.508
1749 0 74.1095 12.6704 939 151.185 787.699 511.735
1750 0 76.1623 12.7754 973 151.161 786.555 510.901
1751 0 79.304 12.7358 1010 148.496 788.625 509.358
1752 0 80.2909 13.1148 1053 150.95 786.833 508.405
1753 0 84.2654 12.7336 1073 156.926 788.564 506.907
1754 1 44.1114 10.7682 475 150.434 786.337 527.036
1755 0 48.0669 11.0679 532 154.6 784.361 525.496
1756 0 50.0317 11.7126 586 150.681 787.872 524.887
1757 0 50.1403 11.8866 596 155.735 786.483 525.052
1758 0 51.1705 11.8623 607 154.099 785.496 524.433
1759 0 51.1795 12.8372 657 159.589 787.17 523.566
1760 0 54.2214 12.3752 671 153.846 788.705 523.298
1761 0 56.2016 12.5263 704 159.641 785.385 522.401
1762 0 58.235 12.2779 715 159.077 787.701 521.439
1763 0 59.3027 12.5121 742 152.019 786.074 520.133
1764 0 60.3558 12.7411 769 159.437 787.208 520.096
1765 0 62.3713 12.6982 792 154.069 787.347 519.278
1766 0 65.1663 12.3684 806 161.479 787.728 517.794
1767 0 66.1055 12.6918 839 154.179 786.962 516.133
1768 0 70.1484 12.445 873 162.505 785.721 515.373
1769 0 72.0505 12.5606 905 161.475 788.606 513.961
1770 0 76.1812 12.6147 961 162.989 787.835 511.965
1771 0 78.2962 12.491 978 161.328 787.189 510.611
1772 0 81.063 12.3731 1003 161.649 788.588 509.241
1773 0 84.1062 12.6745 1066 153.933 786.861 507.604
1774 1 45.0951 10.8659 490 160.171 788.988 527.92
1775 0 45.0606 11.54 520 156.59 786.083 527.263
1776 0 46.1268 12.2272 564 157.902 788.105 525.569
1777 0 46.1047 12.0378 555 152.759 789.267 525.423
1778 0 50.1535 11.724 588 155.046 787.813 524.325
1779 0 52.2103 11.7601 614 153.143 787.073 523.831
1780 0 53.1332 11.65 619 154.086 788.435 522.968
1781 0 54.1225 12.0467 652 144.879 787.163 521.876
1782 0 55.113 11.7214 646 146.44 786.023 521.241
1783 0 57.0878 12.3319 704 146.918 786.788 519.472
1784 0 60.159 12.0182 723 151.017 787.82 518.842
1785 0 60.159 12.0182 723 158.898 788.82 518.842
1786 0 64.1087 12.0108 770 142.201 787.61 516.829
1787 0 66.1768 12.1644 805 152.791 789.991 516.16
1788 0 69.2514 12.0575 835 150.193 786.971 515.056
1789 0 69.2196 12.6843 878 153.384 787.252 513.968
1790 0 71.2718 12.8522 916 153.32 788.513 512.668
1791 0 75.2919 12.2457 922 150.062 788.294 511.021
1792 0 78.4044 12.461 977 83.7625 788.765 509.411
1793 0 80.4916 12.5976 1014 151.694 788.352 506.703
1794 0 83.494 12.456 1040 158.239 788.118 504.073
1795 1 45.6653 11.2777 515 162.569 788.031 522.637
1796 0 46.1013 11.5398 532 156.229 789.568 522.071
1797 0 49.166 11.6137 571 155.814 788.963 523.55
1798 0 50.1737 11.3207 568 161.708 789.266 524.396
1799 0 50.1244 12.0899 606 153.639 787.744 524.023
1800 0 55.1636 11.6562 643 158.331 788.465 523.033
1801 0 55.1196 12.3005 678 159.292 788.027 521.931
1802 0 57.1608 12.1237 693 158.029 788.133 521.85
1803 0 59.2941 12.1597 721 164.738 788.211 520.589
1804 0 59.297 12.8168 760 161.133 789.272 519.512
1805 0 63.2689 12.439 787 167.438 788.395 518.779
1806 0 64.4278 12.6498 815 162.2 787.182 516.519
1807 0 65.4452 12.6671 829 163.158 786.515 516.312
1808 0 67.3458 12.369 833 162.645 787.543 515.72
1809 0 69.2368 12.7822 885 161.478 789.095 514.703
1810 0 71.3456 12.6707 904 169.539 786.403 514.097
1811 0 72.592 12.894 936 161.186 788.035 513.292
1812 0 73.4586 13.0277 957 157.592 787.699 512.531
1813 0 77.3564 12.4101 960 156.07 788.46 511.216
1814 0 78.4938 12.6125 990 154.516 786.981 510.877
1815 0 83.3912 12.5553 1047 155.059 787.201 508.606
1816 0 83.6449 12.3737 1035 155.98 788.67 507.591
1817 0 85.5294 12.5571 1074 148.62 788.478 506.568
1818 0 90.3374 12.409 1121 143.178 788.955 504.466
1819 0 92.5795 12.735 1179 153.925 788.473 503.66
1820 0 97.4356 12.3466 1203 152.551 788.815 502.705
1821 0 99.4855 12.625 1256 157.478 789.98 499.596
1822 1 57.3503 11.1769 641 158.312 789.256 521.41
1823 0 58.1684 12.0512 701 160.096 790.225 520.466
1824 0 59.1388 12.3946 733 154.449 789.153 519.626
1825 0 61.1904 12.5183 766 149.308 789.383 516.766
1826 0 63.2382 12.4134 785 157.512 787.977 516.688
1827 0 64.253 12.9021 829 154.455 789.118 515.942
1828 0 68.2314 12.6774 865 154.92 789.162 514.681
1829 0 68.2245 13.1478 897 154.535 788.59 507.545
1830 0 73.1152 12.9658 948 149.846 789.352 507.659
1831 0 74.0914 12.957 960 152.132 789.114 512.191
1832 0 75.0619 13.1358 986 149.706 788.217 511.598
1833 0 79.1057 13.147 1040 145.742 787.774 510.107
1834 0 80.113 13.3561 1070 147.48 789.654 509.035
1835 0 84.1611 13.189 1110 158.586 789.101 507.479
1836 0 86.2063 13.4213 1157 161.026 789.048 505.959
1837 0 90.1779 13.4401 1212 152.737 790.035 504.113
1838 0 93.3273 13.1044 1223 164.011 790.065 502.882
1839 0 95.2185 13.3377 1270 163.804 789.319 501.453
1840 1 49.118 11.4418 562 159.966 789.297 524.902
1841 0 50.0791 12.3005 616 167.006 789.167 523.886
1842 0 52.1709 13.0149 679 160.247 789.532 522.829
1843 0 53.0687 12.9455 687 165.399 789.635 523.153
1844 0 55.0255 13.2666 730 163.923 788.374 521.566
1845 0 57.1219 13.0248 744 170.832 788.891 519.731
1846 0 58.1307 12.9536 753 164.28 789.708 520.894
1847 0 60.1571 13.1655 792 168.869 790.162 520.061
1848 0 61.1452 13.9341 852 158.673 790.847 518.805
1849 0 66.1251 14.4272 954 160.065 790.082 516.542
1850 0 66.0786 13.7866 911 163.516 789.619 516.615
1851 0 68.0504 13.5194 920 166.036 788.261 515.891
1852 0 70.1182 13.9764 980 167.586 789.506 514.812
1853 0 73.1136 14.1287 1033 167.445 788.787 513.084
1854 0 74.1079 13.7097 1016 167.298 788.967 511.594
1855 0 77.0829 13.9201 1073 167.275 789.52 509.875
1856 0 80.1249 14.1279 1132 166.087 790.219 508.538
1857 0 83.109 14.1501 1176 167.47 790.119 507.702
1858 0 84.1479 14.3081 1204 172.32 790.975 506.293
1859 0 87.1323 14.1738 1235 168.747 789.862 504.954
1860 0 89.2723 14.3494 1281 156.039 790.078 503.048
1861 0 95.0611 14.0752 1338 170.26 791.8 502.019
1862 0 98.0939 14.1905 1392 162.167 789.915 500.125
1863 0 102.086 14.0862 1438 167.437 790.382 497.903
1864 0 105.095 14.0635 1478 166.517 790.983 497.368
1865 0 107.09 14.4458 1547 165.69 789.109 495.057
1866 0 112.206 14.1259 1585 163.103 789.171 493.717
1867 1 58.1183 13.1628 765 164.675 788.573 518.933
1868 0 61.1232 13.3992 819 166.792 788.828 518.299
1869 0 64.1271 13.2081 847 161.399 789.682 516.756
1870 0 65.025 13.441 874 155.43 789.667 516.969
1871 0 67.1317 13.615 914 161.804 789.082 515.14
1872 0 70.0766 13.4852 945 165.495 789.515 514.188
1873 0 73.0763 13.2601 969 169.524 788.412 513.271
1874 0 74.0518 13.4635 997 161.256 789.755 512.252
1875 0 78.0363 13.4937 1053 165.292 789.759 510.264
1876 0 78.1251 13.6576 1067 170.485 789.157 509.132
1877 0 82.0541 13.3814 1098 162.548 790.087 507.131
1878 0 87.1457 13.1274 1144 162.914 790.016 506.272
1879 0 90.1017 13.2406 1193 158.664 789.305 504.808
1880 0 93.1846 13.2962 1239 154.759 790.407 502.994
1881 0 97.1203 13.4267 1304 159.261 790.71 501.404
1882 0 97.2352 13.9559 1357 154.222 790.197 499.987
1883 0 102.148 13.4609 1375 148.172 788.986 497.958
1884 0 106.211 13.2849 1411 157.053 790.229 496.464
1885 0 108.206 13.2433 1433 158.441 791.078 495.518
1886 1 57.0904 11.8584 677 155.482 790.114 520.158
1887 0 59.103 11.6745 690 155.762 790.448 520.086
1888 0 62.1167 12.4604 774 148.819 791.202 518.795
1889 0 63.1298 12.6565 799 54.7259 788.643 517.651
1890 0 66.1434 13.1986 873 158.525 790.687 515.89
1891 0 68.1029 13.0538 889 154.76 790.238 515.137
1892 0 69.1066 13.197 912 158.669 790.792 515.314
1893 0 73.156 12.9176 945 157.094 789.25 513.019
1894 0 74.0717 13.5679 1005 161.081 789.756 511.56
1895 0 79.1357 13.6727 1082 160.959 788.75 510.653
1896 0 82.084 13.3522 1096 166.473 788.14 508.813
1897 0 84.05 13.6347 1146 162.523 788.983 507.599
1898 0 87.194 13.4872 1176 169.244 788.165 505.493
1899 0 90.2175 13.4785 1216 163.759 788.864 504.493
1900 0 93.1747 13.3083 1240 162.165 787.973 502.558
1901 0 97.1279 13.2609 1288 162.165 788.367 500.886
1902 0 100.163 13.1585 1318 156.448 788.225 499.114
1903 0 104.098 13.4105 1396 151.271 788.625 497.381
1904 1 56.0616 11.2555 631 156.821 789.93 521.965
1905 0 57.0585 12.2856 701 156.522 788.615 520.288
1906 0 59.0863 12.7271 752 159.328 789.354 518.771
1907 0 59.094 12.7932 756 154.45 788.31 518.255
1908 0 62.2073 12.7638 794 151.257 789.466 516.892
1909 0 66.143 12.4125 821 151.189 790.143 516.356
1910 0 68.1347 12.7542 869 149.517 788.235 514.211
1911 0 71.1491 12.4808 888 154.914 789.233 513.806
1912 0 72.0811 13.0686 942 148.747 788.283 512.952
1913 0 73.1521 13.2327 968 151.708 789.439 511.908
1914 0 76.1427 13.2383 1008 150.834 789.176 510.277
1915 0 78.1029 13.0085 1016 152.889 788.862 509.561
1916 0 81.1573 13.3321 1082 152.566 789.815 508.068
1917 0 84.127 13.1706 1108 157.028 789.355 506.171
1918 0 85.2602 13.6523 1164 152.599 789.891 505.335
1919 0 89.1761 13.1425 1172 154.098 789.613 503.069
1920 1 46.081 10.6334 490 153.608 791.88 526.759
1921 0 46.0359 11.4042 525 156.192 788.324 525.373
1922 0 48.0491 12.4248 597 147.01 786.702 524.727
1923 0 51.1712 11.8817 608 143.97 789.98 523.914
1924 0 53.1209 11.6903 621 146.762 790.161 523.818
1925 0 54.0958 12.1821 659 155.622 788.094 522.921
1926 0 54.2711 12.6403 686 152.895 787.137 521.904
1927 0 56.122 12.6867 712 149.982 788.822 520.683
1928 0 57.0758 12.4921 713 153.837 789.09 520.557
1929 0 59.1362 12.6488 748 152.267 787.409 519.557
1930 0 62.1223 13.232 822 155.411 790.165 518.262
1931 0 63.1294 13.4802 851 158.627 790.248 517.206
1932 0 65.1597 13.0295 849 157.555 789.574 516.425
1933 0 68.1176 13.1684 897 157.517 789.842 515.459
1934 0 70.1839 13.3221 935 157.6 788.993 514.776
1935 0 72.1241 13.6016 981 164.367 788.848 513.817
1936 0 76.1183 13.1112 998 163.681 790.118 512.546
1937 0 76.1231 13.3731 1018 163.229 790.993 511.586
1938 0 81.2421 13.2444 1076 162.574 789.226 510.678
1939 0 82.1281 13.3694 1098 160.525 788.648 509.32
1940 0 85.1196 13.3107 1133 163.542 789.214 507.639
1941 0 87.2363 13.4921 1177 158.629 789.343 506.501
1942 0 92.3367 13.4508 1242 164.498 791.824 504.417
1943 0 94.1748 13.7404 1294 167.763 789.621 503.308
1944 1 49.1113 12.7669 627 164.396 789.124 523.799
1945 0 49.0608 13.3508 655 162.838 789.582 524.415
1946 0 53.1136 12.9345 687 159.226 789.227 523.426
1947 0 54.0311 13.5292 731 163.858 788.91 522.331
1948 0 57.0431 13.4635 768 160.336 790 520.852
1949 0 59.0889 13.522 799 169.357 788.544 519.884
1950 0 60.0283 13.3437 801 166.094 790.538 519.38
1951 0 62.0253 13.7202 851 168.624 789.764 518.409
1952 0 65.0636 13.7097 892 165.096 789.667 517.355
1953 0 67.0505 13.4675 903 166.886 789.34 517.296
1954 0 69.0832 13.9687 965 167.168 789.147 515.47
1955 0 72.0475 13.8103 995 165.649 789.839 513.551
1956 0 75.0905 13.6502 1025 171.467 790.374 512.868
1957 0 77.0428 13.7845 1062 168.544 788.437 511.94
1958 0 79.0697 13.76 1088 167.932 789.421 510.263
1959 1 40.0417 12.2373 490 171.371 789.565 529.294
1960 0 43.0171 12.2974 529 169.287 789.367 528.631
1961 0 43.099 13.0397 562 168.306 789.835 527.728
1962 0 45.1062 12.6812 572 163.93 790.164 527.575
1963 0 45.1183 13.3427 602 165.478 789.836 526.673
1964 0 48.1781 13.0765 630 164.224 788.722 526.241
1965 0 48.0933 13.6402 656 158.607 789.973 525.259
1966 0 50.0904 13.5156 677 166.7 789.647 525.16
1967 0 52.0779 13.2302 689 160.109 788.984 524.495
1968 0 54.0529 13.7088 741 154.626 789.61 523.081
1969 0 55.1125 13.9533 769 159.445 789.48 522.1
1970 0 57.2194 13.9638 799 167.999 790.804 520.894
1971 0 58.0134 13.8934 806 159.171 789.826 520.091
1972 0 59.1591 14.03 830 168.865 789.613 519.842
1973 0 61.0649 14.2799 872 160.529 791 517.898
1974 0 63.0613 14.4938 914 168.985 789.83 517.138
1975 0 65.1369 14.3697 936 163.795 790.796 516.026
1976 0 67.1162 14.3631 964 166.932 789.678 515.532
1977 0 69.179 14.2673 987 167.441 790.71 514.842
1978 0 71.0822 14.4481 1027 160.167 790.057 513.772
1979 0 75.0473 14.0711 1056 172.52 790.009 511.875
1980 0 77.185 14.1608 1093 168.074 789.36 511.065
1981 0 79.0943 14.489 1146 168.22 790.579 509.534
1982 0 81.1665 14.7475 1197 170.233 790.024 508.358
1983 0 85.1356 14.0129 1193 165.24 791.214 507.508
1984 0 86.1295 14.4201 1242 167.813 789.632 506.162
1985 0 89.2195 14.526 1296 171.77 790.565 505.208
1986 0 94.2174 14.1906 1337 168.411 790.928 502.441
1987 1 46.1508 13.3476 616 164.135 789.836 525.804
1988 0 48.095 13.7852 663 172.214 789.496 525.318
1989 0 50.0676 13.302 666 165.815 789.763 524.339
1990 0 53.1021 13.3705 710 175.087 787.238 523.59
1991 0 55.0384 13.6995 754 169.752 789.272 522.866
1992 0 55.0823 13.9609 769 171.8 789.525 521.879
1993 0 58.0606 13.4515 781 173.622 788.325 520.868
1994 0 60.0515 13.5217 812 173.602 788.393 519.796
1995 0 62.1055 13.6381 847 172.197 789.312 518.902
1996 0 64.1154 14.006 898 174.051 789.943 517.321
1997 0 67.0745 13.895 932 176.258 789.43 516.106
1998 0 68.0568 14.0618 957 170.561 789.385 514.997
1999 0 70.0749 14.3275 1004 177.948 788.754 514.132
2000 0 74.1856 13.8167 1025 174.052 789.107 512.989
2001 0 77.2673 13.5762 1049 174.658 790.264 511.338
2002 0 81.1009 13.514 1096 173.763 789.237 509.314
2003 0 83.155 13.9859 1163 173.101 790.656 507.574
2004 1 42.0957 12.6854 534 174.586 790.848 528.062
2005 0 43.0379 13.1047 564 176.895 790.934 527.363
2006 0 46.1198 12.7277 587 172.675 789.712 525.928
2007 0 47.1041 13.2048 622 170.849 789.899 525.842
2008 0 49.1499 13.0621 642 174.452 789.312 525.336
2009 0 50.1288 12.9068 647 172.539 789.913 525.048
2010 0 52.0658 12.8683 670 170.584 789.827 524.025
2011 0 52.07 13.5779 707 170.694 790.375 522.95
2012 0 55.0897 13.2148 728 178.538 789.857 522.335
2013 0 57.1241 13.567 775 163.257 788.788 520.573
2014 0 58.157 13.2916 773 170.435 788.944 521.091
2015 0 60.0971 13.6612 821 179.149 789.333 519.633
2016 0 63.1589 13.3631 844 178.417 789.21 518.898
2017 0 64.2277 13.7013 880 173.04 789.478 517.761
2018 0 66.0842 13.4979 892 173.997 789.668 517.566
2019 0 69.1179 13.4842 932 175.692 790.477 515.985
2020 0 72.0726 13.3754 964 175.719 789.722 514.738
2021 0 74.1015 13.4275 995 175.43 791.171 514.749
2022 0 76.041 13.3218 1013 178.318 789.622 512.979
2023 0 78.103 13.7639 1075 168.314 789.324 511.742
2024 0 80.0663 13.7761 1103 174.614 790.141 510.52
2025 0 84.1051 13.6972 1152 173.58 788.787 508.58
2026 0 87.0829 13.6422 1188 175.209 790.162 507.514
2027 0 89.1272 13.4527 1199 175.702 790.51 506.396
2028 1 46.0176 12.3648 569 167.286 790.439 527
2029 0 45.1599 12.954 585 175.55 789.754 526.817
2030 0 48.0871 12.4982 601 170.226 790.15 526.25
2031 0 48.0308 13.1582 632 169.377 790.69 525.372
2032 0 50.046 12.9481 648 167.569 791.151 525.349
2033 0 52.0466 12.9691 675 175.938 790.88 523.92
2034 0 53.035 13.2365 702 169.736 791.05 522.745
2035 0 55.0325 13.0105 716 175.419 791.198 522.324
2036 0 56.0632 13.3599 749 170.566 790.227 521.491
2037 0 58.1121 13.3707 777 169.779 790.035 520.614
2038 0 58.1464 13.5864 790 168.082 790.751 519.882
2039 0 62.0406 13.7007 850 170.159 792.031 518.412
2040 0 65.1103 13.2698 864 171.971 792.119 517.719
2041 0 67.0687 13.434 901 168.342 791.476 516.582
2042 0 69.0645 13.5236 934 170.111 791.938 515.196
2043 0 70.0568 13.9315 976 174.481 793.019 513.547
2044 0 75.1593 13.5978 1022 164.729 791.991 512.719
2045 0 75.0588 13.7359 1031 157.567 791.094 511.507
2046 0 79.0427 13.5496 1071 165.192 791.025 509.945
2047 0 82.0523 13.4305 1102 162.716 789.858 508.453
2048 0 86.0369 13.5988 1170 166.226 791.814 507.031
2049 0 88.1081 13.3245 1174 161.589 790.959 505.31
2050 1 47.0255 11.8872 559 159.37 791.102 525.946
2051 0 49.0274 12.0749 592 165.133 791.216 525.115
2052 0 50.0152 12.8561 643 159.439 790.392 524.423
2053 0 52.0527 12.6795 660 159.403 791.502 523.498
2054 0 52.0829 13.2481 690 156.541 791.674 522.596
2055 0 55.1944 12.8455 709 159.989 791.213 521.508
2056 0 57.1212 12.8674 735 154.19 791.607 520.646
2057 0 59.1174 12.6697 749 156.872 789.789 519.83
2058 0 60.1361 13.1868 793 165.274 790.04 519.174
2059 0 61.1591 13.7837 843 158.647 790.095 518.184
2060 0 63.2221 13.5396 856 162.229 789.09 517.546
2061 0 67.2412 13.3252 896 160.058 790.705 515.592
2062 0 69.1642 13.3017 920 160.526 791.282 514.854
2063 0 71.3115 13.6584 974 158.068 790.856 514.078
2064 0 74.2224 13.5673 1007 165.425 790.442 512.366
2065 0 76.1974 13.6225 1038 164.998 790.518 511.582
2066 0 79.2308 13.5427 1073 162.045 789.284 510.017
2067 0 81.3136 13.8107 1123 159.839 788.487 508.242
2068 0 83.2118 13.712 1141 163.996 791.064 506.964
2069 0 88.2328 13.4757 1189 161.652 790.41 505.364
2070 0 91.1431 13.7257 1251 162.119 791.59 503.551
2071 0 94.2065 13.5766 1279 163.24 790.984 501.774
2072 1 46.0354 12.447 573 156.949 791.407 526.119
2073 0 48.045 12.5716 604 156.417 789.132 525.238
2074 0 50.0889 12.6176 632 164.948 790.778 524.652
2075 0 51.0333 12.9915 663 158.783 788.413 523.968
2076 0 52.105 13.2233 689 159.639 789.733 523.511
2077 0 53.0303 13.332 707 160.317 789.815 522.461
2078 0 53.1044 13.6523 725 160.228 790.112 522.051
2079 0 55.114 13.7352 757 158.987 790.462 520.962
2080 0 59.1197 13.3627 790 159.684 790.975 520.334
2081 0 61.0728 13.574 829 161.326 792.752 519.847
2082 0 62.0803 13.402 832 169.825 791.865 518.901
2083 0 63.076 13.6502 861 164.993 791.836 517.512
2084 0 66.0858 13.5884 898 168.787 789.692 516.659
2085 0 68.1144 13.7416 936 166.075 790.573 515.92
2086 0 71.1266 13.4408 956 167.785 791.154 514.629
2087 0 73.0999 13.5705 992 170.787 791.393 513.709
2088 0 73.0449 13.9366 1018 165.52 792.407 512.767
2089 0 77.1097 13.7466 1060 166.901 789.991 511.258
2090 0 80.1874 13.6181 1092 166.587 790.628 509.63
2091 0 83.0834 13.3841 1112 167.764 791.783 509.029
2092 0 85.1172 13.4638 1146 163.366 792.456 507.341
2093 1 41.075 12.1485 499 158.565 789.782 528.826
2094 0 42.1612 13.0689 551 164.461 790.617 527.802
2095 0 46.0853 12.7373 587 159.71 792.521 526.93
2096 0 47.1023 12.8019 603 155.426 792.204 526.333
2097 0 49.0596 13.0454 640 160.475 791.652 525.623
2098 0 50.0609 13.1839 660 162.745 792.189 524.905
2099 0 51.0839 13.1548 672 161.795 791.196 523.955
2100 0 54.1155 13.0277 705 162.743 790.918 523.149
2101 0 55.0408 13.3356 734 161.905 792.58 522.707
2102 0 56.1396 13.3061 747 163.518 791.142 522.04
2103 0 57.0834 13.8569 791 167.492 792.158 520.913
2104 0 59.0159 13.6404 805 163.652 791.816 519.893
2105 0 61.1663 13.5859 831 163.787 790.457 519.32
2106 0 63.137 13.7637 869 168.299 791.107 518.09
2107 0 64.1447 13.9996 898 164.059 790.752 517.258
2108 0 65.1813 14.2832 931 162.643 791.456 516.042
2109 0 70.346 14.0164 986 166.485 791.147 514.256
2110 0 71.1844 14.048 1000 163.877 792.311 512.88
2111 0 75.278 13.6826 1030 160.533 791.909 511.639
2112 0 79.307 13.7567 1091 166.401 792.995 510.12
2113 0 81.1561 13.8129 1121 170.332 791.137 508.583
2114 0 82.3836 13.9712 1151 171.894 791.283 507.513
2115 0 88.2898 13.7502 1214 168.886 791.942 505.749
2116 0 90.2333 13.8419 1249 168.932 791.345 504.104
2117 1 48.1373 12.8383 618 169.518 792.4 525.021
2118 0 50.1015 13.0335 653 166.931 790.3 524.692
2119 0 50.0417 13.5287 677 172.387 791.567 524.152
2120 0 52.1031 13.5884 708 169.968 792.181 522.6
2121 0 52.0388 13.759 716 159.284 791.098 522.098
2122 0 56.0616 13.5387 759 168.138 793.298 520.787
2123 0 57.1642 13.7499 786 162.033 792.076 520.322
2124 0 59.1433 13.4927 798 173.109 791.409 519.533
2125 0 61.1067 13.6646 835 166.065 790.478 518.697
2126 0 63.0928 13.9636 881 167.478 790.385 517.27
2127 0 65.2394 14.1019 920 164.698 790.475 516.017
2128 0 66.11 13.9011 919 170.023 792.749 515.672
2129 0 69.1256 13.9312 963 168.897 791.051 514.139
2130 0 72.1185 13.9493 1006 160.049 792.344 512.076
2131 0 75.1264 13.9498 1048 171.793 792.209 511.359
2132 0 77.0751 14.3107 1103 168.002 790.988 510.296
2133 0 81.1086 14.0799 1142 170.398 791.377 509.091
2134 0 84.2036 14.0136 1180 164.461 791.608 507.696
2135 0 86.2068 13.7924 1189 172.128 792.255 506.334
2136 1 41.0564 12.5437 515 171.707 791.732 527.983
2137 0 44.0907 13.3361 588 157.804 790.335 526.017
2138 0 46.0378 12.9025 594 163.865 790.761 525.751
2139 0 47.0621 13.0254 613 168.002 791.131 525.299
2140 0 49.065 13.1255 644 165.958 790.517 524.354
2141 0 50.0707 13.0216 652 167.425 791.264 523.98
2142 0 50.0544 13.3455 668 164.783 791.641 523.973
2143 0 53.0807 13.1875 700 161.037 790.526 522.473
2144 0 53.0562 13.4574 714 156.592 790.242 522.148
2145 0 56.0985 13.5298 759 158.83 790.754 521.397
2146 0 58.1045 13.0971 761 161.078 790.025 521.06
2147 0 59.0394 13.347 788 165.132 790.027 519.798
2148 0 60.0887 13.6465 820 162.685 790.887 518.746
2149 0 63.0483 13.2914 838 163.817 789.654 517.895
2150 0 63.0437 13.7206 865 162.297 790.154 516.444
2151 0 67.0789 13.7748 924 153.897 790.552 515.498
2152 0 70.1235 13.2908 932 162.435 789.635 514.395
2153 0 73.0938 13.5442 990 160.907 789.98 513.118
2154 0 74.0793 13.2561 982 157.767 792.014 512.161
2155 0 78.1127 13.6086 1063 158.83 792.159 510.454
2156 0 78.125 13.4912 1054 167.411 791.604 510.422
2157 0 83.1096 13.2476 1101 164.624 791.712 508.334
2158 0 86.1573 13.2664 1143 159.146 791.213 506.818
2159 0 89.0923 13.7386 1224 168.133 791.407 505.413
2160 0 93.2237 13.2584 1236 162.739 790.938 503.164
2161 1 48.12 12.3234 593 158.035 791.482 525.126
2162 0 50.0248 12.8536 643 160.936 792.361 524.457
2163 0 51.0253 13.0523 666 162.224 791.869 523.665
2164 0 53.0609 13.0416 692 163.691 792.445 522.574
2165 0 56.0532 13.0234 730 150.108 790.577 521.47
2166 0 57.0512 13.1636 751 154.916 790.788 521.004
2167 0 58.1916 13.4899 785 163.349 791.171 519.887
2168 0 60.1426 13.3516 803 162.893 792.466 518.938
2169 0 62.1666 13.3995 833 162.414 792.073 518.048
2170 0 65.1287 13.6345 888 161.367 791.437 516.911
2171 0 69.1575 13.2162 914 161.944 790.679 515.49
2172 0 72.1222 13.1998 952 160.886 790.007 513.928
2173 0 73.2711 13.3204 976 155.236 792.243 512.683
2174 0 77.1411 13.2614 1023 162.249 792.568 510.903
2175 0 79.2539 13.5261 1072 164.217 792.034 510.367
2176 0 83.2324 13.4443 1119 167.091 792.273 508.189
2177 0 85.2592 13.629 1162 165.789 790.895 506.787
2178 0 89.1915 13.2972 1186 156.824 790.219 504.895
2179 0 95.1534 13.1577 1252 157.73 792.054 503.302
2180 1 50.0767 12.7005 636 159.572 790.508 524.192
2181 0 52.03 12.2814 639 161.387 791.499 524.072
2182 0 53.0863 12.9224 686 160.127 789.055 522.926
2183 0 55.0648 12.6033 694 160.111 789.565 522.046
2184 0 57.0154 12.8211 731 85.1231 789.967 520.907
2185 0 59.0578 12.4285 734 161.042 789.981 520.173
2186 0 60.218 13.036 785 164.662 790.814 518.854
2187 0 62.0709 13.259 823 158.373 791.095 518.056
2188 0 65.0519 13.1126 853 161.586 792.08 516.589
2189 0 65.0698 13.7084 892 159.03 789.325 515.573
2190 0 69.2507 13.054 904 163.65 788.501 514.513
2191 0 70.1052 13.1945 925 159.858 788.765 513.845
2192 0 74.1515 13.0948 971 161.645 791.378 513.022
2193 0 76.1102 13.1126 998 164.253 790.819 510.8
2194 0 78.1206 13.2103 1032 153.388 791.979 509.352
2195 0 82.1441 12.6972 1043 163.997 788.622 508.613
2196 0 84.097 13.0445 1097 160.262 790.374 507.714
2197 1 43.2636 12.1811 527 161.285 790.531 527.097
2198 0 45.1465 12.6256 570 156.604 790.796 526.249
2199 0 45.0767 12.5786 567 162.533 790.347 526.053
2200 0 48.1414 12.3386 594 156.918 792.125 525.726
2201 0 48.1455 12.8153 617 165.718 791.728 524.896
2202 0 50.161 13.2174 663 163.866 789.884 523.303
2203 0 51.0813 13.1555 672 166.582 791.585 523.271
2204 0 53.1131 13.1229 697 160.821 791.059 522.116
2205 0 55.181 13.3379 736 167.243 790.077 521.332
2206 0 57.244 13.7656 788 155.306 789.19 520.197
2207 0 57.1627 13.5928 777 165.537 791.369 520.22
2208 0 62.1139 15.2301 946 151.701 791.421 516.886
2209 0 65.1626 16.4665 1073 148.941 792.077 514.75
2210 0 68.1813 15.9134 1085 149.489 792.682 514.748
2211 0 68.3264 16.2602 1111 150.163 791.141 513.363
2212 0 69.2542 15.9557 1105 149.356 791.633 513.424
2213 0 71.3223 15.8436 1130 156.05 789.707 512.403
2214 0 75.0852 15.7022 1179 146.872 790.021 509.716
2215 0 75.2669 15.9565 1201 152.486 790.276 508.375
2216 0 76.2129 15.0762 1149 153.706 789.786 509.057
2217 0 77.2294 13.9196 1075 163.377 790.637 510.103
2218 0 80.2675 14.3271 1150 161.248 789.77 507.671
2219 0 83.2447 13.9468 1161 163.214 791.271 506.531
2220 1 42.0533 12.1512 511 165.231 789.939 526.975
2221 0 42.1081 12.6104 531 167.759 792.573 525.733
2222 0 45.0297 13.1025 590 162.653 790.103 525.154
2223 0 46.1396 13.1774 608 166.169 789.263 524.852
2224 0 47.0462 13.3698 629 165.776 789.792 524.432
2225 0 48.1116 13.7181 660 168.848 788.698 523.245
2226 0 50.0998 13.8523 694 162.094 790.424 522.653
2227 0 50.0998 13.8523 694 171.914 791.424 522.653
2228 0 53.0523 13.9862 742 162.589 788.991 521.102
2229 0 55.1027 14.0102 772 158.649 790.896 519.874
2230 0 56.0578 14.2888 801 166.821 789.971 520.32
2231 0 59.1195 14.0055 828 169.232 789.502 519.104
2232 0 60.0735 14.2825 858 165.223 789.965 518.274
2233 0 63.0646 14.0332 885 164.809 789.647 517.486
2234 0 63.1085 14.5622 919 166.975 789.723 516.723
2235 0 64.0478 14.6765 940 171.74 790.59 515.765
2236 0 67.042 14.5431 975 163.974 789.363 515.287
2237 0 69.1168 14.6998 1016 160.619 790.065 514.411
2238 0 71.1326 14.6628 1043 163.893 789.284 513.416
2239 0 72.0308 14.7992 1066 171.555 790.297 512.24
2240 0 76.1825 14.8722 1133 164.21 791.82 510.811
2241 0 78.1057 14.6212 1142 167.773 791.569 509.755
2242 0 82.2075 14.7432 1212 171.444 790.48 508.434
2243 0 83.1774 14.8718 1237 169.948 790.859 507.706
2244 0 85.1424 15.1746 1292 170.138 790.041 506.173
2245 0 87.2199 15.0195 1310 176.369 792.08 504.898
2246 0 90.1675 15.2716 1377 163.663 790.298 503.402
2247 0 93.117 15.0456 1401 170.807 791.595 501.813
2248 0 96.1863 15.0437 1447 169.705 790.328 499.831
2249 0 100.136 15.1694 1519 172.527 790.851 497.949
2250 0 104.383 14.9833 1564 168.724 789.773 496.078
2251 0 108.277 14.7585 1598 164.758 789.516 494.544
2252 1 56.0642 13.8591 777 168.32 790.102 519.811
2253 0 59.0599 14.0197 828 160.147 791.053 518.487
2254 0 60.0641 14.0184 842 172.54 790.564 518.328
2255 0 62.0575 14.1482 878 170.167 791.163 516.384
2256 0 64.0927 14.2762 915 166.037 788.941 515.611
2257 0 68.0562 13.9884 952 165.741 791.103 514.067
2258 0 71.0293 14.4729 1028 164.333 790.43 512.525
2259 0 73.039 14.2116 1038 162.558 789.314 511.422
2260 0 75.0665 14.627 1098 171.403 791.291 510.503
2261 0 79.118 14.1055 1116 170.409 791.254 509.48
2262 0 81.1086 14.2525 1156 165.702 790.689 507.653
2263 0 83.0992 14.3684 1194 172.089 790.92 506.983
2264 0 86.0782 14.4984 1248 166.031 790.732 505.255
2265 0 89.1315 14.4057 1284 161.749 790.822 503.91
2266 0 93.1645 14.5012 1351 165.156 790.363 502.092
2267 0 96.1459 14.374 1382 157.637 791.075 500.406
2268 0 96.1459 14.374 1382 175.881 792.075 500.406
2269 1 50.1261 13.5259 678 162.459 790.288 522.971
2270 0 52.1374 13.3302 695 165.242 789.203 522.237
2271 0 54.0927 13.7357 743 164.507 791.052 521.171
2272 0 56.0765 13.6956 768 164.288 791.48 519.74
2273 0 58.1856 13.8179 804 160.343 790.524 518.831
2274 0 60.1695 13.5949 818 160.202 788.561 518.049
2275 0 62.1864 14.1188 878 163.128 790.052 517.544
2276 0 65.1363 13.8786 904 167.024 791.347 516.326
2277 0 67.0926 13.936 935 170.293 790.434 515.653
2278 0 68.1951 13.96 952 169.401 789.607 514.561
2279 0 73.0924 13.7497 1005 166.557 791.932 513.13
2280 0 75.2362 13.8231 1040 164.212 790.113 511.798
2281 0 78.1329 13.7714 1076 166.329 789.562 510.443
2282 0 80.1939 14.1906 1138 157.257 789.509 508.747
2283 0 84.1846 13.9931 1178 167.329 789.868 507.82
2284 0 87.3178 13.9147 1215 155.348 792.318 506.339
2285 1 46.1262 12.8994 595 170.963 792.575 526.371
2286 0 48.2023 12.8417 619 168.365 790.318 525.378
2287 0 48.1316 13.6085 655 166.295 789.455 524.583
2288 0 49.0507 13.9244 683 165.695 790.122 524.283
2289 0 51.1247 14.1028 721 167.411 790.724 523.963
2290 0 52.1009 14.2224 741 161.455 790.652 523.262
2291 0 53.0657 14.1146 749 162.522 790.621 522.366
2292 0 57.0724 14.2451 813 161.282 790.535 521.443
2293 0 59.0663 13.815 816 171.471 790.806 520.386
2294 0 61.2761 13.8716 850 164.507 790.667 519.013
2295 0 63.2038 14.1922 897 161.072 792.489 518.223
2296 0 64.3032 14.4783 931 166.09 791.205 517.748
2297 0 66.1523 14.5876 965 167.879 792.458 517.187
2298 0 70.2242 14.4537 1015 166.712 791.196 515.625
2299 0 72.2617 14.4752 1046 170.505 791.506 514.96
2300 0 72.2617 14.4752 1046 177.648 792.506 514.96
2301 0 78.257 14.7718 1156 168.111 790.679 511.815
2302 0 80.3416 14.6251 1175 171.44 792.994 510.136
2303 0 84.2821 14.5939 1230 152.716 792.189 508.82
2304 0 88.3658 13.9873 1236 159.493 790.777 508.344
2305 0 90.5699 14.5081 1314 163.884 790.241 506.369
2306 1 47.3277 13.5861 643 172.502 792.171 526.594
2307 0 49.1696 14.3991 708 166.278 790.734 525.227
2308 0 50.1622 14.7322 739 160.893 790.705 525.011
2309 0 53.2054 14.679 781 165.073 791.164 524.204
2310 0 53.2054 14.679 781 175.005 792.164 524.204
2311 0 56.1697 14.8835 836 164.246 793.222 522.995
2312 0 57.2172 14.9081 853 169.131 792.188 522.444
2313 0 58.1656 14.9229 868 167.758 792.741 521.439
2314 0 62.1668 14.5737 906 172.428 791.466 521.082
2315 0 64.2976 14.8995 958 167.376 791.73 519.674
2316 0 65.2969 15.1156 987 161.02 792.647 518.852
2317 0 66.2455 15.3369 1016 170.565 792.047 517.44
2318 0 70.2282 15.236 1070 166.331 791.904 516.258
2319 0 72.2202 15.2866 1104 164.212 792.917 515.185
2320 0 74.2563 15.231 1131 163.1 793.065 513.583
2321 0 78.288 15.2131 1191 165.746 792.721 512.018
2322 0 81.1547 15.1316 1228 171.155 792.274 510.906
2323 0 83.2256 15.1996 1265 172.994 791.834 509.149
2324 0 87.1838 15.1519 1321 167.415 792.364 507.515
2325 0 92.2772 15.1608 1399 164.047 792.216 505.589
2326 0 94.371 15.1 1425 163.512 792.202 504.065
2327 0 99.276 14.9986 1489 161.71 791.964 502.251
2328 0 103.152 14.9197 1539 165.832 792.35 500.83
2329 1 48.0703 14.0211 674 170.687 793.184 525.902
2330 0 49.0764 14.5691 715 168.338 792.371 525.032
2331 0 52.0664 14.3278 746 170.399 793.129 524.701
2332 0 51.1323 15.4306 789 168.681 791.892 523.677
2333 0 54.0414 15.0995 816 173.357 791.816 522.93
2334 0 55.1347 14.9996 827 174.259 793.126 521.96
2335 0 59.0965 14.8401 877 165.25 792.738 520.475
2336 0 61.2054 14.6392 896 173.354 792.869 520.819
2337 0 64.2322 14.6655 942 173.444 791.377 519.712
2338 0 63.1491 15.0596 951 170.817 791.389 518.362
2339 0 67.2265 15.009 1009 171.773 791.826 517.039
2340 0 69.1424 15.027 1039 166.412 791.984 516.127
2341 0 71.0525 15.4111 1095 173.662 791.726 514.893
2342 0 74.275 15.1599 1126 171.71 793.254 513.478
2343 0 75.1002 15.4593 1161 170.408 793.157 512.071
2344 0 77.1323 15.1558 1169 167.418 793.778 510.879
2345 0 81.0531 14.7558 1196 169.47 792.89 509.717
2346 0 82.1193 15.1122 1241 167.674 792.882 508.386
2347 0 86.1513 14.9388 1287 163.287 792.258 507.01
2348 0 89.2543 14.7332 1315 152.96 791.125 505.392
2349 0 93.0862 14.9539 1392 163.399 791.295 504.026
2350 0 97.3443 14.8853 1449 164.826 789.761 501.881
2351 0 99.2318 14.965 1485 163.725 790.789 499.516
2352 1 56.1022 12.8872 723 160.828 790.711 522.928
2353 0 57.0759 13.1054 748 159.582 790.568 521.348
2354 0 60.0544 12.9383 777 158.135 790.268 520.064
2355 0 62.0478 12.8933 800 159.059 788.568 519.382
2356 0 64.0504 12.9117 827 159.44 788.874 518.021
2357 0 67.1718 12.8179 861 158.412 788.48 516.769
2358 0 69.0812 12.7676 882 160.663 788.444 516.019
2359 0 71.1822 12.7981 911 158.22 788.835 514.885
2360 0 74.1133 12.9262 958 160.444 788.373 513.113
2361 0 77.1132 12.9809 1001 161.259 788.252 512.204
2362 0 79.3026 12.9756 1029 158.63 787.664 510.754
2363 0 83.1526 12.6154 1049 154.666 789.969 509.466
2364 0 85.1948 12.7003 1082 149.372 789.17 507.884
2365 1 44.0498 11.7367 517 156.553 790.11 528.458
2366 0 46.1458 11.6804 539 154.87 791.054 527.471
2367 0 47.1173 11.8216 557 149.971 789.438 527.192
2368 0 48.0726 11.9819 576 153.503 789.672 526.41
2369 0 50.0708 12.0829 605 157.833 789.031 525.979
2370 0 52.1919 12.0134 627 149.697 788.767 525
2371 0 54.096 11.9972 649 155.963 790.877 524.353
2372 0 56.1422 12.5396 704 154.517 789.936 522.335
2373 0 57.0984 12.5573 717 159.162 790.375 522.342
2374 0 59.2313 12.7635 756 160.036 790.053 520.999
2375 0 62.1397 12.0696 750 156.465 789.847 520.28
2376 0 63.0571 12.6076 795 156.272 790.314 518.972
2377 0 66.1736 11.9836 793 151.261 790.274 518.097
2378 0 68.2523 12.1461 829 152.268 788.761 517.337
2379 0 69.1233 12.3981 857 154.923 791.895 516.112
2380 0 73.08 12.1921 891 148.215 790.406 514.661
2381 0 75.164 12.2798 923 156.54 791.087 513.419
2382 1 37.087 10.7315 398 143.234 791.98 532.307
2383 0 39.049 11.1655 436 150.853 790.509 531.445
2384 0 40.0569 11.4337 458 149.651 790.509 530.258
2385 0 42.0543 11.5565 486 150.576 791.617 529.401
2386 0 42.0829 11.9051 501 145.822 791.104 528.98
2387 0 43.0962 11.8572 511 147.033 791.225 528.387
2388 0 46.0868 11.2397 518 143.473 790.384 527.193
2389 0 48.068 11.1301 535 146.832 789.768 526.91
2390 0 49.0477 11.866 582 149.261 789.096 526.306
2391 0 52.0701 11.7342 611 143.964 790.682 524.987
2392 0 52.1183 11.9728 624 147.633 790.256 524.287
2393 0 54.1807 12.0892 655 146.383 788.921 523.663
2394 0 56.108 12.0125 674 147.822 790.675 523.148
2395 0 58.1217 12.2674 713 157.525 789.694 522.324
2396 0 59.2136 12.4127 735 158.186 790.273 520.971
2397 0 60.2022 12.7736 769 150.243 790.61 520.15
2398 0 63.1068 12.8037 808 157.21 789.832 519.301
2399 0 68.1039 12.7746 870 166.123 790.376 517.359
2400 0 69.0827 13.0858 904 164.564 791.136 515.517
2401 0 73.2584 12.7084 931 170.584 791.288 513.892
2402 0 75.2199 13.2412 996 162.419 791.702 512.299
2403 0 78.3697 13.0152 1020 162.485 791.723 511.211
2404 1 41.2038 12.0377 496 168.444 791.706 529.058
2405 0 43.2176 12.518 541 165.848 791.425 528.793
2406 0 43.1958 12.8716 556 161.441 790.899 528.085
2407 0 45.1538 12.69 573 162.073 789.724 527.002
2408 0 45.101 13.3035 600 40.1683 789.18 526.713
2409 0 48.0881 12.9762 624 169.087 789.38 526.226
2410 0 48.1203 13.4663 648 167.938 791.074 525.758
2411 0 50.1011 13.3929 671 167.884 790.025 524.59
2412 0 52.0668 12.9641 675 166.184 791.584 523.827
2413 0 54.1172 13.4338 727 170.89 791.67 522.613
2414 0 55.121 12.9352 713 165.693 791.279 522.028
2415 0 55.1432 13.4196 740 172.059 791.954 521.896
2416 0 58.0536 13.6253 791 168.736 791.321 520.291
2417 0 63.1651 13.5835 858 165.55 790.415 518.069
2418 0 63.259 13.3578 845 163.641 788.656 517.488
2419 0 65.4475 13.2167 865 160.005 791.194 516.2
2420 0 68.2927 13.3689 913 168.149 790.499 515.354
2421 0 70.216 13.2164 928 172.877 790.116 514.468
2422 0 74.5948 12.9098 963 167.373 790.213 513.393
2423 0 76.3346 12.9561 989 169.902 790.553 511.977
2424 1 41.1477 12.7103 523 170.038 790.358 528.08
2425 0 42.1225 12.796 539 163.16 791.282 528.082
2426 0 44.0987 13.0389 575 164.68 789.922 527.318
2427 0 44.0987 13.0389 575 171.009 788.922 527.318
2428 0 44.0987 13.0389 575 171.009 787.922 527.318
2429 0 47.0796 12.9992 612 167.438 790.918 524.454
2430 0 48.0338 13.2407 636 164.789 792.083 523.544
2431 0 50.1072 13.072 655 163.203 792.969 522.817
2432 0 50.0827 13.6375 683 161.742 792.49 522.801
2433 0 51.0732 13.5296 691 161.683 792.397 522.606
2434 0 53.1045 13.1627 699 167.856 793.272 521.853
2435 0 55.071 13.2011 727 171.242 792.136 521.172
2436 0 56.1299 12.9521 727 153.707 792.274 520.41
2437 0 57.0823 13.8747 792 163.446 791.486 518.741
2438 0 61.1169 13.3678 817 167.945 792.121 517.928
2439 0 60.0354 13.9251 836 142.464 790.773 517.562
2440 0 65.0592 13.6952 891 167.767 792.459 516.379
2441 0 66.1686 13.6923 906 167.95 791.656 515.555
2442 0 68.1525 14.0714 959 164.964 790.876 514.565
2443 0 71.1823 13.8658 987 166.849 793.726 513.215
2444 0 74.2779 13.9476 1036 165.323 791.377 511.923
2445 0 75.1804 13.9398 1048 170.597 791.885 510.656
2446 0 78.199 14.2969 1118 163.344 793.84 509.138
2447 0 80.1693 13.6461 1094 164.609 792.79 508.807
2448 1 42.2035 12.4871 527 164.252 792.924 527.178
2449 0 43.0787 13.603 586 163.435 793.809 525.962
2450 0 46.123 12.9653 598 165.296 792.334 525.45
2451 0 47.1041 13.3322 628 159.025 790.637 525.035
2452 0 49.03 13.4611 660 148.556 791.67 523.624
2453 0 48.1125 13.801 664 153.206 790.938 523.017
2454 0 52.0406 13.2781 691 161.107 792.164 522.437
2455 0 53.0534 13.6278 723 157.711 791.79 521.643
2456 0 55.0729 13.8362 762 157.983 791.72 520.463
2457 0 55.0374 14.0632 774 166.279 791.425 519.804
2458 0 59.0501 13.6833 808 160.134 792.985 518.653
2459 0 59.1795 14.2786 845 148.898 793.086 517.125
2460 0 62.1341 14.1307 878 159.935 791.312 516.366
2461 0 63.0958 14.5176 916 164.77 792.499 515.374
2462 0 67.1153 14.7358 989 162.044 791.991 513.882
2463 0 67.2354 14.7244 990 164.453 791.609 513.213
2464 0 71.1003 14.7397 1048 166.139 792.106 512.015
2465 0 74.1599 14.5766 1081 168.901 792.091 509.819
2466 0 76.1603 14.4563 1101 172.13 790.029 509.406
2467 0 77.1444 15.1016 1165 162.339 790.967 507.577
2468 0 81.1793 14.8437 1205 172.368 790.46 505.984
2469 0 84.1677 14.7206 1239 166.467 791.225 504.612
2470 0 87.1747 14.7864 1289 170.476 792.732 503.235
2471 0 90.1781 14.9482 1348 167.228 791.184 501.193
2472 0 94.3621 14.7199 1389 170.646 791.318 499.53
2473 0 97.2774 14.7311 1433 164.641 792.95 497.008
2474 1 48.1513 13.3537 643 168.471 791.694 521.467
2475 0 50.1073 13.3114 667 159.828 791.241 520.346
2476 0 53.0381 13.0284 691 172.258 790.36 519.748
2477 0 54.0591 13.3743 723 173.205 792.678 518.878
2478 0 56.1589 13.8714 779 167.218 791.276 517.344
2479 0 58.0675 13.9665 811 166.334 792.091 515.927
2480 0 60.0475 13.7391 825 160.205 790.909 514.878
2481 0 63.1174 13.5779 857 172.44 792.639 513.404
2482 0 65.1547 13.7058 893 164.14 792.722 512.988
2483 0 67.2722 13.3785 900 166.521 793.839 511.691
2484 0 69.2459 13.7337 951 167.432 791.047 510.09
2485 0 70.3578 14.0709 990 168.442 790.588 508.819
2486 0 74.3229 13.7239 1020 163.008 789.779 507.461
2487 0 77.1042 14.0459 1083 163.387 790.723 505.608
2488 0 79.1895 14.1054 1117 168.255 791.621 504.395
2489 0 82.2267 14.2776 1174 157.313 791.849 502.8
2490 0 85.2917 13.9756 1192 162.693 791.869 502.171
2491 0 88.1746 14.0403 1238 161.942 792.6 500.12
2492 0 91.2498 13.874 1266 161.039 792.22 498.469
2493 0 95.1455 13.7684 1310 164.05 793.392 496.515
2494 0 99.2383 14.0873 1398 162.387 793.336 494.394
2495 1 52.1445 12.1969 636 158.55 792.506 518.376
2496 0 53.1205 12.6693 673 163.969 794.153 517.621
2497 0 56.1225 13.2923 746 163.223 792.882 516.122
2498 0 58.1113 12.9923 755 159.282 792.588 515.221
2499 0 61.0829 12.8678 786 156.528 792.677 514.116
2500 0 63.1139 12.9924 820 166.699 793.402 512.071
2501 0 65.0548 13.235 861 152.971 793.634 511.251
2502 0 67.0776 13.3726 897 164.824 793.437 510.207
2503 0 69.1249 13.5407 936 167.276 794.981 508.346
2504 0 72.1475 13.3477 963 166.273 793.498 507.676
2505 0 72.1509 14.04 1013 164.309 794.126 506.144
2506 0 77.0896 13.6983 1056 162.63 793.348 504.393
2507 0 80.3714 13.7984 1109 171.396 793.146 502.929
2508 0 82.1994 14.0512 1155 169.738 793.001 501.599
2509 0 85.2889 13.8705 1183 169.947 791.577 500.21
2510 0 87.1136 13.6489 1189 166.952 792.142 499.278
2511 0 92.2673 13.4934 1245 162.35 790.802 497.083
2512 0 95.176 13.5328 1288 166.286 790.981 495.554
2513 0 99.2087 13.5472 1344 168.934 792.33 493.524
2514 0 103.24 13.3863 1382 165.216 792.108 491.514
2515 1 53.0723 11.7387 623 155.156 791.62 515.727
2516 0 56.0801 12.0542 676 160.635 791.17 515.024
2517 0 56.0516 12.6491 709 163.764 790.33 514.502
2518 0 58.1348 12.2818 714 170.613 790.845 513.594
2519 0 62.1201 12.5241 778 170.246 789.749 512.233
2520 0 63.218 12.5755 795 161.036 790.633 510.911
2521 0 66.1043 12.5711 831 161.225 792.289 509.665
2522 0 69.1369 12.4825 863 165.161 792.199 508.619
2523 0 70.1306 12.876 903 163.99 790.677 507.289
2524 0 72.3608 12.5897 911 159.984 792.15 505.394
2525 0 75.3898 12.8665 970 158.916 790.546 502.522
2526 0 77.3238 12.5964 974 151.852 792.215 501.137
2527 0 81.5307 12.4984 1019 161.236 791.628 499.852
2528 0 82.2778 12.6523 1041 157.094 791.059 499.026
2529 0 86.2865 12.4933 1078 160.701 791.096 497.88
2530 0 89.5169 12.668 1134 155.961 791.997 495.271
2531 0 92.2463 12.5425 1157 157.786 792.352 494.204
2532 0 95.1844 12.2709 1168 151.666 791.356 492.761
2533 0 98.2229 12.6447 1242 159.427 790.815 492.235
2534 1 53.1369 11.1222 591 154.318 792.051 514.836
2535 0 53.0426 11.8207 627 150.93 793.707 513.898
2536 0 54.1356 12.1177 656 145.579 791.715 512.89
2537 0 58.1257 12.5074 727 151 792.404 511.623
2538 0 59.1363 12.2091 722 150.32 791.842 511.069
2539 0 59.164 12.3555 731 155.908 790.35 511.082
2540 0 62.3037 12.9045 804 151.969 791.193 508.998
2541 0 64.1071 12.3075 789 155.421 790.672 509.212
2542 0 64.1351 12.614 809 142.996 791.447 507.042
2543 0 67.1125 12.5312 841 150.389 790.615 506.482
2544 0 69.0673 12.7267 879 152.313 790.438 505.11
2545 0 71.1121 12.5295 891 151.646 791.907 504.004
2546 0 73.0578 12.757 932 150.134 792.318 502.457
2547 0 74.1202 12.9384 959 156.566 792.381 501.384
2548 0 77.1265 13.0694 1008 150.681 791.824 500.336
2549 0 82.0826 12.4631 1023 154.691 794.664 499.237
2550 0 83.0929 12.9494 1076 151.452 793.642 497.492
2551 0 85.0529 12.8156 1090 154.253 793.032 496.347
2552 0 90.1481 12.668 1142 154.649 793.687 494.584
2553 0 93.2103 12.563 1171 155.178 792.393 492.765
2554 0 97.1647 12.7618 1240 156.745 791.323 491.996
2555 1 50.0295 11.0535 553 150.345 793.362 514.877
2556 0 52.125 11.1463 581 156.179 791.639 513.685
2557 0 52.049 12.0271 626 161.152 793.067 512.532
2558 0 55.1956 12.3198 680 150.254 791.371 511.372
2559 0 56.0381 12.7592 715 157.999 790.983 511.194
2560 0 59.0889 12.9466 765 150.729 791.579 509.214
2561 0 59.1283 12.8534 760 163.505 791.68 509.432
2562 0 60.1305 13.1547 791 156.286 792.137 508.583
2563 0 63.0989 13.043 823 161.673 791.459 507.365
2564 0 64.0779 13.3587 856 164.487 792.46 506.812
2565 0 67.2449 13.2352 890 148.48 792.057 504.887
2566 0 69.1244 12.8609 889 154.913 792.146 504.78
2567 0 72.1038 12.7594 920 158.142 792.553 503.796
2568 0 71.0643 13.34 948 159.291 792.582 502.588
2569 0 76.1785 12.8777 981 157.216 792.153 501.178
2570 0 78.2219 13.091 1024 157.136 792.207 499.798
2571 0 79.2155 13.2297 1048 155.027 792.668 498.886
2572 0 82.1982 13.3945 1101 157.724 790.811 497.737
2573 0 86.1041 12.903 1111 144.493 791.879 496.08
2574 0 90.2222 12.9569 1169 160.47 791.304 494.903
2575 0 92.0896 13.1394 1210 160.988 791.299 494.111
2576 0 94.2919 13.2355 1248 156.934 791.489 492.579
2577 1 52.0745 11.9828 624 156.534 792.668 514.385
2578 0 53.0505 12.5918 668 152.272 792.769 514.057
2579 0 55.1652 11.9822 661 153.375 792.262 513.005
2580 0 55.3061 12.4037 686 162.799 793.62 512.057
2581 0 57.1024 12.2061 697 155.891 792.911 510.77
2582 0 59.1406 12.6309 747 158.064 792.075 510.126
2583 0 60.1811 12.7449 767 160.168 793.305 509.825
2584 0 62.101 12.8983 801 160.784 794.419 508.547
2585 0 66.194 12.2821 813 153.886 793.884 507.749
2586 0 67.2029 12.5739 845 162.35 793.77 506.551
2587 0 67.0822 13.3567 896 159.984 793.737 505.613
2588 0 71.2092 13.0461 929 157.72 794.465 504.64
2589 0 71.2201 13.2828 946 160.275 793.469 503.984
2590 0 75.1495 13.0407 980 157.843 791.323 501.614
2591 0 76.0977 13.4564 1024 160.866 792.893 501.124
2592 0 80.1686 13.4342 1077 153.63 792.049 499.637
2593 0 81.0785 13.2711 1076 161.813 791.447 498.377
2594 0 85.1596 13.0696 1113 152.438 791.09 495.773
2595 0 86.179 13.1122 1130 161.425 790.432 494.971
2596 0 89.4586 13.414 1200 154.94 790.01 492.796
2597 0 93.2281 12.7966 1193 149.202 793.294 492.073
2598 0 95.2326 13.0838 1246 151.185 792.896 490.118
2599 1 50.044 11.9095 596 152.164 791.275 511.71
2600 0 51.0588 12.5933 643 145.865 792.692 510.652
2601 0 53.044 12.8007 679 151.754 794.51 510.007
2602 0 55.0706 13.0741 720 147.101 791.469 510.86
2603 0 58.0332 12.803 743 149.697 792.205 509.76
2604 0 59.0739 13.0684 772 150.714 792.301 509.142
2605 0 61.0242 12.7982 781 149.917 791.165 507.877
2606 0 64.0993 13.4323 861 145.763 792.914 506.226
2607 0 64.0993 13.4323 861 146.714 793.914 506.226
2608 0 66.098 13.4346 888 151.054 793.102 504.818
2609 0 69.1114 13.3408 922 149.71 792.677 503.204
2610 0 71.075 13.4647 957 152.48 793.511 502.468
2611 0 75.1447 13.3742 1005 145.035 792.213 500.663
2612 0 76.1924 13.689 1043 149.959 790.987 499.879
2613 0 80.2244 13.6991 1099 150.231 791.303 498.102
2614 0 83.4113 13.4634 1123 149.546 792.804 494.641
2615 0 86.1325 13.8508 1193 151.147 794.074 495.237
2616 0 88.1142 13.6187 1200 150.193 792.393 493.958
2617 0 92.1626 14.5504 1341 147.975 792.157 489.857
2618 0 95.2944 13.7679 1312 153.282 791.899 490.084
2619 0 97.3323 13.9317 1356 154.74 792.805 489.164
2620 0 101.21 13.9907 1416 154.636 792.889 486.814
2621 0 103.223 14.3088 1477 152.069 792.901 484.963
2622 0 106.215 14.2541 1514 158.096 793.009 483.81
2623 1 53.2835 12.274 654 153.69 792.526 510.176
2624 0 55.199 12.772 705 162.329 791.295 509.484
2625 0 56.0616 13.2176 741 154.982 793.735 508.603
2626 0 57.139 13.4584 769 158.86 791.658 507.797
2627 0 60.2177 13.418 808 161.374 792.311 506.891
2628 0 62.3593 13.326 831 162.294 791.761 506.241
2629 0 62.2143 13.8714 863 160.618 791.7 505.458
2630 0 65.2839 13.2958 868 153.804 792.411 504.166
2631 0 66.2273 13.6953 907 160.258 792.139 503.148
2632 0 70.2018 13.8031 969 162.664 792.286 501.549
2633 0 72.1934 13.6993 989 168.012 792.566 500.895
2634 0 73.3196 13.9526 1023 163.596 792.607 498.37
2635 0 76.2628 13.8731 1058 165.838 793.696 498.448
2636 0 79.2029 13.8253 1095 168.928 793.802 497.59
2637 0 80.2776 14.0762 1130 166.479 794.387 495.455
2638 0 83.2065 14.3979 1198 164.05 793.104 493.507
2639 0 88.3121 14.2902 1262 164.854 794.244 491.792
2640 0 89.2092 14.1689 1264 152.215 793.754 491.214
2641 0 94.2315 13.6366 1285 161.777 793.342 489.71
2642 0 97.1734 13.9956 1360 161.391 793.638 488.279
2643 0 99.1998 14.002 1389 150.135 793.946 487.145
2644 0 104.21 14.0293 1462 165.476 793.845 485.25
2645 0 106.166 14.1665 1504 156.23 793.189 482.978
2646 1 59.1375 11.617 687 159.21 793.211 508.015
2647 0 60.1535 12.2852 739 161.779 795.118 506.562
2648 0 62.1864 12.6555 787 153.061 794.418 505.207
2649 0 65.2004 12.8834 840 162.173 792.557 505.775
2650 0 67.1519 12.7025 853 156.224 793.324 504.353
2651 0 69.1101 13.0951 905 158.631 794.18 502.57
2652 0 73.104 12.8174 937 157.447 792.828 501.82
2653 0 75.1174 12.8732 967 156.038 792.98 500.068
2654 0 75.1218 13.112 985 156.542 792.991 498.512
2655 0 79.1702 13.1615 1042 152.348 793.546 497.052
2656 0 82.048 13.0899 1074 154.402 792.468 495.878
2657 0 85.0839 12.9519 1102 156.209 793.502 494.924
2658 0 89.1076 12.7486 1136 155.289 793.86 493.173
2659 0 91.1781 13.161 1200 153.195 791.399 491.057
2660 0 95.0959 12.4821 1187 158.302 795.142 490.02
2661 0 97.1444 12.8777 1251 153.938 793.463 488.343
2662 1 53.1211 11.069 588 151.344 793.041 510.935
2663 0 56.0888 11.3392 636 153.193 793.058 509.305
2664 0 57.0316 12.1161 691 150.446 793.175 508.355
2665 0 59.0874 11.9823 708 157.54 794.403 507.915
2666 0 60.1719 12.4975 752 152.184 794.193 506.993
2667 0 63.2163 11.9748 757 154.487 793.341 505.457
2668 0 66.1564 11.9263 789 153.409 793.058 504.428
2669 0 67.1963 12.6049 847 154.837 793.051 503.481
2670 0 69.1903 12.9064 893 150.438 793.414 502.01
2671 0 72.2095 12.7823 923 153.778 793.404 500.919
2672 0 74.2174 12.679 941 151.316 792.996 499.088
2673 0 77.1967 12.8632 993 154.62 791.185 497.271
2674 0 78.2775 12.5196 980 155.792 790.774 495.813
2675 0 82.3989 12.6094 1039 153.651 793.517 493.963
2676 0 87.1934 12.6271 1101 153.902 791.893 493.126
2677 0 88.2154 12.9456 1142 160.254 790.75 490.792
2678 0 88.2154 12.9456 1142 163.885 789.75 490.792
2679 1 50.1112 11.255 564 158.807 791.598 512.145
2680 0 52.0899 11.5953 604 156.959 791.487 511.379
2681 0 53.0733 11.6254 617 153.245 789.481 510.618
2682 0 54.0209 12.2175 660 157.862 790.955 510.135
2683 0 54.0212 12.5136 676 153.105 790.462 510.355
2684 0 57.1585 11.7568 672 146.557 791.408 508.999
2685 0 58.1216 12.3706 719 150.473 790.438 508.47
2686 0 61.0753 12.3454 754 150.824 789.975 507.788
2687 0 62.0761 11.8886 738 151.118 790.438 506.705
2688 0 64.1138 12.4778 800 146.16 790.004 505.918
2689 0 66.0494 12.6269 834 151.428 791.356 504.697
2690 0 68.1678 12.6306 861 146.761 791.408 503.28
2691 0 70.1373 12.5896 883 152.999 791.002 502.148
2692 0 71.1973 12.8938 918 153.698 791.263 501.927
2693 0 73.0907 12.6829 927 154.198 793.187 500.598
2694 0 76.1006 12.8908 981 150.917 792.156 499.414
2695 0 79.2235 12.7361 1009 154.458 792.139 497.906
2696 0 79.0431 12.9043 1020 148.639 793.573 496.747
2697 0 84.2401 12.5356 1056 152.448 792.609 495.339
2698 0 86.1609 12.7088 1095 142.617 792.073 493.056
2699 1 44.1678 11.0035 486 152.848 792.821 513.837
2700 0 46.1312 10.9254 504 155.425 792.442 513.343
2701 0 47.1013 10.8702 512 150.496 793.145 511.1
2702 0 48.1699 11.584 558 152.104 790.71 511.366
2703 0 50.0608 11.9854 600 141.917 790.642 509.42
2704 0 51.2878 12.2056 626 148.302 792.583 509.799
2705 0 53.1003 12.8436 682 146.493 789.861 508.645
2706 0 54.0615 12.6338 683 146.249 790.136 508.249
2707 0 55.0521 12.5154 689 145.705 790.212 507.054
2708 0 58.0956 12.7548 741 142.069 791.24 506.082
2709 0 57.0449 12.9898 741 142.271 791.049 505.015
2710 0 60.1409 13.1524 791 142.139 791.096 503.857
2711 0 60.1228 13.1231 789 142.631 790.804 503.028
2712 0 64.05 13.3177 853 143.792 790.512 502.442
2713 0 66.1224 13.0516 863 150.387 791.109 501.738
2714 0 67.1436 13.3743 898 140.612 791.836 500.177
2715 0 68.081 13.2783 904 148.798 792.173 499.906
2716 0 71.0603 13.1719 936 147.997 790.876 497.988
2717 0 72.0345 13.9239 1003 145.618 790.826 496.987
2718 0 75.1257 13.6039 1022 150.186 792.531 495.868
2719 0 79.081 13.8213 1093 145.608 792.576 494.275
2720 0 82.1506 13.6091 1118 148.499 793.436 493.309
2721 0 85.1003 13.5252 1151 147.511 793.476 491.615
2722 0 86.0916 13.9386 1200 148.036 792.76 490.523
2723 0 89.2698 13.9129 1242 147.226 789.818 489.396
2724 0 91.2049 14.0672 1283 140.998 793.327 487.33
2725 0 95.1885 13.6256 1297 137.981 791.369 485.672
2726 0 99.1625 13.4123 1330 138.538 791.602 484.475
2727 0 102.225 13.9496 1426 141.982 792.361 482.584
2728 0 106.251 13.6376 1449 147.47 792.093 481.099
2729 1 53.0823 11.6611 619 147.391 789.43 507.43
2730 0 55.0516 12.2612 675 147.867 790.874 506.382
2731 0 56.0918 13.1035 735 144.083 789.528 505.788
2732 0 57.1106 12.9573 740 153.773 790.188 504.235
2733 0 59.0978 13.0631 772 153.978 790.215 503.187
2734 1 72.0784 13.3605 963 157.82 788.694 496.028
2735 0 74.2351 13.4034 995 160.753 789.676 494.896
2736 0 75.232 13.7176 1032 161.625 789.129 494.948
2737 0 77.1495 13.8821 1071 158.348 790.064 492.787
2738 0 79.2418 13.9194 1103 153.907 790.964 491.837
2739 0 82.2024 13.6371 1121 160.323 790.759 491.225
2740 0 85.1399 13.5659 1155 153.526 791.081 491.299
2741 0 88.3316 13.6757 1208 157.949 789.509 489.068
2742 0 94.2317 13.7003 1291 157.969 790.009 487.813
2743 0 96.2267 13.9982 1347 147.125 789.317 486.674
2744 1 50.0542 12.1468 608 154.24 790.112 509.885
2745 0 54.1822 12.421 673 153.006 788.823 508.333
2746 0 57.1004 12.5919 719 147.324 788.097 506.857
2747 0 60.0345 13.1424 789 149.204 789.465 508.136
2748 0 61.0701 13.3781 817 168.754 790.319 507.722
2749 0 63.1564 13.6645 863 167.581 790.408 506.698
2750 0 67.2805 13.5255 910 161.208 791.385 504.563
2751 0 70.1326 13.503 947 164.674 790.993 504.526
2752 0 72.0894 13.941 1005 171.734 790.76 503.952
2753 0 74.2204 13.9719 1037 163.876 791.002 502.106
2754 0 78.0654 13.604 1062 174.551 790.14 501.184
2755 0 81.1933 13.8066 1121 168.433 792.036 500.201
2756 0 81.3164 14.2899 1162 168.192 790.169 498.563
2757 0 85.1344 14.1189 1202 177.937 790.866 496.983
2758 0 89.1144 14.0606 1253 174.431 790.002 495.939
2759 0 93.171 13.985 1303 164.265 790.701 495.088
2760 0 96.1742 13.8291 1330 167.869 790.707 493.538
2761 1 49.0404 12.296 603 166.043 789.701 517.604
2762 0 50.0332 13.0114 651 162.048 791.097 516.138
2763 0 51.0592 13.1808 673 160.4 789.166 516.27
2764 0 54.2164 13.2617 719 160.157 790.754 516.125
2765 0 53.0721 13.6041 722 163.997 791.055 515.374
2766 0 57.0355 13.3952 764 167.588 789.236 514.211
2767 0 58.0258 13.7008 795 156.023 789.816 513.969
2768 0 60.0752 13.4997 811 163.761 788.868 513.395
2769 0 63.0928 13.4722 850 167.122 788.893 512.126
2770 0 65.1434 13.4319 875 161.144 788.56 511.31
2771 0 66.0772 13.7264 907 87.7034 788.05 510.556
2772 0 69.0733 13.739 949 157.412 788.229 509.432
2773 0 71.1507 13.7595 979 158.764 788.754 508.784
2774 0 71.3834 14.149 1010 158.086 789.27 507.144
2775 0 76.1166 13.3348 1015 157.464 791.152 505.694
2776 0 77.2892 13.9476 1078 154.968 789.565 504.649
2777 0 80.3064 13.3364 1071 148.627 791.397 503.25
2778 0 81.1582 14.1082 1145 155.757 788.467 501.795
2779 0 86.1755 13.6234 1174 150.025 789.024 500.12
2780 0 89.3138 13.7717 1230 152.969 789.351 498.735
2781 0 90.2215 13.8991 1254 149.377 788.668 497.559
2782 0 95.1791 13.5324 1288 143.42 789.324 495.638
2783 0 98.3989 13.5164 1330 154.573 789.678 495.04
2784 1 51.4698 11.9293 614 150.02 790.785 519.259
2785 0 53.1768 11.7344 624 111.99 790.612 519.497
2786 0 55.0611 12.5134 689 154.56 790.078 518.726
2787 0 57.0632 13.2835 758 140.697 788.856 518.21
2788 0 58.0589 13.2624 770 150.781 789.494 516.966
2789 0 60.1276 13.1221 789 151.299 787.014 516.052
2790 0 62.1478 13.3231 828 144.71 788.33 515.226
2791 0 64.1048 13.5091 866 146.017 789.669 513.688
2792 0 66.1141 13.2347 875 148.464 789.127 513.28
2793 0 69.0832 13.1581 909 155.14 789.274 512.072
2794 0 70.2227 13.386 940 154.057 788.723 511.461
2795 0 73.0716 13.6031 994 147.344 789.808 509.85
2796 0 76.2145 13.567 1034 148.185 786.258 508.659
2797 0 78.2399 13.4203 1050 156.73 786.33 507.934
2798 0 79.2192 13.7845 1092 160.079 787.08 506.564
2799 0 84.2322 13.6646 1151 153.312 787.151 505.85
2800 0 87.1593 13.7908 1202 149.748 787.751 503.543
2801 0 89.1213 13.5321 1206 155.075 788.068 502.627
2802 0 90.2846 14.0334 1267 161.382 788.668 500.182
2803 0 95.2778 13.7703 1312 160.636 787.918 500.085
2804 0 98.197 13.6868 1344 158.037 786.403 498.732
2805 0 102.256 13.5738 1388 163.517 787.692 495.881
2806 0 105.172 13.8154 1453 156.847 787.21 494.709
2807 0 109.093 13.9055 1517 164.931 787.367 492.515
2808 0 114.166 13.8307 1579 157.705 787.212 491.097
2809 0 118.105 13.869 1638 157.061 785.904 489.591
2810 1 68.1015 11.7912 803 159.828 787.218 515.02
2811 0 71.0647 12.566 893 153.381 787.843 513.55
2812 0 74.0551 12.9228 957 154.843 787.415 512.077
2813 0 76.1784 12.7201 969 155.368 786.825 511.431
2814 0 79.1243 13.3966 1060 152.936 789.341 509.452
2815 0 83.2185 13.0019 1082 153.398 786.364 507.761
2816 0 88.3189 12.7379 1125 149.368 787.322 506.484
2817 0 90.1644 13.2757 1197 153.318 787.958 504.603
2818 0 94.1038 12.7625 1201 146.459 788.287 502.789
2819 0 97.2469 13.111 1275 154.711 789.253 501.253
2820 1 51.1562 10.7514 550 144.655 790.491 524.811
2821 0 53.0763 10.7393 570 143.33 787.049 524.73
2822 0 54.1144 12.0485 652 147.574 789.14 523.41
2823 0 55.0577 12.7321 701 143.591 790.757 522.887
2824 0 58.1069 12.4942 726 152.435 788.708 522.499
2825 0 59.1086 12.7393 753 145.394 788.657 521.208
2826 0 61.1305 12.5633 768 141.249 789.478 520.66
2827 0 63.0953 12.6634 799 154.503 789.452 520.199
2828 0 65.1322 12.8508 837 149.748 789.201 519.247
2829 0 68.1166 12.5814 857 154.825 788.894 517.684
2830 0 71.0741 12.8457 913 148.6 790.039 516.435
2831 0 72.1393 13.2799 958 152.075 788.843 515.379
2832 0 76.0853 12.578 957 149.456 788.394 514.795
2833 0 79.1415 13.1663 1042 150.623 788.13 513.546
2834 0 81.0801 12.9748 1052 154.392 787.475 512.253
2835 0 83.0726 12.9525 1076 146 789.435 510.983
2836 1 42.1618 10.7206 452 152.823 791.378 532.449
2837 0 43.1659 11.5601 499 150.707 788.08 532.006
2838 0 44.1525 11.9359 527 146.71 789.22 531.165
2839 0 47.1632 12.0433 568 145.29 790.04 530.438
2840 0 47.1142 12.2044 575 144.426 789.433 529.837
2841 0 49.1256 11.8879 584 140.509 791.524 528.406
2842 0 50.2719 12.134 610 138.313 790.143 528.205
2843 0 52.2464 12.2879 642 144.883 789.998 528.435
2844 0 54.1597 11.743 636 144.498 790.41 527.58
2845 0 55.1751 12.3063 679 143.075 790.15 526.978
2846 0 57.2696 12.0832 692 143.585 789.812 526.368
2847 0 59.2301 11.8858 704 143.395 790.151 526.065
2848 0 61.2312 12.3793 758 136.883 788.015 525.012
2849 0 62.1693 12.5625 781 140.571 788.876 523.759
2850 0 63.3391 12.9146 818 148.064 789.002 522.935
2851 0 66.2044 13.1713 872 148.805 790.088 522.998
2852 0 68.1778 12.9661 884 146.248 789.607 521.783
2853 0 70.3016 12.5459 882 139.889 790.694 519.986
2854 0 71.2712 12.9365 922 147.684 789.179 519.007
2855 0 73.7056 13.0248 960 142.996 789.244 518.298
2856 0 76.1832 13.0212 992 149.278 787.645 517.397
2857 0 79.0903 13.061 1033 145.69 788.963 515.833
2858 0 81.2703 13.2398 1076 143.416 788.484 513.821
2859 0 84.2517 12.9849 1094 151.955 788.141 513.516
2860 0 86.2389 13.0683 1127 152.312 789.442 511.454
2861 0 88.1852 13.2562 1169 155.075 788.666 510.27
2862 0 92.2396 13.2806 1225 155.024 789.109 509.097
2863 1 49.1739 11.2458 553 154.192 787.184 531.783
2864 0 50.0631 12.1047 606 155.919 787.318 530.239
2865 0 54.0719 12.1875 659 156.759 789.199 529.575
2866 0 54.0681 12.7432 689 154.03 788.885 528.305
2867 0 56.3075 13.3375 751 155.26 787.535 528.967
2868 0 59.1813 13.1798 780 161.113 788.565 527.945
2869 0 60.0534 13.0218 782 160.756 787.72 527.935
2870 0 61.1361 13.4618 823 151.434 788.903 527.183
2871 0 63.1118 13.7217 866 154.885 788.007 526.389
2872 0 64.1757 13.837 888 152.207 788.995 525.537
2873 0 68.327 13.6842 935 155.909 789.122 524.504
2874 0 71.3007 13.5903 969 160.218 788.235 523.555
2875 0 72.3689 13.2239 957 158.115 787.948 523.28
2876 0 74.4508 13.9287 1037 149.963 788.223 521.857
2877 0 75.1223 13.9905 1051 157.206 788.286 520.582
2878 0 78.2679 13.9904 1095 160.179 788.606 520.215
2879 0 80.1579 14.4714 1160 159.569 786.839 518.839
2880 0 84.3203 13.7926 1163 155.308 787.965 517.652
2881 0 87.188 13.7863 1202 156.432 785.483 517.185
2882 1 50.0405 13.8488 693 167.046 785.918 534.359
2883 0 54.0643 13.7614 744 164.258 786.95 533.772
2884 0 56.0167 14.1386 792 170.917 788.419 533.301
2885 0 58.0251 13.9767 811 164.958 787.716 533.465
2886 0 58.0928 14.2358 827 165.214 786.682 533.472
2887 0 61.0933 13.9786 854 172.146 787.814 532.879
2888 0 63.2396 13.9628 883 174.83 786.535 532.618
2889 0 66.2028 14.1384 936 159.782 785.59 531.702
2890 0 68.1865 14.4603 986 167.881 787.935 530.737
2891 0 71.1328 14.5081 1032 165.737 786.026 529.963
2892 0 74.1791 14.3437 1064 168.752 786.023 529.315
2893 0 77.3101 14.5518 1125 166.521 787.754 528.212
2894 0 79.1978 14.6469 1160 161.999 785.872 527.205
2895 0 81.3058 14.5008 1179 172.025 787.13 526.267
2896 0 85.1484 14.5863 1242 158.809 787.734 524.132
2897 0 87.2313 14.6278 1276 166.377 784.861 523.731
2898 0 93.2221 14.6746 1368 17.2383 786.563 522.2
2899 0 94.1275 14.4591 1361 164.179 788.608 520.438
2900 0 97.207 14.536 1413 168.008 785.345 519.132
2901 0 101.189 14.5766 1475 163.982 785.803 517.236
2902 0 104.121 14.6176 1522 169.778 786.131 516.369
2903 1 53.0904 13.1662 699 168.704 787.159 540.66
2904 0 55.1107 13.0283 718 171.61 787.153 539.709
2905 0 57.1333 13.1622 752 164.952 786.763 538.96
2906 0 59.1754 13.1981 781 167.613 785.99 537.516
2907 0 60.0552 13.4709 809 170.392 786.581 536.906
2908 0 62.1386 13.486 838 158.949 788.468 535.914
2909 0 65.0518 13.6968 891 168.3 788.23 535.001
2910 0 68.1502 13.7197 935 168.738 787.91 533.697
2911 0 69.0879 13.9967 967 168.302 786.765 532.35
2912 0 71.1696 13.8823 988 165.203 787.641 531.319
2913 0 75.1074 13.7803 1035 163.414 787.553 530.609
2914 0 78.0869 13.613 1063 168.648 785.848 529.681
2915 0 81.1587 13.7016 1112 162.53 787.278 527.923
2916 0 85.1539 13.822 1177 169.661 787.828 526.342
2917 0 87.1637 13.8131 1204 169.1 787.748 525.132
2918 0 89.0848 14.0877 1255 165.513 788.239 523.861
2919 0 93.218 13.6776 1275 159.544 785.875 521.653
2920 0 97.1238 13.3541 1297 165.379 785.794 520.794
2921 1 51.1587 11.8455 606 161.946 787.837 543.264
2922 0 52.1549 12.5587 655 148.867 786.565 544.261
2923 0 54.1235 12.3606 669 160.462 787.604 543.822
2924 0 56.2362 12.6075 709 159.22 787.732 542.451
2925 0 58.1886 12.8719 749 161.672 788.073 541.617
2926 0 60.1846 12.5946 758 158.959 788.298 540.591
2927 0 62.0756 13.0647 811 165.891 786.661 539.769
2928 0 64.2809 13.1143 843 166.548 787.079 538.845
2929 0 67.0426 12.9321 867 163.254 786.299 537.564
2930 0 68.1548 12.9118 880 160.805 787.577 537.205
2931 0 70.1863 13.0652 917 165.899 788.037 536.118
2932 0 71.2431 13.4188 956 165.964 787.848 535.159
2933 0 76.2229 12.8177 977 160.915 787.185 533.901
2934 0 79.2478 13.1108 1039 154.99 787.55 532.13
2935 0 81.1766 13.021 1057 159.553 786.216 531.366
2936 0 84.1289 12.9801 1092 161.32 788.161 530.026
2937 0 87.1829 12.9154 1126 152.399 787.986 527.688
2938 1 43.1438 11.311 488 156.002 786.83 550.238
2939 0 46.1486 11.5496 533 151.439 787.979 549.218
2940 0 46.237 12.198 564 141.729 787.979 549.232
2941 0 47.2544 11.9565 565 146.294 788.281 548.69
2942 0 47.0414 12.4359 585 148.783 789.472 548.918
2943 0 50.0189 11.8755 594 144.052 787.559 548.266
2944 0 52.0849 12.1148 631 139.242 789.41 547.87
2945 0 51.0177 12.1918 622 148.667 785.83 547.019
2946 0 54.1992 12.1589 659 148.225 789.243 546.698
2947 0 56.0786 12.3398 692 148.029 790.474 545.947
2948 0 57.0203 12.3991 707 150.446 789.211 545.199
2949 0 60.1039 12.3619 743 143.297 788.467 544.642
2950 0 61.0617 12.4956 763 147.519 791.101 543.836
2951 0 63.0585 12.4963 788 146.699 788.034 543.405
2952 0 64.0353 12.6493 810 146.948 789.193 542.694
2953 0 66.1363 12.822 848 147.494 789.103 542.019
2954 0 68.0435 12.639 860 151.65 787.119 540.735
2955 0 70.0696 12.5589 880 141.059 786.869 540.951
2956 0 72.0697 12.8626 927 148.027 788.565 539.118
2957 0 74.2017 12.9107 958 154.254 786.088 538.049
2958 0 76.0961 12.9967 989 144.454 785.853 536.469
2959 0 79.1018 13.0086 1029 148.768 788.568 535.751
2960 1 43.1731 10.9791 474 153.511 787.093 553.966
2961 0 45.1216 11.0368 498 150.492 786.074 553.604
2962 0 46.1696 11.696 540 153.672 785.781 553.024
2963 0 49.136 11.9871 589 145.002 787.253 552.1
2964 0 48.2546 12.0818 583 158.638 788.405 552.727
2965 0 50.0715 12.0028 601 157.559 786.236 552.241
2966 0 51.1868 12.3469 632 153.918 788.285 551.728
2967 0 54.0978 12.2186 661 159.861 787.531 551.051
2968 0 56.1585 12.6072 708 154.107 787.198 550.528
2969 0 56.185 13.0284 732 155.469 787.238 550.116
2970 0 59.1626 12.7107 752 157.86 787.423 548.573
2971 0 59.1793 12.8761 762 152.831 787.562 548.223
2972 0 61.0966 13.2086 807 161.315 786.55 547.794
2973 0 64.0777 12.8906 826 160.898 787.553 546.995
2974 0 66.0765 12.7125 840 153.642 790.795 545.81
2975 0 67.0907 13.206 886 152.65 788.392 544.764
2976 0 71.2964 13.2124 942 157.846 787.848 544.24
2977 0 72.1257 13.1299 947 156.316 785.876 543.167
2978 0 75.2266 13.3331 1003 153.089 786.201 541.691
2979 0 76.1204 13.3341 1015 157.234 785.672 541.067
2980 0 78.1637 13.4973 1055 156.938 786.328 540.132
2981 0 84.1306 13.2294 1113 154.938 785.415 537.942
2982 0 86.152 13.3137 1147 153.43 785.959 537.17
2983 1 46.1828 11.8226 546 155.588 786.181 556.337
2984 0 48.034 12.2413 588 156.498 786.136 556.056
2985 0 49.0522 12.2319 600 159.21 787.102 555.758
2986 0 49.0522 12.2319 600 158.34 788.102 555.758
2987 0 53.0658 12.4751 662 150.95 787.227 554.381
2988 0 53.0717 13.2085 701 154.24 786.469 553.241
2989 0 55.0526 13.2782 731 150.289 785.534 551.772
2990 0 57.0387 12.9736 740 159.232 786.389 551.293
2991 0 59.0727 12.9163 763 159.029 787.037 551.212
2992 0 60.1611 13.1813 793 155.392 786.871 550.426
2993 0 63.0618 13.3837 844 151.839 787.363 548.52
2994 0 66.0624 13.1694 870 164.014 786.336 548.594
2995 0 67.0661 13.7178 920 163.933 786.914 547.608
2996 0 68.1438 13.5596 924 164.066 785.267 546.682
2997 0 72.0922 13.3024 959 162.882 785.053 546.339
2998 0 76.1133 13.9135 1059 161.981 785.8 545.022
2999 0 79.0741 13.6201 1077 166.926 785.685 543.326
3000 0 80.1338 13.7894 1105 166.624 786.502 542.629
3001 0 80.1732 14.319 1148 167.186 785.916 541.549
3002 0 86.0951 13.5199 1164 167.441 786.619 541.005
3003 0 87.0318 13.811 1202 164.364 785.883 539.71
3004 0 91.2316 13.8 1259 161.148 786.765 537.865
3005 0 94.0696 13.8621 1304 159.676 787.629 536.919
3006 1 49.1565 11.8601 583 157.835 785.883 559.732
3007 0 51.1088 12.2484 626 158.393 787.401 559.147
3008 0 52.0346 12.2803 639 151.336 786.23 559.255
3009 0 53.158 12.8485 683 153.275 786.439 558.233
3010 0 54.1135 12.8434 695 155.561 787.098 557.905
3011 0 56.028 12.815 718 151.749 786.014 556.35
3012 0 58.0718 12.6395 734 148.851 787.995 555.996
3013 0 59.0977 12.7247 752 149.58 787.844 555.789
3014 0 62.1188 12.7981 795 153.634 787.761 555.074
3015 0 63.061 13.0033 820 150.902 786.254 554.2
3016 0 63.1017 13.4386 848 151.3 784.942 553.453
3017 0 68.1058 13.0092 886 145.821 784.641 552.325
3018 0 71.1257 13.1598 936 147.425 785.516 550.422
3019 0 72.0948 13.3019 959 143.634 786.428 549.261
3020 0 76.0988 13.1145 998 140.391 786.705 547.68
3021 0 76.0753 13.4998 1027 147.658 786.892 546.774
3022 0 81.1717 13.1327 1066 148.054 787.13 546.299
3023 0 83.0506 13.3292 1107 147.019 787.087 544.292
3024 0 87.0642 13.1627 1146 143.51 787.781 542.511
3025 0 89.1787 13.1982 1177 141.207 789.206 541.187
3026 1 47.0202 11.527 542 147.079 787.131 561.395
3027 0 49.0356 11.3387 556 150.556 788.66 561.674
3028 0 51.1337 11.7339 600 139.938 787.905 559.735
3029 0 54.0975 12.4035 671 143.826 787.189 558.484
3030 0 55.0779 12.9271 712 142.218 787.428 558.393
3031 0 57.0432 12.8324 732 138.493 786.231 557.384
3032 0 58.1055 12.9076 750 141.739 785.593 555.763
3033 0 61.0737 13.0826 799 134.234 787.377 554.383
3034 0 62.1206 13.1679 818 136.447 787.963 553.183
3035 0 64.0726 12.9853 832 138.819 789.407 552.299
3036 0 67.0527 13.2284 887 137.331 788.152 551.555
3037 0 70.1528 12.8719 903 140.496 787.476 551.124
3038 0 73.2699 13.3616 979 142.579 788.385 549.137
3039 0 73.1242 13.0463 954 146.404 787.867 548.488
3040 0 78.198 12.9159 1010 133.139 787.259 545.894
3041 0 81.4787 12.9727 1057 143.199 787.593 544.164
3042 0 85.2424 13.1273 1119 136.296 788.058 543.999
3043 0 88.0838 13.2828 1170 143.107 786.668 542.781
3044 0 91.1204 13.0267 1187 145.392 787.825 541.937
3045 1 47.2153 10.7804 509 139.204 787.464 564.468
3046 0 48.0816 11.6885 562 156.657 787.646 563.824
3047 0 50.2198 12.0669 606 151.512 786.713 562.937
3048 0 52.0726 12.425 647 149.918 786.277 562.124
3049 0 53.203 12.6873 675 151.717 786.684 561.212
3050 0 56.1423 12.6286 709 152.051 786.135 560.378
3051 0 58.1452 12.8472 747 151.992 786.179 559.032
3052 0 58.0925 13.2203 768 160.638 786.846 558.854
3053 0 60.0571 13.1375 789 158.683 788.124 557.631
3054 0 63.0597 13.4951 851 150.66 786.264 557.123
3055 0 64.1447 12.9707 832 150.9 786.219 556.017
3056 0 66.1403 13.8796 918 157.743 787.513 554.548
3057 0 68.2324 13.0876 893 161.401 787.992 554.45
3058 0 70.1967 13.5904 954 158.407 785.822 551.878
3059 0 74.2879 13.2996 988 158.139 785.925 549.782
3060 0 75.3391 13.6981 1032 153.59 786.463 550.082
3061 0 77.139 13.7025 1057 155.324 787.939 549.799
3062 0 81.2655 13.4497 1093 159.085 786.905 547.758
3063 0 83.1689 13.3824 1113 159.719 787.094 547.627
3064 0 86.4617 13.6824 1183 151.24 785.669 541.637
3065 0 89.159 13.7395 1225 163.554 788.98 544.523
3066 0 92.0941 13.4645 1240 153.214 786.448 543.733
3067 1 96.5644 14.9537 1444 148.695 786.766 533.314
3068 0 97.2779 13.703 1333 163.131 785.671 535.672
3069 0 102.178 13.5841 1388 160.903 787.414 535.653
3070 1 54.0948 12.2563 663 161.281 786.775 554.772
3071 0 55.1086 12.557 692 160.249 787.374 548.61
3072 0 55.0618 13.0036 716 154.295 787.816 542.703
3073 0 58.0617 12.9345 751 159.238 787.748 543.671
3074 0 60.414 12.795 773 154.682 787.455 543.926
3075 0 60.0281 12.9273 776 157.597 786.831 543.476
3076 0 62.2244 13.4674 838 155 786.931 546.632
3077 0 64.1486 13.3596 857 161.48 787.313 548.074
3078 0 65.1665 13.3965 873 159.001 787.73 550.47
3079 0 68.1625 13.5705 925 158.822 787.518 551.041
3080 0 71.2951 13.5914 969 158.105 790.138 549.828
3081 0 74.3429 13.9489 1037 160.637 788.634 548.308
3082 0 75.5051 13.4031 1012 159.751 787.037 547.442
3083 0 77.3474 13.782 1066 161.798 785.782 546.531
3084 0 82.2286 13.5233 1112 159.878 787.379 545.319
3085 0 82.395 13.763 1134 155.364 785.788 544.044
3086 0 87.25 13.5473 1182 159.818 785.934 543.025
3087 0 90.1917 13.6376 1230 163.043 785.063 541.336
3088 0 91.1772 13.9399 1271 146.495 786.884 540.622
3089 0 98.5344 13.3963 1320 153.798 785.565 542.895
3090 1 50.2495 11.7613 591 157.558 786.301 565.195
3091 0 53.1746 12.4307 661 160.188 785.098 565.93
3092 0 55.1018 12.7945 705 159.038 785.557 564.559
3093 0 57.0932 12.8562 734 151.064 786.113 564.271
3094 0 59.0974 12.5217 740 154.173 785.332 563.632
3095 0 59.1076 13.1793 779 160.798 784.875 563.058
3096 0 63.1141 12.9131 815 158.296 784.849 562.05
3097 0 66.0889 12.695 839 155.398 785.077 560.729
3098 0 65.222 13.3237 869 165.583 786.548 559.86
3099 0 68.0641 13.0171 886 160.957 786.271 558.48
3100 0 70.1357 13.4596 944 164.264 785.953 557.659
3101 0 73.0527 13.3465 975 162.297 786.478 556.497
3102 0 77.1066 13.1117 1011 164.303 786.746 554.537
3103 0 80.2187 12.8773 1033 152.508 786.555 553.872
3104 0 83.1379 12.798 1064 162.069 785.839 553.008
3105 0 84.1133 12.9944 1093 160.675 787.734 551.584
3106 0 85.144 13.3421 1136 161.322 787.622 550.804
3107 0 90.1166 12.85 1158 160.98 787.367 549.308
3108 0 94.1798 13.007 1225 163.16 785.622 547.14
3109 1 51.0319 11.8749 606 155.541 785.512 569.467
3110 0 52.024 12.8979 671 152.128 786.927 569.291
3111 0 54.0382 12.5652 679 156.264 787.81 569.258
3112 0 55.0461 12.6803 698 153.613 786.819 568.834
3113 0 56.0747 12.7687 716 155.194 787.825 568.697
3114 0 57.1225 13.2172 755 155.934 785.974 567.397
3115 0 60.0313 13.1098 787 152.236 785.217 567.127
3116 0 60.1203 13.3233 801 153.677 786.328 566.528
3117 0 62.0412 13.0397 809 156.763 786.405 565.707
3118 0 65.1224 13.2213 861 157.727 785.266 565.424
3119 0 66.0678 13.8797 917 155.916 786.274 564.766
3120 0 69.1751 13.3574 924 157.364 786.194 564.066
3121 0 73.1676 13.5442 991 155.171 786.317 562.663
3122 0 74.0771 13.54 1003 158.631 785.22 561.94
3123 0 75.2058 13.6027 1023 160.618 783.705 561.685
3124 0 78.1571 13.7288 1073 150.758 785.221 560.075
3125 0 82.0465 13.6995 1124 163.511 786.202 558.833
3126 0 86.1096 13.4828 1161 162.207 785.551 557.506
3127 0 89.2048 13.654 1218 161.607 784.447 556.874
3128 0 92.1298 13.7415 1266 162.421 784.945 555.014
3129 0 94.1492 13.4892 1270 161.919 783.915 553.051
3130 0 98.1945 13.3103 1307 168.325 783.793 552.248
3131 1 53.0899 12.9403 687 169.09 784.598 573.358
3132 0 55.1212 13.171 726 164.479 784.325 572.992
3133 0 57.0929 13.0314 744 169.255 783.816 571.685
3134 0 60.0851 13.3477 802 166.443 785.362 571.084
3135 0 62.1551 13.4341 835 165.838 784.265 570.219
3136 0 62.1115 13.347 829 162.791 783.543 568.638
3137 0 65.0895 13.5967 885 165.256 783.133 567.773
3138 0 66.0792 13.8319 914 160.274 785.075 566.707
3139 0 70.0474 13.5194 947 162.945 784.378 564.401
3140 0 71.0784 13.8017 981 170.578 784.533 563.634
3141 0 73.0699 13.5213 988 163.364 785.089 562.216
3142 0 73.1746 14.2126 1040 170.554 783.263 561.304
3143 0 76.1841 13.9005 1059 165.654 784.726 560.485
3144 0 81.1135 13.9804 1134 166.925 784.772 559.525
3145 0 82.0787 14.0231 1151 164.52 784.838 558.228
3146 0 84.049 14.1108 1186 168.087 783.669 557.965
3147 0 89.0775 14.0103 1248 168.09 782.997 555.295
3148 0 92.1627 14.0078 1291 166.041 783.976 554.058
3149 0 92.1399 14.3152 1319 171.408 784.29 552.889
3150 0 96.212 14.1458 1361 161.747 785.998 551.041
3151 0 99.1298 14.1431 1402 151.454 783.332 548.991
3152 0 104.11 14.2638 1485 162.832 785.939 547.89
3153 0 106.129 14.1809 1505 158.741 786.145 546.61
3154 0 109.128 14.3868 1570 160.639 786.187 545.573
3155 0 113.166 14.218 1609 160.988 785.446 543.987
3156 0 117.16 14.126 1655 158.568 785.966 542.396
3157 0 119.332 14.2628 1702 156.08 786.89 540.689
3158 0 123.297 13.9988 1726 159.082 787.042 538.239
3159 0 126.13 14.0411 1771 156.265 787.374 536.987
3160 0 130.11 14.3494 1867 157.675 788.579 535.226
3161 0 135.165 14.597 1973 151.454 788.674 533.044
3162 0 140.288 14.0995 1978 155.912 787.199 530.54
3163 0 143.162 14.4661 2071 153.645 785.846 528.739
3164 0 149.199 14.6985 2193 156.775 787.094 524.917
3165 0 155.19 14.4404 2241 155.732 788.312 522.877
3166 0 160.325 14.4207 2312 156.215 787.726 521.057
3167 0 166.2 14.5367 2416 156.324 787.184 517.91
3168 1 88.283 12.5732 1110 156.402 788.195 557.451
3169 0 91.1995 12.8619 1173 157.639 788.341 554.66
3170 0 94.1583 13.1481 1238 147.781 788.008 553.792
3171 0 96.1912 13.3068 1280 155.248 785.873 553.698
3172 0 99.1126 13.3787 1326 153.84 787.897 552.349
3173 0 104.092 13.4976 1405 154.327 786.893 550.164
3174 0 107.132 13.6281 1460 158.743 787.185 548.39
3175 0 110.211 13.5739 1496 150.979 786.523 547.871
3176 0 115.235 13.581 1565 156.373 787.513 545.422
3177 0 117.069 13.7355 1608 156.84 786.234 543.647
3178 0 123.302 13.4385 1657 153.532 785.832 541.607
3179 0 128.417 13.3004 1708 154.7 787.471 539.262
3180 0 132.21 13.6828 1809 164.033 787.827 538.057
3181 1 75.117 11.9281 896 161.604 786.799 567.015
3182 0 78.1436 12.605 985 160.682 787.292 565.713
3183 0 80.1528 12.576 1008 158.891 786.979 564.774
3184 0 82.1466 12.6481 1039 153.333 786.666 563.083
3185 0 84.0665 12.5377 1054 157.664 786.083 561.839
3186 0 85.1726 13.2907 1132 157.533 785.82 561.254
3187 0 90.1364 13.1467 1185 157.41 786.489 558.625
3188 0 92.1084 13.1475 1211 154.892 785.945 557.568
3189 0 96.398 13.1746 1270 153.355 787.585 555.247
3190 0 99.2613 13.0262 1293 156.916 786.574 554.251
3191 0 101.197 13.3008 1346 145.273 786.612 551.958
3192 0 106.329 13.3641 1421 155.896 786.724 549.019
3193 0 108.274 13.6136 1474 151.078 785.491 547.758
3194 0 112.288 13.5455 1521 152.417 785.745 547.06
3195 0 116.264 13.3059 1547 152.312 785.439 545.333
3196 0 119.338 13.533 1615 148.41 783.354 543.419
3197 0 123.197 13.6611 1683 147.72 784.321 541.761
3198 0 125.194 13.3153 1667 154.632 784.795 540.181
3199 0 131.407 13.6598 1795 153.542 784.472 537.517
3200 0 137.192 15.3945 2112 147.77 783.28 534.094
3201 0 142.172 14.8131 2106 158.73 783.888 534.317
3202 0 145.175 14.8372 2154 162.933 781.932 532.353
3203 0 150.222 13.8994 2088 159.571 784.875 531.456
3204 1 81.1164 12.0568 978 158.195 783.91 567.185
3205 0 82.0599 12.9661 1064 156.917 785.317 566.946
3206 0 85.0978 13.1496 1119 159.707 781.77 565.752
3207 0 86.1102 13.2156 1138 156.364 782.723 564.237
3208 0 89.1336 13.0591 1164 153.729 782.833 563.775
3209 0 93.1049 13.2431 1233 159.262 783.584 562.273
3210 0 96.1482 13.24 1273 162.204 783.013 561.295
3211 0 98.2306 13.4072 1317 166.113 783.951 560.894
3212 0 101.214 13.7333 1390 164.482 783.96 558.896
3213 0 102.152 14.126 1443 163.089 784.554 558.096
3214 0 107.118 13.9659 1496 161.702 784.932 555.814
3215 0 109.229 14.2544 1557 167.355 784.217 555.106
3216 0 113.251 14.1633 1604 163.877 783.181 553.541
3217 0 117.231 13.7933 1617 164.803 784.872 552.356
3218 0 120.302 13.807 1661 159.033 785.349 549.255
3219 0 125.291 14.3586 1799 160.858 787.241 548.144
3220 0 130.34 14.1783 1848 168.672 785.446 546.333
3221 0 134.417 13.9566 1876 162.741 786.454 543.275
3222 1 77.1159 12.5785 970 164.234 788.32 572.621
3223 0 80.2777 12.8554 1032 158.246 789.078 570.625
