index division length width area intensity CMx CMy
1384 0 60.3709 12.9864 784 143.075 790.805 471.82
1385 0 60.2872 13.5518 817 145.267 790.683 471.387
1386 0 66.2272 12.8648 852 145.853 791.614 470.02
1387 0 67.232 13.1336 883 143.9 792.621 466.302
1388 0 67.1894 13.4991 907 144.06 790.781 467.369
1389 0 72.3778 13.0703 946 141.649 790.347 467.026
1390 0 72.2159 13.4873 974 140.618 792.369 466.676
1391 0 76.3361 13.3096 1016 137.61 791.496 465.745
1392 0 80.2853 13.1905 1059 140.514 789.314 464.126
1393 0 81.2039 13.4353 1091 140.481 791.079 462.632
1394 0 84.3216 13.4485 1134 135.043 791.92 461.116
1395 0 89.3022 13.0568 1166 136.079 791.742 459.268
1396 1 46.1145 11.6883 539 139.304 792.475 477.458
1397 0 48.0908 12.3724 595 135.168 791.966 477.05
1398 0 50.1527 12.2426 614 138.226 792.099 478.375
1399 0 50.1194 12.5899 631 136.464 792.028 475.442
1400 0 53.1141 12.2755 652 138.649 791.256 474.676
1401 0 54.1604 12.6661 686 135.015 791.896 473.267
1402 0 54.0768 13.3884 724 92.9807 793.046 471.641
1403 0 58.1894 12.7858 744 139.629 791.005 470.027
1404 0 59.1645 13.0484 772 135.141 790.33 468.115
1405 0 59.1645 13.0484 772 166.79 789.33 468.115
1406 0 63.1525 13.1111 828 136.027 792.458 464.301
1407 0 64.0706 13.3134 853 132.834 791.538 458.189
1408 0 66.0895 13.5422 895 110.244 792.835 455.293
1409 0 68.0432 13.2563 902 124.558 790.052 453.882
1410 0 68.2058 13.8405 944 137.661 789.638 452.628
1411 0 70.1053 13.3941 939 137.235 790.169 454.363
1412 0 74.1467 13.5947 1008 137.773 790.06 453.727
1413 0 75.1178 14.1378 1062 127.368 790.538 450.712
1414 0 79.154 13.6696 1082 134.647 790.452 450.739
1415 0 83.1368 14.0491 1168 132.229 791.585 450.813
1416 0 85.1599 13.962 1189 141.783 791.079 446.54
1417 0 88.256 13.8574 1223 139.263 790.608 447.36
1418 0 88.1086 14.5956 1286 129.966 790.869 444.157
1419 0 94.1486 13.9036 1309 135.751 789.238 444.537
1420 0 96.1687 14.2354 1369 137.562 790.171 442.125
1421 0 99.2374 14.027 1392 134.096 790.316 440.573
1422 1 53.1273 12.2724 652 142.261 790.081 465.514
1423 0 55.0997 12.8131 706 143.773 790.22 463.56
1424 0 56.107 13.1713 739 139.46 792.817 462.963
1425 0 58.1442 13.1398 764 143.865 792.554 464.097
1426 0 59.1506 13.0345 771 146.676 790.624 465.943
1427 0 61.1089 13.2059 807 145.699 792.558 462.42
1428 0 63.1489 13.3494 843 142.785 790.661 461.783
1429 0 63.1609 13.331 842 156.205 791.989 461.939
1430 0 65.1245 13.8811 904 153.201 791.959 461.011
1431 0 68.0908 13.9373 949 151.339 792.666 460.103
1432 0 69.1512 13.8971 961 156.166 791.12 460.501
1433 0 71.236 14.0378 1000 154.439 790.809 458.149
1434 0 76.2026 13.7528 1048 153.104 792.257 457.052
1435 0 79.0866 13.4157 1061 157.265 791.443 457.765
1436 0 80.1755 13.8322 1109 160.255 791.787 456.683
1437 0 84.1429 13.8693 1167 153.941 791.523 456.218
1438 0 87.1407 14.5053 1264 147.654 790.739 454.748
1439 0 89.217 14.1341 1261 148.9 791.442 451.748
1440 0 92.2124 13.5882 1253 148.786 792.101 450.388
1441 0 94.1652 14.294 1346 147.383 792.273 448.988
1442 0 99.1677 13.7545 1364 148.975 793.073 445.518
1443 0 103.186 13.9069 1435 143.124 791.805 442.407
1444 1 42.1219 11.0394 465 139.794 792.114 474.234
1445 0 43.0549 11.7989 508 135.305 792.085 475.813
1446 0 45.0237 11.9048 536 139.573 792.871 476.489
1447 0 45.0585 12.1176 546 137.998 792.976 476.72
1448 0 46.0403 12.0329 554 133.182 791.57 476.875
1449 0 47.0675 12.4077 584 138.202 792.774 476.877
1450 0 50.0675 12.0238 602 136.38 791.209 477.264
1451 0 50.0238 12.3141 616 137.69 791.93 477.093
1452 0 50.0394 12.5501 628 137.613 792.301 475.543
1453 0 53.0564 12.383 657 140.665 791.693 475.589
1454 0 54.0216 12.8097 692 128.526 792.048 474.471
1455 0 56.0477 12.7213 713 140.805 792.015 472.935
1456 0 57.1269 12.9886 742 137.458 792.744 471.375
1457 0 60.1761 12.8456 773 133.975 792.001 471.224
1458 0 63.2203 13.0812 827 137.711 792.612 470.138
1459 0 63.1686 13.4561 850 137.825 789.505 470.222
1460 0 66.1398 13.5924 899 138.948 791.648 469.148
1461 0 67.1934 13.4091 901 137.902 792.158 468.065
1462 0 69.1808 13.3563 924 139.308 791.131 467.449
1463 0 72.1757 13.4948 974 138.618 792.882 465.978
1464 0 75.25 13.4485 1012 139.359 792.939 464.749
1465 0 77.0838 13.7772 1062 138.911 793.334 464.46
1466 0 80.2018 13.7154 1100 142.274 793.063 462.286
1467 0 83.1036 13.9464 1159 139.577 792.361 459.6
1468 0 87.2394 13.5489 1182 144.448 790.331 459.885
1469 0 89.2872 13.7534 1228 141.892 791.06 457.749
1470 1 47.1145 12.7774 602 136.048 793.342 478.071
1471 0 48.1492 12.2536 590 140.424 792.58 476.763
1472 0 50.1517 12.7613 640 142.756 792.506 473.094
1473 0 51.229 12.9029 661 141.469 792.318 473.575
1474 0 52.1605 13.1134 684 139.037 793.757 472.977
1475 0 53.1273 13.3453 709 147.735 792.759 472.35
1476 0 56.1834 12.9754 729 148.582 791.41 472.288
1477 0 58.1662 13.4098 780 141.549 792.465 471.806
1478 0 60.164 13.3635 804 145.813 792.647 470.439
1479 0 62.1406 13.0189 809 153.135 793.581 470.161
1480 0 64.1822 13.82 887 146.413 792.818 467.764
1481 0 66.1832 13.931 922 150.188 791.383 468.044
1482 0 66.3512 14.1972 942 143.264 793.234 466.525
1483 0 68.2029 14.1343 964 148.22 794.234 466.117
1484 0 72.2089 14.2503 1029 141.351 792.633 465.45
1485 0 74.1256 14.2866 1059 150.887 790.735 464.396
1486 0 73.272 14.8488 1088 147.874 792.892 464.371
1487 0 79.3178 14.2843 1133 148.658 791.712 463.793
1488 0 80.1278 14.2023 1138 149.738 792.078 462.082
1489 0 83.1842 14.7143 1224 146.257 791.827 460.443
1490 0 86.1959 14.293 1232 147.581 791.314 460.293
1491 0 90.1731 14.206 1281 154.053 791.781 457.038
1492 0 92.2341 14.2789 1317 156.706 791.2 455.985
1493 0 95.1647 14.2805 1359 153.16 791.383 455.235
1494 0 100.245 13.9958 1403 153.157 791.748 452.469
1495 1 59.1467 13.103 775 143.916 794.468 473.991
1496 0 59.1407 13.2903 786 153.975 793.136 473.472
1497 0 60.2014 13.322 802 154.479 791.717 472.637
1498 0 63.1662 13.2191 835 151.244 791.704 472.259
1499 0 65.164 13.1361 856 149.978 790.461 471.759
1500 0 65.1927 13.4217 875 152.91 790.714 470.987
1501 0 67.1946 13.5725 912 148.294 790.363 469.895
1502 0 71.1651 13.4757 959 149.343 789.271 468.364
1503 0 72.0896 13.3306 961 157.04 790.943 468.103
1504 0 72.1317 13.7388 991 141.864 791.312 467.31
1505 0 76.0966 13.8771 1056 144.953 791.534 465.783
1506 0 77.194 14.0425 1084 148.258 791.943 465.483
1507 0 79.2151 14.2523 1129 147.912 793.031 464.617
1508 0 84.1167 13.8617 1166 149.117 793.033 463.619
1509 0 84.1733 14.3751 1210 152.777 792.505 462.552
1510 0 88.1122 13.5623 1195 150.419 791.865 459.847
1511 0 91.2748 14.0236 1280 142.702 792.013 459.142
1512 0 96.1289 13.6171 1309 149.267 790.588 457.392
1513 0 99.1618 13.9671 1385 90.9061 792.068 454.456
1514 0 99.1618 13.9671 1385 160.503 793.068 454.456
1515 0 106.216 13.6044 1445 136.9 791.108 450.693
1516 1 57.2129 12.6195 722 131.828 792.234 473.391
1517 0 61.1932 12.3707 757 132.72 792.062 472.925
1518 0 63.2629 12.5666 795 129.951 791.231 472.418
1519 0 65.0898 12.5212 815 130.329 791.951 471.717
1520 0 66.1452 12.6691 838 133.121 792.07 471.504
1521 0 68.2754 13.1233 896 133.956 792.041 470.422
1522 0 70.2582 12.8668 904 135.623 790.81 470.263
1523 0 73.126 13.3195 974 134.739 793.134 468.301
1524 0 76.1537 12.8687 980 133.817 792.866 467.952
1525 0 77.1424 12.989 1002 132.883 791.276 466.625
1526 0 81.1822 13.2788 1078 134.939 790.617 465.279
1527 0 83.1787 12.936 1076 138.958 790.972 464.068
1528 0 85.2034 13.4032 1142 138.118 791.75 462.967
1529 1 44.1408 11.5766 511 140.321 793.528 482.761
1530 0 45.2795 11.8155 535 138.85 791.92 482.602
1531 0 49.1887 11.8726 584 137.231 791.488 481.339
1532 0 50.1428 11.906 597 134.558 791.032 480.75
1533 0 51.1299 12.126 620 134.903 792.079 480.355
1534 0 53.1336 12.685 674 139.828 792.033 479.372
1535 0 54.1297 12.9688 702 134.235 792.318 478.509
1536 0 57.1205 12.8325 733 136.955 792.613 476.411
1537 0 58.0431 13.0076 755 134.167 792.024 475.804
1538 0 59.1619 13.0827 774 137.151 792.15 475.459
1539 0 62.1062 12.8329 797 137.419 793.832 474.698
1540 0 62.2034 13.3755 832 140.219 791.56 474.405
1541 0 64.0911 13.0907 839 139.194 792.238 472.193
1542 0 67.1323 12.9744 871 140.392 791.802 471.421
1543 0 67.0819 13.4761 904 141.375 792.477 468.925
1544 0 70.128 13.5467 950 142.08 791.199 468.532
1545 0 74.1137 13.2634 983 141.409 792.7 467.2
1546 0 75.1043 13.8075 1037 140.984 790.48 465.349
1547 0 77.1248 13.6402 1052 136.986 789.65 464.237
1548 0 79.1219 13.7383 1087 141.462 789.832 462.018
1549 0 82.1499 13.731 1128 146.418 791.382 461.925
1550 0 85.0832 13.669 1163 141.461 790.709 461.275
1551 0 88.1797 13.8467 1221 146.399 792.245 459.6
1552 0 91.0957 13.9414 1270 149.008 791.768 457.583
1553 0 96.1425 13.9272 1339 139.105 791.738 454.886
1554 0 98.2198 14.0399 1379 140.571 792.777 451.777
1555 1 52.0812 12.5573 654 142.049 791.225 475.864
1556 0 54.1298 12.5439 679 143.362 791.389 473.67
1557 0 55.1184 12.5911 694 139.11 790.092 473.486
1558 0 56.1734 13.3515 750 136.965 791.148 471.483
1559 0 58.1592 13.0848 761 138.586 791.432 472.507
1560 0 59.2291 12.7978 758 141.33 789.951 471.318
1561 0 62.1452 13.1305 816 145.605 790.966 471.04
1562 0 64.183 13.072 839 141.759 789.771 468.834
1563 0 64.1907 13.4443 863 138.264 792.102 470.053
1564 0 68.1255 13.299 906 140.465 791.493 469.808
1565 0 70.1898 13.663 959 133.676 791.566 468.903
1566 0 72.1767 13.5224 976 134.972 792.102 466.818
1567 0 76.1752 13.3377 1016 139.341 790.904 465.891
1568 0 78.1609 13.5746 1061 139.107 791.591 466.18
1569 0 81.2652 13.4006 1089 140.259 792.297 464.293
1570 0 83.1962 13.5343 1126 144.106 791.229 463.234
1571 0 86.2917 13.5587 1170 140.455 790.322 459.579
1572 0 88.155 13.7258 1210 141.684 789.774 459.209
1573 0 93.297 13.2373 1235 145.194 791.074 458.677
1574 0 94.1849 13.7177 1292 143.153 789.724 457.104
1575 0 99.1772 13.5717 1346 140.672 790.452 455.45
1576 1 56.1921 12.2437 688 140.69 791.417 476.512
1577 0 56.1158 12.4207 697 142.327 791.603 475.815
1578 0 59.1497 13.1362 777 142.817 792.221 474.74
1579 0 60.1339 12.8713 774 140.143 793.382 474.451
1580 0 62.1097 12.9448 804 138.84 792.725 473.106
1581 0 63.1428 13.1131 828 143.438 792.771 472.569
1582 0 65.1264 13.2358 862 128.258 793.553 471.459
1583 0 68.2101 13.0479 890 141.471 792.866 470.248
1584 0 70.3528 13.0912 921 142.486 791.533 468.947
1585 0 72.2122 13.0864 945 140.957 791.503 468.497
1586 0 76.2801 13.1096 1000 143.246 791.804 467.222
1587 0 77.246 13.3211 1029 117.591 790.212 465.343
1588 0 82.464 13.2421 1092 131.768 788.041 464.595
1589 0 84.3506 13.3846 1129 141.702 790.176 462.089
1590 0 88.4974 12.9721 1148 141.228 790.301 460.224
1591 1 45.3304 10.9639 497 132.561 790.831 480.974
1592 0 48.2558 11.4805 554 141.419 792.838 480.04
1593 0 51.2067 11.893 609 140.289 792.112 478.333
1594 0 52.1944 12.2427 639 142.252 791.506 478.72
1595 0 52.2191 12.5816 657 142.9 791.367 477.215
1596 0 53.1536 12.8872 685 138.677 792.012 476.512
1597 0 55.1609 13.2703 732 142.858 792.395 474.926
1598 0 57.391 12.9114 741 143.402 792.769 474.47
1599 0 60.2264 12.8183 772 144.376 792.082 473.675
1600 0 60.1055 13.5428 814 139.733 792.461 471.103
1601 0 62.2482 13.398 834 141.155 792.085 469.861
1602 0 64.1279 13.5978 872 139.071 792.474 469.54
1603 0 65.2607 14.2199 928 141.871 790.754 468.31
1604 0 67.2822 14.0602 946 142.152 790.169 467.124
1605 0 69.2435 13.9074 963 144.524 790.539 467.037
1606 0 73.2967 13.7387 1007 149.734 792.561 467.25
1607 0 74.2025 14.0292 1041 148.109 792.321 466.709
1608 0 76.2295 14.089 1074 140.754 792.081 465.598
1609 0 79.2578 14.2446 1129 146.209 791.282 464.694
1610 0 81.203 14.4206 1171 145.477 791.424 463.398
1611 0 83.2778 14.4696 1205 148.378 792.863 461.985
1612 0 87.3419 14.7352 1287 145.342 792.257 460.636
1613 0 90.2655 14.413 1301 145.453 792.52 459.098
1614 0 93.2264 14.8134 1381 152.619 790.477 456.818
1615 0 95.1292 14.5697 1386 147.341 791.127 456.369
1616 0 99.2257 14.5527 1444 147.445 791.853 454.267
1617 0 103.205 14.4664 1493 146.388 792.077 452.677
1618 1 56.0714 12.5019 701 147.101 791.245 475.563
1619 0 58.1953 12.7674 743 149.48 791.306 474.493
1620 0 60.1635 12.4494 749 148.708 790.861 474.413
1621 0 60.1706 12.9133 777 147.293 791.088 474.142
1622 0 62.2084 12.9082 803 147.2 792.112 473.757
1623 0 64.2385 13.2164 849 143.197 792.179 472.749
1624 0 67.1392 13.122 881 143.984 792.44 471.751
1625 0 69.1439 13.1465 909 149.733 791.681 470.729
1626 0 71.1682 13.4189 955 151.202 792.262 470.053
1627 0 72.1716 13.5372 977 153.271 790.449 468.538
1628 0 74.2915 13.5682 1008 153.093 790.763 467.417
1629 0 78.1954 13.4151 1049 155.404 790.943 466.414
1630 0 80.1042 13.5948 1089 152.618 791.084 465.122
1631 0 83.2296 13.697 1140 154.455 792.562 464.444
1632 0 86.2347 13.8923 1198 159.716 791.955 463.264
1633 0 88.2509 13.7789 1216 160.396 793.091 462.259
1634 0 90.3218 14.1605 1279 159.206 792.448 460.858
1635 0 94.2565 14.0043 1320 158.331 791.608 459.989
1636 0 97.2443 13.9134 1353 160.189 790.705 459.159
1637 0 98.2669 13.8806 1364 166.269 793.342 457.826
1638 0 102.256 13.6716 1398 160.137 792.489 456.679
1639 0 104.37 14.0558 1467 153.001 792.355 454.926
1640 0 108.195 14.1411 1530 157.434 794.416 453.177
1641 0 113.198 14.0815 1594 158.027 794.235 451.947
1642 0 116.29 13.7587 1600 160.181 793.548 450.384
1643 1 65.1156 12.0708 786 149.361 793.388 476.888
1644 0 66.2378 12.2589 812 150.011 793.977 476.623
1645 0 67.1877 12.3534 830 150.195 793.678 476.065
1646 0 69.1923 12.6459 875 149.817 792.616 475.201
1647 0 71.1101 12.8955 917 148.948 793.297 473.682
1648 0 75.1357 12.91 970 146.29 793.214 472.019
1649 0 77.2555 12.4651 963 143.362 793.567 471.392
1650 0 78.2312 12.8977 1009 15.0624 793.542 469.93
1651 0 82.152 12.7934 1051 146.085 794.088 469.178
1652 0 84.2668 12.674 1068 142.712 794.301 467.783
1653 0 87.3877 12.8622 1124 140.728 793.391 466.099
1654 0 89.3891 13.156 1176 140.679 793.225 464.364
1655 0 92.316 13.2263 1221 141.764 791.888 463.353
1656 0 93.3942 13.1914 1232 135.699 792.239 462.057
1657 0 97.3225 13.07 1272 137.415 792.094 461.076
1658 0 100.26 13.4351 1347 136.049 792.142 459.472
1659 0 103.215 12.9535 1337 141.008 794.278 457.95
1660 0 105.334 13.3765 1409 134.158 794.313 457.102
1661 0 107.428 13.5811 1459 141.233 794.874 455.091
1662 0 112.446 13.3931 1506 128.117 795.214 453.228
1663 0 116.362 13.183 1534 138.012 792.873 451.748
1664 0 119.366 13.8565 1654 135.675 792.889 450.158
1665 0 123.382 13.7135 1692 134.594 790.958 447.606
1666 0 126.264 13.9787 1765 136.006 794.019 445.008
1667 1 68.1594 12.4121 846 132.203 793.928 475.248
1668 0 70.1863 12.652 888 134.297 793.878 473.472
1669 0 74.3479 12.4012 922 132.787 793.108 472.954
1670 0 76.3808 12.4901 954 137.413 792.784 471.547
1671 0 79.1983 12.5255 992 133.114 792.948 469.663
1672 0 79.2087 12.8774 1020 137.564 793.406 469.73
1673 0 82.2115 12.8692 1058 129.564 792.811 467.84
1674 0 86.5124 12.7496 1103 139.351 793.755 465.849
1675 0 90.4931 12.8629 1164 131.437 794.119 464.016
1676 0 94.4577 12.8629 1215 134.393 791.183 462.731
1677 0 97.499 12.8309 1251 135.32 791.097 460.965
1678 0 100.554 13.0577 1313 138.467 791.89 459.934
1679 1 52.4587 12.0857 634 132.713 789.317 482.729
1680 0 55.2169 12.4419 687 135.295 792.001 480.639
1681 0 58.3217 12.0367 702 135.813 790.383 479.494
1682 0 60.1846 12.4949 752 125.666 790.739 479.125
1683 0 61.2778 12.7126 779 126.248 790.642 477.741
1684 0 63.1986 12.5952 796 127.648 791.685 477.593
1685 0 65.1963 12.8995 841 129.941 792.59 476.898
1686 0 68.1359 12.798 872 129.228 791.456 475.155
1687 0 69.2281 13.0438 903 128.591 791.049 474.513
1688 0 70.3362 13.0942 921 129.334 791.894 473.609
1689 0 71.1911 13.541 964 134.624 790.325 472.796
1690 0 71.1911 13.541 964 163.754 789.325 472.796
1691 0 78.2788 13.2603 1038 128.83 790.257 468.447
1692 0 81.3685 13.2607 1079 132.874 790.233 465.695
1693 0 84.3076 13.4507 1134 134.804 789.481 461.174
1694 0 85.3795 13.481 1151 136.103 788.205 460.272
1695 0 90.6742 13.4437 1219 133.359 789.164 458.756
1696 0 94.3836 13.5829 1282 130.797 790.018 456.678
1697 1 49.3266 12.2652 605 134.101 789.033 478.744
1698 0 51.2914 12.7507 654 134.966 789.717 474.656
1699 0 53.18 12.6739 674 129.666 790.902 474.116
1700 0 54.1187 12.6389 684 136.836 788.25 474.89
1701 0 55.1246 13.279 732 140.925 788.064 473.964
1702 0 56.0906 13.4247 753 137.629 789.606 473.017
1703 0 58.2592 13.6631 796 140.585 786.928 471.706
1704 0 57.2245 14.1373 809 134.372 788.016 472.494
1705 0 61.2014 13.8395 847 139.566 788.059 472.196
1706 0 63.1906 13.9736 883 142.545 787.65 470.29
1707 0 65.2266 13.9054 907 140.799 789.352 468.097
1708 0 68.3789 13.9517 954 144.978 788.05 467.948
1709 0 68.1301 14.032 956 143.345 788.457 467.292
1710 0 70.1927 14.2323 999 142.628 789.332 467.657
1711 0 70.4445 14.2665 1005 147.03 788.317 467.274
1712 0 74.2708 14.4202 1071 149.568 789.441 467.12
1713 0 74.3503 14.9428 1111 152.05 789.162 466.897
1714 0 78.2736 14.4493 1131 152.842 789.708 466.365
1715 0 81.2245 14.5769 1184 151.033 788.556 464.971
1716 0 85.2516 14.4748 1234 147.485 789.66 464.079
1717 0 87.1998 14.5413 1268 150.094 787.032 461.818
1718 0 91.197 14.4851 1321 152.158 787.923 460.612
1719 0 93.2215 14.4173 1344 147.668 789.73 459.156
1720 0 96.2584 14.5961 1405 152.279 789.646 457.873
1721 0 98.3462 14.815 1457 154.249 789.5 456.926
1722 1 52.1021 12.3987 646 147.396 790.726 481.136
1723 0 52.1026 13.5118 704 151.76 789.628 479.797
1724 0 55.098 13.1584 725 148.966 790.43 479.366
1725 0 58.0995 13.3908 778 141.735 789.645 478.596
1726 0 59.1192 13.0245 770 152.366 789.255 478.46
1727 0 59.2275 13.6085 806 146.944 790.433 477.115
1728 0 62.1924 13.2653 825 150.875 791.201 476.834
1729 0 63.1727 13.661 863 153.065 789.538 475.822
1730 0 1 2 2 87.5 801 470.5
1731 0 68.1402 13.9565 951 148.666 788.082 474.412
1732 0 71.18 13.8101 983 153.275 788.723 473.947
1733 0 73.1695 13.6396 998 151.818 786.506 472.438
1734 0 75.1422 13.7473 1033 151.653 788.589 470.66
1735 0 77.2381 13.9051 1074 154.875 787.266 469.388
1736 0 79.2582 14.3455 1137 153.968 789.855 468.014
1737 0 84.2772 13.9421 1175 148.41 787.992 465.909
1738 0 86.1829 14.0747 1213 154.452 789.904 464.69
1739 0 91.3549 13.9566 1275 150.281 788.662 462.201
1740 0 94.1761 13.9951 1318 142.575 791.888 460.237
1741 0 96.3243 14.5446 1401 144.735 787.37 459.109
1742 0 100.24 14.2458 1428 157.704 788.345 457.813
1743 1 57.1944 13.2181 756 152.439 788.835 478.995
1744 0 56.236 13.2122 743 150.875 790.808 478.42
1745 0 58.0913 13.5821 789 159.272 789.248 477.49
1746 0 60.2386 13.4299 809 154.576 788.572 476.466
1747 0 64.137 13.1126 841 153.562 788.631 475.801
1748 0 65.1828 13.5619 884 150.48 787.554 475.088
1749 0 68.2272 13.4697 919 152.953 787.496 473.19
1750 0 69.117 13.5712 938 145.3 787.091 472.104
1751 0 71.189 13.6398 971 156.282 786.253 471.357
1752 0 74.1114 13.7091 1016 158.306 787.028 471.196
1753 0 75.1314 13.9622 1049 154.81 787.198 469.384
1754 0 79.1281 13.9394 1103 151.301 787.912 468.578
1755 0 82.1484 13.6704 1123 158.542 787.938 467.453
1756 0 84.1053 13.8992 1169 158.415 787.987 465.642
1757 0 87.1405 14.0004 1220 155.239 785.577 464.316
1758 0 91.1307 14.0787 1283 99.0327 786.231 462.419
1759 0 92.2144 14.2494 1314 155.377 786.421 460.899
1760 0 97.1628 13.9457 1355 150.638 788.976 459.756
1761 0 99.1254 14.1235 1400 146.501 786.579 457.966
1762 0 103.145 14.4263 1488 148.065 786.606 455.784
1763 0 105.156 14.3026 1504 150.945 785.832 454.208
1764 0 110.189 14.575 1606 154.984 785.352 452.692
1765 0 114.162 14.3919 1643 154.262 786.494 448.064
1766 0 117.117 14.5751 1707 143.322 785.175 446.876
1767 0 120.18 14.6946 1766 151.258 786.977 445.151
1768 0 120.18 14.6946 1766 169.41 788.977 445.151
1769 1 68.0867 12.6016 858 155.323 788.449 472.531
1770 0 70.0904 13.3684 937 150.782 786.388 470.635
1771 0 72.1068 13.5077 974 151.472 786.069 470.725
1772 0 75.1192 13.2456 995 154.13 787.296 469.476
1773 0 77.2149 13.5596 1047 159.021 786.521 468.272
1774 0 79.2248 13.5816 1076 158.397 788.037 467.004
1775 0 82.2828 14.0613 1157 151.188 785.779 465.56
1776 0 85.3853 14.1008 1204 154.265 787.814 463.089
1777 0 90.2567 13.938 1258 151.719 787.903 460.916
1778 0 91.4048 13.9489 1275 155.525 788.784 460.846
1779 0 96.204 14.2406 1370 157.018 787.399 457.972
1780 0 97.4145 14.2587 1389 156.734 788.212 457.12
1781 0 102.427 13.9222 1426 152.773 786.853 455.294
1782 0 106.344 13.8136 1469 151.434 786.693 453.725
1783 0 109.368 13.8615 1516 154.859 787.728 451.125
1784 1 61.1447 12.2333 748 147.594 787.866 475.155
1785 0 61.1108 12.9273 790 148.348 788.396 472.132
1786 0 64.1027 13.4316 861 142.028 788.007 472.294
1787 0 66.1121 13.0082 860 149.856 788.39 471.744
1788 0 68.0885 12.939 881 148.168 790.98 467.79
1789 0 70.1192 13.3487 936 139.941 789.348 466.819
1790 0 73.2144 13.4536 985 140.473 788.711 465.443
1791 0 75.0811 13.2124 992 147.492 789.344 463.764
1792 0 76.2016 13.6218 1038 150.671 790.029 460.802
1793 0 80.1144 13.4183 1075 151.997 790.931 457.918
1794 0 82.2789 14.0619 1157 142.899 791.526 454.73
1795 0 84.2741 13.5036 1138 148.372 791.383 453.915
1796 0 86.145 13.9648 1203 147.637 790.097 451.156
1797 0 91.4639 13.7978 1262 148.574 788.663 450.364
1798 0 93.211 14.2473 1328 146.611 789.868 449.843
1799 0 95.3935 14.3196 1366 154.156 789.88 449.95
1800 0 99.235 13.9165 1381 145.671 790.224 451.332
1801 0 104.196 14.0312 1462 150.981 789.78 449.687
1802 0 106.357 13.9906 1488 154.347 789.516 448.526
1803 0 106.357 13.9906 1488 167.001 788.516 448.526
1804 1 57.1437 11.8123 675 155.157 789.403 473.188
1805 0 56.0401 12.6338 708 153.744 791.181 472.275
1806 0 60.1459 12.6526 761 154.867 792.042 471.855
1807 0 60.0442 12.7073 763 154.936 792.718 470.488
1808 0 63.1679 12.6805 801 154.176 791.462 468.629
1809 0 65.1208 12.7763 832 153.239 788.887 467.725
1810 0 66.271 13.1279 870 150.723 788.314 464.722
1811 0 69.2387 12.7674 884 152.351 789.184 463.99
1812 0 69.2512 13.4727 933 152.889 788.971 463.373
1813 0 73.3801 12.9735 952 153.981 789.017 462.693
1814 0 75.4133 13.4459 1014 145.345 790.212 461.507
1815 0 76.2952 13.3822 1021 157.881 788.88 461.103
1816 0 79.1931 13.7512 1089 162.578 790.179 460.1
1817 0 82.2798 13.7093 1128 160.151 788.846 459.29
1818 0 83.2166 13.8434 1152 159.714 788.842 458.037
1819 0 86.3667 13.7669 1189 156.62 789.188 457.393
1820 0 91.2938 13.8345 1263 159.444 790.12 455.652
1821 0 95.2503 13.5958 1295 159.494 790.246 453.672
1822 0 96.219 13.9473 1342 157.193 789.726 451.519
1823 1 51.2202 11.9679 613 159.666 787.467 473.799
1824 0 52.3644 12.7949 670 159.34 787.604 473.149
1825 0 54.211 12.7649 692 162.087 788.647 473.936
1826 0 56.2461 13.0142 732 163.852 788.303 474.148
1827 0 57.1815 12.9063 738 164.262 787.715 472.627
1828 0 59.1726 13.1142 776 161.03 788.443 470.637
1829 0 61.0956 13.1597 804 157.736 789.071 469.79
1830 0 62.123 13.425 834 159.947 790.671 468.775
1831 0 64.3665 13.5319 871 157.278 790.44 467.875
1832 0 66.3775 13.7697 914 159.319 792.154 467.254
1833 0 69.3802 13.7215 952 149.691 790.128 465.494
1834 0 70.5326 14.1637 999 159.349 790.61 464.872
1835 0 72.3138 13.7042 991 155.606 789.153 464.304
1836 0 75.5444 13.7006 1035 156.904 787.778 463.65
1837 0 77.4057 13.9654 1081 153.559 787.923 462.67
1838 0 81.4985 13.7303 1119 158.906 787.949 463.27
1839 0 83.3794 13.9603 1164 158.937 787.685 461.532
1840 0 84.5855 13.9504 1180 162.174 789.645 460.579
1841 0 89.3966 14.2847 1277 150.967 789.7 458.155
1842 0 92.3757 14.0621 1299 159.195 790.88 457.131
1843 0 94.3557 14.0744 1328 158.61 790.345 456.497
1844 1 50.3732 12.0898 609 149.849 790.608 480.343
1845 0 51.1097 13.0112 665 151.55 791.785 480.43
1846 0 51.0888 13.4472 687 149.194 791.148 480.918
1847 0 55.1968 12.8087 707 148.403 791.233 481.215
1848 0 54.2274 13.3143 722 145.756 791.299 480.298
1849 0 57.1435 12.8974 737 153.608 789.389 479.104
1850 0 58.2902 13.1583 767 153.623 791.441 479.094
1851 0 59.1954 13.2781 786 152.363 790.242 478.503
1852 0 62.2251 13.0494 812 152.479 789.372 478.012
1853 0 62.2822 13.6957 853 151.057 788.996 476.399
1854 0 65.2732 13.1907 861 153.467 789.369 476.533
1855 0 67.4821 13.248 894 150.306 788.954 475.14
1856 0 69.287 13.4946 935 148.114 789.629 474.109
1857 0 71.2175 13.8309 985 150.083 788.76 473.042
1858 0 73.3852 13.3951 983 153.53 790.414 472.756
1859 0 74.4573 14.1155 1051 155.443 789.59 471.436
1860 0 79.154 13.758 1089 151.651 787.942 469.298
1861 0 82.1674 14.0323 1153 143.476 789.865 467.755
1862 0 84.2169 13.9877 1178 151.884 790.261 465.739
1863 0 88.184 13.7667 1214 143.983 790.028 463.638
1864 1 49.2423 11.9409 588 145.245 791.08 484.293
1865 0 49.1482 12.3097 605 143.891 791.003 483.383
1866 0 51.1905 12.1116 620 147.452 790.177 482.997
1867 0 52.1496 12.234 638 145.32 790.246 482.418
1868 0 55.1953 12.6098 696 146.326 790.77 481.24
1869 0 56.0743 12.6974 712 142.736 790.327 480.605
1870 0 56.191 12.7778 718 143.085 791.004 480.096
1871 0 58.2291 13.1034 763 146.126 792.178 478.944
1872 0 58.2291 13.1034 763 157.375 794.178 478.944
1873 0 63.2699 13.2607 839 143.008 790.282 477.098
1874 0 63.2166 13.4616 851 139.674 792.26 476.764
1875 0 66.3624 13.1701 874 145.114 790.1 474.492
1876 0 68.4593 13.6724 936 139.184 790.881 473.856
1877 0 71.3111 13.5743 968 141.413 789.998 472.304
1878 0 73.4609 13.354 981 141.254 790.249 471.932
1879 0 76.3379 13.5712 1036 145.251 793.076 470.294
1880 0 80.3664 13.4509 1081 141.916 792.519 468.762
1881 0 82.4862 14.0266 1157 137.537 789.755 466.697
1882 0 84.5025 13.5381 1144 141.943 792.158 465.959
1883 0 86.3562 13.8844 1199 147.702 792.149 463.899
1884 0 89.2725 14.2709 1274 142.838 790.127 462.857
1885 1 50.2205 11.8079 593 141.644 791.543 482.59
1886 0 53.1313 12.0833 642 147.587 791.925 481.41
1887 0 55.0909 12.4521 686 141.34 791.032 480.474
1888 0 56.3442 12.3349 695 145.604 790.848 479.078
1889 0 57.3352 12.6101 723 140.567 791.03 478.432
1890 0 57.2389 12.806 733 146.132 791.662 477.63
1891 0 61.2411 13.1938 808 143.447 789.984 476.569
1892 0 63.2254 13.3649 845 138.569 790.125 475.399
1893 0 64.2654 13.2108 849 140.55 790.201 474.772
1894 0 67.2049 13.1538 884 142.076 790.372 473.664
1895 0 69.1689 13.3152 921 146.556 791.673 472.869
1896 0 71.1813 13.2338 942 144.58 791.164 471.41
1897 0 74.1973 13.235 982 140.312 792.247 470.381
1898 0 78.2565 13.2896 1040 144.056 790.888 468.658
1899 0 78.1797 13.7248 1073 138.921 789.834 467.173
1900 0 83.309 13.612 1134 141.592 790.851 465.548
1901 0 83.309 13.612 1134 172.258 791.851 465.548
1902 0 88.152 13.7149 1209 140.734 790.503 462.847
1903 0 91.3186 13.7321 1254 145.519 790.58 461.439
1904 0 95.232 13.5459 1290 147.107 790.632 459.517
1905 1 52.2464 11.8477 619 150.418 791.312 481.045
1906 0 51.2338 12.9407 663 137.51 791.43 479.695
1907 0 53.3064 12.0811 644 139.826 790.214 479.778
1908 0 54.295 12.7636 693 140.16 791.641 478.475
1909 0 56.171 12.7112 714 139.284 790.985 477.672
1910 0 58.3131 12.33 719 130.854 792.312 476.677
1911 0 60.2623 12.7775 770 141.99 791.234 475.879
1912 0 60.2458 13.5113 814 140.317 790.842 475.846
1913 0 63.1133 12.4696 787 143.548 790.48 474.598
1914 0 63.1812 13.3426 843 139.48 792.759 472.731
1915 0 67.2776 13.1842 887 141.999 792.55 471.736
1916 0 69.1526 13.4341 929 136.939 792.094 470.437
1917 0 72.3116 12.9163 934 139.654 792.196 468.86
1918 0 74.316 13.1331 976 136.552 791.765 467.899
1919 0 74.1109 13.2504 982 141.23 789.798 466.585
1920 0 77.1286 13.4969 1041 139.168 791.091 465.49
1921 0 79.2778 13.4716 1068 140.555 792.112 464.544
1922 0 83.1812 13.7651 1145 140.404 790.478 463.3
1923 0 87.2691 13.6818 1194 139.278 789.518 462.461
1924 0 88.2338 13.6002 1200 141.968 791.718 461.037
1925 0 93.3198 13.4591 1256 137.421 790.042 459.892
1926 0 94.2735 13.97 1317 141.027 790.217 457.874
1927 0 97.307 14.0483 1367 146.535 792.642 456.192
1928 1 51.0353 12.1093 618 133.85 791.346 479.544
1929 0 52.0351 12.2225 636 136.819 791.758 478.78
1930 0 55.0758 12.3103 678 142.232 793.23 477.512
1931 0 57.1973 12.2733 702 143.869 790.793 476.303
1932 0 56.2044 12.7926 719 144.989 792.288 474.414
1933 0 59.115 12.6364 747 141.463 792.324 471.414
1934 0 62.1866 12.6876 789 143.248 791.7 469.991
1935 0 62.1866 12.6876 789 169.416 791.7 469.991
1936 0 66.2582 12.8739 853 141.611 791.125 463.437
1937 0 65.2814 13.3576 872 142.798 790.733 462.175
1938 0 69.1978 13.1363 909 138.411 791.508 460.085
1939 0 72.2347 13.1516 950 139.174 791.754 460.281
1940 0 72.2261 13.6239 984 141.445 791.187 460.502
1941 0 74.1523 13.9578 1035 144.18 791.086 460.315
1942 0 78.2491 13.3292 1043 144.335 791.908 460.211
1943 0 79.1634 13.2637 1050 146.049 793.398 460.456
1944 0 81.1602 13.5781 1102 147.482 791.426 458.693
1945 0 84.2812 13.7041 1155 152.764 790.816 458.307
1946 0 87.1884 13.4651 1174 150.187 791.493 457.032
1947 0 89.1363 14.001 1248 153.107 792.3 455.721
1948 0 94.1006 13.6875 1288 153.117 791.092 453.758
1949 0 96.121 13.9096 1337 156.868 790.631 452.64
1950 0 98.2735 14.0628 1382 153.062 789.689 451.598
1951 0 102.24 13.9378 1425 152.086 790.713 450.258
1952 0 105.187 13.823 1454 154.008 789.167 449.517
1953 0 107.206 14.113 1513 156.126 790.385 448.549
1954 0 113.232 13.7418 1556 157.577 791.752 446.922
1955 0 117.212 14.1453 1658 147.11 791.418 445.706
1956 1 64.1067 12.9004 827 148.872 792.221 472.689
1957 0 66.1533 13.1815 872 141.97 792.429 472.766
1958 0 69.2649 12.8492 890 147.901 790.86 473.328
1959 0 69.1971 13.4399 930 143.916 792.308 471.932
1960 0 69.1971 13.4399 930 170.212 794.308 471.932
1961 0 75.1407 13.6012 1022 145.369 790.615 469.459
1962 0 77.2317 13.2459 1023 149.167 791.351 468.162
1963 0 80.1745 13.3584 1071 143.663 790.57 466.927
1964 0 81.2407 13.5031 1097 145.202 790.367 466.332
1965 0 85.2608 13.5232 1153 145.272 789.64 464.753
1966 0 86.2713 13.5851 1172 144.381 791.822 464.439
1967 0 89.1999 14.0247 1251 144.946 791.514 462.263
1968 0 93.2895 14.0638 1312 144.111 790.448 460.535
1969 0 95.3095 13.8181 1317 145.973 791.238 459.074
1970 0 99.244 13.8245 1372 143.308 790.884 457.066
1971 0 102.221 14.1948 1451 141.96 792.224 454.706
1972 0 106.199 13.823 1468 140.966 790.976 453.317
1973 0 109.166 13.9329 1521 142.84 792.437 449.879
1974 1 61.0374 12.9429 790 136.642 792.529 473.74
1975 0 63.0628 13.4152 846 136.478 792.693 471.605
1976 0 63.1285 13.2587 837 145.122 792.491 473.183
1977 0 66.231 13.4831 893 142.093 789.626 472.194
1978 0 68.1372 13.5315 922 138.048 791.371 471.254
1979 0 69.2439 13.5608 939 136.525 791.704 470.666
1980 0 73.1656 13.3259 975 139.449 792.717 469.337
1981 0 76.2086 13.1744 1004 133.32 793.662 468.23
1982 0 77.3161 13.3866 1035 140.385 792.461 466.798
1983 0 81.217 13.3716 1086 135.5 790.92 465.692
1984 0 82.2372 14.0204 1153 133.507 793.218 464.886
1985 0 84.1201 13.873 1167 132.242 792.317 464.362
1986 0 88.1978 13.9006 1226 133.817 791.75 461.755
1987 0 91.2529 13.8954 1268 136.235 791.21 460.724
1988 0 95.2294 13.5462 1290 133.976 792.638 458.819
1989 1 51.1031 12.4259 635 132.236 790.707 480.466
1990 0 51.1217 13.1451 672 132.021 792.085 478.796
1991 0 53.1562 12.9054 686 133.031 790.589 478.586
1992 0 55.1332 13.2951 733 132.422 789.869 477.775
1993 0 56.2226 13.073 735 137.631 789.265 477.189
1994 0 58.1232 13.7467 799 134.282 790.084 475.473
1995 0 61.2078 13.5277 828 136.552 788.981 474.64
1996 0 61.19 13.5316 828 137.321 791.966 473.722
1997 0 63.1937 13.3874 846 141.287 790.128 473.455
1998 0 66.148 13.364 884 143.16 791.508 472.137
1999 0 67.1101 13.6641 917 148.114 789.577 471.725
2000 0 69.1051 13.6169 941 145.877 790.814 470.8
2001 0 70.1026 14.1222 990 135.9 791.138 469.385
2002 0 75.0952 13.9689 1049 146.38 790.437 467.997
2003 0 76.062 13.936 1060 145.05 788.792 467.214
2004 0 79.0941 13.9707 1105 149.719 789.596 465.986
2005 0 79.0736 14.7963 1170 150.426 790.15 464.682
2006 0 84.0942 14.0676 1183 127.857 790.364 464.09
2007 0 86.0966 14.0772 1212 154.091 789.849 463.39
2008 0 88.2706 14.6481 1293 151.472 790.367 461.91
2009 0 93.2938 14.7705 1378 152.342 789.572 459.483
2010 0 97.2031 14.3205 1392 147.511 789.516 458.064
2011 0 97.3045 14.5831 1419 159.031 789.31 456.429
2012 0 103.296 14.2503 1472 155.613 789.715 455.575
2013 1 53.1927 13.0093 692 157.046 789.714 479.627
2014 0 56.171 13.2631 745 154.146 790.53 478.43
2015 0 57.1946 13.0432 746 160.408 788.984 478.07
2016 0 58.2292 13.3438 777 158.31 790.181 477.166
2017 0 61.1947 12.6318 773 155.823 789.626 477.642
2018 0 62.1932 13.5224 841 162.199 791.197 476.38
2019 0 64.1162 13.6315 874 158.872 789.889 474.622
2020 0 66.1442 13.5764 898 154.41 790.085 473.798
2021 0 67.1725 13.8003 927 162.126 791.413 472.599
2022 0 70.1131 13.6779 959 154.195 792.2 471.413
2023 0 73.2363 13.6408 999 159.607 791.412 470.153
2024 0 74.0874 14.2129 1053 157.399 791.706 469.294
2025 0 78.1881 13.9663 1092 151.442 791.862 467.498
2026 0 82.2702 13.8932 1143 159.974 791.004 466.086
2027 0 84.3256 13.8392 1167 163.705 791.55 465.172
2028 0 86.2798 13.9314 1202 156.861 790.937 463.475
2029 0 91.3042 13.6029 1242 162.572 791.502 459.89
2030 0 93.3174 14.0274 1309 160.783 791.236 458.515
2031 1 50.2221 12.6837 637 154.885 791.239 479.438
2032 0 50.1559 13.2587 665 158.872 791.417 479.835
2033 0 50.1622 13.7354 689 157.141 791.277 473.55
2034 0 54.2299 13.3874 726 153.837 791.931 472.023
2035 0 55.1926 13.6794 755 147.686 794.448 471.874
2036 0 57.2738 14.0902 807 156.478 793.554 471.554
2037 0 58.1435 14.1718 824 158.163 791.749 471.542
2038 0 61.2928 13.9331 854 154.496 792.192 470.954
2039 0 61.2173 14.375 880 159.144 791.99 470.347
2040 0 64.1199 13.9582 895 155.978 791.137 469.725
2041 0 67.36 14.0736 948 162.057 791.654 469.59
2042 0 69.3284 14.5395 1008 155.694 791.592 468.117
2043 0 69.1673 14.5878 1009 155.54 792.586 467.587
2044 0 73.4176 14.3018 1050 165.141 793.697 466.606
2045 0 74.2212 14.8879 1105 166.105 792.918 464.893
2046 0 79.1726 14.7021 1164 166.111 792.914 463.046
2047 0 81.122 14.9898 1216 162.049 792.536 462.252
2048 0 85.3792 14.7694 1261 165.082 792.029 460.343
2049 0 87.2544 14.7614 1288 174.327 792 459.31
2050 0 91.1752 14.6641 1337 170.895 791.443 456.748
2051 1 44.0538 13.6651 602 169.299 793.427 478.257
2052 0 46.0854 13.7137 632 170.136 791.177 477.785
2053 0 47.0597 14.1735 667 163.345 792.87 477.807
2054 0 49.1296 14.2073 698 173.016 792.83 477.765
2055 0 51.029 13.9725 713 161.488 792.516 476.387
2056 0 52.0519 14.2358 741 167.607 792.837 476.798
2057 0 54.1947 14.4479 783 170.784 793.448 476.328
2058 0 53.2685 15.1872 809 167.278 793.591 476.727
2059 0 57.137 14.6315 836 165.396 793.567 475.927
2060 0 58.1203 14.7109 855 168.509 790.946 475.558
2061 0 61.1059 14.5976 892 172.878 792.571 474.604
2062 0 60.1299 15.1672 912 169.602 793.296 474.576
2063 0 64.2106 14.7328 946 162.108 793.636 474.655
2064 0 67.2032 14.5082 975 169.149 794.773 473.932
2065 0 69.2136 14.6358 1013 161.309 794.273 473.485
2066 0 70.1335 15.057 1056 162.746 792.599 472.017
2067 0 73.215 15.1608 1110 150.227 792.105 471.445
2068 0 76.2675 14.8687 1134 150.698 792.91 470.84
2069 0 78.1323 14.629 1143 159.962 793.385 469.885
2070 0 80.0969 14.5823 1168 157.629 793.832 469.448
2071 0 83.257 14.6774 1222 158.249 792.354 467.794
2072 0 86.2045 14.976 1291 150.765 792.513 466.254
2073 0 90.2679 14.6453 1322 154.266 793.07 464.902
2074 1 46.1564 13.6276 629 150.898 792.372 485.978
2075 0 47.1132 14.1786 668 156.148 793.066 486.106
2076 0 49.0928 13.8717 681 158.399 792.48 485.611
2077 0 52.1734 13.8385 722 153.74 791.134 484.878
2078 0 53.1665 13.975 743 153.801 791.14 484.128
2079 0 52.1304 14.6555 764 153.372 793.843 483.258
2080 0 52.1304 14.6555 764 173.36 796.843 483.258
2081 0 57.057 14.4417 824 148.028 791.856 482.176
2082 0 57.057 14.4417 824 170.343 786.856 482.176
2083 0 57.057 14.4417 824 170.343 781.856 482.176
2084 0 66.0817 14.5426 961 149.89 790.366 477.844
2085 0 68.1317 14.4573 985 150.277 792.603 476.39
2086 0 70.2137 14.5271 1020 153.55 791.316 475.671
2087 0 72.2008 14.612 1055 150.069 791.808 474.143
2088 0 76.1654 14.3766 1095 152.5 790.704 472.838
2089 0 77.153 14.387 1110 152.212 791.196 471.652
2090 0 82.1368 14.2932 1174 145.281 791.883 470.395
2091 0 83.3762 14.4646 1206 145.189 792.34 469.168
2092 1 44.1576 12.6592 559 142.945 793.717 489.104
2093 0 46.3214 13.0177 603 149.227 794.181 488.058
2094 0 44.1026 13.7407 606 143.84 793.503 486.83
2095 0 46.4038 13.4472 624 142.883 790.625 486.93
2096 0 48.1633 13.6203 656 143.082 793.384 485.591
2097 0 51.1365 13.376 684 145.038 790.563 484.787
2098 0 54.1963 13.3035 721 144.835 791.153 484.288
2099 0 55.1282 13.7316 757 143.948 792.197 482.904
2100 0 57.1491 13.4735 770 137.757 790.421 482.182
2101 0 58.3683 13.4148 783 134.402 790.739 481.272
2102 0 61.079 13.6708 835 144.38 791.431 480.525
2103 0 62.0626 13.9859 868 142.257 790.335 478.832
2104 0 65.095 13.5801 884 146.619 790.295 477.869
2105 0 67.3159 13.8897 935 147.353 790.676 476.841
2106 0 66.1815 14.4451 956 153.39 791.088 475.78
2107 0 70.1192 14.1046 989 147.509 790.233 474.358
2108 0 73.1338 14.0154 1025 146.977 791.227 473.194
2109 0 77.1328 13.9629 1077 154.456 791.902 471.636
2110 0 80.0937 13.7963 1105 148.206 791.018 470.108
2111 0 82.1583 13.9852 1149 148.935 792.024 468.241
2112 0 87.3161 13.9951 1222 148.619 792.641 466.875
2113 1 44.2073 12.7807 565 151.712 792.257 486.991
2114 0 45.1354 13.1826 595 150.862 793.445 486.797
2115 0 45.257 13.6333 617 147.757 791.084 485.668
2116 0 50.0764 13.1 656 151.497 792.622 484.616
2117 0 49.3007 13.7929 680 150.754 792.712 483.884
2118 0 49.1364 14.2461 700 153.799 793.51 483.164
2119 0 52.1805 13.7024 715 157.136 791.418 482.403
2120 0 54.1512 14.1271 765 153.007 791.621 481.02
2121 0 55.1676 14.1387 780 155.536 792.222 480.017
2122 0 57.1872 14.1465 809 145.759 793.241 478.863
2123 0 58.2669 14.4851 844 155.436 793.629 478.23
2124 0 62.1099 13.9591 867 149.94 791.987 476.878
2125 0 63.0868 14.6623 925 151.021 791.886 475.334
2126 0 66.1412 14.6656 970 154.03 792.357 474.04
2127 0 67.337 14.9695 1008 152.42 792.347 472.353
2128 0 70.1302 15.1575 1063 148.372 790.968 471.662
2129 0 73.3708 14.3518 1053 157.359 790.65 470.225
2130 0 76.4368 14.5741 1114 151.3 791.998 468.748
2131 0 77.2291 14.9814 1157 152.462 793.653 467.429
2132 0 82.1478 14.5835 1198 154.029 792.577 466.547
2133 0 85.2475 15.2849 1303 146.588 790.908 463.621
2134 0 88.1836 14.6739 1294 156.709 792.263 462.663
2135 0 93.2337 14.8444 1384 144.171 793.134 459.947
2136 1 46.2384 13.1709 609 157.057 791.736 482.227
2137 0 48.0262 13.3261 640 152.281 793.006 481.748
2138 0 49.1429 13.8168 679 156.446 793.937 480.769
2139 0 50.1901 13.8673 696 152.257 792.386 480.049
2140 0 53.0995 13.5594 720 156.908 791.262 478.531
2141 0 53.1281 14.2109 755 146.751 792.962 478.419
2142 0 57.0793 13.8229 789 154.369 792.454 477.901
2143 0 56.1938 14.0941 792 157.152 790.856 477.059
2144 0 60.1911 13.8725 835 158.899 790.049 475.656
2145 0 62.2117 13.9845 870 156.426 792.26 474.509
2146 0 63.2709 14.0823 891 163.979 792.017 473.768
2147 0 66.3052 14.2523 945 159.567 792.367 472.513
2148 0 67.2501 14.2007 955 161.172 792.134 471.441
2149 0 71.3426 14.143 1009 160.016 791.939 469.95
2150 0 74.3604 13.959 1038 163.675 792.382 468.96
2151 0 75.3151 14.1273 1064 160.541 794.056 468.035
2152 0 79.1535 14.0486 1112 160.075 791.796 467.039
2153 0 81.1098 14.3632 1165 154.415 793.24 464.955
2154 0 84.3312 14.2652 1203 158.726 791.132 463.727
2155 1 43.0569 12.6112 543 160.797 792.65 483.374
2156 0 43.1674 13.0886 565 163.455 793.421 483.112
2157 0 44.0321 13.1268 578 173.424 791.396 480.099
2158 0 44.0535 13.4155 591 172.543 792.266 479.541
2159 0 47.0559 13.2821 625 169.99 791.758 478.68
2160 0 49.1727 13.3814 658 163.758 792.919 477.48
2161 0 50.0357 13.5503 678 166.836 792.137 476.347
2162 0 51.0577 13.8275 706 171.965 791.013 476.398
2163 0 53.142 13.8685 737 177.019 792.297 476.423
2164 0 55.083 13.87 764 171.206 792.792 475.603
2165 0 55.0821 13.8521 763 167.097 792.332 474.081
2166 0 58.0825 13.6702 794 173.525 791.236 474.368
2167 0 59.1724 14.162 838 176.637 792.042 473.733
2168 0 61.1513 14.0962 862 172.548 792.102 472.704
2169 0 62.1962 14.3096 890 175.506 792.435 472.401
2170 0 64.1531 14.403 924 174.642 792.744 471.274
2171 0 67.1823 14.4532 971 171.528 793.7 470.611
2172 0 70.3263 14.1483 995 170.21 793.245 470.314
2173 0 71.2276 14.2782 1017 173.927 791.252 469.207
2174 0 73.114 14.4842 1059 173.689 791.446 468.296
2175 0 76.1444 14.5513 1108 170.738 791.691 467.38
2176 0 80.283 13.8884 1115 173.92 792.603 466.628
2177 0 82.2166 14.401 1184 172.889 791.498 464.711
2178 0 85.1739 14.4998 1235 173.413 790.014 463.131
2179 0 85.3104 14.8516 1267 162.427 790.175 461.531
2180 0 91.2149 14.1424 1290 163.928 790.315 459.843
2181 1 46.1186 13.8339 638 172.737 790.483 481.685
2182 0 48.1361 14.0227 675 166.681 789.613 481.071
2183 0 50.1837 14.1082 708 162.812 789.744 480.212
2184 0 50.2014 14.2227 714 175.155 789.517 479.853
2185 0 53.1435 14.1127 750 169.653 790.729 478.949
2186 0 54.0977 14.1781 767 166.628 790.694 478.698
2187 0 56.0992 14.4743 812 168.583 790.589 478.41
2188 0 58.2096 14.276 831 165.38 790.573 477.643
2189 0 59.0778 14.4047 851 170.172 790.549 477.128
2190 0 61.1484 14.7837 904 171.084 789.358 476.219
2191 0 63.1881 14.9079 942 171.165 790.994 475.712
2192 0 64.1164 14.926 957 171.376 789.583 475.212
2193 0 67.0669 15.0894 1012 167.619 788.151 473.593
2194 0 69.4629 14.9576 1039 171.44 788.511 473.185
2195 0 69.4629 14.9576 1039 182.418 788.511 473.185
2196 0 75.3555 14.7169 1109 169.985 789.72 471.206
2197 0 77.2485 14.6022 1128 170.911 791.464 470.535
2198 0 79.2488 14.9529 1185 171.635 791.411 468.698
2199 0 83.2594 14.617 1217 169.912 790.274 467.342
2200 0 86.1679 14.6574 1263 167.923 789.964 466.349
2201 0 87.33 15.2296 1330 164.377 789.172 464.498
2202 0 93.2288 14.4376 1346 169.513 789.251 463.184
2203 0 95.3525 14.4516 1378 164.68 789.999 461.691
2204 0 99.2915 14.6236 1452 161.568 788.391 460.416
2205 0 102.711 14.935 1534 168.574 789.962 458.684
2206 1 51.4855 14.4701 745 175.43 790.797 482.086
2207 0 54.2422 14.3062 776 172.733 788.187 481.372
2208 0 56.2526 14.3816 809 168.532 791.125 480.42
2209 0 58.2114 14.6878 855 165.412 789.818 479.547
2210 0 61.0848 14.5535 889 174.268 789.472 478.742
2211 0 62.1467 14.7554 917 166.872 789.394 477.509
2212 0 63.158 14.9625 945 168.539 790.432 477.167
2213 0 65.2132 15.043 981 174.316 791.026 476.03
2214 0 67.292 15.0241 1011 177.104 790.115 475.309
2215 0 70.3805 15.1889 1069 170.742 790.249 474.266
2216 0 71.3351 15.2239 1086 172.468 789.878 473.806
2217 0 71.3351 15.2239 1086 182.008 789.878 473.806
2218 0 71.3351 15.2239 1086 182.008 789.878 473.806
2219 0 79.2415 15.3581 1217 172.539 789.952 470.171
2220 0 82.2522 15.2336 1253 168.901 791.091 469.415
2221 0 85.3173 15.2724 1303 172.091 790.494 467.952
2222 0 86.1282 15.6279 1346 160.365 789.94 466.856
2223 0 91.2787 15.4472 1410 170.174 790.087 465.831
2224 0 94.2946 15.1652 1430 167.622 787.931 464.73
2225 0 96.274 15.2689 1470 173.589 788.034 463.427
2226 0 98.1626 15.7596 1547 161.761 788.067 461.228
2227 0 104.297 15.6477 1632 175.484 788.758 459.251
2228 0 105.477 15.8993 1677 169.026 789.916 457.368
2229 0 108.341 15.7836 1710 170.591 788.748 456.59
2230 0 113.338 15.5641 1764 167.946 790.442 455.161
2231 0 117.7 15.633 1840 172.834 789.215 453.417
2232 0 121.346 16.1109 1955 166.054 789.54 450.205
2233 0 125.576 16.1018 2022 164.183 790 447.711
2234 0 130.533 15.7355 2054 168.61 789.966 445.391
2235 0 135.604 15.6117 2117 165.9 789.43 443.31
2236 0 139.485 16.2312 2264 165.265 789.812 440.722
2237 0 144.718 16.0104 2317 170.078 790.125 438.485
2238 0 150.374 16.2528 2444 161.243 790.201 436.404
2239 0 155.511 16.166 2514 155.742 788.164 432.795
2240 0 162.397 16.0286 2603 160.882 789.688 429.89
2241 0 169.688 15.9175 2701 162.295 790.362 427.642
2242 0 176.502 16.0848 2839 165.104 789.951 423.116
2243 0 184.904 15.9164 2943 158.693 790.065 420.235
2244 0 190.692 15.9839 3048 161.479 789.912 416.951
2245 1 144.517 14.628 2114 172.053 790.785 437.69
2246 0 149.531 15.435 2308 173.856 790.024 435.062
2247 0 154.448 15.6881 2423 161.925 789.14 431.818
2248 0 164.349 15.3454 2522 168.172 790.676 427.83
2249 0 170.613 15.6318 2667 166.821 791.064 425.117
2250 0 177.481 15.3651 2727 167.768 790.208 421.885
2251 0 184.358 15.6163 2879 156.208 790.822 418.419
2252 0 189.471 15.6646 2968 165.361 789.904 415.799
2253 1 70.258 12.5537 882 150.92 790.587 475.802
2254 0 72.1512 12.5431 905 136.23 790.591 475.519
2255 0 76.3078 12.371 944 151.248 791.785 473.218
2256 0 79.1559 12.3933 981 157.702 793.215 471.622
2257 0 82.1702 12.1577 999 154.855 792.391 470.699
2258 1 45.1368 10.6787 482 146.701 790.546 488.975
2259 0 45.1368 10.6787 482 158.006 787.546 488.975
2260 0 45.1569 11.0282 498 149.922 790.649 488.699
2261 0 47.2157 10.7168 506 141.49 790.433 488.99
2262 0 49.2349 10.521 518 143.888 790.757 489.075
2263 0 52.1651 11.0227 575 137.624 792.115 486.694
2264 0 54.2729 10.9815 596 140.914 792.21 485.817
2265 0 53.2284 11.46 610 146.305 791.513 486.172
2266 0 55.282 11.179 618 152.762 791.089 485.727
2267 0 58.2142 11.2344 654 149.194 791.57 484.222
2268 0 60.2467 11.1873 674 149.703 790.675 483.957
2269 0 60.2502 11.4522 690 148.129 792.759 483.67
2270 0 61.3426 11.8026 724 144.548 790.471 481.733
2271 0 65.2912 11.5329 753 149.169 791.963 480.951
2272 0 68.2906 11.5243 787 147.476 792.806 480.219
2273 0 74.221 11.6813 867 145.017 792.288 475.843
2274 0 71.3527 11.6183 829 151.505 791.245 475.467
2275 0 76.3047 11.9259 910 149.199 790.366 471.798
2276 0 78.358 11.7027 917 145.188 792.033 468.492
2277 0 82.2161 12.0414 990 149.893 791.357 467.516
2278 0 84.1996 11.9953 1010 148.512 788.92 467.04
2279 0 85.1962 12.4536 1061 150.795 788.47 465.315
2280 0 88.2308 12.388 1093 157.113 789.466 462.269
2281 0 89.1465 12.5187 1116 147.687 788.509 461.645
2282 1 46.0467 10.5111 484 147.979 790.94 484.589
2283 0 47.2534 11.0892 524 151.023 790.435 485.454
2284 0 49.3106 11.3566 560 152.423 789.77 483.764
2285 0 50.2492 12.0599 606 150.29 790.541 482.576
2286 0 53.3775 11.8215 631 153.274 790.64 482.106
2287 0 54.1689 11.6118 629 153.498 792.394 481.121
2288 0 55.1947 12.1026 668 149.193 791.588 479.901
2289 0 56.2501 12.2844 691 154.111 792.19 479.592
2290 0 59.3916 12.1398 721 149.295 791.444 477.86
2291 0 62.2402 12.2911 765 156.412 790.908 477.038
2292 0 63.1683 12.2213 772 152.127 791.834 476.869
2293 0 64.2672 12.2302 786 153.173 791.308 476.2
2294 0 65.2014 12.5764 820 151.589 791.544 474.88
2295 0 66.1923 12.8263 849 157.385 790.882 474.922
2296 0 70.1973 12.4649 875 156.789 791.619 474.483
2297 0 69.1258 13.3959 926 161.375 792.177 472.932
2298 0 73.0458 12.7728 933 154.348 793.887 472.256
2299 0 76.1705 12.8134 976 148.581 792.307 471.963
2300 0 77.1006 13.1646 1015 156.637 792.251 470.878
2301 0 79.0972 13.1863 1043 157.132 793.761 468.992
2302 0 81.1206 13.1902 1070 160.803 792.567 467.64
2303 0 85.1148 13.1587 1120 152.199 792.497 465.979
2304 0 87.1654 12.8606 1121 157.59 792.664 464.054
2305 0 91.1244 13.1469 1198 152.735 793.3 461.481
2306 1 45.0797 11.4908 518 153.359 792.965 484.446
2307 0 47.4034 11.919 565 152.835 792.011 481.016
2308 0 49.2267 12.2494 603 149.894 791.366 476.161
2309 0 53.2787 12.3126 656 145.268 790.91 474.28
2310 0 52.2056 12.7764 667 147.357 791.471 472.943
2311 0 55.2244 12.4583 688 148.465 790.765 471.092
2312 0 56.137 12.1488 682 155.538 790.963 471.544
2313 0 57.1329 12.7597 729 154.45 790.15 469.047
2314 0 58.1339 13.0561 759 149.871 790.569 468.906
2315 0 60.1579 13.1155 789 147.921 792.911 466.483
2316 0 62.3029 13.2418 825 152.909 791.036 465.216
2317 0 62.2018 13.4562 837 150.809 790.031 463.701
2318 0 64.1374 13.705 879 150.484 791.924 464.287
2319 0 65.2853 13.5559 885 139.582 791.668 468.711
2320 0 65.2853 13.5559 885 171.454 790.668 468.711
2321 0 69.1745 13.7045 948 151.81 789.563 464.358
2322 0 71.3599 13.8033 985 153.303 791.642 461.008
2323 0 75.3569 13.947 1051 152.124 792.037 459.105
2324 0 77.3644 13.7531 1064 149.466 793.329 458.617
2325 0 79.2565 13.7528 1090 152.057 791.694 458.327
2326 0 82.3181 14.0309 1155 143.858 793.239 457.63
2327 0 86.3454 13.7355 1186 147.826 793.942 457.309
2328 0 87.1293 13.6808 1192 142.768 793.157 457.313
2329 0 91.3306 13.7303 1254 148.102 790.821 456.885
2330 0 93.242 13.9744 1303 140.559 790.846 455.573
2331 0 97.3725 13.5151 1316 141.45 790.646 454.797
2332 1 49.1406 12.6576 622 140.777 791.138 478.135
2333 0 52.3221 12.8626 673 147.238 791.294 478.343
2334 0 54.2335 12.8518 697 142.343 792.888 478.522
2335 0 55.5251 13.2373 735 138.188 794.418 477.396
2336 0 57.2934 12.8985 739 141.65 790.865 477.267
2337 0 58.6177 13.3236 781 141.182 791.277 476.218
2338 0 59.4164 13.6663 812 140.328 792.161 474.993
2339 0 61.5809 13.6244 839 141.07 791.99 474.016
2340 0 64.6633 13.6708 884 139.718 792.089 473.434
2341 0 66.6351 13.7165 914 135.85 791.012 473.306
2342 0 69.3353 13.7881 956 138.417 792.699 472.474
2343 0 71.3655 13.9423 995 138.9 793.557 472.031
2344 0 73.2575 13.9235 1020 139.402 794.457 471.346
2345 0 76.3206 13.9019 1061 138.354 795.404 470.453
2346 0 79.4012 13.9922 1111 140.06 793.79 468.9
2347 0 82.2234 13.8039 1135 136.204 792.996 467.19
2348 0 86.4129 13.6206 1177 141.268 792.952 465.028
2349 0 88.3426 13.8891 1227 143.661 792.04 464.49
2350 0 91.2559 14.0703 1284 139.54 793.693 462.477
2351 1 47.0427 12.7544 600 146.863 793.443 484.618
2352 0 49.0201 12.6071 618 136.709 794.235 483.578
2353 0 50.0763 13.2598 664 130.581 792.345 482.28
2354 0 51.0874 13.5063 690 140.732 793.783 481.274
2355 0 55.2105 13.0772 722 139.65 793.774 479.918
2356 0 55.204 13.6765 755 133.468 795.715 479.25
2357 0 56.1607 13.4792 757 130.433 793.843 477.087
2358 0 58.1484 13.6547 794 133.499 793.278 474.888
2359 0 60.0768 13.3662 803 140.03 793.482 473.726
2360 0 62.1414 13.7428 854 135.594 793.242 471.618
2361 0 63.287 13.9681 884 125.813 792.231 471.32
2362 0 66.2252 13.4088 888 140.776 792.862 471.444
2363 0 66.1776 14.5215 961 137.05 794.052 471.289
2364 0 70.2344 14.3092 1005 135.357 794.412 469.804
2365 0 73.3251 13.897 1019 133.826 793.286 468.457
2366 0 75.3622 14.0787 1061 133.46 791.996 467.053
2367 0 75.1478 14.7044 1105 135.934 792.893 466.366
2368 0 79.1897 14.5347 1151 136.897 794.332 465.858
2369 0 83.1298 14.5556 1210 139.19 792.976 464.664
2370 0 86.3559 14.3939 1243 133.015 793.134 464.071
2371 0 88.6529 14.506 1286 136.376 793.248 463.358
2372 0 92.2843 14.6287 1350 134.256 792.345 462.622
2373 0 93.2049 14.613 1362 139.41 793.366 461.612
2374 0 97.301 14.7686 1437 132.729 793.447 459.727
2375 0 103.428 14.5899 1509 137.062 793.835 458.207
2376 1 58.2044 13.6416 794 135.023 793.553 479.679
2377 0 59.1719 13.8748 821 131.957 795.622 477.946
2378 0 61.156 14.0297 858 138.543 791.51 477.648
2379 0 62.1454 14.1281 878 131.686 793.575 476.817
2380 0 64.111 14.2565 914 133.981 792.235 476.828
2381 0 67.1351 13.8973 933 130.897 792.516 475.75
2382 0 68.1672 13.9657 952 133.078 793.075 474.887
2383 0 70.1272 14.488 1016 132.687 793.463 473.331
2384 0 74.097 14.2246 1054 129.906 793.164 472.512
2385 0 74.1251 14.6374 1085 127.946 792.787 471.531
2386 0 77.1066 14.253 1099 130.668 791.716 470.315
2387 0 80.2006 14.6383 1174 133.313 792.198 467.863
2388 0 84.2263 14.3898 1212 123.716 793.228 466.902
2389 0 87.2464 14.4075 1257 130.043 792.443 465.527
2390 0 90.1567 14.4526 1303 132.841 793.105 464.145
2391 0 92.1252 14.5128 1337 126.037 793.442 462.272
2392 0 97.0919 14.5635 1414 129.499 792.668 460.297
2393 0 101.112 14.6273 1479 129.26 792.677 458.581
2394 1 55.1032 13.4475 741 124.706 794.073 481.217
2395 0 56.1388 13.3954 752 127.859 793.718 480.709
2396 0 58.209 13.5374 788 124.541 793.377 479.608
2397 0 59.1974 13.8351 819 123.453 794.136 479.369
2398 0 62.2187 13.099 815 124.793 795.578 478.236
2399 0 64.1809 13.4152 861 129.734 794.344 477.603
2400 0 66.0883 13.3912 885 121.327 791.818 475.724
2401 0 68.1039 13.685 932 122.827 792.343 474.135
2402 0 71.133 13.6364 970 126.221 793.886 472.846
2403 0 72.0986 13.5509 977 123.476 793.734 471.945
2404 0 73.0999 14.2545 1042 124.584 792.313 470.168
2405 0 78.0776 13.9989 1093 115.429 792.006 469.206
2406 0 82.1377 13.4774 1107 119.653 792.331 467.524
2407 0 85.1347 13.7194 1168 118.149 791.432 466.4
2408 0 88.1885 13.6753 1206 115.987 791.665 464.815
2409 0 89.1009 14.0066 1248 121.479 791.599 463.268
2410 0 95.2701 13.3095 1268 121.385 792.069 462.486
2411 1 50.1013 12.1753 610 116.707 793.37 484.289
2412 0 51.1465 12.5326 641 114.204 792.766 483.261
2413 0 52.2448 12.4988 653 115.464 792.851 482.487
2414 0 54.21 12.4516 675 111.884 793.751 481.086
2415 0 56.1745 12.2654 689 113.228 794.586 480.727
2416 0 57.2161 12.9334 740 112.158 794.12 479.453
2417 0 60.2149 12.5716 757 115.185 794.778 478.801
2418 0 60.1682 13.1132 789 113.458 793.857 477.878
2419 0 62.1472 12.9692 806 113.797 792.103 476.29
2420 0 64.2081 13.0357 837 113.679 792.434 474.961
2421 0 67.1691 13.0119 874 114.557 792.006 473.921
2422 0 70.1074 12.4523 873 116.069 792.825 473.202
2423 0 73.1668 12.6013 922 114.098 791.036 471.634
2424 0 74.176 12.5377 930 116.651 791.752 469.768
2425 0 76.0938 13.0365 992 109.506 790.562 469.088
2426 0 80.2621 12.808 1028 111.569 791.451 467.837
2427 0 82.2292 12.9638 1066 115.172 791.986 465.87
2428 0 87.2639 12.9034 1126 113.369 792.913 464.181
2429 0 88.2799 13.0834 1155 113.617 793.614 462.297
2430 1 49.0844 11.2052 550 107.758 794.684 482.224
2431 0 51.0479 12.0279 614 108.938 793.777 481.269
2432 0 52.2499 11.9235 623 107.183 793.144 481.347
2433 0 54.3001 11.9705 650 105.566 792.435 480.966
2434 0 54.2844 12.3608 671 103.984 793.004 480.206
2435 0 56.2745 12.3679 696 107.635 791.966 478.698
2436 0 57.2762 12.6231 723 104.577 793.683 478.127
2437 0 57.2762 12.6231 723 150.17 795.683 478.127
2438 0 61.2259 12.7887 783 103.208 793.393 476.167
2439 0 63.3018 12.8432 813 106.738 792.412 474.824
2440 0 66.1773 12.4363 823 103.876 793.43 473.569
2441 0 68.2283 12.8832 879 105.802 792.917 472.561
2442 0 71.2193 12.6932 904 101.874 793.846 472.129
2443 0 72.2316 13.1383 949 103.658 794.863 470.574
2444 0 75.2355 13.0125 979 109.902 794.511 469.56
2445 0 77.183 12.6712 978 109.433 794.739 467.85
2446 0 82.228 12.4897 1027 110.962 793.737 466.69
2447 1 43.0852 10.5373 454 112.885 792.172 485.681
2448 0 43.1045 11.0893 478 112.697 793.272 485.64
2449 0 47.0247 10.9304 514 111.344 792.679 484.22
2450 0 48.1324 11.8631 571 106.224 793.545 482.968
2451 0 49.1051 11.8725 583 108.624 792.842 483.458
2452 0 49.1821 11.6912 575 112.762 793.188 482.527
2453 0 52.2064 11.9525 624 104.998 791.417 480.938
2454 0 52.1997 12.3181 643 111.616 791.76 480.373
2455 0 55.1521 12.2026 673 113.058 793.212 480.156
2456 0 56.1333 12.5238 703 114.248 792.849 478.68
2457 0 57.1842 12.2586 701 112.696 792.666 477.957
2458 0 59.229 12.4095 735 116.951 793.826 477.465
2459 0 61.1841 12.7321 779 117.352 791.051 476.81
2460 0 62.1982 12.8943 802 117.717 791.647 475.203
2461 0 64.188 12.9308 830 116.608 791.518 474.44
2462 0 67.1688 13.0864 879 118.588 790.374 472.67
2463 0 69.0662 13.2337 914 114.712 791.29 471.615
2464 0 69.0662 13.2337 914 163.83 792.29 471.615
2465 0 73.2243 12.8509 941 117.575 790.829 468.498
2466 0 75.1272 12.9381 972 120.668 791.232 467.85
2467 0 78.1693 13.2149 1033 119.674 791.386 466.307
2468 0 81.0853 13.085 1061 125.277 793.271 464.569
2469 0 82.1581 13.121 1078 120.934 792.814 463.841
2470 0 85.2902 13.2841 1133 124.96 794.544 461.58
2471 0 90.1072 13.151 1185 121.35 792.984 453.473
2472 0 94.3035 13.1596 1241 123.169 793.887 452.017
2473 0 53.1162 11.4278 607 121.758 792.792 457.476
2474 0 54.1565 12.1684 659 120.534 793.41 456.762
2475 0 55.2291 12.5296 692 117.308 792.63 455.553
2476 0 58.144 12.0907 703 115.916 793.929 457.307
2477 0 60.0236 12.4618 748 118.464 794.595 463.684
2478 0 60.0513 12.8723 773 119.521 793.931 467.119
2479 0 62.1073 13.042 810 118.115 793.363 471.521
2480 0 64.1699 12.7474 818 118.954 793.524 471.212
2481 0 65.1595 13.2444 863 120.089 794.53 469.981
2482 0 67.0933 13.3247 894 121.352 796.051 468.596
2483 0 70.1482 13.5 947 123.86 793.173 467.646
2484 0 71.1706 13.7697 980 122.998 794.824 465.996
2485 0 73.1864 13.6364 998 123.798 792.997 466.168
2486 0 76.1948 13.5836 1035 120.892 794.002 463.795
2487 0 78.2872 13.1822 1032 123.882 795.47 463.183
2488 0 82.2752 13.4427 1106 122.732 794.69 461.071
2489 0 84.226 13.5944 1145 122.63 795.645 459.833
2490 0 89.2827 13.4516 1201 120.559 794.343 459.435
2491 1 45.1014 12.3499 557 122.361 793.059 481.19
2492 0 49.5128 12.32 610 120.793 793.488 479.421
2493 0 48.0609 13.3164 640 121.134 792.895 477.95
2494 0 52.0955 12.957 675 122.071 795.398 476.855
2495 0 51.0982 13.5621 693 119.023 797.504 476.056
2496 0 54.0383 13.3979 724 116.265 796.976 474.898
2497 0 56.0639 13.4489 754 119.163 794.576 473.776
2498 0 58.0715 13.3456 775 118.445 793.236 473.766
2499 0 59.1685 13.4193 794 115.656 794.578 472.762
2500 0 60.0287 13.4935 810 118.665 793.6 471.999
2501 0 64.1114 13.8041 885 115.358 794.146 471.188
2502 0 64.0694 13.579 870 121.125 793.678 470.391
2503 0 64.1512 14.0138 899 119.722 793.447 470.234
2504 0 66.1146 14.2177 940 121.17 794.487 469.174
2505 0 68.2294 14.0848 961 123.066 793.185 467.83
2506 0 71.2624 14.0607 1002 118.064 794.869 466.952
2507 0 73.1079 14.1572 1035 118.044 793.209 466.179
2508 0 74.209 14.5131 1077 121.926 793.417 464.916
2509 0 78.3563 14.2299 1115 121.864 794.049 463.745
2510 0 79.1762 14.7645 1169 115.157 793.115 462.4
2511 0 83.213 14.1925 1181 113.523 792.899 460.988
2512 0 85.1814 14.4163 1228 110.789 791.774 459.494
2513 0 89.1912 14.2391 1270 116.328 792.555 457.006
2514 0 93.3054 14.1471 1320 110.792 791.881 455.467
2515 1 52.144 11.8134 616 118.795 793.604 475.539
2516 0 53.092 12.6008 669 117.114 792.981 474.664
2517 0 55.0286 13.175 725 114.797 792.812 473.081
2518 0 57.0399 13.3065 759 118.406 794.445 472.395
2519 0 57.1029 13.6245 778 115.424 794.033 472.015
2520 0 60.0559 13.6206 818 113.407 793.449 471.042
2521 0 60.0202 14.0453 843 118.359 793.877 470.247
2522 0 64.0412 13.8348 886 109.514 792.79 469.118
2523 0 64.118 14.1458 907 112.907 793.687 468.669
2524 0 66.292 14.0288 930 115.323 792.03 467.416
2525 0 69.1121 14.3101 989 112.094 792.664 465.454
2526 0 73.0548 14.2906 1044 114.59 791.722 464.373
2527 0 74.1383 14.392 1067 118.158 793.665 463.202
2528 0 77.1629 14.748 1138 111.123 792.705 461.852
2529 0 77.1629 14.748 1138 156.967 791.705 461.852
2530 0 82.246 14.6025 1201 114.704 793.788 459.938
2531 0 85.1592 14.6314 1246 116.241 794.224 458.365
2532 0 87.0898 14.686 1279 111.117 793.527 457.901
2533 0 91.2107 14.6803 1339 115.907 793.519 456.324
2534 0 94.2097 14.6163 1377 111.598 793.513 454.409
2535 0 98.3568 14.6304 1439 120.074 793.52 452.828
2536 1 51.0499 13.3007 679 113.016 793.259 475.57
2537 0 52.0211 13.7252 714 120.352 795.305 474.993
2538 0 54.0783 13.6469 738 114.713 794.946 473.61
2539 0 56.1062 13.92 781 123.556 794.031 473.341
2540 0 57.1286 13.9685 798 123.82 793.416 472.513
2541 0 59.1354 13.9003 822 121.904 792.746 471.758
2542 0 59.1354 13.9003 822 181.307 791.746 471.758
2543 0 61.0239 14.8302 905 124.152 793.21 468.875
2544 0 64.0724 14.546 932 129.32 793.939 467.681
2545 0 66.0763 14.1352 934 124.389 793.893 466.808
2546 0 70.0686 14.5001 1016 128.451 794.747 465.164
2547 0 71.0682 14.7182 1046 127.692 795.095 464.073
2548 0 73.0365 14.8556 1085 126.989 794.927 462.971
2549 0 77.1148 14.6016 1126 129.542 793.909 462.054
2550 0 80.0743 14.4116 1154 128.895 791.21 460.247
2551 0 83.0706 14.4215 1198 132.982 793.904 459.671
2552 0 84.2237 14.4615 1218 132.805 792.582 458.035
2553 0 88.0908 14.678 1293 127.985 793.798 456.145
2554 0 90.1849 15.0801 1360 128.258 794.712 454.171
2555 0 94.1887 14.5559 1371 119.43 792.922 452.694
2556 0 98.1259 14.94 1466 131.443 792.622 451.353
2557 0 102.307 14.7204 1506 127.017 793.381 449.209
2558 0 106.295 14.2999 1520 127.214 793.966 448.072
2559 0 110.124 14.8287 1633 125.072 793.4 445.941
2560 1 57.0476 13.0417 744 127.903 793.837 472.122
2561 0 59.0981 13.2999 786 125.639 792.891 471.958
2562 0 59.1989 13.6996 811 127.732 793.047 471.639
2563 0 63.1292 13.2269 835 130.333 793.717 469.951
2564 0 66.1158 13.5066 893 129.47 794.307 468.249
2565 0 67.1423 13.7469 923 128.226 796.203 466.561
2566 0 70.099 13.752 964 129.23 794.481 466.126
2567 0 74.1458 13.7297 1018 131.531 794.652 464.869
2568 0 76.1544 13.5383 1031 123.334 794.228 463.736
2569 0 79.0999 13.6663 1081 130.942 793.272 461.474
2570 0 81.2157 13.9136 1130 131.627 792.431 460.03
2571 0 85.1179 13.9806 1190 134.826 793.472 459.192
2572 0 87.1464 13.9306 1214 135.064 793.773 457.378
2573 0 90.2078 14.1562 1277 132.3 794.59 455.51
2574 0 95.2166 13.8001 1314 132.658 795.177 453.901
2575 1 50.096 12.9551 649 132.499 796.837 475.337
2576 0 51.0775 12.9998 664 132.575 794.407 474.917
2577 0 53.0854 13.0733 694 129.563 794.756 473.981
2578 0 54.0691 13.5567 733 140.206 795.329 472.948
2579 0 57.1337 13.4597 769 135.337 795.516 471.55
2580 0 59.1006 13.5363 800 137.358 795.575 469.918
2581 0 62.1423 13.4691 837 137.713 795.812 467.998
2582 0 66.171 13.4198 888 136.751 796.832 467.448
2583 0 63.1153 14.1329 892 139.544 796.188 467.127
2584 0 68.2364 13.3946 914 141.102 794.489 465.51
2585 0 70.1233 13.5761 952 141.413 796.505 464.404
2586 0 73.1977 13.8529 1014 136.846 794.742 462.104
2587 0 76.2402 13.4968 1029 138.296 796.344 460.318
2588 0 77.1527 13.9075 1073 143.428 797.182 459.867
2589 0 79.0715 13.4309 1062 145.144 795.364 458.824
2590 0 84.1488 13.2028 1111 142.168 797.683 457
2591 0 87.1427 13.4607 1173 147.72 795.24 455.168
2592 0 90.3478 13.1381 1187 143.43 794.648 453.941
2593 1 46.0381 12.9892 598 137.716 794.756 474.594
2594 0 50.0345 12.6712 634 143.11 797.251 472.634
2595 0 50.0345 12.6712 634 158.845 799.251 472.634
2596 0 50.0326 13.3313 667 143.096 797.856 470.888
2597 0 53.0482 13.3464 708 137.336 795.134 470.359
2598 0 55.0824 13.6886 754 141.816 797.06 469.122
2599 0 58.0578 13.0732 759 139.609 796.966 468.186
2600 0 60.1722 13.4447 809 139.85 795.661 465.171
2601 0 60.0905 13.3965 805 134.904 796.776 465.619
2602 0 60.0905 13.3965 805 168.253 797.776 465.619
2603 0 64.1064 13.6336 874 137.936 795.466 463.06
2604 0 65.1765 13.7013 893 138.97 795.127 462.776
2605 0 69.1821 13.5873 940 145.119 794.869 462.106
2606 0 70.1132 14.2912 1002 143.066 793.812 459.689
2607 0 72.1174 14.3932 1038 145.487 794.993 459.527
2608 0 76.0617 14.2121 1081 146.672 795.898 458.408
2609 0 78.0867 14.2918 1116 148.163 795.999 456.637
2610 0 80.2201 14.3231 1149 148.095 797.008 455.91
2611 0 84.0804 14.4029 1211 146.838 796.609 453.631
2612 0 86.2072 14.6623 1264 155.02 797.752 452.912
2613 0 90.1863 14.082 1270 151.074 794.771 450.857
2614 0 93.1184 14.2722 1329 156.986 795.417 449.531
2615 0 97.1875 14.3949 1399 158.264 793.337 447.193
2616 0 101.08 14.1077 1426 157.491 794.411 444.528
2617 1 51.2315 12.9413 663 163.523 795.027 469.134
2618 0 51.0413 13.5968 694 152.756 796.435 465.316
2619 0 54.1774 13.4004 726 151.959 795.806 467.052
2620 0 54.1168 13.5817 735 155.799 795.837 468.863
2621 0 56.1527 13.6948 769 151.36 794.702 466.696
2622 0 58.1214 13.575 789 150.276 795.82 466.593
2623 0 58.1447 13.9824 813 153.947 793.882 464.156
2624 0 61.1482 13.917 851 154.886 793.237 464.38
2625 0 62.052 13.8432 859 146.846 792.753 463.026
2626 0 64.0721 13.9842 896 156.173 792.368 461.388
2627 0 65.1944 14.311 933 148.441 795.622 461.519
2628 0 68.1135 14.2703 972 152.534 796.134 459.951
2629 0 70.0878 14.0966 988 151.073 795.13 459.038
2630 0 70.0878 14.0966 988 182.058 794.13 459.038
2631 0 75.1477 14.2652 1072 155.118 794.988 457.464
2632 0 76.094 14.5478 1107 154.679 795.276 456.018
2633 0 80.1841 14.4418 1158 151.789 795.13 454.475
2634 0 82.2067 14.3419 1179 154.892 794.658 451.668
2635 0 85.2113 14.7281 1255 158.818 795.285 449.826
2636 0 89.1763 14.5106 1294 159.291 796.754 448.094
2637 0 92.1126 14.5257 1338 152.777 796.36 447.047
2638 0 95.0855 14.5974 1388 160.828 797.074 446.243
2639 0 100.157 14.4872 1451 153.312 796.536 444.711
2640 1 52.0521 14.0244 730 160.348 797.062 467.67
2641 0 54.0783 13.9427 754 157.455 796.16 465.271
2642 0 56.077 14.2661 800 150.984 795.196 464.779
2643 0 55.0676 14.5094 799 159.393 796.101 464.27
2644 0 57.0866 14.3641 820 160.885 795.971 463.384
2645 0 61.0655 14.3616 877 155.877 796.757 461.605
2646 0 60.0576 14.7359 885 159.314 796.463 461.255
2647 0 65.0763 13.9375 907 158.682 797.608 460.318
2648 0 68.0676 13.7657 937 155.653 796.998 459.426
2649 0 71.0953 14.0234 997 161.308 796.492 458.046
2650 0 73.1178 14.4698 1058 156.909 797.002 456.422
2651 0 75.056 14.4692 1086 158.795 796.643 455.416
2652 0 76.1262 14.3052 1089 162.444 796.996 455.031
2653 0 80.1126 14.205 1138 164.336 797.133 453.79
2654 0 83.1795 14.3665 1195 161.676 796.981 451.569
2655 0 85.2029 14.6826 1251 164.025 797.293 450.163
2656 0 88.2289 14.6097 1289 158.919 796.698 448.312
2657 0 92.2194 14.292 1318 157.548 797.212 447.275
2658 1 46.131 13.7868 636 164.091 796.414 467.91
2659 0 47.1187 14.1557 667 164.699 797.525 467.507
2660 0 47.1187 14.1557 667 179.751 799.525 467.507
2661 0 50.0531 14.4646 724 158.623 795.943 465.959
2662 0 53.1464 14.2625 758 164.897 795.96 465.668
2663 0 54.1595 14.5127 786 162.99 796.017 464.075
2664 0 55.0528 14.5678 802 162.466 796.309 463.667
2665 0 56.0813 14.9782 840 162.923 796.657 462.864
2666 0 60.1575 14.7446 887 162.88 797.086 461.596
2667 0 63.0448 14.8149 934 161.026 797.198 460.294
2668 0 64.0679 15.1558 971 153.144 795.528 459.477
2669 0 67.1187 14.8394 996 161.011 795.564 458.622
2670 0 67.0439 15.3183 1027 165.546 796.026 457.491
2671 0 72.1035 14.5901 1052 162.444 796.304 457.044
2672 0 73.2246 15.1179 1107 168.222 795.267 455.289
2673 0 76.114 15.2534 1161 159.017 796.241 454.096
2674 0 79.2031 15.4034 1220 161.433 794.79 452.432
2675 0 79.2031 15.4034 1220 179.248 792.79 452.432
2676 0 84.1613 15.2089 1280 164.03 795.466 450.647
2677 0 86.1105 15.4917 1334 164.81 794.331 449.303
2678 0 92.1324 15.2281 1403 161 794.84 447.799
2679 0 95.1983 15.0003 1428 164.573 794.505 446.726
2680 0 98.169 14.8927 1462 166.205 794.156 445.246
2681 0 102.38 15.2081 1557 162.52 794.398 443.009
2682 0 105.194 15.1434 1593 158.831 794.357 441.515
2683 1 59.4271 14.034 834 164.963 794.76 464.791
2684 0 60.1051 14.3083 860 163.649 795.307 464.626
2685 0 62.2227 14.7052 915 159.58 795.073 463.973
2686 0 64.1603 15.0404 965 157.393 796.036 462.419
2687 0 66.2005 14.8035 980 160.319 795.697 461.737
2688 0 68.2952 15.0669 1029 165.518 797.857 460.85
2689 0 70.1259 15.1299 1061 163.774 798.36 459.681
2690 0 72.1208 15.3908 1110 166.675 798.478 458.505
2691 0 76.4452 15.2004 1162 156.503 796.365 457.003
2692 0 79.2207 15.1223 1198 157.311 796.71 456.082
2693 0 82.3548 15.0932 1243 162.337 797.698 454.94
2694 0 85.1102 15.0041 1277 167.072 797.464 453.303
2695 0 89.0977 14.5234 1294 164.569 797.184 452.086
2696 0 93.1714 14.5646 1357 165.544 797.022 450.55
2697 1 45.1116 14.6526 661 161.781 797.838 472.381
2698 0 47.1931 14.4725 683 174.141 797.403 471.542
2699 0 48.0758 14.4979 697 171.253 798.964 471.148
2700 0 50.1938 14.8823 747 170.925 797.937 470.333
2701 0 52.1464 14.536 758 168.443 799.057 470.049
2702 0 54.338 14.465 786 167.085 796.818 469.238
2703 0 54.1126 15.1166 818 165.889 796.996 468.583
2704 0 56.1233 15.5194 871 165.188 797.119 467.282
2705 0 58.356 15.354 896 166.57 797.867 466.671
2706 0 60.0963 15.5417 934 170.182 796.774 465.814
2707 0 62.1181 15.4061 957 162.416 796.768 464.876
2708 0 66.1396 14.9079 986 166.622 798.256 463.649
2709 0 68.339 15.1597 1036 161.82 798.062 462.624
2710 0 70.4758 15.0548 1061 163.566 795.957 461.875
2711 0 71.1849 15.1015 1075 171.233 796.655 460.985
2712 0 75.2034 15.0259 1130 165.196 794.621 460.034
2713 0 79.1909 14.7492 1168 163.701 795.51 458.731
2714 1 42.1724 14.1799 598 169.582 797.425 475.64
2715 0 44.2382 14.3315 634 169.866 797.11 474.998
2716 0 44.2052 15.0887 667 170.943 796.988 473.967
2717 0 47.1286 14.662 691 167.664 796.919 473.747
2718 0 48.08 14.5383 699 166.866 797.645 473.609
2719 0 50.1431 14.5783 731 175.539 797.461 472.897
2720 0 49.462 15.426 763 166.042 799.242 472.704
2721 0 52.1992 14.9428 780 175.285 797.935 471.958
2722 0 52.0951 15.5869 812 161.052 798.142 471.148
2723 0 55.1948 15.0377 830 165.012 798.329 470.166
2724 0 57.1398 15.3658 878 170.859 798.353 469.646
2725 0 59.2877 14.8091 878 171.104 799.107 468.827
2726 0 61.1208 15.4775 946 163.007 800.614 467.897
2727 0 63.1955 15.1593 958 167.419 797.452 466.687
2728 0 64.238 15.318 984 164.756 798.982 465.605
2729 0 66.2944 15.6122 1035 168.629 798.593 464.959
2730 0 69.1531 15.4295 1067 162.524 796.543 463.513
2731 0 73.1573 15.6786 1147 161.799 799.14 462.249
2732 0 75.209 15.3439 1154 163.114 797.073 461.105
2733 0 78.2308 15.4159 1206 164.449 797.152 459.486
2734 1 45.1085 15.2521 688 161.933 798.775 474.237
2735 0 46.252 15.221 704 170.619 796.893 474.501
2736 0 48.2748 15.1218 730 173.725 795.727 474.637
2737 0 48.1342 15.3321 738 172.603 794.948 474.493
2738 0 50.1518 15.5926 782 173.339 793.98 474.408
2739 0 51.3373 15.3105 786 168.125 794.373 474.182
2740 0 55.2485 15.3669 849 165.411 795.425 473.596
2741 0 56.3903 15.3041 863 163.07 793.458 472.861
2742 0 58.4224 15.4393 902 171.583 793.994 471.907
2743 0 60.2145 15.6275 941 162.349 793.825 471.199
2744 0 63.3176 15.4617 979 165.875 795.192 469.775
2745 0 66.1885 15.5012 1026 162.112 795.085 469.696
2746 0 68.1017 15.9467 1086 160.461 793.832 468.39
2747 0 72.24 15.2132 1099 167.433 793.554 466.904
2748 0 75.2484 15.1764 1142 162.034 794.129 465.727
2749 0 79.4173 14.9464 1187 160.162 794.74 464.376
2750 0 80.4112 15.2964 1230 163.578 794.074 462.886
2751 0 85.248 14.9916 1278 159.642 794.866 461.613
2752 0 89.2761 15.2336 1360 158.082 795.793 460.957
2753 0 91.4614 15.0993 1381 162.376 796.185 459.044
2754 0 95.2815 15.4385 1471 154.241 795.404 457.53
2755 0 98.3841 15.3785 1513 152.997 794.578 456.013
2756 0 102.405 15.468 1584 148.27 794.462 455.426
2757 1 52.403 13.1481 689 155.216 795.451 480.781
2758 0 52.2517 13.8177 722 157.251 794.634 480.74
2759 0 55.385 13.6499 756 148.89 793.655 480.417
2760 0 56.3111 13.8871 782 149.329 794.087 479.85
2761 0 58.5315 13.7874 807 146.836 794.907 479.14
2762 0 60.2659 13.8553 835 147.394 792.44 478.218
2763 0 62.3318 13.4121 836 150.28 792.413 478.356
2764 0 64.427 13.2708 855 163.323 793.671 477.628
2765 0 65.3029 14.2566 931 154.495 792.015 476.406
2766 0 69.427 13.741 954 163.13 792.213 475.411
2767 0 73.4024 13.678 1004 158.555 793.969 474.018
2768 0 74.2978 13.89 1032 158.516 792.864 472.7
2769 0 78.261 14.2472 1115 155.733 793.584 471.532
2770 0 81.4042 14.0165 1141 157.035 792.395 469.932
2771 0 84.3374 13.5646 1144 161.417 793.466 469.964
2772 0 88.3547 13.7967 1219 162.679 791.928 468.201
2773 0 90.4287 13.5908 1229 158.494 793.181 467.42
2774 1 50.3751 13.0025 655 158.472 793.118 485.276
2775 0 51.3462 13.8277 710 159.624 793.854 484.62
2776 0 55.2425 13.1059 724 157.511 792.421 483.496
2777 0 57.1562 13.6643 781 161.924 795.097 482.858
2778 0 58.3053 13.5494 790 157.827 792.529 482.552
2779 0 59.303 13.5575 804 161.495 793.612 481.642
2780 0 64.3958 13.6966 882 166.872 794.806 480.531
2781 0 64.2952 14.1846 912 159.771 794.367 479.897
2782 0 67.3595 13.8808 935 166.947 795.635 478.638
2783 0 70.3218 13.6515 960 163.208 794.975 477.917
2784 0 71.344 13.9605 996 163.834 794.147 476.745
2785 0 75.3804 13.9426 1051 167.157 794.824 475.828
2786 0 77.3459 13.8857 1074 173.812 794.153 474.886
2787 0 80.3448 14.2262 1143 171.915 794.454 472.705
2788 0 82.4 14.1019 1162 168.301 793.188 471.207
2789 0 85.5183 14.1607 1211 163.849 793.666 470.386
2790 0 88.3601 14.2711 1261 164.907 794.324 468.966
2791 0 92.4732 14.2852 1321 167.844 793.848 467.35
2792 0 94.3212 14.4824 1366 168.36 793.604 465.29
2793 0 98.1882 14.4315 1417 162.678 793.66 463.898
2794 0 102.2 14.5597 1488 161.776 794.867 462.182
2795 0 106.338 14.3317 1524 164.394 791.9 460.692
2796 0 110.305 14.614 1612 166.48 792.599 458.784
2797 1 55.2953 12.587 696 162.78 794.997 486.295
2798 0 55.2051 13.2053 729 163.285 792.912 485.095
2799 0 57.1464 13.0717 747 160.123 792.925 484.568
2800 0 60.2186 13.0525 786 165.136 792.095 482.941
2801 0 62.278 13.1989 822 158.32 793.516 482.505
2802 0 63.2928 13.7456 870 73.6977 793.464 481.91
2803 0 65.2979 13.6758 893 154.539 792.773 480.557
2804 0 67.201 13.5564 911 155.218 792.503 479.738
2805 0 72.1395 13.1828 951 166.253 792.889 478.71
2806 0 75.2233 13.666 1028 155.883 792.981 476.77
2807 0 77.1495 13.597 1049 162.443 793.046 476.009
2808 0 80.1446 13.4257 1076 159.877 791.936 474.962
2809 0 82.2495 13.5077 1111 162.266 790.81 473.662
2810 0 84.2089 13.4309 1131 162.523 791.975 472.972
2811 1 47.158 11.3872 537 147.939 792.371 492.732
2812 0 48.1199 11.3882 548 153.951 792.967 492.748
2813 0 48.0987 11.8714 571 142.128 791.03 493.193
2814 0 50.2783 12.033 605 151.719 790.793 492.61
2815 0 52.3654 12.0881 633 146.449 790.949 491.566
2816 0 53.3832 12.0824 645 151.898 790.616 491.194
2817 0 56.2271 11.8626 667 148.162 789.616 490.049
2818 0 56.419 12.3363 696 149.849 790.519 489.122
2819 0 57.2751 12.5709 720 154.753 789.243 488.574
2820 0 60.2607 12.1472 732 148.076 789.042 488.403
2821 0 62.2764 12.3161 767 149.789 788.866 487.309
2822 0 63.2985 12.5279 793 148.851 789.98 486.174
2823 0 66.4155 12.5573 834 154.546 788.381 485.173
2824 0 66.4155 12.5573 834 166.492 787.381 485.173
2825 0 73.355 12.6235 926 148.11 788.647 482.01
2826 0 76.4438 11.8388 905 156.393 788.807 480.948
2827 1 41.2804 10.5619 436 145.369 790.172 497.411
2828 0 44.2244 11.0572 489 136.489 789.953 496.898
2829 0 44.3114 10.8776 482 131.461 789.84 496.564
2830 0 47.298 10.9518 518 140.375 791.768 496.674
2831 0 47.2929 11.101 525 142.166 791.537 495.977
2832 0 49.306 11.3171 558 144.269 792.67 496.197
2833 0 51.2593 11.4126 585 139.157 791.188 494.523
2834 0 51.2896 11.2888 579 144.269 794.174 495.193
2835 0 52.2767 11.3244 592 144.868 793.248 494.713
2836 0 54.2687 11.4246 620 145.585 794.094 494.253
2837 0 56.3301 12.0184 677 145.978 793.223 493.406
2838 0 59.3267 11.6979 694 151.818 794.44 493.699
2839 0 60.2387 12.0189 724 146.675 795.231 492.007
2840 0 62.2403 11.8091 735 146.061 795.165 492.075
2841 0 64.3628 12.212 786 142.177 793.802 489.907
2842 0 67.2493 12.2975 827 155.148 795.791 489.571
2843 0 71.3472 12.0257 858 153.207 793.096 488.245
2844 0 73.3193 12.1114 888 151.812 794.438 486.024
2845 0 76.2666 12.0892 922 148.93 795.484 485.038
2846 1 42.2272 10.6093 448 149.473 795.417 502.969
2847 0 43.4024 11.3127 491 145.888 794.328 501.896
2848 0 43.3239 11.3794 493 139.041 792.828 501.223
2849 0 45.3574 11.1999 508 151.022 793.38 500.821
2850 0 45.3404 11.8437 537 140.942 793.179 499.618
2851 0 48.3268 11.6292 562 145.991 793.069 499.47
2852 0 49.237 12.2672 604 144.725 793.727 498.245
2853 0 49.237 12.2672 604 159.959 794.727 498.245
2854 0 54.2278 11.8389 642 146.044 792.66 495.654
2855 0 54.2584 11.2609 611 145.172 793.034 496.404
2856 0 56.3298 11.841 667 143.078 794.582 495.973
2857 0 56.2457 11.9298 671 142.228 792.86 494.48
2858 0 60.2925 12.091 729 140.781 792.553 492.595
2859 0 62.3264 12.242 763 140.216 794.28 491.777
2860 0 62.2458 12.2739 764 142.123 792.441 490.491
2861 0 63.1458 12.5741 794 140.534 793.137 490.149
2862 0 64.1803 12.9635 832 133.261 793.417 488.748
2863 0 69.1181 13.0935 905 137.298 792.772 488.208
2864 0 71.2578 12.6583 902 137.592 791.737 486.849
2865 0 73.5254 12.4311 914 141.739 793.415 485.943
2866 0 76.2772 12.861 981 135.813 791.287 485.495
2867 0 76.4645 12.8687 984 139.636 792.044 484.328
2868 0 79.2532 12.9837 1029 140.706 790.271 482.903
2869 1 41.2878 10.996 454 137.476 792.313 503.315
2870 0 42.2325 10.7737 455 144.648 791.736 502.714
2871 0 45.2454 11.2277 508 135.907 791.232 501.244
2872 0 46.2614 11.6944 541 144.209 791.836 502.442
2873 0 48.1811 12.0587 581 146.46 792.905 501.04
2874 0 49.1732 11.9577 588 135.702 791.874 500.687
2875 0 50.243 11.9619 601 150.579 791.225 500.083
2876 0 53.2869 12.292 655 145.768 792.347 499.049
2877 0 53.2713 12.502 666 150.269 791.285 499.174
2878 0 54.2129 12.9858 704 148.656 789.271 498.987
2879 0 56.2784 12.5803 708 150.263 790.312 498.438
2880 0 57.21 12.6726 725 147.149 789.908 498.697
2881 0 59.2797 12.8712 763 149.826 791.48 498.778
2882 0 65.1971 13.3135 868 147.735 793.092 495.109
2883 0 68.2473 13.4071 915 148.616 792.578 493.703
2884 0 68.2798 13.1518 898 145.125 791.598 495.393
2885 0 71.1811 13.4165 955 145.849 792.391 493.848
2886 0 71.1811 13.4165 955 166.256 793.391 493.848
2887 0 77.2274 13.5056 1043 147.15 790.928 492.058
2888 0 79.2005 13.5353 1072 146.066 789.907 490.884
2889 0 81.2008 13.2265 1074 148.322 790.865 490.617
2890 0 85.2795 13.1567 1122 149.624 791.255 489.821
2891 0 88.196 12.9825 1145 147.925 790.584 488.728
2892 1 48.1837 12.141 585 151.863 790.559 506.191
2893 0 50.3002 12.5049 629 145.445 791.541 504.994
2894 0 55.2443 13.1597 727 142.818 792.091 504.545
2895 0 56.2318 14.298 804 132.136 790.779 503.267
2896 0 59.142 15.1669 897 123.219 790.962 500.761
2897 0 59.2527 15.3411 909 129.463 792.319 500.563
2898 0 63.1352 15.0946 953 116.452 790.878 499.195
2899 0 64.1475 14.5446 933 130.338 792.145 499.285
2900 0 64.2143 14.436 927 129.167 791.518 498.288
2901 0 65.2917 15.2699 997 134.451 790.626 498.504
2902 0 68.1746 13.3774 912 136.685 791.825 498.113
2903 0 69.109 13.3268 921 137.102 790.98 497.515
2904 0 69.2966 13.7958 956 136.234 790.971 496.304
2905 0 73.1699 13.5575 992 139.216 792.753 496.064
2906 0 77.28 13.6775 1057 137.343 791.021 494.485
2907 0 79.2519 13.2741 1052 130.681 792.087 493.632
2908 0 82.2413 13.4847 1109 135.925 792.289 493.126
2909 0 84.371 13.9147 1174 138.423 791.204 490.484
2910 0 87.1512 13.5512 1181 139.186 791.655 490.005
2911 0 89.2541 13.2095 1179 139.429 789.856 488.044
2912 0 90.1499 13.8991 1253 139.559 792.132 486.395
2913 0 95.1547 13.4623 1281 137.135 791.442 485.859
2914 0 98.1798 13.5975 1335 141.846 791.828 483.967
2915 0 101.329 13.471 1365 138.784 789.212 482.456
2916 1 53.1641 11.5115 612 140.163 790.784 507.227
2917 0 54.2075 12.2308 663 140.066 790.807 505.661
2918 0 56.1964 12.6343 710 139.284 788.906 504.29
2919 0 58.2874 12.73 742 138.612 789.508 504.497
2920 0 59.2512 12.793 758 137.029 791.146 504.602
2921 0 61.2114 13.3309 816 140.151 790.135 503.154
2922 0 63.1953 13.1655 832 133.686 793.034 502.114
2923 0 65.1161 13.5143 880 131.739 791.884 500.997
2924 0 68.2722 13.1972 901 135.443 791.295 499.864
2925 0 71.2422 13.4892 961 128.623 790.784 498.454
2926 0 72.1697 13.6068 982 128.968 791.435 497.704
2927 0 74.2849 13.6905 1017 140.268 790.285 496.892
2928 0 77.2756 13.4972 1043 140.133 789.631 496.063
2929 0 79.1207 13.7385 1087 141.094 790.485 494.145
2930 0 80.2796 13.9761 1122 143.894 791.193 493.654
2931 0 85.2692 13.8972 1185 140.567 788.64 492.946
2932 0 87.3998 13.7529 1202 143.658 791.382 490.715
2933 0 88.4242 14.1929 1255 143.269 789.665 489.872
2934 0 92.385 13.8767 1282 146.977 791.871 488.483
2935 0 92.385 13.8767 1282 161.049 793.871 488.483
2936 0 92.385 13.8767 1282 161.049 795.871 488.483
2937 0 101.37 14.3139 1451 147.402 790.679 484.756
2938 0 105.402 14.0983 1486 147.511 792.151 483.371
2939 0 109.347 14.2574 1559 146.638 790.058 482.128
2940 0 112.286 14.6946 1650 139.702 789.43 480.085
2941 0 117.657 14.2788 1680 149.911 791.95 478.579
2942 1 65.2262 13.3382 870 144.593 789.956 503.479
2943 0 67.2939 13.0918 881 147.101 790.737 502.975
2944 0 71.3016 13.1273 936 141.052 791.755 501.566
2945 0 71.4441 13.4371 960 145.608 792.478 500.898
2946 0 76.2683 13.2296 1009 142.858 791.834 499.708
2947 0 75.4748 13.7927 1041 142.055 791.728 498.858
2948 0 80.5345 13.4725 1085 147.418 792.391 496.998
2949 0 81.3712 13.9238 1133 147.045 792.742 496.02
2950 0 85.4835 13.8389 1183 146.997 792.697 494.996
2951 0 88.5449 13.8913 1230 148.659 793.539 493.391
2952 0 91.5026 13.9777 1279 145.473 791.585 492.428
2953 0 95.5169 13.851 1323 152.15 792.445 491.298
2954 0 97.3894 14.1288 1376 148.674 790.782 489.029
2955 0 101.365 14.2258 1442 150.167 791.879 488.548
2956 0 105.292 13.9992 1474 152.72 791.135 486.332
2957 0 108.418 14.0106 1519 145.318 791.185 483.796
2958 1 58.1916 12.3901 721 143.241 791.226 505.908
2959 0 60.2526 12.265 739 145.107 790.808 507.468
2960 0 61.4034 13.1426 807 146.906 791.797 507.471
2961 0 63.2579 13.2474 838 148.889 791.057 507.19
2962 0 63.303 13.5065 855 146.018 790.18 506.869
2963 0 67.2332 12.9252 869 150.38 792.084 505.222
2964 0 69.233 12.9562 897 143.416 791.269 504.881
2965 0 71.2119 13.3686 952 140.612 790.637 504.432
2966 0 72.2449 13.2466 957 143.787 792.395 502.9
2967 0 75.2841 13.4424 1012 141.301 791.449 501.764
2968 0 77.2966 13.5064 1044 138.81 791.715 500.863
2969 0 79.3399 12.9947 1031 144.091 790.849 499.646
2970 0 81.3445 13.5965 1106 141.468 792.124 498.778
2971 0 84.2304 13.6055 1146 137.846 790.605 498.092
2972 0 85.2442 13.9364 1188 139.73 792.256 496.664
2973 0 90.3523 14.034 1268 133.871 791.978 495.309
2974 0 92.329 14.1992 1311 140.137 790.852 493.774
2975 0 95.5632 13.928 1331 137.164 789.899 491.829
2976 0 98.2247 14.1309 1388 136.063 790.51 490.947
2977 0 101.217 14.1083 1428 138.256 790.422 489.873
2978 0 104.14 14.2212 1481 131.731 790.93 488.165
2979 0 110.202 13.7565 1516 138.416 789.886 485.979
2980 0 113.267 14.1436 1602 137.333 790.579 483.371
2981 1 62.09 12.7557 792 132.668 790.543 508.484
2982 0 65.0985 12.9035 840 136.827 791.694 506.971
2983 0 66.1488 13.2882 879 134.019 791.105 506.926
2984 0 67.1531 13.5064 907 138.679 791.454 506.294
2985 0 71.1281 13.3843 952 136.655 792.554 505.832
2986 0 72.2774 13.6695 988 137.066 790.757 503.954
2987 0 76.1181 13.5973 1035 135.005 790.496 501.804
2988 0 77.2852 13.9872 1081 139.621 791.259 500.904
2989 0 81.1976 13.3378 1083 138.029 791.117 499.263
2990 0 84.1453 13.4291 1130 141.042 789.686 498.272
2991 0 87.2356 13.4578 1174 139.014 789.312 496.663
2992 0 89.1483 14.0777 1255 138.844 789.848 495.253
2993 0 93.2102 13.5607 1264 137.388 791.983 493.701
2994 0 96.1838 13.8069 1328 137.861 791.764 491.279
2995 1 53.166 11.5299 613 138.543 791.573 514.403
2996 0 53.141 12.3822 658 128.426 789.834 513.605
2997 0 55.152 12.4927 689 140.145 789.745 514.282
2998 0 56.1979 12.7941 719 131.74 791.277 513.782
2999 0 58.2226 12.6927 739 140.12 789.867 513.644
3000 0 59.1461 12.8326 759 135.601 790.137 512.906
3001 0 62.0819 13.4178 833 129.874 791.437 510.818
3002 0 64.1158 13.2105 847 133.854 791.066 510.86
3003 0 67.1946 12.7391 856 141.546 790.847 510.01
3004 0 69.2003 13.0635 904 138.799 790.559 509.593
3005 0 72.2044 12.9909 938 129.307 791.916 509.28
3006 0 74.199 12.7899 949 137.569 790.023 507.741
3007 0 76.2629 12.9814 990 138.226 791.294 506.089
3008 0 77.1499 13.5062 1042 135.434 790.437 505.339
3009 0 82.1002 13.1181 1077 139.248 790.057 502.587
3010 0 85.1633 13.1747 1122 135.094 791.819 501.229
3011 0 87.1576 13.5731 1183 123.688 790.747 499.276
3012 1 46.1438 11.2908 521 132.806 792.115 519.845
3013 0 48.1274 11.3865 548 135.688 791.785 518.973
3014 0 50.1647 11.9407 599 125.735 790.3 519.504
3015 0 51.2296 12.5708 644 132.32 792.104 519.986
3016 0 53.1891 12.2206 650 120.022 791.685 518.805
3017 0 53.1403 12.42 660 125.762 791.458 518.82
3018 0 55.1553 12.4376 686 122.471 790.773 517.888
3019 0 55.1987 12.8807 711 123.824 791.308 516.549
3020 0 58.2016 12.1818 709 125.059 790.755 516.159
3021 0 58.1242 12.8174 745 124.718 791.648 515.524
3022 0 61.2855 12.8415 787 125.903 791.33 515.471
3023 0 64.1267 12.5065 802 122.909 789.93 513.325
3024 0 65.2148 13.0799 853 127.528 790.533 512.863
3025 0 69.2106 12.7871 885 123.858 790.505 511.806
3026 0 70.301 12.9017 907 126.03 790.966 510.955
3027 0 73.3184 12.9572 950 124.149 791.9 509.516
3028 0 78.201 12.4423 973 122.684 791.597 507.099
3029 1 40.1401 10.5381 423 125.844 791.201 525.735
3030 0 42.1993 11.1376 470 123.964 789.821 525.523
3031 0 42.1821 12.3275 520 116.277 790.821 524.571
3032 0 44.2348 11.8911 526 122.232 791.65 524.162
3033 0 46.0927 12.2362 564 120.746 789.986 522.965
3034 0 48.272 12.3467 596 126.846 790.191 522.349
3035 0 48.2922 12.7557 616 117.804 791.984 520.961
3036 0 49.1597 12.3272 606 124.315 792.261 521.582
3037 0 50.2083 12.8266 644 121.252 791.12 520.863
3038 0 53.1454 12.6634 673 118.679 790.352 519.776
3039 0 55.3692 12.4257 688 124.025 789.536 520.509
3040 0 55.3408 12.7031 703 120.708 788.899 519.862
3041 0 57.2651 12.6953 727 117.565 789.792 520.887
3042 0 58.2035 13.1264 764 123.687 789.767 520.043
3043 0 61.2326 12.8853 789 116.105 791.033 518.289
3044 0 62.2077 13.5032 840 116.524 789.021 517.631
3045 0 65.2113 13.5559 884 119.421 789.774 516.48
3046 0 67.2595 13.5892 914 119.717 789.247 515.73
3047 0 68.2482 14.3007 976 117.426 791.128 514.784
3048 0 69.1642 14.1547 979 120.594 789.758 513.854
3049 0 73.2399 14.2136 1041 117.086 790.455 513.247
3050 0 76.1208 13.7676 1048 117.329 789.635 512.152
3051 0 78.1137 14.018 1095 115.242 787.767 510.69
3052 0 80.289 14.0243 1126 116.414 789.865 509.747
3053 0 82.1285 13.8442 1137 116.816 791.094 509.94
3054 0 84.1254 14.1337 1189 120.886 792.366 507.179
3055 0 88.2951 14.0098 1237 119.644 789.652 505.256
3056 0 90.2851 14.0776 1271 117.977 790.386 502.367
3057 1 50.1171 12.4109 622 120.574 789.662 522.396
3058 0 50.0431 13.3885 670 118.13 790.957 518.769
3059 0 53.153 13.3388 709 119.611 790.392 518.054
3060 0 53.0374 13.7639 730 123.818 790.629 516.941
3061 0 56.0997 13.5117 758 118.579 789.776 516.517
3062 0 57.1665 13.6444 780 123.277 791.146 516.681
3063 0 57.2492 14.1487 810 123.13 789.365 516.891
3064 0 59.3671 13.9977 831 118.992 789.9 516.816
3065 0 61.219 14.0153 858 120.283 789.941 516.528
3066 0 62.2012 13.9708 869 126.358 790.527 517.3
3067 0 66.156 13.9519 923 120.716 790.208 514.867
3068 0 67.1633 14.368 965 125.571 791.074 515.734
3069 0 69.1704 14.3558 993 128.197 791.574 515.813
3070 0 71.2566 14.104 1005 129.497 790.116 515.841
3071 0 73.2866 14.3955 1055 126.187 789.308 514.221
3072 0 75.3037 14.0099 1055 131.442 787.928 514.322
3073 0 78.2583 14.2605 1116 128.048 789.082 512.406
3074 0 79.1663 14.198 1124 132.493 790.011 512.218
3075 0 82.3619 14.6063 1203 129.899 788.312 509.763
3076 0 85.4116 14.6936 1255 130.602 789.088 509.767
3077 0 88.4299 14.4974 1282 129.076 789.342 508.388
3078 0 90.2805 14.8537 1341 131.561 789.819 507.077
3079 0 95.3097 14.4057 1373 135.028 787.755 505.135
3080 0 98.4143 14.2154 1399 130.902 788.771 503.479
3081 1 50.114 12.8707 645 134.887 789.098 527.268
3082 0 52.1382 13.0039 678 130.121 789.406 527.109
3083 0 53.1458 13.3218 708 134.119 789.147 527.155
3084 0 54.1577 13.8115 748 128.885 787.168 525.715
3085 0 56.1956 13.5598 762 133.236 787.778 525.883
3086 0 57.4355 13.772 791 132.736 788.949 525.444
3087 0 59.2095 13.7478 814 129.252 788.924 525.15
3088 0 60.163 14.2114 855 132.274 789.094 524.194
3089 0 62.2275 14.3988 896 128.489 789.86 523.671
3090 0 66.2816 13.9254 923 132.295 788.344 520.98
3091 0 68.0878 14.2023 967 135.462 789.254 521.204
3092 0 69.2013 14.2483 986 136.015 788.01 519.779
3093 0 72.2622 14.1153 1020 136.22 788.614 518.979
3094 0 72.2622 14.1153 1020 173.197 788.614 518.979
3095 0 77.27 13.6534 1055 132.825 788.033 517.082
3096 0 77.1804 14.2782 1102 129.143 788.762 516.312
3097 0 82.2499 14.0304 1154 135.565 788.541 515.549
3098 0 86.1565 13.696 1180 136.058 787.515 513.168
3099 0 87.1171 14.2682 1243 133.131 789.059 511.166
3100 1 44.0357 12.3536 544 132.213 789.884 534.259
3101 0 44.0687 12.889 568 125.437 789.833 533.923
3102 0 46.1162 13.054 602 126.703 789.046 534.967
3103 0 48.104 13.2006 635 126.096 788.072 534.129
3104 0 49.2657 13.3561 658 126.771 790.286 533.702
3105 0 49.12 13.5993 668 128.966 790.482 533.079
3106 0 52.1129 13.298 693 127.306 790.706 533.281
3107 0 53.15 13.5466 720 130.528 787.854 533.603
3108 0 54.1593 13.5895 736 132.856 788.999 533.315
3109 0 55.1101 13.7724 759 129.403 788.121 532.445
3110 0 58.1735 13.4597 783 131.097 788.942 532.335
3111 0 59.0958 13.9435 824 127.6 788.458 532.152
3112 0 60.1327 13.8527 833 129.24 787.666 530.601
3113 0 63.1756 13.5654 857 130.414 789.223 531.323
3114 0 63.1279 13.9716 882 132.694 787.292 530.478
3115 0 66.089 13.966 923 134.36 787.166 529.716
3116 0 68.1621 13.4532 917 130.902 787.738 529.648
3117 0 70.2915 13.9988 984 131.825 788.957 527.987
3118 0 72.2548 13.4247 970 133.628 788.504 528.445
3119 0 77.163 13.7112 1058 129.91 789.051 526.286
3120 1 44.0567 12.3023 542 136.242 787.852 542.422
3121 0 44.1017 13.3555 589 135.732 791.28 541.496
3122 0 47.0697 13.2782 625 136.562 790.192 540.584
3123 0 49.1073 13.1345 645 133.533 788.442 540.746
3124 0 50.0837 13.4774 675 126.683 788.08 539.727
3125 0 51.0489 13.3989 684 141.203 788.44 539.594
3126 0 51.1128 13.9691 714 136.801 788.104 539.478
3127 0 54.1532 13.8865 752 139.221 788.891 538.327
3128 0 57.1292 13.6883 782 140.546 786.762 537.665
3129 0 56.1027 14.2239 798 139.237 788.585 537.278
3130 0 57.0836 14.3999 822 142.191 787.431 536.45
3131 0 60.1806 14.4399 869 143.881 787.53 535.277
3132 0 61.1903 14.0872 862 140.623 787.935 534.263
3133 0 64.163 14.1826 910 139.555 785.199 533.658
3134 0 65.0833 14.2125 925 143.225 787.865 533.222
3135 0 69.0884 14.0834 973 138.496 788.013 532.65
3136 0 72.0642 14.0014 1009 140.02 787.665 530.383
3137 0 73.1155 14.3198 1047 142.679 787.158 529.699
3138 0 77.1779 13.9807 1079 146.002 787.787 528.189
3139 0 78.3033 14.4949 1135 139.472 788.242 526.979
3140 0 82.1747 14.2623 1172 142.246 786.931 525.324
3141 0 85.2174 14.1638 1207 137.607 786.833 523.137
3142 1 46.1896 12.2538 566 147.088 787.654 542.475
3143 0 47.1368 12.8138 604 143.732 789.113 541.805
3144 0 49.0968 12.9947 638 144.741 788.865 541.872
3145 0 49.0616 13.4729 661 150.61 788.534 541.178
3146 0 51.2251 14.2313 729 146.075 789.273 540.576
3147 0 54.3027 13.9036 755 147.821 788.76 539.832
3148 0 55.266 13.8964 768 153.652 789.272 539.915
3149 0 55.1701 14.555 803 152.21 788.331 539.264
3150 0 58.2375 14.3893 838 151.148 789.767 538.131
3151 0 61.1819 14.2853 874 153.46 789.283 537.778
3152 0 62.1129 14.7151 914 158.023 788.84 536.687
3153 0 63.2297 14.8822 941 156.698 789.003 535.978
3154 0 66.1008 14.9015 985 163.186 789.91 535.586
3155 0 68.0557 14.8849 1013 164.361 791.233 534.7
3156 0 72.2344 14.9375 1079 162.321 792.773 533.64
3157 0 73.1518 14.9825 1096 168.596 791.542 532.792
3158 0 76.1191 15.3575 1169 162.433 791.498 531.482
3159 0 78.1913 14.9633 1170 165.643 789.643 531.08
3160 0 80.1935 15.2257 1221 169.714 790.319 529.421
3161 0 82.1488 15.1311 1243 164.795 791.252 528.774
3162 0 84.1554 15.4239 1298 159.53 791.38 527.114
3163 0 88.483 15.212 1346 169.223 790.427 526.411
3164 0 91.221 14.8869 1358 170.391 787.216 524.471
3165 0 94.0954 15.1867 1429 170.748 789.856 522.812
3166 0 98.233 14.8321 1457 158.223 789.8 521.082
3167 0 100.318 14.9425 1499 165.793 787.153 520.506
3168 1 56.2481 13.2627 746 167.202 789.404 542.728
3169 0 57.1641 14.0648 804 160.933 789.695 541.143
3170 0 57.0873 14.1538 808 167.478 789.182 541.244
3171 0 61.1363 14.1487 865 161.392 790.497 541.259
3172 0 64.105 14.0707 902 159.592 789.724 539.732
3173 0 66.1138 14.112 933 156.911 790.655 539.07
3174 0 69.1951 14.1773 981 165.186 789.518 538.202
3175 0 70.2006 14.3731 1009 154.808 789.57 536.883
3176 0 72.0986 14.5773 1051 48.5452 790.068 535.707
3177 0 76.1366 14.4214 1098 161.714 790.118 534.474
3178 0 78.0812 14.5618 1137 161.309 790.831 533.727
3179 0 81.1674 14.5378 1180 163.129 790.221 531.365
3180 0 85.1963 14.4255 1229 164.349 790.629 530.234
3181 0 88.0834 14.5657 1283 154.729 790.032 528.762
3182 0 91.0717 14.4282 1314 163.482 789.622 527.635
3183 0 96.1067 14.2446 1369 166.21 788.671 525.869
3184 1 50.055 13.645 683 168.75 790.46 547.688
3185 0 53.2055 13.664 727 161.894 790.946 546.876
3186 0 54.1558 13.6643 740 165.419 791.431 546.269
3187 0 56.0182 13.7991 773 171.26 791.666 545.088
3188 0 58.0882 14.0648 817 167.796 790.563 544.062
3189 0 60.1425 13.9502 839 162.704 789.479 542.673
3190 0 63.0742 14.2689 900 162.337 790.816 541.384
3191 0 65.1323 14.2172 926 166.989 790.813 540.465
3192 0 66.2327 14.4944 960 169.832 790.618 539.288
3193 0 70.1073 14.435 1012 169.719 791.565 537.965
3194 0 71.2111 14.4359 1028 166.54 791.876 537.358
3195 0 76.2338 14.2719 1088 158.826 789.259 534.642
3196 0 77.247 14.6802 1134 159.283 789.906 533.804
3197 0 81.1182 14.6083 1185 160.874 789.844 531.572
3198 0 84.1807 14.5045 1221 160.377 790.911 530.923
3199 0 86.173 14.3897 1240 166.571 792.305 530.927
3200 0 90.1298 14.5568 1312 163.242 789.386 528.411
3201 0 92.3773 14.4191 1332 165.808 790.429 527.214
3202 0 97.2116 14.5353 1413 158.983 789.439 525.854
3203 1 51.1218 13.2429 677 162.818 789.832 547.576
3204 0 54.1698 13.79 747 163.378 790.509 546.566
3205 0 54.2609 14.1538 768 161.96 791.648 546.366
3206 0 57.1317 14.0377 802 157.764 791.192 545.621
3207 0 59.1966 13.9197 824 161.39 790.618 544.847
3208 0 61.1714 13.9444 853 158.098 790.62 544.485
3209 0 62.1578 14.2701 887 161.74 789.584 543.393
3210 0 66.4651 13.7516 914 160.065 790.779 542.332
3211 0 69.5065 13.9268 968 155.886 789.262 540.732
3212 0 71.3538 14.0427 1002 160.725 789.932 540.072
3213 0 72.4663 14.5171 1052 159.128 790.265 538.637
3214 0 75.3221 14.4446 1088 159.044 790.163 537.637
3215 0 78.2379 14.2642 1116 159.704 789.072 536.474
3216 0 81.3697 14.5509 1184 161.314 790.982 535.562
3217 0 85.3629 14.2802 1219 157.591 791.033 534.593
3218 0 88.2949 13.9193 1229 152.221 789.652 532.049
3219 0 89.3852 14.555 1301 157.571 790.94 531.223
3220 0 94.3031 14.5806 1375 164.877 790.423 529.495
3221 0 97.2476 14.6945 1429 154.386 791.64 527.902
3222 0 101.315 14.598 1479 161.757 789.673 525.769
3223 1 51.241 13.5829 696 164.279 788.789 549.072
3224 0 54.3649 13.7957 750 157.785 790.212 547.939
3225 0 56.0966 13.9224 781 161.485 789.842 546.894
3226 0 58.3521 13.6242 795 161.574 790.097 545.626
3227 0 59.2049 14.1036 835 152.172 790.175 545.222
3228 0 62.213 14.37 894 166.575 790.867 544.497
3229 0 64.2113 14.4523 928 163.412 790.739 543.765
3230 0 67.3241 14.1257 951 162.859 791.38 542.89
3231 0 69.3838 14.0523 975 166.274 790.95 542.7
3232 0 71.2412 14.5 1033 156.814 792.302 541.653
3233 0 74.6128 14.3139 1068 162.627 792.186 540.811
3234 0 76.4648 14.4119 1102 165.004 788.814 540.077
3235 0 79.361 14.5159 1152 163.129 790.836 538.763
3236 0 81.383 14.7082 1197 165.876 791.216 537.581
3237 0 83.65 14.5009 1213 160.411 790.021 536.272
3238 0 88.6193 14.6808 1301 158.456 790.298 535.135
3239 0 91.3469 14.8773 1359 164.023 788.001 534.296
3240 0 94.3431 15.0302 1418 169.192 789.935 532.192
3241 0 96.3937 15.2707 1472 163.822 789.495 531.624
3242 0 99.2459 15.255 1514 161.611 789.435 529.846
3243 0 105.422 14.6553 1545 167.116 789.604 528.524
3244 0 109.501 15.0409 1647 164.856 789.69 526.449
3245 1 57.2101 14.3331 820 167.116 788.589 551.424
3246 0 58.1946 14.4515 841 168.734 788.779 550.888
3247 0 62.1548 14.3513 892 167.103 788.936 549.369
3248 0 65.1272 14.1416 921 168.966 788.54 548.62
3249 0 66.194 14.2309 942 165.812 790.064 547.82
3250 0 68.195 14.6638 1000 167.443 789.728 547.416
3251 0 72.469 14.2958 1036 166.545 789.015 546.324
3252 0 74.424 14.4308 1074 168.375 788.574 545.227
3253 0 75.289 14.9823 1128 166.992 789.603 544.178
3254 0 79.3346 14.9241 1184 155.447 787.66 542.865
3255 0 83.104 14.4758 1203 164.426 788.7 541.526
3256 0 85.3816 14.4411 1233 161.526 789.718 540.311
3257 0 88.1739 14.6642 1293 162.483 789.75 538.743
3258 0 91.2305 14.7867 1349 160.965 789.002 536.625
3259 0 95.2203 14.7553 1405 161.451 788.869 534.828
3260 1 51.2713 13.0872 671 164.013 789.645 556.449
3261 0 50.2941 14.2164 715 164.394 790.552 555.79
3262 0 54.2232 13.9608 757 160.501 789.277 554.836
3263 0 54.2232 13.9608 757 175.915 787.277 554.836
3264 0 57.2589 14.2685 817 168.508 787.761 553.872
3265 0 58.2618 14.3319 835 167.434 788.081 553.374
3266 0 60.352 14.0012 845 163.069 789.043 552.718
3267 0 62.4993 14.2242 889 171.295 786.703 551.546
3268 0 64.3141 14.5691 937 160.365 788.132 550.116
3269 0 66.2997 14.6305 970 159.77 787.308 549.281
3270 0 69.1929 14.7125 1018 163.163 787.916 548.436
3271 0 72.4382 14.1776 1027 161.585 787.995 547.244
3272 0 74.3944 14.6651 1091 165.041 788.599 545.096
3273 0 74.3944 14.6651 1091 176.359 789.599 545.096
3274 0 80.1544 14.4845 1161 157.2 789.836 542.627
3275 0 82.2668 14.4651 1190 162.961 791.029 540.475
3276 0 87.2038 14.2884 1246 161.321 791.214 538.917
3277 0 90.4294 14.3095 1294 165.83 790.236 537.515
3278 1 48.1953 13.632 657 151.146 788.898 557.928
3279 0 50.2456 13.4539 676 161.905 789.401 556.274
3280 0 52.3062 13.4974 706 161.254 788.938 556.021
3281 0 53.2418 13.711 730 161.752 790.822 555.758
3282 0 53.232 13.6009 724 161.736 788.811 555.725
3283 0 53.232 13.6009 724 178.066 786.811 555.725
3284 0 58.2003 13.8144 804 154.836 789.966 554.057
3285 0 60.2713 13.8872 837 161.314 788.259 553.572
3286 0 60.2713 13.8872 837 176.037 786.259 553.572
3287 0 64.2203 14.0454 902 166.738 789.239 551.201
3288 0 66.2956 14.4655 959 158.614 788.728 550.248
3289 0 68.3549 14.1321 966 164.208 788.421 549.353
3290 0 70.2183 14.2271 999 159.334 789.753 548.305
3291 0 72.1701 14.2857 1031 165.577 788.931 547.749
3292 0 75.3585 14.6765 1106 164.44 788.893 547.241
3293 0 79.2575 14.3456 1137 164.735 788.434 545.566
3294 0 81.1771 14.3021 1161 163.968 789.401 543.892
3295 0 85.3196 14.2171 1213 159.162 790.183 542.392
3296 0 88.2906 14.5429 1284 160.337 789.351 541.041
3297 0 88.2944 14.7121 1299 167.313 789.461 539.874
3298 0 94.2374 14.5484 1371 153.47 790.044 538.034
3299 0 98.179 14.2698 1401 163.814 789.175 535.72
3300 1 55.1652 13.2874 733 164.587 789.225 556.497
3301 0 57.3044 13.3847 767 164.242 788.769 556.022
3302 0 57.1642 13.6274 779 159.343 789.288 556.289
3303 0 59.2926 13.8297 820 160.029 788.173 554.918
3304 0 62.3314 13.9897 872 168.862 788.493 554.033
3305 0 64.31 13.777 886 162.511 788.773 553.701
3306 0 66.3299 13.7645 913 161.045 789.758 552.432
3307 0 68.554 13.9306 955 162.571 789.126 552.064
3308 0 72.4197 13.8222 1001 161.144 788.682 551.234
3309 0 75.48 14.0567 1061 153.568 787.977 549.228
3310 0 75.364 14.4366 1088 165.173 788.875 549.046
3311 0 80.3623 13.8249 1111 162.11 789.146 547.554
3312 0 82.553 14.1 1164 165.527 788.09 546.248
3313 0 85.4063 14.1442 1208 166.62 788.535 545.294
