index division length width area intensity CMx CMy
0 0 59.0385 16.6671 984 146.678 857.803 506.782
1 0 61.0704 16.9968 1038 157.565 858.026 505.377
2 0 65.0992 17.4656 1137 156.634 859.82 504.229
3 0 66.0735 16.633 1099 156.932 861.106 505.187
4 0 67.184 16.8195 1130 157.145 860.937 502.735
5 0 69.0676 16.7372 1156 154.542 862.433 502.625
6 0 72.0625 16.9853 1224 162.953 861.161 502.362
7 0 74.088 16.8178 1246 157.69 860.666 503.1
8 0 77.0496 17.1967 1325 155.592 860.512 502.391
9 0 80.0969 17.0793 1368 156.605 861.341 501.868
10 0 83.1294 16.8653 1402 161.84 859.838 501.622
11 0 86.0916 16.6451 1433 151.417 859.297 501.116
12 0 87.0979 16.8776 1470 164.097 856.405 501.847
13 0 90.1416 16.9733 1530 164.377 857.896 501.244
14 0 93.0742 16.6534 1550 158.836 857.834 500.167
15 0 97.1284 16.9158 1643 161.209 858.432 499.438
16 0 99.0863 17.0458 1689 162.863 857.902 498.799
17 0 103.385 16.6466 1721 164.544 856.969 497.754
18 1 57.1058 14.3943 822 175.483 855.532 522.193
19 0 59.0818 14.5392 859 173.205 855.634 521.676
20 0 59.1349 14.746 872 174.587 854.916 521.748
21 0 62.1979 14.5825 907 168.374 854.476 521.123
22 0 66.074 14.8016 978 175.384 853.887 520.152
23 0 67.1064 14.6484 983 175.814 854.039 520.288
24 0 69.324 14.7568 1023 161.967 852.978 518.609
25 0 73.1632 14.6112 1069 170.999 853.109 517.517
26 0 75.1154 14.764 1109 164.078 852.968 515.726
27 0 78.2063 14.7942 1157 172.131 853.489 513.835
28 0 80.1301 14.7011 1178 169.963 854.165 513.121
29 0 83.2229 14.6474 1219 165.384 853.448 510.778
30 0 84.2185 15.1392 1275 170.877 854.581 508.478
31 0 88.1456 14.7143 1297 174.384 853.103 505.32
32 0 90.2286 14.8179 1337 170.945 854.012 503.467
33 0 95.299 15.0159 1431 169.974 855.465 499.468
34 0 98.2241 14.8538 1459 161.685 857.126 496.199
35 0 99.1663 14.8034 1468 163.698 857.147 493.951
36 1 52.3022 13.747 719 168.281 859.127 515.904
37 0 53.0699 13.9816 742 160.594 860.243 514.666
38 0 56.2075 13.5925 764 163.804 859.192 513.577
39 0 57.165 14.0471 803 153.305 860.37 512.587
40 0 57.165 14.0471 803 163.009 861.37 512.587
41 0 62.1868 14.0544 874 161.394 861.132 510.15
42 0 63.1229 14.2262 898 159.808 860.745 509.423
43 0 67.2399 13.8608 932 157.52 862.49 508.069
44 0 68.1353 14.3391 977 160.382 861.402 507.309
45 0 71.2084 14.2539 1015 159.878 862.532 506.231
46 0 73.2832 14.0551 1030 162.081 861.793 505.898
47 0 77.2928 13.9858 1081 161.452 861.12 503.752
48 0 80.2269 13.8233 1109 156.232 860.876 503.31
49 0 82.2924 13.9867 1151 157.201 861.526 502.802
50 0 85.2876 13.9762 1192 153.803 860.952 501.148
51 0 88.3716 13.7827 1218 157.583 860.167 500.793
52 0 90.1559 14.0756 1269 157.471 861.083 499.61
53 1 49.1254 12.4376 611 153.043 860.208 521.128
54 0 49.1532 12.9595 637 156.571 860.071 521.278
55 0 52.0921 13.1498 685 152.307 858.444 520.558
56 0 53.0606 13.1925 700 150.616 858.889 519.667
57 0 56.3102 12.8573 724 151.985 859.499 518.99
58 0 58.21 13.1764 767 156.906 860.207 517.402
59 0 60.3192 12.7654 770 159.188 858.395 517.279
60 0 62.2952 13.3076 829 156.426 857.93 515.969
61 0 64.2859 13.3777 860 160.588 856.251 515.019
62 0 67.3042 12.9858 874 156.637 857.934 513.717
63 0 69.2221 13.2617 918 159.352 859.795 512.496
64 0 69.2221 13.2617 918 169.893 861.795 512.496
65 0 68.2609 13.8732 947 160.186 858.06 510.811
66 0 76.1833 13.8219 1053 164.904 858.257 508.595
67 0 79.1564 13.2901 1052 160.244 857.912 507.396
68 0 80.1913 13.9167 1116 160.395 858.207 505.818
69 0 85.1656 13.8554 1180 160.448 857.521 504.131
70 0 88.2361 13.9512 1231 161.345 857.721 502.041
71 0 90.118 13.793 1243 163.949 858.105 500.747
72 0 98.4005 13.9024 1368 157.852 858.534 497.158
73 1 50.0693 12.5027 626 154.625 858.489 520.153
74 0 51.1978 13.106 671 159.584 856.692 518.861
75 0 51.0777 13.2739 678 161.67 857.296 518.223
76 0 54.2052 12.9692 703 160.08 862.149 517.38
77 0 54.33 13.2892 722 165.837 859.724 515.841
78 0 57.2769 12.8673 737 162.319 861.531 514.809
79 0 60.2235 13.151 792 158.212 861.23 513.409
80 0 60.1669 13.4792 811 160.363 859.223 512.089
81 0 63.1832 13.4055 847 166.535 860.403 510.841
82 0 65.212 13.2644 865 164.746 859.768 508.958
83 0 68.1932 12.7872 872 158.912 860.011 508.338
84 0 71.4884 13.3029 951 167.483 859.875 507.003
85 0 73.2104 13.3724 979 162.653 859.824 505.561
86 0 73.2104 13.3724 979 176.1 859.824 505.561
87 0 78.2952 13.117 1027 164.748 862.46 502.658
88 0 79.268 13.6625 1083 164.139 859.78 501.227
89 0 84.2782 13.3487 1125 158.493 860.398 500.228
90 0 87.1982 13.326 1162 159.201 861.053 499.089
91 1 46.073 11.6771 538 159.649 861.249 520.206
92 0 48.0392 12.1776 585 155.694 860.656 519.262
93 0 47.2293 12.7675 603 160.055 861.4 518.934
94 0 50.2216 12.5643 631 161.361 860.87 518.106
95 0 50.1976 12.7297 639 161.784 860.695 518.401
96 0 53.1255 12.7999 680 166.047 860.9 516.549
97 0 54.1968 13.0451 707 165.28 859.446 516.86
98 0 54.1968 13.0451 707 172.274 857.446 516.86
99 0 56.1197 13.3999 752 163.368 859.765 515.581
100 0 56.1197 13.3999 752 174.189 862.765 515.581
101 0 61.1451 13.4271 821 165.773 859.085 513.285
102 0 63.1623 13.4416 849 164.071 860.481 512
103 0 64.1918 13.5687 871 156.598 861.549 511.126
104 0 67.0872 13.475 904 158.471 860.459 510.156
105 0 70.0807 13.1563 922 166.963 859.565 509.177
106 0 72.1404 13.8203 997 160.451 860.444 507.413
107 0 75.1927 13.3391 1003 153.372 858.332 506.131
108 0 79.1048 12.9448 1024 163.506 860.229 504.847
109 0 80.1542 13.6487 1094 159.154 860.657 502.478
110 0 84.0669 13.287 1117 157.779 861.237 501.1
111 1 41.0935 12.4107 510 150.976 859.198 520.961
112 0 45.0724 12.1138 546 153.751 860.026 520.255
113 0 45.2196 12.0081 543 155.796 861.063 519.488
114 0 47.2741 12.3535 584 158.673 861.479 518.11
115 0 48.1179 12.3031 592 159.343 861.28 517.774
116 0 48.2123 12.839 619 153.961 861.809 516.787
117 0 50.1071 13.3713 670 160.201 861.191 515.97
118 0 53.177 12.5994 670 163.084 860.581 515.337
119 0 53.1381 13.2673 705 161.782 859.255 513.712
120 0 56.1713 12.8357 721 155.505 861.473 512.953
121 0 58.1814 12.7189 740 157.918 862.38 512.443
122 0 59.1848 13.517 800 157.861 862.816 511.491
123 0 62.2222 13.0339 811 155.576 863.392 510.036
124 0 64.1193 12.6483 811 157.192 862.164 509.092
125 0 66.1852 13.0845 866 156.096 861.555 507.902
126 0 69.0967 13.3581 923 153.044 862.285 506.38
127 0 69.3337 13.7451 953 149.79 862.537 505.837
128 0 73.149 13.3016 973 152.815 861.573 504.337
129 0 76.2322 13.1703 1004 151.099 862.712 502.912
130 0 78.2541 13.2645 1038 156.517 863.843 502.104
131 0 81.251 13.3414 1084 149.969 865.183 500.56
132 1 40.168 11.0287 443 152.625 861.226 520.718
133 0 42.202 11.1369 470 150.696 862.598 519.972
134 0 43.2314 11.7276 507 148.065 860.748 519.239
135 0 44.3336 11.9999 532 153.085 860.868 518.69
136 0 45.2117 12.3641 559 151.744 861.902 518.064
137 0 45.2053 12.3216 557 148.057 859.521 517.851
138 0 46.4223 12.6017 585 151.59 864.509 517.581
139 0 48.1766 12.4542 600 151.7 862.852 516.9
140 0 50.239 12.1022 608 155.526 861.523 516.457
141 0 51.1082 12.5812 643 156.802 861.806 515.851
142 0 54.3262 12.4249 675 154.944 860.616 514.73
143 0 55.2084 12.806 707 161.341 860.909 514.349
144 0 55.1696 13.1957 728 158.651 860.852 513.165
145 1 69.2124 13.2491 917 153.707 861.827 506.015
146 0 69.2124 13.2491 917 174.567 863.827 506.015
147 0 76.2195 13.3562 1018 153.294 860.624 503.231
148 0 76.2195 13.3562 1018 170.61 856.624 503.231
149 0 83.2535 12.9724 1080 152.785 861.861 501.093
150 0 86.3167 12.7901 1104 152.399 860.581 499.514
151 0 89.2562 12.761 1139 147.896 860.083 497.839
152 1 46.0353 11.2957 520 139.625 859.76 518.94
153 0 47.0705 11.7908 555 141.05 860.622 518.441
154 0 49.0952 11.5286 566 144.456 862.046 517.337
155 0 51.0559 11.6735 596 142.547 860.07 516.537
156 0 53.1451 11.986 637 136.275 859.538 516.319
157 0 53.0703 12.2856 652 141.822 858.98 515.351
158 0 55.1822 12.1054 668 140.389 861.178 514.969
159 0 55.2175 12.7315 703 140.787 860.097 512.983
160 0 58.1471 12.7607 742 144.562 861.606 511.83
161 0 58.1471 12.7607 742 163.263 862.606 511.83
162 0 64.1718 12.3575 793 144.427 862.227 510.61
163 0 65.0785 12.7385 829 140.859 861.454 510.421
164 0 65.1207 12.8838 839 140.337 861.932 509.892
165 0 67.137 13.182 885 131.66 860.386 509.084
166 0 71.1438 12.5661 894 144.932 860.53 508.523
167 0 71.1538 12.6908 903 148.556 860.969 507.06
168 0 75.1455 12.8418 965 147.07 862.394 506.297
169 0 76.1234 13.1628 1002 145.313 861.522 505.534
170 0 80.1281 12.9667 1039 144.897 860.244 504.162
171 0 80.1162 13.1933 1057 147.711 860.815 503.063
172 0 85.215 13.0024 1108 143.49 860.487 501.193
173 0 87.1801 13.4205 1170 146.245 859.932 499.942
174 0 91.0931 13.2612 1208 147.478 860.83 498.681
175 0 93.13 13.2181 1231 141.525 859.98 496.941
176 0 97.1219 13.0043 1263 145.124 860.641 495.957
177 0 100.245 13.0979 1313 148.321 860.22 494.366
178 1 51.126 11.7161 599 149.025 860.444 518.624
179 0 53.199 12.4438 662 141.909 860.878 517.893
180 0 55.1357 12.4783 688 142.788 862.295 516.452
181 0 56.1955 12.6345 710 143.872 861.579 516.085
182 0 59.1661 12.8114 758 141.807 863.29 514.962
183 0 60.2275 12.7018 765 136.795 861.133 514.184
184 0 62.2283 12.7113 791 141.719 859.957 513.33
185 0 65.1986 12.761 832 141.096 860.197 511.668
186 0 67.1613 12.8794 865 136.295 860.716 510.449
187 0 68.1643 13.0127 887 128.665 862.434 508.879
188 0 68.1622 13.3505 910 131.767 862.078 508.082
189 0 73.2862 12.9765 951 124.142 861.576 507.037
190 0 74.1452 12.9745 962 129.767 862.159 505.813
191 0 77.2034 13.2119 1020 131.727 863.886 504.388
192 0 80.2107 13.2651 1064 125.305 860.554 502.508
193 0 81.1241 13.165 1068 132.228 860.339 501.978
194 0 84.1454 12.8587 1082 133.998 861.283 501.163
195 0 87.1516 13.2642 1156 130.74 863.631 498.532
196 0 91.2616 13.0394 1190 132.724 861.642 497.242
197 0 95.1586 13.2936 1265 129.071 862.84 495.227
198 0 99.2974 13.2028 1311 125.878 861.912 493.582
199 1 48.3047 11.2619 544 123.52 861.537 518.546
200 0 47.3585 11.9514 566 128.712 862.647 518.403
201 0 49.1127 11.667 573 130.754 861.044 517.749
202 0 51.0468 11.8323 604 136.329 861.535 517.033
203 0 53.0701 12.5306 665 130.269 862.402 515.52
204 0 55.0794 12.255 675 131.585 862.825 513.976
205 0 57.0773 12.0889 690 132.458 862.751 512.675
206 0 58.0777 12.3283 716 130.797 861.767 512.293
207 0 59.083 12.6602 748 128.634 860.571 510.416
208 0 62.1618 12.4192 772 131.768 860.19 509.662
209 0 64.2572 12.4655 801 127.106 860.121 508.265
210 0 66.1811 12.5262 829 133.277 861.782 507.122
211 0 68.1896 12.5826 858 134.212 860.499 505.569
212 0 70.2126 12.8325 901 130.067 861.354 504.691
213 0 72.2611 12.441 899 135.17 863.132 503.587
214 0 74.247 12.849 954 129.892 863.37 502.114
215 0 78.3376 12.5227 981 134.937 863.563 500.799
216 0 80.3215 12.6741 1018 135.053 863.888 499.026
217 0 83.2956 12.4616 1038 134.882 861.317 497.783
218 0 86.1828 12.8564 1108 138.863 861.731 496.495
219 0 89.2353 12.8873 1150 139.439 861.921 494.699
220 0 91.2382 12.9113 1178 139.991 862.587 493.205
221 1 47.0631 11.2827 531 139.414 861.949 515.051
222 0 49.0682 11.3719 558 139.222 862.03 514.416
223 0 50.0794 11.1223 557 143.113 860.964 513.851
224 0 52.0639 11.6587 607 142.002 861.672 512.898
225 0 52.1638 12.0965 631 141.149 862.133 512.103
226 0 55.1531 12.0573 665 139.244 862.274 510.624
227 0 56.1567 12.1268 681 146.142 863.833 509.389
228 0 57.1265 12.376 707 143.769 864.625 508.898
229 0 60.155 12.5343 754 137.142 863.253 507.707
230 0 61.1814 12.4057 759 146.163 862.278 507.369
231 0 62.138 12.5849 782 141.972 863.353 506.79
232 0 65.2169 12.4201 810 143.38 862.514 505.494
233 0 66.2421 12.7713 846 142.129 862.318 504.161
234 0 69.1415 12.5684 869 139.511 863.669 503.293
235 0 69.186 13.1963 913 136.922 862.308 501.79
236 0 73.1957 12.7057 930 139.183 861.872 500.514
237 0 75.2538 12.8631 968 139.24 863.763 499.979
238 0 77.1791 12.8532 992 135.874 863.836 497.872
239 0 81.1187 12.8084 1039 139.607 861.879 496.791
240 0 83.1208 13.1014 1089 138.665 863.109 495.299
241 0 87.1671 12.7686 1113 136.385 862.346 493.326
242 0 89.2296 13.2916 1186 136.534 863.036 492.057
243 1 48.2141 11.5319 556 129.495 861.752 512.396
244 0 48.2262 12.3584 596 130.341 861.742 511.648
245 0 50.279 12.3113 619 130.333 860.591 511.291
246 0 52.1822 12.1689 635 127.098 862.899 510.962
247 0 53.1251 12.4047 659 131.498 863.422 510.17
248 0 54.2838 12.8583 698 129.86 863.903 509.338
249 0 57.2299 12.7032 727 128.835 862.077 508.051
250 0 56.2748 13.3275 750 77.652 863.864 508.005
251 0 58.1952 13.0251 758 130.074 863.21 507.311
252 0 62.3256 13.0604 814 126.34 863.398 506.628
253 0 61.1684 13.5201 827 131.22 863.57 505.816
254 0 65.1376 13.2335 862 127.812 862.114 504.778
255 0 66.3151 13.3906 888 128.848 863.416 504.122
256 0 68.2059 13.4006 914 129.107 863.844 502.651
257 0 69.1803 13.9201 963 126.572 862.444 501.758
258 0 73.2662 13.1985 967 129.496 862.618 500.208
259 0 74.1797 13.292 986 132.238 861.153 499.588
260 0 77.3707 13.3772 1035 137.228 862.614 498.62
261 0 78.3092 13.3701 1047 136.389 862.377 497.239
262 0 79.3456 13.8004 1095 135.083 864.337 496.311
263 0 83.35 13.8092 1151 137.76 862.227 494.935
264 0 86.2452 13.8906 1198 135.294 863.613 492.775
265 0 89.4306 13.9438 1247 136.306 863.329 491.903
266 0 91.3313 13.9273 1272 138.039 862.632 490.612
267 0 94.3344 14.0882 1329 141.847 863.062 488.992
268 0 98.4016 14.1563 1393 138.929 863.523 486.688
269 0 102.225 14.1355 1445 139.718 862.955 485.619
270 0 104.359 13.8944 1450 144.805 861.921 484.057
271 0 108.446 13.8225 1499 147.54 863.236 482.777
272 0 112.284 14.1427 1588 142.515 863.474 480.443
273 0 116.237 14.1176 1641 143.677 863.312 478.741
274 0 120.263 14.0359 1688 139.95 862.283 476.95
275 0 124.291 14.1282 1756 140.192 862.205 474.956
276 0 127.184 14.0269 1784 145.908 862.409 473.942
277 1 73.1823 13.1316 961 143.354 862.117 500.106
278 0 77.1325 13.0425 1006 140.48 863.415 499.465
279 0 79.2182 12.8758 1020 147.721 863.033 499.149
280 0 81.1902 12.7355 1034 145.483 862.647 498.236
281 0 82.1482 13.5365 1112 143.067 863.13 496.694
282 0 87.094 13.1237 1143 145.168 862.339 495.311
283 0 89.2174 13.6072 1214 139.045 862.382 494.303
284 0 92.1236 13.2539 1221 143.861 863.724 493.592
285 0 96.1936 13.2961 1279 145.142 864.493 491.525
286 0 100.188 12.9057 1293 149.063 864.806 490.939
287 0 103.319 13.3664 1381 148.097 863.73 489.16
288 0 106.43 13.3233 1418 146.985 863.214 488.035
289 0 110.252 13.3512 1472 147.87 862 485.978
290 0 113.401 13.6154 1544 147.881 862.981 484.51
291 0 115.303 13.9112 1604 145.183 863.261 483.039
292 0 119.347 13.8922 1658 144.46 863.559 480.855
293 0 124.287 14.0079 1741 141.89 861.858 479.176
294 0 127.432 14.1566 1804 149.069 862.727 476.785
295 0 132.37 13.7645 1822 138.163 863.312 474.553
296 0 138.244 13.9681 1931 139.064 863.869 471.095
297 0 144.393 13.7333 1983 146.294 864.208 468.81
298 1 76.1683 12.6431 963 142.593 863.825 502.673
299 0 78.2462 12.6652 991 141.127 863.548 501.243
300 0 80.3034 12.7143 1021 143.455 864.742 500.405
301 0 82.25 12.9848 1068 144.521 864.721 499.084
302 0 86.2254 12.8732 1110 143.159 864.664 496.891
303 0 89.252 13.1201 1171 141.691 862.59 495.976
304 0 93.2817 13.336 1244 144.639 863.891 494.118
305 0 95.2159 13.5166 1287 144.293 863.827 492.331
306 0 99.3371 13.3082 1322 147.382 863.142 490.612
307 0 102.225 13.5486 1385 146.862 862.581 488.621
308 0 104.305 13.7481 1434 151.728 861.992 487.792
309 0 108.242 13.8209 1496 151.898 861.509 485.424
310 0 112.27 13.5744 1524 151.335 863.665 483.921
311 0 116.361 13.8707 1614 147.577 862.159 481.43
312 0 120.207 13.6847 1645 151.689 864.385 480.041
313 0 123.24 13.3723 1648 155.581 863.391 478.765
314 1 67.1218 12.0527 809 151.878 863.766 506.648
315 0 70.0888 12.4984 876 146.797 862.264 505.546
316 0 72.1447 12.7244 918 158.802 865.209 504.097
317 0 72.1268 13.2406 955 159.137 864.586 502.69
318 0 77.1496 12.7026 980 157.297 864.178 501.365
319 0 78.151 13.09 1023 155.793 865.418 499.372
320 0 81.1755 12.6023 1023 161.356 864.469 498.957
321 0 83.1306 12.9074 1073 154.035 864.152 497.527
322 0 87.2885 13.0258 1137 155.464 865.026 496.318
323 0 90.1779 12.8745 1161 160.103 865.732 494.939
324 0 90.2188 13.1347 1185 159.677 864.576 493.905
325 0 95.375 13.3788 1276 161.806 864.43 491.5
326 0 99.2171 13.0723 1297 159.247 863.471 489.719
327 0 102.368 13.305 1362 163.965 861.981 488.72
328 0 105.306 13.5225 1424 164.123 863.382 486.844
329 0 105.35 13.5738 1430 161.623 864.034 486.006
330 0 105.35 13.5738 1430 175.378 864.034 486.006
331 0 114.296 13.3776 1529 165.619 864.133 482.286
332 0 118.249 13.6491 1614 163.66 863.8 480.292
333 0 122.269 13.9528 1706 159.926 863.821 477.937
334 0 126.339 13.7329 1735 159.139 863.429 476.261
335 0 129.35 13.823 1788 162.933 863.333 473.862
336 0 134.322 13.8101 1855 156.379 863.285 471.426
337 0 139.364 14.229 1983 156.155 863.652 468.425
338 0 143.358 13.8395 1984 156.285 863.916 465.566
339 1 80.2119 12.28 985 155.265 862.497 498.369
340 0 82.2632 12.9584 1066 151.555 863.988 496.765
341 0 84.3419 12.8999 1088 157.315 863.879 495.644
342 0 87.4438 12.8425 1123 156.09 862.904 494.021
343 0 90.3458 13.227 1195 154.468 864.373 492.65
344 0 94.4655 13.063 1234 157.558 863.561 491.26
345 0 97.3111 13.1331 1278 154.732 863.908 489.151
346 0 100.334 13.2159 1326 152.86 864.522 487.296
347 0 103.285 13.4773 1392 161.086 865.099 486.841
348 0 105.264 13.4994 1421 160.585 865.697 484.918
349 0 109.238 13.6216 1488 151.511 863.72 482.773
350 0 112.37 13.5445 1522 160.789 863.752 481.237
351 0 115.302 13.7205 1582 156.04 864.162 479.958
352 0 119.218 13.924 1660 154.309 864.218 477.545
353 0 124.204 13.5422 1682 148.281 863.087 475.241
354 0 129.203 13.6684 1766 160.003 864.099 472.762
355 0 133.255 13.7106 1827 153.427 864.574 470.307
356 1 73.1452 12.2359 895 149.951 864.853 499.947
357 0 75.1768 12.3974 932 149.783 864.98 498.386
358 0 77.1667 12.3369 952 148.962 864.938 497.538
359 0 78.1211 12.9926 1015 149.334 864.602 496.029
360 0 83.0633 12.7975 1063 142.863 862.597 494.452
361 0 84.269 12.8873 1086 149.418 864.228 493.102
362 0 88.1914 12.5976 1111 147.531 863.995 491.897
363 0 91.1569 12.5717 1146 147.838 862.945 490.046
364 0 93.1319 12.8205 1194 145.205 863.385 488.131
365 0 97.2181 12.6622 1231 139.613 862.578 486.832
366 0 101.156 12.8317 1298 146.851 862.797 484.666
367 0 104.217 12.9346 1348 143.016 863.121 483.355
368 0 106.25 13.2706 1410 143.996 863.91 480.496
369 0 110.274 12.9133 1424 142.105 864.839 480.213
370 0 114.256 13.2509 1514 146.174 865.424 476.775
371 0 118.455 12.7812 1514 145.239 864.551 475.538
372 1 61.1757 10.8867 666 143.401 865.61 505.149
373 0 64.3283 11.2548 724 137.746 864.89 502.406
374 0 65.2506 11.6474 760 142.961 863.217 501.637
375 0 68.0769 12.4271 846 141.03 862.021 500.271
376 0 69.1474 12.4083 858 141.811 859.932 499.981
377 0 71.2169 12.7217 906 141.964 861.869 498.724
378 0 73.074 12.5216 915 141.237 862.824 497.892
379 0 74.1483 12.8931 956 141.963 864.493 496.442
380 0 79.0686 12.7358 1007 139.934 863.606 494.794
381 0 80.1222 12.6806 1016 143.19 864.179 492.782
382 0 82.1085 12.7514 1047 146.414 862.92 493.448
383 0 85.0969 12.6914 1080 146.471 864.356 489.33
384 0 88.0855 13.169 1160 148.522 864.415 485.295
385 0 89.2435 13.5696 1211 143.079 866.325 484.049
386 0 94.1961 13.1853 1242 147.608 863.894 482.585
387 0 98.3003 13.062 1284 140.54 864.745 480.04
388 0 100.223 13.2804 1331 152.693 862.671 479.542
389 0 103.329 13.2973 1374 156.558 862.579 477.747
390 0 107.204 13.2178 1417 153.613 864.124 477.097
391 1 59.1695 11.6445 689 152.951 862.48 504.878
392 0 61.2428 11.8055 723 152.054 863.347 504.598
393 0 64.2035 11.9152 765 144.569 862.753 504.116
394 0 64.0357 12.1339 777 148.257 862.887 503.359
395 0 65.0747 12.1399 790 155.57 863.018 502.853
396 0 69.0657 12.3795 855 152.788 861.706 501.145
397 0 70.1473 12.6591 888 152.205 861.854 501.143
398 0 72.2158 12.2965 888 147.015 862.624 499.941
399 0 75.2296 12.6413 951 147.644 863.324 498.152
400 0 77.2004 12.5906 972 155.64 862.545 497.118
401 0 78.0889 13.0108 1016 152.308 863.462 496.305
402 0 82.1148 12.7748 1049 152.991 864.493 495.619
403 0 82.0575 12.9787 1065 158.286 863.573 494.351
404 0 86.127 12.7951 1102 148.529 863.126 492.515
405 0 89.1485 12.6306 1126 157.965 863.266 491.8
406 0 92.1695 12.553 1157 148.76 863.226 489.659
407 0 96.274 12.6929 1222 152.549 862.257 488.859
408 1 53.1482 10.8941 579 151.872 863.85 511.423
409 0 54.1793 11.4066 618 148.147 864.353 510.72
410 0 56.1732 11.6426 654 143.618 863.587 509.904
411 0 58.3499 11.5167 672 147.647 863.964 508.924
412 0 59.1987 12.2131 723 144.142 864.528 508.169
413 0 60.1433 12.1876 733 145.231 864.439 507.554
414 0 60.153 12.6677 762 148.129 864.495 507.041
415 0 63.1943 12.2005 771 153.94 863.054 505.82
416 0 64.1692 12.4203 797 147.216 863.629 504.965
417 0 64.1692 12.4203 797 154.673 864.629 504.965
418 0 68.173 12.2336 834 152.337 863.661 503.655
419 0 68.172 12.5858 858 148.834 864.258 503.3
420 0 73.2281 12.6454 926 150.082 865.031 502.125
421 0 72.1661 12.7761 922 144.578 862.88 500.082
422 0 75.3136 12.906 972 145.459 863.207 498.845
423 0 78.1859 13.2377 1035 145.071 862.325 497.954
424 0 81.0947 12.8615 1043 147.616 862.046 496.353
425 0 84.12 12.8626 1082 142.898 863.021 495.486
426 0 85.2159 13.5656 1156 144.548 862.535 494.317
427 0 89.1849 13.2982 1186 140.492 863.349 492.766
428 0 89.1379 13.7315 1224 142.379 863.73 490.792
429 0 96.44 13.1688 1270 139.663 863.671 488.365
430 1 53.2916 10.2455 546 144.859 863.945 511.088
431 0 52.2459 11.1588 583 140.623 864.419 510.768
432 0 56.1777 11.3212 636 142.495 863.67 509.288
433 0 57.1421 11.8477 677 138.586 863.873 508.155
434 0 59.1581 12.0863 715 143.124 863.187 507.242
435 0 60.2283 12.6519 762 147.364 865.035 506.226
436 0 61.1364 12.5948 770 141.456 863.929 505.164
437 0 65.1943 12.3017 802 144.394 863.913 504.193
438 0 67.2605 12.459 838 144.494 863.656 503.584
439 0 67.092 12.8182 860 148.39 863.715 502.305
440 0 72.1865 12.7725 922 151.44 863.979 501.619
441 0 72.1644 12.9842 937 152.989 863.997 500.554
442 0 76.1079 13.3101 1013 154.002 863.207 498.829
443 0 80.0988 12.4596 998 145.643 862.174 497.319
444 0 80.2228 13.3254 1069 152.978 864.037 495.701
445 0 86.1699 12.8931 1111 152.554 863.768 494.014
446 0 88.2 12.8458 1133 153.139 864.735 492.989
447 0 91.0823 12.7906 1165 153.594 865.357 490.958
448 1 47.0725 9.98459 470 147.872 862.449 513.285
449 0 47.0544 11.2848 531 136.546 863.386 512.497
450 0 49.0302 11.5847 568 148.607 863.79 511.829
451 0 50.0582 11.9661 599 146.352 863.761 510.626
452 0 51.1733 12.4674 638 144.542 864.033 510.03
453 0 54.1618 12.1303 657 144.534 863.443 509.638
454 0 54.1171 12.6947 687 140.654 863.102 508.015
455 0 56.1985 12.5092 703 146.745 862.414 507.361
456 0 58.1826 12.7529 742 151.435 864.104 506.245
457 0 59.2606 12.8585 762 150.055 864.182 504.823
458 0 62.2426 12.7565 794 148.636 865.089 503.911
459 0 63.1509 13.349 843 145.291 864.356 502.867
460 0 64.2271 12.3312 792 151.015 865.328 502.229
461 0 65.1717 13.1499 857 157.375 864.835 501.852
462 0 67.1511 12.9112 867 158.045 866.183 500.265
463 0 71.1195 12.8938 917 151.679 865.282 498.29
464 0 73.3135 13.1763 966 152.109 864.923 497.322
465 0 76.1993 13.071 996 151.582 864.093 495.985
466 0 78.1756 12.7917 1000 153.577 864.145 495.42
467 0 80.1337 13.2279 1060 149.549 865.208 493.812
468 0 83.23 13.1443 1094 156.541 864.116 492.005
469 0 84.1378 13.3828 1126 154.677 865.035 491.109
470 0 88.2508 13.337 1177 157.546 864.899 489.814
471 0 90.1854 13.5166 1219 151.991 863.354 487.839
472 0 93.2597 13.3927 1249 157.383 864.046 485.508
473 0 97.2752 13.3847 1302 147.013 864.371 484.894
474 0 100.351 13.6023 1365 158.01 864.347 482.92
475 0 105.266 13.2616 1396 154.226 864.574 481.415
476 0 108.412 13.2089 1432 149.45 865.06 479.829
477 1 56.2095 12.2043 686 154.673 862.802 505.017
478 0 58.3141 12.467 727 145.81 864.946 504.329
479 0 61.227 12.2495 750 149.761 863.177 503.989
480 0 61.1624 13.0472 798 143.935 864.192 502.982
481 0 63.1367 12.5442 792 146.318 865.525 502.388
482 0 65.2505 12.8428 838 145.908 866.2 501.403
483 0 65.2206 12.6647 826 149.646 865.03 500.857
484 0 69.3369 12.7926 887 148.355 864.073 499.561
485 0 70.2972 12.8028 900 145.166 865.164 498.99
486 0 74.2004 12.911 958 147.682 865.122 497.596
487 0 76.2798 12.7557 973 143.467 865.131 496.322
488 0 78.219 13.0914 1024 142.093 865.668 494.584
489 0 81.349 13.2393 1077 141.489 864.923 493.721
490 0 83.3513 13.5211 1127 140.204 865.091 492.291
491 0 88.3092 13.2489 1170 144.085 866.283 490.397
492 0 90.3267 13.4512 1215 141.364 864.037 489.495
493 0 92.3069 13.5635 1252 144.564 865.159 488.09
494 0 97.4647 13.41 1307 145.728 865.939 487.077
495 0 99.3849 13.2616 1318 149.61 865.072 484.934
496 0 103.304 13.3393 1378 153.888 865.225 483.355
497 0 107.349 13.4794 1447 148.695 864.134 481.449
498 1 59.1992 13.0745 774 152.873 864.23 503.78
499 0 62.1561 12.5169 778 155.716 866.928 503.069
500 0 63.3089 12.7628 808 149.978 865.672 502.311
501 0 65.152 12.6013 821 161.692 864.475 501.423
502 0 65.1873 13.5609 884 160.276 865.735 498.517
503 0 67.132 13.0936 879 157.027 864.339 499.629
504 0 68.1415 13.6774 932 157.559 865.95 498.883
505 0 72.1721 13.4955 974 151.889 866.042 497.658
506 0 73.2298 14.1199 1034 149.351 866.03 496.076
507 0 77.221 13.3254 1029 156.374 864.689 495.389
508 0 78.123 13.85 1082 149.099 865.908 493.489
509 0 82.23 13.5717 1116 156.726 865.418 492.731
510 0 83.0547 14.0991 1171 154.276 865.263 491.09
511 0 87.1691 13.7663 1200 152.872 863.985 489.908
512 0 91.1452 13.7363 1252 158.639 864.441 486.581
513 0 94.3032 13.4672 1270 158.486 861.313 485.571
514 0 97.1789 13.9845 1359 156.552 862.915 484.531
515 0 97.1789 13.9845 1359 176.202 864.915 484.531
516 0 106.3 13.904 1478 157.554 864.291 481.068
517 0 108.319 13.5526 1468 164.554 865.087 479.859
518 1 61.0638 12.4133 758 160.003 863.934 503.318
519 0 61.128 12.6783 775 155.089 863.831 503.268
520 0 61.3147 13.2432 812 161.033 864.507 502.048
521 0 64.1302 12.9892 833 157.152 864.582 501.299
522 0 66.1945 13.0524 864 149.747 864.12 500.566
523 0 70.1377 12.9602 909 162.01 864.787 499.771
524 0 70.1377 12.9602 909 175.804 864.787 499.771
525 0 75.1733 13.1164 986 155.741 864.47 496.848
526 0 77.1551 13.1812 1017 148.624 864.16 496.421
527 0 80.112 13.1066 1050 154.905 863.484 494.862
528 0 82.2553 13.3487 1098 155.362 863.582 493.758
529 0 84.2773 13.3725 1127 153.657 865.254 491.272
530 0 89.2723 13.4196 1198 151.822 864.505 488.548
531 0 92.2018 13.1993 1217 151.627 865.342 486.353
532 0 96.3693 13.3964 1291 145.532 867.232 485.16
533 0 100.28 13.1233 1316 148.078 866.282 484.364
534 0 103.105 13.1614 1357 145.416 866.203 484.421
535 1 53.0687 12.4744 662 145.426 866.769 508.378
536 0 57.108 11.9248 681 143.724 864.658 508.743
537 0 58.2395 12.2426 713 136.581 865.679 507.809
538 0 59.1741 12.4379 736 142.238 864.454 507.261
539 0 59.1899 12.7218 753 141.205 864.126 506.396
540 0 63.2866 12.5461 794 143.013 865.257 505.46
541 0 63.2866 12.5461 794 173.671 866.257 505.46
542 0 67.1491 13.0605 877 134.864 865.062 503.649
543 0 69.1951 12.8622 890 142.729 865.489 502.378
544 0 70.1759 12.9389 908 143.957 865.575 500.979
545 0 73.213 12.8529 941 144.887 865.504 500.2
546 0 76.2359 13.209 1007 143.199 866.435 498.697
547 0 77.1299 12.8744 993 146.381 865.217 497.641
548 0 78.1663 13.2154 1033 145.273 866.666 496.768
549 0 82.1971 13.1027 1077 147.584 867.501 495.07
550 0 85.1336 13.0971 1115 142.199 867.535 493.326
551 0 89.139 12.8115 1142 149.356 866.155 492.03
552 0 90.0816 13.2102 1190 147.744 866.586 490.543
553 1 46.3234 11.2902 523 147.53 866.208 512.74
554 0 47.2754 11.9724 566 147.691 866.935 511.963
555 0 50.2661 12.1752 612 142.995 864.735 511.346
556 0 51.2196 12.2024 625 148.984 866.045 510.99
557 0 52.2873 12.3357 645 150.502 865.619 510.188
558 0 54.1963 12.2333 663 146.507 865.576 509.496
559 0 54.1656 12.3695 670 150.813 864.257 508.546
560 0 57.1998 12.3602 707 139.382 865.871 507.966
561 0 58.1834 12.4778 726 133.804 865.627 506.886
562 0 60.2125 12.3396 743 147.89 865.933 505.844
563 0 60.2724 13.0076 784 144.268 866.893 505.432
564 0 62.0721 13.4199 833 152.609 866.475 504.405
565 0 64.1286 12.8804 826 153.979 866.517 504.41
566 0 67.1485 13.0457 876 156.178 865.645 502.395
567 0 70.2815 12.9764 912 149.908 866.195 501.173
568 0 71.1456 13.114 933 151.236 866.416 500.1
569 0 73.1745 13.0647 956 159.66 866.846 498.918
570 0 75.1099 13.2872 998 152.744 866.001 497.678
571 0 78.1184 13.2491 1035 154.723 864.565 496.541
572 0 81.1698 13.3917 1087 156.85 864.459 495.238
573 0 84.0929 13.3305 1121 156.38 865.009 494.037
574 0 87.1525 13.4706 1174 159.837 866.645 491.356
575 0 90.1228 13.2153 1191 150.486 867.237 490.49
576 1 47.1056 12.1642 573 165.511 866.223 510.269
577 0 50.1079 12.2536 614 156.906 867.935 509.989
578 0 51.2622 12.5629 644 154.183 866.974 508.986
579 0 52.2571 12.8021 669 156.268 865.955 507.871
580 0 54.2333 12.3909 672 161.774 866.856 507.595
581 0 53.1272 13.063 694 152.919 868.157 506.422
582 0 57.1433 12.7399 728 150.402 868.044 505.918
583 0 58.1446 12.8473 747 154.321 867.047 505.333
584 0 60.1525 12.6179 759 152.646 867.526 503.445
585 0 61.1449 13.0019 795 157.175 866.634 502.791
586 0 61.1449 13.0019 795 169.716 866.634 502.791
587 0 65.1415 13.0178 848 143.265 865.213 501.204
588 0 66.1116 13.1747 871 154.457 866.177 500.414
589 0 69.1535 13.5206 935 153.205 867.824 498.406
590 0 71.2587 13.3878 954 140.091 868.187 497.261
591 0 73.1308 13.6194 996 159.377 867.876 496.134
592 0 75.1484 13.5199 1016 157.371 867.133 495.694
593 0 78.1271 13.4268 1049 156.67 867.663 494.169
594 0 81.1187 13.6343 1106 160.524 866.879 492.828
595 0 84.1185 13.3383 1122 168.287 866.127 489.211
596 0 86.111 13.7149 1181 163.911 866.946 488.585
597 0 89.2135 13.3836 1194 164.966 867.646 488.147
598 0 93.1481 13.6771 1274 163.049 868.749 486.503
599 1 47.1422 12.3032 580 162.412 867.917 508.578
600 0 49.2199 12.1699 599 155.202 869.332 507.958
601 0 49.2557 12.7904 630 159.949 867.286 507.529
602 0 51.2637 12.6015 646 167.159 865.262 506.745
603 0 52.2484 12.7468 666 160.102 867.329 506.152
604 0 53.2163 12.8532 684 163.111 866.301 505.633
605 0 55.1457 13.147 725 162.833 867.018 504.603
606 0 57.1272 13.1461 751 156.216 867.246 503.654
607 0 60.269 12.9586 781 162.149 867.274 503.387
608 0 59.1778 13.6876 810 162.022 866.456 502.635
609 0 63.1751 13.4863 852 158.777 867.237 501.637
610 0 64.3222 13.6034 875 158.681 867.183 499.85
611 0 66.177 13.6301 902 157.723 867.098 499.243
612 0 65.1467 14.0299 914 158.493 866.383 498.375
613 0 70.2866 13.6157 957 159.21 867.712 497.804
614 0 72.128 13.8365 998 162.549 867.984 497.251
615 0 74.1148 14.2212 1054 161.136 867.639 495.565
616 0 77.2026 13.8726 1071 161.112 867.974 494.763
617 0 79.1876 14.0426 1112 161.638 868.014 492.844
618 0 82.2205 13.6584 1123 153.252 869.663 492.194
619 0 85.1322 14.0605 1197 163.421 869.243 490.567
620 0 87.2387 13.8241 1206 161.655 867.662 489.535
621 0 91.1814 14.0599 1282 160.066 870.12 488.362
622 0 93.4473 14.04 1312 158.398 869.383 486.617
623 1 48.2537 12.6415 610 163.523 868.577 508.944
624 0 51.2475 12.1957 625 159.565 869.344 508.314
625 0 51.1648 12.5477 642 166.16 869.136 507.961
626 0 54.192 12.7694 692 160.671 867.798 506.361
627 0 55.2301 12.8372 709 158.489 868.535 505.43
628 0 57.1494 13.176 753 167.378 868.039 504.339
629 0 59.233 12.7969 758 162.074 868.326 503.409
630 0 60.1024 12.7449 766 157.944 867.898 502.99
631 0 62.1151 13.1369 816 157.463 868.178 502.108
632 0 65.1514 12.9238 842 154.887 867.688 501.203
633 0 66.1719 13.1778 872 156.688 867.81 500.054
634 0 68.17 12.8649 877 155.501 867.69 499.363
635 0 70.201 13.2477 930 155.765 867.628 496.754
636 0 73.1499 13.1647 963 154.479 866.848 496.099
637 0 73.1499 13.1647 963 168.182 865.848 496.099
638 0 77.1141 12.9159 996 151.233 868.106 493.54
639 0 80.1788 13.0458 1046 151.205 868.897 492.324
640 0 84.1208 13.1715 1108 150.008 868.44 490.257
641 0 87.1991 12.9933 1133 148.74 866.447 489.199
642 1 46.0548 11.3778 524 148.956 867.351 509.252
643 0 49.2977 11.7653 580 145.864 866.226 508.5
644 0 50.3063 11.9866 603 144.027 866.736 507.949
645 0 48.1936 12.678 611 146.918 867.522 507.777
646 0 52.1855 12.4172 648 142.944 866.651 506.554
647 0 54.1935 12.5292 679 139.636 869.04 505.894
648 0 55.1127 12.792 705 142.77 867.148 505.379
649 0 56.1304 12.6669 711 148.954 866.98 504.717
650 0 59.1683 13.1151 776 138.314 866.156 504.151
651 0 60.1954 13.0076 783 144.609 866.899 503.413
652 0 62.1099 13.4922 838 143.474 866.187 502.566
653 0 63.1509 13.4281 848 142.782 865.463 501.938
654 0 64.1812 13.8203 887 141.373 866.024 500.61
655 0 66.1967 14.2605 944 140.663 865.608 499.877
656 0 71.1698 13.4327 956 147.048 865.788 498.66
657 0 74.0826 13.6064 1008 148.285 866.81 497.714
658 0 75.1533 13.7719 1035 147.648 866.335 496.622
659 0 78.1246 14.0801 1100 145.555 866.778 495.923
660 0 80.1131 13.5558 1086 148.517 866.331 494.922
661 0 83.1064 14.0783 1170 141.386 866.126 491.972
662 0 86.0912 14.1129 1215 139.394 866.089 491.799
663 0 88.1284 14.025 1236 149.475 866.703 490.855
664 0 91.1706 14.1712 1292 151.015 865.074 489.588
665 0 95.1968 14.1917 1351 144.921 865.404 488.202
666 0 98.1911 14.5023 1424 139.357 865.671 486.68
667 0 100.18 14.1445 1417 152.789 863.333 485.134
668 0 103.113 14.4211 1487 151.468 865.073 483.85
669 1 55.044 12.0449 663 149.32 865.217 508.63
670 0 56.2378 12.6783 713 145.694 865.16 508.146
671 0 58.1649 12.6709 737 147.022 865.676 507.942
672 0 61.1431 12.8224 784 149.385 865.82 506.384
673 0 62.181 12.9461 805 147.053 865.13 505.904
674 0 63.1893 13.0244 823 155.803 866.668 505.046
675 0 65.1214 13.5286 881 148.328 864.305 503.745
676 0 67.1956 13.2003 887 149.732 865.426 502.674
677 0 70.1232 13.2053 926 157.332 865.496 502.087
678 0 73.1445 13.2204 967 156.143 865.408 500.329
679 0 75.1455 13.3341 1002 155.427 865.396 499.736
680 0 78.1661 13.4329 1050 157.245 864.973 498.089
681 0 80.1612 13.7972 1106 149.005 865.979 496.288
682 0 82.2111 13.7329 1129 154.407 864.82 495.205
683 0 85.1162 13.5344 1152 152.388 865.026 493.977
684 0 88.1267 13.5033 1190 158.795 864.794 492.103
685 0 91.0843 13.471 1227 160.266 863.051 491.371
686 0 94.187 13.452 1267 161.308 866.17 489.452
687 0 96.2157 13.7296 1321 161.699 864.316 487.58
688 1 51.0771 12.1581 621 159.783 863.647 509.955
689 0 55.1726 11.9806 661 158.651 864.61 509.259
690 0 56.2466 12.463 701 164.966 865.716 508.501
691 0 56.1704 12.8715 723 161.888 865.96 507.621
692 0 58.1833 12.9247 752 160.339 867.195 506.273
693 0 61.1954 12.6153 772 162.955 865.561 505.249
694 0 63.1976 12.7537 806 161.707 866.548 504.756
695 0 64.123 12.7879 820 164.084 864.587 503.496
696 0 67.171 12.7436 856 165.237 865.709 502.341
697 0 69.2112 12.9748 898 163.713 865.649 501.047
698 0 71.2089 13.0321 928 162.862 865.871 499.787
699 0 73.1645 13.2715 971 160.926 865.835 497.692
700 0 77.1089 13.0076 1003 156.938 865.001 496.694
701 0 79.1544 12.823 1015 156.5 865.229 495.407
702 0 82.171 12.9364 1063 151.908 865.033 493.82
703 0 85.1813 12.6201 1075 152.652 865.162 492.389
704 0 86.1527 13.1162 1130 154.004 865.71 490.616
705 0 92.1663 12.9657 1195 146.803 865.719 488.662
706 1 48.0294 10.8475 521 148.781 866.035 510.152
707 0 50.0735 11.2235 562 148.874 866.877 509.333
708 0 51.177 11.5872 593 150.931 866.992 508.376
709 0 54.2482 11.7055 635 150.088 866.906 507.375
710 0 55.2257 11.5526 638 144.442 866.277 506.701
711 0 57.1263 11.7459 671 144.411 867.717 505.814
712 0 58.2615 12.032 701 140.058 866.136 504.68
713 0 60.2272 12.071 727 141.785 865.975 503.792
714 0 60.1264 12.4238 747 149.494 865.099 503.281
715 0 63.1846 12.4714 788 141.305 865.355 501.949
716 0 66.1486 12.4568 824 145.704 865.472 500.638
717 0 67.2014 12.4997 840 145.258 866.126 499.843
718 0 68.1793 12.8338 875 146.651 863.814 498.911
719 0 71.2084 12.5547 894 146.509 864.038 498.097
720 0 71.1065 13.0508 928 142.019 865.199 496.51
721 0 75.2226 12.5228 942 146.174 866.864 494.925
722 0 79.1373 12.5225 991 150.324 865.483 493.803
723 0 80.2837 12.5804 1010 147.312 864.908 492.518
724 0 85.2312 12.4954 1065 150.206 864.812 491.145
725 1 45.0467 11.1884 504 145.508 864.214 510.937
726 0 47.0919 11.0847 522 146.111 864.393 510.351
727 0 50.0881 11.7393 588 137.709 864.367 509.503
728 0 50.0881 11.7393 588 163.104 865.367 509.503
729 0 50.1688 12.1589 610 150.657 862.926 507.88
730 0 53.2571 12.5993 671 149.604 862.413 506.937
731 0 54.2979 12.0815 656 150.377 863.5 506.259
732 0 56.3115 12.3776 697 151.593 863.376 505.795
733 0 56.242 12.7129 715 156.022 863.764 505.213
734 0 58.3121 12.7075 741 152.653 863.312 504.022
735 0 60.307 12.6685 764 157.933 863.673 503.243
736 0 63.2675 12.945 819 150.645 863.392 501.835
737 0 64.1698 13.2305 849 156.749 864.796 502.075
738 0 66.1443 13.4554 890 148.981 866.913 500.384
739 0 66.2152 13.6524 904 161.095 865.235 499.899
740 0 70.2257 13.3569 938 158.531 863.882 498.489
741 0 71.0993 13.46 957 161.563 862.708 497.169
742 0 73.2716 13.7025 1004 155.18 863.999 496.117
743 0 76.1722 13.4432 1024 153.388 863.351 495.115
744 0 77.3414 13.8477 1071 161.176 863.553 493.247
745 0 80.4096 13.7919 1109 159.95 863.875 492.437
746 0 84.4439 13.6067 1149 161.164 864.443 490.216
747 0 87.3388 13.8426 1209 157.543 863.811 488.8
748 0 90.367 13.7108 1239 159.975 864.712 487.397
749 0 93.3605 13.5068 1261 159.024 864.11 486.663
750 0 95.2662 13.9084 1325 155.856 864.764 484.651
751 0 101.273 14.14 1432 155.019 865.046 481.902
752 0 104.34 13.9257 1453 161.103 865.139 480.816
753 1 53.1527 11.7774 626 157.182 865.093 505.343
754 0 55.1853 12.3584 682 155.397 863.029 505.11
755 0 55.2729 12.7911 707 158.588 864.337 504.074
756 0 57.2691 12.9564 742 155.247 864.705 503.667
757 0 59.212 13.2574 785 157.085 865.406 502.59
758 0 61.1783 13.0438 798 161.54 864.955 502.277
759 0 63.106 13.3743 844 161.066 864.128 500.909
760 0 66.1327 13.2159 874 160.095 864.466 500.294
761 0 67.1497 13.5071 907 157.35 864.548 499.512
762 0 70.0999 13.2382 928 160.406 865.645 498.477
763 0 72.1096 13.0635 942 158.569 866.187 497.689
764 0 75.0746 13.2668 996 165.164 864.118 496.573
765 0 75.0969 13.1297 986 158.116 863.761 495.208
766 0 79.1321 13.4711 1066 167.19 863.028 494.06
767 0 82.1101 13.6768 1123 164.289 862.077 492.923
768 0 84.0782 13.9037 1169 161.75 862.784 491.626
769 0 88.1131 13.9707 1231 162.463 863.686 489.972
770 0 92.0812 13.5858 1251 163.791 862.339 488.496
771 0 94.1029 13.804 1299 166.342 862.674 487.112
772 0 95.1784 14.0788 1340 162.739 863.665 484.839
773 0 99.0954 14.0975 1397 157.457 862.155 482.614
774 0 99.0954 14.0975 1397 175.733 863.155 482.614
775 1 55.1079 12.3213 679 156.265 862.96 502.748
776 0 56.2176 12.8252 721 159.115 863.417 502.193
777 0 58.1895 13.1295 764 148.94 864.687 501.093
778 0 59.1616 13.1504 778 151.517 863.519 501.612
779 0 60.1967 13.323 802 154.919 864.122 501.055
780 0 62.1814 13.5893 845 151.949 863.885 500.908
781 0 65.2592 13.2242 863 153.787 864.575 500.291
782 0 68.2926 13.2811 907 139.793 864.31 499.574
783 0 69.2971 13.7379 952 151.314 863.91 498.453
784 0 72.224 13.7904 996 152.778 863.37 496.806
785 0 74.3071 13.5922 1010 153.274 863.868 495.777
786 0 78.3235 13.5847 1064 154.32 864.737 494.964
787 0 80.4489 13.3874 1077 158.303 864.881 492.799
788 0 83.5893 13.7338 1148 144.744 864.97 490.288
789 0 86.3573 13.282 1147 150.191 865.183 490.047
790 1 46.2597 12.7109 588 150.371 865.316 509.473
791 0 47.4146 13.055 619 153.78 865.722 508.847
792 0 51.3542 12.4235 638 154.683 862.875 507.193
793 0 50.2751 12.8891 648 149.943 863.694 507.181
794 0 52.1778 13.2815 693 153.195 864.43 505.857
795 0 56.275 13.0609 735 120.982 863.354 505.484
796 0 57.3565 13.1284 753 149.932 862.311 505.271
797 0 58.1878 13.1471 765 153.986 861.967 505.314
798 0 61.2792 13.1366 805 153.639 863.611 504.318
799 0 62.2489 13.3175 829 154.034 862.954 504.378
800 0 63.2419 13.4404 850 158.208 862.916 503.036
801 0 67.1737 13.3534 897 158.686 863.142 499.663
802 0 68.1859 13.6099 928 150.839 865.124 500.932
803 0 70.1124 13.9205 976 154.789 864.459 498.559
804 0 71.2261 13.8994 990 156.568 863.979 497.41
805 0 74.1571 13.9703 1036 157.825 865.37 496.236
806 0 77.1231 13.5627 1046 162.474 864.815 496.151
807 0 79.1147 13.4362 1063 162.153 865.145 494.702
808 0 81.1534 13.5669 1101 159.587 863.605 493.946
809 0 85.0598 13.3906 1139 164.736 864.45 492.347
810 0 86.116 13.5979 1171 161.549 864.348 490.019
811 0 89.145 13.9324 1242 163.304 863.088 488.832
812 0 92.1631 13.5087 1245 164.104 864.627 486.454
813 0 95.1444 13.4532 1280 158.046 864.334 485.089
814 0 98.1837 13.4238 1318 154.441 864.111 483.869
815 0 101.137 13.3284 1348 162.351 865.059 482.73
816 1 57.1162 12.886 736 161.573 865.337 503.897
817 0 60.2227 12.9187 778 159.392 866.287 503.378
818 0 60.1284 13.2716 798 158.669 866.701 503.201
819 0 62.1564 13.0638 812 154.531 865.853 502.283
820 0 64.2543 13.5088 868 143.419 866.347 500.923
821 0 65.1518 13.3841 872 157.075 864.662 500.486
822 0 65.1518 13.3841 872 165.992 862.662 500.486
823 0 70.2168 13.7004 962 153.15 864.36 497.842
824 0 73.1707 13.3387 976 148.404 865.606 497.144
825 0 74.292 13.2047 981 150.707 863.724 496.081
826 0 76.2507 13.495 1029 149.873 865.83 495.174
827 0 78.2919 13.488 1056 151.141 865.269 493.404
828 0 82.158 13.2793 1091 145.156 865.813 492.264
829 0 85.2232 13.3884 1141 142.684 866.755 489.83
830 0 88.1673 13.3836 1180 145.648 865.574 488.726
831 0 93.1784 13.2434 1234 144.84 865.237 483.473
832 1 49.0987 12.3629 607 146.137 865.198 506.143
833 0 51.0614 12.3772 632 146.736 867.269 504.633
834 0 52.1265 12.9684 676 142.914 867.67 504.772
835 0 53.3706 13.0409 696 138.749 867.395 504.095
836 0 56.2012 12.7933 719 134.149 867.313 503.282
837 0 57.2211 13.4566 770 134.37 867.155 501.413
838 0 59.2746 13.1928 782 137.513 867.675 500.602
839 0 61.2689 13.2857 814 130.79 866.538 499.229
840 0 62.1586 13.6586 849 133.582 867.127 498.059
841 0 65.2556 13.3935 874 127.114 866.129 497.35
842 0 66.3155 13.5715 900 137.33 866.39 495.862
843 0 67.1862 13.8421 930 130.498 864.591 494.789
844 0 71.5275 13.4634 963 132.445 865.993 493.498
845 0 73.0856 13.8057 1009 131.993 865.532 492.743
846 0 73.2314 14.1879 1039 128.67 865.328 491.054
847 0 77.2401 13.7493 1062 123.409 866.233 489.932
848 0 80.1636 13.8342 1109 129.726 866.388 488.753
849 0 82.175 14.0797 1157 132.812 866.467 486.811
850 0 86.3048 13.881 1198 131.588 867.164 485.617
851 0 90.1532 13.5658 1223 131.721 866.06 484.304
852 0 92.4145 13.6667 1263 132.535 865.287 483.291
853 0 96.2773 13.8766 1336 132.829 866.612 481.15
854 1 51.1706 12.6049 645 140.915 865.318 502.633
855 0 53.2233 13.1333 699 136.073 868.481 500.432
856 0 56.0994 13.2978 746 136.454 866.18 499.064
857 0 56.0798 13.1063 735 140.854 866.695 500.11
858 0 59.0527 13.5811 802 132.54 866.541 499.061
859 0 60.1034 13.6598 821 139.438 865.952 497.586
860 0 62.1393 13.2605 824 137.285 865.221 496.928
861 0 63.1161 14.1168 891 137.11 865.945 495.511
862 0 65.0898 13.9346 907 138.695 867.765 493.557
863 0 66.1413 14.1969 939 136.436 866.727 492.114
864 0 69.0649 14.1461 977 137.628 867.998 491.579
865 0 73.0548 13.702 1001 135.594 866.74 490.219
866 0 74.1724 14.1966 1053 134.162 866.035 489.63
867 0 77.1687 14.086 1087 136.582 864.993 488.232
868 0 79.1598 14.4518 1144 135.927 865.208 487.59
869 0 80.1503 14.7972 1186 130.723 865.722 486.53
870 0 83.1248 14.388 1196 137.063 865.867 485.406
871 0 88.2305 13.9294 1229 136.111 866.697 484.261
872 0 92.1172 14.2753 1315 122.03 865.826 481.713
873 0 94.1394 14.5423 1369 134.24 867.142 480.294
874 0 98.1227 14.0436 1378 134.44 867.661 478.846
875 1 50.1501 13.1406 659 141.284 867.854 502.639
876 0 51.0433 13.2436 676 138.858 865.377 502.132
877 0 54.1539 13.554 734 131.154 865.864 501.131
878 0 54.1805 14.1748 768 130.974 865.548 501.225
879 0 56.2765 14.0378 790 135.394 865.601 500.523
880 0 59.217 14.1007 835 131.278 865.913 500.416
881 0 60.2661 14.1041 850 132.661 866.807 499.907
882 0 62.1511 14.6578 911 130.583 866.471 498.782
883 0 66.1191 14.247 942 128.452 866.596 497.732
884 0 66.1923 14.7751 978 129.871 866.282 496.875
885 0 69.128 14.871 1028 129.888 865.57 496.174
886 0 69.128 14.871 1028 181.271 864.57 496.174
887 0 74.1415 14.9174 1106 134.047 866.061 494.825
888 0 77.1669 14.9935 1157 138.055 867.346 493.455
889 0 79.2237 15.2606 1209 134.926 865.988 492.95
890 0 82.1466 14.961 1229 139.628 864.954 490.902
891 0 84.1378 15.2488 1283 140.207 866.839 490.125
892 0 87.3001 15.3608 1341 136.926 867.227 488.736
893 0 91.3987 15.0002 1371 142.345 865.317 487.723
894 0 94.1899 15.0228 1415 138.399 865.362 485.567
895 0 98.4134 14.9675 1473 143.737 865.734 483.807
896 0 102.382 14.7779 1513 144.631 865.94 483.639
897 0 105.291 15.044 1584 138.672 865.5 481.378
898 0 107.333 15.3075 1643 138.881 865.846 478.365
899 1 53.3259 14.1395 754 143.771 865.878 504.806
900 0 57.2197 13.8414 792 140.824 867.697 503.875
901 0 60.2065 14.1513 852 144.746 866.826 503.519
902 0 61.2434 14.1403 866 142.521 866.514 502.46
903 0 63.2342 14.1696 896 140.61 866.55 501.638
904 0 66.3073 13.9502 925 150.481 867.175 500.77
905 0 67.2825 14.61 983 153.19 866.51 498.723
906 0 70.2249 14.2969 1004 173.758 867.419 498.121
907 0 73.2294 14.4751 1060 164.745 865.497 496.253
908 0 74.1812 14.3567 1065 162.7 865.727 495.572
909 0 78.1591 14.4321 1128 166.71 865.6 494.152
910 0 82.1579 14.2652 1172 170.702 865.482 491.78
911 0 83.2537 14.594 1215 168.021 867.331 491.166
912 0 87.3388 14.5869 1274 171.591 866.02 488.697
913 0 91.2708 14.1995 1296 160.8 866.67 487.602
914 0 94.1674 14.6335 1378 166.337 865.86 485.766
915 0 97.2635 14.3528 1396 166.392 867.107 484.714
916 0 101.117 14.5376 1470 167.015 867.869 482.451
917 0 105.405 14.4395 1522 166.266 866.824 480.663
918 1 56.1405 13.4662 756 161.533 865.854 503.755
919 0 59.4386 13.6612 812 150.805 868.117 502.037
920 0 63.1691 13.7726 870 158.72 867.389 501.789
921 0 62.2903 14.0792 877 162.985 866.316 499.71
922 0 66.3137 13.8433 918 163.317 866.638 498.809
923 0 67.3977 14.1251 952 155.099 865.081 497.533
924 0 71.3174 13.8255 986 159.741 866.142 496.072
925 0 73.3572 14.0409 1030 157.283 866.407 494.889
926 0 76.2086 13.9879 1066 160.519 865.877 493.823
927 0 79.3227 13.817 1096 160.355 865.113 493.808
928 0 82.2542 13.8716 1141 161.47 866.63 492.094
929 0 85.2302 14.056 1198 163.958 864.651 490.501
930 0 88.3483 14.273 1261 156.287 865.262 488.5
931 0 91.2181 13.9885 1276 155.852 865.691 487.646
932 0 95.1296 13.9704 1329 157.081 865.944 485.995
933 0 98.2807 14.0414 1380 161.222 865.638 483.891
934 1 50.1061 12.9126 647 157.53 864.83 508.057
935 0 51.1348 13.22 676 153.435 864.638 507.754
936 0 53.2246 12.9639 690 150.565 864.71 507.326
937 0 55.2257 13.4177 741 157.714 865.449 506.599
938 0 57.3596 12.8139 735 156.456 863.789 506
939 0 60.2147 13.3854 806 155.954 864.55 504.754
940 0 61.2583 13.5492 830 150.258 866.071 503.755
941 0 63.1126 13.2303 835 152.442 865.402 503.178
942 0 65.1504 13.6453 889 157.488 865.951 502.679
943 0 67.089 13.415 900 152.694 865.891 502.23
944 0 67.2165 13.9995 941 151.276 865.663 501.393
945 0 70.1429 13.7719 966 149.261 865.009 500.647
946 0 72.2246 13.7903 996 154.564 866.471 498.963
947 0 76.1482 13.6576 1040 146.147 864.934 498.577
948 0 77.2357 13.789 1065 156.35 864.244 497.119
949 0 80.1107 13.6686 1095 150.098 865.579 496.703
950 0 81.1268 13.5714 1101 157.611 865.432 495.332
951 0 83.1652 13.9361 1159 149.513 865.221 493.987
952 0 87.2501 13.4556 1174 145.776 866.471 492.491
953 1 44.2693 12.0625 534 147.873 865.736 513.021
954 0 45.6085 12.7827 583 139.132 865.415 512.545
955 0 46.1623 12.7377 588 142.425 867.333 512.145
956 0 47.3194 12.6164 597 141.457 864.608 511.168
957 0 46.3355 13.3375 618 140.286 866.037 510.906
958 0 49.2678 13.0917 645 137.243 865.38 510.271
959 0 49.3994 13.0568 645 141.068 865.674 509.902
960 0 52.3314 13.0132 681 127.988 866.137 509.103
961 0 52.3314 13.0132 681 166.816 866.137 509.103
962 0 54.248 13.3461 724 124.151 865.331 507.243
963 0 54.2367 13.3305 723 126.632 866.127 507.007
964 0 57.3467 13.1655 755 123.714 866.309 506.007
965 0 60.1587 13.3314 802 123.844 864.909 504.242
966 0 59.1992 13.8009 817 119.84 866.171 503.792
967 0 62.1889 13.7484 855 117.618 865.56 502.205
968 0 64.2705 13.8788 892 118.043 865.223 500.772
969 0 68.2342 13.7321 937 116.289 863.979 499.395
970 0 68.3651 13.896 950 115.134 864.635 497.899
971 0 71.2584 13.7808 982 128.026 867.239 496.92
972 0 74.3612 13.1789 980 116.103 864.908 495.737
973 0 77.3042 13.531 1046 115.268 865.691 493.767
974 0 80.3038 13.3867 1075 114.423 864.963 492.505
975 1 41.1072 11.1416 458 120.893 865.528 510.934
976 0 43.0719 12.1889 525 118.817 864.379 510.651
977 0 45.1294 12.5417 566 116.417 865.235 509.701
978 0 46.0372 13.2501 610 121.162 865.025 509.623
979 0 48.2206 13.1894 636 116.377 865.533 508.355
980 0 49.2556 13.095 645 123.322 865.369 508.448
981 0 51.1416 13.0422 667 119.955 865.895 507.763
982 0 52.1929 13.7758 719 118.083 864.713 506.672
983 0 54.1778 13.3265 722 155.99 867.148 506.425
984 0 54.2029 13.7262 744 154.181 865.988 505.844
985 0 54.2029 13.7262 744 166.403 865.988 505.844
986 0 59.2218 13.3566 791 161.032 865.41 504.13
987 0 60.2816 13.636 822 152.079 865.36 502.584
988 0 62.2637 13.8765 864 153.546 864.358 502.289
989 0 64.2345 13.7309 882 155.507 865.535 501.5
990 0 66.1938 13.8382 916 161.202 864.794 500.228
991 0 68.1647 14.0542 958 161.957 865.043 499.665
992 0 70.1936 14.0469 986 162.749 864.337 498.454
993 0 73.1089 14.239 1041 158.321 868.435 496.329
994 0 76.1731 14.0732 1072 160.318 866.497 494.745
995 0 76.1731 14.0732 1072 172.053 864.497 494.745
996 0 81.2096 14.1609 1150 158.317 866.193 489.334
997 0 84.1374 13.8226 1163 157.158 866.315 487.716
998 0 88.3102 13.5545 1197 158.183 866.337 486.251
999 1 47.1604 12.6165 595 167.834 865.637 506.081
1000 0 48.3073 13.4762 651 154.289 866.736 505.613
1001 0 50.1375 13.5827 681 161.941 865.207 504.646
1002 0 50.1226 13.7263 688 162.137 863.574 503.66
1003 0 54.0401 13.5085 730 164.038 864.373 502.601
1004 0 54.0635 13.7986 746 162.471 864.74 502.721
1005 0 56.0833 13.7831 773 159.574 865.612 501.761
1006 0 58.079 13.8604 805 162.555 864.165 500.711
1007 0 60.1039 13.7928 829 158.897 866.244 499.885
1008 0 62.0322 13.9605 866 161.286 865.791 498.708
1009 0 62.0915 14.5269 902 159.605 865.586 497.897
1010 0 65.0972 14.102 918 159.958 867.098 496.224
1011 0 66.1327 14.5616 963 152.483 866.591 495.05
1012 0 69.0937 14.2415 984 163.068 865.301 494.342
1013 0 70.0791 14.9117 1045 156.364 865.278 492.816
1014 0 75.13 14.1355 1062 164.821 864.896 492.688
1015 0 77.0977 14.2157 1096 159.463 864.672 490.677
1016 0 78.2627 14.5919 1142 161.783 866.142 489.156
1017 0 83.2547 14.3896 1198 166.174 866.297 488.523
1018 0 83.2184 14.492 1206 160.421 865.279 487.171
1019 0 89.0979 14.2428 1269 162.972 865.76 484.913
1020 1 46.162 12.9327 597 168.427 866.178 506.554
1021 0 46.348 13.2476 614 167.306 866.485 505.928
1022 0 48.1649 13.9106 670 168.385 867.093 504.788
1023 0 49.216 13.6135 670 169.237 864.933 505.236
1024 0 51.1733 14.1285 723 168.094 867.082 504.172
1025 0 52.1087 13.9516 727 167.238 864.917 503.908
1026 0 54.1375 13.8351 749 166.431 866.019 503.017
1027 0 55.1026 14.1917 782 160.038 864.038 501.771
1028 0 57.1322 13.6175 778 171.983 865.379 501.571
1029 0 58.1703 14.4232 839 169.135 866.128 501.075
1030 0 60.1241 14.2705 858 169.134 865.318 500.22
1031 0 60.2966 14.6443 883 163.535 867.024 499.383
1032 0 61.2355 14.4524 885 167.794 866.837 498.855
1033 0 65.2394 14.5924 952 161.388 866.929 497.793
1034 0 67.1692 14.6793 986 164.402 866.779 496.486
1035 0 69.2119 14.5929 1010 159.014 865.959 496.56
1036 0 72.2507 14.1313 1021 161.182 866.567 495.351
1037 0 76.1708 14.5594 1109 160.492 867.225 494.29
1038 0 79.4031 14.2312 1130 158.009 866.497 493.066
1039 0 81.2107 14.4562 1174 163.945 864.222 490.967
1040 0 81.2107 14.4562 1174 172.68 862.222 490.967
1041 0 81.2107 14.4562 1174 172.68 860.222 490.967
1042 1 49.0897 13.4855 662 162.163 866.319 506.34
1043 0 49.1325 14.003 688 163.471 864.198 505.606
1044 0 51.2262 13.6844 701 158.001 865.049 504.374
1045 0 54.1771 13.9911 758 153.931 864.298 503.883
1046 0 55.0877 14.3771 792 151.494 863.587 503.068
1047 0 57.3124 14.2203 815 157.763 863.951 502.249
1048 0 59.1965 14.2407 843 156.289 864.427 501.261
1049 0 62.4169 14.0026 874 161.136 864.241 499.897
1050 0 63.2475 14.2298 900 161.192 864.294 499.481
1051 0 66.4154 14.3942 956 159.698 863.153 498.299
1052 0 67.2796 14.5215 977 153.585 863.11 497.249
1053 0 70.4511 14.3646 1012 159.481 864.747 496.611
1054 0 72.3966 14.6278 1059 161.511 865.552 495.446
1055 0 77.3419 14.2872 1105 167.795 866.446 493.98
1056 0 80.2072 14.8241 1189 160.058 868.858 492.256
1057 0 81.4234 14.7378 1200 166.928 868.617 491.501
1058 0 86.5525 14.4536 1251 164.309 867.594 490.282
1059 0 88.331 14.5589 1286 169.44 866.351 488.342
1060 0 92.5005 14.8107 1370 163.732 866.222 486.477
1061 0 95.4791 14.8933 1422 166.905 866.703 485.07
1062 0 97.4415 14.5934 1422 171.43 867.165 483.963
1063 0 101.417 14.7214 1493 167.143 868.115 481.723
1064 1 51.4893 13.3037 685 167.401 868.091 506.336
1065 0 54.3174 13.5132 734 165.906 865.715 504.691
1066 0 55.4455 13.635 756 172.653 867.384 504.083
1067 0 57.4441 14.1007 810 166.096 866.107 503.789
1068 0 58.59 13.9273 816 167.803 865.495 503.016
1069 0 62.4095 14.0684 878 170.043 865.51 501.305
1070 0 63.518 13.8386 879 168.104 866.484 500.73
1071 0 67.4428 14.1601 955 164.928 866.629 499.241
1072 0 68.3289 14.3424 980 165.744 866.893 498.484
1073 0 70.5238 14.2363 1004 170.312 865.761 497.787
1074 0 71.5117 14.5431 1040 166.748 865.973 496.899
1075 0 74.4012 14.4218 1073 168 868.048 496.048
1076 0 78.3572 14.217 1114 170.944 866.63 494.279
1077 0 80.2095 14.6117 1172 165.6 866.982 492.714
1078 0 84.3583 14.3199 1208 161.331 866.738 491.327
1079 0 88.3477 13.9902 1236 170.286 868.259 490.518
1080 0 88.3477 13.9902 1236 175.782 870.259 490.518
1081 0 94.3103 14.2084 1340 158.657 866.318 486.432
1082 0 98.2492 14.2597 1401 166.445 866.941 484.65
1083 1 52.2327 13.6887 715 157.179 867.473 507.063
1084 0 52.382 14.2033 744 161.608 866.493 506.094
1085 0 53.3397 14.0796 751 164.647 866.296 505.478
1086 0 56.3167 14.2054 800 167.425 866.576 504.756
1087 0 58.3635 14.2212 830 168.034 865.701 504.122
1088 0 61.3331 13.9403 855 164.292 866.225 503.29
1089 0 62.6256 14.403 902 166.463 866.919 501.351
1090 0 64.5028 14.325 924 171.917 866.933 500.25
1091 0 67.3457 14.4924 976 162.83 866.493 498.612
1092 0 68.2986 14.5098 991 157.518 867.177 497.652
1093 0 72.371 14.4947 1049 170.446 866.961 497.075
1094 0 72.4775 14.7494 1069 164.9 865.409 495.732
1095 0 74.2584 14.867 1104 168.822 865.342 494.836
1096 0 79.4528 14.5621 1157 173.727 865.39 493.922
1097 0 80.361 14.8455 1193 173.509 865.03 492.552
1098 0 82.556 14.9474 1234 165.992 864.778 491.163
1099 0 86.271 15.0108 1295 169.412 865.768 489.502
1100 0 88.4132 14.6811 1298 178.777 865.147 488.631
1101 0 92.3608 14.9414 1380 169.15 867.682 485.822
1102 0 94.4105 14.8818 1405 165.628 867.114 485.163
1103 0 98.381 14.9724 1473 164.289 866.659 483.495
1104 0 101.295 14.8379 1503 165.889 866.685 481.556
1105 0 105.26 14.773 1555 165.266 867.244 479.829
1106 1 57.2241 13.8403 792 175.968 866.655 502.784
1107 0 60.4864 13.9205 842 178.67 866.764 501.515
1108 0 61.3399 14.656 899 172.617 866.341 500.26
1109 0 63.4356 14.6921 932 170.025 866.876 499.182
1110 0 66.5091 14.4943 964 173.029 868.028 497.816
1111 0 70.4762 14.3027 1008 174.948 867.474 496.803
1112 0 71.4224 14.7153 1051 171.078 867.82 495.873
1113 0 73.3402 14.7123 1079 172.77 867.7 495.053
1114 0 78.2076 14.4743 1132 170.821 867.127 494.133
1115 0 78.3363 15.025 1177 171.037 867.495 492.798
1116 0 81.3465 15.2434 1240 169.622 867.485 491.698
1117 0 86.3408 14.8945 1286 168.208 867.418 490.274
1118 0 88.3308 14.8759 1314 165.186 865.553 489.205
1119 0 91.2733 14.6702 1339 172.049 866.827 488.417
1120 0 95.2622 14.6753 1398 173.644 865.388 487.464
1121 0 98.326 14.7164 1447 168.56 865.755 485.442
1122 1 53.234 13.6191 725 172.272 867.223 506.248
1123 0 55.2558 13.8085 763 173.451 867.459 506.332
1124 0 55.1113 14.5342 801 170.397 866.973 506.667
1125 0 56.1791 14.4182 810 169.514 866.21 505.535
1126 0 59.1354 14.7289 871 169.502 866.092 504.394
1127 0 61.1407 14.6384 895 167.933 865.707 504.121
1128 0 62.1588 14.6721 912 166.845 866.232 502.985
1129 0 65.1876 14.5426 948 173.806 866.293 502.813
1130 0 66.2057 14.757 977 166.884 866.278 501.732
1131 0 69.2233 14.6482 1014 170.796 865.681 500.45
1132 0 71.1549 15.0376 1070 170.95 866.762 499.892
1133 0 72.2 15.374 1110 175.174 866.489 498.659
1134 0 76.2487 14.833 1131 166.731 866.449 496.874
1135 0 78.1902 14.8484 1161 176.455 865.836 496.199
1136 0 81.1345 15.1477 1229 163.487 866.484 494.884
1137 0 85.193 14.8956 1269 172.127 866.626 493.441
1138 0 85.217 15.3843 1311 170.506 866.825 491.943
1139 0 89.1551 15.3777 1371 170.261 867.848 490.781
1140 0 92.2136 15.2797 1409 172.074 865.809 489.112
1141 0 96.154 15.2984 1471 171.282 866.772 488.061
1142 0 100.184 15.1821 1521 171.901 867.001 485.684
1143 0 103.098 15.2573 1573 169.104 867.019 483.53
1144 0 108.325 15.352 1663 171.351 867.059 481.018
1145 0 112.448 15.1625 1705 171.474 866.206 479.656
1146 0 116.169 15.3226 1780 175.906 867.314 477.535
1147 0 123.396 14.9843 1849 163.189 867.143 474.684
1148 1 66.1316 13.2312 875 169.63 866.528 501.667
1149 0 70.226 13.3996 941 174.413 864.939 500.416
1150 0 72.3702 13.8317 1001 169.96 866.63 498.601
1151 0 75.2037 13.6296 1025 170.448 867.476 497.031
1152 0 77.2583 13.9014 1074 163.222 866.72 496.139
1153 0 82.2075 14.3053 1176 170.345 867.108 493.181
1154 0 82.2158 14.0727 1157 170.958 865.608 493.457
1155 0 86.3198 14.0408 1212 171.729 866.812 491.502
1156 0 88.198 14.2747 1259 169.933 865.859 490.005
1157 0 91.3832 14.2149 1299 168.806 865.643 488.653
1158 0 94.3463 14.468 1365 164.838 866.463 486.797
1159 0 99.4124 13.8614 1378 169.516 868.606 485.079
1160 0 102.432 13.9214 1426 166.064 867.267 483.971
1161 0 107.295 13.8218 1483 167.279 867.509 482.15
1162 0 111.367 13.7923 1536 168.105 865.656 479.476
1163 0 113.352 13.9476 1581 166.512 865.882 478.409
1164 1 62.0743 12.2273 759 161.794 865.401 504.885
1165 0 63.2082 12.4193 785 158.404 865.586 503.88
1166 0 65.2668 12.5025 816 157.348 865.379 502.288
1167 0 68.2486 12.557 857 162.04 865.74 501.83
1168 0 70.3653 12.4067 873 159.702 864.882 500.84
1169 0 72.3304 12.8577 930 164.947 867.048 499.672
1170 0 73.3234 12.7381 934 159.007 865.717 498.121
1171 0 77.4633 12.5092 969 159.695 867.378 497.741
1172 0 83.1836 13.0314 1084 162.542 865.97 494.962
1173 0 82.3177 12.9134 1063 159.695 867.428 494.443
1174 0 85.3162 13.0104 1110 164.012 866.259 493.712
1175 0 87.3819 13.2293 1156 163.801 866.499 491.978
1176 0 89.3019 12.6985 1134 162.38 866.55 490.915
1177 0 92.2925 12.948 1195 164.043 864.88 489.6
1178 0 94.3171 13.2638 1251 162.428 866.432 487.974
1179 0 97.3639 13.3212 1297 163.456 865.871 486.852
1180 0 102.432 13.2185 1354 163.279 867.396 485.166
1181 0 102.432 13.2185 1354 176.446 868.396 485.166
1182 0 106.453 13.1983 1405 160.955 867.517 481.789
1183 0 109.449 12.9466 1417 157.718 868.857 479.57
1184 0 114.418 13.0836 1497 162.59 866.818 478.187
1185 1 64.1539 11.5815 743 159.03 867.923 502.808
1186 0 68.125 11.6991 797 147.04 865.583 501.3
1187 0 70.1906 11.9532 839 150.656 866.403 500.051
1188 0 71.2504 12.5613 895 143.134 866.473 498.344
1189 0 76.1618 12.0533 918 143.565 867.268 497.606
1190 0 77.2325 11.9768 925 149.029 865.817 496.303
1191 0 81.2445 12.2716 997 146.461 866.059 494.437
1192 0 83.3184 12.0261 1002 146.479 866.162 493.049
1193 0 85.3582 12.5003 1067 140.71 864.545 491.566
1194 0 88.1263 12.6523 1115 144.933 865.032 489.926
1195 0 89.3113 12.6076 1126 145.456 865.923 489.217
1196 0 92.5327 12.9576 1199 143.176 866.833 487.595
1197 0 96.3854 13.1036 1263 142.344 866.063 485.863
1198 0 98.3721 12.9712 1276 144.71 866.271 484.627
1199 0 101.487 12.9573 1315 147.156 867.114 482.979
1200 0 105.504 12.9664 1368 140.788 866.871 481.946
1201 0 108.612 13.0004 1412 146.038 864.916 479.48
1202 1 61.4747 10.2156 628 149.134 865.473 503.807
1203 0 63.4557 11.0313 700 146.713 865.386 500.179
1204 0 65.6246 12.0382 790 143.006 866.656 499.105
1205 0 66.2519 12.0147 796 141.523 865.503 501.825
1206 0 67.334 12.0741 813 147.583 867.386 501.215
1207 0 70.2519 12.2417 860 148.871 866.266 500.285
1208 0 72.2768 12.4106 897 148.137 867.815 498.482
1209 0 74.4725 12.6624 943 146.676 868.145 497.738
1210 0 77.4964 12.3877 960 145.979 869.066 496.121
1211 0 80.3746 12.9145 1038 148.031 866.086 494.648
1212 0 82.4786 12.7427 1051 150.524 868.326 493.027
1213 0 85.7749 12.661 1086 150.961 867.402 492.606
1214 0 88.5681 12.9505 1147 153.065 866.393 490.833
1215 0 89.5891 13.1601 1179 155.399 867.17 489.203
1216 0 91.5373 13.0439 1194 152.497 868.516 487.438
1217 0 95.5421 13.4496 1285 154.486 866.803 485.089
1218 0 99.6841 13.4625 1342 149.314 868.772 480.982
1219 0 101.658 13.1716 1339 150.792 868.287 479.576
1220 0 104.348 13.2441 1382 154.141 867.321 478.35
1221 0 106.527 13.4896 1437 157.816 867.756 476.534
1222 0 111.534 13.2336 1476 152.907 867.71 474.598
1223 0 114.497 13.5812 1555 150.259 866.808 472.423
1224 0 118.856 14.2694 1696 146.79 866.514 470.351
1225 1 67.5259 11.2994 763 154.014 866.644 497.206
1226 0 70.387 12.0193 846 156.176 867.1 495.566
1227 0 72.3669 12.7268 921 154.393 865.817 495.871
1228 0 73.4078 13.4591 988 156.868 867.594 494.483
1229 0 76.5114 12.9392 990 155.338 867.258 496.722
1230 0 76.2737 13.2942 1014 159.889 868.045 496.464
1231 0 78.4793 13.4685 1057 158.886 867.967 494.471
1232 0 81.3843 13.3195 1084 160.591 867.176 493.568
1233 0 83.3302 13.3085 1109 163.445 866.648 491.94
1234 0 86.575 13.3526 1156 159.008 868.437 491.288
1235 0 88.465 13.4516 1190 160.805 867.483 487.935
1236 0 89.3644 13.5848 1214 163.244 868.93 488.512
1237 0 93.4281 13.3472 1247 165.058 867.051 487.701
1238 0 95.2809 13.6858 1304 156.679 868.045 486.969
1239 0 98.3052 13.4479 1322 161.813 866.343 485.999
1240 0 102.505 13.414 1375 158.102 865.436 484.186
1241 1 56.3007 11.6517 656 155.081 866.145 507.107
1242 0 57.1906 11.7502 672 154.262 866.64 506.436
1243 0 59.3354 12.1513 721 152.846 866.454 505.9
1244 0 62.3102 11.9403 744 152.069 867.32 505.058
1245 0 63.1942 12.1847 770 154.201 868.626 504.103
1246 0 65.2834 12.1624 794 147.879 866.646 504.015
1247 0 65.1689 12.4446 811 149.798 866.343 503.34
1248 0 67.2364 12.9543 871 152.361 866.395 502.015
1249 0 67.3966 13.0719 881 146.41 866.085 500.731
1250 0 70.2775 13.4182 943 143.53 865.7 499.133
1251 0 74.4063 13.1575 979 153.19 866.241 497.329
1252 0 76.421 13.1116 1002 151.691 866.654 496.278
1253 0 76.3774 13.394 1023 153.829 865.847 495.348
1254 0 79.4025 13.5764 1078 148.366 866.54 493.84
1255 0 82.3726 13.3782 1102 148.462 865.855 491.578
1256 0 86.4556 13.3248 1152 151.209 866.171 490.475
1257 0 89.4007 13.1878 1179 152.88 865.712 488.95
1258 0 91.5294 13.4164 1228 148.316 865.928 487.301
1259 0 95.429 13.4446 1283 146.551 866.28 486.104
1260 0 97.341 13.6325 1327 150.648 865.73 484.644
1261 0 102.345 13.6108 1393 151.964 864.978 483.372
1262 0 103.545 13.3565 1383 151.766 865.257 482.786
1263 0 109.298 13.5136 1477 147.191 863.664 480.631
1264 1 58.2585 11.346 661 149.268 863.98 506.545
1265 0 62.2597 11.8375 737 146.958 862.635 505.886
1266 0 63.1901 12.2487 774 148.766 864.572 504.103
1267 0 65.23 12.3563 806 150.458 864.026 504.107
1268 0 67.1106 12.5613 843 148.664 864.837 502.518
1269 0 70.1859 12.3529 867 152.291 865.216 501.71
1270 0 71.165 12.7872 910 141.671 864.153 500.01
1271 0 73.395 12.9709 952 152.762 866.334 499.776
1272 0 77.3245 13.023 1007 145.678 864.291 498.535
1273 0 79.3614 12.8022 1016 146.134 864.716 497.674
1274 0 81.4314 13.1645 1072 151.382 865.534 495.655
1275 0 84.4362 13.1697 1112 150.781 862.985 494.225
1276 0 86.5289 12.9437 1120 143.901 865.064 492.853
1277 0 88.4787 13.4496 1190 150.927 864.115 491.147
1278 0 93.3481 13.0372 1217 145.674 865.56 489.469
1279 0 95.4148 13.4361 1282 148.257 864.968 487.309
1280 0 100.447 13.0318 1309 148.678 864.192 485.94
1281 0 103.328 13.0942 1353 149.1 865.885 485.728
1282 0 105.384 13.465 1419 144.915 863.98 483.225
1283 1 59.1549 11.4276 676 148.79 864.969 507.433
1284 0 61.0873 12.4248 759 143.246 862.709 505.638
1285 0 62.0326 12.2839 762 144.717 863.647 505.253
1286 0 65.0988 12.3965 807 149.352 863.019 504.328
1287 0 66.3125 12.803 849 143.947 862.218 503.026
1288 0 68.2866 12.9162 882 148.863 863.729 501.961
1289 0 71.0973 13.0947 931 147.182 865.108 501.147
1290 0 72.1409 13.3073 960 148.524 865.038 500.074
1291 0 74.0797 13.1075 971 149.088 865.188 499.352
1292 0 77.0747 13.2858 1024 147.003 865.286 498.184
1293 0 78.0811 13.1658 1028 145.355 864.298 496.382
1294 0 80.152 13.175 1056 147.712 862.399 495.389
1295 0 83.0505 13.1727 1094 149.986 863.555 493.768
1296 0 87.2385 13.2166 1153 147.973 863.285 492.469
1297 0 88.0711 13.8979 1224 149.792 863.158 490.984
1298 0 92.2285 13.4774 1243 142.947 865.214 488.699
1299 0 94.2267 13.4145 1264 149.721 865.853 487.067
1300 0 98.1766 13.6081 1336 142.051 865.359 486.428
1301 0 100.297 13.9187 1396 144.966 866 485.09
1302 0 103.25 13.6659 1411 141.532 865.356 482.877
1303 0 108.259 13.5416 1466 146.924 864.624 481.248
1304 0 112.194 13.6727 1534 148.92 864.702 478.799
1305 1 60.1086 12.1447 730 145.981 863.822 504.879
1306 0 62.0664 12.8733 799 137.32 863.806 503.829
1307 0 63.1773 13.1376 830 141.977 864.196 502.794
1308 0 67.0852 13.1624 883 142.724 865.215 501.559
1309 0 68.2276 13.4989 921 138.72 865.545 500.106
1310 0 71.1391 13.2417 942 142.084 864.556 500.024
1311 0 74.1422 13.2718 984 145.369 864.556 498.596
1312 0 76.059 13.2923 1011 141.708 862.704 497.372
1313 0 77.1518 13.1948 1018 140.394 863.906 495.778
1314 0 80.1524 13.2872 1065 145.118 864.577 494.522
1315 0 84.1525 13.321 1121 133.443 863.518 493.642
1316 0 86.1864 13.0531 1125 137.156 865.103 493.313
1317 0 89.0702 13.3153 1186 139.879 865.664 490.602
1318 0 91.1078 13.2371 1206 142.782 864.232 489.988
1319 0 92.1306 13.4483 1239 139.036 864.906 488.872
1320 0 96.0844 12.999 1249 139.576 865.179 487.076
1321 0 101.045 13.1129 1325 137.949 865.588 485.34
1322 0 102.253 13.7796 1409 140.3 866.818 483.729
1323 0 106.166 13.6013 1444 139.148 866.033 481.896
1324 0 110.33 13.7315 1515 133.526 866.708 480.875
1325 0 114.417 13.4333 1537 132.368 865.469 478.634
1326 1 57.1009 12.1189 692 132.458 864.668 506.738
1327 0 62.1879 12.1406 755 129.785 865.279 504.42
1328 0 62.2228 12.4713 776 128.253 866.763 503.428
1329 0 65.1752 12.7503 831 123.928 864.444 503.566
1330 0 70.0998 12.5678 881 127.076 865.75 502.086
1331 0 72.1377 12.6009 909 121.761 865.628 500.827
1332 0 74.1852 12.7114 943 127.697 866.124 499.477
1333 0 76.1021 12.6015 959 127.052 866.144 498.824
1334 0 78.14 12.9511 1012 120.972 866.995 497.473
1335 0 80.2176 13.1019 1051 123.305 866.176 496.634
1336 0 82.1623 13.1204 1078 130.258 866.218 495.07
1337 0 86.0923 13.1487 1132 123.587 867.843 492.845
1338 0 88.2376 12.999 1147 129.738 867.062 491.976
1339 0 90.2125 13.1246 1184 129.366 866.162 490.575
1340 0 94.2867 13.3635 1260 132.57 866.706 489.276
1341 0 97.4679 13.0607 1273 130.971 865.178 486.746
1342 0 100.297 13.7692 1381 136.085 866.925 485.696
1343 0 102.244 13.6341 1394 130.764 864.994 485.213
1344 0 104.224 13.6149 1419 139.176 865.798 483.689
1345 0 107.247 13.66 1465 132.287 865.283 481.139
1346 0 111.238 13.4486 1496 137.804 865.345 478.866
1347 0 116.307 13.6105 1583 137.563 865.946 476.335
1348 0 120.242 13.4562 1618 133.737 865.949 474.636
1349 0 124.407 13.6729 1701 135.039 866.009 472.837
1350 0 126.302 14.1328 1785 136.115 866.991 471.11
1351 0 133.438 13.407 1789 136.383 865.438 468.558
1352 1 70.0652 11.7034 820 138.338 865.299 494.4
1353 0 71.1384 12.3 875 137.478 865.978 490.456
1354 0 75.1381 12.3506 928 134.589 864.914 493.193
1355 0 75.3079 12.7477 960 135.02 866.223 498.436
1356 0 78.2161 12.7979 1001 136.868 866.232 496.9
1357 0 79.1123 13.1838 1043 136.128 866.034 495.817
1358 0 83.1786 13.1644 1095 137.316 865.587 494.674
1359 0 85.0861 13.1396 1118 139.183 864.904 493.62
1360 0 88.1366 13.3883 1180 142.799 864.981 491.94
1361 0 91.1073 13.3798 1219 146.351 862.805 490.148
1362 0 93.1618 13.5893 1266 145.4 863.655 488.803
1363 0 97.0912 13.3792 1299 148.115 864.218 487.754
1364 0 99.1938 13.5291 1342 149.332 863.978 486.507
1365 0 101.194 13.5679 1373 149.987 866.135 484.816
1366 0 105.171 13.7205 1443 149.371 865.049 481.983
1367 0 110.474 13.4783 1489 148.665 864.802 480.95
1368 0 113.299 13.3981 1518 150.615 864.384 478.103
1369 1 53.0441 11.8203 627 137.526 864.266 508.566
1370 0 53.0453 11.7258 622 132.188 864.272 508.757
1371 0 55.2077 12.0454 665 139.866 865.866 507.469
1372 0 58.1495 11.8488 689 143.299 866.112 506.611
1373 0 58.1763 11.6714 679 20.7334 864.037 506.429
1374 0 59.1848 11.9625 708 143.473 864.521 505.806
1375 0 61.1819 12.0133 735 142.352 864.8 505.05
1376 0 62.2178 12.4884 777 140.196 865.593 503.78
1377 0 64.1936 11.9794 769 142.664 863.939 502.817
1378 0 66.202 11.9332 790 142.862 864.81 501.649
1379 0 68.1053 12.187 830 146.949 863.22 501.427
1380 0 68.1756 12.6145 860 147.151 864.865 500.879
1381 0 71.1292 12.0907 860 139.813 865.136 499.485
1382 0 72.1052 12.3985 894 153.01 865.49 499.157
1383 0 74.1036 12.6714 939 148.8 865.849 498.117
1384 0 77.1485 12.7546 984 146.412 865.166 496.451
1385 0 79.1934 12.8041 1014 150.577 865.223 495.142
1386 0 82.1395 12.7101 1044 152.278 866.248 494.259
1387 0 82.2127 12.942 1064 151.434 867.251 492.062
1388 0 86.3462 12.6815 1095 152.657 865.268 491.402
1389 0 90.1912 12.54 1131 150.612 864.875 489.679
1390 0 92.5495 12.7067 1176 149.224 866.974 489.172
1391 1 48.2288 11.2381 542 145.199 865.871 510.795
1392 0 52.054 11.4304 595 147.897 864.496 509.624
1393 0 53.1392 11.6298 618 148.175 866.117 509.008
1394 0 53.1852 12.3531 657 141.845 866.976 508.671
1395 0 54.1536 12.4461 674 142.365 866.987 507.007
1396 0 58.1587 11.9157 693 147.973 867.228 506.877
1397 0 59.0795 12.3562 730 147.422 866.011 506.39
1398 0 59.1614 12.8631 761 151.238 866.558 506.084
1399 0 61.0867 13.2598 810 149.688 866.326 504.788
1400 0 62.1751 12.7543 793 155.641 865.279 504.957
1401 0 64.0127 13.1849 844 151.135 866.129 503.491
1402 0 64.0896 13.1379 842 106.797 867.581 503.027
1403 0 66.138 13.1543 870 160.6 865.967 502.71
1404 0 69.2795 13.395 928 155.283 865.234 501.137
1405 0 71.2306 13.2668 945 157.52 866.092 500.201
1406 0 72.2523 13.6466 986 157.793 866.49 499.289
1407 0 73.4514 13.6144 1000 156.554 865.67 498.108
1408 0 79.2026 13.5475 1073 128.651 866.915 497.046
1409 0 80.2485 13.3211 1069 146.542 864.102 495.065
1410 0 83.2743 13.9058 1158 158.87 863.74 494.073
1411 0 85.396 13.4315 1147 158.514 864.135 493.287
1412 0 86.305 13.7535 1187 160.036 864.235 492.358
1413 0 90.2416 13.896 1254 148.065 864.764 490.991
1414 0 91.405 14.299 1307 154.295 864.665 489.121
1415 0 95.3651 13.9254 1328 155.41 866.096 488.45
1416 0 98.2529 14.422 1417 162.68 865.948 487.187
1417 0 100.234 14.1569 1419 160.149 865.111 485.616
1418 0 105.283 13.592 1431 149.976 865.591 484.474
1419 0 108.21 14.1114 1527 153.454 864.076 482.684
1420 0 111.321 13.789 1535 156.673 865.11 481.37
1421 0 116.154 14.4291 1676 147.708 864.973 478.369
1422 1 60.1054 12.7276 765 157.187 863.978 506.42
1423 0 64.1718 12.6847 814 158.039 864.114 505.624
1424 0 64.0691 13.2981 852 152.306 866.947 504.582
1425 0 67.1075 13.0537 876 155.029 866.535 503.637
1426 0 69.1354 13.0758 904 156.7 864.694 502.614
1427 0 71.1004 13.1223 933 157.386 866.732 501.359
1428 0 75.0843 13.2784 997 151.745 864.815 499.448
1429 0 76.1328 13.818 1052 162.381 866.27 498.844
1430 0 79.0861 13.8962 1099 161.718 866.193 497.313
1431 0 80.0647 14.2385 1140 159.528 866.889 496.039
1432 0 86.1235 13.7941 1188 163.054 865.338 494.107
1433 0 87.0814 14.0558 1224 161.802 865.054 492.792
1434 0 89.0875 14.0648 1253 161.141 866.79 491.241
1435 0 91.1605 14.1728 1292 166.635 866.021 489.716
1436 0 95.1676 14.0804 1340 170.187 866.474 487.855
1437 0 98.1753 13.9241 1367 164.757 866.214 486.989
1438 0 102.214 14.2348 1455 158.601 865.379 484.602
1439 0 107.292 13.6729 1467 160.052 866.613 482.131
1440 0 110.212 13.8461 1526 156.796 866.765 481.098
1441 0 112.186 13.8253 1551 157.917 866.805 479.344
1442 1 62.0468 12.1844 756 158.024 867.688 504.835
1443 0 62.0396 12.9917 806 150.779 865.984 503.707
1444 0 66.0451 12.7337 841 155.878 865.528 502.326
1445 0 68.0225 12.834 873 149.606 865.586 501.843
1446 0 70.0717 13.0866 917 156.108 866.049 500.466
1447 0 72.0297 13.5083 973 151.348 866.039 498.979
1448 0 74.0495 13.0183 964 147.303 864.824 497.863
1449 0 77.0656 13.1576 1014 154.128 866.26 496.292
1450 0 79.0968 13.2369 1047 152.905 864.965 495.628
1451 0 82.066 13.5744 1114 152.084 865.871 494.754
1452 0 83.1016 13.6339 1133 151.733 866.316 493.369
1453 0 87.1002 13.628 1187 157.136 865.693 492.243
1454 0 90.1462 13.4226 1210 144.261 865.682 490.088
1455 0 95.1401 13.0229 1239 156.959 865.605 488.443
1456 0 95.1139 13.1316 1249 152.384 866.686 487.643
1457 1 54.0833 11.5932 627 144.971 866.44 509.124
1458 0 55.037 12.5552 691 148.401 866.638 508.375
1459 0 56.1192 12.2953 690 147.509 863.877 507.703
1460 0 58.1751 12.8577 748 145.861 866.049 507.036
1461 0 58.1352 12.9182 751 145.531 866.614 505.658
1462 0 60.1463 12.6525 761 146.327 865.57 505.524
1463 0 62.1816 13.0585 812 145.102 867.36 504.067
1464 0 63.0775 13.1267 828 146.93 867.432 503.041
1465 0 66.1731 13.1473 870 146.784 867.716 502.082
1466 0 67.1879 13.4548 904 149.658 867.315 500.873
1467 0 70.0892 13.012 912 148.456 866.706 500.326
1468 0 73.1932 13.4166 982 151.597 864.661 498.933
1469 0 72.1406 13.8618 1000 149.157 865.457 497.941
1470 0 78.0937 13.2405 1034 147.52 867.273 497.089
1471 0 78.0946 13.5221 1056 149.038 867.095 495.465
1472 0 80.0794 13.9237 1115 153.087 867.025 494.607
1473 0 83.1558 13.8535 1152 149.772 867.069 493.795
1474 0 86.0663 13.7452 1183 146.67 868.485 491.638
1475 0 90.1701 13.6742 1233 155.865 867.782 490.525
1476 0 92.2168 13.9454 1286 155.372 866.554 488.911
1477 0 94.2275 14.1678 1335 149.911 867.604 487.655
1478 0 100.205 14.121 1415 151.531 867.62 485.429
1479 0 102.236 14.535 1486 156.693 868.382 484.678
1480 0 104.225 14.747 1537 154.526 867.716 482.942
1481 0 107.199 14.515 1556 159.74 866.54 482.47
1482 0 113.282 14.4772 1640 150.599 868.416 479.437
1483 0 115.212 14.6079 1683 155.569 869.424 477.197
1484 0 119.328 14.6655 1750 150.199 867.814 476.286
1485 0 122.327 15.0335 1839 158.836 866.089 474.666
1486 0 126.139 15.0945 1904 156.191 868.285 473.143
1487 0 129.128 15.0471 1943 159.602 867.084 472.234
1488 0 134.167 15.0857 2024 158.611 867.276 469.993
1489 0 137.138 14.8318 2034 159.757 866.924 469.282
1490 0 142.219 14.7871 2103 160.694 866.447 466.66
1491 0 145.162 15.2864 2219 166.447 866.87 464.076
1492 0 151.123 15.2988 2312 169.014 866.183 462.7
1493 0 154.211 15.6734 2417 164.543 866.286 460.384
1494 0 157.268 15.782 2482 165.834 866.461 457.637
1495 0 165.317 15.3583 2539 159.924 868.953 455.503
1496 0 169.306 15.4395 2614 168.688 867.761 452.404
1497 0 177.108 15.1602 2685 168.762 866.354 448.199
1498 0 182.189 15.3577 2798 167.314 866.314 444.911
1499 0 187.176 15.6324 2926 162.62 865.034 441.632
1500 0 197.237 15.4383 3045 165.233 865.179 438.861
1501 0 202.326 15.6678 3170 160.78 864.899 435.564
1502 0 210.329 15.7325 3309 162.041 863.766 430.964
1503 0 219.388 15.4475 3389 168.992 865.241 429.338
1504 0 226.29 15.5508 3519 154.301 865.656 425.704
1505 0 235.293 15.1513 3565 159.382 865.881 422.249
1506 1 186.354 14.6281 2726 169.609 866.242 443.306
1507 0 194.327 14.7483 2866 169.474 867.257 440.032
1508 0 202.394 14.9659 3029 168.608 867.275 435.803
1509 0 207.425 14.9452 3100 174.993 866.727 432.938
1510 0 214.225 15.0683 3228 169.308 866.089 427.921
1511 0 222.338 14.8018 3291 164.208 866.204 426.103
1512 0 229.27 15.0041 3440 171.553 864.935 421.591
1513 0 236.467 14.8943 3522 106.197 866.282 417.235
1514 0 243.397 15.0166 3655 165.818 867.564 411.152
1515 0 252.332 14.9327 3768 158.687 865.461 408.798
1516 0 315.947 16.4015 5182 154.994 866.728 372.315
1517 0 328.075 16.103 5283 157.653 866.36 366.077
1518 1 60.1911 11.0814 667 148.664 865.606 502.054
1519 0 59.1588 11.3085 669 149.024 866.167 502.232
1520 0 61.1165 10.7336 656 152.285 866.675 504.245
1521 0 62.1101 11.383 707 151.566 866.41 503.284
1522 0 65.0942 11.7983 768 150.22 864.918 502.267
1523 0 68.0507 11.8 803 149.914 866.521 502.648
1524 0 70.1291 11.5929 813 143.367 867.109 501.905
1525 0 70.1821 11.8406 831 141.17 865.29 501.045
1526 0 74.0783 12.0278 891 143.192 864.75 499.724
1527 0 75.2459 12.293 925 146.256 865.062 498.589
1528 0 79.1181 11.9695 947 147.815 866.036 498.591
1529 0 81.1375 12.1769 988 151.545 867.225 496.563
1530 0 83.1006 12.3465 1026 150.108 866.153 495.587
1531 0 85.0926 12.551 1068 148.604 865.618 495.025
1532 0 88.1239 12.8342 1131 149.691 864.768 492.765
1533 0 93.1562 12.7313 1186 150.978 865.793 491.405
1534 0 96.2829 12.7437 1227 158.58 865.764 490.091
1535 0 98.459 12.9902 1279 152.55 866.107 488.562
1536 0 103.364 12.9445 1338 157.471 866.459 485.644
1537 1 55.1868 11.0534 610 154.136 865.246 510.062
1538 0 58.1645 11.4847 668 157.448 865.606 509.386
1539 0 58.1443 12.1594 707 156.157 867.378 508.591
1540 0 58.1735 12.8581 748 158.064 865.262 508.118
1541 0 63.3256 12.1436 769 157.811 866.112 507.411
1542 0 64.2012 12.6789 814 156.875 865.64 505.72
1543 0 66.1744 12.2857 813 160.766 866.378 504.198
1544 0 67.1641 12.998 873 159.362 865.057 503.494
1545 0 68.1474 12.9425 882 160.503 866.677 502.707
1546 0 69.0998 15.5717 1076 147.566 864.847 500.925
1547 1 76.2256 14.7588 1125 140.767 864.231 488.924
1548 0 74.269 13.2626 985 159.128 864.704 483.867
1549 0 75.3907 13.1581 992 163.243 866.33 488.513
1550 0 79.1336 13.4077 1061 154.58 865.708 494.094
1551 0 79.3517 13.5347 1074 163.778 867.048 498.089
1552 0 80.1823 13.6065 1091 168.796 867.211 497.247
1553 0 85.3412 13.2175 1128 155.633 867.184 495.09
1554 0 87.4851 13.248 1159 159.992 868.111 493.668
1555 0 89.3402 13.6333 1218 163.211 866.044 492.751
1556 0 91.4634 13.6229 1246 163.92 866.03 491.659
1557 0 93.2813 13.7541 1283 159.881 865.462 490.545
1558 0 99.2321 13.7556 1365 157.252 866.488 488.801
1559 0 100.517 13.9279 1400 158.839 866.578 487.329
1560 0 103.356 13.9808 1445 159.679 865.156 486.437
1561 1 55.161 12.7264 702 163.078 866.43 509.446
1562 0 57.1957 13.0429 746 159.021 865.007 507.917
1563 0 58.1538 12.9312 752 156.581 866.331 509.634
1564 0 60.1628 12.7321 766 161.572 865.886 508.824
1565 0 62.0943 13.1574 817 151.453 866.056 507.758
1566 0 63.1141 13.7053 865 150.861 866.661 506.349
1567 0 65.0756 13.5381 881 157.893 865.477 505.58
1568 0 66.1402 13.7284 908 157.9 866.211 505.369
1569 0 67.0852 13.863 930 160.244 867.111 503.665
1570 0 71.0934 13.419 954 165.055 865.899 503.348
1571 0 71.0771 14.0411 998 161.188 864.778 502.032
1572 0 72.186 14.4211 1041 161.824 864.175 501.545
1573 0 76.118 13.755 1047 167.709 865.641 500.624
1574 0 79.1046 13.7413 1087 165.59 864.543 499.144
1575 0 81.0632 14.2235 1153 163.015 865.43 497.375
1576 0 83.1698 14.1397 1176 162.565 866.521 496.724
1577 0 87.291 14.2626 1245 160.972 866.231 494.37
1578 0 89.1133 14.173 1263 167.017 866.799 493.627
1579 0 91.2673 14.1672 1293 163.097 867.997 492.178
1580 0 93.1934 14.368 1339 160.572 867.417 491.555
1581 0 95.2098 14.6203 1392 166.004 867.435 489.649
1582 0 100.266 14.3618 1440 149.659 868.202 488.201
1583 0 103.313 14.1705 1464 164.921 867.614 485.478
1584 0 104.137 14.577 1518 166.111 866.335 484.912
1585 1 60.0856 12.8483 772 165.404 865.784 508.495
1586 0 62.2427 13.4313 836 167.124 866.478 507.183
1587 0 62.1462 13.5165 840 137.421 864.861 506.785
1588 0 65.1452 13.6464 889 154.1 863.019 505.673
1589 0 67.1968 13.7804 926 162.363 865.183 503.965
1590 0 70.2356 13.7679 967 159.866 865.214 501.982
1591 0 72.314 13.635 986 149.726 865.36 502.226
1592 0 75.199 13.4709 1013 163.368 866.981 500.868
1593 0 77.2091 13.5088 1043 163.725 866.126 499.778
1594 0 77.163 14.0741 1086 164.908 865.638 499.106
1595 0 82.1934 13.5656 1115 163.77 865.284 497.631
1596 0 86.1884 13.6097 1173 159.702 865.932 495.23
1597 0 88.2254 13.6582 1205 165.206 866.212 494.522
1598 0 89.2908 13.8424 1236 166.411 866.724 493.218
1599 0 95.193 13.646 1299 164.609 866.124 491.697
1600 1 50.0984 12.5154 627 158.71 866.239 512.469
1601 0 49.1188 13.0093 639 157.175 866.485 512.764
1602 0 51.1078 12.7573 652 155.454 867.074 512.327
1603 0 53.1154 13.16 699 158.843 865.22 511.362
1604 0 56.1751 12.6747 712 158.351 864.56 509.987
1605 0 58.0879 12.8942 749 158.136 864.94 509.433
1606 0 59.0868 13.3702 790 161.457 866.947 508.7
1607 0 60.107 13.2264 795 160.87 866.537 508.063
1608 0 61.1192 13.6618 835 152.253 866.505 506.838
1609 0 64.1252 13.3333 855 157.649 865.771 505.614
1610 0 67.1039 13.412 900 154.951 865.713 504.656
1611 0 69.198 13.6998 948 155.948 867.362 503.511
1612 0 69.0818 13.7518 950 156.074 866.542 503.433
1613 0 73.0987 13.5707 992 154.991 866.68 501.08
1614 0 75.0891 13.6238 1023 163.436 864.551 500.33
1615 0 79.1677 13.5409 1072 154.562 865.366 499.066
1616 0 79.1677 13.5409 1072 166.445 866.366 499.066
1617 1 43.0558 11.6825 503 154.35 865.618 516.495
1618 0 45.0474 11.832 533 152.46 864.319 515.508
1619 0 47.0278 12.5032 588 152.694 865.126 514.604
1620 0 46.2531 13.0154 602 147.686 865.837 514.316
1621 0 47.1134 12.9263 609 146.521 865.946 513.913
1622 0 49.0853 12.6718 622 146.209 866.973 512.842
1623 0 52.1439 12.408 647 143.952 867.066 512.464
1624 0 54.153 12.9817 703 141.873 867.32 511.223
1625 0 53.0953 13.2027 701 149.227 866.699 510.738
1626 0 56.1805 12.8692 723 151.23 867.17 510.548
1627 0 58.1259 13.3331 775 150.01 865.374 509
1628 0 60.2416 12.8317 773 149.882 865.77 508.097
1629 0 61.1547 13.5067 826 150.936 865.913 507.228
1630 0 63.2343 13.616 861 146.153 866.106 506.749
1631 0 66.2786 13.4584 892 148.757 867.479 505.852
1632 0 68.1578 13.6888 933 153.612 866.887 504.641
1633 0 69.2613 13.8605 960 152.474 868.014 503.364
1634 0 71.229 13.9409 993 152.555 867.305 502.717
1635 0 75.4644 13.8608 1046 152.368 866.532 501.362
1636 0 78.3507 13.7459 1077 153.761 865.554 499.748
1637 0 79.2883 14.1131 1119 159.036 868.182 498.048
1638 0 84.102 13.9949 1177 154.215 867.338 496.528
1639 0 87.3417 14.1399 1235 147.421 867.164 495.104
1640 0 91.1685 13.7438 1253 154.832 869.211 494.46
1641 0 93.1601 13.7827 1284 159.226 869.139 492.798
1642 0 96.1599 14.0391 1350 161.497 868.492 491.362
1643 1 53.1763 13.0697 695 160.849 867.298 512.337
1644 0 54.1043 13.4185 726 163.09 868.059 511.304
1645 0 55.1651 13.8131 762 163.722 867.661 510.852
1646 0 58.2804 13.6066 793 164.485 866.769 510.324
1647 0 59.0778 13.7954 815 167.453 867.466 509.431
1648 0 61.1362 13.8052 844 167.986 867.389 508.63
1649 0 62.0968 14.1392 878 164.112 867.852 507.92
1650 0 65.1183 14.1435 921 17.1542 867.776 507.286
1651 0 67.1963 13.8996 934 169.972 868.323 506.218
1652 0 68.1697 14.4932 988 164.359 868.753 504.544
1653 0 72.1927 14.0873 1017 165.759 867.756 503.714
1654 0 74.1281 14.0433 1041 167.97 867.588 502.84
1655 0 77.1156 14.0568 1084 170.22 866.196 500.756
1656 0 79.1084 14.2842 1130 162.22 866.772 499.543
1657 0 82.1474 13.9627 1147 166.049 866.585 498.777
1658 0 84.4604 13.9947 1182 165.909 866.638 497.601
1659 0 86.4277 14.3588 1241 170.525 868.686 495.255
1660 1 45.0418 12.5217 564 164.482 868.399 516.511
1661 0 47.0863 13.0399 614 169.792 869.099 515.622
1662 0 49.1573 13.0805 643 155.247 869.694 514.784
1663 0 47.0584 14.0464 661 167.755 867.339 513.946
1664 0 50.0713 13.8602 694 165.33 867.362 513.121
1665 0 52.102 13.7231 715 164.345 865.561 512.172
1666 0 53.0801 13.8847 737 165.669 868.681 511.739
1667 0 54.0989 14.1408 765 167.844 867.885 511.239
1668 0 55.0763 14.38 792 168.244 867.957 510.337
1669 0 59.1839 14.2268 842 162.107 867.167 509.227
1670 0 60.0743 14.0992 847 168.776 866.982 508.541
1671 0 63.0892 13.9802 882 161.025 867.136 507.04
1672 0 65.1504 14.1826 924 165.271 867.483 506.139
1673 0 68.0813 14.0861 959 154.006 867.131 505.074
1674 0 68.1541 14.3352 977 167.774 868.134 504.172
1675 0 72.1297 14.1689 1022 157.162 868.562 502.432
1676 0 75.0339 14.4335 1083 159.752 865.633 500.734
1677 0 77.1629 14.0093 1081 162.093 865.499 500.234
1678 0 81.0418 14.0051 1135 165.74 866.358 498.974
1679 0 82.1126 13.7981 1133 161.674 864.033 497.614
1680 0 86.0656 13.7569 1184 165.821 866.916 496.361
1681 0 90.1108 13.55 1221 164.77 865.133 494.837
1682 1 46.04 12.6195 581 152.79 865.243 515.596
1683 0 47.1265 12.4771 588 151.862 865.838 515.024
1684 0 49.165 12.4479 612 151.096 866.039 514.479
1685 0 50.0983 12.9346 648 153.642 867.052 514.324
1686 0 51.099 13.1118 670 152.894 866.097 513.327
1687 0 54.0372 13.0466 705 149.515 865.722 512.377
1688 0 54.1129 13.4534 728 149.457 866.541 511.435
1689 0 55.1248 13.0431 719 156.484 864.861 511.382
1690 0 59.0507 13.2598 783 148.628 864.603 510.23
1691 0 60.0619 13.1364 789 147.413 864.911 509.593
1692 0 62.1316 13.5358 841 151.591 865.121 507.171
1693 0 64.1062 13.5712 870 154.514 864.578 507.017
1694 0 67.094 13.4289 901 155.047 863.158 506.845
1695 0 68.1401 13.6924 933 152.277 864.156 505.763
1696 0 72.1035 13.5361 976 150.755 864.987 503.707
1697 0 74.1846 13.8438 1027 154.811 863.979 502.595
1698 0 75.0902 14.0631 1056 156.449 864.862 502.055
1699 0 80.1887 13.5181 1084 151.394 865.214 499.743
1700 0 82.2436 13.7032 1127 157.361 862.328 498.637
1701 0 86.2196 13.6976 1181 163.025 862.047 497.427
1702 0 88.3489 14.1032 1246 158.06 863.672 496.043
1703 0 92.2668 13.927 1285 162.534 860.949 494.24
1704 0 96.3713 13.5725 1308 156.473 862.093 492.661
1705 1 52.0415 13.3355 694 161.797 861.994 513.341
1706 0 56.0423 13.0972 734 163.576 861.654 511.805
1707 0 56.0595 13.0932 734 163.452 863.691 511.022
1708 0 58.0562 13.4008 778 167.042 862.293 510.407
1709 0 59.0403 13.3468 788 162.859 862.772 509.011
1710 0 63.0686 13.4298 847 161.757 863.612 508.079
1711 0 64.1128 13.4918 865 165.422 862.621 506.851
1712 0 68.2237 13.1626 898 168.422 863.899 506.433
1713 0 67.0936 14.2935 959 168.568 863.734 505.05
1714 0 72.0586 13.9747 1007 169.66 864.194 503.41
1715 0 73.1107 14.1976 1038 169.17 862.944 502.075
1716 0 76.2483 14.0987 1075 166.259 864.146 500.83
1717 0 79.1455 14.2901 1131 167.072 861.937 499.153
1718 0 82.0617 14.2697 1171 171.988 862.716 498.196
1719 0 84.0912 14.2464 1198 166.957 864.533 496.646
1720 0 89.1517 14.1893 1265 171.092 864.322 494.692
1721 0 92.2795 14.1093 1302 172.889 863.985 492.69
1722 1 50.0786 13.4588 674 165.484 865.313 512.464
1723 0 52.0761 13.8067 719 168.59 863.538 512.858
1724 0 53.1408 14.0005 744 167.426 864.351 512.649
1725 0 53.0891 14.0895 748 164.239 863.739 511.595
1726 0 57.1725 13.9578 798 172.231 863.485 510.261
1727 0 58.1512 14.084 819 168.063 864.632 508.556
1728 0 60.0635 13.9686 839 171.484 865.646 508.11
1729 0 61.0826 14.1284 863 175.167 864.283 507.16
1730 0 63.1421 14.1269 892 12.5762 863.158 505.969
1731 0 66.0213 14.2833 943 169.18 862.891 505.519
1732 0 68.1622 14.2601 972 172.797 863.684 504.349
1733 0 69.0694 14.4637 999 169.059 861.594 502.195
1734 0 73.2812 14.3557 1052 167.69 863.759 501.933
1735 0 73.151 14.6546 1072 171.248 862.444 502.348
1736 0 78.2678 14.2332 1114 172.636 865.052 501.074
1737 0 80.0584 14.1896 1136 165.828 863.099 499.528
1738 0 83.0989 14.212 1181 171.663 864.975 498.802
1739 0 85.1139 14.4747 1232 166.984 863.841 497.043
1740 1 45.1385 13.1595 594 162.21 866.692 516.374
1741 0 47.3367 13.2878 629 162.42 862.037 516.105
1742 0 50.1034 14.031 703 170.448 863.148 514.603
1743 0 51.1326 13.8659 709 166.281 863.162 514.145
1744 0 52.1103 13.7976 719 165.2 865.229 513.428
1745 0 54.1812 13.6948 742 173.22 863.562 512.612
1746 0 55.0673 14.2008 782 165.06 862.889 511.958
1747 0 58.0424 14.1965 824 163.667 863.133 510.551
1748 0 60.1043 13.9591 839 160.579 862.117 509.955
1749 0 63.0653 14.0172 884 161.458 862.118 507.967
1750 0 63.1844 14.4339 912 152.805 861.729 507.382
1751 0 65.1546 14.3812 937 161.871 860.667 506.918
1752 0 67.1366 14.6269 982 164.35 861.413 506.166
1753 0 72.1154 14.1579 1021 159.724 861.623 504.284
1754 0 73.0719 14.6294 1069 157.112 862.256 503.37
1755 0 77.1732 14.6424 1130 161.319 862.271 502.328
1756 0 79.1252 14.6982 1163 161.838 862.42 501.359
1757 0 81.2538 14.8547 1207 158.407 860.052 500.737
1758 0 85.2318 14.619 1246 102.514 860.696 498.95
1759 0 87.2525 14.7274 1285 160.507 860.859 497.866
1760 0 90.1878 14.8357 1338 157.022 863.486 496.232
1761 0 94.1568 14.7095 1385 152.239 861.128 494.042
1762 0 97.1258 14.8261 1440 154.245 861.042 493.248
1763 0 101.148 14.7803 1495 158.138 860.359 491.227
1764 1 54.0677 13.6865 740 165.832 860.057 514.293
1765 0 56.086 14.1212 792 165.727 861.476 512.24
1766 0 58.1119 14.1279 821 154.63 860.23 511.593
1767 0 58.1062 14.5423 845 163.986 862.198 510.892
1768 0 62.2127 14.3218 891 161.56 863.343 510.052
1769 0 63.121 14.3692 907 172.802 862.925 508.871
1770 0 64.0853 14.7148 943 168.269 861.11 508.125
1771 0 67.1407 14.5366 976 167.59 861.108 507.159
1772 0 69.0247 14.56 1005 170.828 862.147 506.086
1773 0 71.0389 14.7947 1051 174.31 861.808 505.326
1774 0 74.0898 14.9008 1104 174.014 863.488 503.593
1775 0 77.2908 14.6848 1135 167.013 861.225 502.76
1776 0 78.2513 15.003 1174 170.813 862.928 500.95
1777 0 82.1642 15.0674 1238 167.348 862.933 499.514
1778 0 85.1943 15.0245 1280 170.401 863.747 498.101
1779 0 87.158 15.3055 1334 174.07 862.388 496.809
1780 0 90.2765 15.2421 1376 173.725 863.253 495.491
1781 0 94.283 15.2413 1437 167.259 861.817 493.978
1782 0 96.1968 15.7282 1513 166.31 861.707 490.962
1783 0 100.18 15.2824 1531 172.359 862.709 489.413
1784 0 103.16 15.4032 1589 165.638 862.566 487.342
1785 0 107.162 15.3786 1648 166.027 863.065 485.687
1786 0 112.32 15.1798 1705 162.817 862.854 483.523
1787 1 59.2039 14.222 842 174.951 863.053 509.083
1788 0 60.2409 14.5582 877 171.113 865.553 506.213
1789 0 62.2607 14.359 894 164.523 864.019 505.333
1790 0 63.2028 15.0784 953 163.597 863.233 503.957
1791 0 67.2481 14.6175 983 170.625 864.037 502.797
1792 0 70.2527 14.4905 1018 174.623 864.659 501.387
1793 0 72.1577 14.7178 1062 174.355 865.39 499.982
1794 0 73.1022 15.0611 1101 164.501 866.06 498.643
1795 0 75.2064 14.9721 1126 168.523 865.905 497.17
1796 0 77.1324 15.1298 1167 168.352 864.484 495.917
1797 0 79.3436 15.0737 1196 170.198 863.216 494.667
1798 0 83.3049 15.0531 1254 166.572 864.397 493.024
1799 0 87.3309 15.1035 1319 172.76 864.454 491.322
1800 0 89.4011 15.19 1358 161.353 864.797 490.255
1801 0 94.4156 14.8492 1402 168.658 864.424 488.034
1802 0 94.2957 14.8575 1401 172.53 864.146 487.636
1803 0 97.431 15.3852 1499 171.058 864.717 486.235
1804 0 99.3587 15.0767 1498 172.406 863.368 484.83
1805 0 105.435 15.365 1620 168.33 865.158 482.549
1806 0 110.421 14.9972 1656 171.097 866.13 480.688
1807 0 114.213 15.0159 1715 168.883 866.87 478.44
1808 0 118.317 15.2133 1800 167.296 865.767 476.271
1809 0 122.292 15.0378 1839 168.227 863.2 474.906
1810 0 126.318 14.8752 1879 169.612 863.276 473.458
1811 0 131.352 15.036 1975 169.048 864.246 470.672
1812 0 136.286 15.2033 2072 170.484 863.979 467.842
1813 0 140.24 15.1526 2125 171.117 864.048 465.603
1814 0 147.368 15.0847 2223 161.149 865.245 462.795
1815 0 153.53 14.8896 2286 171.272 863.91 459.897
1816 0 160.399 15.262 2448 174.384 865.165 456.288
1817 1 60.1691 13.6282 820 163.777 863.74 503.852
1818 0 65.256 13.5313 883 163.384 863.633 505.52
1819 0 68.2479 13.6268 930 158.327 864.154 504.908
1820 0 70.3214 13.4383 945 163.026 864.981 504.294
1821 0 73.1992 13.8663 1015 159.87 865.23 502.106
1822 0 75.3025 13.5852 1023 159.094 864.651 501.401
1823 0 77.3108 13.698 1059 163.289 862.615 500.401
1824 0 79.201 13.9013 1101 161.109 862.473 499.355
1825 0 83.2514 13.8376 1152 163.168 862.932 497.47
1826 0 86.3056 13.962 1205 165.903 862.703 496.344
1827 0 89.2646 13.9697 1247 163.832 862.014 494.367
1828 0 90.1867 14.1595 1277 163.828 862.867 493.048
1829 0 97.1513 13.69 1330 158.871 863.496 490.759
1830 1 49.0553 12.0476 591 155.215 865.088 515.626
1831 0 49.054 12.4557 611 152.131 865.018 514.741
1832 0 50.055 12.746 638 155.561 866.726 514.31
1833 0 53.089 12.6768 673 145.831 864.706 513.125
1834 0 55.0632 12.4947 688 158.279 865.071 512.308
1835 0 55.1052 13.1566 725 152.335 863.748 511.11
1836 0 57.1445 12.8271 733 153.767 862.471 510.678
1837 0 58.1393 13.3129 774 150.39 862.645 509.571
1838 0 61.0919 12.9968 794 156.115 862.544 508.743
1839 0 63.1894 13.1668 832 154.886 862.504 507.312
1840 0 63.0835 13.2047 833 159.893 864.34 506.433
1841 0 64.112 13.5232 867 149.737 864.442 505.795
1842 0 69.0991 12.909 892 157.363 865.676 505.331
1843 0 69.1446 13.4501 930 155.14 865.377 503.261
1844 0 73.1163 13.2802 971 144.788 864.531 501.817
1845 0 73.1163 13.2802 971 162.384 862.531 501.817
1846 0 77.0924 13.2179 1019 147.379 864.753 499.629
1847 0 81.0525 13.3 1078 148.443 864.834 497.663
1848 0 84.2725 12.863 1084 146.89 865.03 496.445
1849 1 42.0661 11.268 474 147.523 862.713 516.907
1850 0 46.2611 11.3919 527 145.154 864.934 516.634
1851 0 47.174 11.3622 536 143.737 864.897 515.709
1852 0 47.1914 11.9301 563 144.963 863.957 515.444
1853 0 49.2124 12.1717 599 143.803 863.573 514.167
1854 0 51.1598 12.5685 643 144.597 864.076 512.916
1855 0 52.2667 12.5702 657 141.896 863.868 512.616
1856 0 54.1005 12.5322 678 141.23 864.581 511.706
1857 0 55.1209 12.7538 703 145.077 863.62 511.347
1858 0 56.0897 12.7474 715 148.803 865.185 510.345
1859 0 59.2156 12.8176 759 150.963 864.615 510.037
1860 0 60.1662 12.8145 771 152.593 862.163 509.188
1861 0 62.1218 12.9584 805 145.677 864.123 508.114
1862 0 63.1281 12.8627 812 156.01 864.527 507.006
1863 0 65.1671 12.9973 847 148.732 864.375 506.145
1864 0 68.0699 13.1629 896 150.468 864.778 504.96
1865 0 70.2789 13.1476 924 149.685 864.695 503.952
1866 0 72.2218 13.2785 959 153.483 864.044 503.176
1867 0 74.1413 13.1101 972 153.099 864.024 501.968
1868 0 75.0466 13.7781 1034 157.066 864.629 500.901
1869 0 80.1688 13.3344 1069 154.654 864.29 499.336
1870 0 81.1865 13.8077 1121 153.383 865.018 498.594
1871 0 84.0599 13.3714 1124 160.197 866.162 496.984
1872 0 86.0937 13.9267 1199 158.015 865.945 495.241
1873 0 87.1469 13.9993 1220 159.101 864.722 494.389
1874 0 93.1433 13.549 1262 154.934 866.799 492.665
1875 0 95.1524 13.7884 1312 159.583 864.915 490.669
1876 0 100.254 13.6354 1367 155.041 865.451 489.346
1877 0 103.266 13.5766 1402 158.016 864.522 487.781
1878 1 55.0453 12.408 683 154.761 864.735 511.455
1879 0 57.1438 12.9148 738 159.232 867.972 510.435
1880 0 58.1384 13.1239 763 156.315 867.777 509.368
1881 0 59.1631 12.9642 767 153.877 864.922 508.837
1882 0 62.0606 12.8584 798 156.07 867.472 507.302
1883 0 65.1149 12.3628 805 163.814 867.461 506.332
1884 0 66.12 13.1428 869 158.565 865.482 504.997
1885 0 69.2227 13.0738 905 154.017 866.544 504.202
1886 0 70.1623 13.0839 918 160.963 866.085 503.866
1887 0 71.128 13.4968 960 158.567 865.673 502.477
1888 0 73.0805 13.7246 1003 161.886 865.95 501.916
1889 0 77.1051 13.4621 1038 156.987 866.001 500.317
1890 0 79.177 13.653 1081 161.628 866.645 498.986
1891 0 81.2164 13.8642 1126 161.02 864.978 498.192
1892 0 83.2148 13.8317 1151 159.778 864.73 496.588
1893 0 86.1871 13.8768 1196 161.192 865.031 495.081
1894 0 89.1818 13.893 1239 164.881 865.257 493.853
1895 0 94.2053 13.7678 1297 169.625 866.396 492.366
1896 0 97.1793 13.4699 1309 169.82 865.869 490.392
1897 0 100.138 13.9108 1393 163.52 866.889 488.808
1898 1 48.0563 11.8195 568 163.421 865.292 511.584
1899 0 51.1693 12.8984 660 156.915 864.214 511.515
1900 0 53.1236 12.3297 655 162.144 865.273 512.163
1901 0 53.1006 12.7682 678 158.634 864.428 510.984
1902 0 55.0266 12.7575 702 160.395 865.081 510.256
1903 0 57.0815 13.2092 754 164.431 865.313 509.585
1904 0 58.0668 13.2089 767 167.025 865.372 508.595
1905 0 59.1148 13.4146 793 170.503 865.581 507.904
1906 0 60.0382 13.5747 815 160.556 865.893 507.263
1907 0 65.1261 13.1744 858 161.466 864.571 505.645
1908 0 68.1292 12.9607 883 161.819 866.033 504.367
1909 0 69.123 13.3241 921 160.664 865.317 503.723
1910 0 70.159 13.5122 948 149.968 866.649 502.133
1911 0 71.1033 13.5015 960 164.723 865.625 501.638
1912 0 74.1912 13.4517 998 162.44 865.311 501.087
1913 0 76.0729 13.3819 1018 164.201 865.38 499.492
1914 0 78.1363 13.7324 1073 163.12 867.717 497.839
1915 0 82.0354 13.4089 1100 169.355 867.741 496.445
1916 0 84.0808 13.8557 1165 161.524 867.326 495.108
1917 0 86.1713 13.949 1202 163.59 867.471 492.063
1918 0 91.2782 13.5191 1234 160.092 866.949 491.349
1919 0 95.3066 13.3779 1275 163.727 864.764 489.217
1920 1 50.2213 11.8874 597 157.948 865.144 510.822
1921 0 51.0264 12.6209 644 153.272 865.767 511.293
1922 0 52.1873 12.2827 641 151.833 864.672 511.438
1923 0 55.1828 12.3408 681 151.2 863.63 511.051
1924 0 55.2242 12.5307 692 152.54 865.962 510.842
1925 0 57.1659 12.5074 715 147.248 864.288 510.064
1926 0 58.2066 12.5931 733 149.891 864.542 509.435
1927 0 61.1886 12.7148 778 155.269 866.832 508.105
1928 0 60.1299 12.9387 778 144.076 864.639 507.485
1929 0 63.1397 12.9554 818 146.972 865.709 507.532
1930 0 65.2935 12.819 837 154.851 867.372 506.062
1931 0 66.2138 13.0788 866 155.827 865.607 505.132
1932 0 70.1819 12.9378 908 153.164 866.909 503.501
1933 0 71.2286 13.211 941 152.577 867.069 502.993
1934 0 74.2137 12.6796 941 155.368 866.528 502.18
1935 0 75.1933 13.339 1003 156.22 867.343 501.033
1936 0 79.247 12.9721 1028 153.28 866.039 499.043
1937 0 82.3035 13.025 1072 154.285 865.532 497.863
1938 0 82.3511 13.6003 1120 149.137 866.216 496.221
1939 0 86.2823 13.2124 1140 149.713 866.469 495.595
1940 0 90.371 13.2675 1199 151.5 865.917 492.824
1941 1 49.2342 11.4555 564 153.668 866.158 514.351
1942 0 50.1327 11.5892 581 150.238 867.057 513.427
1943 0 50.3314 12.1991 614 148.404 868.425 512.757
1944 0 54.3279 12.2957 668 149.223 866.34 511.895
1945 0 53.2524 12.8257 683 156.245 865.698 510.644
1946 0 57.3179 12.422 712 150.629 866.096 510.291
1947 0 56.2075 12.614 709 156.272 866.952 510.276
1948 0 57.1626 13.173 753 155.211 865.773 509.086
1949 0 59.1663 13.2846 786 157.692 865.092 508.178
1950 0 62.128 13.0698 812 155.805 864.362 507.384
1951 0 64.1414 13.1117 841 154.822 865.448 506.438
1952 0 66.1919 13.2494 877 155.434 863.97 505.685
1953 0 68.1341 12.9891 885 161.223 864.996 505.45
1954 0 71.2981 13.128 936 161.719 866.475 503.345
1955 0 73.245 13.134 962 153.743 866.213 502.734
1956 0 75.2204 12.9619 975 158.64 866.183 501.74
1957 0 76.4138 13.3091 1017 153.414 866.824 500.796
1958 0 79.3116 13.3398 1058 160.371 865.425 499.956
1959 0 82.416 13.2741 1094 157.506 866.655 498.176
1960 0 85.4568 13.1879 1127 160.11 866.353 496.781
1961 0 88.3678 13.5457 1197 162.074 865.034 495.136
1962 0 91.3482 13.4431 1228 165.742 865.895 493.818
1963 1 49.2277 12.6758 624 162.978 865.463 514.135
1964 0 51.2886 12.9073 662 164.642 865.036 513.039
1965 0 53.1075 12.9737 689 163.553 863.984 511.713
1966 0 54.2039 13.4492 729 160.486 866.143 511.626
1967 0 55.1205 12.9716 715 165.502 866.034 510.969
1968 0 58.1526 12.9143 751 164.324 864.977 509.774
1969 0 59.1862 12.9253 765 165.123 865.786 508.434
1970 0 60.2578 13.1933 795 163.026 865.45 507.308
1971 0 61.1849 13.3366 816 161.337 866.842 506.393
1972 0 63.1701 13.3608 844 158.669 865.427 505.293
1973 0 66.1727 12.9812 859 161.144 866.913 504.494
1974 0 69.1788 13.1832 912 155.053 866.407 502.268
1975 0 71.171 13.4746 959 152.145 866.61 500.906
1976 0 72.2758 13.0749 945 162.729 866.732 500.793
1977 0 76.2627 13.1257 1001 159.854 863.678 499.999
1978 0 79.4885 13.0962 1041 155.412 865.589 498.33
1979 0 81.2304 13.1601 1069 154.29 865.973 496.688
1980 0 86.1847 13.0418 1124 157.558 867.02 495.155
1981 1 47.144 11.7088 552 151.283 867.605 514.538
1982 0 49.0321 12.1553 596 157.079 866.653 513.361
1983 0 50.3233 12.2409 616 153.33 865.506 512.831
1984 0 51.1552 12.7651 653 151.289 867.724 512.418
1985 0 52.2212 12.8683 672 150.817 866.853 511.234
1986 0 55.1233 12.8984 711 151.046 866.353 509.871
1987 0 57.128 12.8308 733 154.574 865.719 509.674
1988 0 59.1712 12.6244 747 153.735 867.352 508.751
1989 0 61.1161 13.2207 808 150.514 864.837 507.506
1990 0 62.1704 13.093 814 155.209 866.141 507.272
1991 0 64.2302 13.1558 845 155.912 864.979 506.252
1992 0 67.2995 14.012 943 148.503 864.27 504.106
1993 0 66.0744 14.0145 926 159.749 863.805 503.981
1994 0 70.0958 13.8525 971 157.526 864.55 503.158
1995 0 71.0744 14.7029 1045 155.587 863.563 501.369
1996 0 71.1014 14.0503 999 162.136 866.383 501.226
1997 0 78.1412 14.8065 1157 155.636 864.614 498.932
1998 0 80.1494 13.9115 1115 163.142 866.009 498.868
1999 0 83.0841 13.7933 1146 170.244 864.14 497.051
2000 0 84.0904 13.652 1148 163.979 865.314 493.942
2001 0 87.0815 13.8376 1205 157.51 865.818 493.925
2002 0 91.0875 13.6462 1243 168.602 864.889 492.619
2003 1 49.266 12.4021 611 165.149 864.103 512.835
2004 0 54.2234 13.6103 738 159.377 864.616 509.909
2005 0 54.232 13.1288 712 166.596 864.874 511.072
2006 0 56.1902 12.9204 726 139.087 865.113 510.682
2007 0 58.3121 13.4792 786 162.37 865.075 508.37
2008 0 60.2182 13.0359 785 162.597 865.715 508.478
2009 0 62.2661 13.3138 829 162.089 864.911 506.795
2010 0 63.1085 13.4689 850 153.62 864.956 505.893
2011 0 66.2026 13.3227 882 162.39 864.764 504.407
2012 0 65.2646 13.9279 909 157.502 865.14 504.36
2013 0 69.0508 13.2946 918 158.651 864.832 503.78
2014 0 69.1424 13.9712 966 156.644 864.632 503.385
2015 0 73.1378 13.8232 1011 159.053 863.493 502.075
2016 0 74.1815 14.0466 1042 156.694 864.654 500.523
2017 0 77.1047 14.0329 1082 153.158 863.949 500.176
2018 0 80.1425 13.738 1101 161.882 865.691 499.168
2019 0 82.106 13.9576 1146 157.444 864.429 497.136
2020 0 86.1525 13.7431 1184 149.673 864.41 494.186
2021 0 88.2488 13.3486 1178 158.213 865.685 493.271
2022 0 91.321 13.4799 1231 149.218 866.55 491.232
2023 0 92.1669 13.6709 1260 154.533 865.764 489.444
2024 0 98.169 13.8638 1361 150.817 866.447 485.389
2025 1 50.0624 12.0649 604 144.838 866.54 512.267
2026 0 50.0679 12.9824 650 150.768 865.138 508.222
2027 0 53.0658 13.1535 698 152.56 865.831 509.857
2028 0 54.1622 13.515 732 145.727 865.112 509.986
2029 0 58.1547 13.2749 772 149.899 865.786 509.214
2030 0 60.125 13.3555 803 149.295 865.494 507.948
2031 0 62.3249 13.3333 831 141.903 866.206 506.291
2032 0 62.2902 13.5013 841 149.21 866.402 505.892
2033 0 65.4024 13.3328 872 144.478 866.132 503.096
2034 0 67.4929 13.2903 897 144.338 866.835 501.344
2035 0 69.266 13.4554 932 138.289 869.362 500.524
2036 0 71.3504 13.749 981 151.198 868.091 501.453
2037 0 75.208 13.8682 1043 149.861 866.302 500.28
2038 0 76.307 14.0092 1069 148.398 866.72 499.018
2039 0 80.2715 13.8654 1113 152.035 866.499 498.218
2040 0 82.207 13.7458 1130 150.024 865.689 497.377
2041 0 85.445 14.1261 1207 155.422 866.275 495.844
2042 0 87.3144 14.3733 1255 149.312 866.225 494.676
2043 0 91.5722 13.9562 1278 148.739 867.378 492.787
2044 0 95.5702 13.8537 1324 155.057 868.472 490.548
2045 0 96.3704 14.0811 1357 156.542 867.695 489.007
2046 0 98.343 14.6325 1439 157.546 867.666 488.566
2047 0 104.26 14.4446 1506 152.897 867.175 487.621
2048 0 107.217 14.2981 1533 154.965 866.748 485.097
2049 0 109.288 14.4938 1584 163.881 866.653 483.249
2050 0 114.198 14.2034 1622 162.138 865.959 482.271
2051 1 61.1272 12.6458 773 155.347 867.648 505.77
2052 0 64.2718 13.1784 847 153.053 865.512 504.609
2053 0 66.2401 13.4964 894 149.221 867.206 503.041
2054 0 68.1472 13.2507 903 160.804 867.063 502.664
2055 0 70.1523 13.2854 932 150.424 866.723 501.102
2056 0 71.0584 13.8196 982 156.939 867.054 500.367
2057 0 74.1103 13.7093 1016 160.367 867.41 499.839
2058 0 77.168 13.5937 1049 157.916 867.534 498.595
2059 0 80.1667 13.8087 1107 157.128 867.892 498.89
2060 0 81.2487 13.7479 1117 162.831 865.298 498.218
2061 0 85.1705 13.8193 1177 165.806 867.021 496.298
2062 0 88.2425 13.5762 1198 162.952 867.755 495.557
2063 0 91.2451 13.809 1260 155.3 868.069 493.401
2064 0 95.2637 13.9193 1326 160.278 869.241 491.662
2065 0 98.2902 13.6331 1340 156.026 868.658 491.165
2066 0 102.308 13.6647 1398 155.913 867.084 488.486
2067 1 53.3173 12.1724 649 147.055 866.441 512.035
2068 0 55.1975 12.1563 671 148.398 867.261 511.738
2069 0 57.0211 12.925 737 153.704 867.423 510.67
2070 0 59.1467 13.2383 783 149.498 868.639 509.437
2071 0 61.1975 13.0071 796 150.616 867.206 507.902
2072 0 62.2026 13.2149 822 147.662 867.381 507.033
2073 0 63.1881 13.4044 847 150.738 868.093 506.349
2074 0 66.1642 13.1189 868 145.826 866.87 504.929
2075 0 68.2409 13.511 922 151.556 867.543 504.743
2076 0 70.0866 13.3549 936 154.763 866.905 503.502
2077 0 74.1353 13.6642 1013 152.273 865.676 502.246
2078 0 76.1233 13.9773 1064 151.994 865.507 501.233
2079 0 78.2536 13.469 1054 155.147 868.155 500.156
2080 0 80.1039 13.882 1112 156.451 867.264 499.314
2081 0 82.1675 13.9106 1143 151.492 865.999 498.093
2082 0 86.306 13.6375 1177 155.969 866.832 496.306
2083 0 87.257 13.9129 1214 159.32 865.448 495.147
2084 0 91.2884 13.7695 1257 158.473 864.62 493.785
2085 0 94.0983 14.4423 1359 155.26 866.888 491.786
2086 0 99.2378 13.8758 1377 161.101 865.686 490.369
2087 1 52.121 12.1832 635 161.847 866.069 512.745
2088 0 56.2212 12.433 699 162.432 865.345 512.195
2089 0 56.1076 13.385 751 159.152 865.755 511.157
2090 0 59.0483 13.1757 778 154.229 867.718 510.681
2091 0 59.0974 13.7062 810 154.907 868.007 509.363
2092 0 62.1687 13.5277 841 151.686 868.523 508.416
2093 0 65.1135 13.3766 871 161.713 869.108 507.969
2094 0 66.1261 13.4894 892 154.234 868.172 506.547
2095 0 65.1816 14.6821 957 150.62 865.14 506.034
2096 0 70.0624 13.6878 959 154.543 867.895 504.512
2097 0 73.2779 13.7559 1008 155.963 865.267 504.043
2098 0 74.08 13.7959 1022 157.986 865.735 502.272
2099 0 78.1664 13.8295 1081 156.016 866.808 500.732
2100 0 80.1653 13.6842 1097 150.256 864.933 498.778
2101 0 83.1856 13.9688 1162 145.065 865.543 496.107
2102 0 85.4188 14.107 1205 155.269 866.382 495.154
2103 0 90.4493 13.643 1234 155.124 865.346 493.365
2104 0 92.2942 14.1504 1306 157.851 865.17 492.018
2105 0 97.5596 13.9709 1363 159.327 865.765 489.039
2106 0 100.246 14.0455 1408 166.264 865.845 489.796
2107 0 102.217 14.254 1457 158.623 864.769 488.555
2108 1 55.115 12.9366 713 156.928 865.602 511.447
2109 0 56.1845 13.7583 773 162.825 866.53 510.724
2110 0 59.285 13.3929 794 156.564 865.612 509.639
2111 0 60.1115 13.5748 816 158.183 866.583 509.516
2112 0 59.1537 14.0143 829 162.429 867.347 508.572
2113 0 62.0808 13.8046 857 162.721 866.892 508.064
2114 0 65.2725 13.6811 893 163.355 867.88 506.856
2115 0 67.2317 13.3865 900 161.402 865.429 505.716
2116 0 70.1339 13.3744 938 166.772 867.051 504.817
2117 0 72.2171 13.8333 999 162.655 867.332 503.86
2118 0 73.3053 14.119 1035 165.857 868.146 502.464
2119 0 77.3176 14.2012 1098 166.2 866.108 499.964
2120 0 79.5044 13.6093 1082 165.75 866.345 498.774
2121 0 82.3343 13.7124 1129 168.287 867.036 497.739
2122 0 85.5646 13.7206 1174 156.736 868.003 496.169
2123 0 88.3575 13.6038 1202 167.072 868.508 495.735
2124 1 46.2123 13.0268 602 161.543 866.937 514.399
2125 0 49.2225 13.0225 641 164.885 866.61 514.014
2126 0 50.168 12.9565 650 166.794 867.398 513.442
2127 0 51.0331 13.4619 687 163.866 867.56 512.167
2128 0 54.0965 13.9196 753 156.093 865.955 511.305
2129 0 55.1048 13.429 740 164.607 865.655 511.322
2130 0 57.0934 13.6443 779 157.549 866.99 509.607
2131 0 60.2234 13.5828 818 156.968 868.923 508.99
2132 0 60.1378 13.9347 838 158.249 867.655 508.08
2133 0 62.1641 13.963 868 149.623 866.206 507.358
2134 0 63.2062 14.0176 886 156.84 867.654 506.909
2135 0 65.1412 14.0925 918 143.958 868.393 505.301
2136 0 66.2243 13.9677 925 151.109 866.899 504.666
2137 0 66.0984 14.1153 933 146.153 867.768 503.965
2138 0 69.322 14.2668 989 149.101 868.976 502.291
2139 0 72.2236 13.9151 1005 144.823 867.267 501.398
2140 0 75.2408 14.3406 1079 145.303 866.347 499.587
2141 0 76.348 14.3684 1097 135.47 868.106 499.156
2142 0 79.2111 14.2404 1128 144.229 867.643 498.622
2143 0 80.2923 14.3725 1154 144.603 866.075 497.562
2144 0 82.1965 14.3923 1183 145.693 865.199 495.937
2145 0 84.2937 14.4258 1216 143.289 867.557 495.352
2146 0 89.2053 14.618 1304 147.895 867.21 493.34
2147 0 92.3002 14.6154 1349 143.848 867.676 491.81
2148 0 92.4418 15.2745 1412 143.343 867.49 490.801
2149 0 96.2902 14.5186 1398 145.057 867.243 489.704
2150 0 99.3125 14.9025 1480 145.77 867.747 488.325
2151 0 103.182 14.8185 1529 140.955 869.296 486.437
2152 0 105.167 14.5292 1528 142.266 867.069 486.128
2153 0 106.365 14.7981 1574 137.385 868.579 483.983
2154 0 110.263 14.6106 1611 140.976 866.507 482.543
2155 0 114.26 14.7383 1684 139.465 867.754 480.805
2156 0 118.272 14.6019 1727 141.002 868.175 479.314
2157 0 123.145 14.8606 1830 145.679 866.114 476.25
2158 0 125.275 14.7355 1846 143.964 866.962 474.449
2159 0 132.182 14.775 1953 141.274 866.565 472.44
2160 0 136.202 14.7575 2010 135.498 867.734 470.804
2161 1 73.168 13.2708 971 138.31 867.476 501.292
2162 0 74.2104 14.2972 1061 140.429 866.364 500.237
2163 0 79.3063 13.6937 1086 145.091 867.641 499.381
2164 0 82.158 14.0948 1158 139.294 868.066 497.633
2165 0 84.3205 13.7452 1159 133.735 867.682 495.818
2166 0 87.2116 13.9775 1219 138.198 866.628 494.206
2167 0 89.2562 14.0494 1254 141.31 867.515 492.865
2168 0 92.1929 14.3178 1320 135.098 867.502 491.464
2169 0 95.3373 14.1917 1353 138.066 867.995 489.701
2170 0 100.328 14.1835 1423 134.756 868.115 487.189
2171 0 104.253 14.0044 1460 134.046 869.114 486.477
2172 1 58.1076 12.1843 708 132.105 869.26 508.508
2173 0 62.2222 12.0696 751 133.067 867.213 507.228
2174 0 65.5501 13.074 857 130.138 866.751 505.907
2175 0 66.26 13.1754 873 130.984 867.182 504.79
2176 0 68.1848 13.0381 889 133.556 868.216 503.878
2177 0 69.3592 13.6824 949 134.374 867.268 502.435
2178 0 74.3476 13.2486 985 135.006 865.717 501.022
2179 0 77.2586 13.1118 1013 126.131 865.801 499.482
2180 0 79.1911 13.5495 1073 125.896 865.954 498.008
2181 0 82.3165 14.2377 1172 130.154 865.982 497.222
2182 0 86.2248 14.0563 1212 127.624 865.37 496.158
2183 0 88.3438 13.8097 1220 128.001 865.459 494.132
2184 0 92.2294 14.1712 1307 136.476 865.296 493.357
2185 0 94.3974 14.2695 1347 134.86 866.337 490.853
2186 0 97.339 13.715 1335 132.659 866.279 490.7
2187 0 101.293 13.9101 1409 136.281 866.074 488.158
2188 0 104.271 14.0403 1464 133.168 865.924 486.753
2189 1 59.0689 12.6124 745 136.114 865.613 509.499
2190 0 61.0846 13.113 801 137.999 864.442 508.154
2191 0 63.1017 13.0266 822 139.258 866.086 507.436
2192 0 65.1379 12.9418 843 139.681 864.757 506.706
2193 0 66.1691 13.6771 905 136.957 863.134 504.432
2194 0 70.1083 13.308 933 140.354 863.308 503.623
2195 0 71.2818 13.7062 977 132.385 864.392 502.749
2196 0 73.2282 13.7788 1009 140.589 864.612 502.239
2197 0 75.0772 13.4661 1011 143.845 866.427 501.469
2198 0 79.153 13.9098 1101 143.432 866.726 498.972
2199 0 83.1166 13.9082 1156 142.788 865.75 497.665
2200 0 85.1909 13.6165 1160 143.164 865.393 497.034
2201 0 88.1196 13.6746 1205 141.656 864.374 495.445
2202 0 88.176 13.9947 1234 145.826 864.481 493.296
2203 0 94.1916 13.6636 1287 141.641 865.249 491.708
2204 0 97.1848 13.428 1305 142.07 863.885 490.808
2205 0 101.193 13.6472 1381 149.226 865.345 488.516
2206 0 104.16 13.6616 1423 151.69 866.338 487.298
2207 0 108.248 13.4414 1455 150.227 863.754 485.599
2208 1 62.1085 12.3977 770 142.799 867 508.365
2209 0 64.1788 12.621 810 139.88 865.543 507.123
2210 0 65.2372 12.8914 841 148.061 865.232 506.287
2211 0 65.1048 13.102 853 141.938 865.055 505.685
2212 0 69.2272 13.174 912 142.109 865.923 505.082
2213 0 72.1389 12.8502 927 145.961 866.628 503.378
2214 0 74.101 13.2657 983 147.87 865.841 502.435
2215 0 76.0744 13.1319 999 143.539 865.937 501.649
2216 0 79.087 12.796 1012 147.013 864.797 500.426
2217 0 80.1118 13.0692 1047 147.943 865.308 499.742
2218 0 81.1126 13.7093 1112 150.385 865.83 497.947
2219 0 82.0598 13.9045 1141 147.966 864.94 496.508
2220 0 86.0779 13.5807 1169 144.654 866.142 495.635
2221 0 89.1524 13.5498 1208 147.528 865.538 493.668
2222 0 93.2762 13.2617 1237 138.189 865.562 492.759
2223 0 97.1918 13.7254 1334 147.347 865.795 490.375
2224 0 102.313 13.3707 1368 143.333 863.595 488.693
2225 0 103.197 13.5469 1398 148.176 863.694 487.194
2226 0 108.33 13.4773 1460 139.607 863.69 485.334
2227 1 61.0972 12.8811 787 151.47 864.532 507.999
2228 0 64.0872 13.2788 851 144.868 865.22 507.08
2229 0 64.1886 13.3513 857 142.061 863.981 506.146
2230 0 67.1331 13.2573 890 139.221 865.602 505.921
2231 0 67.1117 13.2168 887 144.867 864.355 505.202
2232 0 70.0919 13.6535 957 137.692 864.626 504.049
2233 0 71.1691 14.2899 1017 134.767 865.182 502.312
2234 0 75.329 13.9256 1049 139.213 865.046 501.52
2235 0 77.1899 14.3672 1109 136.803 864.471 500.137
2236 0 81.2819 14.0253 1140 138.843 864.846 498.372
2237 0 82.288 14.0847 1159 142.503 865.407 497.75
2238 0 85.3032 13.9971 1194 136.961 865.722 496.749
2239 0 88.2527 14.3678 1268 130.685 863.443 495.261
2240 0 92.1685 14.0504 1295 136.931 864.976 493.238
2241 0 94.3033 14.0822 1328 139.115 865.759 492.444
2242 0 97.2951 14.307 1392 141.716 865.241 490.568
2243 1 54.2434 13.2735 720 139.692 865.66 511.425
2244 0 56.1292 13.4511 755 141.738 865.66 510.575
2245 0 58.3516 13.4701 786 138.145 866.415 509.906
2246 0 59.213 14.1016 835 142.496 865.602 509.062
2247 0 61.2202 14.0967 863 133.254 864.641 507.452
2248 0 62.1138 13.7168 852 141.066 865.345 507.302
2249 0 64.1375 13.8764 890 142.563 866.167 506.328
2250 0 66.1394 14.3182 947 141.239 865.527 505.149
2251 0 69.1535 14.2003 982 132.057 866.157 503.283
2252 0 71.1785 14.4285 1027 141.269 865.25 503.086
2253 0 73.107 14.4446 1056 135.461 865.629 501.736
2254 0 77.1472 14.1677 1093 122.452 865.586 500.811
2255 0 78.1152 14.4274 1127 136.18 866.805 498.906
2256 0 82.1323 14.1966 1166 141.536 868.322 497.672
2257 0 84.1461 13.8568 1166 140.014 866.848 495.846
2258 0 87.1982 14.0255 1223 137.625 864.518 495.378
2259 1 46.145 13.0242 601 144.166 865.118 514.218
2260 0 48.2002 13.3609 644 147.508 864.691 513.325
2261 0 51.205 13.7682 705 138.004 864.243 512.196
2262 0 53.1115 13.8576 736 141.084 864.924 511.607
2263 0 54.0576 14.0591 760 136.054 866.514 510.904
2264 0 55.252 14.1171 780 137.254 866.709 509.947
2265 0 55.0107 14.8698 818 141.971 865.969 509.07
2266 0 59.1103 14.2276 841 146.09 865.646 508.541
2267 0 60.0555 14.2868 858 144.108 865.815 508.09
2268 0 61.0449 14.4975 885 143.655 865.145 506.436
2269 0 62.0906 14.7365 915 141.602 867.05 505.686
2270 0 66.1976 14.6078 967 138.6 864.641 504.929
2271 0 67.1161 14.6016 980 142.902 866.13 504.265
2272 0 69.1833 14.7868 1023 141.434 866.82 502.84
2273 0 72.0494 14.5872 1051 139.947 866.394 501.44
2274 0 73.0793 14.7237 1076 144.867 865.56 500.395
2275 0 75.1226 14.7359 1107 145.126 864.899 499.804
2276 0 77.1122 14.8615 1146 140.179 866.915 498.832
2277 0 79.0684 14.9111 1179 147.739 866.086 498.062
2278 0 84.1709 15.0527 1267 143.671 863.747 496.451
2279 0 86.2308 14.438 1245 148.513 863.21 495.369
2280 0 90.2008 14.9444 1348 150.842 864.133 493.513
2281 0 94.25 14.8435 1399 141.6 863.036 492.244
2282 0 97.2095 14.4842 1408 145.699 864.691 490.695
2283 1 53.0609 13.8897 737 153.06 865.233 512.25
2284 0 54.0545 14.5409 786 149.552 864.614 511.139
2285 0 56.1148 14.9158 837 146.46 865.225 510.091
2286 0 57.0808 14.7686 843 151.414 865.375 509.781
2287 0 61.1936 14.9526 915 147.179 867.129 508.667
2288 0 60.078 15.3634 923 145.181 866.386 507.777
2289 0 62.1069 15.5377 965 150.343 866.902 507.193
2290 0 66.0915 15.1305 1000 146.255 866.275 506.124
2291 0 68.3163 15.4282 1054 153.129 865.774 504.698
2292 0 72.0482 15.2259 1097 147.889 866.687 504.533
2293 0 74.0662 15.2701 1131 148.201 866.271 503.183
2294 0 76.1255 15.6058 1188 147.46 866.34 501.975
2295 0 76.1341 16.2214 1235 152.751 865.941 501.224
2296 0 81.0904 15.7109 1274 153.816 866.663 500.156
2297 0 83.2117 15.8031 1315 161.408 865.916 499.117
2298 0 87.1462 15.8584 1382 152.556 867.686 497.483
2299 0 90.0995 15.9379 1436 147.648 866.201 496.46
2300 0 92.2119 15.8548 1462 156.927 866.125 495.183
2301 0 98.1405 17.1693 1685 149.858 867.73 491.556
2302 0 100.137 15.4488 1547 163.581 866.646 491.718
2303 1 49.0874 16.0123 786 159.537 866.635 515.032
2304 0 50.1344 15.9172 798 165.303 866.743 514.57
2305 0 53.2125 15.6166 831 162.735 867.372 513.876
2306 0 54.0523 16.447 889 160.368 866.916 512.496
2307 0 57.1394 16.3285 933 160.726 866.774 511.61
2308 0 59.2203 16.2275 961 160.872 866.643 510.986
2309 0 60.0617 16.25 976 155.259 866.227 510.56
2310 0 62.0693 16.3366 1014 156.127 866.903 509.365
2311 0 63.5761 16.5471 1052 157.573 866.295 508.792
2312 0 67.1319 16.0728 1079 163.34 866.4 508.108
2313 0 68.0952 16.8441 1147 162.373 865.564 506.598
2314 0 71.1678 16.2433 1156 162.404 865.947 505.874
2315 0 73.1518 16.6776 1220 162.412 868.291 505.157
2316 0 74.09 16.7364 1240 171.287 866.137 504.24
2317 0 77.0763 16.8794 1301 167.061 865.226 502.542
2318 0 79.1841 16.7205 1324 170.63 867.002 501.954
2319 0 82.2294 16.8674 1387 152.828 866.5 500.29
2320 0 86.2189 16.3769 1412 164.207 865.671 498.44
2321 0 90.2452 16.2779 1469 166.268 864.642 497.838
2322 1 46.1732 16.005 739 175.334 866.854 517.455
2323 0 49.0956 16.2947 800 175.736 867.212 516.805
2324 0 50.2673 16.7504 842 168.764 868.468 516.166
2325 0 51.0783 16.7194 854 173.43 866.945 515.37
2326 0 54.1961 16.5141 895 166.111 868.381 514.829
2327 0 56.1633 16.5233 928 171.154 869.131 513.956
2328 0 57.0384 16.5503 944 166.68 868.319 513.35
2329 0 59.3198 16.5712 983 175.916 865.875 512.783
2330 0 60.1754 16.9505 1020 167.847 865.911 511.374
2331 0 62.1433 17.1861 1068 167.795 865.435 510.626
2332 0 63.3568 17.1252 1085 165.129 866.215 510.08
2333 0 67.4705 16.8222 1135 175.481 866.352 509.386
2334 0 69.1254 16.9402 1171 170.704 867.611 508.028
2335 0 70.1907 17.31 1215 166.512 869.216 507.323
2336 0 74.2397 16.9855 1261 170.517 865.788 506.362
2337 0 76.2951 17.1571 1309 170.838 866.094 505.452
2338 0 78.2905 17.2946 1354 168.922 867.114 504.287
2339 0 80.1502 17.2302 1381 170.9 866.881 503.254
2340 0 81.2081 17.1288 1391 172.408 867.041 502.271
2341 0 84.3421 17.5832 1483 166.203 865.941 500.805
2342 0 89.4144 16.8541 1507 169.49 867.626 499.652
2343 0 91.531 17.1854 1573 170.157 868.518 497.989
2344 0 95.2996 16.9675 1617 169.6 869.467 496.669
2345 0 99.177 17.3226 1718 165.686 870.535 494.52
2346 0 100.303 17.3274 1738 169.99 868.809 492.835
2347 0 105.378 17.0813 1800 163.802 867.839 491.486
2348 0 110.282 16.9927 1874 167.903 867.873 489.502
2349 0 114.269 16.9249 1934 172.225 866.986 487.82
2350 0 118.253 17.1497 2028 165.774 868.493 485.902
2351 0 124.29 17.2097 2139 171.77 867.625 483.41
2352 0 130.633 16.9253 2211 161.281 868.256 480.749
2353 0 134.459 16.8974 2272 154.77 866.504 477.603
2354 1 65.2537 16.2596 1061 179.32 868.075 509.922
2355 0 66.1923 17.0866 1131 175.867 868.141 509.516
2356 0 69.281 16.7001 1157 171.396 870.137 508.258
2357 0 72.172 16.7655 1210 165.926 868.412 507.393
2358 0 74.2759 16.8022 1248 171.14 868.078 506.028
2359 0 76.1714 16.8436 1283 178.099 868.281 505.122
2360 0 80.2293 16.5526 1328 176.334 868.215 503.968
2361 0 82.2082 16.6528 1369 163.359 867.264 502.481
2362 0 86.3305 16.7959 1450 178.202 867.805 500.932
2363 0 89.2005 16.6927 1489 175.768 869.068 499.925
2364 0 93.1217 16.6234 1548 175.446 869.419 498.229
2365 0 94.3772 16.7307 1579 171.659 868.344 496.782
2366 0 98.2538 16.5795 1629 172.294 867.001 495.813
2367 0 101.194 16.7994 1700 174.101 867.957 493.931
2368 0 106.152 16.7402 1777 174.475 869.37 491.192
2369 0 109.234 16.9362 1850 177.594 867.961 489.738
2370 0 115.253 16.9193 1950 167.207 868.123 487.214
2371 0 118.206 16.6996 1974 173.194 868.333 485.665
2372 0 121.152 17.02 2062 171.688 867.419 484.213
2373 0 127.403 16.8756 2150 175.246 868.467 481.751
2374 0 132.542 16.84 2232 167.763 868.428 479.096
2375 0 137.254 16.8519 2313 174.309 868.745 477.241
2376 0 142.265 17.0878 2431 169.718 868.33 474.294
2377 0 147.426 16.8628 2486 165.916 870.225 472.004
2378 0 152.609 16.7355 2554 175.306 866.091 470.242
2379 0 158.37 16.7393 2651 165.592 868.155 466.793
2380 0 165.345 16.777 2774 169.194 866.857 464.579
2381 0 171.261 16.7639 2871 166.014 867.143 461.084
2382 0 177.442 16.8168 2984 167.897 867.692 457.762
2383 0 183.38 16.7739 3076 169.638 868.208 455.356
2384 0 190.534 16.9891 3237 165.734 867.795 451.826
2385 0 198.424 16.9234 3358 161.803 867.343 448.277
2386 0 203.499 17.0664 3473 163.544 866.369 444.718
2387 0 213.544 16.9099 3611 169.2 866.865 441.093
2388 0 221.526 16.6166 3681 158.13 867.804 436.778
2389 1 164.43 16.2196 2667 175.774 867.127 464.861
2390 0 170.479 17.181 2929 176.122 867.75 460.934
2391 1 88.2903 16.627 1468 173.163 868.333 499.19
2392 0 91.3213 16.5679 1513 179.212 867.496 497.974
2393 0 94.4374 16.8471 1591 177.559 867.663 496.288
2394 0 95.2715 16.8781 1608 174.543 868.554 494.817
2395 0 101.303 16.7616 1698 176.661 868.532 493.157
2396 0 105.206 16.691 1756 173.167 868.07 491.435
2397 0 107.22 16.9091 1813 172.418 868.895 490.555
2398 0 112.419 16.5364 1859 172.934 870.407 487.897
2399 0 112.253 17.2468 1936 179.395 869.122 486.747
2400 0 120.332 16.4794 1983 169.467 866.478 484.065
2401 0 124.26 16.5459 2056 173.211 867.184 481.83
2402 0 129.417 16.4507 2129 178.46 868.624 480.651
2403 0 135.312 16.0888 2177 173.292 868.432 477.911
2404 0 141.246 16.0642 2269 175.857 867.046 475.438
2405 0 146.293 16.1661 2365 165.378 866.771 473.034
2406 0 152.199 16.393 2495 169.9 867.138 469.177
2407 0 159.433 16.151 2575 169.245 866.156 466.314
2408 0 165.339 15.8704 2624 167.527 866.431 464.312
2409 1 122.291 16.1909 1980 178.93 866.458 483.832
2410 0 127.141 16.3677 2081 177.358 866.796 480.782
2411 0 132.138 16.0439 2120 176.644 867.45 478.572
2412 0 137.223 16.1125 2211 174.77 867.204 475.539
2413 0 142.208 16.6798 2372 173.847 867.326 472.221
2414 0 147.263 16.6573 2453 167.048 868.238 469.042
2415 0 152.323 16.5701 2524 169.132 869.05 467.359
2416 0 158.436 16.4482 2606 170.246 868.6 465.574
2417 0 165.296 16.4735 2723 173.017 869.243 462.247
2418 0 171.212 16.3189 2794 172.418 868.338 459.27
2419 0 176.167 16.6036 2925 170.43 866.592 455.795
2420 0 183.304 16.9446 3106 168.555 867.048 451.821
2421 0 191.224 16.6873 3191 171.551 866.482 448.987
2422 0 196.304 16.8667 3311 173.193 867.28 445.722
2423 0 205.406 16.5769 3405 172.124 865.501 441.803
2424 0 213.284 16.7711 3577 172.793 866.144 436.882
2425 0 223.259 17.043 3805 162.103 865.03 431.814
2426 0 228.486 16.9726 3878 166.01 865.98 430.31
2427 1 194.626 16.4367 3199 176.506 866.465 446.393
2428 0 201.446 16.6595 3356 174.382 867.355 442.343
2429 0 208.829 16.583 3463 174.847 867.955 438.075
2430 0 216.34 16.8208 3639 170.678 868.522 433.746
2431 0 225.402 16.7922 3785 173.793 867.627 429.883
2432 0 234.69 16.6475 3907 171.541 867.775 426.264
2433 0 243.662 16.884 4114 169.844 867.176 420.809
2434 0 252.59 17.0395 4304 164.866 867.71 416.306
2435 0 259.81 16.9316 4399 169.845 866.801 412.243
2436 1 146.391 15.6976 2298 173.722 868.726 469.06
2437 0 151.229 15.6452 2366 173.73 867.194 466.875
2438 1 87.2392 15.4518 1348 170.958 868.616 497.004
2439 0 91.2588 15.4286 1408 175.31 867.574 495.307
2440 0 92.1564 15.4737 1426 169.445 868.421 494.292
2441 0 98.1644 15.3518 1507 171.267 868.073 492.825
2442 0 100.136 15.3591 1538 164.009 868.863 491.684
2443 0 104.182 15.4346 1608 166.861 869.919 489.598
2444 0 107.111 15.4045 1650 173.818 869.465 488.324
2445 0 110.234 15.6485 1725 170.546 869.896 486.757
2446 0 117.223 15.4151 1807 170.941 868.801 484.366
2447 0 120.484 15.3962 1855 172.992 866.133 482.804
2448 0 123.284 15.7685 1944 174.575 867.078 481.737
2449 1 63.2729 15.8204 1001 176.949 866.831 507.832
2450 0 66.2716 15.6326 1036 172.128 868.343 506.362
2451 0 68.0861 15.7888 1075 176.725 867.479 506.214
2452 0 70.4136 15.5084 1092 180.61 867.714 505.039
2453 0 71.2158 15.8392 1128 170.319 866.043 503.566
2454 0 76.1698 15.5311 1183 177.432 866.358 502.264
2455 0 78.2399 15.7592 1233 178.599 867.843 501.099
2456 0 78.0632 15.9486 1245 178.8 867.526 500.37
2457 0 84.2204 15.5188 1307 173.311 867.189 498.51
2458 0 84.1537 16.0421 1350 177.031 868.407 497.346
2459 0 89.3764 15.7424 1407 176.357 865.533 495.368
2460 0 93.2999 15.5627 1452 177.95 866.147 493.526
2461 0 97.568 15.5789 1520 173.968 866.024 491.58
2462 0 104.292 15.6004 1627 173.576 864.805 488.69
2463 0 104.176 15.1954 1583 168.859 865.68 488.27
2464 0 108.298 15.6235 1692 173.88 866.924 485.728
2465 0 113.276 15.2725 1730 167.777 865.424 483.153
2466 0 116.401 15.4123 1794 170.637 865.848 481.084
2467 1 129.39 15.5035 2006 168.87 866.07 475.069
2468 0 129.326 15.5344 2009 175.163 867.814 475.408
2469 1 65.2705 14.4322 942 168.615 867.424 506.411
2470 0 67.3022 14.8732 1001 172.841 869.08 505.381
2471 0 69.2878 15.082 1045 169.13 867.622 503.642
2472 0 72.2047 14.9575 1080 172.689 868.593 502.68
2473 0 74.1784 14.6269 1085 174.644 867.878 501.184
2474 0 76.3944 15.0011 1146 174.784 868.623 499.844
2475 0 80.1881 14.7403 1182 171.962 867.735 498.07
2476 0 81.1854 15.2983 1242 169.884 868.576 496.355
2477 0 87.1864 14.6583 1278 174.099 868.854 495.303
2478 0 89.2207 14.8396 1324 174.767 868.009 493.403
2479 0 92.3908 14.8283 1370 170.931 867.072 492.555
2480 0 96.1291 14.8342 1426 170.025 867.979 490.077
2481 0 98.3286 14.9194 1467 173.695 868.467 488.831
2482 0 103.627 15.0057 1555 172.382 870.064 486.534
2483 0 108.301 15.2076 1647 173.41 867.253 483.978
2484 1 55.1604 14.6301 807 176.942 868.791 508.685
2485 0 56.1373 14.7139 826 175.47 867.1 508.511
2486 0 59.264 14.7644 875 170.123 868.195 506.755
2487 0 60.2333 14.7593 889 174.684 869.597 505.98
2488 0 62.172 15.055 936 174.168 868.914 504.532
2489 0 65.2284 14.9321 974 173.831 869.876 503.282
2490 0 67.3899 15.2397 1027 170.066 868.539 502.505
2491 0 68.1962 15.0448 1026 177.751 866.971 501.787
2492 0 72.1113 14.9352 1077 176.84 867.746 499.847
2493 0 75.1841 14.9101 1121 174.608 866.423 498.277
2494 0 76.164 14.8233 1129 176.354 868.896 497.407
2495 0 79.1554 15.4633 1224 168.052 871.181 495.057
2496 0 83.5462 15.0934 1261 165.8 870.596 493.79
2497 0 86.3274 14.9431 1290 168.211 868.29 492.6
2498 0 88.2842 15.1669 1339 167.273 867.041 490.544
2499 0 90.2669 15.4763 1397 160.686 868.49 488.974
2500 1 47.3087 13.7607 651 168.114 867.052 509.952
2501 0 47.4872 14.3828 683 163.837 867.632 509.814
2502 0 50.1575 14.3348 719 167.944 867.438 508.243
2503 0 52.3347 13.8149 723 170.432 867.232 507.707
2504 0 53.436 14.3162 765 170.382 868.387 507.072
2505 0 53.436 14.3162 765 180.076 869.387 507.072
2506 0 55.222 14.5956 806 170.655 869.043 505.701
2507 0 59.2986 14.4691 858 170.664 867.415 504.331
2508 0 60.1484 14.6139 879 178.329 867.724 504.455
2509 0 62.0758 14.5467 903 180.905 868.424 503.24
2510 0 62.2888 15.091 940 172.207 867.499 502.367
2511 0 65.2826 14.9197 974 170.162 867.461 501.559
2512 0 67.1161 14.8102 994 168.475 866.363 500.802
2513 0 69.2678 15.0431 1042 177.393 867.057 499.397
2514 0 71.3909 14.9459 1067 169.597 866.621 497.752
2515 0 74.1003 15.1147 1120 175.137 868.079 496.062
2516 0 76.191 15.2643 1163 173.824 867.562 494.994
2517 0 78.3585 15.2121 1192 173.742 867.31 493.986
2518 0 81.2062 15.0974 1226 177.989 869.08 492.476
2519 0 83.1813 14.9192 1241 175.345 868.883 491.241
2520 0 88.242 14.8682 1312 169.499 868.476 489.137
2521 0 92.1956 14.9899 1382 175.827 868.878 487.026
2522 0 94.2641 14.9792 1412 166.087 867.851 485.392
2523 0 97.2078 15.0811 1466 168.129 868.548 483.739
2524 0 102.148 14.8217 1514 171.227 866.874 482.196
2525 0 106.165 15.184 1612 167.298 867.44 479.542
2526 0 110.275 15.3253 1690 170.954 866.494 477.712
2527 0 114.205 15.1481 1730 174.449 868.461 475.953
2528 0 118.259 15.2632 1805 164.308 867.41 473.849
2529 0 122.227 15.0703 1842 166.446 867.462 471.813
2530 0 127.245 15.3169 1949 166.769 868.664 468.601
2531 0 132.35 15.1039 1999 170.541 869.091 465.948
2532 0 136.329 15.2719 2082 161.188 868.252 463.5
2533 0 141.415 15.3024 2164 167.688 868.206 461.352
2534 0 147.522 14.7639 2178 162.371 868.249 459.035
2535 0 152.23 14.9707 2279 173.426 868.417 456.186
2536 0 156.239 15.0731 2355 158.991 867.938 453.031
2537 1 43.0857 11.9529 515 163.231 870.039 510.505
2538 0 43.1468 12.3068 531 154.612 869.495 510.298
2539 0 46.1337 12.0953 558 166.274 868.724 509.134
2540 0 48.0997 11.9959 577 165.501 867.993 508.14
2541 0 48.0734 12.5433 603 159.292 867.388 507.905
2542 0 50.1052 12.813 642 164.008 867.949 506.318
2543 0 50.0916 12.7766 640 164.736 867.892 506.433
2544 0 53.0748 12.6991 674 169.297 868.546 504.911
2545 0 60.1162 12.4093 746 160.088 868.497 502.601
2546 0 59.095 12.5391 741 168.112 869.197 502.301
2547 0 58.0573 12.9183 750 166.253 869.408 501.755
2548 0 58.0996 13.1326 763 165.442 869.354 500.923
2549 0 62.1564 12.8064 796 167.618 868.408 500.567
2550 0 65.0686 12.8633 837 164.772 865.548 498.935
2551 0 66.1153 12.9925 859 167.796 868.198 497.958
2552 0 70.0853 12.2993 862 167.711 866.794 496.398
2553 0 71.1173 12.5989 896 162.662 867.877 495.145
2554 0 73.1649 13.2714 971 160.054 868.985 493.276
2555 0 75.1465 12.8283 964 148.275 867.147 493.174
2556 0 79.1442 12.6983 1005 165.123 866.924 491.475
2557 1 41.0184 12.3116 505 154.671 867.422 509.354
2558 0 42.0532 11.747 494 155.433 868.119 509.557
2559 0 44.0604 11.9155 525 152.011 867.65 508.493
2560 0 45.0551 11.8966 536 155.463 867.985 508.239
2561 0 46.129 12.2266 564 150.408 867.614 507.096
2562 0 49.1393 12.1288 596 151.128 867.985 506.639
2563 0 51.2256 12.3766 634 153.773 868.759 505.164
2564 0 52.2573 11.8835 621 156.446 869.377 505.248
2565 0 52.2319 12.8083 669 153.713 871.175 503.03
2566 0 54.1156 12.3994 671 156.866 869.475 503.367
2567 0 56.1321 12.8091 719 156.922 869.342 502.063
2568 0 59.1805 12.5041 740 148.276 868.982 500.776
2569 0 60.1922 12.9087 777 157.459 868.202 499.551
2570 0 62.1443 13.179 819 157.15 867.347 498.869
2571 0 64.1758 13.3851 859 159.753 868.307 498.105
2572 0 67.2916 13.1369 884 161.865 868.408 497.074
2573 0 68.31 13.5705 927 161.874 869.333 495.779
2574 0 71.3477 13.5253 965 159.839 869.951 494.522
2575 0 76.3236 12.9187 986 158.522 870.784 492.941
2576 0 77.3496 13.4842 1043 157.863 868.912 491.682
2577 0 81.3853 13.135 1069 154.284 869.165 489.782
2578 0 84.4906 13.3506 1128 166.605 869.673 488.192
2579 0 85.6532 13.2628 1136 162.161 869.747 487.447
2580 0 89.5916 13.4276 1203 164.002 870.121 485.11
2581 1 49.2125 12.1717 599 163.561 870.676 504.968
2582 0 50.4395 12.629 637 161.568 871.752 504.727
2583 0 52.029 12.5315 652 163.08 870.423 504.192
2584 0 53.1328 12.9487 688 165.031 868.753 503.086
2585 0 55.1217 13.189 727 164.326 870.546 502.31
2586 0 57.0613 12.8283 732 161.652 868.72 501.687
2587 0 60.0444 13.1403 789 160.138 870.38 500.321
2588 0 61.092 13.3078 813 166.355 871.308 500.309
2589 0 63.0256 13.0423 822 165.529 869.416 499.286
2590 0 65.0744 12.7393 829 164.27 871.758 498.34
2591 0 67.053 13.2433 888 170.262 869.593 497.421
2592 0 69.088 13.5769 938 163.7 868.88 496.356
2593 0 69.0613 13.8283 955 161.147 868.688 495.283
2594 0 75.1499 13.36 1004 165.635 871.27 493.565
2595 0 75.1202 13.6182 1023 159.354 869.967 492.092
2596 0 79.1059 13.3998 1060 164.223 871.946 490.497
2597 0 82.2061 13.454 1106 156.222 869.662 489.042
2598 0 85.1485 13.3766 1139 162.79 871.718 487.773
2599 0 88.3155 13.5424 1196 157.428 871.723 485.936
2600 1 46.0345 12.382 570 163.182 870.791 506.739
2601 0 47.0528 13.0492 614 151.178 871.787 505.674
2602 0 47.3063 12.789 605 164.628 871.871 506.299
2603 0 49.1738 13.1371 646 156.241 870.246 505.009
2604 0 51.2835 13.1036 672 155.583 870.153 504.542
2605 0 53.2624 13.349 711 160.392 869.959 503.321
2606 0 54.24 13.2559 719 161.682 868.86 503.124
2607 0 57.1943 13.288 760 162.583 869.896 501.9
2608 0 58.2451 13.5462 789 161.473 870.74 501.048
2609 0 58.237 13.7026 798 164.002 870.888 500.282
2610 0 60.3932 13.5943 821 163.47 871.276 499.677
2611 0 63.1846 13.3419 843 161.561 870.929 498.376
2612 0 66.1977 13.4748 892 168.152 871.945 497.759
2613 0 67.2118 13.6583 918 161.158 869.308 496.95
2614 0 70.174 13.552 951 167.578 870.306 495.979
2615 0 72.244 13.8974 1004 168.374 868.343 494.57
2616 0 74.281 13.8797 1031 166.346 869.332 493.134
2617 0 76.3547 14.0136 1070 171.704 869.788 491.265
2618 0 79.0891 13.744 1087 163.638 870.794 490.462
2619 0 82.1479 14.1209 1160 163.3 870.525 489.163
2620 0 85.1916 13.8981 1184 166.331 870.262 487.372
2621 0 88.3399 13.8669 1225 163.669 869.184 485.934
2622 0 92.3705 13.9547 1289 161.376 870.487 484.324
2623 0 94.3022 14.3475 1353 162.908 868.506 482.304
2624 1 51.1485 13.2555 678 168.577 867.588 503.532
2625 0 53.2677 13.3289 710 159.406 867.404 502.61
2626 0 55.0818 13.2712 731 169.679 866.954 502.07
2627 0 56.2529 13.3504 751 163.501 870.19 501.581
2628 0 57.2995 13.7523 788 167.976 870.905 500.642
2629 0 59.1932 13.5151 800 165.891 869.91 499.749
2630 0 62.1398 13.7432 854 165.253 870.737 498.725
2631 0 63.1411 13.9687 882 167.721 869.841 497.745
2632 0 66.2689 13.6263 903 168.251 870.169 496.313
2633 0 68.1943 14.0334 957 165.402 869.9 495.156
2634 0 71.3792 14.0937 1006 166.741 869.535 494.082
2635 0 73.2266 14.2981 1047 172.02 870.208 492.783
2636 0 75.3591 14.1058 1063 172.688 871.569 491.975
2637 0 77.3385 14.1197 1092 165.28 871.193 490.256
2638 0 80.4264 14.4107 1159 172.371 871.8 488.737
2639 0 84.3348 14.3713 1212 164.284 871.361 487.339
2640 0 87.3205 14.1891 1239 168.922 871.521 485.722
2641 0 90.5372 14.2041 1286 167.374 870.582 484.341
2642 0 93.3028 14.1368 1319 163.136 869.657 483.609
2643 0 95.4587 14.0794 1344 170.845 870.63 481.596
2644 0 100.326 14.2834 1433 169.611 870.491 480.149
2645 0 103.182 14.111 1456 165.981 871.234 478.293
2646 0 108.231 14.3397 1552 166.869 870.97 476.713
2647 1 53.1258 13.5904 722 166.28 872.542 501.952
2648 0 56.0948 13.4059 752 162.951 872.137 501.055
2649 0 56.1494 13.4997 758 171.227 871.364 500.538
2650 0 59.046 13.8197 816 165.553 872.673 499.064
2651 0 61.0689 13.624 832 166.856 871.553 497.483
2652 0 63.1668 13.6464 862 167.378 871.905 496.776
2653 0 65.0864 14.1197 919 168.025 872.17 495.708
2654 0 66.0899 14.0717 930 166.891 872.249 494.49
2655 0 69.2865 13.9854 969 170.062 872.687 492.962
2656 0 72.38 13.6502 988 164.054 872.044 491.04
2657 0 74.2396 14.103 1047 162.223 872.91 489.017
2658 0 76.2188 14.1041 1075 170.324 871.908 488.404
2659 0 79.3148 14.3227 1136 165.684 873.13 487.136
2660 0 83.1668 14.2485 1185 164.295 873.21 484.889
2661 0 84.2302 14.3535 1209 161.929 871.164 483.396
2662 0 89.4 14.1499 1265 170.057 871.224 481.837
2663 0 90.3212 13.7952 1246 166.961 871.262 479.87
2664 0 95.2193 13.7787 1312 164.38 871.599 477.775
2665 0 97.1677 13.9655 1357 164.601 872.102 476.677
2666 1 51.1181 12.4222 635 163.94 871.849 499.324
2667 0 53.106 13.0494 693 162.427 871.576 499.221
2668 0 55.3172 12.8893 713 156.449 870.09 500.206
2669 0 55.1234 13.4063 739 164.095 870.038 499.149
2670 0 57.0892 13.6979 782 165.728 870.719 498.096
2671 0 62.2041 12.9734 807 163.634 871.079 497.237
2672 0 62.1081 13.4765 837 167.793 869.757 496.122
2673 0 66.0745 13.1518 869 161.358 870.921 494.471
2674 0 68.0314 13.435 914 163.972 869.562 493.762
2675 0 70.1126 13.136 921 172.922 869.393 493.2
2676 0 71.0783 13.5766 965 168.641 870.131 491.453
2677 0 76.1003 13.2982 1012 168.789 869.118 490.445
2678 0 79.1026 13.3371 1055 165.658 869.828 488.771
2679 0 81.1478 13.5678 1101 168.182 869.55 487.48
2680 0 86.2159 13.5358 1167 167.895 869.164 485.556
2681 0 89.3041 13.3924 1196 166.61 869.789 483.296
2682 0 89.3041 13.3924 1196 178.24 867.789 483.296
2683 1 49.0975 12.0576 592 165.655 869.294 503.662
2684 0 51.1324 12.2623 627 163.399 870.163 502.426
2685 0 51.2482 12.4297 637 161.876 869.352 502.124
2686 0 53.2356 12.4729 664 160.691 870.102 500.931
2687 0 56.1643 12.8373 721 160.214 869.72 499.362
2688 0 57.2001 12.8321 734 164.394 871.88 499.238
2689 0 59.1652 12.744 754 164.519 872.55 497.97
2690 0 64.2038 14.3761 923 154.641 872.756 494.206
2691 0 66.1869 15.4562 1023 140.285 870.873 492.421
2692 0 66.2383 15.097 1000 144.822 871.112 492.041
2693 0 68.1223 14.2244 969 154.344 872.141 491.592
2694 0 68.1889 13.5799 926 163.425 872.038 491.419
2695 0 72.1158 13.3813 965 160.34 871.654 490.636
2696 0 75.1489 13.5065 1015 159.605 871.571 489.496
2697 0 78.1294 13.516 1056 153.848 871.939 487.778
2698 0 80.2773 13.6278 1094 165.699 871.496 486.077
2699 0 83.1449 13.3382 1109 163.127 873.078 485.01
2700 0 86.2027 13.3174 1148 163.784 871.985 483.631
2701 0 89.1731 13.4794 1202 162.064 873.148 481.356
2702 0 91.1446 13.6377 1243 159.955 870.823 480.518
2703 0 95.1788 13.7636 1310 158.942 871.018 479.107
2704 0 96.1423 13.6568 1313 162.545 871.037 477.206
2705 0 101.057 13.8041 1395 161.198 871.798 475.012
2706 0 104.136 13.8569 1443 165.058 870.813 473.652
2707 1 54.0771 12.0014 649 158.579 871.216 498.431
2708 0 55.0594 12.1142 667 161.37 872.499 497.523
2709 0 57.0342 12.624 720 155.465 871.962 496.767
2710 0 58.1704 12.8416 747 160.178 869.976 496.38
2711 0 59.1557 13.0165 770 158.318 870.743 496.064
2712 0 61.1897 12.976 794 154.385 868.816 495.331
2713 0 61.129 13.2343 809 154.544 869.702 494.588
2714 0 63.2065 13.448 850 152.528 871.507 493.398
2715 0 65.2495 13.7472 897 151.434 871.04 491.75
2716 0 69.356 13.0774 907 158.544 871.301 490.692
2717 0 71.1569 13.7443 978 153.61 871.228 489.182
2718 0 73.0762 13.4243 981 152.853 872.037 488.652
2719 0 75.2116 13.6282 1025 161.097 872.146 487.282
2720 0 78.307 13.6769 1071 151.532 873.897 486.339
2721 0 81.1064 13.6857 1110 161.241 872.896 484.814
2722 0 83.1273 13.6898 1138 148.213 873.011 483.747
2723 0 87.1063 13.937 1214 150.138 873.348 481.745
2724 0 89.1101 13.6685 1218 160.833 873.3 480.837
2725 0 92.3253 13.8424 1278 158.381 873.62 479.039
2726 0 94.3634 14.1686 1337 155.102 875.099 477.074
2727 0 99.28 13.7994 1370 158.71 872.062 475.98
2728 0 102.439 13.7448 1408 157.377 873.475 472.527
2729 0 105.283 14.2663 1502 161.266 872.958 471.067
2730 0 110.267 13.957 1539 156.529 870.847 470.102
2731 0 112.246 14.299 1605 158.334 873.677 469.207
2732 0 115.398 13.9604 1611 160.034 871.338 468.455
2733 0 119.314 13.9799 1668 161.542 871.66 466.398
2734 1 77.0698 13.6889 1055 157.753 873.144 484.467
2735 0 77.1485 14.0119 1081 166.464 871.121 483.729
2736 0 83.2077 13.5925 1131 170.193 870.147 483.559
2737 0 85.1661 13.9257 1186 165.853 869.266 482.51
2738 0 89.3392 13.6894 1223 171.218 868.283 481.354
2739 0 92.3835 13.7146 1267 163.595 868.507 480.503
2740 0 95.2429 13.8068 1315 163.47 869.665 479.107
2741 0 99.3643 13.7172 1363 161.111 867.593 476.327
2742 0 103.237 13.8903 1434 170.194 868.211 475.48
2743 0 107.207 13.8703 1487 161.356 868.063 474.562
2744 1 54.1764 13.0315 706 163.521 869.12 499.704
2745 0 56.1135 13.241 743 158.408 869.118 499.279
2746 0 57.2594 13.1507 753 161.849 868.058 498.936
2747 0 61.1871 12.8295 785 165.764 867.93 497.211
2748 0 63.2517 13.217 836 160.425 868.386 496.638
2749 0 65.1756 13.6094 887 159.988 869.045 495.02
2750 0 66.1018 13.57 897 165.857 868.336 494.527
2751 0 68.1252 13.4458 916 164.217 869.172 493.605
2752 0 69.0777 13.6513 943 162.912 870.032 493.38
2753 0 74.1229 13.1268 973 167.436 870.415 491.899
2754 0 77.0871 13.2318 1020 160.465 869.519 490.96
2755 0 77.1607 13.6987 1057 159.87 868.682 490.191
2756 0 80.0788 13.6116 1090 155.838 868.538 489.141
2757 0 83.0936 13.4547 1118 163.691 869.292 487.755
2758 0 86.2047 13.8392 1193 164.479 868.415 486.36
2759 0 91.1765 13.4026 1222 157.944 867.72 485.793
2760 0 95.1222 13.3407 1269 157.821 867.975 484.147
2761 1 52.0981 11.3056 589 152.696 868.277 506.226
2762 0 53.1074 11.9757 636 151.08 867.454 505.13
2763 0 55.0441 12.3174 678 148.547 867.102 505.41
2764 0 57.132 12.1298 693 161 868.287 504.841
2765 0 57.1066 12.7131 726 152.84 866.649 503.846
2766 0 59.162 12.9475 766 157.809 866.328 502.798
2767 0 63.2288 12.9372 818 152.357 868.229 501.798
2768 0 63.2247 13.0329 824 154.6 867.15 501.712
2769 0 67.0941 12.8625 863 151.49 867.913 501.105
2770 0 70.1964 12.8924 905 149.421 867.052 499.219
2771 0 72.0941 12.9969 937 150.113 868.003 498.818
2772 0 74.0788 12.9187 957 151.675 866.928 497.699
2773 0 76.2269 13.1843 1005 144.986 868.439 496.892
2774 0 79.1418 13.0273 1031 143.64 867.861 495.277
2775 0 81.183 13.1185 1065 144.654 868.587 494.505
2776 0 84.2146 12.7888 1077 142.864 866.815 493.112
2777 0 89.5251 12.6892 1136 149.57 869.377 491.761
2778 1 49.094 10.7345 527 144.545 867.163 511.99
2779 0 50.0587 11.6663 584 143.289 868.173 510.849
2780 0 52.1824 11.9006 621 148.266 869.182 510.631
2781 0 52.1564 12.3283 643 139.913 868.692 510.482
2782 0 54.1473 12.3736 670 145.704 869.876 509.36
2783 0 54.1834 12.55 680 142.971 869.306 508.907
2784 0 56.2655 12.6898 714 142.366 868.52 508.57
2785 0 58.272 13.0938 763 144.549 869.114 507.895
2786 0 61.1795 12.7657 781 150.106 868.426 507.282
2787 0 63.141 12.971 819 149.066 868.829 505.77
2788 0 64.2998 12.7528 820 147.99 867.637 504.952
2789 0 67.1904 12.9036 867 143.533 867.965 504.728
2790 0 68.228 12.9273 882 145.834 868.663 503.873
2791 0 70.1504 13.243 929 149.808 867.63 502.505
2792 0 74.3576 13.0182 968 149.552 867.383 501.382
2793 0 75.108 13.1411 987 146.013 867.525 500.233
2794 0 79.1762 12.7816 1012 147.124 868.902 499.804
2795 1 40.1854 11.1483 448 151.054 866.458 518.366
2796 0 42.133 11.44 482 152.859 867.085 517.95
2797 0 44.32 11.8908 527 151.7 868.909 517.979
2798 0 45.2345 12.2473 554 151.713 866.81 516.968
2799 0 44.1905 12.4687 551 151.136 866.897 517.441
2800 0 48.2819 12.0956 584 159.238 866.214 516.166
2801 0 49.1366 12.5568 617 151.431 867.574 515.702
2802 0 50.2259 12.5433 630 71.8952 867.552 514.687
2803 0 52.2658 12.2834 642 150.374 866.794 514.165
2804 0 54.202 13.173 714 146.832 866.668 511.983
2805 0 56.1291 12.7563 716 158.911 867.031 511.89
2806 0 58.2339 12.6043 734 151.741 867.14 511.604
2807 0 58.1898 13.5763 790 154.21 867.324 510.551
2808 0 62.2943 13.0831 815 153.287 866.216 510.153
2809 0 63.147 13.3181 841 154.361 865.033 509.825
2810 0 66.1561 13.4681 891 152.54 866.254 509.027
2811 0 68.1823 13.6106 928 146.274 865.592 507.612
2812 0 69.1166 13.9474 964 151.283 866.378 507.005
2813 0 72.1108 13.6595 985 143.106 864.57 506.459
2814 0 74.0872 13.8485 1026 152.996 865.075 505.575
2815 0 78.1346 13.7711 1076 145.095 864.835 503.223
2816 0 82.1457 14.2673 1172 147.675 864.494 500.306
2817 0 82.1457 14.2673 1172 168.337 863.494 500.306
2818 0 85.2054 13.6494 1163 152.434 864.643 499.004
2819 0 90.1826 13.8829 1252 158.17 863.497 497.923
2820 0 93.2265 13.9338 1299 151.62 863.892 497.162
2821 0 97.2136 13.7429 1336 152.282 863.623 493.406
2822 0 50.1432 12.9629 650 151.806 864.946 502.794
2823 0 52.1497 13.1544 686 159.953 863.749 501.385
2824 0 55.1589 13.0532 720 153.556 864.143 498.415
2825 0 56.0815 13.1238 736 154.185 864.053 502.17
2826 0 58.1472 13.3798 778 160.721 864.208 502.022
2827 0 59.282 13.5454 803 156.584 865.015 501.958
2828 0 60.0996 13.6108 818 146.881 864.655 504.743
2829 0 63.1316 13.4322 848 139.4 864.294 503.749
2830 0 66.3399 13.4761 894 147.773 865.842 500.324
2831 0 67.3103 13.6235 917 148.718 865.722 505.037
2832 0 70.3127 13.44 945 149.524 866.933 509.37
2833 0 73.1955 13.1702 964 144.716 865.267 507.952
2834 0 74.2007 13.7195 1018 147.509 868.289 506.444
2835 0 75.3147 13.3838 1008 151.646 867.359 505.591
2836 0 77.4168 13.9763 1082 149.669 868.141 504.676
2837 0 82.3926 13.557 1117 152.742 867.335 503.926
2838 0 84.466 14.1951 1199 156.63 868.412 502.652
2839 0 88.1595 13.9974 1234 153.745 869.39 500.87
2840 1 47.2327 12.449 588 153.403 868.906 521.464
2841 0 49.262 12.7685 629 150.169 867.55 521.186
2842 0 51.1538 13.3324 682 167.333 869.46 522.912
2843 0 52.1422 13.3865 698 165.37 867.607 522.426
2844 0 55.1381 14.2007 783 160.521 868.794 519.7
2845 0 55.1381 13.5659 748 164.088 869.664 520.226
2846 0 55.1737 14.1372 780 164.468 868.294 518.796
2847 0 59.1948 13.7174 812 160.473 868.202 516.523
2848 0 59.152 13.8288 818 152.116 866.88 516.048
2849 0 61.2388 14.2557 873 164.008 867.794 515.593
2850 0 62.1964 13.9558 868 156.712 867.793 516.093
2851 0 65.2264 14.396 939 160.434 867.753 515.365
2852 0 67.119 14.1838 952 162.299 868.465 514.995
2853 0 69.1338 13.7704 952 148.429 866.875 512.752
2854 0 71.2128 14.2952 1018 167.33 867.448 511.042
2855 0 74.3453 13.9484 1037 163.385 867.646 509.991
2856 0 78.2353 13.6256 1066 166.084 869.319 509.943
2857 0 81.2503 13.3169 1082 166.891 867.799 508.822
2858 0 82.2962 13.816 1137 165.91 867.304 507.135
2859 1 42.056 12.626 531 166.096 868.823 528.279
2860 0 42.311 13.2826 562 164.349 866.676 529.806
2861 0 43.2813 13.678 592 163.922 867.125 529.431
2862 0 44.2459 13.9448 617 156.032 867.386 529.336
2863 0 48.1689 13.4734 649 163.453 866.965 529.179
2864 0 48.1586 13.5801 654 161.797 866.132 528.346
2865 0 51.1577 13.3509 683 164.007 868.076 527.687
2866 0 54.1993 13.0814 709 156.965 865.936 527.755
2867 0 54.2518 13.6032 738 160.279 866.711 526.997
2868 0 55.078 13.7441 757 161.317 864.886 525.888
2869 0 58.1781 13.8024 803 155.403 866.874 525.046
2870 0 59.1388 14.1362 836 159.862 866.255 524.584
2871 0 62.0872 13.8354 859 151.306 865.996 523.212
2872 0 65.1228 14.2654 929 157.729 866.399 522.08
2873 0 67.2024 14.2554 958 160.199 867.163 521.37
2874 0 67.1128 14.349 963 149.569 866.148 520.732
2875 0 72.1131 13.881 1001 163.435 865.49 520.163
2876 0 74.1525 14.187 1052 159.589 866.636 518.699
2877 0 77.1366 13.8715 1070 165.181 865.838 518.231
2878 0 80.1169 13.8173 1107 163.476 863.826 517.016
2879 0 83.186 13.6441 1135 163.59 864.735 515.964
2880 0 86.1598 14.1713 1221 158.799 864.866 514.361
2881 1 47.1738 12.9733 612 167.034 866.745 533.765
2882 0 54.1115 13.3243 721 162.191 868.219 530.92
2883 0 57.0608 13.2841 758 166.918 867.545 530.15
2884 0 57.2027 13.7231 785 159.918 866.55 530.236
2885 0 60.2048 13.8693 835 161.95 867.442 529.642
2886 0 61.1829 13.6966 838 165.507 867.813 529.685
2887 0 64.1124 13.7727 883 165.744 865.903 528.861
2888 0 67.1374 13.9118 934 162.604 864.921 528.185
2889 0 70.1215 13.8759 973 163.233 865.761 527.1
2890 0 72.0892 13.6914 987 165.722 866.28 526.235
2891 0 75.1434 13.96 1049 161.722 865.502 524.853
2892 0 78.1667 13.9318 1089 163.516 865.028 524.092
2893 0 79.1876 14.2447 1128 160.927 865.968 522.902
2894 0 83.2576 13.9206 1159 164.221 866.749 522.739
2895 0 86.1427 13.5241 1165 158.706 865.442 521.524
2896 1 47.0433 13.1156 617 157.746 866.013 539.347
2897 0 48.0712 13.8128 664 161.038 867.464 538.753
2898 0 51.0789 13.391 684 148.535 865.728 537.411
2899 0 52.0495 13.564 706 161.418 866.982 537.146
2900 0 52.0586 14.4069 750 154.429 866.48 536.684
2901 0 55.2311 14.05 776 163.86 865.733 535.678
2902 0 56.0886 14.4771 812 158.395 867.034 534.706
2903 0 58.0962 14.4071 837 157.337 866.044 534.49
2904 0 58.134 14.7246 856 158.043 866.036 533.44
2905 0 61.1155 14.4317 882 161.108 867.935 532.508
2906 0 64.3483 14.608 940 158.836 866.174 531.142
2907 0 65.1235 14.8794 969 151.382 867.492 530.274
2908 0 68.1383 14.588 994 157.764 867.743 529.624
2909 0 71.2902 14.448 1030 162.666 866.7 528.767
2910 0 72.1436 14.7761 1066 160.633 867.218 528.28
2911 0 75.069 14.7997 1111 159.859 865.258 526.158
2912 0 77.1088 15.0437 1160 160.364 867.448 524.932
2913 0 80.2223 14.8462 1191 157.301 866.861 524.56
2914 0 84.1514 14.7235 1239 162.136 867.312 523.136
2915 0 87.1907 14.7837 1289 158.087 864.593 521.341
2916 0 90.1676 14.961 1349 158.733 865.693 520.589
2917 0 93.4094 14.7416 1377 161.565 865.712 518.927
2918 0 96.1766 14.9724 1440 162.557 863.829 517.375
2919 0 100.156 14.5773 1460 163.244 864.423 515.425
2920 1 52.359 13.6748 716 164.816 866.286 539.049
2921 0 53.1288 14.4178 766 170.095 865.257 538.298
2922 0 56.2646 14.2185 800 161.439 868.346 537.494
2923 0 57.1588 14.5909 834 159.522 867.074 536.014
2924 0 60.2256 14.4291 869 162.743 866.638 535.2
2925 0 60.2558 14.6376 882 156.359 865.952 534.626
2926 0 63.344 14.3344 908 157.649 866.718 533.85
2927 0 66.2833 14.7096 975 166.244 865.631 532.81
2928 0 68.2597 14.7964 1010 164.899 864.908 531.597
2929 0 71.309 14.6125 1042 166.222 865.696 530.067
2930 0 73.2829 14.6828 1076 167.954 866.357 529.534
2931 0 74.2203 14.8073 1099 164.516 863.931 528.421
2932 0 77.2387 15.0443 1162 165.19 866.69 526.155
2933 0 82.1683 14.8719 1222 163.261 864.87 525.171
2934 0 85.5317 14.6612 1254 166.589 867.108 523.713
2935 0 87.5019 14.6511 1282 166.269 867.91 522.02
2936 0 92.2827 14.629 1350 161.879 866.545 520.678
2937 0 96.2569 14.5236 1398 166.755 865.73 518.519
2938 1 48.1174 13.7996 664 165.598 867.343 541.809
2939 0 48.1451 14.3317 690 165.82 865.464 541.199
2940 0 51.056 13.8279 706 159.627 864.867 540.391
2941 0 52.2149 14.0765 735 170.105 867.377 540.094
2942 0 55.2274 14.1596 782 162.754 865.18 539.152
2943 0 57.0729 14.1924 810 164.337 865.917 538.611
2944 0 58.2812 14.1212 823 160.512 866.81 537.921
2945 0 59.2477 14.4478 856 165.015 867.562 536.935
2946 0 59.2477 14.4478 856 171.284 868.562 536.935
2947 0 64.0973 14.4468 926 159.023 866.733 535.14
2948 0 67.4128 14.3593 968 164.468 867.546 533.85
2949 0 69.2289 14.4015 997 165.157 867.816 533.022
2950 0 72.2492 14.8237 1071 162.241 867.938 532.085
2951 0 75.1728 14.4467 1086 164.963 868.642 531.107
2952 0 76.1243 15.0149 1143 160.109 866.78 529.836
2953 0 82.1479 14.6687 1205 164.184 867.68 528.324
2954 0 85.1429 14.6929 1251 159.166 865.899 526.683
2955 0 88.1018 14.5286 1280 162.191 866.98 525.144
2956 0 92.1758 14.2445 1313 163.951 866.299 523.273
2957 1 43.1082 13.7329 592 159.265 866.458 545.917
2958 0 46.0408 13.336 614 160.174 866.428 545.697
2959 0 45.1376 14.4226 651 159.998 866.141 545.581
2960 0 47.0213 14.4828 681 162.664 866.598 544.568
2961 0 50.0254 14.0928 705 165.349 866.075 544.348
2962 0 51.1095 14.2048 726 164.977 865.222 544.099
2963 0 53.0631 14.2849 758 168.685 867.096 543.206
2964 0 54.0533 14.1157 763 161.98 866.2 542.262
2965 0 57.1134 14.3924 822 159.637 865.731 541.436
2966 0 59.0987 14.2304 841 162.785 867.498 540.731
2967 0 59.1361 14.3229 847 162.686 866.443 540.541
2968 0 62.1316 14.6624 911 158.92 866.652 539.76
2969 0 65.2125 14.4911 945 163.041 865.844 538.387
2970 0 67.1522 14.5044 974 161.361 867.122 537.552
2971 0 68.1189 14.7389 1004 157.967 865.791 536.364
2972 0 71.1792 14.4003 1025 162.114 867.218 535.804
2973 0 72.1852 14.6152 1055 157.243 866.955 534.865
2974 0 77.2614 14.6645 1133 162.471 865.853 533.301
2975 0 79.1522 14.6932 1163 157.932 864.925 531.913
2976 0 83.2262 14.4426 1202 157.101 865.378 530.699
2977 0 85.212 14.3055 1219 159.45 865.301 530.372
2978 0 88.0995 14.4269 1271 152.749 865.9 528.736
2979 0 91.1622 14.4906 1321 157.885 864.892 527.294
2980 1 44.1411 14.1365 624 163.992 865.538 548.865
2981 0 46.1398 14.5211 670 154.813 865.472 547.94
2982 0 48.0877 14.4736 696 160.266 866.503 547.118
2983 0 48.2403 15.1326 730 156.033 865.673 546.516
2984 0 52.1508 14.5731 760 160.52 866.038 546.028
2985 0 53.1304 15.1326 804 156.718 867.114 545.26
2986 0 55.135 14.7094 811 157.557 865.236 544.884
2987 0 56.1333 14.9822 841 155.43 865.026 543.897
2988 0 57.2246 15.2207 871 162.034 865.993 542.853
2989 0 60.2775 15.5945 940 157.012 865.814 541.63
2990 0 63.1069 15.7669 995 160.209 864.44 540.405
2991 0 66.3709 15.0216 997 161.272 864.216 539.559
2992 0 68.3407 15.1886 1038 161.64 864.53 538.937
2993 0 70.2629 15.1716 1066 159.298 866.676 537.708
2994 0 72.1893 15.6256 1128 160.673 866.535 536.303
2995 0 75.5828 15.268 1154 163.514 865.534 535.219
2996 0 80.3962 15.0505 1210 153.226 863.906 533.853
2997 0 81.4569 15.4069 1255 164.482 864.245 532.558
2998 1 39.1387 14.6914 575 162.943 865.476 553.433
2999 0 39.3784 14.9067 587 173.85 864.141 553.615
3000 0 40.2686 14.9496 602 169.789 864.37 553.424
3001 0 43.2019 14.7679 638 163.704 865.741 552.633
3002 0 43.329 15.0015 650 169.911 865.292 552.565
3003 0 45.1828 15.1606 685 178.575 865.098 552.628
3004 0 46.2003 15.4112 712 177.383 864.858 552.536
3005 0 48.2154 15.2648 736 163.89 866.307 552.116
3006 0 50.2454 14.9267 750 174.129 864.423 551.801
3007 0 51.0987 15.519 793 172.9 865.654 551.153
3008 0 52.2241 15.5675 813 171.641 864.738 550.861
3009 0 53.1951 15.6217 831 176.816 864.16 550.212
3010 0 57.2838 15.4669 886 170.475 866.072 549.06
3011 0 59.2672 15.2698 905 158.427 865.019 548.177
3012 0 62.2361 15.152 943 172.326 865.44 547.308
3013 0 64.3329 15.0778 970 176.741 865.234 546.392
3014 0 67.3312 15.0896 1016 164.615 864.252 546.036
3015 0 70.2301 15.0932 1060 173.135 866.278 545.308
3016 0 72.2507 15.0725 1089 158.253 865.955 543.545
3017 1 36.1128 14.4824 523 172.692 865.423 560.329
3018 0 38.1618 14.1503 540 169.989 864.85 559.578
3019 0 39.0648 14.7191 575 171.471 865.388 558.527
3020 0 40.1232 14.6299 587 174.118 864.729 558.387
3021 0 41.047 14.7879 607 175.183 865.703 557.876
3022 0 42.0359 15.344 645 176.984 865.541 557.94
3023 0 42.0258 16.0378 674 173.325 864.234 556.745
3024 0 46.0661 15.0653 694 178.843 865.012 556.249
3025 0 46.0697 15.6285 720 172.819 864.994 555.532
3026 0 49.1605 15.3782 756 174.448 865.557 554.603
3027 0 48.1511 16.3651 788 171.202 866.466 553.609
3028 0 50.0541 16.0826 805 170.671 866.162 552.754
3029 0 53.1076 15.6475 831 173.789 864.86 552.401
3030 0 54.1426 15.9024 861 175.304 863.7 551.546
3031 0 57.1335 15.42 881 165.831 864.866 550.86
3032 0 60.2018 15.3318 923 177.39 865.716 549.353
3033 0 60.093 15.7423 946 175.311 864.005 548.756
3034 0 64.0828 15.7609 1010 177.881 864.584 547.791
3035 0 66.1853 15.3508 1016 170.808 866.386 546.736
3036 0 68.2804 15.8025 1079 175.814 866.716 545.242
3037 0 69.3072 15.9291 1104 171.732 865.575 544.313
3038 0 73.184 15.6455 1145 171.065 864.94 542.977
3039 0 76.2076 15.6808 1195 176.702 864.364 542.176
3040 0 79.1021 15.6254 1236 172.544 863.764 540.731
3041 0 82.2235 15.8714 1305 164.592 864.803 539.49
3042 0 85.2536 15.8703 1353 173.458 864.82 538.914
3043 0 86.1464 16.0889 1386 165.278 866.152 537.346
3044 0 91.4795 15.7084 1437 168.202 864.142 536.12
3045 0 93.3366 15.9316 1487 173.173 864.917 534.736
3046 0 97.3238 15.7618 1534 173.3 864.37 533.259
3047 0 99.2665 16.1283 1601 170.545 866.317 531.581
3048 0 104.43 15.982 1669 172.939 864.771 529.903
3049 0 108.363 15.7896 1711 170.32 865.379 528.126
3050 0 111.184 16.2793 1810 166.809 864.474 525.944
3051 1 56.0676 14.9106 836 170.513 862.922 552.928
3052 0 59.1277 14.6463 866 171.976 864.83 551.651
3053 0 61.2366 14.4358 884 169.638 865.73 550.567
3054 0 63.1161 14.5763 920 174.713 867.416 549.827
3055 0 66.0412 14.4455 954 173.304 864.54 548.993
3056 0 68.1129 14.4172 982 171.066 865.489 548.082
3057 0 69.2068 14.4206 998 171.489 864.715 546.879
3058 0 71.0985 14.8104 1053 167.669 865.853 544.994
3059 0 74.0787 14.6331 1084 169.231 865.422 544.778
3060 0 77.104 14.474 1116 174.09 865.516 543.262
3061 0 79.2272 14.5278 1151 167.339 864.67 541.436
3062 0 83.1671 14.3326 1192 173.212 866.061 540.601
3063 0 84.2019 14.4533 1217 175.133 864.245 539.787
3064 0 89.0558 14.3506 1278 166.977 864.595 537.899
3065 0 91.1861 14.783 1348 167.082 864.798 536.822
3066 1 51.2176 13.7453 704 171.297 865.446 557.555
3067 0 51.2861 14.1559 726 166.65 864.966 555.985
3068 0 52.2624 14.3698 751 172.666 865.751 555.759
3069 0 57.2703 13.4625 771 173.708 866.279 554.715
3070 0 58.1251 13.9355 810 173.279 864.66 553.827
3071 0 58.3489 14.1905 828 170.999 864.065 553.197
3072 0 61.1677 14.1905 868 176.245 862.656 552.849
3073 0 64.2073 13.8925 892 173.689 863.787 551.814
3074 0 64.1591 14.6511 940 174.085 864.912 551.199
3075 0 69.2842 14.4189 999 171.245 863.173 549.106
3076 0 69.2784 14.5211 1006 172.919 864.078 548.896
3077 0 74.2369 13.7937 1024 172.427 864.417 547.656
3078 0 76.1869 14.3201 1091 173.557 864.806 546.195
3079 0 78.1822 14.5302 1136 176.813 862.804 544.539
3080 0 81.127 14.2123 1153 171.537 863.635 544.068
3081 0 86.1899 13.8415 1193 174.518 863.548 542.815
3082 0 89.0918 13.8172 1231 169.685 864.351 541.598
3083 0 92.1994 14.024 1293 172.504 863.979 539.531
3084 0 94.1734 14.2184 1339 167.831 862.076 538.297
3085 0 98.3521 14.4684 1423 171.394 862.758 536.802
3086 0 101.248 14.5386 1472 171.562 863.823 535.233
3087 0 105.304 14.3679 1513 166.805 863.714 533.483
3088 0 109.357 14.3475 1569 169.602 863.973 531.461
3089 0 114.312 14.0931 1611 166.561 864.574 529.941
3090 0 117.377 14.3724 1687 171.549 863.086 527.409
3091 0 122.456 14.2908 1750 175.638 863.97 526.114
3092 0 127.497 14.4788 1846 173.011 862.779 522.803
3093 0 130.384 14.5416 1896 173.262 863.348 521.314
3094 0 136.34 14.4565 1971 171.08 861.675 518.501
3095 0 142.409 13.7983 1965 169.078 862.848 516.228
3096 0 147.314 14.0245 2066 164.121 863.63 513.644
3097 1 38.0204 11.9147 453 158.442 864.044 568.221
3098 0 40.1987 11.7168 471 157.992 863.064 567.236
3099 0 42.1175 11.6104 489 155.231 864.507 566.961
3100 0 42.2046 11.8708 501 157.03 864.419 566.637
3101 0 45.1032 11.5956 523 147.99 864.344 565.551
3102 0 47.1683 11.7876 556 148.13 863.95 564.072
3103 0 47.2071 12.2227 577 146.655 862.946 563.594
3104 0 48.1124 12.2422 589 149.226 865.178 563.732
3105 0 51.1823 12.0354 616 149.594 865.37 562.435
3106 0 52.2201 12.2558 640 146.434 865.552 561.992
3107 0 55.3384 12.0712 668 149.231 862.72 561.484
3108 0 55.2378 12.3647 683 150.429 863.889 560.782
3109 0 59.2752 12.0961 717 146.365 863.036 560.452
3110 0 58.4065 12.3274 720 149.249 863.993 559.489
3111 0 62.2225 12.2946 765 143.154 863.497 557.99
3112 0 64.3164 12.6095 811 142.333 862.824 556.785
3113 0 67.568 12.0323 813 144.552 864.337 555.786
3114 0 69.4602 12.266 852 146.688 862.363 555.596
3115 0 70.3651 12.5773 885 147.658 862.31 554.516
3116 1 35.1078 10.482 368 145.198 862.856 572.845
3117 0 38.2063 10.6265 406 143.638 864.214 571.914
3118 0 40.1602 10.7818 433 143.575 863.725 571.335
3119 0 42.0382 11.2041 471 139.953 864.431 572.008
3120 0 41.0552 12.0082 493 142.647 862.787 571.771
3121 0 45.1445 11.8951 537 143.98 866.546 571.14
3122 0 45.1899 12.2815 555 144.341 865.578 570.378
3123 0 47.12 12.0119 566 143.157 863.802 570.465
3124 0 49.0436 12.0505 591 135.015 863.179 569.641
3125 0 49.093 12.568 617 149.287 863.378 569.194
3126 0 51.1537 12.1594 622 146.195 863.076 568.881
3127 0 53.1502 12.1542 646 151.195 863.836 568.834
3128 0 54.1227 12.601 682 152.142 861.545 567.779
3129 0 54.2138 12.6352 685 153.064 863.352 567.746
3130 0 57.2619 12.1547 696 155.086 862.356 567.471
3131 0 59.2501 12.5907 746 156.806 862.402 566.083
3132 0 60.1906 12.4272 748 153.107 862.967 565.172
3133 0 62.2808 12.8129 798 151.302 860.267 564.212
3134 0 64.2701 13.241 851 153.215 862.958 563.24
3135 0 67.2988 12.8383 864 150.912 863.134 562.111
3136 0 70.4359 12.593 887 152.357 862.751 560.936
3137 0 73.3201 12.9705 951 152.796 862.327 559.676
3138 0 75.4433 13.0031 981 155.986 862.873 558.123
3139 0 77.506 13.0442 1011 150.399 863.387 556.043
3140 0 81.5478 12.8759 1050 152.399 862.113 554.982
3141 0 83.5462 12.9868 1085 146.632 861.96 552.143
3142 0 86.4115 12.915 1116 152.912 862.517 550.704
3143 0 88.3827 13.0568 1154 148.69 864.08 548.472
3144 0 93.4122 13.0176 1216 147.155 863.75 547.121
3145 1 48.2773 11.6825 564 156.005 863.484 568.61
3146 0 50.2755 11.8945 598 151.585 864.072 568.156
3147 0 51.1477 12.5519 642 149.422 863.98 570.576
3148 0 51.0907 13.1531 672 152.21 864.625 570.144
3149 0 54.1295 12.7287 689 150.688 863.565 569.463
3150 0 56.0591 12.7901 717 148.347 864.946 568.504
3151 0 56.1885 12.6716 712 150.438 864.014 568.058
3152 0 59.1398 12.7664 755 152.825 863.513 567.371
3153 0 59.237 13.4375 796 148.446 863.742 565.544
3154 0 62.131 13.5037 839 154.726 864.551 565.788
3155 0 66.2379 13.0439 864 155.782 866.083 564.488
3156 0 67.1531 13.2682 891 154.884 867.954 563.902
3157 0 70.1357 13.1602 923 157.829 866.419 562.953
3158 0 72.1647 13.4969 974 151.61 866.341 561.372
3159 0 72.0791 13.1938 951 153.793 865.024 561.454
3160 0 76.0935 13.2337 1007 155.808 865.65 558.953
3161 0 79.1212 13.3719 1058 148.848 866.797 558.191
3162 0 82.1013 13.3006 1092 143.524 866.901 556.829
3163 0 86.1493 13.3605 1151 151.702 865.883 555.482
3164 0 87.2011 13.5434 1181 150.311 862.911 554.028
3165 0 93.1068 13.2643 1235 150.749 865.518 552.496
3166 1 45.0582 11.8735 535 142.207 864.699 575.209
3167 0 46.0944 12.7564 588 147.84 862.718 573.614
3168 0 49.1101 13.0116 639 146.368 863.839 573.161
3169 0 51.0658 13.042 666 140.527 864.49 571.911
3170 0 50.0933 13.4749 675 145.727 863.447 571.664
3171 0 53.0715 13.4724 715 140.534 864.373 570.464
3172 0 56.0578 13.6645 766 138.645 863.836 570.253
3173 0 57.0807 13.77 786 137.094 865.788 570.211
3174 0 60.0684 15.1827 912 137.016 864.602 569.079
3175 0 60.1341 13.8524 833 136.451 864.69 569.43
3176 0 62.1 14.6216 908 41.5044 865.427 568.735
3177 0 64.0593 13.7217 879 143.323 865.421 567.924
3178 0 65.1451 13.6925 892 143.6 865.958 567.996
3179 0 67.1486 13.6265 915 145.614 865.464 566.25
3180 0 68.1481 13.7641 938 146.555 865.816 565.988
3181 0 69.0562 14.1045 974 140.435 864.951 564.458
3182 0 74.1135 13.9381 1033 144.207 864.652 562.939
3183 0 76.1712 14.0604 1071 145.766 863.681 560.983
3184 0 78.1216 14.0294 1096 149.147 865.245 560.017
3185 0 80.1351 13.7268 1100 144.922 865.427 558.053
3186 0 84.1856 13.494 1136 145.138 865.914 555.98
3187 0 88.169 13.5649 1196 149.926 866.15 554.093
3188 0 89.1707 13.9283 1242 147.504 864.725 552.25
3189 1 45.0763 12.0019 541 142.477 863.096 574.111
3190 0 47.0447 12.5625 591 140.372 865.212 574.477
3191 0 47.1967 13.3696 631 142.212 865.304 575.675
3192 0 50.1694 12.8365 644 145.222 865.18 574.97
3193 0 52.2053 13.1404 686 143.873 866.184 574.102
3194 0 52.2115 13.1772 688 139.11 866.669 573.82
3195 0 54.1496 13.4258 727 133.231 864.154 571.935
3196 0 57.2856 12.9526 742 133.919 864.943 571.931
3197 0 59.4284 13.1923 784 133.895 864.892 570.619
3198 0 61.1394 12.9867 794 130.295 865.877 569.699
3199 0 64.1897 13.3043 854 132.432 867.208 568.85
3200 0 64.0787 13.4366 861 130.99 864.218 567.819
3201 0 64.0787 13.4366 861 150.826 861.218 567.819
3202 0 69.1814 13.0671 904 126.893 864.361 567.117
3203 0 71.0754 13.3098 946 126.852 864.551 565.619
3204 0 75.2253 13.2269 995 128.891 865.019 564.339
3205 0 76.3418 13.492 1030 127.512 865.984 562.669
3206 0 79.1798 13.362 1058 125.381 865.676 561.743
3207 0 82.3392 13.3229 1097 128.835 865.212 560.226
3208 0 86.1533 13.3251 1148 127.129 865.298 559.328
3209 1 45.1029 11.5957 523 129.472 863.706 580.551
3210 0 47.0901 11.8921 560 128.309 864.802 579.909
3211 0 48.0931 13.058 628 123.769 863.54 579.28
3212 0 49.0877 12.8749 632 127.954 864.511 579.104
3213 0 51.2072 12.8888 660 128.117 864.738 577.783
3214 0 53.1367 12.5525 667 128.913 864.661 577.066
3215 0 54.1257 13.1546 712 127.607 863.646 576.601
3216 0 57.1717 13.1709 753 129.803 865.742 575.797
3217 0 56.1156 13.5257 759 127.891 865.58 575.299
3218 0 60.1302 13.3876 805 121.37 864.442 573.826
3219 0 62.1921 13.5548 843 125.852 865.637 573.12
3220 0 62.1243 14.0525 873 134.792 865.028 573.023
3221 0 66.1579 13.6794 905 126.513 866.34 571.337
3222 0 66.1579 13.6794 905 162.198 867.34 571.337
3223 0 71.3694 13.9275 994 132.253 863.669 568.966
3224 0 73.2615 13.9091 1019 131.697 865.09 568.157
3225 0 75.3398 13.9501 1051 136.465 864.818 566.573
3226 0 78.5192 13.6272 1070 137.817 865.117 565.024
3227 0 80.3651 14.0111 1126 132.411 865.214 563.585
3228 0 83.4506 14.188 1184 147.097 865.818 562.726
3229 0 89.3954 13.7815 1232 146.87 865.929 561.3
3230 0 90.3022 14.086 1272 147.873 866.414 560.516
3231 1 48.2701 13.093 632 152.653 866.128 581.699
3232 0 49.1138 13.0513 641 148.509 867.598 581.445
3233 0 51.1302 13.182 674 154.585 867.703 581.055
3234 0 53.1089 13.3688 710 156.387 864.18 580.213
3235 0 53.1773 13.8029 734 155.634 866.157 579.48
3236 0 56.0291 13.6179 763 160.64 866.444 578.697
3237 0 57.0379 13.7102 782 155.118 865.637 578.058
3238 0 58.0249 14.0457 815 154.385 865.794 577.854
3239 0 61.0178 13.8156 843 161.652 863.684 577.042
3240 0 65.1195 15.08 982 157.405 865.689 574.446
3241 0 65.1282 14.0492 915 161.231 865.173 575.133
3242 0 66.0856 14.3299 947 158.479 865.035 574.622
3243 0 70.1124 13.9776 980 163.959 865.204 573.832
3244 0 71.1456 14.2103 1011 163.597 865.264 572.949
3245 0 74.1535 14.2812 1059 161.223 863.94 571.853
3246 0 77.0988 14.0858 1086 162.983 864.037 571.259
3247 0 78.1127 14.5431 1136 161.032 864.148 569.459
3248 0 83.1282 14.1228 1174 162.227 863.311 568.282
3249 0 86.152 13.9173 1199 158.336 864.781 567.44
3250 0 89.1064 14.1628 1262 159.911 864.912 565.804
3251 0 90.1591 14.2415 1284 161.064 864.15 564.416
3252 0 94.1051 14.3138 1347 160.412 863.747 563.092
3253 0 99.1633 13.8559 1374 157.109 864.667 561.641
3254 1 52.0419 12.9319 673 147.655 863.111 584.419
3255 0 54.0238 13.1609 711 154.156 864.162 583.248
3256 0 55.1345 13.1134 723 149.942 865.137 583.141
3257 0 57.0308 13.3086 759 150.63 865.194 582.24
3258 0 58.137 13.2962 773 149.397 864.419 581.395
3259 0 62.099 13.5268 840 147.482 864.323 580.443
3260 0 62.1139 13.6201 846 146.531 864.91 579.319
3261 0 65.0816 13.5983 885 149.147 865.811 578.193
3262 0 67.3121 13.3854 901 146.38 864.152 577.446
3263 0 66.2267 14.2088 941 148.944 862.994 575.564
3264 0 69.2033 14.2623 987 151.038 862.659 573.902
3265 0 72.1846 14.1027 1018 149.535 863.06 572.688
3266 0 75.2946 14.078 1060 145.669 864.076 571.319
3267 0 78.3716 14.1633 1110 153.565 861.702 569.685
3268 0 79.2397 14.1974 1125 147.18 863.1 568.427
3269 0 84.1956 13.9081 1171 146.056 862.279 566.835
3270 0 86.2713 14.1298 1219 149.912 862.86 566.262
3271 0 90.3043 14.3072 1292 145.769 862.724 563.686
3272 0 93.1462 14.0424 1308 152.779 863.39 562.326
3273 0 97.2408 14.2224 1383 151.206 863.589 561.008
3274 1 48.047 12.6751 609 148.102 864.419 585.481
3275 0 48.0651 13.9186 669 152.541 865.922 585.408
3276 0 51.0511 13.9272 711 150.482 866.018 584.432
3277 0 53.0567 13.9473 740 153.874 866.177 582.058
3278 0 55.1586 13.9779 771 143.782 863.996 582.864
3279 0 55.0236 14.1212 777 153.526 864.699 581.869
3280 0 57.151 14.173 810 153.583 864.057 581.735
3281 0 59.2384 14.4332 855 153.138 866.042 580.704
3282 0 63.0365 14.3885 907 149.96 864.241 579.053
3283 0 64.0623 14.642 938 152.559 864.274 578.865
3284 0 66.134 14.9091 986 144.683 865.253 577.95
3285 0 66.161 15.296 1012 152.271 863.542 577.12
3286 0 71.1179 14.7361 1048 157.111 864.896 575.732
3287 0 73.121 14.8384 1085 158.681 864.402 575.186
3288 0 75.1559 14.7826 1111 154.086 863.959 574.49
3289 0 76.163 15.1648 1155 156.287 863.773 572.633
3290 0 80.1681 15.4051 1235 150.462 864.928 570.984
3291 0 84.1833 15.0742 1269 156.356 864.251 570.136
3292 0 86.1501 15.3917 1326 156.964 864.236 568.814
3293 0 90.2224 15.0739 1360 158.082 863.707 567.365
3294 0 92.2219 15.1591 1398 155.776 864.434 565.788
3295 0 95.2768 14.8305 1413 152.783 865.045 563.735
3296 0 98.4244 14.9861 1475 154.54 864.258 562.141
3297 0 99.3883 15.1124 1502 161.358 864.21 560.445
3298 0 105.342 14.9133 1571 147.6 864.806 557.952
3299 0 108.458 15.1764 1646 155.258 864.023 555.932
3300 1 56.164 13.8523 778 160.96 864.185 582.469
3301 0 58.1741 14.1128 821 161.628 863.632 581.78
3302 0 61.1149 14.35 877 153.498 864.428 583.436
3303 0 62.1856 14.5211 903 157.913 863.202 582.132
3304 0 66.127 14.0336 928 169.05 863.606 582.054
3305 0 68.2758 14.2217 971 159.794 863.91 580.84
3306 0 68.2028 14.6475 999 158.992 864.943 580.095
3307 0 72.1554 14.3995 1039 160.779 864.268 579.456
3308 0 73.0955 14.5016 1060 160.799 863.834 578.841
3309 0 77.1844 14.4071 1112 153.316 863.184 577.25
3310 0 78.2241 14.5352 1137 165.241 864.228 576.314
3311 0 82.1074 8.35491 686 163.535 867.697 572.219
3312 0 84.1754 14.6005 1229 163.821 863.561 573.579
3313 0 88.3058 14.4838 1279 163.647 864.014 572.03
