index division length width area intensity CMx CMy
0 0 79.1057 15.966 1263 154.477 782.534 503.58
1 0 81.0408 16.3128 1322 167.098 782.57 501.879
2 1 42.1415 14.214 599 179.058 784.326 522.755
3 0 44.0642 14.2746 629 175.431 785.746 523.461
4 0 44.0197 14.5617 641 175.655 785.633 520.906
5 0 47.0502 14.1126 664 170.086 787.083 521.059
6 0 48.0567 14.5453 699 180.348 785.917 520.906
7 0 49.0647 14.4707 710 172.434 785.372 521.973
8 0 51.0517 14.8085 756 170.067 785.34 522.276
9 0 52.0513 14.5433 757 171.795 786.123 522.399
10 0 54.0405 14.5261 785 177.702 784.59 522.727
11 0 55.1117 14.6067 805 165.996 784.159 522.329
12 0 57.0841 14.7151 840 176.17 781.227 523.037
13 0 58.0511 15.0729 875 176.911 782.843 523.107
14 0 60.0354 15.0411 903 169.511 782.781 522.393
15 0 62.104 14.8944 925 174.386 783.259 522.502
16 0 62.0554 15.1477 940 176.307 782.806 522.545
17 0 66.0366 15.2188 1005 175.05 781.976 521.108
18 0 68.1126 15.1514 1032 173.564 780.476 520.101
19 0 71.1498 15.109 1075 172.06 780.634 519.146
20 0 74.0705 15.1072 1119 171.979 779.838 518.068
21 0 75.1005 15.0465 1130 166.988 779.499 517.132
22 0 78.0911 15.3283 1197 175.409 778.954 515.438
23 0 80.0794 15.5096 1242 173.132 779.145 514.07
24 0 83.0459 15.088 1253 161.653 778.173 512.188
25 0 88.1968 14.9665 1320 169.288 778.347 510.556
26 0 91.154 15.3586 1400 160.605 778.315 508.032
27 0 94.1513 14.9122 1404 168.572 778.725 506.632
28 0 96.1518 15.3403 1475 163.284 779.344 505.078
29 0 100.185 15.0422 1507 158.885 778.646 502.97
30 0 104.143 15.0562 1568 163.959 779.772 499.863
31 0 107.232 15.3126 1642 166.344 778.298 496.771
32 0 110.088 15.1878 1672 163.396 779.245 494.501
33 1 52.0675 14.5388 757 169.564 780.777 520.509
34 0 54.1144 14.5987 790 159.868 782.401 518.219
35 0 56.0225 14.4763 811 163.487 782.316 516.264
36 0 58.1942 14.5032 844 169.4 784.496 514.602
37 0 59.0281 14.8573 877 163.151 785.643 513.179
38 0 61.0844 14.8647 908 166.109 784.483 512.04
39 0 64.0876 14.683 941 158.243 785.742 510.797
40 0 66.0502 15.034 993 169.084 786.622 508.542
41 0 68.0515 14.8711 1012 172.196 786.451 507.788
42 0 71.096 14.9094 1060 171.571 785.925 506.527
43 0 74.0938 14.9135 1105 169.033 787.774 505.326
44 0 77.0974 15.2145 1173 170.373 786.646 504.112
45 0 77.2432 15.1211 1168 174.542 787.63 503.408
46 0 81.2192 15.095 1226 174.115 786.825 502.509
47 0 84.1173 14.5987 1228 176.172 786.08 501.358
48 0 88.3336 14.6943 1298 167.003 785.888 500.15
49 0 92.2154 14.7915 1364 166.596 786.388 498.936
50 0 95.1351 14.5898 1388 162.805 785.82 497.615
51 0 100.159 14.5368 1456 165.947 785.106 496.396
52 0 102.101 14.8578 1517 166.177 786.087 495.354
53 0 107.314 15.0587 1616 158.544 785.374 493.736
54 1 57.1017 13.8175 789 167.494 785.276 518.393
55 0 60.1048 13.7926 829 163.201 783.647 517.738
56 0 62.076 13.9345 865 160.94 784.021 516.597
57 0 65.0472 13.8669 902 162.534 784.704 515.777
58 0 67.1521 13.6258 915 169.733 785.314 514.409
59 0 67.094 14.2636 957 171.097 783.347 513.37
60 0 72.0658 13.5987 980 170.003 782.818 512.806
61 0 74.1173 13.8564 1027 173.986 781.194 511.582
62 0 83.1933 13.7631 1145 167.129 782.868 507.237
63 0 83.2804 13.7247 1143 169.437 784.88 507.585
64 0 81.2136 13.5322 1099 167.334 784.426 507.122
65 0 86.1826 13.5758 1170 167.391 783.264 505.478
66 1 43.1231 12.8933 556 169.635 783.239 525.799
67 0 44.0254 12.7199 560 165.475 783.243 525.286
68 0 45.0339 12.9458 583 165.051 783.621 524.578
69 0 46.0787 12.9995 599 165.422 782.78 523.656
70 0 48.0805 12.9782 624 165.429 782.955 522.482
71 0 50.1028 12.6939 636 165.351 783.374 521.983
72 0 52.1295 12.9485 675 158.97 783.833 520.433
73 0 54.0419 13.0454 705 154.513 784.196 519.312
74 0 55.0279 13.5568 746 160.426 782.336 517.819
75 0 56.0965 13.3163 747 161.679 782.78 516.775
76 0 60.0716 12.8347 771 159.416 787.652 515.713
77 0 61.1129 13.0742 799 164.36 785.06 514.209
78 0 62.1318 13.3587 830 159.147 786.593 512.863
79 0 66.0477 12.93 854 158.328 786.11 511.666
80 0 68.0408 13.1833 897 159.605 783.887 509.737
81 0 72.1041 13.0367 940 164.026 785.212 508.579
82 0 75.1134 12.8206 963 159.732 784.541 507.201
83 0 74.1336 13.2868 985 152.759 784.877 506.068
84 0 79.1417 12.6482 1001 163.204 784.769 505.073
85 0 81.1792 13.1807 1070 155.863 784.77 502.991
86 1 41.0457 12.4983 513 151.632 787.916 522.782
87 0 42.0918 12.7103 535 152.55 787.553 522.256
88 0 45.032 12.48 562 150.511 784.84 521.37
89 0 47.0938 12.507 589 144.312 785.621 521.224
90 0 49.1037 12.3209 605 145.577 786.293 520.618
91 0 49.0534 12.9247 634 146.834 786.762 520.202
92 0 51.0693 12.6691 647 145.502 786.36 519.306
93 0 53.121 12.9139 686 147.063 786.717 518.821
94 0 55.086 12.9979 716 148.542 786.088 517.768
95 0 56.1096 13.2598 744 148.839 786.034 517.267
96 0 57.25 13.1878 755 153.09 786.142 516.246
97 0 59.1792 13.3831 792 153.793 784.75 515.566
98 0 63.1324 13.1945 833 150.958 785.946 514.132
99 0 64.1806 13.353 857 150.076 785.124 513.363
100 0 67.2196 12.9724 872 149.288 787.542 512.271
101 0 67.1887 13.3505 897 158.163 784.373 511.46
102 0 73.1835 12.7214 931 155.991 785.863 509.519
103 0 74.2115 12.8956 957 149.947 786.904 508.13
104 1 35.0476 11.6698 409 152.636 785.518 526.477
105 0 37.1685 11.838 440 159.539 784.832 526.157
106 0 40.1381 11.3359 455 157.229 785.611 525.547
107 0 40.1704 12.2229 491 148.116 783.525 524.855
108 0 41.1391 12.3726 509 156.004 785.413 523.646
109 0 43.1191 12.222 527 154.036 785.827 522.562
110 0 44.131 12.4629 550 150.427 786.313 521.647
111 0 46.1155 12.9024 595 144.669 784.864 520.58
112 0 48.1908 12.6165 608 147.949 785.549 519.515
113 0 47.1827 12.9497 611 148.357 786.391 518.827
114 0 49.1428 13.0029 639 150.779 786.828 518.063
115 0 52.1105 12.7422 664 150.959 786.715 517.023
116 0 53.2256 12.9825 691 145.789 787.213 515.922
117 0 54.0765 13.222 715 153.049 786.617 515.536
118 0 56.0881 13.1757 739 154.701 785.877 514.345
119 0 58.1404 13.0374 758 153.656 784.628 512.773
120 0 60.0825 13.3317 801 146.552 786.833 511.579
121 0 62.0905 13.0938 813 149.704 787.831 510.914
122 0 62.2083 13.0851 814 152.919 788.366 510.386
123 0 64.0995 13.7287 880 148.27 788.983 509.08
124 0 67.2211 13.3143 895 148.896 787.969 507.577
125 0 71.1765 12.8694 916 150.083 787.275 506.996
126 0 71.1476 13.2682 944 149.087 787.922 506.146
127 0 75.0496 13.0181 977 145.261 788.141 504.531
128 0 78.2082 13.2339 1035 147.129 787.015 502.804
129 0 79.1348 13.2938 1052 145.892 788.221 501.901
130 1 41.0294 12.0402 494 152.504 789.52 521.798
131 0 44.0562 12.0528 531 145.75 791.004 520.646
132 0 45.0119 12.7744 575 146.856 787.24 519.758
133 0 45.1099 12.9018 582 148.359 787.966 519.316
134 0 48.0446 12.7798 614 146.679 786.233 518.409
135 0 50.1024 12.9335 648 151.483 786.591 516.818
136 0 51.1015 12.8763 658 151.47 787.66 516.067
137 0 53.0596 13.0043 690 146.186 785.172 515.675
138 0 54.2032 13.0988 710 150.224 790.114 515.77
139 0 55.1148 13.4447 741 151.583 788.522 514.584
140 0 58.2277 13.2411 771 155.288 787.123 513.236
141 0 61.1353 13.3311 815 156.199 787.277 512.422
142 0 62.252 13.4614 838 157.365 786.169 511.994
143 0 65.1087 13.5005 879 164.902 786.408 510.646
144 0 67.0948 13.6523 916 162.953 786.272 509.628
145 1 83.0793 13.5052 1122 169.06 787.081 501.136
146 0 88.1358 13.5246 1192 172.758 786.966 498.757
147 0 90.3222 13.5515 1224 173.409 785.948 498.533
148 0 92.1333 13.589 1252 174.219 786.59 497.148
149 0 96.1341 13.5748 1305 175.235 787.31 495.729
150 0 99.241 13.6436 1354 175.499 786.066 495.025
151 1 50.17 13.2749 666 173.625 785.641 517.667
152 0 52.1178 13.2009 688 167.531 785.795 516.837
153 0 55.0574 13.2952 732 170.699 786.586 516.127
154 0 55.1365 13.4756 743 175.381 787.906 515.493
155 0 57.1615 13.4706 770 174.519 785.953 514.065
156 0 60.1192 13.5231 813 168.647 785.514 513.536
157 0 62.1144 13.62 846 174.388 784.81 512.119
158 0 62.1144 13.62 846 182.093 783.81 512.119
159 0 66.1156 13.6579 903 173.659 785.466 509.905
160 0 69.2223 13.8395 958 178.151 786.981 508.537
161 0 70.1832 13.6785 960 172.072 787.229 507.453
162 0 75.2295 13.3192 1002 178.119 787.586 506.309
163 0 77.2095 13.5087 1043 172.987 786.852 506.091
164 0 80.1388 13.6638 1095 169.555 787.333 504.729
165 0 81.2129 13.8278 1123 159.853 785.805 503.415
166 0 86.1697 13.5082 1164 171.845 786.013 502.283
167 1 45.0288 12.6364 569 175.083 786.334 521.717
168 0 46.0485 13.0515 601 172.632 787.557 521.511
169 0 48.061 12.7962 615 171.686 787.036 521.28
170 0 50.0302 12.6923 635 171.978 785.554 520.268
171 0 51.0873 12.9386 661 173.756 786.129 520.038
172 0 53.0785 12.9619 688 168.416 785.651 518.657
173 0 54.1195 13.2115 715 172.487 785.162 518.397
174 0 55.1008 13.2848 732 174.169 786.23 518.015
175 0 57.3353 13.2379 759 166.725 785.254 517.108
176 0 58.3807 13.3435 779 171.335 785.566 516.566
177 0 60.1714 13.7773 829 172.282 785.001 515.384
178 0 62.1855 13.4919 839 178.642 785.051 514.51
179 0 64.33 13.5707 873 172.49 785.121 513.651
180 0 66.2633 13.5822 900 174.466 786.514 512.513
181 0 68.1317 13.8262 942 176.573 786.007 511.041
182 0 70.29 13.7715 968 178 787.768 509.855
183 0 72.1839 13.9089 1004 171.468 785.858 508.311
184 0 75.1941 14.3362 1078 177.504 784.543 507.455
185 0 78.1739 14.1863 1109 178.654 784.931 505.833
186 0 81.4118 14.0643 1145 174.333 785.452 504.495
187 0 83.3159 14.187 1182 167.903 787.236 502.827
188 0 86.1464 13.9066 1198 175.526 787.052 501.387
189 0 90.2597 14.2145 1283 163.712 786.446 499.458
190 0 92.196 14.1329 1303 172.312 786.853 498.169
191 0 97.1658 14.1408 1374 173.886 788.972 496.376
192 1 50.0388 12.5702 629 168.854 785.822 519.162
193 0 51.1475 13.0994 670 173.594 785.437 518.907
194 0 51.1587 13.3115 681 175.695 786.32 518.828
195 0 53.1733 13.1833 701 173.155 788.656 517.68
196 0 55.2782 13.2783 734 174.022 786.703 516.871
197 0 57.1453 13.4219 767 169.348 787.786 516.042
198 0 58.2421 13.4954 786 165.258 787.022 514.781
199 0 59.1599 13.7424 813 163.731 786.83 513.456
200 0 62.1105 13.5887 844 170.056 787.912 512.796
201 0 65.1516 13.2921 866 170.588 787.225 511.263
202 0 65.1482 13.8454 902 174.356 787.765 510.165
203 0 67.1971 13.8548 931 167.452 788.351 509.611
204 0 72.2878 13.2249 956 167.059 788.872 506.637
205 0 74.174 13.3335 989 165.192 788.601 504.882
206 0 75.2928 13.8526 1043 162.012 787.562 503.471
207 0 79.203 13.5475 1073 159.829 786.198 502.007
208 0 80.2816 13.6395 1095 162.967 785.839 500.929
209 1 42.139 11.7468 495 157.848 785.598 520.107
210 0 43.1737 12.3918 535 163.505 787.151 519.406
211 0 44.018 12.6085 555 164.371 786.155 518.24
212 0 46.1001 12.5379 578 159.306 786.806 517.696
213 0 47.0502 12.7311 599 162.561 788.269 516.866
214 0 48.106 12.7427 613 157.835 788.429 516.153
215 0 49.1603 12.6728 623 162.888 788.549 515.085
216 0 52.2025 12.758 666 160.526 788.791 513.88
217 0 53.0972 13.2964 706 157.361 786.361 512.88
218 0 56.1193 12.8298 720 162.856 786.869 511.992
219 0 54.1413 13.8526 750 164.288 787.015 511.367
220 0 59.2171 13.3407 790 161.424 787.6 510.457
221 0 61.2397 13.4227 822 164.206 787.696 509.423
222 0 62.1036 13.6063 845 163.979 787.78 508.239
223 0 63.4312 13.9206 883 167.95 786.807 507.381
224 0 67.3068 13.7282 924 170.022 787.412 506.168
225 0 67.2524 14.1705 953 170.723 786.992 505.1
226 0 70.2482 13.7797 968 171.967 787.072 504.065
227 0 74.4553 13.4846 1004 177.805 788.681 502.534
228 0 77.2605 13.7716 1064 176.215 789.497 501.133
229 0 79.3878 14.1584 1124 167.768 788.159 499.38
230 0 81.3055 14.2918 1162 177.386 787.352 498.495
231 0 85.2689 13.7799 1175 172.697 788.394 497.501
232 0 87.1343 14.2424 1241 172.424 787.717 495.521
233 0 91.2509 13.9725 1275 175.006 787.477 493.813
234 0 95.3277 13.9729 1332 170.64 788.927 492.252
235 0 97.1679 13.9552 1356 168.715 787.392 491.002
236 1 53.0317 12.9734 688 170.839 786.765 512.897
237 0 53.1424 13.3039 707 172.003 789.027 512.222
238 0 54.0319 13.418 725 168.477 789.217 511.657
239 0 56.1926 13.2758 746 172.921 787.256 510.403
240 0 58.0564 13.8314 803 169.724 788.437 509.618
241 0 60.1973 13.7548 828 170.787 787.675 507.964
242 0 63.0535 13.6868 863 171.47 788.419 507.066
243 0 66.0501 13.5655 896 165.795 787.518 505.996
244 0 68.0546 13.4451 915 169.12 787.365 505.062
245 0 72.1157 13.5199 975 167.766 785.884 503.433
246 0 73.0605 13.9747 1021 163.176 788.225 502.48
247 0 75.1439 13.6405 1025 170.433 788.709 501.336
248 0 77.1904 14.0302 1083 168.975 789.16 500.055
249 0 79.0647 13.7862 1090 170.717 787.28 498.757
250 0 84.1794 13.8039 1162 101.509 789.116 497.373
251 0 87.0789 13.9184 1212 169.764 788.352 495.814
252 0 88.1748 13.8135 1218 169.527 788.528 495.357
253 0 91.2277 13.7239 1252 173.347 788.758 493.887
254 0 93.1737 13.8988 1295 167.5 787.41 491.96
255 0 98.1674 13.6196 1337 168.985 788.812 490.358
256 1 50.0995 13.0341 653 164.758 789.227 513.312
257 0 52.0932 13.1495 685 163.584 788.168 512.492
258 0 53.0359 13.0289 691 166.728 788.447 511.256
259 0 56.0223 13.209 740 166.859 787.104 510.305
260 0 57.0941 13.1887 753 172.806 788.227 509.78
261 0 60.0454 13.673 821 166.928 787.949 508.323
262 0 61.0642 13.3139 813 165.909 789.825 507.648
263 0 65.1165 13.0535 850 167.507 787.611 506.644
264 0 65.1637 13.5044 880 163.445 789.065 505.392
265 0 68.0317 13.3026 905 166.638 788.642 504.337
266 0 70.1133 13.5638 951 165.55 787.914 503.648
267 0 74.1262 13.6659 1013 168.808 788.41 502.318
268 0 75.3321 13.7259 1034 165.417 788.816 500.663
269 0 79.1661 13.3012 1053 166.203 788.179 500.01
270 0 82.1167 13.4686 1106 170.323 787.204 498.522
271 0 84.2207 13.7377 1157 172.258 788.693 497.478
272 0 84.2207 13.7377 1157 180.877 789.693 497.478
273 0 89.1824 13.8256 1233 168.351 788.595 494.3
274 0 93.2075 13.5826 1266 163.981 787.627 492.393
275 0 96.2663 13.2965 1280 165.169 787.461 491.048
276 0 98.431 13.5323 1332 169.889 787.8 490.237
277 0 101.419 13.3111 1350 169.984 787.773 488.173
278 0 106.343 13.3248 1417 163.999 788.927 486.69
279 0 108.507 13.5107 1466 170.688 788.647 485.967
280 0 112.517 13.4557 1514 168.519 788.153 484.388
281 0 116.309 13.5243 1573 168.186 788.605 482.91
282 1 56.1912 12.6532 711 166.183 787.748 511.082
283 0 59.1137 12.6367 747 158.17 787.81 509.999
284 0 62.2175 12.7135 791 160.968 789.051 509.647
285 0 62.2175 12.7135 791 178.956 791.051 509.647
286 0 67.0875 12.1483 815 167.19 790.056 508.248
287 0 70.2136 12.4335 873 163.794 788.934 506.309
288 0 72.1964 12.3136 889 162.738 788.384 506.015
289 0 75.1585 12.3739 930 161.396 787.062 504.503
290 0 77.1502 12.4173 958 162.293 788.046 503.584
291 0 79.1615 12.5313 992 158.372 788.488 502.051
292 0 82.1546 12.5738 1033 157.303 788.719 500.387
293 1 43.0464 11.4063 491 153.898 787.925 520.043
294 0 46.0121 11.7143 539 153.928 788.505 519.013
295 0 47.1084 11.4842 541 144.006 788.494 518.455
296 0 49.1151 11.8294 581 143.866 789.117 517.496
297 0 51.0667 11.8081 603 151.376 789.499 516.154
298 0 53.0755 11.9641 635 148.778 789.283 515.405
299 0 54.1929 11.8466 642 148.315 789.416 514.924
300 0 55.2032 12.1007 668 149.756 790.356 514.314
301 0 57.1268 12.4635 712 150.781 790.409 513.303
302 0 60.0862 12.0327 723 150.032 790.272 511.668
303 0 61.112 12.4035 758 147.263 788.178 511.144
304 0 63.1335 12.5607 793 150.866 789.469 510.463
305 0 65.1245 12.6527 824 150.309 789.368 509.254
306 0 66.1725 12.9359 856 152.952 788.681 508.653
307 0 70.1236 12.9771 910 150.566 788.011 506.716
308 0 71.1537 13.1406 935 155.429 787.618 506.05
309 0 74.27 13.1951 980 154.989 786.973 504.927
310 0 75.1895 13.3928 1007 154.707 789.205 503.991
311 0 79.1349 13.1421 1040 154.747 787.705 502.262
312 0 80.2165 13.6381 1094 156.922 789.972 500.84
313 0 83.2114 13.5678 1129 160.38 788.917 499.888
314 0 86.2572 13.5757 1171 159.816 789.399 497.943
315 0 91.2437 13.3489 1218 155.771 788.026 496.719
316 0 95.1346 13.6438 1298 168.041 789.935 494.254
317 0 99.2209 13.4448 1334 169.999 789.254 493.111
318 1 51.2457 12.6255 647 172.907 789.354 515.134
319 0 53.1207 13.2152 702 168.658 790.655 514.145
320 0 54.1669 13.1999 715 172.706 789.698 513.839
321 0 54.0952 13.4023 725 166.148 789.313 512.927
322 0 58.2544 13.338 777 165.189 789.885 511.739
323 0 59.2583 13.7196 813 167.701 790.467 511.042
324 0 59.2094 13.9505 826 168.495 789.409 509.889
325 0 63.3403 13.8458 877 168.559 789.103 507.666
326 0 65.345 13.6659 893 166.503 788.082 506.466
327 0 66.4155 14.2888 949 170.699 786.845 505.427
328 0 69.2404 14.3413 993 170.772 788.407 504.379
329 0 69.3605 14.4751 1004 168.751 789.035 502.932
330 0 72.3643 14.275 1033 168.053 789.16 502.177
331 0 76.3123 14.8862 1136 169.233 789.324 499.919
332 0 79.3025 14.4258 1144 171.356 788.767 499.223
333 0 80.4828 14.7858 1190 169.303 788.868 497.838
334 0 83.4803 14.7101 1228 167.678 788.436 496.568
335 0 86.1994 14.8493 1280 171.092 788.345 494.764
336 0 88.3116 15.1736 1340 164.13 788.313 493.04
337 0 92.2952 15.0712 1391 167.104 788.679 491.252
338 0 95.2818 14.9556 1425 165.548 788.956 489.551
339 0 98.3524 14.6717 1443 168.622 787.838 488.743
340 1 51.0725 12.9032 659 174.744 789.168 512.53
341 0 54.0952 13.2729 718 175.958 789.191 511.35
342 0 53.1419 13.6992 728 175.114 788.371 510.323
343 0 58.3177 13.3407 778 169.862 789.738 509.369
344 0 59.1879 13.7021 811 171.698 788.832 508.748
345 0 60.2256 13.6487 822 169.707 789.147 507.959
346 0 62.1401 13.8558 861 166.016 789.758 506.334
347 0 64.1551 13.7635 883 173.569 790.323 505.746
348 0 66.279 14.1825 940 169.264 790.971 504.701
349 0 69.2734 13.8726 961 160.629 789.004 503.478
350 0 71.3434 13.8485 988 170.016 789.126 501.812
351 0 72.3399 14.3075 1035 164.189 789.62 501.144
352 0 76.3951 13.7182 1048 164.432 789.674 499.326
353 0 77.3004 14.1138 1091 157.282 788.563 497.511
354 0 82.3386 13.9667 1150 170.062 789.659 496.133
355 0 85.2641 13.6752 1166 164.292 790.178 494.866
356 0 87.274 13.8988 1213 164.379 790.202 493.197
357 0 91.2803 13.7817 1258 164.79 790.411 491.769
358 0 94.3129 13.6673 1289 164.29 789.882 489.737
359 0 97.2509 13.7274 1335 165.59 789.575 488.221
360 0 101.414 13.864 1406 159.031 787.632 486.45
361 1 52.0711 12.5598 654 167.523 789.206 510.913
362 0 53.16 12.8668 684 164.162 789.2 509.75
363 0 54.2348 12.9806 704 165.991 787.932 508.828
364 0 56.2504 13.1199 738 161.064 788.425 507.088
365 0 60.1308 12.9385 778 152.627 787.667 506.008
366 0 61.3415 13.1885 809 161.503 787.895 505.075
367 0 64.1072 13.3994 859 155.36 788.09 503.95
368 0 65.1032 13.5784 884 157.023 788.852 502.845
369 0 67.2832 13.3763 900 154.324 789.784 502.101
370 0 71.2405 13.1105 934 160.701 790.179 501.033
371 0 71.4432 13.5072 965 159.524 789.022 499.902
372 0 73.225 13.875 1016 161.099 789.529 499.021
373 0 77.3272 13.4623 1041 160.551 788.828 496.983
374 0 81.282 13.2502 1077 168.406 787.078 495.87
375 0 83.2251 13.9501 1161 166.932 787.64 494.281
376 0 87.2742 13.5206 1180 169.198 785.335 492.565
377 0 89.2798 13.8553 1237 166.701 787.327 490.954
378 0 93.2983 13.966 1303 164.406 788.407 489.143
379 0 96.3155 14.2137 1369 162.869 789.729 488.012
380 0 100.147 13.6 1362 164.137 788.781 485.869
381 0 103.278 13.8558 1431 165.712 789.011 484.623
382 1 56.2577 12.105 681 167.824 787.812 508.023
383 0 56.1689 12.6405 710 166.232 789.165 507.683
384 0 57.1098 12.8875 736 171.211 788.461 506.355
385 0 60.2105 12.8051 771 161.214 790.178 505.494
386 0 61.3616 12.9886 797 163.795 787.932 504.518
387 0 63.2318 12.9207 817 156.272 788.77 503.054
388 0 65.2604 12.8868 841 167.125 786.707 502.445
389 0 66.4041 13.1167 871 171.212 786.696 501.69
390 0 67.2814 13.5253 910 167.222 788.367 499.997
391 0 71.3746 12.8617 918 168.587 787.346 499.794
392 0 72.4188 12.911 935 169.605 788.345 498.387
393 0 76.3363 13.1916 1007 157.345 787.694 496.796
394 0 78.3513 13.4905 1057 160.317 788.472 495.402
395 0 83.2777 12.8966 1074 167.802 788.558 493.858
396 0 86.3961 13.0793 1130 163.265 787.173 491.374
397 0 90.4037 12.9309 1169 162.758 787.285 490.432
398 0 91.2449 13.2939 1213 154.908 787.814 488.324
399 0 96.2122 12.6803 1220 157.741 788.432 487.215
400 1 49.0787 11.2676 553 156.626 788.557 511.698
401 0 49.1502 11.9023 585 151.391 789.118 510.974
402 0 52.2189 11.8922 621 148.507 790.134 510.757
403 0 52.1013 12.2646 639 154.189 788.556 510.039
404 0 55.016 12.3237 678 145.817 788.497 509.336
405 0 57.0764 12.7023 725 152.785 788.53 508.959
406 0 59.0421 12.381 731 144.012 788.379 507.725
407 0 60.0807 12.5664 755 149.803 787.558 507.05
408 0 62.0558 12.4565 773 152.79 789.159 507.327
409 0 64.0789 12.6095 808 151.37 789.697 505.976
410 0 64.0454 13.3187 853 148.6 789.016 505.103
411 0 69.0504 12.5995 870 151.716 789.606 504.054
412 0 69.0494 12.9617 895 151.485 790.092 502.687
413 0 72.0269 13.1479 947 150.11 790.024 501.278
414 0 75.0621 13.0159 977 153.331 789.986 500.988
415 0 75.0123 12.8512 964 163.338 788.357 499.831
416 0 80.1086 12.8451 1029 156.204 789.117 498.461
417 0 83.3761 12.9294 1078 155.627 787.825 497.773
418 1 42.194 11.2575 475 156.907 789.566 517.558
419 0 43.1786 11.6493 503 150.254 789.986 517.851
420 0 41.1042 12.3832 509 158.193 790.709 517.916
421 0 44.1162 11.583 511 152.249 788.63 516.978
422 0 45.1539 11.6047 524 156.21 788.922 516.347
423 0 47.2268 11.8577 560 154.634 788.045 515.359
424 0 49.1074 11.7701 578 158.486 787.727 515.038
425 0 50.0927 11.878 595 154.261 788.393 514.261
426 0 50.0955 12.0969 606 157.683 787.728 513.787
427 0 54.1458 11.8199 640 151.819 788.575 512.373
428 0 54.1479 12.0965 655 154.081 789.166 511.446
429 0 55.209 12.2444 676 151.49 788.803 510.632
430 0 57.1775 12.1201 693 155.631 788.952 509.825
431 0 59.0973 12.3356 729 153.24 789.582 508.933
432 0 61.1283 12.4492 761 154.44 788.974 507.884
433 0 64.1457 12.4404 798 151.157 788.931 506.602
434 0 65.1072 12.7636 831 154.493 788.419 504.971
435 0 67.1877 12.5023 840 161.486 790.365 504.205
436 0 69.0921 12.9248 893 154.646 789.482 502.87
437 0 71.1198 13.0062 925 157.739 789.414 501.701
438 0 72.1546 13.3186 961 158.232 789.184 500.988
439 0 77.1784 12.7885 987 163.595 789.163 499.899
440 0 79.1795 12.8063 1014 169.756 789.335 498.762
441 0 81.111 13.0932 1062 170.603 789.185 497.45
442 0 83.1918 13.3306 1109 172.375 788.359 496.37
443 0 84.2373 13.5332 1140 160.62 787.604 495.192
444 0 89.1675 13.3345 1189 168.714 789.627 493.578
445 0 91.0999 13.0516 1189 168.611 789.366 492.394
446 0 93.1958 13.3268 1242 168.076 790.617 490.528
447 0 98.119 13.3002 1305 167.798 790.927 488.03
448 0 101.194 13.1826 1334 159.855 789.214 486.642
449 0 104.147 13.5578 1412 151.665 790.123 484.679
450 0 107.322 13.2964 1427 167.14 790.259 483.808
451 1 59.1047 12.0126 710 163.646 790.53 507.199
452 0 60.1853 12.5778 757 160.124 789.26 506.07
453 0 61.0871 12.8996 788 160.497 788.609 505.077
454 0 61.1726 12.996 795 156.855 788.345 504.447
455 0 64.1001 12.8393 823 166.063 787.911 503.809
456 0 67.1228 12.6038 846 169.245 789.337 502.948
457 0 66.2921 13.2444 878 167.679 789.418 501.144
458 0 71.182 12.5172 891 167.008 790.464 500.903
459 0 71.1623 13.2514 943 163.422 790.103 499.221
460 0 76.2516 13.2587 1011 161.582 790.855 497.172
461 0 78.1752 13.3418 1043 169.854 790.013 496.517
462 0 79.1087 13.7785 1090 168.639 791.632 494.639
463 0 83.372 13.2299 1103 165.948 790.557 492.841
464 0 87.3312 13.3629 1167 166.372 790.129 491.474
465 0 91.1739 13.1836 1202 163.834 789.425 489.522
466 0 93.4235 13.4227 1254 164.348 789.414 488.548
467 0 96.3243 13.5999 1310 160.377 790.361 486.84
468 0 100.377 13.3895 1344 166.085 789.217 484.708
469 0 105.217 13.3248 1402 164.851 790.607 482.565
470 0 107.293 13.4864 1447 167.871 790.308 480.872
471 1 58.1129 11.9767 696 162.341 788.668 504.605
472 0 61.1903 12.551 768 165.185 789.21 503.378
473 0 63.1284 12.4033 783 154.886 789.798 502.747
474 0 64.138 12.8317 823 166.277 789.707 502.334
475 0 66.2621 12.8882 854 163.029 790.242 501.294
476 0 67.3902 13.0583 880 158.551 790.505 500.012
477 0 71.2321 12.733 907 165.907 788.281 498.817
478 0 73.2814 12.8409 941 156.751 790.327 497.648
479 0 75.3685 13.1885 994 166.198 788.394 496.56
480 0 77.4614 13.1808 1021 162.819 789.389 494.928
481 0 81.4325 13.2134 1076 163.787 790.434 492.859
482 0 83.4854 13.2119 1103 165.507 791.072 492.404
483 0 86.5981 13.1412 1138 168.224 789.979 490.377
484 0 87.342 13.6131 1189 169.393 788.832 489.449
485 0 91.4672 13.1085 1199 168.401 789.882 487.408
486 0 93.6841 13.4922 1264 173.13 789.734 485.082
487 0 97.6255 13.4186 1310 166.721 789.818 483.411
488 0 101.464 13.7291 1393 164.197 790.331 481.116
489 0 103.393 13.9661 1444 165.169 789.68 481.111
490 0 108.225 13.592 1471 162.274 790.008 479.816
491 1 55.0837 12.0362 663 169.06 791.391 504.866
492 0 59.1867 12.4352 736 163.995 789.476 504.158
493 0 60.0771 12.3342 741 165.619 790.889 503.942
494 0 62.1208 12.4918 776 165.951 791.394 502.905
495 0 63.1513 12.478 788 166.629 790.241 502.244
496 0 66.1047 12.5407 829 169.645 790.3 501.271
497 0 67.2832 13.0345 877 160.4 789.247 499.839
498 0 70.1473 12.8729 903 162.275 789.321 498.478
499 0 73.1879 12.7207 931 164.075 792.097 497.058
500 0 74.183 12.9814 963 158.177 790.64 496.334
501 0 76.2719 12.9143 985 169.008 789.414 495.136
502 0 79.3026 13.0639 1036 169.51 790.326 493.689
503 0 82.4231 12.8362 1058 162.464 789.015 492.629
504 0 84.3752 13.12 1107 164.284 790.64 490.723
505 0 84.3752 13.12 1107 170.888 792.64 490.723
506 0 91.1699 12.8332 1170 160.168 790.862 488.199
507 0 93.2258 13.0758 1219 165.274 789.608 486.433
508 1 48.0901 11.624 559 157.385 790.274 509.701
509 0 49.1843 11.9347 587 163.186 790.124 509.218
510 0 50.0753 12.0219 602 160.279 790.291 509.171
511 0 51.1815 12.3677 633 156.768 789.434 508.615
512 0 52.1206 12.1065 631 164.891 789.986 507.461
513 0 55.1091 12.1758 671 160.672 786.89 506.917
514 0 55.1259 12.5712 693 161.159 788.449 506.475
515 0 57.1112 12.4844 713 158.829 789.001 506.115
516 0 58.068 12.8814 748 162.1 789.497 504.936
517 0 60.0668 13.0022 781 167.315 790.291 503.621
518 0 64.0784 12.9529 830 162.393 789.566 502.814
519 0 65.2163 12.8649 839 160.666 788.999 501.887
520 0 68.1879 12.9055 880 166.023 790.132 500.532
521 0 69.2101 13.0328 902 162.421 789.95 499.633
522 0 70.2078 13.1752 925 156.018 789.461 498.524
523 0 75.2752 13.2314 996 168.318 790.274 497.888
524 0 77.1748 13.2167 1020 164.975 790.879 496.425
525 0 79.2308 13.2524 1050 167.038 789.79 495.36
526 0 81.3014 13.4192 1091 158.988 789.475 493.622
527 0 84.2363 13.1297 1106 167.656 788.854 493.18
528 0 88.2135 13.1839 1163 169.608 789.231 491.816
529 0 89.2282 13.3142 1188 167.982 790.54 490.544
530 0 92.3516 13.4161 1239 168.572 789.554 489.169
531 0 96.2231 13.6765 1316 166.026 790.1 487.444
532 0 98.3236 13.7505 1352 161.886 791.958 485.158
533 0 101.288 13.6936 1387 164.497 791.089 483.583
534 0 105.509 13.5155 1426 161.486 791.463 481.76
535 0 107.401 13.6033 1461 167.796 792.529 481.193
536 0 111.547 13.761 1535 165.319 789.913 479.644
537 0 116.51 13.4753 1570 158.572 791.023 478.486
538 1 60.3232 11.8362 714 162.433 789.539 507.301
539 0 61.2869 12.466 764 159.296 789.224 505.872
540 0 64.3002 12.3794 796 161.976 790.384 504.83
541 0 66.3124 12.426 824 164.618 789.697 504.131
542 0 70.201 12.3787 869 152.54 790.16 503.152
543 0 71.1339 12.5819 895 161.439 790.615 501.477
544 0 73.1158 12.6512 925 159.858 790.597 500.001
545 0 75.2154 12.7766 961 160.576 790.584 499.119
546 0 77.1526 12.8706 993 160.48 791.486 498.133
547 0 80.1438 12.8269 1028 158.853 790.34 496.345
548 0 83.2105 12.6787 1055 157.084 791.884 494.638
549 0 85.2402 12.7522 1087 159.476 792.685 493.768
550 0 90.1541 12.8447 1158 149.985 792.966 491.152
551 0 90.2045 12.7932 1154 159.256 791.925 490.316
552 0 93.1931 12.7477 1188 156.163 792.052 489.465
553 0 97.2274 12.6405 1229 153.723 791.252 487.687
554 1 52.1006 11.6314 606 153.988 791.739 509.752
555 0 55.2731 11.416 631 150.488 789.908 507.986
556 0 55.1535 12.4743 688 153.84 790.754 507.775
557 0 58.1002 12.8743 748 152.384 789.965 507.055
558 0 58.1009 12.4783 725 149.705 790.746 506.579
559 0 60.1474 12.7354 766 152.068 790.06 505.383
560 0 61.0876 13.0305 796 142.717 791.759 504.098
561 0 65.2017 12.4843 814 136.038 791.373 503.555
562 0 66.2063 12.9142 855 147.364 791.689 502.739
563 0 67.1511 13.2686 891 144.53 792.409 501.497
564 0 70.1372 12.8035 898 154.616 792.028 500.634
565 0 73.0671 13.0565 954 150.081 791.988 500.197
566 0 72.1922 13.3671 965 154.899 791.154 498.866
567 0 76.128 12.9913 989 149.91 791.702 497.231
568 0 79.1553 12.9619 1026 150.243 792.021 496.298
569 0 82.1123 13.3354 1095 157.64 792.342 494.721
570 0 84.1946 13.2075 1112 149.845 791.308 493.1
571 0 89.1466 13.0571 1164 152.176 789.901 491.832
572 0 91.2373 12.9881 1185 157.031 789.488 490.63
573 0 93.4718 13.4479 1257 154.304 789.833 489.043
574 0 93.4718 13.4479 1257 164.002 790.833 489.043
575 0 99.1829 13.4297 1332 148.805 792.303 484.836
576 0 106.228 13.5463 1439 156.243 792.288 483.154
577 1 52.0727 12.1177 631 151.783 793.989 509.792
578 0 54.1774 12.5329 679 148.655 792.577 508.155
579 0 56.1098 12.3151 691 149.446 791.751 507.289
580 0 56.1846 12.7437 716 153.881 792.609 506.649
581 0 58.1703 12.7557 742 145.36 793.79 504.867
582 0 60.0951 12.9462 778 145.26 793.492 504.211
583 0 62.0867 12.7725 793 148.726 792.556 504.228
584 0 64.1469 12.8143 822 149.074 792.937 502.273
585 0 66.1135 13.0382 862 152.148 792.129 501.404
586 0 69.0997 13.1115 906 143.833 792.711 500.067
587 0 71.1149 13.1337 934 140.094 790.736 499.093
588 0 73.1018 13.3512 976 151.381 791.666 498.036
589 0 75.1126 13.5663 1019 153.641 793.289 496.304
590 0 77.2099 13.4827 1041 140.305 793.694 495.364
591 0 79.0861 13.833 1094 160.992 793.328 494.327
592 0 81.0967 14.008 1136 158.343 792.677 493.086
593 0 83.1685 14.0799 1171 158.451 793.169 491.974
594 0 87.3052 13.8594 1210 163.455 792.466 490.486
595 0 91.2352 13.7337 1253 168.135 791.267 489.102
596 0 94.1904 13.547 1276 166.799 792.189 487.351
597 0 98.3858 13.4979 1328 165.118 793.023 484.995
598 1 50.1096 12.6323 633 164.727 794.392 508.011
599 0 52.1811 12.8974 673 162.755 793.562 507.541
600 0 52.1272 12.9875 677 156.666 794.708 507.08
601 0 55.0872 12.9794 715 161.551 792.639 506.294
602 0 56.1642 12.8908 724 168.776 790.808 505.782
603 0 58.0568 13.2284 768 160.091 792.715 504.822
604 0 60.0781 13.4658 809 162.017 791.756 503.607
605 0 61.1935 13.4491 823 163.174 792.219 502.843
606 0 64.2068 13.3942 860 155.077 792.592 501.672
607 0 65.1237 13.4513 876 164.582 792.715 501.545
608 0 66.2901 13.8331 917 163.953 791.782 500.531
609 0 69.1923 13.4842 933 162.687 792.682 499.554
610 0 72.3366 13.2851 961 163.094 792.579 498.019
611 0 72.1141 13.9778 1008 161.599 792.523 496.853
612 0 77.1285 13.6007 1049 160.736 791.861 495.272
613 0 78.069 13.7571 1074 163.061 793.143 494.541
614 0 82.1761 13.4589 1106 166.252 793.43 493.068
615 0 85.1372 13.813 1176 162.548 793.04 491.013
616 0 88.1471 13.5909 1198 163.08 793.322 490.455
617 1 46.1553 12.198 563 164.215 793.24 511.135
618 0 47.0962 12.7187 599 153.684 794.885 509.888
619 0 48.1309 12.8815 620 165.698 794.361 510.282
620 0 50.2068 12.5879 632 163.139 792.894 509.668
621 0 51.215 13.2969 681 161.43 795.145 509.159
622 0 52.2726 13.6592 714 159.548 794.395 508.527
623 0 53.2744 13.3272 710 166.924 793.599 508.354
624 0 56.1407 13.6977 769 161.469 794.456 507.086
625 0 57.2468 13.3632 765 169.962 794.401 506.552
626 0 59.1732 13.1647 779 167.128 792.953 505.408
627 0 61.1833 13.7129 839 161.834 793.644 504.309
628 0 63.1602 13.8853 877 172.367 793.09 502.556
629 0 66.2343 13.7542 911 164.909 793.476 501.757
630 0 67.2965 13.7749 927 163.19 793.017 500.961
631 0 69.2444 13.6762 947 166.424 793.297 499.72
632 0 71.2211 14.097 1004 165.28 792.784 498.631
633 0 73.252 13.9109 1019 170.211 792.936 497.175
634 0 77.2873 14.0127 1083 167.507 792.761 495.751
635 0 80.2025 13.9771 1121 169.552 792.604 494.315
636 1 41.167 12.9473 533 173.811 791.756 513.4
637 0 43.1037 13.2703 572 167.953 792.921 512.126
638 0 43.1373 13.4454 580 169.367 792.962 512.231
639 0 43.0572 13.7491 592 172.375 793.529 511.561
640 0 46.1395 13.5892 627 172.781 792.979 510.593
641 0 48.0704 13.2514 637 172.328 791.058 510.279
642 0 49.1582 13.8125 679 172.457 792.769 508.91
643 0 51.1931 13.6151 697 172.316 791.587 508.209
644 0 52.2698 13.4877 705 172.457 791.732 507.525
645 0 54.1128 13.6936 741 174.69 792.541 507.035
646 0 56.2033 13.5579 762 172.789 791.726 506.039
647 0 56.2671 14.289 804 166.488 793.994 504.774
648 0 60.3842 13.9606 843 169.96 792.136 503.817
649 0 60.4231 14.233 860 176.19 791.967 503.341
650 0 62.3927 14.5209 906 164.96 791.193 502.44
651 0 65.3136 14.1318 923 170.983 791.905 500.884
652 0 66.3582 14.6478 972 169.464 791.202 500.918
653 0 68.4937 14.6729 1005 165.479 790.58 499.492
654 0 69.4191 14.7366 1023 165.708 791.071 498.565
655 0 73.411 14.4393 1060 164.287 790.665 497.793
656 0 74.3432 14.5003 1078 170.544 790.726 497.228
657 0 76.4442 14.782 1130 170.17 791.765 495.912
658 0 80.3642 14.5836 1172 168.078 791.298 494.099
659 0 81.3009 14.7723 1201 167.101 791.747 493.543
660 0 84.4099 14.4888 1223 167.702 791.321 492.248
661 0 89.3161 14.152 1264 160.431 791.146 491
662 0 91.2904 14.0431 1282 158.778 791.205 489.129
663 0 93.303 14.2868 1333 167.538 791.679 487.388
664 1 47.3453 13.4755 638 175.743 790.088 510.221
665 0 50.2881 13.8601 697 165.558 790.498 509.238
666 0 50.1937 13.9659 701 162.158 790.535 509.638
667 0 52.0854 14.2266 741 172.661 788.134 508.719
668 0 55.1535 13.7435 758 173.273 789.799 508.009
669 0 57.1501 14.2782 816 167.261 790.359 506.771
670 0 59.1226 13.6496 807 169.108 789.799 506.069
671 0 61.1458 14.0811 861 168.473 790.252 504.851
672 0 62.177 14.716 915 170.251 790.484 503.379
673 0 65.1871 14.328 934 169.29 789.863 502.343
674 0 67.1907 14.3919 967 177.368 791.358 501.506
675 0 70.1088 14.3491 1006 171.634 789.115 499.954
676 0 73.3011 14.3927 1055 169.41 790.207 498.718
677 0 75.2269 14.8351 1116 177.039 790.266 497.599
678 0 79.2031 14.4944 1148 175.004 790.213 495.884
679 0 82.1238 14.1981 1166 175.804 790.218 494.392
680 0 87.1453 14.1144 1230 175.562 789.85 492.898
681 0 90.3079 14.1184 1275 165.626 790.914 490.758
682 0 93.0987 14.2859 1330 168.836 789.958 488.716
683 0 97.1423 14.1442 1374 165.328 790.229 487.197
684 1 50.1469 13.4206 673 174.088 789.621 509.22
685 0 52.1224 13.6218 710 173.439 787.987 508.368
686 0 53.3308 13.5944 725 174.199 790.926 507.608
687 0 56.201 13.6652 768 171.34 789.38 506.469
688 0 58.2932 13.3635 779 169 789.234 505.489
689 0 60.5221 13.4827 816 167.637 790.249 504.45
690 0 61.2347 13.9137 852 173.192 790.536 503.25
691 0 63.2653 13.6252 862 168.292 790.835 502.883
692 0 67.4026 13.6493 920 163.288 791.922 501.053
693 0 68.2594 13.7856 941 166.374 790.42 499.584
694 0 69.38 14.0819 977 164.751 791.586 498.875
695 0 73.2963 14.1753 1039 164.887 789.777 496.887
696 0 76.3166 13.8764 1059 167.492 790.834 495.27
697 0 79.3509 13.7491 1091 166.69 790.776 494.075
698 0 81.3472 13.4854 1097 167.456 791.097 493.199
699 0 85.2921 13.7645 1174 164.534 790.949 490.943
700 0 87.22 13.7469 1199 161.611 790.244 489.363
701 0 89.2109 13.9445 1244 160.141 790.56 488.047
702 1 51.0323 12.1688 621 157.646 790.15 507.918
703 0 52.1256 12.5466 654 156.506 790.448 507.419
704 0 55.1035 12.9211 712 157.799 791.115 505.541
705 0 56.0406 13.1333 736 152.743 791.029 504.887
706 0 58.0751 13.3964 778 155.991 792.21 503.979
707 0 60.228 13.5153 814 156.627 792.968 502.787
708 0 63.1629 13.4573 850 158.601 791.816 501.781
709 0 66.1938 13.6116 901 159.073 791.957 500.599
710 0 67.0839 13.8632 930 152.122 791.554 499.113
711 0 69.0904 13.5764 938 154.199 793.022 498.811
712 0 71.1984 13.9329 992 151.161 791.283 497.189
713 0 74.1371 13.7583 1020 152.498 791.031 495.648
714 0 77.1561 13.6606 1054 160.726 790.081 495.22
715 0 81.2953 13.6539 1110 153.152 790.286 492.839
716 0 82.3236 13.9936 1152 159.431 790.373 491.775
717 0 86.2751 13.967 1205 156.993 791.15 490.471
718 0 88.3754 13.6803 1209 160.848 788.871 489.311
719 0 91.3304 14.2012 1297 158.216 789.024 487.013
720 0 94.4293 13.9046 1313 155.224 790.123 484.835
721 0 99.4382 14.0791 1400 155.404 791.774 483.144
722 0 103.299 13.7368 1419 162.521 790.352 481.605
723 0 106.25 14.1741 1506 155.888 789.793 480.055
724 1 57.1919 12.799 732 162.887 789.613 504.157
725 0 57.1211 13.1125 749 159.792 790.063 503.41
726 0 61.1223 13.1376 803 159.725 790.291 502.951
727 0 61.2267 13.4582 824 153.124 790.231 502.385
728 0 63.1021 14.0249 885 162.393 788.652 500.706
729 0 65.0521 14.0195 912 160.818 787.69 499.713
730 0 69.2055 14.4786 1002 158.297 787.178 497.925
731 0 71.1038 13.853 985 159.101 788.232 497.209
732 0 75.1918 13.7914 1037 159.248 788.136 496.282
733 0 77.1152 13.9013 1072 163.176 788.752 494.376
734 0 78.0748 14.3452 1120 158.573 788.413 493.211
735 0 81.1282 14.1258 1146 164.866 788.862 491.895
736 0 86.1247 14.1539 1219 155.987 788.594 489.905
737 0 89.1922 13.8129 1232 163.439 790.062 489.272
738 0 91.1401 14.0224 1278 155.96 792.21 487.128
739 1 46.0243 12.8193 590 167.136 790.488 509.305
740 0 48.0631 13.0454 627 162.856 789.185 508.502
741 0 50.0262 13.1331 657 162.912 788.148 507.636
742 0 51.0741 12.942 661 158.188 789.454 507.194
743 0 53.0366 13.3493 708 152.506 788.856 506.264
744 0 54.0292 13.4187 725 162.252 789.055 505.066
745 0 57.1573 13.2966 760 159.567 789.304 504.257
746 0 59.031 13.2642 783 161.847 790.126 503.215
747 0 59.0518 13.92 822 157.043 789.404 502.781
748 0 61.0388 13.8437 845 159.497 790.411 501.649
749 0 65.1067 13.5931 885 156.722 789.845 501.128
750 0 66.1298 13.9876 925 153.984 790.561 500
751 0 69.1722 13.7772 953 156.782 790.935 498.331
752 0 70.0795 14.2695 1000 161.243 791.216 497.143
753 0 73.1092 13.8286 1011 155.984 791.692 495.954
754 0 76.1303 13.7002 1043 157.253 789.918 494.499
755 0 80.1414 14.0626 1127 158.759 790.324 492.799
756 0 82.1633 13.8748 1140 158.978 790.633 491.768
757 0 86.242 13.6129 1174 161.751 791.182 490.43
758 0 87.2331 13.6989 1195 164.91 790.678 489.121
759 0 91.2262 13.3624 1219 167.911 789.734 487.88
760 1 50.0355 13.1906 660 173.718 790.345 506.624
761 0 50.0355 13.1906 660 181.794 791.345 506.624
762 0 52.0181 13.9182 724 170.804 791.62 504.798
763 0 55.1663 13.5771 749 166.425 792.13 503.658
764 0 56.1576 13.9785 785 172.921 790.107 502.466
765 0 59.1004 13.9762 826 159.311 789.841 501.36
766 0 59.1397 14.3051 846 170.45 789.056 500.268
767 0 61.2104 14.3603 879 167.917 788.098 499.613
768 0 64.3247 14.3802 925 164.909 788.857 498.484
769 0 67.2363 14.3524 965 165.423 789.749 497.306
770 0 68.3196 14.359 981 166.596 788.401 496.568
771 0 71.2739 14.4793 1032 169.575 788.593 495.044
772 0 74.2326 14.4546 1073 165.477 789.582 493.378
773 0 75.3335 14.5088 1093 162.283 787.903 492.567
774 0 78.2842 14.805 1159 159.665 789.258 491.043
775 0 81.3818 14.6839 1195 164.485 788.905 490.051
776 0 83.1535 14.5514 1210 171.063 788.908 488.447
777 0 87.2681 14.4153 1258 163.134 790.198 486.905
778 0 91.2285 14.5459 1327 164.991 789.005 485.17
779 0 93.3795 14.4786 1352 170.524 789.643 483.668
780 0 99.375 14.2491 1416 168.179 789.345 481.752
781 0 102.408 14.2567 1460 169.378 789.785 480.321
782 1 52.2579 13.663 714 159.518 789.859 503.923
783 0 53.3636 13.661 729 173.905 789.359 503.427
784 0 53.5009 14.0932 754 175.741 788.912 502.533
785 0 56.2794 14.0016 788 174.579 789.166 501.783
786 0 60.3125 13.8943 838 173.695 790.428 500.643
787 0 62.4525 14.2188 888 174.838 790.543 498.613
788 0 65.3161 13.9016 908 164.579 790.5 497.528
789 0 68.2818 13.9715 954 166.287 790.595 496.322
790 0 70.5985 14.1079 996 170.206 790.836 495.159
791 0 73.376 14.0509 1031 174.056 791.259 494.179
792 0 77.3339 13.862 1072 174.738 788.304 493.206
793 0 80.5779 13.639 1099 168.18 789.279 490.985
794 0 83.3574 13.844 1154 171.289 789.924 489.969
795 0 86.3271 13.7037 1183 136.352 788.872 489.361
796 0 88.3656 13.9873 1236 166.262 787.78 488.906
797 0 92.4465 13.9757 1292 169.549 787.717 487.283
798 0 96.2579 13.7235 1321 169.421 789.075 485.783
799 1 49.1278 13.0069 639 168.086 788.649 508.706
800 0 50.1137 13.3297 668 170.352 788.602 507.341
801 0 52.2152 13.3294 696 170.422 788.657 506.678
802 0 54.2265 13.3145 722 163.535 790.639 505.632
803 0 55.2658 13.7517 760 165.409 789.999 504.432
804 0 58.4948 13.3174 779 165.852 789.467 503.845
805 0 60.4467 13.4995 816 167.591 791.169 502.719
806 0 60.3145 14.1591 854 169.069 790.557 501.635
807 0 63.2859 13.921 881 167.454 790.79 501.473
808 0 65.2817 14.2153 928 164.456 789.355 500.484
809 0 67.2691 13.944 938 171.355 790.086 499.461
810 0 67.2963 14.3099 963 168.75 790.057 499.003
811 0 71.4645 13.951 997 171.793 788.923 498.406
812 0 73.3231 14.2929 1048 170.17 790.545 497.146
813 0 77.4705 13.8892 1076 162.853 790.251 496.266
814 0 78.3903 14.1854 1112 160.346 790.124 494.903
815 0 81.4669 13.8829 1131 169.448 790.839 493.436
816 0 84.4345 14.2359 1202 168.339 791.601 492.709
817 0 87.4289 13.8741 1213 169.549 791.63 491.487
818 0 90.3211 13.8506 1251 169.811 792.272 490.265
819 0 94.4301 13.5762 1282 167.062 791.608 488.697
820 0 97.3673 13.9061 1354 156.641 792.09 487.128
821 1 50.1966 12.969 651 173.601 790.613 509.399
822 0 51.2056 13.436 688 170.378 790.634 508.663
823 0 53.0899 13.4865 716 172.784 790.318 507.654
824 0 55.2621 13.445 743 166.19 791.545 506.672
825 0 57.2272 13.3328 763 168.142 789.696 505.603
826 0 59.2771 13.6815 811 168.127 791.924 504.963
827 0 59.2911 13.7289 814 172.496 791.249 504.052
828 0 62.1023 13.7032 851 167.608 791.835 503.617
829 0 63.168 14.0894 890 166.252 792.831 502.106
830 0 65.3182 14.3145 935 168.945 791.595 501.697
831 0 68.1765 13.9491 951 169.912 791.379 500.502
832 0 69.5095 14.4441 1004 171.099 791.616 499.156
833 0 72.129 14.4741 1044 170.494 793.644 497.684
834 0 74.311 14.5604 1082 169.031 793.488 496.627
835 0 76.2951 14.4701 1104 167.936 793.208 495.132
836 0 78.189 14.4266 1128 163.41 792.957 493.909
837 0 81.1828 14.375 1167 165.53 792.745 492.495
838 0 85.1819 14.5454 1239 168.191 793.218 490.851
839 0 87.1578 14.5713 1270 160.635 791.973 489.253
840 0 91.1426 14.2634 1300 165.652 792.486 487.778
841 0 93.2156 14.6971 1370 158.161 791.447 485.839
842 0 95.1325 14.8319 1411 170.181 791.902 484.75
843 0 99.1016 14.7929 1466 163.233 789.962 483.131
844 0 101.177 14.697 1487 166.162 791.258 481.378
845 0 106.47 14.8586 1582 164.886 790.877 479.464
846 0 108.277 14.8878 1612 162.935 790.483 477.651
847 0 112.244 15.0298 1687 155.52 791.412 476.334
848 0 115.327 14.9922 1729 162.415 791.482 474.418
849 0 120.124 14.8929 1789 166.205 791.656 472.13
850 0 124.245 14.8014 1839 164.713 792.289 470.04
851 0 127.319 15.0489 1916 163.133 791.416 468.121
852 0 132.303 14.9354 1976 163.742 790.575 465.884
853 0 137.271 14.9121 2047 164.962 791.812 463.616
854 0 141.157 15.1746 2142 168.536 790.602 460.644
855 0 147.228 15.0379 2214 163.841 793.531 457.748
856 0 152.336 15.0457 2292 165.447 791.126 455.613
857 0 157.173 14.8435 2333 167.336 791.631 453.829
858 0 164.343 14.7131 2418 159.41 791.307 450.904
859 1 129.15 13.7438 1775 171.747 790.906 467.344
860 0 133.281 13.9855 1864 166.883 790.256 465.149
861 0 136.161 13.9393 1898 169.454 790.787 462.854
862 0 142.286 14.1827 2018 169.466 792.617 459.927
863 0 147.301 14.0529 2070 166.764 791.511 456.932
864 0 152.458 14.0039 2135 169.679 792.691 453.993
865 0 155.606 14.2539 2218 165.385 791.524 451.261
866 1 54.2563 10.6163 576 145.934 791.342 505.663
867 0 55.2602 11.1111 614 146.013 790.383 505.147
868 0 56.1223 11.8135 663 146.29 790.143 504.287
869 0 57.3427 11.3528 651 143.204 790.67 504.644
870 0 59.1842 11.2868 668 148.855 790.904 504.114
871 0 62.2161 11.5083 716 147.275 791.722 502.423
872 0 61.1657 11.9675 732 134.952 790.904 500.796
873 0 64.1969 11.6672 749 148.498 792.218 500.239
874 0 66.185 11.8909 787 146.799 792.584 499.169
875 0 68.1493 12.1645 829 152.379 792.958 498.111
876 0 68.301 12.6206 862 148.65 790.469 496.659
877 0 70.1215 12.407 870 144.03 790.829 496.309
878 0 71.339 12.3775 883 145.601 790.25 495.502
879 0 74.1746 12.4436 923 147.653 790.19 494.648
880 0 77.3457 12.5799 973 142.985 790.567 492.485
881 0 77.348 12.8122 991 144.148 791.646 491.918
882 0 81.3226 12.8132 1042 141.853 791.295 490.231
883 0 82.22 12.8558 1057 140.029 791.397 489.034
884 0 82.3289 12.8266 1056 141.828 791.135 488.955
885 0 84.2306 13.0713 1101 142.337 790.476 487.961
886 0 87.2993 13.1273 1146 141.156 789.668 487.354
887 0 89.3092 12.9662 1158 143.429 790.916 486.577
888 0 91.364 13.4626 1230 145.608 792.187 484.724
889 0 91.2693 13.3889 1222 143.816 790.872 484.707
890 0 95.239 13.3874 1275 145.952 789.823 483.229
891 0 96.3561 13.4709 1298 147.495 791.815 483.04
892 0 97.2438 13.5947 1322 144.411 791.992 482.344
893 0 97.2552 13.3669 1300 148.849 790.178 482.149
894 0 100.391 13.4076 1346 144.819 790.175 481.117
895 0 102.357 13.4432 1376 149.456 790.548 480.093
896 0 103.371 13.5047 1396 148.989 790.84 479.105
897 0 104.273 13.8291 1442 142.261 790.318 477.501
898 0 105.273 13.7737 1450 141.806 790.668 476.587
899 0 108.393 13.6264 1477 141.484 790.841 476.108
900 0 108.393 13.6264 1477 149.968 791.841 476.108
901 0 113.415 13.3844 1518 143.505 791.877 474.4
902 0 114.189 13.8542 1582 137.361 791.432 473.332
903 0 117.453 13.7587 1616 134.688 791.482 472.452
904 0 117.452 14.0313 1648 141.334 792.225 471.223
905 0 120.455 14.0633 1694 143.103 791.372 469.482
906 0 121.381 14.8046 1797 156.326 792.323 469.811
907 0 126.417 14.7685 1867 147.548 790.399 467.653
908 0 127.326 14.9538 1904 142.745 790.788 467.112
909 0 128.381 14.8697 1909 148.31 790.433 466.819
910 0 130.432 14.797 1930 151.205 790.358 465.885
911 0 130.463 15.0005 1957 148.972 792.226 465.535
912 0 133.561 14.8397 1982 153.208 790.99 463.647
913 0 136.395 14.8979 2032 142.387 791.686 463.597
914 0 136.349 15.101 2059 147.081 790.786 461.678
915 0 139.365 14.6091 2036 148.13 792.028 461.267
916 0 140.315 14.7382 2068 150.189 792.836 460.02
917 0 141.273 14.8932 2104 150.788 791.813 459.481
918 0 142.332 14.4029 2050 149.109 791.024 459.061
919 0 143.302 14.9753 2146 140.095 792.894 458.312
920 0 145.465 15.172 2207 150.628 792.144 458.697
921 0 147.508 16.0805 2372 146.205 791.12 454.26
922 0 148.348 14.6614 2175 154.056 791.403 456.267
923 0 148.369 14.929 2215 146.928 789.794 455.243
924 0 152.518 14.8835 2270 151.422 790.877 454.775
925 0 152.284 14.775 2250 149.464 791.185 454.279
926 0 153.241 14.8785 2280 154.407 790.664 452.99
927 0 153.33 15.209 2332 154.482 790.059 453.357
928 0 157.428 15.1879 2391 155.365 791.665 452.225
929 0 157.383 15.7387 2477 157.324 789.744 451.099
930 0 156.214 15.9589 2493 152.899 790.306 450.551
931 0 159.182 15.8121 2517 152.933 790.963 450.366
932 0 160.401 16.0348 2572 153.316 791.147 449.901
933 0 160.244 16.2127 2598 158.408 790.894 448.574
934 0 160.359 16.2947 2613 158.886 790.284 448.425
935 0 160.322 16.3297 2618 157.461 790.142 448.307
936 0 161.235 16.4976 2660 153.476 789.962 447.789
937 0 161.343 16.5981 2678 163.885 790.686 447.735
938 0 162.264 16.3931 2660 162.112 788.971 447.011
939 0 162.285 16.736 2716 165.163 789.714 446.484
940 0 163.383 16.3848 2677 160.965 791.3 446.207
941 0 162.312 16.61 2696 160.432 790.419 445.933
942 0 168.282 17.5836 2959 161.119 791.083 444.208
943 0 167.327 18.6999 3129 149.017 791.167 440.639
944 0 168.278 18.3506 3088 150.444 790.926 441.117
945 0 167.169 17.7006 2959 152.755 790.195 441.964
946 0 168.437 17.1934 2896 159.614 791.551 442.118
947 0 165.15 16.9059 2792 155.45 789.982 443.251
948 0 166.194 17.3592 2885 163.195 789.267 442.475
949 0 169.343 16.9596 2872 159.171 790.767 442.08
950 0 169.141 17.1277 2897 163.992 790.477 442.032
951 0 171.149 17.1488 2935 157.878 790.104 441.359
952 0 166.244 17.5886 2924 156.67 791.36 440.504
953 0 165.261 17.4814 2889 160.256 790.883 439.784
954 0 164.299 17.5168 2878 156.141 790.696 439.606
955 0 165.386 17.571 2906 159.113 792.34 439.813
956 0 164.297 17.304 2843 158.468 789.676 438.852
957 0 167.258 17.9603 3004 154.019 791.317 438.14
958 0 167.261 17.6789 2957 153.915 790.521 438.801
959 0 163.264 18.7242 3057 154.522 790.781 435.687
960 0 163.347 18.3475 2997 145.927 791.395 435.875
961 0 156.206 18.2068 2844 150.536 793.799 436.099
962 0 157.341 18.0373 2838 149.063 790.454 436.752
963 0 149.159 16.6936 2490 163.586 791.277 440.613
964 0 148.468 16.6972 2479 161.612 791.424 440.319
965 0 145.167 16.9116 2455 166.475 789.962 439.562
966 0 141.197 16.8701 2382 163.981 791.436 439.248
967 0 133.199 16.8169 2240 168.1 790.782 439.06
968 0 132.183 16.9387 2239 170.682 790.597 438.925
969 0 130.272 17.2485 2247 168.962 789.246 438.189
970 0 134.295 17.0892 2295 164.523 789.953 437.715
971 0 164.247 17.358 2851 155.568 792.318 436.881
972 0 143.218 15.6474 2241 164.09 790.017 438.349
973 0 145.405 15.5978 2268 162.455 790.709 438.022
974 0 140.363 15.5098 2177 168.144 790.079 437.46
975 0 158.441 15.886 2517 157.77 791.006 440.08
976 0 154.567 15.3073 2366 163.855 790.05 440.364
977 0 148.588 15.2502 2266 163.452 790.82 439.492
978 0 160.447 15.6999 2519 165.613 790.574 440.67
979 0 159.514 15.5221 2476 159.788 790.441 440.998
980 0 162.922 15.6578 2551 163.998 790.359 441.659
981 0 156.085 15.0495 2349 157.756 791.03 441.097
982 0 161.7 15.4731 2502 162.885 789.685 441.098
983 0 171.877 16.1278 2772 160.289 792.087 441.909
984 0 171.953 15.7252 2704 159.282 790.869 443.171
985 0 169.747 16.0062 2717 161.539 789.401 442.821
986 0 171.808 15.9364 2738 164.72 790.135 443.692
987 0 171.676 15.7739 2708 156.494 790.146 442.221
988 0 170.675 15.5325 2651 159.447 789.254 443.307
989 0 170.662 15.6684 2674 160.335 790.371 442.734
990 0 170.703 15.401 2629 165.606 789.564 442.439
991 0 168.567 15.4419 2603 168.617 789.708 443.634
992 0 169.653 15.5494 2638 167.668 789.105 443.483
993 0 170.474 15.7209 2680 161.762 793.059 442.221
994 0 169.492 15.5347 2633 163.515 791.078 442.572
995 0 169.593 15.1067 2562 160.679 789.561 442.824
996 0 169.507 15.7633 2672 158.763 790.365 442.053
997 0 168.577 15.9156 2683 156.009 790.507 442.309
998 0 168.581 15.2271 2567 158.892 790.61 442.483
999 0 168.421 15.675 2640 163.534 789.989 442.822
1000 0 167.654 15.6274 2620 154.809 791.089 442.409
1001 0 168.567 15.8038 2664 160.782 789.528 442.282
1002 0 166.419 15.6052 2597 161.263 788.011 442.346
1003 0 168.67 15.8298 2670 163.676 788.79 441.824
1004 0 166.446 15.6867 2611 161.749 789.128 442.826
1005 0 165.77 15.3104 2538 162.915 790.022 442.732
1006 0 165.401 15.1995 2514 164.708 788.546 442.975
1007 0 166.578 14.972 2494 163.331 790.476 442.888
1008 0 166.498 15.1593 2524 165.502 789.97 442.342
1009 0 166.511 15.3503 2556 163.18 789.815 441.257
1010 0 168.568 15.2758 2575 161.739 791.407 442.02
1011 0 166.612 15.0649 2510 156.314 791.07 441.257
1012 0 157.523 14.0107 2207 173.738 789.894 447.556
1013 1 167.407 16.0148 2681 152.091 789.752 440.43
1014 0 169.593 15.7023 2663 159.588 789.278 441.372
1015 0 168.538 15.3022 2579 154.812 788.982 442.177
1016 0 167.657 15.4542 2591 156.545 790.195 441.224
1017 0 165.593 15.2784 2530 163.031 790.386 442.553
1018 0 164.604 14.6108 2405 157.889 789.352 442.944
1019 0 165.451 15.0558 2491 158.263 789.894 442.855
1020 0 156.402 14.3604 2246 167.557 790.089 447.197
1021 0 156.46 14.0547 2199 165.637 790.506 448.18
1022 1 167.536 14.9222 2500 159.794 791.166 442.699
1023 0 157.37 14.1959 2234 164.879 788.952 447.854
1024 0 167.61 15.2079 2549 157.168 791.06 442.814
1025 0 167.372 15.6657 2622 153.658 788.695 441.911
1026 0 168.387 17.3588 2923 142.034 789.899 438.483
1027 1 157.78 14.0132 2211 157.093 787.85 448.283
1028 0 155.629 14.2519 2218 165.164 789.259 448.298
1029 0 154.479 14.345 2216 164.217 790.078 449.102
1030 0 154.479 14.345 2216 178.69 791.078 449.102
1031 0 155.517 14.1528 2201 158.407 791.005 448.324
1032 0 155.346 14.2456 2213 160.385 790.956 448.6
1033 0 154.567 14.0586 2173 155.891 791.115 449.108
1034 0 153.425 13.9613 2142 159.873 790.926 448.602
1035 0 154.57 14.2718 2206 151.983 790.16 448.864
1036 0 154.704 14.0849 2179 154.115 790.79 448.609
1037 0 153.545 14.2238 2184 156.563 791.407 448.322
1038 0 154.47 14.2876 2207 151.125 790.706 449.111
1039 0 154.625 14.2603 2205 156.739 788.429 449.08
1040 0 156.372 14.2865 2234 156.718 788.703 448.312
1041 0 166.751 14.8605 2478 141.786 789.202 444.207
1042 0 155.508 13.98 2174 151.212 790.099 449.324
1043 0 164.523 14.8125 2437 147.311 788.306 445.185
1044 0 164.471 14.9752 2463 141.272 788.823 445.131
1045 0 155.694 14.4707 2253 143.776 788.23 449.096
1046 0 164.578 14.8379 2442 136.651 787.493 445.824
1047 0 164.547 14.938 2458 140.446 787.779 445.314
1048 0 164.598 14.7207 2423 139.979 788.47 446.028
1049 0 165.71 14.9297 2474 142.561 788.191 446.093
1050 0 165.689 14.666 2430 142.393 788.405 447.73
1051 0 164.47 14.6775 2414 140.263 787.245 448.589
1052 1 153.508 14.3967 2210 137.657 787.305 453.108
1053 0 156.309 14.0875 2202 141.039 789.084 455.639
1054 0 154.44 14.3097 2210 141.388 789.753 455.501
1055 0 153.419 14.1443 2170 145.406 790.654 456.647
1056 0 154.403 14.2549 2201 138.355 793.1 456.114
1057 0 164.355 14.5539 2392 138.558 792.796 452.957
1058 0 153.411 14.4579 2218 139.239 791.899 455.942
1059 0 153.338 14.08 2159 142.53 790.606 456.206
1060 0 154.419 14.4477 2231 136.844 790.528 456.166
1061 0 162.484 14.8138 2407 135.428 790.901 453.391
1062 0 152.576 14.1765 2163 141.901 791.529 457.285
1063 0 152.739 14.2727 2180 137.606 792.622 456.815
1064 0 160.37 14.9217 2393 130.355 792.271 452.748
1065 0 152.777 14.099 2154 135.149 789.682 458.038
1066 0 161.428 14.793 2388 134.263 791.177 453.71
1067 0 161.366 14.6314 2361 131.003 790.043 454.511
1068 0 161.251 14.2759 2302 132.049 789.406 454.64
1069 0 159.58 14.4066 2299 130.694 789.363 454.906
1070 0 160.521 13.9484 2239 124.11 790.439 454.973
1071 0 156.512 13.5708 2124 123.411 790.576 455.804
1072 0 151.34 13.8364 2094 123.153 790.878 456.855
1073 0 155.549 13.5199 2103 125.993 789.839 455.605
1074 0 150.504 13.8136 2079 124.232 790.174 456.673
