index division length width area intensity CMx CMy
0 0 60.0272 15.393 924 173.505 223.965 279.393
1 0 62.0943 15.2993 950 174.253 223.934 279.294
2 0 63.1293 15.8563 1001 178.667 224.826 279.908
3 0 66.1767 15.5342 1028 171.808 225.393 281.578
4 0 68.2157 15.6416 1067 170.218 225.884 280.11
5 0 71.1318 15.4643 1100 174.235 227.799 281.4
6 0 74.0665 15.3106 1134 173.797 227.384 282.871
7 0 76.1901 15.5138 1182 171.949 227.025 283.676
8 0 77.1285 16.0641 1239 175.496 226.21 284.962
9 0 81.0543 15.8906 1288 168.634 226.214 285.516
10 0 83.23 15.6554 1303 167.893 226.89 286.555
11 0 86.1039 15.7368 1355 175.272 226.604 286.983
12 0 87.1456 15.9159 1387 174.472 226.109 288.309
13 0 91.2527 15.8461 1446 176.53 225.983 288.722
14 0 93.1016 16.0255 1492 173.385 225.528 289.098
15 0 96.1275 15.6875 1508 164.536 222.949 289.235
16 0 98.1597 16.8501 1654 168.206 222.827 289.03
17 0 102.396 17.2272 1764 165.779 222.046 288.964
18 0 104.328 16.9369 1767 171.114 221.563 288.49
19 0 109.47 16.8265 1842 167.557 221.34 288.483
20 0 112.146 16.8441 1889 163.437 220.281 288.34
21 0 117.247 17.058 2000 169.943 219.207 287.864
22 0 122.304 17.0641 2087 164.477 220.224 286.642
23 0 128.27 16.7693 2151 166.134 218.545 284.94
24 0 133.281 16.5966 2212 160.803 217.507 283.05
25 1 70.1094 14.3347 1005 175.635 219.127 316.745
26 0 74.0525 14.7058 1089 179.173 220.399 316.189
27 0 77.1965 14.5602 1124 177.739 220.988 316.269
28 0 79.1276 14.761 1168 175.699 221.253 315.99
29 0 83.1961 14.6882 1222 178.807 219.922 315.651
30 0 87.0498 14.7961 1288 176.095 222.122 314.151
31 0 88.0611 14.7625 1300 178.488 219.841 313.402
32 0 92.1308 15.1632 1397 176.792 222.127 312.247
33 0 95.065 15.1896 1444 171.693 222.664 310.219
34 0 100.101 14.9748 1499 169.543 223 308.771
35 0 103.081 15.3666 1584 174.787 223.08 307.734
36 0 106.146 15.1772 1611 171.61 222.928 306.801
37 0 112.151 15.381 1725 173.76 223.374 306.132
38 0 117.185 15.258 1788 173.845 223.312 306.716
39 0 122.109 15.1176 1846 172.285 222.38 306.908
40 1 64.0242 13.8541 887 177.729 223.591 337.734
41 0 65.1192 14.3276 933 176.128 225.714 339.305
42 0 69.0244 14.1544 977 171.509 225.962 341.967
43 0 71.0697 14.5069 1031 175.854 227.465 343.262
44 0 74.0369 14.5063 1074 175.762 226.408 345.106
45 0 77.0847 14.5295 1120 176.937 225.481 346.871
46 0 81.1996 14.0641 1142 168.197 226.789 349.338
47 0 82.0791 14.4007 1182 174.245 224.998 351.608
48 0 85.1593 14.514 1236 170.388 226.748 353.927
49 0 90.2816 14.3662 1297 178.777 226.826 356.128
50 0 94.2509 14.4508 1362 174.71 226.667 358.933
51 0 97.2966 14.3273 1394 171.295 227.091 362.327
52 0 102.321 14.3469 1468 168.288 225.773 364.458
53 0 105.275 14.4289 1519 170.378 225.476 367.487
54 1 57.1691 13.119 750 166.833 225.389 396.76
55 0 57.192 13.4984 772 165.442 224.175 400.141
56 0 61.1086 13.5987 831 171.002 224.64 403.174
57 0 61.1528 13.8178 845 171.775 224.166 407.516
58 0 66.2845 13.4571 892 170.452 223.313 411.135
59 0 68.1591 13.6152 928 165.85 222.361 415.045
60 0 71.2165 13.9715 995 169.836 221.317 419.101
61 0 73.2136 13.7816 1009 166.976 223.701 423.686
62 0 75.3775 14.0228 1057 175.481 224.34 427.58
63 0 77.1681 14.2157 1097 168.43 223.301 432.058
64 0 82.258 13.9439 1147 172.157 223.412 436.583
65 0 84.1287 14.0856 1185 168.671 223.764 441.039
66 0 87.0799 14.1709 1234 173.408 223.111 444.441
67 0 90.2449 14.1725 1279 173.209 223.623 449.167
68 0 93.2264 14.1162 1316 173.309 222.972 452.206
69 0 97.286 14.2364 1385 169.534 223.283 455.668
70 0 99.2011 14.4958 1438 170.393 222.937 459.962
71 0 104.317 13.8904 1449 171.949 221.383 464.231
72 0 108.387 14.0054 1518 170.586 223.545 468.579
73 0 111.261 13.7515 1530 165.129 223.38 472.608
74 0 113.125 13.7724 1558 168.251 224.431 471.815
75 0 117.236 14.0913 1652 168.743 224.071 469.099
76 1 63.1325 12.4025 783 165.544 223.981 495.997
77 0 66.4492 12.6262 839 166.987 223.765 495.901
78 0 68.3604 12.7705 873 165.157 224.309 494.552
79 0 71.3581 12.5424 895 165.21 223.615 492.982
80 0 73.1468 12.7688 934 166.248 224.335 491.756
81 0 75.2346 12.4677 938 166.623 223.964 490.846
82 0 78.24 12.7684 999 165.579 225.166 489.365
83 0 79.4223 12.9309 1027 170.937 225.628 488.42
84 0 84.1718 12.5458 1056 164.592 226.474 486.609
85 0 87.2901 12.4184 1084 43.5461 225.453 485.427
86 0 87.3109 12.8735 1124 158.902 224.88 483.739
87 0 92.2423 12.8574 1186 170.009 223.82 482.606
88 0 96.3297 12.914 1244 164.326 224.117 480.319
89 0 99.1614 12.9486 1284 154.632 225.06 479.033
90 0 102.083 13.2148 1349 164.457 224.955 478.121
91 0 106.228 12.972 1378 166.766 226.8 476.523
92 1 56.0746 12.2337 686 162.016 225.618 500.95
93 0 59.0865 12.3886 732 158.889 227.026 499.792
94 0 61.0385 12.0088 733 162.286 226.894 499.866
95 0 63.1653 12.0003 758 162.298 226.095 498.726
96 0 66.0981 12.4209 821 163.029 226.949 497.285
97 0 68.142 12.2245 833 159.538 226.702 496.559
98 0 71.0799 12.4086 882 157.902 224.722 495.003
99 0 73.1812 12.6672 927 151.509 224.467 493.818
100 0 76.1341 12.4648 949 160.436 224.965 492.731
101 0 76.1093 12.7448 970 158.204 224.635 491.575
102 0 80.1354 12.2043 978 162.149 224.349 490.572
103 0 83.1648 12.3249 1025 163.31 224.314 489.012
104 0 87.3964 12.3575 1080 160.712 224.818 487.301
105 1 45.1451 10.9868 496 159.595 225.155 508.196
106 0 45.0359 11.4131 514 158.167 224.416 507.265
107 0 48.0939 11.9766 576 155.269 223.917 506.024
108 0 48.0893 12.3312 593 161.487 225.958 504.752
109 0 50.0734 12.262 614 159.013 225.098 504.375
110 0 51.0984 12.2509 626 161.166 225.653 503.47
111 0 54.1148 12.3072 666 163.778 224.3 501.98
112 0 56.07 12.3952 695 154.114 224.754 501.265
113 0 56.0166 12.8712 721 160.202 224.301 500.298
114 0 56.112 12.9028 724 166.372 225.568 499.797
115 0 57.1114 12.782 730 161.815 224.874 498.877
116 0 61.1115 12.8454 785 157.697 225.25 497.634
117 0 63.1108 12.8187 809 149.933 224.998 496.544
118 0 65.0352 12.9776 844 160.649 225.383 495.197
119 0 67.1092 12.7702 857 160.751 225.607 494.026
120 0 66.0637 13.8957 918 159.752 226.285 493.1
121 0 70.0806 13.3703 937 159.288 226.649 492.094
122 0 73.0173 13.3941 978 157.377 226.708 490.865
123 0 75.1358 13.5089 1015 161.508 227.243 489.843
124 0 78.188 13.378 1046 168.632 225.06 488.416
125 0 81.0341 13.303 1078 162.494 224.528 487.041
126 0 83.1119 13.4878 1121 164.669 224.911 486.149
127 0 87.185 13.4312 1171 171.535 226.587 485.079
128 0 89.2559 13.7582 1228 169.888 226.362 483.369
129 0 93.1577 13.6865 1275 165.74 226.859 482.082
130 0 96.3884 13.6012 1311 164.58 227.523 480.856
131 1 49.1113 12.4615 612 167.286 228.176 504.07
132 0 49.0867 12.7326 625 167.194 226.248 503.616
133 0 49.0889 12.732 625 169.894 227.438 502.813
134 0 52.117 12.9324 674 161.169 227.096 501.804
135 0 53.1108 13.1235 697 164.161 226.953 501.086
136 0 56.1317 13.1298 737 169.541 227.06 499.668
137 0 57.0711 13.1065 748 167.131 225.934 499.672
138 0 60.1672 12.6148 759 169.366 226.078 499.083
139 0 59.0943 13.3177 787 158.315 226.297 498.97
140 0 61.1151 13.6627 835 162.586 224.649 496.949
141 0 66.0605 12.7913 845 163.644 224.067 496.222
142 0 67.1222 13.0806 878 163.92 226.916 495.141
143 0 69.1594 13.2303 915 165.54 225.835 494.17
144 0 73.1374 12.8252 938 163.926 226.991 492.367
145 1 46.1166 12.3166 568 147.896 227.028 504.731
146 0 47.1935 12.417 586 145.396 225.619 503.915
147 0 48.0615 12.7337 612 146.704 226.036 503.922
148 0 50.1227 12.4095 622 145.944 225.006 503.367
149 0 50.1003 12.7145 637 146.686 224.148 503.317
150 0 52.11 12.819 668 148.364 224.838 502.331
151 0 53.0584 13.2119 701 145.977 224.957 502.251
152 0 56.0987 12.9415 726 147.993 225.468 501.205
153 0 59.2265 12.5957 746 144.889 224.985 499.72
154 0 59.226 12.8322 760 142.249 224.975 499.083
155 0 62.1113 13.025 809 146.823 225.147 497.602
156 0 65.079 12.5847 819 144.98 224.667 497.609
157 0 67.1094 12.8596 863 148.783 225.504 496.247
158 0 70.1132 12.7793 896 144.598 226.39 495.268
159 0 72.1771 12.9127 932 144.119 225.871 493.005
160 0 74.1367 12.6658 939 152.051 226.158 492.485
161 1 37.064 11.9793 444 150.009 224.077 509.628
162 0 39.0963 12.1495 475 151.145 225.543 509.339
163 0 41.1037 12.6266 519 149.622 226.027 509.069
164 0 41.1983 12.986 535 152.002 224.729 509
165 0 44.0826 13.0891 577 155.842 225.903 508.584
166 0 45.1485 12.8022 578 157.071 225.696 508.067
167 0 46.1142 13.0545 602 158.259 226.203 507.449
168 0 47.1522 13.7215 647 162.978 225.934 506.255
169 0 49.2255 13.1842 649 157.81 226.414 506.254
170 0 52.3924 13.3035 697 153.085 224.62 504.317
171 0 52.3228 13.6652 715 154.973 225.371 504.636
172 0 55.3041 13.4891 746 158.475 224.806 503.312
173 0 54.1536 14.2188 770 161.149 223.778 502.63
174 0 56.2393 14.4383 812 156.994 226.011 502.128
175 0 58.2356 13.9605 813 152.465 224.994 501.15
176 0 62.3899 13.608 849 165.723 223.473 500.458
177 0 64.3781 13.8557 892 156.478 225.72 498.216
178 0 64.3206 14.4899 932 165.4 224.901 497.683
179 0 68.451 14.01 959 169.602 225.65 496.48
180 0 70.5201 14.0244 989 163.376 226.733 495.252
181 0 73.3604 14.3811 1055 163.949 225.405 493.443
182 0 76.5305 14.3472 1098 170.658 227.219 492.528
183 0 80.3724 13.8978 1117 165.78 225.655 490.526
184 0 82.2757 14.0139 1153 166.347 227.372 488.764
185 0 85.329 13.7585 1174 167.327 225.446 487.597
186 1 45.3335 13.522 613 167.976 223.99 505.773
187 0 45.3397 13.7407 623 174.965 225.701 505.461
188 0 47.3116 13.6753 647 174.901 225.456 504.269
189 0 49.3349 13.5401 668 168.034 225.052 503.102
190 0 50.4459 13.8763 700 172.257 226.064 502.341
191 0 53.2588 13.6315 726 167.278 226.628 501.361
192 0 55.3476 13.4785 746 170.076 225.361 500.515
193 0 54.5722 14.0548 767 169.9 225.583 499.974
194 0 56.3416 13.7731 776 174.018 226.919 499.714
195 0 59.6507 13.7299 819 165.607 226.951 499.04
196 0 61.3147 13.6998 840 170.839 226.875 497.639
197 0 62.4812 13.8922 868 164.75 226.994 496.85
198 0 64.3435 14.034 903 165.695 225.928 495.424
199 0 67.3544 13.5997 916 167.609 226.103 494.193
200 0 69.463 13.8635 963 166.652 225.539 493.078
201 0 70.4329 13.9423 982 171.627 226.64 492.052
202 0 74.5377 13.9795 1042 168.711 226.07 490.497
203 0 74.3267 14.1806 1054 159.584 226.167 489.25
204 0 80.3725 13.7734 1107 169.288 226.627 486.584
205 0 83.3624 13.5313 1128 167.157 227.746 485.155
206 0 86.2996 13.7544 1187 167.657 226.297 483.828
207 1 45.214 12.474 564 169.137 225.273 502.982
208 0 47.0945 12.6979 598 171.508 226.363 502.099
209 0 49.1544 12.9185 635 169.107 226.975 501.306
210 0 49.2563 13.176 649 166.733 226.664 500.499
211 0 51.2434 13.1334 673 159.618 227.278 499.918
212 0 54.3602 13.2634 721 166.347 228.108 498.258
213 0 55.1527 13.3629 737 168.501 226.22 497.718
214 0 57.2411 13.1724 754 162.797 224.448 496.162
215 0 58.0649 13.5366 786 164.735 226.562 495.674
216 0 61.1219 13.4158 820 166.145 226.845 494.135
217 0 61.1725 13.8297 846 165.557 225.955 493.743
218 0 65.0892 13.5045 879 166.622 225.225 492.578
219 0 67.1869 13.6783 919 160.701 226.934 491.646
220 0 67.1869 13.6783 919 173.141 228.934 491.646
221 0 71.0829 13.9696 993 165.179 225.824 489.339
222 0 73.0896 14.0649 1028 164.783 226.438 487.863
223 0 76.1283 13.8582 1055 167.202 225.628 487.132
224 0 78.0647 13.8987 1085 169.765 225.19 486.237
225 0 81.0553 13.8054 1119 160.657 227.043 484.408
226 0 84.0352 13.8275 1162 167.711 227.203 482.571
227 0 86.0802 13.7779 1186 168.176 226.289 481.354
228 0 89.0989 13.8722 1236 164.872 225.862 479.591
229 0 91.0778 13.8673 1263 166.006 227.378 478.714
230 0 93.1728 14.0599 1310 159.963 227.853 477.358
231 0 96.2319 14.0286 1350 168.553 226.878 476.629
232 0 99.0515 14.1744 1404 167.615 227.524 475.304
233 1 48.0133 12.6215 606 164.901 228.71 500.01
234 0 50.0445 12.5089 626 158.681 226.931 499.939
235 0 52.0348 12.8376 668 156.166 228.666 498.175
236 0 52.069 13.4053 698 159.791 229.506 497.682
237 0 56.0879 12.7122 713 158.372 227.947 497.146
238 0 57.0355 13.2023 753 159.805 228.263 495.608
239 0 60.0975 13.0954 787 157.719 228.292 494.668
240 0 61.0346 12.8943 787 162.755 227.379 494.607
241 0 63.0188 13.0279 821 153.97 227.431 492.497
242 0 65.0388 13.146 855 158.56 226.371 491.738
243 0 67.0464 13.4981 905 159.131 227.947 490.481
244 0 70.0384 13.1499 921 159.911 226.657 489.156
245 0 71.0703 13.564 964 158.088 228.08 487.844
246 0 75.0892 12.918 970 161.81 228.733 486.977
247 0 78.0649 13.2582 1035 156.013 229.206 484.986
248 0 81.1056 12.9214 1048 158.975 229.633 484.577
249 0 84.0396 13.0296 1095 160.492 226.918 482.374
250 1 45.0373 12.3009 554 152.872 227.812 500.619
251 0 48.0332 12.1583 584 152.385 227.445 500.384
252 0 50.0424 12.5693 629 154.3 226.148 499.917
253 0 51.0733 12.4723 637 157.95 227.915 498.813
254 0 52.0716 12.7325 663 160.03 227.002 498.039
255 0 54.0498 12.4145 671 164.948 228.79 497.478
256 0 56.047 12.7215 713 160.045 228.474 496.07
257 0 58.156 12.5868 732 165.007 228.615 495.456
258 0 60.0246 12.878 773 166.853 228.85 494.571
259 0 63.0412 12.8805 812 163.054 228.404 492.347
260 0 65.084 13.0139 847 160.935 227.599 491.405
261 0 65.0335 13.1932 858 157.474 227.479 490.104
262 0 68.1024 13.0098 886 155.207 229.473 489.375
263 0 70.1817 13.4935 947 163.605 228.138 488.062
264 0 74.1724 13.2125 980 154.947 227.719 487.005
265 0 76.0941 12.7605 971 157.126 226.094 485.69
266 0 79.1217 13.3844 1059 160.777 226.927 483.653
267 0 80.1988 13.0177 1044 161.608 226.947 483.294
268 0 85.1147 12.959 1103 164.552 228.104 481.665
269 0 87.1345 13.1291 1144 160.7 227.663 480.129
270 0 88.1334 13.2186 1165 153.767 228.096 478.074
271 1 48.0625 12.0468 579 153.024 228.164 498.839
272 0 51.0484 12.2433 625 147.437 227.771 497.81
273 0 53.0616 12.0049 637 152.92 227.843 497.496
274 0 55.0399 12.1185 667 149.025 227.69 496.427
275 0 56.0698 12.4844 700 143.899 228.45 494.911
276 0 57.0886 12.647 722 143.672 229.54 494.353
277 0 59.0384 12.3648 730 141.916 227.818 493.468
278 0 62.0388 12.5244 777 148.632 227.556 492.945
279 0 64.0868 12.2802 787 143.067 227.657 492.086
280 0 65.0289 12.8558 836 142.282 227.906 491.176
281 0 66.0563 12.671 837 149.533 226.859 490.836
282 0 70.0444 12.5206 877 142.059 227.106 489.41
283 0 71.0805 13.1963 938 145.095 228.102 488.138
284 0 73.1114 12.9939 950 147.697 229.232 488.312
285 0 76.1492 13.0796 996 147.358 228.692 486.535
286 0 78.0525 12.94 1010 145.62 228.119 485.714
287 0 81.1184 13.1906 1070 149.827 229.023 484.871
288 0 83.1088 13.368 1111 149.527 228.338 483.928
289 0 88.0754 13.1705 1160 144.175 226.792 482.208
290 0 92.1714 12.9867 1197 151.615 228.466 480.798
291 0 96.0878 12.8112 1231 148.105 226.377 479.262
292 1 50.0467 11.1496 558 151.914 228.367 501.507
293 0 52.1636 11.4064 595 149.724 228.953 500.425
294 0 52.0587 12.3514 643 149.838 228.546 499.365
295 0 54.1216 12.6012 682 153.666 228.629 498.845
296 0 56.0643 12.557 704 154.32 226.857 498.097
297 0 59.0313 12.5188 739 153.786 229.378 496.954
298 0 61.1802 12.6838 776 154.309 227.134 496.048
299 0 63.1818 12.5827 795 156.982 227.253 494.926
300 0 64.1001 13.1981 846 159.973 227.245 494.571
301 0 65.1178 13.3143 867 159.048 227.39 493.61
302 0 68.0854 13.0865 891 153.388 228.094 492.448
303 0 71.1076 12.8256 912 159.179 227.673 491.386
304 0 73.1586 13.3956 980 168.697 228.236 490.011
305 0 75.2521 13.6342 1026 165.347 229.245 488.637
306 0 76.2296 13.6299 1039 162.603 230.112 487.781
307 0 80.2467 13.633 1094 161.719 229.58 486.353
308 0 80.2467 13.633 1094 173.5 228.58 486.353
309 0 85.2201 13.3889 1141 167.734 228.458 483.941
310 0 88.2515 13.8015 1218 157.475 229.259 482.393
311 0 92.2817 13.4805 1244 162.095 228.57 480.539
312 0 96.2418 13.5388 1303 159.441 228.018 478.284
313 0 98.1303 13.4821 1323 158.578 228.819 477.174
314 0 101.315 13.3643 1354 161.607 227.671 475.604
315 0 107.191 13.238 1419 164.193 226.794 474.3
316 1 55.1422 11.8965 656 156.245 229.273 498.238
317 0 56.1238 12.7219 714 150.612 227.777 497.531
318 0 57.0957 12.9607 740 153.616 227.726 496.109
319 0 59.0825 12.5587 742 154.899 228.282 495.784
320 0 60.0502 12.6061 757 155.758 229.098 494.764
321 0 62.1606 12.9021 802 150.393 229.8 493.627
322 0 64.1982 13.0377 837 149.812 227.274 492.775
323 0 68.2679 12.8318 876 148.439 228.158 492.137
324 0 69.2624 12.9941 900 143.273 228.823 490.692
325 0 72.223 12.9737 937 149.985 229.402 489.053
326 0 73.1552 13.1364 961 149.609 228.991 487.791
327 0 73.2839 13.127 962 148.828 227.926 487.572
328 0 78.3751 13.0271 1021 149.709 227.711 486.244
329 0 80.1862 13.4437 1078 149.444 228.455 484.851
330 0 83.1507 13.3853 1113 149.63 228.257 483.04
331 0 85.1892 13.2763 1131 152.563 227.69 482.173
332 0 88.1784 13.4387 1185 157.5 227.785 480.169
333 0 90.2449 13.6517 1232 155.984 228.93 478.799
334 0 96.1207 13.1813 1267 153.686 227.825 477.8
335 0 98.2508 13.4757 1324 149.971 228.539 475.045
336 0 100.114 13.5745 1359 154.34 228.737 474.462
337 0 104.175 13.5541 1412 154.669 230.186 472.773
338 1 56.0955 12.1757 683 158.6 230.413 495.991
339 0 56.0188 12.7457 714 155.577 229.564 495.304
340 0 58.0855 12.5677 730 164.845 229.271 494.833
341 0 58.0503 13.0404 757 165.876 228.83 493.721
342 0 60.0767 13.1832 792 160.529 227.328 492.551
343 0 62.0911 13.3352 828 163.182 228.158 491.943
344 0 64.1032 13.3535 856 163.379 228.669 490.588
345 0 68.094 13.2758 904 167.215 228.154 489.64
346 0 67.2121 13.3607 898 163.026 228.131 488.952
347 0 71.1853 13.1347 935 171.106 228.637 488.002
348 0 74.0767 13.1755 976 166.528 229.002 486.837
349 0 75.1572 13.4917 1014 167.221 229.242 485.48
350 0 78.1958 12.814 1002 163.898 229.812 484.572
351 0 80.2029 13.5157 1084 163.889 227.286 482.505
352 0 83.1641 13.1908 1097 162.345 227.91 481.177
353 0 84.1082 13.8393 1164 169.47 228.225 479.06
354 1 43.0513 11.6141 500 159.668 228.896 500.692
355 0 45.1002 11.8181 533 162.109 227.908 499.666
356 0 44.1257 12.623 557 153.524 228.041 499.187
357 0 46.1096 12.492 576 151.769 228.172 498.326
358 0 48.0607 12.2761 590 148.149 229.015 497.088
359 0 50.0906 12.3177 617 157.037 229.211 497.271
360 0 51.0628 12.2398 625 153.214 227.934 496.334
361 0 52.0842 12.4222 647 157.442 230.006 495.946
362 0 54.1218 12.6751 686 158.624 228.65 494.803
363 0 55.0705 12.8926 710 157.935 227.1 494.192
364 0 58.0982 12.5994 732 156.84 228.337 492.988
365 0 57.0537 13.1981 753 153.482 228.255 492.568
366 0 60.018 13.0128 781 155.113 228.283 491.294
367 0 64.0381 12.7268 815 153.175 229.389 490.309
368 0 65.0362 13.0696 850 158.866 227.744 489.224
369 0 66.013 13.2247 873 154.606 228.181 488.344
370 0 70.0716 13.1151 919 157.391 228.159 486.917
371 0 73.112 12.5697 919 157.471 227.381 486.468
372 0 73.0406 13.0475 953 162.42 227.04 485.52
373 0 75.1602 13.1852 991 150.109 226.736 483.784
374 0 79.1299 13.0292 1031 155.24 226.821 482.605
375 1 43.0202 11.7387 505 159.145 227.893 500.558
376 0 43.0664 11.6564 502 157.376 229.506 500.434
377 0 43.0877 12.3237 531 158.168 226.365 499.469
378 0 45.0538 12.1632 548 160.942 228.182 499.124
379 0 47.0333 12.0978 569 151.002 228.163 498.276
380 0 49.0577 12.2509 601 157.19 227.318 497.656
381 0 49.0696 12.8797 632 157.821 228.628 496.59
382 0 52.0655 12.4843 650 149.529 227.637 495.825
383 0 51.072 12.7467 651 156.831 228.241 496.086
384 0 54.1759 12.441 674 149.856 226.221 494.596
385 0 54.0203 12.6804 685 159.012 228.975 494.743
386 0 57.0375 12.6583 722 159.486 228.019 493.763
387 0 59.1126 12.5523 742 160.671 226.534 492.554
388 0 62.0892 12.4015 770 145.468 225.777 491.799
389 0 61.0512 12.8253 783 152.743 225.725 490.971
390 0 64.1718 12.6847 814 152.865 224.979 490.117
391 0 68.0977 12.6289 860 150.886 226.871 488.927
392 0 69.11 13.1095 906 163.998 226.033 487.807
393 0 70.1367 12.9604 909 155.95 226.979 486.584
394 0 72.1045 13.3417 962 161.616 223.801 485.567
395 0 76.1143 12.8228 976 160.194 226.641 484.162
396 1 40.0185 11.3947 456 155.542 224.884 501.947
397 0 41.0554 11.6185 477 156.786 226.013 502.218
398 0 43.0595 11.7047 504 149.274 224.833 501.206
399 0 43.1038 12.1103 522 159.27 223.5 500.709
400 0 45.0664 12.4039 559 156.73 226.41 499.968
401 0 44.0746 12.7965 564 152.328 224.768 500.158
402 0 49.039 12.2963 603 159.133 225.328 499.242
403 0 50.0493 12.3079 616 155.575 225.526 498.849
404 0 52.1069 11.8794 619 157.625 224.985 498.258
405 0 53.049 12.5167 664 165.193 224.816 497.783
406 0 54.0493 12.6181 682 163.764 224.77 496.459
407 0 55.1011 12.8491 708 156.069 224.549 496.434
408 0 58.1152 12.4064 721 159.115 224.925 495.997
409 0 58.088 13.118 762 158.42 224.988 494.979
410 0 61.0936 12.5218 765 157.346 226.323 494.74
411 0 61.0785 12.7704 780 159.526 225.79 494.192
412 0 63.0828 12.7135 802 148.001 224.226 492.89
413 0 65.1507 13.1541 857 158.664 225.781 491.758
414 0 66.1712 13.0419 863 154.044 224.798 491.616
415 0 70.1106 12.9652 909 155.193 224.635 490.418
416 0 72.2407 13.1782 952 154.883 226.216 488.86
417 0 75.1859 12.5555 944 156.951 226.703 487.754
418 0 76.199 12.9661 988 161.216 224.681 486.809
419 0 80.091 13.1226 1051 153.368 224.69 485.514
420 0 80.091 13.1226 1051 165.229 225.69 485.514
421 1 43.0721 11.4923 495 156.941 226.077 502.539
422 0 45.1544 11.4717 518 148.936 226.454 501.344
423 0 46.0917 11.9978 553 151.875 227.651 501.935
424 0 45.0742 12.5792 567 146.354 226.52 500.984
425 0 49.0803 11.96 587 153.532 226.227 500.552
426 0 50.0511 11.708 586 150.265 225.565 500.061
427 0 52.0814 12.0965 630 148.259 224.994 498.632
428 0 53.0607 12.1182 643 137.201 224.042 497.375
429 0 54.0676 12.6323 683 152.075 226.307 496.703
430 0 57.0677 12.1084 691 140.89 226.955 495.365
431 0 59.0735 12.5098 739 145.927 228.087 494.658
432 0 60.0456 12.4905 750 141.511 227.645 493.816
433 0 62.1779 12.3034 765 141.37 227.893 492.774
434 0 64.1188 12.2897 788 139.208 227.481 491.831
435 0 66.0845 12.6202 834 140.64 228.781 490.504
436 0 68.1223 12.4335 847 135.188 228.438 489.491
437 0 70.1226 12.6635 888 131.459 228.898 487.414
438 0 71.0772 12.6904 902 140.264 228.401 486.949
439 1 39.0293 9.73628 380 136.774 227.003 503.7
440 0 40.1001 10.2244 410 138.402 229.688 503.12
441 0 42.0716 10.0305 422 135.469 230.54 502.289
442 0 41.0314 11.0891 455 140.688 229.954 502.066
443 0 44.0219 11.199 493 135.604 228.74 500.578
444 0 46.0578 11.4856 529 138.138 225.94 500.206
445 0 46.1149 11.6882 539 132.393 225.492 499.436
446 0 47.1653 11.8731 560 143.711 228.496 498.511
447 0 49.0768 12.3276 605 143.274 227.248 497.671
448 0 50.0279 12.2332 612 137.139 228.379 497.118
449 0 52.1686 12.1721 635 140.38 228.228 496.337
450 0 55.1535 12.2023 673 149.584 227.11 495.603
451 0 54.0934 12.4599 674 149.742 228.185 494.754
452 0 56.0487 12.507 701 144.143 227.11 493.174
453 0 59.1352 12.5137 740 148.938 229.628 492.239
454 0 61.0688 12.8052 782 149.251 228.887 490.804
455 0 62.0968 13.173 818 154.874 228.543 490.154
456 0 65.1515 12.7242 829 154.601 228.609 489.476
457 0 67.0975 12.7874 858 147.526 228.382 487.953
458 0 70.1432 12.9022 905 153.001 228.887 486.025
459 0 72.1491 12.8623 928 158.981 229.227 485.043
460 0 74.3494 12.8851 958 151.054 229.335 483.857
461 0 77.1305 12.8484 991 157.297 229.73 482.228
462 0 80.2978 13.2009 1060 157.39 228.594 480.481
463 1 44.0256 11.4706 505 152.594 229.691 498.396
464 0 44.0617 11.6655 514 150.73 228.646 498.434
465 0 46.0782 12.0447 555 152.252 229.966 497.625
466 0 48.0344 12.0539 579 150.071 229.002 497.478
467 0 48.0273 12.4721 599 153.23 229.068 496.775
468 0 52.0665 12.5993 656 153.669 228.102 495.023
469 0 53.068 12.3803 657 153.795 228.621 494.533
470 0 53.1001 12.8437 682 153.773 229.73 493.522
471 0 56.0781 12.7857 717 151.782 228.06 492.598
472 0 58.0802 12.6721 736 151.755 228.473 491.077
473 0 59.1149 12.9409 765 157.673 227.178 490.397
474 0 60.0475 13.1563 790 158.496 227.789 490.923
475 0 63.0702 13.0648 824 157.538 228.506 489.516
476 0 65.0719 12.6936 826 166.402 228.946 489.151
477 0 65.0893 13.1819 858 156.921 228.677 487.678
478 0 68.1632 13.2183 901 166.521 229.425 486.817
479 0 72.2613 13.4235 970 156.758 229.186 484.811
480 0 73.1478 13.3975 980 161.881 229.231 484.215
481 0 78.1742 13.0862 1023 158.522 229.633 482.234
482 0 79.0769 13.2529 1048 155.275 230.198 481.062
483 0 82.1079 13.3726 1098 161.793 228.731 479.749
484 0 85.1422 13.2719 1130 159.746 230.145 477.758
485 1 44.019 11.904 524 155.109 228.492 498.527
486 0 45.1248 12.1662 549 148.92 228.485 497.974
487 0 47.0955 11.9757 564 157.05 229.011 497.498
488 0 49.0911 12.1814 598 150.624 229.303 496.46
489 0 49.0828 12.7132 624 155.567 228.752 495.54
490 0 53.0744 12.0397 639 159.587 229.919 494.695
491 0 55.0922 12.234 674 160.086 227.647 493.123
492 0 53.138 13.4744 716 159.669 228.457 492.194
493 0 57.0303 13.186 752 163.435 228.141 490.971
494 0 58.0621 12.9689 753 155.375 227.809 490.757
495 0 61.0743 13.0661 798 161.387 229.977 490.132
496 0 63.1068 13.4217 847 157.665 230.675 488.56
497 0 63.085 13.03 822 155.129 229.622 488.168
498 0 66.1239 13.3689 884 162.945 228.307 487.204
499 0 66.0962 13.208 873 157.47 230.341 485.916
500 0 69.184 13.5291 936 162.514 229.72 485.359
501 0 70.3817 13.4978 950 155.743 229.148 484.897
502 0 75.1172 13.4057 1007 158.507 229.324 482.936
503 0 76.1055 13.2579 1009 163.141 229.716 481.85
504 0 79.2155 13.3055 1054 154.108 230.244 480.17
505 0 80.2651 13.3308 1070 155.261 229.864 478.248
506 0 85.14 13.1783 1122 161.979 229.567 477.257
507 0 87.1559 13.4242 1170 150.974 228.559 474.723
508 1 44.1046 11.8128 521 159.34 227.063 495.234
509 0 46.095 11.5631 533 154.039 229.872 493.251
510 0 47.0482 11.9665 563 153.895 226.458 493.041
511 0 50.0608 12.305 616 157.906 227.562 491.995
512 0 53.1367 12.4208 660 152.814 228.414 493.732
513 0 54.0975 12.6069 682 149.452 229.226 493.109
514 0 55.2598 12.6312 698 156.407 229.49 492.557
515 0 57.2048 12.866 736 159.111 228.692 490.66
516 0 57.3764 13.089 751 154.302 228.826 489.368
517 0 58.1394 13.2956 773 158.211 228.643 488.783
518 0 62.2035 13.1825 820 155.318 228.551 488.167
519 0 64.1162 13.3196 854 160.419 230.151 487.374
520 0 65.2015 13.4046 874 158.833 227.197 486.116
521 0 65.489 13.7275 899 160.155 226.316 485.192
522 0 67.2691 13.7656 926 163.417 227.351 484.053
523 0 72.2982 13.7071 991 157.508 228.449 482.728
524 0 74.1908 13.5866 1008 156.514 227.227 481.606
525 0 78.1667 13.2665 1037 159.428 227.949 479.87
526 0 81.1172 13.4867 1094 149.426 227.745 478.154
527 0 83.1474 13.5783 1129 152.135 227.996 477.058
528 0 88.119 13.164 1160 152.332 228.78 475.304
529 1 44.0748 11.9796 528 153.623 228.201 496.381
530 0 47.1456 12.6205 595 145.143 227.528 495.538
531 0 49.1499 12.4924 614 149.559 227.568 497.078
532 0 51.2467 12.4301 637 155.851 228.298 496.581
533 0 52.1109 12.3583 644 158.163 229.05 496.18
534 0 53.0776 12.9622 688 160.859 229.359 495.746
535 0 55.1518 12.8554 709 161.317 229.137 494.918
536 0 57.1358 13.0741 747 153.491 228.784 494.422
537 0 58.0884 12.9974 755 157.674 227.722 493.898
538 0 60.2377 13.1479 792 157.86 229.394 493.217
539 0 61.1378 13.4941 825 159.016 228.01 492.344
540 0 62.0822 13.7398 853 153.814 228.509 491.285
541 0 63.1603 13.9803 883 163.092 228.727 490.382
542 0 67.3107 13.6085 916 161.519 229.56 489.522
543 0 68.1947 14.0773 960 165.543 230.517 488.524
544 0 71.1764 13.7967 982 168.424 228.877 486.859
545 0 74.2373 13.6858 1016 167.072 227.534 485.87
546 0 76.1556 13.9189 1060 162.811 226.941 484.686
547 0 78.1242 14.0929 1101 157.748 227.538 483.446
548 0 82.0633 14.1233 1159 163.329 228.072 481.603
549 0 83.1536 13.9741 1162 168.556 227.987 480.488
550 0 88.0959 14.0075 1234 161.744 229.476 478.404
551 0 90.0557 14.0691 1267 163.57 228.897 477.446
552 0 94.1926 14.1094 1329 158.975 227.632 475.33
553 0 95.1051 13.9214 1324 152.054 228.375 474.94
554 0 101.084 14.2257 1438 163.348 229.533 473.013
555 1 51.0963 13.2495 677 165.14 232.064 496.775
556 0 54.088 13.0898 708 164.907 232.119 496.018
557 0 55.0717 13.201 727 167.006 229.781 495.475
558 0 56.022 13.3519 748 171.138 229.602 494.636
559 0 59.0504 13.4292 793 169.247 230.513 493.513
560 0 61.0165 13.357 815 167.157 230.136 492.531
561 0 63.1002 13.1378 829 169.404 229.96 491.612
562 0 64.1093 13.3054 853 166.328 230.905 490.723
563 0 66.0781 13.7262 907 168.573 230.789 489.534
564 0 67.0807 14.1024 946 167.647 229.714 488.869
565 0 70.0907 13.7964 967 170.314 230.55 487.471
566 0 72.2271 13.5406 978 166.92 229.192 486.364
567 0 75.2551 13.8861 1045 164.765 228.84 484.888
568 0 77.0353 13.8897 1070 170.082 231.064 483.863
569 0 80.0887 13.8347 1108 161.706 230.953 482.068
570 0 82.0374 13.8473 1136 167.728 229.903 480.508
571 0 85.2151 13.73 1170 166.577 231.116 478.932
572 0 88.1563 14.0092 1235 162.21 230.074 476.724
573 0 90.1513 13.7768 1242 166.395 230.866 475.745
574 0 94.1225 13.5887 1279 162.065 230.654 474.766
575 0 97.1453 13.5261 1314 160.568 229.992 473.028
576 1 52.1548 12.4821 651 161.892 228.338 495.04
577 0 52.0333 13.2223 688 159.512 230.176 495.044
578 0 55.0703 12.8381 707 158.151 229.298 493.368
579 0 56.0406 13.3118 746 165.307 227.697 492.895
580 0 57.07 12.949 739 159.783 229.478 492.644
581 0 59.0561 13.2247 781 165.367 229.457 491.204
582 0 60.0288 13.4269 806 164.324 230.813 490.629
583 0 62.0582 13.3423 828 161.772 229.147 489.673
584 0 63.0722 13.5559 855 157.854 230.256 488.37
585 0 66.0977 13.5254 894 160.728 231.426 487.008
586 0 69.0404 13.3545 922 154.945 230.253 486.409
587 0 72.0255 13.2731 956 161.118 230.073 484.743
588 0 75.1387 13.322 1001 161.168 229.319 483.834
589 0 77.1797 12.8661 993 154.789 228.828 481.99
590 0 79.1184 13.1575 1041 161.454 229.582 480.929
591 0 80.0922 13.7716 1103 164.742 228.728 479.142
592 0 85.0952 13.15 1119 160.446 229.051 478.285
593 1 45.0607 11.6066 523 158.338 229.434 497.593
594 0 46.1926 12.0799 558 161.018 231.704 496.762
595 0 48.1174 11.9292 574 156.775 231.078 495.984
596 0 50.1382 12.1664 610 160.811 230.662 495.287
597 0 50.0681 12.6228 632 165.5 230.354 494.514
598 0 53.0763 12.4538 661 169.915 228.927 493.658
599 0 54.1489 12.5764 681 164.725 229.486 493.464
600 0 56.1035 13.0473 732 175.551 229.807 491.705
601 0 56.1838 13.2423 744 170.909 230.815 491.781
602 0 59.1637 12.9302 765 172.222 231.541 490.59
603 0 61.1368 12.84 785 166.576 230.772 489.938
604 0 63.1045 12.7566 805 171.919 232.293 488.968
605 0 65.2406 13.2126 862 175.171 230.703 487.826
606 0 67.1129 13.0228 874 176.67 231.809 487.065
607 0 67.194 13.3941 900 173.2 230.883 486.677
608 0 70.2082 13.3887 940 175.368 231.224 485.416
609 0 73.1353 13.3588 977 173.723 233.232 484.52
610 0 73.1183 13.5534 991 177.858 232.976 483.356
611 0 77.2053 13.2763 1025 172.766 231.289 482.164
612 0 79.1221 13.4602 1065 168.083 231.239 480.992
613 0 82.189 13.3716 1099 176.628 230.755 479.806
614 0 83.0828 13.7814 1145 172.893 231.432 478.945
615 0 88.0869 13.3959 1180 178.249 229.631 477.532
616 0 90.1977 13.6145 1228 171.871 231.086 476.173
617 0 93.2063 13.6364 1271 171.395 230.955 474.313
618 0 95.1121 13.9099 1323 163.93 230.291 472.748
619 0 97.1618 14.0282 1363 170.323 229.782 471.437
620 0 101.289 14.0687 1425 167.925 227.728 469.867
621 0 105.217 14.0947 1483 173.092 229.703 468.279
622 0 107.148 13.8127 1480 177.822 231.248 467.844
623 0 110.196 13.9751 1540 173.883 231.245 465.868
624 0 114.117 14.0382 1602 177.763 230.194 464.002
625 0 119.09 13.9475 1661 171.827 230.079 461.733
626 0 121.138 14.339 1737 176.192 231.534 459.72
627 0 125.109 14.3395 1794 172.856 230.226 457.237
628 0 129.134 14.4656 1868 174.113 231.035 455.484
629 0 134.101 14.5338 1949 168.864 230.973 451.807
630 0 138.18 14.3219 1979 173.839 228.455 450.493
631 0 143.21 14.3286 2052 176.824 229.229 448.949
632 0 147.121 14.4031 2119 173.688 229.777 446.322
633 0 152.21 14.0464 2138 169.289 228.911 444.36
634 0 157.24 14.5001 2280 169.411 227.771 440.761
635 0 162.138 14.5555 2360 174.921 229.59 437.66
636 0 168.142 14.5353 2444 171.678 229.717 434.793
637 0 174.176 14.3074 2492 175.579 229.959 432.006
638 0 181.302 14.4566 2621 163.03 230.274 428.483
639 0 186.169 14.4116 2683 171.628 231.348 426.472
640 1 54.0266 11.9015 643 157.804 230.201 493.376
641 0 56.0441 11.9906 672 158.996 231.626 492.914
642 0 57.0425 12.1138 691 164.285 231.056 492.145
643 0 59.1801 12.2845 727 159.018 232.933 491.01
644 0 61.0573 12.1198 740 163.628 230.701 490.254
645 0 64.0476 12.3502 791 158.515 229.949 489.1
646 0 67.0164 12.2806 823 156.318 229.916 487.81
647 0 69.089 12.274 848 150.16 229.399 486.158
648 0 72.0439 12.6589 912 154.398 228.099 484.112
649 1 36.005 11.1373 401 152.526 228.958 502.521
650 0 39.0864 10.8733 425 150.976 229.819 502.144
651 0 40.0271 11.2424 450 150.716 231.267 501.173
652 0 40.0764 11.4282 458 146.459 231.902 500.806
653 0 41.0553 11.8377 486 147.533 232.949 500.323
654 0 42.1506 11.5064 485 151.027 230.687 499.951
655 0 43.1633 12.0473 520 148.988 230.442 499.369
656 0 46.144 11.6592 538 149.433 231.911 499.115
657 0 46.1104 11.7544 542 146.426 231.657 498.616
658 0 47.1005 12.0168 566 141.951 230.367 497.362
659 0 50.0393 11.5909 580 135.934 232.345 497.195
660 0 51.0784 11.59 592 145.429 230.25 496.995
661 0 52.1961 11.3035 590 144.532 229.793 496.534
662 0 54.1149 12.0484 652 146.219 230.02 495.36
663 0 56.1347 12.0959 679 142.648 230.695 494.719
664 0 56.0673 12.2175 685 145.915 230.225 494.035
665 0 60.147 12.0039 722 120.738 230.184 492.932
666 0 62.3072 11.9729 746 148.83 229.458 492.009
667 0 63.131 12.5295 791 148.565 230.855 490.547
668 0 66.252 12.226 810 150.777 231.135 489.867
669 0 66.3973 12.4403 826 152.43 230.246 488.763
670 0 69.2415 12.4492 862 151.198 230.746 487.657
671 1 38.178 11.3154 432 146.826 230.206 502.419
672 0 39.0888 11.5122 450 142.42 229.942 501.771
673 0 42.0904 11.9267 502 149.859 229.084 501.363
674 0 43.0312 12.061 519 145.923 229.21 498.268
675 0 44.1435 12.3461 545 146.712 231.534 498.028
676 0 45.0722 12.5354 565 146.577 230.947 497.377
677 0 46.0679 12.5467 578 149.663 229.687 496.965
678 0 49.0446 12.2541 601 151.709 230.22 495.905
679 0 48.1542 12.8961 621 149.295 229.483 495.594
680 0 52.0992 12.4378 648 153.111 228.306 494.478
681 0 51.133 13.1813 674 145.101 228.685 493.361
682 0 54.0475 12.9701 701 154.292 228.765 492.528
683 0 54.0828 13.2205 715 147.523 228.108 492.092
684 0 58.0801 12.8788 748 146.529 230.275 491.432
685 0 58.1225 12.8178 745 157.161 229.342 491.095
686 0 60.1979 13.2895 800 155.434 230.058 489.841
687 0 63.1313 13.3214 841 155.14 229.793 488.705
688 0 65.152 13.4455 876 154.76 228.147 487.368
689 0 65.0795 13.5219 880 97.8773 230.155 486.236
690 0 69.2322 13.3464 924 155.024 231.077 484.716
691 0 71.2646 13.2183 942 152.896 229.719 483.508
692 0 73.1631 13.4631 985 158.108 229.393 482.446
693 0 76.2643 13.1123 1000 149.292 229.119 480.645
694 0 80.0941 13.0846 1048 148.309 228.921 479.22
695 0 82.1504 13.2805 1091 157.598 229.682 478.247
696 1 42.0912 11.4988 484 163.45 231.18 497.397
697 0 44.0479 11.7145 516 154.853 231.424 495.864
698 0 46.0614 12.4182 572 153.135 230.727 495.054
699 0 48.1461 12.5867 606 150.944 230.596 494.469
700 0 50.1621 12.3599 620 151.448 229.395 493.323
701 0 52.1436 12.4272 648 151.259 231.475 492.454
702 0 52.1668 12.7859 667 153.685 231.373 491.456
703 0 54.2247 12.7986 694 149.133 231.285 490.546
704 0 56.3386 12.9751 731 148.297 229.274 488.878
705 0 59.348 12.8058 760 146.774 230.539 487.829
706 0 60.1467 12.4861 751 149.739 231.18 486.916
707 0 63.3015 12.7327 806 151.687 231.422 485.114
708 0 65.0887 12.8901 839 151.187 231.125 484.607
709 0 69.3039 12.3947 859 154.237 228.915 483.815
710 0 71.1845 12.7275 906 154.465 229.605 482.646
711 0 73.2551 13.1458 963 147.744 229.54 481.121
712 0 75.2759 13.1251 988 160.652 231.641 479.338
713 0 79.2518 12.5549 995 156.614 230.934 478.259
714 0 82.1605 12.9016 1060 156.812 231.785 476.452
715 0 85.1501 12.6835 1080 158.144 231.948 475.374
716 1 43.1174 11.6195 501 162.487 230.962 495.623
717 0 44.1092 12.265 541 155.534 230.919 494.333
718 0 46.1193 11.969 552 151.882 229.458 493.533
719 0 48.0848 12.27 590 152.986 230.32 492.988
720 0 49.1074 12.3607 607 152.049 231.361 491.934
721 0 51.1361 12.2418 626 146.131 229.492 490.752
722 0 54.1938 11.9386 647 157.393 230.777 489.787
723 0 54.1912 12.3821 671 157.076 229.787 488.993
724 0 56.1167 12.6879 712 150.219 229.994 488.059
725 0 57.0711 12.756 728 154.308 230.817 487.077
726 0 59.1637 12.4908 739 152.637 230.572 486.34
727 0 62.243 12.5637 782 156.673 229.903 485.129
728 0 64.1723 13.2768 852 160.604 231.068 483.691
729 0 68.1714 13.4074 914 158.952 231.163 482.031
730 0 70.5479 13.3526 942 157.253 232.227 480.605
731 0 71.5061 13.4394 961 161.431 230.598 479.106
732 0 76.3058 13.4197 1024 159.097 230.832 478.064
733 0 78.2476 13.5084 1057 156.62 229.361 476.519
734 0 81.3405 13.8185 1124 158.309 230.049 474.594
735 0 85.2324 13.5747 1157 154.251 227.865 472.195
736 0 88.447 13.3413 1180 158.239 230.558 471.554
737 0 93.2531 13.4687 1256 157.958 231.001 470.78
738 0 95.3125 13.8177 1317 158.068 230.979 471.137
739 1 48.1079 11.9731 576 153.408 231.472 495.457
740 0 50.0916 12.018 602 161.033 232.395 494.246
741 0 52.0363 12.2607 638 159.571 232.53 492.978
742 0 54.0839 12.3142 666 157.796 229.779 492.32
743 0 53.0494 12.8937 684 153.836 231.39 492.067
744 0 55.0638 12.7488 702 164.375 230.377 491.024
745 0 58.094 12.6691 736 160.98 230.924 490.118
746 0 59.1107 12.8911 762 155.747 230.438 489.266
747 0 60.1757 12.7294 766 164.222 230.393 488.624
748 0 61.1339 13.5113 826 162.367 229.665 487.501
749 0 63.2849 13.4471 851 165.656 229.414 487.365
750 0 67.2004 13.0356 876 167.731 231.249 486.118
751 0 67.1941 13.4536 904 174.173 229.945 484.999
752 0 70.199 13.5187 949 169.272 228.325 483.005
753 0 73.1667 13.5444 991 165.997 227.84 481.244
754 0 76.3769 13.4203 1025 172.428 228.467 480.42
755 0 77.1601 13.7247 1059 169.911 229.435 479.59
756 0 82.2384 13.4609 1107 163.992 230.007 477.668
757 0 84.262 13.4818 1136 167.672 230.055 476.08
758 0 86.1008 13.7513 1184 154.954 229.803 474.895
759 0 90.242 13.4638 1215 163.984 229.304 473.165
760 0 94.0991 13.6346 1283 164.781 228.435 472.078
761 1 52.0668 12.1382 632 158.579 226.832 492.929
762 0 53.1093 12.3331 655 157.024 229.449 492.318
763 0 54.1491 12.5764 681 160.552 230.928 492.294
764 0 56.0892 12.4623 699 156.25 227.594 490.979
765 0 58.0413 12.56 729 160.804 230.21 490.39
766 0 60.1018 12.6119 758 157.136 228.942 489.458
767 0 60.0711 12.918 776 156.612 230.584 488.705
768 0 62.0838 13.063 811 157.9 230.591 488.104
769 0 65.058 13.096 852 151 230.831 487.007
770 0 66.0232 13.2529 875 159.245 231.155 486.167
771 0 70.0464 12.92 905 160.754 232.179 484.965
772 0 70.0657 13.3732 937 152.176 229.265 483.369
773 0 72.1239 13.1441 948 156.744 230.736 482.405
774 0 76.1541 13.105 998 158.513 230.791 481.682
775 0 79.2048 13.2315 1048 158.807 228.802 480.244
776 0 80.1865 13.1194 1052 149.981 229.66 478.485
777 0 84.1668 13.4376 1131 153.088 229.149 477.188
778 1 44.129 11.6477 514 151.547 230.656 497.358
779 0 45.0623 11.6727 526 147.027 231.143 496.863
780 0 45.031 12.7912 576 149.281 232.479 495.905
781 0 47.0814 12.8713 606 143.65 228.913 495.944
782 0 49.0426 12.4382 610 141.325 230.184 494.436
783 0 52.194 12.4535 650 150.049 230.957 493.918
784 0 52.0743 13.0007 677 144.713 231.62 493.055
785 0 55.0641 12.658 697 141.542 229.402 491.951
786 0 55.036 13.0097 716 150.791 229.101 491.208
787 0 58.0901 12.756 741 145.691 230.266 489.976
788 0 58.0808 13.2058 767 143.262 228.342 489.394
789 0 61.0388 12.9754 792 148.688 228.449 488.429
790 0 63.0276 13.5655 855 145.635 229.308 487.738
791 0 65.0419 13.3145 866 143.837 227.766 486.931
792 0 68.0358 13.4488 915 147.719 228.878 485.743
793 0 69.2247 13.4634 932 148.264 227.56 484.724
794 0 74.087 13.3897 992 152.209 228.352 483.552
795 0 76.1079 13.4152 1021 151.316 229.189 482.506
796 0 78.0845 13.4214 1048 147.448 229.906 481.448
797 0 82.1081 13.263 1089 153.249 230.774 480.592
798 0 85.0776 13.376 1138 153.336 230.135 479.163
799 0 86.2773 13.4914 1164 148.844 230.442 478.155
800 0 92.1398 13.371 1232 154.28 229.188 476.45
801 0 94.236 13.5829 1280 154.756 229.723 474.803
802 0 98.1836 13.4442 1320 152.234 226.434 473.831
803 1 51.1855 12.5231 641 161.257 229.841 495.619
804 0 54.0719 12.5573 679 158.985 230.205 494.401
805 0 56.075 12.5903 706 153.249 228.901 494.361
806 0 57.14 12.7581 729 164.35 227.778 494.125
807 0 58.2114 12.8841 750 159.76 226.811 493.925
808 0 58.1548 12.9826 755 161.086 229.026 493.332
809 0 62.1698 12.8519 799 166.025 228.355 491.707
810 0 63.241 13.1244 830 162.657 229.284 490.939
811 0 67.1991 12.8276 862 171.711 229.174 489.711
812 0 68.0808 12.9699 883 166.701 228.521 488.481
813 0 71.1033 13.3468 949 167.163 228.84 487.769
814 0 73.1875 13.158 963 165.762 228.751 486.288
815 0 75.2039 13.47 1013 164.596 227.607 485.396
816 0 79.1025 12.9452 1024 166.609 227.935 484.768
817 0 80.3075 13.137 1055 167.186 228.58 483.604
818 0 83.0592 12.9426 1075 171.787 226.447 482.463
819 0 86.0979 12.6949 1093 162.483 228.304 480.586
820 0 88.0486 13.0155 1146 168.667 227.629 479.658
821 1 48.0322 12.221 587 171.62 226.661 499.121
822 0 50.1634 12.2998 617 168.653 228.233 498.191
823 0 51.0985 12.5248 640 165.889 228.523 497.433
824 0 52.175 12.6306 659 175.071 229.258 496.552
825 0 54.1366 12.8194 694 171.434 228.767 495.232
826 0 56.0608 13.1821 739 165.934 229.857 494.558
827 0 58.176 12.7716 743 175.668 228.581 493.39
828 0 58.0675 13.0021 755 163.919 227.707 492.699
829 0 59.083 13.3372 788 170.793 228.297 490.518
830 0 62.037 12.96 804 167.744 229.932 490.517
831 0 63.0563 13.7655 868 170.824 229.089 488.372
832 0 66.2449 13.4199 889 171.119 228.597 487.909
833 0 67.0865 13.3261 894 170.711 228.456 486.568
834 0 72.1888 13.3816 966 173.219 227.536 484.788
835 0 75.1119 13.3268 1001 172.716 227.646 483.297
836 0 77.2464 13.3987 1035 171.565 229.387 481.556
837 0 79.3207 13.666 1084 171.005 228.09 479.592
838 0 82.2136 13.3311 1096 164.965 230.585 478.534
839 0 85.2356 13.2222 1127 165.469 228.965 477.243
840 0 88.1877 13.5053 1191 170.223 230.607 475.387
841 1 47.0916 12.189 574 173.629 230.808 494.909
842 0 48.0525 12.7361 612 168.288 230.031 493.453
843 0 50.0604 12.8445 643 167.21 230.18 493.21
844 0 53.0497 12.9124 685 172.069 229.718 491.597
845 0 54.1102 12.8811 697 168.476 232.171 491.29
846 0 54.0634 13.0402 705 160.801 228.64 490.319
847 0 57.1237 12.9543 740 174.742 229.051 489.635
848 0 59.0494 13.2093 780 171.155 228.833 488.642
849 0 60.0565 13.2375 795 168.194 228.806 487.419
850 0 63.0693 13.1918 832 162.781 229.951 486.132
851 0 65.0488 13.2823 864 169.369 229.832 485.356
852 0 65.0826 13.844 901 172.071 230.186 484.26
853 0 69.1582 13.1727 911 163.557 229.909 483.02
854 0 69.1179 13.6867 946 166.963 230.025 482.416
855 0 73.0991 13.6664 999 165.644 228.847 480.411
856 0 76.1773 13.5999 1036 166.584 229.525 479.18
857 0 79.1333 13.5468 1072 165.553 228.832 478.28
858 0 81.082 13.5049 1095 162.943 231.097 477.09
859 0 84.077 13.3687 1124 166.454 229.444 475.891
860 0 85.0481 13.6393 1160 168.344 228.936 475.069
861 0 89.0683 13.5738 1209 162.776 228.975 473.433
862 0 91.1747 13.5893 1239 166.334 228.37 471.629
863 0 93.1651 13.256 1235 162.679 229.053 470.099
864 0 98.0813 13.3155 1306 165.579 229.907 468.842
865 0 101.12 13.2021 1335 160.838 229.205 467.261
866 0 104.16 13.076 1362 166.782 230.41 465.28
867 1 54.0526 11.3593 614 160.099 231.098 489.899
868 0 55.0764 11.6565 642 150.882 230.745 488.826
869 0 58.0623 12.2627 712 156.837 229.603 488.164
870 0 59.0437 12.1774 719 147.523 229.281 487.136
871 0 60.1153 12.4428 748 156.388 230.067 486.584
872 0 63.1152 12.6594 799 145.586 228.866 484.96
873 0 65.208 12.8359 837 144.808 228.098 483.95
874 0 68.2996 12.3573 844 151.262 229.501 481.564
875 0 68.1257 12.5797 857 152.456 228.502 481.531
876 0 72.0967 12.6081 909 151.43 229.397 479.662
877 0 75.1802 12.623 949 153.781 229.345 478.969
878 0 78.2541 12.6511 990 146.575 230.105 477.351
879 0 81.2112 12.486 1014 148.027 228.725 476.85
880 0 83.0765 12.8436 1067 147.39 228.444 475.516
881 0 85.2907 12.686 1082 140.994 228.86 474.77
882 0 87.2248 12.634 1102 135.566 229.904 472.058
883 0 92.2116 12.2219 1127 139.806 228.779 472.016
884 0 94.1668 12.9239 1217 157.131 229.778 470.799
885 0 98.2038 12.9017 1267 156.075 228.939 468.765
886 1 49.0682 11.0255 541 146.813 230.68 492.835
887 0 51.1812 11.7621 602 141.382 230.814 491.297
888 0 53.1031 11.6942 621 134.306 230.248 491.646
889 0 54.1105 12.1603 658 139.04 230.296 489.868
890 0 57.1466 12.1967 697 145.352 230.017 488.73
891 0 58.2086 12.0429 701 142.155 230.35 488.434
892 0 61.1859 12.3394 755 140.776 229.495 486.673
893 0 63.2693 12.107 766 143.247 228.594 485.924
894 0 63.2955 12.7813 809 135.424 228.541 484.862
895 0 65.5712 12.475 818 142.363 229.465 484.232
896 0 68.1961 12.8893 879 137.751 230.761 482.792
897 0 71.2672 12.5864 897 141.923 231.744 481.931
898 0 71.2604 12.8402 915 141.774 230.934 480.774
899 0 76.2159 12.8057 976 142.385 229.491 479.067
900 0 79.2769 12.9798 1029 134.11 228.137 477.766
901 0 80.1172 13.3929 1073 137.721 229.639 477.349
902 0 82.2374 13.0719 1075 140.492 228.372 476.653
903 0 84.4679 13.3779 1130 136.165 229.464 475.655
904 0 88.0812 13.374 1178 144.126 230.142 473.808
905 0 90.1741 13.5627 1223 140.93 227.882 472.222
906 0 95.3119 13.545 1291 140.97 229.48 470.395
907 0 98.4245 13.5637 1335 142.169 227.272 468.728
908 0 100.312 13.3883 1343 139.67 227.084 467.333
909 1 54.0576 11.5432 624 137.736 228.7 491.338
910 0 57.0926 11.9981 685 138.691 230.085 490.216
911 0 59.0165 11.895 702 129.85 230.14 489.614
912 0 59.0471 12.905 762 135.841 229.643 487.925
913 0 62.1087 12.4137 771 131.606 228.11 487.379
914 0 65.0228 12.3341 802 136.426 227.222 487.095
915 0 66.0555 12.6257 834 132.526 228.092 485.803
916 0 68.0973 12.6143 859 131.312 227.895 484.754
917 0 71.0773 12.5497 892 133.767 226.343 483.502
918 0 72.1232 12.5341 904 136.104 227.186 482.457
919 0 75.1303 12.3253 926 139.07 228.173 480.873
920 0 78.107 12.5469 980 160.429 226.224 479.997
921 0 79.1279 12.7009 1005 157.366 230.047 478.603
922 0 84.3774 12.7048 1072 156.623 228.941 476.307
923 0 85.1419 12.8491 1094 155.432 228.824 475.352
924 0 89.2215 12.7772 1140 147.453 226.811 473.452
925 0 92.1306 12.4714 1149 155.742 228.091 472.947
926 0 94.289 12.6314 1191 155.872 229.89 471.658
927 0 98.5816 12.6494 1247 155.032 227.79 469.953
928 0 99.3506 12.5515 1247 148.395 227.701 469.593
929 0 103.26 12.6961 1311 154.049 228.885 466.802
930 1 57.0745 11.3361 647 145.417 226.807 489.416
931 0 61.0572 11.6612 712 140.421 227.459 488.812
932 0 63.157 11.6218 734 148.617 226.511 488.941
933 0 64.1624 12.0943 776 140.946 226.728 487.503
934 0 66.1305 11.9309 789 147.493 227.34 486.366
935 0 69.3043 12.0339 834 145.296 227.372 485.158
936 0 72.2735 12.1068 875 150.417 227.239 484.566
937 0 73.1405 12.3871 906 153.496 227.206 483.539
938 0 74.1993 12.6147 936 156.942 226.934 482.9
939 0 78.3766 12.3379 967 151.845 226.892 481.768
940 0 80.1476 12.5518 1006 152.717 227.484 480.432
941 0 82.0604 12.2714 1007 154.454 227.59 479.998
942 0 86.2454 12.4296 1072 153.988 227.166 477.942
943 0 86.2283 12.6525 1091 155.692 228.194 476.776
944 0 91.3981 12.5604 1148 155.577 227.605 476.049
945 0 93.3344 12.557 1172 157.548 227.094 474.609
946 1 50.0786 11.0826 555 146.393 227.49 496.086
947 0 51.0582 11.5946 592 151.014 225.877 495.578
948 0 53.1692 11.5292 613 147.592 226.246 494.458
949 0 54.2066 11.5484 626 150.69 226.425 494.578
950 0 57.1058 11.4174 652 150.25 225.465 493.359
951 0 57.1031 11.6281 664 152.649 227.331 492.12
952 0 60.0877 11.6164 698 151.148 226.804 491.148
953 0 61.1743 11.9658 732 143.154 227.342 490.104
954 0 63.3147 11.8614 751 153.764 227.674 489.782
955 0 65.2523 11.6164 758 153.964 227.055 489.024
956 0 67.0835 11.8956 798 151.302 226.977 487.534
957 0 67.1274 12.0815 811 153.222 228.582 486.492
958 0 70.2139 11.821 830 150.561 226.351 486.119
959 0 72.182 12.4685 900 146.983 227.991 484.686
960 0 75.114 12.1549 913 140.548 227.632 482.995
961 0 76.1694 12.5772 958 152.005 227.135 482.53
962 0 78.1466 12.2462 957 149.594 227.412 481.042
963 0 81.1296 12.3629 1003 148.135 227.752 480.103
964 0 82.1846 12.5084 1028 152.6 227.446 478.623
965 0 87.177 12.2854 1071 155.644 227.645 477.322
966 0 90.2425 12.3888 1118 152.335 226.791 474.786
967 0 93.3421 12.0524 1125 142.925 227.707 473.173
968 0 95.2207 12.2137 1163 153.036 226.954 470.984
969 1 52.1455 10.2214 533 144.409 226.717 492.889
970 0 52.1164 10.6301 554 148.838 227.157 492.478
971 0 55.1098 10.8329 597 144.849 227.63 490.945
972 0 57.0702 11.2143 640 134.027 227.905 489.492
973 0 57.0409 12.079 689 139.572 228.962 488.804
974 0 61.0914 12.3585 755 134.98 227.181 486.963
975 0 62.056 11.8603 736 140.154 226.084 486.625
976 0 64.0719 12.4079 795 133.078 226.891 486.113
977 0 65.139 12.2354 797 138.745 226.197 485.171
978 0 66.014 12.5276 827 136.681 226.116 483.547
979 0 69.0841 12.1736 841 134.134 226.405 483.176
980 0 70.2555 12.6538 889 143.163 226.605 482.602
981 0 72.1105 12.6473 912 140.635 226.206 480.982
982 0 73.1355 12.6067 922 139.298 224.191 480.503
983 0 77.1035 13.1382 1013 151.598 224.502 479.866
984 0 79.0774 13.1264 1038 152.923 224.156 478.188
985 0 81.0671 12.7795 1036 154.036 225.39 477.324
986 0 85.0665 12.9311 1100 155.535 228.468 476.135
987 0 86.126 13.3525 1150 150.47 227.962 474.706
988 0 89.114 13.3761 1192 149.117 228.586 473.257
989 0 90.0272 13.3737 1204 147.053 228.692 472.051
990 0 94.1075 13.6546 1285 159.774 227.245 470.605
991 0 97.1169 13.7669 1337 155.371 226.492 470.113
992 0 100.149 13.7295 1375 158.196 226.963 468.38
993 0 104.134 13.8668 1444 152.977 226.734 465.893
994 0 106.156 13.9511 1481 159.13 227.27 464.918
995 0 109.134 13.4788 1471 150.38 226.133 462.88
996 0 113.313 13.8642 1571 156.637 227.999 461.083
997 1 61.2308 11.8241 724 148.116 226.409 487.649
998 0 62.1347 12.3442 767 147.224 227.446 486.81
999 0 64.1797 12.7922 821 147.736 226.937 485.905
1000 0 68.2465 12.323 841 146.448 226.999 484.721
1001 0 69.0959 12.5188 865 150.728 227.564 484.312
1002 0 69.2377 12.7532 883 154.917 228.795 483.237
1003 0 74.308 12.6635 941 145.812 229.253 481.587
1004 0 75.3021 12.7752 962 152.288 229.674 480.751
1005 0 77.3504 13.0445 1009 150.531 229.8 479.398
1006 0 80.3004 12.9389 1039 154.124 228.475 478.645
1007 0 82.27 13.0546 1074 154.741 228.129 477.597
1008 0 86.2811 13.2706 1145 158.929 227.577 475.833
1009 0 89.3041 13.0677 1167 153.655 228.31 474.46
1010 0 89.3041 13.0677 1167 169.121 229.31 474.46
1011 0 95.227 12.8955 1228 157.786 226.974 471.318
1012 0 98.2439 13.3851 1315 153.45 228.821 469.566
1013 0 100.115 12.9152 1293 151.069 228.423 468.875
1014 0 104.46 13.1247 1371 150.667 229.336 467.153
1015 1 52.1433 11.4492 597 151.077 230.124 493.097
1016 0 55.0994 11.815 651 153.273 228.86 491.39
1017 0 56.2538 12.3192 693 146.791 231.076 490.73
1018 0 59.1463 11.8858 703 153.509 228.802 490.236
1019 0 60.1007 12.0964 727 145.624 229.454 489.283
1020 0 60.1007 12.6787 762 150.682 229.045 488.741
1021 0 64.1434 12.2382 785 152.89 228.825 487.567
1022 0 67.1331 12.0656 810 152.147 229.717 486.475
1023 0 70.1889 12.1957 856 155.648 228.947 485.599
1024 0 71.1913 12.1925 868 157.815 227.611 484.477
1025 0 73.18 12.0798 884 149.051 230.361 483.419
1026 0 75.2902 12.0733 909 151.042 230.815 482.694
1027 0 80.2227 12.1661 976 157.131 230.806 481.102
1028 0 79.1556 12.368 979 147.029 230.482 479.544
1029 0 83.1848 12.0815 1005 155.954 229.653 478.944
1030 1 43.1447 10.5227 454 153.011 229.601 499.057
1031 0 45.0735 10.9821 495 142.81 231.388 497.41
1032 0 47.0382 10.8635 511 141.039 229.241 496.892
1033 0 48.0573 11.1117 534 151.369 228.163 495.929
1034 0 45.0705 11.959 539 148.338 228.102 495.907
1035 0 51.0916 11.2152 573 146.464 226.867 495.244
1036 0 53.0734 11.079 588 144.313 231.804 494.622
1037 0 53.0928 11.5835 615 147.47 230.114 494.239
1038 0 53.083 11.9436 634 137.737 230.418 493.678
1039 0 55.0338 11.4112 628 148.347 231.108 493.021
1040 0 55.075 11.7476 647 152.651 228.961 492.502
1041 0 57.1275 11.8157 675 151.092 231.437 491.419
1042 0 59.1255 12.1606 719 144.853 231.42 490.592
1043 0 62.1269 11.557 718 18.8928 229.155 489.347
1044 0 63.1299 11.8011 745 147.068 229.683 488.942
1045 0 65.2427 11.6795 762 152.139 232.467 488.316
1046 0 67.3239 11.7492 791 149.863 231.228 486.268
1047 0 69.2067 11.7908 816 149.934 231.42 485.708
1048 1 37.0337 10.2879 381 145.656 230.459 501.302
1049 0 38.1054 10.4447 398 140.97 231.008 500.776
1050 0 39.0417 11.0651 432 141.315 230.086 499.794
1051 0 41.1298 11.3057 465 135.675 231.553 499.426
1052 0 41.0944 11.5344 474 136.538 230.357 499.059
1053 0 43.1075 11.0886 478 139.87 231.895 499.241
1054 0 42.0471 11.5822 487 132.359 229.69 498.62
1055 0 44.1369 12.0307 531 141.704 229.089 497.618
1056 0 45.1196 12.0569 544 131.432 229.482 496.77
1057 0 47.1388 11.8586 559 140.358 229.826 496.49
1058 0 49.2059 11.8888 585 145.949 228.191 495.47
1059 0 50.1465 12.1245 608 142.454 229.405 494.992
1060 0 51.168 12.2342 626 144.249 227.938 494.152
1061 0 53.1202 12.4623 662 144.906 230.334 494.048
1062 0 54.1738 12.7368 690 145.446 230.036 493.114
1063 0 54.051 12.8212 693 149.449 228.638 493.167
1064 0 57.0408 13.0959 747 149.728 228.284 491.308
1065 0 58.071 12.8636 747 152.763 229.119 491.493
1066 0 61.0889 12.9974 794 152.932 230.064 490.538
1067 0 64.1534 13.343 856 143.443 231.355 488.148
1068 0 64.1627 13.1852 846 150.507 232.043 488.241
1069 0 66.0726 13.7273 907 156.718 231.84 486.842
1070 0 68.0706 13.2656 903 155.164 231.869 485.519
1071 0 71.0665 13.1989 938 155.07 230.087 484.755
1072 0 72.1253 13.1715 950 158.616 229.505 484.237
1073 0 75.1276 13.2841 998 156.305 228.579 483.283
1074 0 77.0651 13.2485 1021 160.649 228.565 482.319
1075 0 81.1543 13.1971 1071 159.357 228.818 479.558
1076 0 82.1038 13.5073 1109 160.173 229.149 478.58
1077 0 85.1876 13.3001 1133 158.99 228.67 477.387
1078 1 44.0137 11.6782 514 158.84 230.539 497.877
1079 0 46.0883 11.9987 553 152.042 228.448 497.682
1080 0 46.105 12.3848 571 151.942 228.613 497.951
1081 0 46.0915 12.7789 589 152.92 229.823 498.343
1082 0 48.0948 12.9536 623 158.369 228.515 496.742
1083 0 51.0983 12.6423 646 159.5 230.409 496.621
1084 0 52.1763 12.7069 663 162.682 229.546 495.947
1085 0 51.0947 13.0346 666 159.306 229.192 495.087
1086 0 54.0454 13.1371 710 163.275 229.12 494.145
1087 0 56.0677 13.0021 729 162.081 230.538 493.85
1088 0 56.1101 12.9388 726 35.2906 228.512 493.467
1089 0 57.0524 13.1633 751 163.519 229.184 492.497
1090 0 60.1193 12.9077 776 162.407 229.403 491.74
1091 0 61.1387 12.9541 792 161.434 228.352 490.865
1092 0 63.1124 13.0085 821 160.514 227.426 490.035
1093 0 65.118 13.1454 856 166.929 227.891 488.827
1094 0 67.0506 13.2139 886 154.257 228.733 487.867
1095 0 69.085 13.0709 903 154.185 228.829 487.009
1096 0 71.1501 13.0991 932 157.852 228.968 485.729
1097 0 73.1359 13.345 976 152.291 228.162 484.342
1098 0 75.1334 13.3097 1000 158.242 227.6 483.16
1099 0 79.1451 12.9888 1028 158.328 228.625 481.676
1100 1 39.0512 12.0099 469 155.548 228.081 501.072
1101 0 41.0269 12.3334 506 155.508 229.099 500.69
1102 0 42.0293 12.4199 522 158.239 227.998 500.01
1103 0 44.1026 12.5163 552 157.112 226.947 498.844
1104 0 45.1026 12.6379 570 154.575 227.474 498.73
1105 0 46.0931 12.7568 588 154.719 227.617 498.122
1106 0 46.0534 13.1804 607 157.613 228.921 497.137
1107 0 48.0466 13.029 626 158.644 227.604 497.105
1108 0 49.0956 13.3413 655 159.942 228.35 495.627
1109 0 50.0559 13.5249 677 152.805 228.362 495.728
1110 0 52.0583 13.2544 690 159.117 228.264 495.283
1111 0 55.0613 12.8947 710 166.831 230.406 494.562
1112 0 56.0378 13.3124 746 159.995 229.083 493.114
1113 0 56.0401 13.4547 754 158.244 230.82 492.894
1114 0 58.0777 13.5336 786 156.303 231.573 492.564
1115 0 61.1142 13.5811 830 162.788 229.849 491.135
1116 0 63.0872 13.3625 843 155.661 228.178 489.87
1117 0 66.0484 13.2933 878 148.951 226.997 488.647
1118 0 68.1292 13.2983 906 161.329 228.679 487.801
1119 0 68.1803 13.8163 942 164.845 229.338 486.889
1120 0 72.1481 13.5832 980 160.49 227.829 485.999
1121 0 73.2982 13.752 1008 166.614 229.939 484.442
1122 1 40.111 11.7673 472 165.405 230.216 501.441
1123 0 41.0171 12.3607 507 165.69 228.562 500.844
1124 0 42.0043 12.4987 525 163.297 229.392 500.64
1125 0 43.0435 12.7081 547 166.867 228.879 500.234
1126 0 44.0421 12.5107 551 161.129 229.211 499.858
1127 0 45.0893 12.9742 585 165.549 228.728 499.561
1128 0 46.0478 12.9431 596 172.399 227.951 498.698
1129 0 46.0584 13.4177 618 167.722 227.754 498.636
1130 0 49.0689 12.8799 632 170.71 225.722 497.832
1131 0 50.0329 13.3912 670 169.836 227.49 496.142
1132 0 51.0493 13.4576 687 170.114 226.434 495.769
1133 0 54.0205 12.9395 699 170.734 226.99 495.338
1134 0 53.1126 13.7067 728 166.409 228.387 494.946
1135 0 55.0964 13.4855 743 168.673 228.583 494.287
1136 0 59.1235 13.345 789 166.678 228.982 492.728
1137 0 62.2473 13.0769 814 175.713 227.629 491.983
1138 0 62.0739 13.4678 836 165.828 228.085 491.091
1139 0 63.052 13.8299 872 170.229 229.045 490.635
1140 0 65.0896 13.6427 888 171.588 228.595 489.65
1141 0 66.2081 14.2279 942 168.609 230.251 488.674
1142 0 70.2627 13.5491 952 171.041 228.851 487.379
1143 0 73.1443 13.904 1017 165.529 229.939 486.038
1144 0 73.2345 14.2556 1044 165.946 227.218 485.063
1145 0 75.2665 14.2427 1072 167.357 227.55 483.98
1146 0 79.163 13.7943 1092 168.908 228.227 483.142
1147 0 82.103 13.885 1140 162.336 228.074 480.569
1148 0 87.081 13.8147 1203 165.628 228.654 478.955
1149 0 89.145 14.1006 1257 166.022 227.514 477.516
1150 0 93.1466 13.9028 1295 162.007 228.093 475.72
1151 0 97.1684 13.8728 1348 163.519 229.588 474.133
1152 1 50.0295 12.9923 650 164.355 229.548 496.612
1153 0 53.0363 13.3494 708 155.38 230.412 495.281
1154 0 54.0816 13.3502 722 155.78 227.607 495.277
1155 0 57.1504 12.9833 742 161.5 228.003 494.569
1156 0 59.1079 13.1962 780 160.65 229.853 493.692
1157 0 59.0909 13.5215 799 157.85 229.288 492.81
1158 0 61.2156 13.5423 829 160.444 228.49 492.011
1159 0 63.057 14.0032 883 156.883 228.255 490.287
1160 0 66.072 13.7123 906 153.683 227.733 489.439
1161 0 70.0919 13.3396 935 150.232 227.732 488.48
1162 0 72.0895 13.2752 957 153.352 228.845 486.966
1163 0 74.0556 13.7329 1017 153.931 228.187 485.53
1164 0 77.2504 13.8122 1067 146.007 228.594 484.487
1165 0 80.027 13.3705 1070 152.464 230.311 483.372
1166 0 80.257 13.6437 1095 156.907 229.32 482.103
1167 1 41.0665 11.9806 492 151.843 229.254 501.858
1168 0 44.1398 11.6675 515 150.487 230.452 500.992
1169 0 45.0344 12.0352 542 151.317 228.707 500.589
1170 0 46.0859 12.5201 577 145.731 227.619 499.704
1171 0 48.0484 12.5082 601 147.366 227.955 498.163
1172 0 48.0316 12.7 610 152.989 227.589 497.674
1173 0 52.0281 12.5894 655 149.776 229.936 496.725
1174 0 54.0584 12.69 686 151.206 228.755 496.105
1175 0 55.0402 12.7725 703 154.102 229.422 495.559
1176 0 56.036 13.0809 733 153.606 228.169 494.529
1177 0 57.0706 13.3344 761 146.041 228.108 493.616
1178 0 60.0857 12.7984 769 156.243 228.649 492.902
1179 0 63.0513 12.8943 813 156.14 229.984 491.346
1180 0 65.0991 13.057 850 156.122 229.233 490.304
1181 0 65.1097 13.3313 868 159.498 228.506 489.833
1182 0 70.0994 13.1242 920 151.378 228.212 487.532
1183 0 73.1349 12.935 946 159.74 228.464 486.756
1184 0 75.1125 13.1137 985 161.281 228.917 485.817
1185 0 78.0383 12.8783 1005 160.376 230.261 484.215
1186 0 82.1198 13.0663 1073 160.003 228.749 481.547
1187 0 84.0573 13.0744 1099 159.884 229.595 480.663
1188 0 88.1239 12.8909 1136 164.401 228.942 478.984
1189 1 47.0733 10.8342 510 150.839 230.098 498.724
1190 0 50.1453 11.5863 581 152.265 229.494 497.823
1191 0 51.0804 11.9615 611 157.62 229.727 497.265
1192 0 54.105 12.0506 652 153.992 228.245 495.877
1193 0 53.0968 12.4113 659 155.601 227.9 495.114
1194 0 55.1643 12.49 689 147.467 228.509 493.949
1195 0 57.1065 12.8182 732 152.351 228.202 493.454
1196 0 59.0714 12.7981 756 152.187 229.048 492.148
1197 0 63.0878 12.5381 791 155.986 229.336 491.809
1198 0 64.1838 12.8537 825 156.053 228.596 490.234
1199 0 64.0811 13.202 846 153.567 227.595 489.596
1200 0 69.1005 12.9087 892 154.57 228.805 488.414
1201 0 69.1938 12.978 898 149.904 229.134 487.267
1202 0 73.1603 12.7392 932 156.16 229.543 486.265
1203 0 73.1603 12.7392 932 162.688 230.543 486.265
1204 0 77.0936 13.3215 1027 156.369 229.183 483.437
1205 0 79.1859 12.8179 1015 147.736 230.335 482.761
1206 0 83.1217 12.7043 1056 153.961 228.939 481.157
1207 0 84.1477 13.3694 1125 150.89 229.31 480.355
1208 0 89.449 12.8677 1151 154.681 229.512 478.807
1209 0 92.1201 13.0048 1198 154.034 227.986 477.03
1210 0 95.1135 12.995 1236 160.106 228.114 475.525
1211 0 99.164 13.0995 1299 149.216 227.318 473.286
1212 0 103.126 13.2944 1371 154.535 228.325 471.476
1213 0 104.35 13.3205 1390 161.532 230.248 470.892
1214 1 58.0614 11.7462 682 154.694 229.912 493.952
1215 0 60.3875 12.1879 736 158.682 231.904 493.33
1216 0 62.196 12.6214 785 155.543 230.093 492.037
1217 0 64.1833 12.4799 801 153.075 227.22 491.191
1218 0 65.1533 12.6471 824 157.374 228.858 490.225
1219 0 66.1537 12.8942 853 154.215 228.555 489.59
1220 0 70.1881 12.1958 856 149.904 227.532 487.988
1221 0 74.2922 12.5316 931 148.459 228.277 486.253
1222 0 76.3394 12.4837 953 152.78 228.656 485.07
1223 0 78.3038 12.4643 976 156.83 229.06 483.763
1224 0 81.2897 12.7199 1034 154.244 231.343 481.599
1225 0 83.1941 12.9456 1077 151.33 231.049 480.15
1226 0 87.2019 12.752 1112 152.658 231.388 478.854
1227 0 90.2319 13.1661 1188 151.119 230.5 476.436
1228 0 93.2284 12.7965 1193 150.663 229.894 475.147
1229 0 94.292 13.4264 1266 148.523 227.65 473.64
1230 0 100.338 13.2353 1328 151.066 228.645 471.669
1231 0 102.309 13.3615 1367 153.723 229.55 469.491
1232 0 107.438 13.0867 1406 149.067 228.417 467.213
1233 0 112.208 13.1274 1473 152.432 229.379 466.222
1234 0 114.215 13.0543 1491 153.819 230.742 465.001
1235 0 117.307 13.0342 1529 152.865 229.991 463.809
1236 1 61.1646 11.608 710 150.868 231.725 492.51
1237 0 63.0696 12.3197 777 149.139 229.377 491.346
1238 0 66.0756 12.6824 838 152.063 228.822 490.463
1239 0 68.1549 12.7797 871 151.378 229.67 488.692
1240 0 70.0523 12.819 898 147.793 231.726 487.93
1241 0 72.1582 12.9715 936 152.512 230.91 487.363
1242 0 74.108 13.035 966 155.44 230.991 485.808
1243 0 78.1006 13.1241 1025 152.289 230.916 484.111
1244 0 79.1761 13.5647 1074 160.912 229.16 483.206
1245 0 81.1656 13.7866 1119 159.124 229.519 482.115
1246 0 86.1485 13.3026 1146 163.474 227.497 480.719
1247 0 88.134 13.2639 1169 166.178 228.246 479.569
1248 0 91.138 13.4631 1227 152.713 229.515 477.764
1249 0 93.2552 13.5006 1259 157.377 229.566 475.952
1250 0 97.2222 13.5566 1318 159.784 229.189 474.156
1251 0 100.233 13.5185 1355 159.776 229.245 472.104
1252 0 103.444 13.5242 1399 165.07 228.066 470.861
1253 0 103.444 13.5242 1399 172.721 227.066 470.861
1254 1 57.0647 11.9864 684 154.143 230.358 493.711
1255 0 60.1308 11.8741 714 149.608 228.494 492.239
1256 0 60.0998 12.5125 752 158.922 230.844 493.024
1257 0 63.0621 12.5749 793 154.86 232.314 491.638
1258 0 64.131 12.8955 827 149.998 230.087 491.189
1259 0 67.0866 12.9981 872 157.3 230.438 490.459
1260 0 68.0475 13.2995 905 163.042 228.623 489.303
1261 0 71.1156 13.2742 944 160.421 229.862 488.137
1262 0 74.0603 13.408 993 159.938 231.402 486.841
1263 0 75.0806 13.5854 1020 157.415 231.686 485.195
1264 0 78.118 13.1724 1029 160.743 232.185 485.598
1265 0 79.1477 13.7844 1091 162.4 232.183 484.065
1266 0 82.1116 13.5426 1112 164.895 231.71 482.817
1267 0 84.2255 13.5232 1139 160.46 230.645 480.415
1268 0 89.2266 13.6394 1217 160.993 230.02 479.633
1269 0 92.14 13.5338 1247 166.198 230.305 478.29
1270 0 94.3345 13.6005 1283 164.716 229.607 477.087
1271 0 98.1882 13.5454 1330 160.328 229.085 475.244
1272 0 102.384 13.6155 1394 164.579 229.557 473.952
1273 0 105.311 13.4838 1420 164.625 228.595 471.265
1274 1 55.1839 11.7607 649 148.257 229.348 495.334
1275 0 57.1008 11.9963 685 157.828 227.915 494.702
1276 0 59.0407 12.5676 742 162.03 230.276 494.376
1277 0 61.1192 12.7619 780 158.231 228.381 493.338
1278 0 63.1467 12.7798 807 162.603 227.76 492.151
1279 0 64.2017 12.6632 813 158.951 231.015 491.897
1280 0 66.1385 12.7309 842 161.746 228.327 491.21
1281 0 69.0854 12.7089 878 163.535 229.068 490.331
1282 0 70.0679 13.3727 937 154.568 229.239 488.782
1283 0 71.2288 13.3935 954 157.34 229.012 487.081
1284 0 74.1588 13.0396 967 155.756 228.386 485.747
1285 0 76.0611 13.0421 992 156.573 228.461 484.663
1286 0 80.0711 13.1883 1056 154.978 228.373 482.515
1287 0 81.0485 13.2883 1077 153.422 229.31 481.724
1288 0 85.0425 13.264 1128 149.717 229.305 480.431
1289 0 87.0399 13.3502 1162 163.181 229.431 479.532
1290 0 90.1305 13.5026 1217 159.896 230.772 477.561
1291 0 94.1709 13.4012 1262 149.92 228.969 476.895
1292 0 95.0891 13.7135 1304 160.193 228.084 475.408
1293 0 98.0898 13.7833 1352 160.456 230.331 473.425
1294 0 102.172 13.7904 1409 158.642 231.154 471.959
1295 0 105.195 13.3086 1400 160.901 231.907 470.107
1296 0 108.256 13.5604 1468 156.871 231.037 468.736
1297 1 56.1527 11.7358 659 153.865 230.369 494.813
1298 0 57.0973 12.0146 686 144.899 231.662 494.299
1299 0 59.1824 12.2672 726 143.28 229.559 493.15
1300 0 59.0628 12.9693 766 147.227 230.761 491.952
1301 0 61.0498 12.8256 783 147.452 228.616 491.71
1302 0 63.0333 13.009 820 147.676 229.459 490.337
1303 0 66.0504 12.9598 856 150.835 228.384 488.31
1304 0 66.0454 13.0516 862 149.387 228.311 487.709
1305 0 68.0349 13.0374 887 149.899 229.37 486.457
1306 0 70.0286 13.0375 913 148.576 228.456 485.168
1307 0 73.0907 13.2165 966 153.033 228.989 483.854
1308 0 75.0697 13.3343 1001 150.095 230.307 483.011
1309 0 76.1136 13.3485 1016 147.833 230.485 481.302
1310 0 78.1065 13.3152 1040 153.195 229.807 480.588
1311 0 83.0952 13.286 1104 153.44 230.37 479.376
1312 0 85.1945 13.5103 1151 155.664 229.976 477.968
1313 0 88.2014 13.7073 1209 155.571 230.06 476.613
1314 0 89.0866 13.6496 1216 159.243 229.766 476.294
1315 0 94.2459 13.3056 1254 12.4689 229.037 474.305
1316 0 98.3114 13.6708 1344 156.428 229.431 473.773
1317 0 101.216 13.6243 1379 154.322 228.405 471.34
1318 0 104.201 13.7042 1428 148.828 229.669 469.914
1319 0 108.205 13.7424 1487 154.418 229.984 467.785
1320 0 112.267 13.6994 1538 162.272 229.878 465.789
1321 1 58.177 12.3932 721 153.592 228.978 492.223
1322 0 62.1184 12.2025 758 160.266 227.846 490.888
1323 0 64.1314 12.2249 784 156.74 229.346 491.413
1324 0 67.0936 12.2665 823 152.967 229.939 490.256
1325 0 68.0939 12.3653 842 147.292 230.827 488.515
1326 0 69.0846 12.7814 883 152.803 230.627 488.247
1327 0 72.0466 12.8944 929 156.645 230.855 486.962
1328 0 76.0709 12.5935 958 160.415 228.615 486.272
1329 0 79.1014 12.7684 1010 153.782 229.33 484.472
1330 0 80.0987 13.0839 1048 161.568 228.49 483.223
1331 0 85.0974 12.7619 1086 154.29 227.973 481.408
1332 0 87.1207 12.8672 1121 161.489 229.101 479.964
1333 0 88.1226 13.4812 1188 162.18 228.822 478.659
1334 0 93.1974 13.2944 1239 155.375 229.003 477.027
1335 0 96.1165 13.0259 1252 158.97 229.158 475.535
1336 0 100.247 12.7984 1283 158.6 227.455 474.48
1337 1 55.1277 11.2647 621 160.618 228.456 496.775
1338 0 56.1056 12.2091 685 156.241 227.492 495.219
1339 0 57.0586 12.4083 708 156.198 227.384 494.64
1340 0 60.0737 12.0852 726 157.118 227.843 493.796
1341 0 59.0382 12.8392 758 154.825 228.15 492.897
1342 0 63.0139 12.7591 804 150.323 228.316 491.693
1343 0 62.2421 12.853 800 151.451 229.046 491.878
1344 0 64.0986 12.824 822 156.944 229.219 490.698
1345 0 67.0676 13.0316 874 154.19 229.88 489.707
1346 0 70.0922 12.8545 901 156.071 228.703 488.422
1347 0 71.0354 12.8246 911 155.425 227.199 487.93
1348 0 73.02 13.1197 958 149.022 227.094 486.279
1349 0 75.042 13.2459 994 151.342 226.634 485.224
1350 0 77.1459 13.468 1039 158.269 225.537 484.193
1351 0 79.1083 13.2477 1048 152.159 226.877 482.902
1352 0 80.0412 13.3306 1067 156.757 226.213 481.282
1353 0 83.1054 13.4769 1120 150.704 224.601 480.63
1354 0 86.0787 13.4877 1161 150.234 225.734 479.295
1355 0 90.1119 13.2724 1196 148.624 227.11 478.078
1356 0 93.1661 13.3203 1241 152.592 227.799 476.384
1357 1 49.149 11.2718 554 149.538 226.41 498.758
1358 0 51.081 11.6482 595 147.6 226.911 497.632
1359 0 51.0834 11.7259 599 146.412 227.638 497.195
1360 0 53.0663 11.8531 629 133.758 226.825 495.668
1361 0 55.116 12.011 662 137.779 225.924 494.532
1362 0 57.0461 12.3759 706 141.933 229.286 494.119
1363 0 59.11 12.4683 737 142.292 227.722 492.985
1364 0 61.211 12.3834 758 143.338 227.88 492.22
1365 0 62.1456 12.4224 772 151.281 228.113 491.306
1366 0 64.2356 12.7188 817 154.039 226.512 490.963
1367 0 67.1159 12.8882 865 151.333 227.117 489.613
1368 0 69.1818 12.8502 889 147.687 227.45 488.147
1369 0 71.1076 12.9241 919 150.159 228.146 486.738
1370 0 74.1848 13.0215 966 152.255 225.806 486.204
1371 0 76.0891 13.1556 1001 163.162 225.525 485.264
1372 0 79.1545 13.2778 1051 163.766 226.112 483.333
1373 0 80.1011 12.9461 1037 159.313 225.624 482.232
1374 0 84.1002 13.1391 1105 158.886 227.251 480.833
1375 0 87.1151 13.1435 1145 151.576 226.673 478.927
1376 1 46.0525 11.2046 516 163.095 225.868 500.014
1377 0 48.0548 12.1112 582 157.048 226.187 498.771
1378 0 49.0504 12.2119 599 153.063 226.202 498.083
1379 0 50.0609 12.4049 621 156.465 225.784 497.746
1380 0 51.0829 12.7244 650 153.925 226.162 496.908
1381 0 53.1374 12.5712 668 159.494 224.29 495.868
1382 0 54.0855 12.6097 682 151.318 225.386 495.152
1383 0 56.1828 12.6017 708 151.829 225.191 495.006
1384 0 59.0748 12.4926 738 152.71 225.943 492.896
1385 0 60.1291 12.7226 765 153.86 225.433 491.982
1386 0 63.0376 12.5798 793 145.406 226.093 491.59
1387 0 65.0807 12.2463 797 153.196 226.023 490.258
1388 0 67.2115 13.0037 874 154.436 226.701 489.185
1389 0 70.1872 12.8656 903 154.027 224.935 488.324
1390 0 72.2461 12.6512 914 150.881 225.274 487.536
1391 0 73.2206 12.9062 945 157.084 225.705 486.016
1392 0 76.2044 12.8208 977 157.301 225.384 484.999
1393 0 80.2235 12.6646 1016 152.143 225.664 483.777
1394 0 82.2213 12.6974 1044 158.603 225.07 482.287
1395 0 85.2672 12.4901 1065 154.491 226.386 480.418
1396 0 89.2076 12.7343 1136 151.753 224.634 479.13
1397 1 47.0315 11.6943 550 154.791 225.527 500.076
1398 0 48.1479 11.5062 554 149.671 225.403 500.092
1399 0 50.064 11.3255 567 153.205 225.303 499.384
1400 0 50.151 11.6448 584 157.116 225.353 498.563
1401 0 51.1767 11.9976 614 153.463 227.953 497.285
1402 0 55.2677 11.9962 663 151.436 227.733 496.288
1403 0 57.3559 12.1522 697 149.578 228.776 495.179
1404 0 56.1625 12.5172 703 157.725 227.192 494.586
1405 0 60.1474 12.2034 734 158.549 227.623 493.873
1406 0 60.2113 12.7883 770 159.887 225.558 493.232
1407 0 63.1861 12.4236 785 159.125 226.966 491.692
1408 0 65.2324 12.7851 834 159.53 226.591 490.68
1409 0 67.2254 12.406 834 158.963 227.391 490.179
1410 0 69.2634 13.0805 906 160.872 228.156 488.07
1411 0 71.2554 12.9955 926 155.419 226.659 487.316
1412 0 73.2606 13.1858 966 165.657 225.786 486.568
1413 0 76.2116 13.0426 994 162.15 226.035 485.207
1414 0 79.1654 13.0486 1033 163.773 226.268 484.112
1415 0 81.1134 13.29 1078 159.461 225.904 483.379
1416 0 82.2354 13.4006 1102 160.043 228.223 481.762
1417 0 87.3708 13.6773 1195 163.608 228.626 480.223
1418 0 89.3312 13.7018 1224 167.454 228.906 478.775
1419 0 93.3584 13.2929 1241 167.551 229.389 477.948
1420 0 96.4609 13.3215 1285 164.995 225.852 475.258
1421 0 100.402 13.4161 1347 168.857 227.692 473.958
1422 1 53.096 12.4303 660 161.594 228.064 497.285
1423 0 56.1428 12.201 685 157.511 228.972 496.234
1424 0 56.0853 12.7484 715 161.845 229.74 495.583
1425 0 59.0418 12.2964 726 152.913 229.428 494.501
1426 0 61.1225 12.4995 764 159.208 227.597 493.754
1427 0 63.0868 12.8395 810 159.481 228.9 492.277
1428 0 65.1446 12.8176 835 157.418 229.552 490.527
1429 0 67.0859 12.5958 845 158.538 228.909 490.174
1430 0 68.0881 12.9538 882 154.092 226.822 489.336
1431 0 70.1136 12.8934 904 150.762 230.187 487.762
1432 0 72.1778 13.0788 944 153.981 229.935 486.372
1433 0 75.0966 13.1564 988 157.56 230.148 485.411
1434 0 76.1279 12.9913 989 154.975 229.384 482.666
1435 0 79.1702 13.0605 1034 155.843 230.006 482.936
1436 0 81.1872 13.0932 1063 157.739 230.336 481.587
1437 0 84.198 13.207 1112 152.472 229.73 478.469
1438 0 89.4019 12.9527 1158 151.593 229.169 476.32
1439 0 91.3178 13.3599 1220 157.802 230.78 475.37
1440 0 95.1741 12.8817 1226 155.278 229.628 474.511
1441 1 51.0997 11.4678 586 148.188 228.648 496.519
1442 0 54.0948 11.8496 641 154.505 229.685 494.899
1443 0 55.2095 12.2624 677 151.554 228.722 493.36
1444 0 56.2603 12.7621 718 154.68 228.806 492.953
1445 0 59.1558 12.4079 734 147.272 231.544 491.905
1446 0 61.1571 12.7867 782 150.761 231.134 490.904
1447 0 63.3474 12.5498 795 156.686 229.916 490.514
1448 0 65.1164 12.7464 830 156.147 230.016 489.759
1449 0 66.1928 13.0377 863 150.151 230.236 488.576
1450 0 67.0835 13.2074 886 163.944 229.933 489.108
1451 0 70.1079 13.5363 949 152.095 230.276 487.734
1452 0 73.2958 12.7292 933 164.24 229.123 486.835
1453 0 75.1747 13.5418 1018 162.201 230.375 485.132
1454 0 77.2859 13.2366 1023 163.656 230.533 484.323
1455 0 80.3471 13.1928 1060 159.779 230.507 482.853
1456 0 81.402 13.5869 1106 158.152 229.155 481.836
1457 0 83.2259 13.5895 1131 159.674 231.13 480.319
1458 0 89.1879 13.3314 1189 163.541 229.786 478.187
1459 0 91.319 13.3488 1219 164.929 228.607 477.335
1460 0 95.3313 13.3744 1275 164.027 229.048 475.054
1461 0 99.4169 13.3277 1325 160.958 229.779 473.442
1462 1 52.1439 11.6984 610 156.592 228.508 495.752
1463 0 54.1765 12.367 670 155.643 227.99 494.016
1464 0 58.2156 12.5911 733 156.614 227.525 493.228
1465 0 58.1176 12.6812 737 144.986 226.84 492.301
1466 0 59.277 12.8718 763 145.679 227.349 491.756
1467 0 62.2335 12.6299 786 153.997 227.59 491.337
1468 0 62.165 12.6277 785 146.655 227.61 490.177
1469 0 65.1722 12.6281 823 144.051 227.108 489.857
1470 0 67.2341 12.8358 863 148.655 229.205 489.415
1471 0 68.2043 12.5798 858 158.211 229.04 488.033
1472 0 71.2637 12.6713 903 155.251 229.856 487.296
1473 0 73.1589 12.8487 940 154.519 228.519 485.734
1474 0 76.3033 12.9614 989 156.438 229.804 484.786
1475 0 77.2372 13.0636 1009 155.745 229.438 483.406
1476 0 80.2127 12.9281 1037 154.181 228.563 482.236
1477 0 83.1186 13.0657 1086 158.91 227.885 481.541
1478 0 85.2736 12.8879 1099 152.375 228.045 479.526
1479 0 89.2026 13.3292 1189 154.392 228.47 477.8
1480 0 90.0741 13.1336 1183 156.885 227.798 476.809
1481 0 95.152 12.8531 1223 163.38 228.504 476.107
1482 0 98.1299 13.1153 1287 162.766 228.32 474.368
1483 0 102.494 13.0154 1334 164.855 229.209 471.556
1484 1 55.3181 12.5637 695 155.711 229.442 495.024
1485 0 56.1786 12.7807 718 162.674 228.422 494.755
1486 0 58.4197 12.4444 727 160.737 229.261 495.212
1487 0 59.3278 12.5574 745 151.749 229.042 493.705
1488 0 62.5883 12.6381 791 164.396 228.525 492.716
1489 0 63.4889 12.7109 807 161.449 226.781 491.882
1490 0 65.2939 12.7883 835 155.486 228.236 490.283
1491 0 65.3742 12.9256 845 162.341 228.775 489.938
1492 0 68.3125 12.8527 878 96.8759 227.483 488.31
1493 0 71.3186 13.3205 950 159.288 227.131 487.36
1494 0 73.3572 13.1412 964 159.318 228.053 485.548
1495 0 77.2941 13.5457 1047 162.577 227.996 485.466
1496 0 78.4398 13.3733 1049 152.078 228.48 483.726
1497 0 80.51 12.9301 1041 159.443 228.489 481.979
1498 0 83.4869 13.3434 1114 157.39 229.54 479.318
1499 0 86.3324 13.1237 1133 155.831 230.506 478.675
1500 0 90.4095 13.0849 1183 155.301 230.139 477.5
1501 0 94.2908 12.9599 1222 155.984 230.057 476.001
1502 0 96.414 13.5354 1305 157.596 229.877 474.395
1503 1 51.1274 12.0875 618 153.451 231.806 497.252
1504 0 54.2117 12.0638 654 150.372 230.396 496.028
1505 0 53.1909 12.8781 685 152.636 230.696 495.555
1506 0 56.1155 12.403 696 148.616 228.161 494.803
1507 0 56.1109 12.9921 729 152.918 227.13 494.055
1508 0 56.1109 12.9921 729 162.65 225.13 494.055
1509 0 61.1753 12.2762 751 142.635 229.437 491.977
1510 0 63.1178 12.7222 803 150.859 227.133 490.518
1511 0 66.1985 12.4625 825 143.554 228.033 489.23
1512 0 67.4146 12.9646 874 145.926 226.509 487.808
1513 0 70.1538 12.886 904 147.802 227.569 487.647
1514 0 72.237 12.8328 927 152.808 228.698 486.567
1515 0 73.1584 13.1359 961 153.226 228.072 484.613
1516 1 91.1985 13.1362 1198 166.868 228.156 474.113
1517 0 95.1909 13.6778 1302 159.428 228.492 472.515
1518 0 98.1804 13.7909 1354 161.161 229.436 471.939
1519 0 103.101 13.5013 1392 165.31 229.083 470.112
1520 1 54.0547 11.8954 643 160.006 228.89 495.213
1521 0 56.139 11.8456 665 151.451 227.886 494.663
1522 0 58.0739 12.0708 701 161.785 227.904 495.481
1523 0 59.0886 12.6082 745 152.31 227.474 493.603
1524 0 59.1519 12.8821 762 159.181 227.325 493.21
1525 0 60.0969 12.9291 777 152.454 226.555 492.47
1526 0 63.0695 13.0174 821 161.354 226.408 491.967
1527 0 65.065 12.9716 844 158.213 227.777 491.377
1528 0 68.2331 12.4573 850 159.159 226.138 489.988
1529 0 72.282 12.6726 916 158.683 227.273 488.894
1530 0 73.3051 12.8913 945 158.823 227.151 487.683
1531 0 74.1987 13.2617 984 162.947 227.27 486.758
1532 0 77.1947 13.3947 1034 166.817 228.062 484.95
1533 0 79.2782 13.2823 1053 161.739 227.654 484.431
1534 0 83.2436 13.2863 1106 166.844 227.858 482.662
1535 0 86.3177 13.2302 1142 159.287 225.831 481.12
1536 0 88.2967 13.2621 1171 166.672 226.805 479.786
1537 0 91.2237 13.1654 1201 162.833 226.511 479.147
1538 0 96.2594 13.1623 1267 158.949 225.768 476.061
1539 0 98.1295 13.4108 1316 160.171 225.084 475.242
1540 0 102.275 13.366 1367 161.273 225 473.165
1541 1 54.0531 11.6922 632 168.038 227.362 497.434
1542 0 55.126 12.5531 692 154.642 227.101 496.009
1543 0 56.043 12.5975 706 158.939 226.909 496.001
1544 0 58.1173 12.0446 700 153.691 226.777 495.557
1545 0 61.1669 12.049 737 156.79 226.419 493.824
1546 0 61.0679 12.6089 770 157.422 224.904 493.909
1547 0 63.0733 12.3349 778 157.165 227.071 493.028
1548 0 66.0712 12.6681 837 157.358 227.068 492.326
1549 0 68.0466 13.0205 886 155.266 226.05 491.41
1550 0 69.0751 13.0727 903 155.836 225.773 490.214
1551 0 73.0983 12.9141 944 164.88 224.181 488.974
1552 0 75.0882 12.8249 963 151.987 225.192 487.995
1553 0 76.1872 13.1124 999 162.218 226.369 486.499
1554 0 79.2462 13.2751 1052 156.169 226.462 485.163
1555 0 82.2351 12.8047 1053 152.832 226.473 484.176
1556 0 83.2665 13.5709 1130 159.681 227.76 482.475
1557 0 87.2691 13.5329 1181 153.947 226.697 480.58
1558 0 89.2282 13.3478 1191 158.027 228.135 480.517
1559 0 92.2004 13.308 1227 153.023 227.465 478.811
1560 0 95.2644 13.6462 1300 158.699 226.388 476.585
1561 0 99.1326 13.3357 1322 155.922 225.349 475.942
1562 1 50.0948 11.4583 574 150.484 225.566 499.875
1563 0 51.051 11.7726 601 156.877 224.293 499.048
1564 0 53.0992 12.5049 664 152.485 224.057 498.063
1565 0 54.0572 12.5423 678 159.976 226.457 498.022
1566 0 55.0689 12.7477 702 151.822 223.097 497.187
1567 0 55.1271 13.224 729 154.107 224.302 496.333
1568 0 59.1008 12.5379 741 154.773 224.521 495.251
1569 0 61.0743 12.5912 769 153.021 223.337 494.349
1570 0 62.0307 12.784 793 155.545 225.455 493.812
1571 0 63.1187 13.134 829 152.259 224.394 492.881
1572 0 65.1559 13.3219 868 152.605 225.498 491.949
1573 0 68.1797 13.3031 907 155.606 226.438 490.888
1574 0 69.1529 13.2749 918 147.269 226.501 489.748
1575 0 71.3109 13.2378 944 150.812 226.778 489.247
1576 0 73.2018 12.8822 943 145.444 225.359 488.23
1577 0 76.2926 13.0812 998 153.461 226.852 487.925
1578 0 78.1389 13.3224 1041 153.859 226.183 486.025
1579 0 80.3543 13.3534 1073 154.969 225.346 484.347
1580 0 83.3257 13.2372 1103 155.818 225.041 483.061
1581 0 86.5071 13.8717 1200 156.096 224.818 480.731
1582 0 88.4307 13.6604 1208 166.674 223.411 479.656
1583 0 90.619 14.0589 1274 163.677 224.697 477.247
1584 0 95.5097 13.3599 1276 161.912 222.741 476.162
1585 1 51.2619 11.6266 596 162.379 224.872 496.713
1586 0 53.236 12.3788 659 161.681 224.326 495.677
1587 0 54.4235 13.0275 709 161.182 224.374 494.828
1588 0 57.2045 12.6039 721 165.628 226.214 496.153
1589 0 59.1397 12.5973 745 163.217 227.377 495.515
1590 0 61.1767 12.8971 789 162.881 226.203 493.764
1591 0 60.2859 13.3199 803 165.052 226.224 493.934
1592 0 65.3492 12.7928 836 165.455 225.526 492.632
1593 0 65.1787 13.2405 863 163.674 226.301 491.812
1594 0 67.2925 13.2853 894 165.188 225.997 491.06
1595 0 70.225 13.2432 930 164.722 226.057 489.584
1596 0 72.3877 13.3448 966 164.513 226.029 488.183
1597 0 76.2451 13.0238 993 164.691 226.4 487.325
1598 0 78.1791 13.2516 1036 163.051 226.003 486.52
1599 0 81.2409 13.1092 1065 163.582 223.997 485.025
1600 0 82.1662 12.2678 1008 66.8065 226.156 481.594
1601 0 86.3369 13.3894 1156 160.273 226.208 481.936
1602 0 91.2115 13.1124 1196 159.924 225.352 480.746
1603 0 92.2721 13.3952 1236 158.798 224.959 478.697
1604 1 51.1129 11.6409 595 152.326 225.684 499.771
1605 0 50.1299 12.8067 642 157.866 226.665 499.374
1606 0 51.1174 12.8919 659 156.751 225.892 498.143
1607 0 54.0385 12.7317 688 161.917 224.561 497.778
1608 0 56.1345 12.9332 726 162.076 225.664 497.193
1609 0 57.1433 13.1424 751 165.812 224.479 496.265
1610 0 57.1399 13.3182 761 165.838 224.958 495.874
1611 0 62.2036 12.8931 802 168.661 225.803 494.302
1612 0 61.0549 13.3159 813 167.027 225.074 493.879
1613 0 62.0384 13.7657 854 163.111 223.464 493.221
1614 0 67.2295 13.506 908 160.613 224.6 491.894
1615 0 68.0729 13.6324 928 159.352 226.647 490.518
1616 0 70.1619 13.9249 977 167.423 227.292 490.021
1617 0 73.3137 13.4218 984 163.121 228.228 488.269
1618 0 74.1581 13.9297 1033 170.183 225.914 487.602
1619 0 76.2423 14.0342 1070 167.52 223.756 485.708
1620 0 80.2778 13.8021 1108 169.414 224.475 484.031
1621 0 81.237 13.9715 1135 170.963 225.635 483.419
1622 0 86.2568 13.6917 1181 165.582 226.644 480.694
1623 0 89.1985 13.5989 1213 164.529 225.799 479.796
1624 0 92.1195 13.895 1280 161.365 225.303 478.429
1625 0 94.2296 14.019 1321 167.93 225.092 476.653
1626 1 52.1714 12.3248 643 164.031 225.742 498.176
1627 0 55.1156 12.4466 686 159.883 227.774 497.561
1628 0 56.0834 13.0342 731 156.606 226.568 496.956
1629 0 58.0503 12.8854 748 160.325 227.255 496.041
1630 0 59.0936 12.9286 764 151.305 226.869 495.378
1631 0 61.1529 12.9838 794 159.393 225.611 494.715
1632 0 63.2908 12.9087 817 165.225 225.376 493.412
1633 0 64.0267 13.3538 855 157.525 225.844 492.343
1634 0 67.1564 13.476 905 163.687 224.755 491.636
1635 0 67.0907 13.4743 904 160.288 225.98 491.052
1636 0 69.1047 13.4 926 157.65 225.691 489.819
1637 0 72.0947 13.4961 973 166.509 227.612 488.513
1638 0 74.1831 13.9115 1032 157.504 228.058 487.281
1639 0 77.0739 13.4157 1034 165.734 227.583 486.881
1640 0 80.1354 13.6269 1092 162.848 227.13 485.714
1641 0 83.2293 13.5769 1130 162.488 225.88 484.3
1642 0 83.2044 14.3262 1192 154.716 226.473 482.688
1643 0 89.301 13.7288 1226 168.1 228.352 481.06
1644 0 93.2879 13.4744 1257 165.675 227.17 479.011
1645 0 96.1794 13.4228 1291 161.756 225.737 477.567
1646 0 98.2119 14.0105 1376 160.327 227.445 476.139
1647 0 103.289 13.6026 1405 163.556 226.364 474.062
1648 1 57.1168 12.7283 727 156.476 226.656 496.776
1649 0 58.0513 13.178 765 154.349 227.161 495.612
1650 0 60.0447 12.957 778 160.472 228.771 495.775
1651 0 60.0935 13.1462 790 151.966 226.482 494.818
1652 0 60.0935 13.1462 790 165.105 224.482 494.818
1653 0 65.0272 13.1022 852 156.796 227.754 492.525
1654 0 67.0907 13.206 886 150.545 226.055 491.107
1655 0 70.1436 13.3868 939 158.643 226.134 490.072
1656 0 72.0956 13.5931 980 158.305 226.927 489.67
1657 0 75.0551 13.0171 977 162.671 227.205 488.592
1658 0 77.2636 13.4475 1039 161.324 228.536 487.09
1659 0 80.0591 13.1528 1053 156.795 226.921 485.998
1660 0 83.1375 13.3875 1113 157.53 228.006 484.912
1661 0 84.1243 13.5514 1140 160.994 227.37 483.254
1662 0 87.0679 13.633 1187 158.867 226.329 481.872
1663 0 90.1187 13.8595 1249 163.802 226.123 479.76
1664 0 93.1221 13.842 1289 159.061 227.654 478.511
1665 0 96.0815 13.7592 1322 158.812 227.864 476.341
1666 0 100.148 13.5998 1362 156.901 227.81 475.463
1667 0 103.243 13.5893 1403 159.905 227.968 473.818
1668 0 105.187 13.6139 1432 156.055 228.585 472.554
1669 1 60.0598 11.9714 719 153.327 228.063 495.826
1670 0 61.0575 12.824 783 154.027 228.13 494.669
1671 0 63.0998 12.8844 813 152.416 228.229 492.717
1672 0 65.089 12.7057 827 148.163 226.397 493.005
1673 0 66.1331 13.4275 888 158.107 226.443 491.869
1674 0 68.148 13.3093 907 153.017 225.673 490.534
1675 0 71.0575 13.5805 965 155.797 224.06 488.725
1676 0 73.1839 13.2953 973 156.38 224.972 487.871
1677 0 76.235 13.1436 1002 160.352 225.989 487.705
1678 0 78.0786 13.6529 1066 157.179 227.038 485.915
1679 0 80.2483 13.4084 1076 157.139 227.931 485.23
1680 0 84.1144 13.3984 1127 154.383 228.211 483.031
1681 0 86.2006 13.2366 1141 157.835 229.256 481.342
1682 0 89.1038 13.3103 1186 151.213 225.728 480.76
1683 0 92.0562 13.4918 1242 151.247 226.702 478.101
1684 0 96.1621 13.4772 1296 145.55 226.375 476.594
1685 0 97.111 13.4897 1310 150.318 226.191 475.434
1686 1 54.131 11.8786 643 149.502 226.844 497.543
1687 0 56.1247 11.7061 657 144.77 228.026 497.311
1688 0 58.0573 12.5221 727 149.094 226.752 495.9
1689 0 59.086 12.778 755 147.354 225.62 494.748
1690 0 60.044 13.0904 786 142.045 226.42 494.545
1691 0 62.0914 13.3674 830 146.222 224.506 493.329
1692 0 64.154 13.0155 835 142.624 226.201 491.925
1693 0 68.1062 12.6127 859 143.93 229.127 490.54
1694 0 69.1741 12.9673 897 148.556 228.086 489.858
1695 0 72.1759 13.0515 942 148.354 226.013 489.36
1696 0 72.0963 13.4958 973 149.995 226.302 487.775
1697 0 76.1045 13.4552 1024 150.189 226.625 486.938
1698 0 80.2113 13.4021 1075 150.488 227.572 485.412
1699 0 81.1933 14.0282 1139 153.654 227.372 484.155
1700 0 83.1558 13.7693 1145 153.79 227.11 482.746
1701 0 86.1073 13.5761 1169 154.45 226.937 481.814
1702 0 90.2705 13.5482 1223 152.612 228.092 480.813
1703 0 93.2413 13.4383 1253 159.654 226.903 479.023
1704 0 95.1808 13.4796 1283 154.231 226.672 477.024
1705 0 97.3307 13.8394 1347 158.193 228.137 475.947
1706 0 101.21 13.9512 1412 157.056 228.564 474.03
1707 1 52.1674 12.4982 652 162.595 226.903 498.531
1708 0 54.2341 12.8333 696 156.833 227.427 497.343
1709 0 54.13 13.3383 722 154.496 227.641 497.253
1710 0 57.3257 12.5772 721 155.331 225.846 496.846
1711 0 60.1953 13.0409 785 156.15 226.28 495.032
1712 0 61.1642 13.0468 798 156.352 228.628 494.856
1713 0 63.1495 13.4126 847 156.996 227.673 494.117
1714 0 67.2935 12.8987 868 157.873 227.147 492.888
1715 0 66.1103 13.4321 888 160.934 228.352 492.286
1716 0 71.1569 13.3086 947 152.242 227.362 491.023
1717 0 72.1075 13.1748 950 158.301 226.856 490.142
1718 0 74.1425 13.2852 985 158.698 227.977 488.82
1719 0 75.1249 12.9651 974 160.043 228.476 488.609
1720 0 77.1447 13.4164 1035 159.215 230.228 487.407
1721 0 81.094 13.6631 1108 153.638 228.695 485.091
1722 0 83.1596 13.7567 1144 152.677 227.49 484.406
1723 0 84.105 13.9468 1173 155.604 225.685 482.998
1724 0 87.1092 13.5233 1178 150.413 226.632 481.957
1725 0 91.1541 13.6911 1248 153.167 226.106 480.171
1726 0 94.1114 13.6859 1288 149.83 224.662 478.686
1727 0 95.12 13.6459 1298 150.852 227.149 477.452
1728 0 99.2117 13.6879 1358 150.519 227.7 476.063
1729 0 105.193 13.4419 1414 148.789 226.122 473.898
1730 0 105.131 13.8589 1457 146.706 226.708 472.474
1731 0 110.151 13.8447 1525 149.89 228.259 471.019
1732 0 112.224 13.6334 1530 150.721 227.754 470.43
1733 1 64.1055 12.3234 790 150.746 226.97 494.905
1734 0 66.0723 12.8798 851 151.823 227.579 494.056
1735 0 68.0804 13.205 899 158.416 228.129 492.3
1736 0 70.1618 13.4974 947 155.146 227.356 491.399
1737 0 71.3187 13.5869 969 154.357 226.179 489.639
1738 0 73.1819 13.7739 1008 157.615 225.938 488.98
1739 0 78.0716 13.2314 1033 157.417 224.815 487.164
1740 0 79.1361 13.8243 1094 161.433 226.931 485.837
1741 0 83.2202 13.7346 1143 160.496 224.943 485.354
1742 0 84.2554 13.6371 1149 154.459 225.336 483.139
1743 0 88.2505 13.4163 1184 157.174 225.72 481.293
1744 0 93.3135 13.7065 1279 160.122 223.984 479.969
1745 0 96.1229 13.4099 1289 155.619 225.532 478.17
1746 0 101.108 13.6686 1382 151.082 226.866 475.857
1747 0 104.104 13.1887 1373 159.232 225.624 474.936
1748 0 107.153 13.4014 1436 159.342 227.04 473.005
1749 1 51.2354 12.667 649 157.166 226.737 499.129
1750 0 54.0899 12.775 691 155.996 226.841 497.907
1751 0 56.0465 12.7751 716 149.064 225.053 497.142
1752 0 57.0404 12.9733 740 152.609 227.2 496.58
1753 0 59.1212 13.1932 780 147.973 227.008 495.056
1754 0 61.1522 13.4582 823 153.256 226.784 494.304
1755 0 64.1505 13.2501 850 153.161 225.659 492.961
1756 0 65.0881 13.5201 880 152.638 226.357 492.182
1757 0 67.0679 13.2403 888 153.792 225.788 491.065
1758 0 69.1656 13.1857 912 147.221 224.065 490.739
1759 0 72.342 13.3118 963 158.41 225.184 489.624
1760 0 74.1048 13.3999 993 158.297 223.944 488.599
1761 0 76.0506 13.5042 1027 152.824 224.28 487.494
1762 0 80.1536 13.2246 1060 154.596 224.714 485.795
1763 0 83.0995 13.1288 1091 150.854 224.182 484.09
1764 0 85.1918 13.0412 1111 155.271 225.248 483.444
1765 0 90.1237 12.8046 1154 153.791 227.011 481.411
1766 1 47.0602 11.4747 540 149.256 225.335 502.283
1767 0 48.0548 11.9863 576 152.809 225.099 500.917
1768 0 51.1113 12.3847 633 156.164 227.823 501.062
1769 0 52.2594 11.9213 623 155.613 226.844 499.921
1770 0 54.196 12.8423 696 154.602 224.803 497.95
1771 0 55.1894 12.4843 689 153.726 225.938 498.06
1772 0 55.0624 12.4768 687 157.1 225.64 497.814
1773 0 58.1073 12.8727 748 159.723 225.037 496.013
1774 0 59.0812 13.0498 771 154.245 224.289 495.521
1775 0 61.1407 13.0192 796 149.824 224.923 494.472
1776 0 63.3096 13.047 826 158.226 224.041 493.295
1777 0 64.1597 13.2482 850 157.001 226.226 493.011
1778 0 65.1061 13.4242 874 160.746 224.252 492.129
1779 0 68.1993 13.4166 915 154.483 225.497 490.715
1780 0 70.2965 13.884 976 159.985 225.869 488.528
1781 0 73.4178 13.4708 989 161.383 225.252 488.118
1782 0 74.5053 13.5964 1013 162.237 226.014 486.725
1783 0 78.3426 13.5941 1065 158.257 226.139 483.99
1784 0 81.1823 13.328 1082 156.215 225.68 482.75
1785 0 83.3981 13.4296 1120 166.408 226.523 482.153
1786 0 85.2736 13.3335 1137 163.438 224.944 480.6
1787 0 89.6161 13.4462 1205 152.977 225.834 478.344
1788 0 92.3183 13.5076 1247 161.261 226.766 476.266
1789 0 94.303 13.5627 1279 154.323 226.654 475.385
1790 0 98.4651 13.4261 1322 154.294 224.939 474.483
1791 1 55.0649 12.9302 712 157.079 225.108 495.784
1792 0 57.2557 13.0817 749 156.311 225.143 495.386
1793 0 59.2942 12.8006 759 155.669 225.123 494.711
1794 0 60.2799 13.0392 786 154.219 227.034 493.845
1795 0 62.2415 13.3191 829 159.06 226.48 493.011
1796 0 63.419 13.734 871 160.466 225.735 491.024
1797 0 66.3104 13.7535 912 157.316 226.361 489.629
1798 0 67.189 13.4843 906 157.256 225.387 487.36
1799 0 68.1264 13.7979 940 157.271 227.109 486.797
1800 0 70.2019 14.0595 987 160.949 225.164 485.516
1801 0 73.1908 14.0455 1028 158.274 225.715 483.583
1802 0 76.1523 13.972 1064 164.001 225.768 483.022
1803 0 79.1914 13.8273 1095 166.024 226.237 481.551
1804 0 81.1178 13.5975 1103 166.685 224.629 480.578
1805 0 82.0826 14.4489 1186 169.648 225.828 479.671
1806 0 87.2405 14.0531 1226 167.153 224.958 477.796
1807 0 91.217 13.9009 1268 166.549 224.849 477.019
1808 0 95.2223 13.8623 1320 169.011 223.917 475.376
1809 0 97.1958 14.0747 1368 158.316 224.757 473.575
1810 0 100.261 14.3326 1437 162.993 224.793 471.993
1811 0 102.175 14.4262 1474 165.409 225.22 470.679
1812 1 56.0551 12.8088 718 158.299 226.089 494.331
1813 0 59.1296 12.9546 766 162.867 227.739 493.954
1814 0 58.1421 13.4498 782 163.343 227.298 493.12
1815 0 61.0628 13.3305 814 158.914 226.482 492.251
1816 0 64.1137 13.1017 840 167.271 225.39 490.963
1817 0 64.117 13.5845 871 160.369 225.561 490.673
1818 0 66.24 13.4511 891 164.123 224.736 489.721
1819 0 69.1724 13.5169 935 160.243 227.072 488.467
1820 0 72.244 13.6759 988 163.287 225.352 487.444
1821 0 74.0935 13.7529 1019 168.503 225.899 485.94
1822 0 76.2265 13.7354 1047 164.365 226.16 484.916
1823 0 81.1937 13.3754 1086 162.583 225.29 484.705
1824 0 83.2315 13.4805 1122 160.843 225.854 483.805
1825 0 86.1241 13.527 1165 164.917 227.132 482.394
1826 0 90.1568 13.532 1220 154.848 227.829 481.01
1827 0 94.2466 13.4222 1265 151.332 225.595 479.204
1828 0 98.2007 13.4622 1322 160.943 227.925 476.844
1829 0 102.312 13.2926 1360 159.801 228.709 474.971
1830 0 104.19 13.7729 1435 154.432 226.475 472.919
1831 1 60.1391 11.8392 712 144.678 226.228 496.117
1832 0 61.1519 12.7224 778 159.856 225.751 495.149
1833 0 61.1166 13.3188 814 158.907 227.074 494.037
1834 0 65.0882 12.9517 843 160.422 225.872 493.353
1835 0 67.2051 13.2579 891 159.64 226.552 492.433
1836 0 68.0972 12.9521 882 156.952 227.118 491.215
1837 0 71.2194 13.2689 945 156.599 226.249 490.02
1838 0 74.1431 13.5819 1007 160.806 226.682 489.104
1839 0 75.128 13.5103 1015 161.53 227.741 487.929
1840 0 78.1574 13.4088 1048 168.235 226.882 487.375
1841 0 81.129 13.534 1098 166.722 227.422 485.933
1842 0 82.2045 14.0017 1151 159.668 226.15 484.435
1843 0 86.2819 13.6182 1175 164.54 226.901 482.76
1844 0 90.1379 13.679 1233 164.998 227.484 481.343
1845 0 92.3972 13.6584 1262 163.47 228.429 478.555
1846 0 95.4928 13.6869 1307 163.374 227.644 477.196
1847 0 97.5122 13.8957 1355 166.308 223.982 475.623
1848 1 54.1943 12.732 690 154.749 225.51 497.959
1849 0 56.1643 13.2468 744 157.379 226.362 497.55
1850 0 59.0991 13.0797 773 158.552 225.966 496.326
1851 0 61.1648 12.8505 786 159.753 225.486 495.636
1852 0 61.1102 13.042 797 165.029 226.238 495.35
1853 0 64.1541 13.2026 847 162.813 226.489 493.887
1854 0 64.1783 13.4781 865 160.249 226.962 493.356
1855 0 65.121 13.9433 908 164.67 227.039 492.1
1856 0 69.1894 13.4847 933 160.985 227.831 490.693
1857 0 72.2034 13.2819 959 161.904 227.721 490.047
1858 0 74.1317 13.5974 1008 158.287 226.809 488.49
1859 0 77.2256 13.5059 1043 155.573 227.538 487.409
1860 0 78.2852 13.6297 1067 161.664 227.151 486.128
1861 0 80.155 13.5987 1090 153.765 226.692 485.048
1862 0 84.1832 13.5894 1144 156.262 226.906 483.069
1863 0 86.2473 13.8207 1192 156.461 226.247 482.444
1864 0 90.282 13.5908 1227 154.834 226.225 481.119
1865 0 93.1638 13.6104 1268 161.345 225.912 479.859
1866 1 53.0742 12.5861 668 157.467 227.446 498.731
1867 0 54.081 13.147 711 159.899 226.049 498.059
1868 0 56.0812 13.5874 762 151.056 227.698 496.391
1869 0 60.1078 12.8935 775 151.425 226.321 495.63
1870 0 61.1086 13.2715 811 151.195 227.497 495.027
1871 0 61.1032 13.5181 826 149.822 227.717 493.815
1872 0 65.1373 13.6942 892 150.408 227.851 492.861
1873 0 67.0928 13.2205 887 149.648 230.759 492.28
1874 0 69.0687 13.5372 935 145.363 227.965 490.974
1875 0 71.1568 13.9551 993 145.66 229.072 489.135
1876 0 73.1374 13.9874 1023 146.505 228.938 488.409
1877 0 76.0814 13.8536 1054 146.343 228.874 487.122
1878 0 78.0508 14.0165 1094 143.491 228.235 486.399
1879 0 80.2063 14.0637 1128 146.484 228.042 485.431
1880 0 82.099 14.1902 1165 146.226 228.302 483.442
1881 0 86.0953 13.5431 1166 146.787 228.233 482.568
1882 0 88.206 13.9786 1233 148.322 227.444 480.663
1883 0 88.206 13.9786 1233 159.064 226.444 480.663
1884 0 94.1237 14.3428 1350 144.473 226.766 477.007
1885 0 97.171 14.1297 1373 150.562 227.371 476.77
1886 0 100.179 14.4441 1447 152.465 229.447 474.863
1887 0 103.253 14.5468 1502 152.816 227.401 472.899
1888 0 106.21 14.3677 1526 147.737 227.281 471.646
1889 0 111.223 14.3315 1594 153.639 228.7 470.328
1890 0 114.294 14.5852 1667 149.897 228.608 468.075
1891 0 115.35 14.287 1648 159.107 228.786 467.54
1892 0 119.37 14.8111 1768 159.746 227.564 465.678
1893 1 65.0908 12.7053 827 155.961 227.489 492.391
1894 0 69.0909 13.0987 905 106.01 226.15 491.198
1895 0 71.3762 13.1276 937 160.604 226.203 490.205
1896 0 74.0793 13.1616 975 167.506 227.876 488.693
1897 0 75.1694 13.4629 1012 164.522 226.415 486.939
1898 0 78.1031 13.5718 1060 157.219 227.112 485.749
1899 0 80.1222 13.6042 1090 164.56 226.47 484.199
1900 0 83.0962 13.4543 1118 162.315 224.696 483.362
1901 0 86.2 13.6891 1180 167.802 227.823 481.605
1902 0 91.25 13.4795 1230 168.788 226.236 479.752
1903 0 94.1006 13.6981 1289 158.614 228.429 477.645
1904 0 96.1668 13.8925 1336 169.496 226.371 476.489
1905 0 102.157 13.5967 1389 166.521 228.285 475.214
1906 0 103.117 14.052 1449 172.68 227.83 473.686
1907 0 109.2 13.4799 1472 158.054 227.033 471.522
1908 0 112.251 13.8707 1557 167.628 227.119 469.209
1909 0 116.213 14.0173 1629 166.915 228.271 466.842
1910 0 120.099 13.8136 1659 162.356 226.473 465.377
1911 0 124.112 14.1001 1750 161.979 226.779 462.92
1912 1 72.1378 12.7534 920 158.846 228.514 489.488
1913 0 74.0595 13.1516 974 163.615 228.521 487.848
1914 0 78.0776 13.1024 1023 161.876 227.011 485.973
1915 0 78.1246 13.2353 1034 160.809 228.482 485.294
1916 0 82.085 13.2302 1086 160.021 227.4 483.833
1917 0 83.1104 13.5964 1130 165.584 228.617 481.915
1918 0 87.0648 13.4038 1167 156.613 228.59 481.061
1919 0 89.073 13.4609 1199 161.073 227.427 479.827
1920 0 93.0684 13.7641 1281 165.279 227.07 478.518
1921 0 97.1446 13.6086 1322 160.499 227.454 476.29
1922 0 101.166 13.6805 1384 157.385 227.683 474.559
1923 0 103.221 13.7763 1422 156.27 227.537 472.968
1924 0 107.13 13.927 1492 156.965 229.035 471.05
1925 0 110.204 14.0013 1543 155.01 225.592 469.482
1926 0 115.193 13.6207 1569 153.569 227.327 467.171
1927 0 117.208 13.5485 1588 157.685 226.912 465.564
1928 0 122.132 13.6901 1672 158.26 227.811 464.047
1929 1 64.1126 11.5578 741 157.623 228.437 492.059
1930 0 65.23 12.0957 789 154.346 227.934 489.793
1931 0 68.1684 12.1757 830 144.282 227.498 486.918
1932 0 71.0916 12.6879 902 141.895 228.928 487.537
1933 0 75.1881 12.635 950 159.949 229.607 487.912
1934 0 75.1823 13.301 1000 162.662 227.973 487.095
1935 0 77.1542 13.2592 1023 161.19 227.536 486.436
1936 0 79.0437 13.3217 1053 154.741 228.315 484.763
1937 0 82.1484 12.9887 1067 163.751 228.052 483.702
1938 0 84.1817 13.5659 1142 161.88 226.964 482.058
1939 0 87.1071 13.7302 1196 158.441 226.023 480.147
1940 0 89.1729 13.614 1214 159.808 227.116 478.849
1941 0 93.1717 13.4483 1253 157.22 226.172 477.163
1942 0 96.1997 13.1913 1269 151.517 226.797 475.539
1943 0 97.3954 13.6967 1334 156.148 227.594 474.478
1944 0 99.422 13.4075 1333 159.719 227.474 471.117
1945 0 102.208 13.541 1384 153.804 227.563 467.619
1946 0 105.313 13.5406 1426 151.123 227.403 465.867
1947 0 110.194 14.057 1549 156.061 226.223 464.797
1948 1 53.0276 11.2771 598 150.244 227.109 493.196
1949 0 56.0329 11.636 652 142.475 227.706 495.459
1950 0 59.0121 11.6586 688 149.029 227.294 495.105
1951 0 60.0924 11.3658 683 145.064 227.665 495.016
1952 0 62.0253 11.5437 716 148.395 226.599 494.37
1953 0 64.0295 11.5103 737 154.628 228.071 493.661
1954 0 65.0872 12.1222 789 148.526 227.537 492.786
1955 0 67.0669 12.1222 813 153.63 228.155 491.494
1956 0 70.0976 12.2829 861 150.361 226.544 490.494
1957 0 71.1241 12.2884 874 150.108 227.43 489.846
1958 0 75.0587 11.8574 890 151.68 229.464 488.398
1959 0 76.0494 12.3998 943 150.335 227.285 486.775
1960 0 80.1111 12.4452 997 149.118 226.102 485.468
1961 0 82.1185 12.2628 1007 147.955 227.845 484.292
1962 0 84.0522 12.29 1033 145.121 226.586 481.903
1963 0 87.0654 12.2437 1066 149.28 226.672 481.673
1964 0 90.2031 12.3721 1116 149.138 227.051 480.59
1965 0 93.1606 12.4945 1164 148.306 227.983 477.898
1966 0 94.2803 12.6325 1191 152.927 228.517 477.153
1967 1 52.03 10.9744 571 143.03 227.165 499.725
1968 0 53.0377 11.1619 592 148.649 229.252 499.23
1969 0 56.029 11.619 651 141.685 227.465 497.611
1970 0 55.0496 12.1163 667 149.564 225.237 496.241
1971 0 57.0374 11.9746 683 149.816 227.253 496.177
1972 0 58.0383 12.0955 702 153.641 226.684 495.074
1973 0 60.0443 12.0245 722 151.573 227.359 494.586
1974 0 63.053 12.212 770 153.968 226.064 492.784
1975 0 65.0475 12.0989 787 155.848 227.384 491.598
1976 0 68.0606 12.4301 846 155.162 228.018 490.884
1977 0 70.0795 12.5714 881 157.272 226.691 490.196
1978 0 71.054 12.5398 891 156.706 227.467 489.648
1979 0 73.0647 12.879 941 160.865 227.155 488.418
1980 0 76.1034 12.483 950 161.796 226.967 486.899
1981 0 78.1453 12.6431 988 165.681 226.933 485.651
1982 0 82.1704 12.6201 1037 163.191 227.978 483.949
1983 0 84.0943 12.7476 1072 154.684 227.34 483.554
1984 1 47.0363 11.5018 541 162.277 228.423 501.686
1985 0 48.0537 11.8617 570 155.539 226.593 501.584
1986 0 51.0617 11.9072 608 152.862 227.248 499.429
1987 0 51.0907 12.0961 618 157.325 227.782 500.081
1988 0 53.1457 12.2305 650 154.105 228.502 499.243
1989 0 54.0789 11.8161 639 161.402 227.612 498.264
1990 0 56.0691 12.2884 689 154.849 227.028 497.422
1991 0 57.0497 12.2174 697 155.815 227.977 496.845
1992 0 58.0918 12.4803 725 149.448 226.92 496.417
1993 0 60.0858 12.4322 747 150.758 226.644 495.373
1994 0 61.165 12.736 779 152.516 225.306 494.964
1995 0 62.1322 12.9401 804 154.063 227.112 493.878
1996 0 63.188 12.7239 804 162.8 225.027 493.719
1997 0 65.2161 13.2329 863 160.834 227.236 492.342
1998 0 67.2092 12.8107 861 162.036 228.386 491.835
1999 0 69.2047 12.8748 891 154.38 227.153 491.036
2000 0 71.2001 13.4831 960 157.995 227.771 489.585
2001 0 75.4081 12.8899 972 153.972 225.72 486.427
2002 0 77.1678 13.0625 1008 154.324 227.138 485.915
2003 0 80.2157 12.965 1040 158.763 226.603 484.788
2004 0 81.2191 12.8295 1042 154.186 226.694 483.988
2005 0 85.2893 12.9676 1106 150.076 227.076 482.003
2006 0 88.3703 13.0247 1151 150.675 226.725 480.632
2007 1 48.0372 11.6993 562 155.625 225.347 501.507
2008 0 50.1208 12.0309 603 152.453 225.62 500.426
2009 0 52.0664 12.2728 639 147.307 225.818 499.706
2010 0 54.0531 12.5062 676 157.92 226.956 498.575
2011 0 56.0518 12.2922 689 149.451 228.025 497.353
2012 0 57.0641 13.038 744 153.793 227.949 496.659
2013 0 59.0212 12.8428 758 159.231 228.835 496.119
2014 0 60.1026 13.1442 790 155.715 227.896 494.933
2015 0 60.1031 13.56 815 153.501 228.611 494.206
2016 0 65.1033 13.3941 872 148.406 227.75 492.112
2017 0 66.167 13.2543 877 150.788 227.288 491.431
2018 0 68.0847 13.5566 923 157.156 226.698 491.033
2019 0 69.2157 13.4652 932 158.345 227.43 490.076
2020 0 73.2914 13.4259 984 153.766 227.542 488.305
2021 0 76.2662 13.2693 1012 148.294 227.78 486.611
2022 0 79.2096 13.5085 1070 154.993 225.855 485.264
2023 0 81.1641 13.5281 1098 150.419 226.928 484.197
2024 0 85.3067 13.6683 1166 153.756 227.304 482.522
2025 0 87.2831 13.4619 1175 161.836 227.045 481.386
2026 0 91.2988 13.0122 1188 157.99 226.63 480.815
2027 0 94.1505 13.5103 1272 157.085 228.609 478.894
2028 1 51.1276 12.2048 624 158.952 229.098 500.38
2029 0 53.0439 12.6688 672 151.31 226.735 500.146
2030 0 53.0253 12.7675 677 152.495 227.17 499.123
2031 0 54.0631 13.1698 712 151.684 227.16 498.361
2032 0 57.0838 13.086 747 157.786 227.971 498.209
2033 0 59.0656 13.3919 791 160.025 228.855 496.451
2034 0 61.1714 13.0126 796 151.377 227.001 495.138
2035 0 63.1817 13.3108 841 157.92 227.171 495.083
2036 0 63.1311 13.5274 854 161.882 228.186 494.705
2037 0 64.0509 13.7078 878 161.837 227.167 494.187
2038 0 68.1058 13.4937 919 154.371 228.547 492.289
2039 0 70.1378 13.5733 952 158.888 228.068 491.187
2040 0 72.1531 13.6377 984 154.321 228.772 490.552
2041 0 73.2135 14.4236 1056 156.878 227.938 488.23
2042 0 78.1941 13.799 1079 157.087 228.323 487.714
2043 0 78.1948 14.1186 1104 156.955 227.609 486.854
2044 0 83.1548 14.022 1166 155.041 228.627 485.183
2045 0 84.2822 13.9057 1172 159.638 229.43 483.934
2046 0 87.1994 14.2317 1241 162.362 228.798 482.523
2047 0 89.1285 14.1145 1258 158.339 227.751 481.642
2048 0 92.2124 14.2389 1313 159.307 229.009 480.465
2049 0 94.2143 14.3821 1355 162.903 228.88 478.608
2050 0 99.0929 13.6841 1356 162.834 227.847 477.546
2051 0 101.262 14.0329 1421 164.205 228.325 475.911
2052 0 105.148 14.1514 1488 163.823 229.884 473.964
2053 0 108.228 13.8781 1502 162.055 229.894 472.918
2054 0 110.38 14.2055 1568 167.501 229.035 471.539
2055 0 116.278 13.8117 1606 164.755 229.905 468.927
2056 1 61.1052 12.7649 780 166.918 229.996 496.173
2057 0 61.0905 13.6028 831 161.789 228.629 495.614
2058 0 65.0655 13.2021 859 158.569 228.806 494.118
2059 0 67.1085 13.8134 927 156.192 228.433 492.794
2060 0 70.1262 13.7039 961 159.22 228.655 491.39
2061 0 74.2169 13.6222 1011 163.254 229.114 489.806
2062 0 75.266 13.7114 1032 161.149 230.459 488.133
2063 0 80.186 13.2317 1061 160.494 227.88 487.121
2064 0 82.1846 13.5548 1114 161.979 228.513 485.355
2065 0 88.2607 13.1882 1164 153.004 227.554 483.516
2066 0 90.1405 13.2127 1191 158.354 228.359 481.98
2067 0 93.3584 13.7856 1287 158.733 229.434 480.146
2068 0 98.2487 13.3742 1314 153.695 227.931 478.065
2069 1 49.1086 11.444 562 157.101 228.938 501.893
2070 0 50.1692 11.9994 602 152.267 231.068 501.364
2071 0 52.2448 12.5945 658 152.234 230.336 499.043
2072 0 52.2173 13.0034 679 140.879 229.252 498.566
2073 0 53.0958 13.2026 701 144.372 229.08 497.832
2074 0 55.2062 13.5492 748 147.656 230.945 496.386
2075 0 58.1094 13.3025 773 153.096 231.071 495.697
2076 0 58.0921 13.7712 800 146.574 229.611 493.514
2077 0 60.2129 13.7512 828 156.173 230.935 493.643
2078 0 64.1298 13.5974 872 153.017 230.609 487.157
2079 0 68.1043 13.6115 927 149.794 230.289 487.674
2080 0 69.2349 13.3459 924 156.579 229.516 490.353
2081 0 71.2083 13.6922 975 157.798 231.082 487.607
2082 0 75.1461 13.5736 1020 158.465 230.628 487.802
2083 0 77.1478 13.6491 1053 156.421 231.574 486.532
2084 0 77.2291 13.8031 1066 147.129 229.475 485.639
2085 0 81.1838 13.8328 1123 157.534 228.33 484.581
2086 0 85.2904 13.7765 1175 155.73 227.976 483.097
2087 0 88.1575 14.0544 1239 154.209 229.925 481.63
2088 0 91.2609 13.7847 1258 153.261 233.985 479.625
2089 0 94.4151 14.0444 1326 155.365 232.005 477.051
2090 0 98.235 13.6 1336 156.545 231.494 476.334
2091 0 100.341 14.1617 1421 159.692 232.087 474.142
2092 1 52.1075 13.1267 684 156.81 231.224 499.018
2093 0 54.2127 13.0781 709 145.928 229.804 495.776
2094 0 57.2199 13.3345 763 24.7366 230.632 496.377
2095 0 59.241 13.0653 774 160.355 230.317 496.357
2096 0 59.1506 13.8967 822 154.807 232.589 495.101
2097 0 60.0989 13.7607 827 158.389 231.735 495.395
2098 0 62.1716 13.704 852 165.545 231.507 493.073
2099 0 65.0678 13.9086 905 156.383 231.413 492.368
2100 0 68.3835 13.5852 929 161.943 232.699 491.659
2101 0 69.1438 13.8696 959 163.156 232.499 490.593
2102 0 71.091 14.1227 1004 165.051 232.329 489.723
2103 0 73.2484 14.0344 1028 155.485 233.665 488.716
2104 0 75.2261 14.0377 1056 165.624 232.253 486.995
2105 0 79.2338 14.0597 1114 156.197 233.419 484.631
2106 0 80.2889 14.0991 1132 164.445 232.799 484.45
2107 0 83.1289 13.8821 1154 160.092 232.101 483.063
2108 0 86.2612 13.8069 1191 153.364 233.228 480.668
2109 0 90.2095 13.7125 1237 162.005 231.378 479.779
2110 1 46.1993 12.6192 583 161.329 231.388 501.19
2111 0 47.1396 12.8342 605 160.729 231.792 500.483
2112 0 50.0416 13.0691 654 156.208 231.017 499.466
2113 0 50.1153 13.6685 685 153.036 232.298 499.445
2114 0 53.0704 13.3785 710 147.917 231.755 498.017
2115 0 54.2409 13.311 722 141.856 233.418 497.367
2116 0 54.2422 13.8084 749 155.632 232.399 495.876
2117 0 57.238 14.2039 813 152.986 231.402 494.595
2118 0 58.1926 13.7474 800 153.399 233.506 494.618
2119 0 59.1893 13.7187 812 148.128 233.367 492.994
2120 0 59.392 14.278 848 145.001 232.888 491.533
2121 0 63.2079 14.3337 906 155.964 232.225 490.756
2122 0 65.2911 14.2745 932 157.732 231.68 490.099
2123 0 68.3082 14.0979 963 156.468 231.823 489.586
2124 0 69.3336 14.1778 983 159.436 231.692 488.677
2125 0 71.2469 14.2603 1016 153.214 230.318 487.422
2126 0 75.237 14.0224 1055 157.031 232.002 485.842
2127 0 77.182 14.2779 1102 158.389 232.157 484.793
2128 0 80.24 14.1451 1135 155.956 231.249 482.964
2129 0 83.2785 14.3494 1195 155.538 232.035 481.394
2130 0 85.2422 14.3591 1224 154.792 232.082 479.85
2131 0 89.3435 14.1924 1268 156.545 232.033 477.937
2132 1 47.168 12.0633 569 155.459 233.409 499.954
2133 0 48.1771 12.9937 626 158.323 232.682 499.321
2134 0 48.3461 13.1758 637 159.176 234.385 499.248
2135 0 51.2297 13.0784 670 162.533 231.633 498.667
2136 0 52.1657 13.6105 710 159.438 231.907 497.356
2137 0 55.2105 13.3127 735 156.941 232.341 496.435
2138 0 55.2492 13.5025 746 161.647 231.875 496.271
2139 0 56.3684 13.7666 776 157.211 231.345 494.456
2140 0 59.182 14.0414 831 159.396 232.671 493.805
2141 0 61.2753 13.8718 850 168.782 231.926 493.638
2142 0 63.2201 14.1411 894 161.436 232.063 492.777
2143 0 65.1958 13.7892 899 162.225 231.705 491.737
2144 0 67.2146 13.9256 936 165.926 231.433 490.364
2145 0 70.2286 14.2535 1001 163.982 233.944 488.933
2146 0 75.2961 13.9449 1050 167.363 230.171 487.539
2147 0 76.1741 14.2043 1082 167.815 232.361 486.957
2148 0 77.3141 14.2924 1105 154.61 232.265 484.576
2149 0 81.2887 14.2947 1162 161.203 231.306 482.841
2150 0 84.327 13.9338 1175 161.124 232.237 481.258
2151 0 88.4714 14.0949 1247 162.805 231.204 479.065
2152 1 47.2894 12.0323 569 163.453 229.979 500.54
2153 0 48.1313 13.1723 634 156.301 229.653 499.886
2154 0 50.121 12.8888 646 153.904 230.424 499.588
2155 0 51.0569 13.7102 700 159.377 231.93 498.734
2156 0 53.1646 13.2231 703 154.314 230.509 498.193
2157 0 55.132 13.8032 761 155.148 231.075 497.2
2158 0 54.2049 14.0578 762 150.904 230.861 497.046
2159 0 58.1821 13.5265 787 155.586 230.535 496.282
2160 0 60.1721 13.8769 835 147.032 232.126 494.363
2161 0 61.2129 14.0167 858 156.998 230.167 493.72
2162 0 63.1496 13.6343 861 145.208 232.107 493.264
2163 0 64.1257 14.0037 898 152.11 232.977 492.285
2164 0 67.2622 13.8859 934 151.647 232.944 490.827
2165 0 70.1454 13.6859 960 156.196 233.38 490.218
2166 0 71.1057 14.0917 1002 152.872 233.931 488.674
2167 0 74.081 14.4301 1069 155.325 232.181 487.458
2168 0 78.0633 13.7581 1074 145.164 232.25 486.403
2169 0 79.2541 14.5608 1154 152.102 233.687 484.753
2170 0 82.2564 13.9564 1148 159.737 231.243 484.411
2171 0 84.1091 14.1007 1186 161.06 231.193 483.489
2172 0 86.133 14.6402 1261 154.806 230.92 482.175
2173 0 89.1922 14.4295 1287 159.254 230.558 480.337
2174 0 92.1614 14.5289 1339 160.871 230.891 479.455
2175 0 95.1871 14.5713 1387 166.056 229.994 478.535
2176 0 97.1727 14.8498 1443 161.586 229.581 476.649
2177 0 102.052 14.1496 1444 167.296 231.986 476.118
2178 0 103.298 14.8889 1538 168.138 231.029 474.178
2179 0 107.331 14.9351 1603 166.769 230.965 472.131
2180 0 109.099 14.7389 1608 161.521 233.101 470.898
2181 0 114.171 14.8811 1699 161.733 231.642 469.148
2182 0 118.205 14.9571 1768 166.401 231.569 466.606
2183 0 122.116 15.0922 1843 170.968 231.297 464.382
2184 0 126.198 14.8814 1878 166.272 232.521 462.736
2185 0 128.479 14.9363 1919 161.445 232.725 460.992
2186 0 131.311 14.9111 1958 162.242 231.586 459.961
2187 0 135.297 14.9596 2024 167.353 231.088 457.653
2188 0 141.255 15.1994 2147 168.898 231.29 455.789
2189 0 144.237 15.0516 2171 170.016 231.253 453.917
2190 0 147.38 15.2599 2249 173.787 229.955 451.707
2191 0 155.338 15.3407 2383 167.92 230.971 449.094
2192 0 160.243 15.3018 2452 172.473 231.57 446.908
2193 0 166.521 15.1513 2523 168.409 229.734 443.594
2194 0 171.272 15.3265 2625 168.614 230.309 440.218
2195 0 178.483 15.1835 2710 170.972 231.264 437.441
2196 0 185.305 15.3261 2840 169.602 230.009 433.018
2197 0 190.522 15.2109 2898 165.651 230.837 430.795
2198 1 150.108 14.1098 2118 170.614 231.314 450.904
2199 0 155.218 14.7212 2285 175.063 231.91 447.276
2200 0 162.259 14.9329 2423 170.91 230.619 442.928
2201 0 168.231 15.3836 2588 170.524 231.354 439.55
2202 0 174.196 15.1496 2639 165.278 231.711 437.587
2203 0 180.19 15.0397 2710 170.069 232.425 434.772
2204 0 186.529 15.2362 2842 166.907 231.412 431.076
2205 0 193.446 15.0223 2906 168.988 232.73 429.372
2206 0 200.359 15.2975 3065 171.045 232.785 425.511
2207 0 206.309 15.5155 3201 171.885 233.104 421.938
2208 0 215.21 16.2865 3505 158.03 232.255 415.563
2209 0 221.315 15.4486 3419 168.236 234.005 413.794
2210 0 230.385 15.9472 3674 162.926 233.414 408.818
2211 0 237.33 15.7544 3739 169.973 230.285 404.252
2212 0 245.363 15.312 3757 170.773 232.064 402.174
2213 0 246.665 14.2177 3507 168.72 232.276 402.213
2214 1 57.0267 12.4503 710 152.441 232.646 493.425
2215 0 58.0344 12.5271 727 157.399 232.292 493.494
2216 0 61.0744 12.7058 776 160.92 231.323 493.321
2217 0 64.1018 12.7297 816 157.146 232.429 492.745
2218 0 64.1018 12.7297 816 167.893 234.429 492.745
2219 0 67.0484 12.8266 860 150.78 231.399 490.167
2220 0 70.0991 12.9103 905 156.996 231.514 489.014
2221 0 73.1159 12.8973 943 161.708 231.908 487.639
2222 0 75.0828 13.1188 985 162.184 231.875 486.571
2223 0 77.1448 13.0404 1006 163.396 232.027 484.934
2224 0 81.2832 12.8563 1045 161.754 231.953 483.688
2225 0 81.1864 13.4136 1089 158.61 232.198 482.58
2226 0 84.1302 13.8119 1162 158.538 232.471 480.663
2227 0 88.1378 13.2406 1167 161.053 234.488 479.859
2228 0 90.2696 12.9722 1171 154.936 233.071 477.028
2229 1 50.1276 10.573 530 144.336 232.549 498.847
2230 0 51.154 10.9864 562 141.107 229.838 498.77
2231 0 55.1585 11.4216 630 140.246 231.89 497.31
2232 0 56.0196 11.8173 662 146.021 231.092 496.631
2233 0 57.0587 12.0402 687 144.965 232.953 495.365
2234 0 59.0807 11.8651 701 138.374 232.919 494.245
2235 0 61.1158 11.7973 721 140.2 231.596 493.716
2236 0 63.1259 12.1503 767 138.829 232.6 492.374
2237 0 65.0628 12.2804 799 141.449 231.509 491.416
2238 0 66.072 12.1383 802 141.834 232.521 490.819
2239 0 68.2223 12.1661 830 141.869 233.435 489.814
2240 0 70.1411 11.8761 833 143.289 233.006 488.31
2241 1 38.0954 9.58121 365 140.753 233.937 505.236
2242 0 40.0757 10.1059 405 137.042 233.644 504.427
2243 0 41.0689 10.1537 417 135.223 232.477 504.058
2244 0 43.013 10.4852 451 130.038 234.271 502.814
2245 0 44.0558 11.7578 518 132.203 233.207 501.218
2246 0 45.1005 11.2416 507 133.655 233.826 501.325
2247 0 47.0284 11.4399 538 137.708 233.072 500.519
2248 0 47.1532 12.067 569 135.112 233.074 500.091
2249 0 48.1428 12.1306 584 133.589 234.676 498.635
2250 0 51.0707 11.768 601 133.957 232.2 497.937
2251 0 51.1144 11.8949 608 136.63 232.946 497.6
2252 0 53.1364 12.0257 639 134.272 232.116 496.518
2253 0 54.1346 12.5059 677 140.25 232.106 496.39
2254 0 55.1794 12.3778 683 139.675 233.214 495.375
2255 0 56.0877 12.427 697 135.284 232.554 494.549
2256 0 59.2407 11.9681 709 134.082 231.195 494.346
2257 0 61.0641 12.6261 771 139.021 229.83 492.306
2258 0 64.1261 12.5066 802 136.996 231.089 492.165
2259 0 65.0902 12.7362 829 134.019 231.065 490.304
2260 0 67.1081 13.0834 878 142.752 231.538 490.154
2261 0 69.1024 12.865 889 147.267 231.232 489.784
2262 0 68.0687 13.883 945 150.953 232.134 488.447
2263 0 71.1271 13.1595 936 149.653 231.986 487.793
2264 0 73.1727 13.557 992 142.846 231.341 486.751
2265 0 78.2124 13.6551 1068 148.836 232.645 484.877
2266 0 78.1823 13.558 1060 149.408 232.695 483.842
2267 0 82.1511 13.1952 1084 150.266 231.457 482.356
2268 0 84.4411 13.1453 1110 152.425 232.777 481.129
2269 0 85.2163 13.7884 1175 147.877 232.434 479.585
2270 0 89.3139 13.5701 1212 155.082 231.344 478.831
2271 0 91.3483 13.9576 1275 147.734 232.551 477.322
2272 0 94.3144 13.3914 1263 149.656 231.775 476.177
2273 0 97.2751 13.6417 1327 154.195 229.821 474.448
2274 0 101.111 13.5692 1372 158.778 230.956 473.407
2275 0 106.186 13.6835 1453 154.802 230.919 471.215
2276 1 54.0905 12.6825 686 153.519 231.86 494.885
2277 0 56.2142 13.3596 751 143.192 231.577 493.707
2278 0 59.0565 12.9537 765 149.159 229.976 492.882
2279 0 59.1463 13.2722 785 149.493 233.056 492.796
2280 0 62.1108 13.6852 850 147.912 233.993 492.025
2281 0 63.0768 13.8561 874 151.611 231.977 491.475
2282 0 68.0627 13.3553 909 151.505 233.674 490.349
2283 0 69.0501 13.5843 938 151.836 232.776 489.445
2284 0 72.1063 13.6743 986 156.044 232.425 487.713
2285 0 74.2143 13.7305 1019 153.444 233.142 486.68
2286 0 78.122 13.7733 1076 157.729 233.282 485.098
2287 0 80.1757 13.8072 1107 154.298 232.655 483.994
2288 0 83.148 13.7586 1144 116.927 234.51 482.758
2289 0 86.1366 13.9894 1205 155.742 233.146 481.672
2290 0 89.1373 13.9448 1243 149.315 233.111 479.805
2291 0 93.1861 13.7896 1285 150.804 234.251 478.191
2292 0 93.2109 14.4189 1344 156.249 234.507 476.771
2293 0 98.1798 13.8929 1364 149.781 234.388 475.703
2294 0 102.134 14.0208 1432 154.247 232.352 473.856
2295 1 54.0593 12.2643 663 157.729 232.196 497.695
2296 0 55.0454 12.8803 709 154.817 232.918 496.79
2297 0 58.0834 12.5853 731 160.056 232.337 495.985
2298 0 59.0406 13.2282 781 155.732 230.452 495.136
2299 0 60.0359 13.6252 818 156.628 230.249 494.829
2300 0 63.0719 13.4133 846 160.67 231.309 494.309
2301 0 64.1199 13.5371 868 150.673 230.581 493.224
2302 0 66.171 13.5105 894 162.87 232.14 492.044
2303 0 67.1636 14.0106 941 161.103 231.874 491.774
2304 0 70.2607 13.4641 946 164.262 230.552 490.929
2305 0 73.1251 13.7709 1007 162.973 231.043 490.015
2306 0 74.1239 14.1115 1046 157.072 231.006 488.897
2307 0 76.183 14.0451 1070 166.761 231.582 487.662
2308 0 80.1643 13.8466 1110 161.661 230.138 486.636
2309 0 82.1099 14.0178 1151 159.472 231.397 484.911
2310 0 84.1011 13.8762 1167 158.608 230.428 482.997
2311 0 86.2727 14.118 1218 167.067 231.7 482.792
2312 0 88.0703 14.0683 1239 155.364 231.144 480.624
2313 0 93.0874 13.9546 1299 164.888 229.95 479.099
2314 0 96.193 14.0447 1351 154.765 231.89 477.743
2315 1 57.1488 12.0037 686 156.052 230.496 497.958
2316 0 59.044 13.075 772 163.657 231.381 496.567
2317 0 61.2178 13.5091 827 160.457 231.582 494.848
2318 0 64.077 13.8271 886 161.249 232.424 493.626
2319 0 65.1046 14.1311 920 159.711 232.637 492.902
2320 0 67.0835 14.3701 964 162.414 231.065 491.803
2321 0 70.2087 13.7875 968 157.256 231.96 490.794
2322 0 72.1138 14.1859 1023 160.299 232.109 489.415
2323 0 75.2036 13.9887 1052 154.04 231.125 488.538
2324 0 78.1631 14.1883 1109 160.204 231.857 487.34
2325 0 80.1527 13.9983 1122 158.529 232.099 486.127
2326 0 83.1119 13.8127 1148 161.348 231.174 485.376
2327 0 86.3183 13.7283 1185 154.062 231.375 483.395
2328 0 88.1045 14.0061 1234 155.661 231.575 481.738
2329 0 92.1395 14.0765 1297 153.634 234.011 479.826
2330 0 94.3221 14.2596 1345 157.199 232.865 477.804
2331 0 98.5438 13.9938 1379 160.801 233.558 477.198
2332 0 101.39 14.0941 1429 155.141 233.617 475.195
2333 0 104.271 14.4623 1508 162.705 232.917 474.616
2334 0 107.374 14.687 1577 168.279 232.751 472.678
2335 0 111.204 14.3969 1601 162.998 234.427 470.596
2336 0 113.274 14.487 1641 165.505 231.729 469.325
2337 0 118.429 14.2786 1691 170.127 231.503 465.793
2338 0 123.223 14.5184 1789 160.821 231.32 463.887
2339 0 124.246 14.4633 1797 163.467 233.378 463.098
2340 0 124.246 14.4633 1797 172.462 235.378 463.098
2341 0 135.257 14.5131 1963 165.575 233.629 458.75
2342 0 138.537 14.5448 2015 159.138 235.472 455.627
2343 1 71.0873 14.0953 1002 170.122 234.083 488.923
2344 0 75.0872 13.8772 1042 168.171 231.715 487.344
2345 0 76.2756 13.8314 1055 168.9 232.744 486.704
2346 0 79.1303 13.9011 1100 169.182 233.224 485.497
2347 0 81.1197 13.8684 1125 170.099 232.416 484.244
2348 0 83.1392 13.9766 1162 162.035 233.62 483
2349 0 87.287 14.1831 1238 173.416 232.083 482.469
2350 0 89.2497 14.1513 1263 168.874 232.416 480.481
2351 0 92.2991 14.2688 1317 168.199 233.774 479.024
2352 0 96.2052 14.0221 1349 171.065 233.877 478.245
2353 0 99.1732 14.0865 1397 168.661 231.559 476.511
2354 0 103.207 14.1269 1458 174.848 231.57 474.49
2355 0 106.215 14.3388 1523 171.985 232.379 473.014
2356 0 109.288 14.5213 1587 165.067 232.706 470.905
2357 0 111.325 14.4443 1608 170.721 233.959 470.4
2358 0 117.258 14.4808 1698 172.864 234.088 468.035
2359 0 121.475 14.4228 1752 170.762 232.256 465.73
2360 0 126.452 14.8357 1876 173.431 233.594 463.061
2361 0 132.385 14.624 1936 170.991 234.167 460.284
2362 0 138.449 14.5108 2009 165.839 232.983 458.03
2363 1 68.2667 13.916 950 168.033 235.839 489.94
2364 0 70.2144 14.7833 1038 172.786 234.32 488.051
2365 0 73.1631 14.8572 1087 165.595 233.358 486.763
2366 0 75.2192 14.9962 1128 168.941 233.319 486.289
2367 0 80.1315 14.7632 1183 171.748 232.661 484.466
2368 0 82.0787 15.2049 1248 172.627 232.988 482.349
2369 0 84.36 15.0427 1269 170.88 233.926 481.044
2370 0 87.2499 15.2092 1327 170.295 231.737 479.686
2371 0 91.3445 14.615 1335 160.845 232.103 477.867
2372 0 93.1581 15.0926 1406 166.912 232.368 476.477
2373 0 100.175 15.1235 1515 167.938 231.708 474.397
2374 0 103.117 14.8084 1527 159.502 232.419 472.099
2375 0 107.136 14.7382 1579 169.203 230.738 470.399
2376 0 111.204 14.6128 1625 170.063 231.369 468.276
2377 1 44.0962 13.5613 598 162.182 232.171 500.388
2378 0 44.0789 13.9523 615 168.857 230.468 500.057
2379 0 47.0776 13.5733 639 162.455 230.925 498.408
2380 0 48.0574 14.0249 674 167.266 230.522 497.859
2381 0 50.2192 13.7398 690 168.891 231.816 496.871
2382 0 52.1219 13.8713 723 170.14 229.678 496.459
2383 0 53.0803 13.96 741 161.76 229.779 495.301
2384 0 55.2382 13.831 764 165.792 231.597 494.775
2385 0 55.1015 14.8272 817 168.726 230.965 494.113
2386 0 58.0482 14.2985 830 167.273 230.63 493.124
2387 0 60.1065 14.3079 860 169.943 228.791 492.309
2388 0 60.1065 14.3079 860 180.806 226.791 492.309
2389 0 64.1385 14.4531 927 169.478 228.645 490.511
2390 0 67.0233 14.3831 964 168.212 228.276 489.218
2391 0 70.056 14.2457 998 167.14 228.071 487.757
2392 0 71.0897 14.3762 1022 171.29 229.011 486.557
2393 0 74.1159 14.3964 1067 163.275 229.583 484.424
2394 0 79.0692 13.9751 1105 171.207 229.651 483.175
2395 0 80.2047 14.0765 1129 170.469 230.444 481.562
2396 1 42.1794 13.0158 549 167.827 229.122 500.091
2397 0 43.173 13.2027 570 161.802 231.635 499.661
2398 0 44.1001 13.6054 600 168.13 230.273 499.06
2399 0 46.0346 13.6202 627 166.104 231.748 497.946
2400 0 48.0214 13.494 648 163.894 230.228 497.094
2401 0 50.0506 13.806 691 165.838 230.331 496.408
2402 0 51.0465 13.9089 710 163.868 229.637 495.066
2403 0 52.1873 14.0839 735 167.586 229.981 495.159
2404 0 55.0251 13.7574 757 163.119 231.32 493.629
2405 0 57.0548 13.8463 790 161.178 231.354 492.652
2406 0 57.2427 14.2376 815 163.721 231.863 491.36
2407 0 61.0387 13.7618 840 156.818 232.54 490.935
2408 0 62.0719 13.9193 864 156.081 231.374 489.642
2409 0 64.0565 14.0657 901 159.724 233.525 489.075
2410 0 67.0827 14.0573 943 155.463 232.695 487.818
2411 0 70.0706 14.0287 983 163.658 231.582 486.802
2412 0 73.0818 14.1212 1032 163.447 232.626 484.687
2413 0 76.098 14.1134 1074 159.054 231.388 483.294
2414 0 77.0527 14.263 1099 164.793 229.671 482.273
2415 1 42.0093 12.3306 518 152.693 229.612 500.098
2416 0 42.0692 13.3114 560 162.352 228.982 499.411
2417 0 43.0354 13.2449 570 158.588 229.993 498.865
2418 0 45.0618 13.4038 604 158.793 230.376 498.022
2419 0 45.1059 13.6789 617 158.541 231.935 497.371
2420 0 48.0265 13.8257 664 160.184 231.407 496.16
2421 0 49.0731 13.8569 680 167.685 230.024 496.135
2422 0 51.1334 13.631 697 166.501 230.126 495.017
2423 0 52.0762 13.9603 727 166.733 230.172 494.531
2424 0 55.0939 13.958 769 170.495 228.991 493.156
2425 0 56.1329 13.8065 775 166.241 230.004 492.546
2426 0 58.111 14.1109 820 169.691 230.354 491.785
2427 0 61.089 14.4052 880 168.425 230.808 490.077
2428 0 63.0607 14.2561 899 164.237 231.26 488.597
2429 0 65.0547 14.2495 927 160.958 232.187 487.429
2430 0 67.118 14.1393 949 165.377 233.204 486.198
2431 0 71.089 14.2638 1014 167.59 232.129 484.87
2432 0 73.0713 14.3969 1052 160.542 231.37 483.268
2433 0 75.071 14.0534 1055 165.854 231.285 483.019
2434 0 80.1668 14.1206 1132 172.06 232.158 481.139
2435 1 42.0629 12.7428 536 165.106 230.045 499.504
2436 0 43.0822 13.6019 586 164.478 230.77 498.973
2437 0 45.0698 13.5568 611 160.345 230.512 497.825
2438 0 47.1014 13.4179 632 164.307 232.778 496.93
2439 0 49.1352 13.7579 676 161.049 232.237 495.571
2440 0 50.21 13.6427 685 164.85 232.19 494.955
2441 0 52.1967 13.6982 715 162.338 233.49 494.422
2442 0 53.1621 13.7692 732 163.949 234.105 493.895
2443 0 54.0727 14.3141 774 159.001 234.127 492.899
2444 0 57.1155 14.0767 804 160.49 233.789 492.284
2445 0 59.1711 14.0271 830 161.03 234.994 491.687
2446 0 60.1654 14.4269 868 159.767 235.788 490.866
2447 0 62.2242 14.1746 882 162.676 233.633 489.974
2448 0 63.2136 14.538 919 162.795 236.04 489.215
2449 0 65.1004 14.3624 935 164.292 234.303 488.12
2450 0 68.1049 14.5217 989 162.104 233.644 486.653
2451 0 70.0701 14.1858 994 160.136 233.919 486.134
2452 0 72.1339 14.5701 1051 162.556 233.652 485.41
2453 0 75.0643 14.3743 1079 165.555 235.085 483.413
2454 0 77.1447 14.57 1124 167.501 231.89 482.296
2455 0 81.247 14.2651 1159 161.45 232.058 480.588
2456 1 44.0692 13.5015 595 165.677 232.597 498.079
2457 0 45.1061 13.7454 620 159.758 232.319 497.781
2458 0 46.1126 14.1393 652 164.33 233.026 497.252
2459 0 46.1209 14.0934 650 161.402 234.077 496.154
2460 0 50.097 13.6934 686 167.934 232.921 495.461
2461 0 51.2222 14.0369 719 165.595 233.996 494.857
2462 0 53.1204 13.7612 731 168.798 233.168 493.763
2463 0 54.138 14.2044 769 171.072 232.442 493.436
2464 0 56.1919 13.8098 776 173.723 231.966 492.442
2465 0 55.1395 14.9439 824 164.967 232.232 490.455
2466 0 60.1315 14.1191 849 170.623 233.411 489.874
2467 0 61.0522 14.6104 892 173.651 234.08 488.688
2468 0 64.1527 13.9667 896 165.747 234.336 487.335
2469 0 67.134 14.4338 969 171.277 233.13 486.096
2470 0 68.093 14.0984 960 160.04 233.752 484.822
2471 0 72.2182 14.1516 1022 169.645 233.4 483.461
2472 0 74.0968 14.4676 1072 173.214 233.226 481.938
2473 0 76.1093 14.6368 1114 173.782 232.303 480.502
2474 0 80.133 14.5508 1166 171.597 233.14 478.821
2475 0 82.1631 14.8363 1219 167.067 232.643 476.668
2476 0 85.2604 14.3795 1226 168.387 231.918 475.679
2477 1 46.1546 13.3898 618 164.445 232.095 494.675
2478 0 47.0985 13.4611 634 165.481 232.863 493.224
2479 0 50.0582 13.4244 672 151.131 233.842 492.506
2480 0 51.0986 13.6403 697 161.9 234.62 492.443
2481 0 53.2531 13.5767 723 162.131 235.347 490.989
2482 0 52.1519 14.0359 732 167.44 235.078 490.449
2483 0 56.0402 13.8829 778 164.003 233.562 489.598
2484 0 58.1487 14.1362 822 158.878 233.873 488.472
2485 0 60.0254 13.9941 840 165.962 233.725 487.835
2486 0 61.0359 14.3194 874 168.398 233.941 486.763
2487 0 65.0547 14.1727 922 167.54 234.913 485.832
2488 0 67.1731 14.1723 952 158.341 235.038 484.492
2489 0 70.1872 13.9484 979 170.381 235.555 483.896
2490 0 71.3091 14.4442 1030 163.75 234.396 482.506
2491 0 74.0437 14.2348 1054 164.189 236.465 482.286
2492 0 78.2516 14.3895 1126 162.631 235.292 480.446
2493 0 80.1725 14.2942 1146 165.808 234.991 479.14
2494 0 82.2737 14.2451 1172 162.268 235.112 477.573
2495 0 86.2695 14.4083 1243 164.883 234.765 475.518
2496 0 89.1732 14.4999 1293 165.043 235.567 473.945
2497 0 92.1741 14.5811 1344 163.741 234.522 472.509
2498 0 96.2202 14.9241 1436 160.384 234.561 469.571
2499 1 47.2459 12.4032 586 163.034 233.271 494.648
2500 0 49.0345 12.6646 621 158.166 235.986 492.816
2501 0 52.1182 12.299 641 160.886 236.176 492.548
2502 0 53.057 12.6468 671 157.031 233.523 491.669
2503 0 54.0598 12.8376 694 168.414 235.715 491.206
2504 0 57.0725 12.9835 741 166.906 235.179 490.378
2505 0 59.0681 12.9004 762 158.486 233.178 488.719
2506 0 60.0932 13.3127 800 166.89 233.764 488.58
2507 0 61.1039 13.5016 825 160.35 234.344 487.154
2508 0 63.1734 13.4075 847 160.506 233.501 486.695
2509 0 65.1113 13.331 868 167.046 234.194 485.755
2510 0 68.363 13.1211 897 160.315 234.618 484.534
2511 0 71.2596 13.3315 950 166.88 235.277 483.579
2512 0 74.137 12.8816 955 168.781 233.714 482.72
2513 0 76.0694 13.2116 1005 159.944 235.195 480.209
2514 0 78.1886 13.007 1017 157.833 235.365 479.413
2515 0 81.1783 13.0207 1057 160.054 234.95 477.535
2516 0 83.1145 13.5235 1124 162.715 234.731 475.834
2517 0 86.0728 13.3375 1148 158.227 235.974 474.618
2518 0 91.1498 12.8909 1175 166.773 236.734 473.148
2519 0 93.1693 13.2662 1236 156.553 235.408 470.92
2520 0 97.2051 13.024 1266 162.786 236.268 469.291
2521 1 52.1306 11.8932 620 155.45 236.832 491.494
2522 0 54.0349 12.2328 661 154.342 236.337 490.737
2523 0 58.0911 11.9123 692 159.598 234.192 489.997
2524 0 58.0408 12.0949 702 149.419 233.979 489.02
2525 0 63.078 11.9217 752 159.993 234.382 487.556
2526 0 63.0693 12.4149 783 153.439 233.264 486.261
2527 0 67.1261 12.1413 815 159.502 233.725 484.661
2528 0 68.0514 12.2555 834 160.42 233.797 483.91
2529 0 73.1268 12.0202 879 159.243 234.292 482.738
2530 0 75.1026 12.0369 904 154.147 233.793 480.479
2531 0 78.1168 12.1997 953 155.376 234.316 478.834
2532 0 80.1148 12.0951 969 157.056 234.729 477.497
2533 0 84.1204 12.5653 1057 149.302 235.393 476.158
2534 0 87.1451 11.8997 1037 157.511 234.564 474.685
2535 1 45.02 10.462 471 148.749 238.034 495.851
2536 0 45.0979 11.0205 497 152.483 235.372 494.326
2537 0 48.0385 11.0536 531 151.552 235.343 493.648
2538 0 49.1256 11.094 545 150.901 235.198 492.851
2539 0 50.1053 11.4559 574 148.733 236.371 492.427
2540 0 52.0881 11.7685 613 151.476 237.214 490.972
2541 0 54.045 11.4719 620 142.476 237.079 489.829
2542 0 55.0501 11.8256 651 146.344 237.038 488.725
2543 0 58.0712 11.6753 678 138.63 237.037 487.953
2544 0 58.0358 11.9237 692 146.379 236.461 486.47
2545 0 61.0745 11.8707 725 142.457 236.367 486.276
2546 0 62.11 11.8338 735 143.705 238.767 484.789
2547 0 65.077 11.4019 742 131.836 237.049 483.693
2548 0 67.1069 11.8766 797 139.991 237.315 482.503
2549 0 70.1941 11.9241 837 133.523 237.45 480.707
2550 0 72.1881 11.7609 849 137.617 238.225 478.859
2551 1 36.1252 9.02418 326 132.058 238.092 496.574
2552 0 38.2179 9.02719 345 133.507 236.791 495.504
2553 0 38.1596 10.1416 387 138.77 236.532 495.687
2554 0 40.066 10.7323 430 132.374 235.363 494.972
2555 0 42.034 10.9673 461 127.677 234.095 494.941
2556 0 43.0435 11.3838 490 131.276 237.212 493.427
2557 0 43.0683 12.2828 529 137.817 237.56 492.316
2558 0 46.1792 11.3471 524 136.464 235.939 491.635
2559 0 46.125 11.5122 531 134.938 236.139 491.556
2560 0 48.1505 11.6094 559 133.909 236.599 491.163
2561 0 49.2411 12.0022 591 138.663 236.357 490.584
2562 0 50.1062 11.8748 595 133.808 234.595 489.645
2563 0 52.107 11.8218 616 139.258 236.063 488.956
2564 0 54.1982 11.9561 648 142.313 233.985 488.356
2565 0 52.0985 12.6107 657 140.785 234.199 487.88
2566 0 54.1919 12.6587 686 137.94 235.025 487.27
2567 0 57.1579 12.2643 701 147.518 235.026 484.007
2568 0 59.121 12.6013 745 136.419 235.854 483.591
2569 0 61.28 13.1201 804 143.685 237.281 480.573
2570 0 60.6331 13.1446 797 144.422 236.199 480.779
2571 0 63.2929 12.9398 819 137.012 237.095 479.96
2572 0 65.324 13.1192 857 138.365 236.666 478.485
2573 0 65.3083 13.1836 861 146.562 237.058 477.332
2574 0 69.2824 12.9326 896 141.683 236.865 477.595
2575 0 70.4128 12.725 896 142.087 236.077 476.251
2576 1 34.2502 9.75176 334 143.611 236.994 495.491
2577 0 35.3452 10.7228 379 137.668 235.559 494.628
2578 0 36.2603 10.3695 376 137.872 236.771 494.261
2579 0 39.2455 10.7019 420 135.279 236.94 493.793
2580 0 39.3174 11.6234 457 127.698 235.462 494.05
2581 0 41.0889 11.9254 490 127.135 235.731 493.573
2582 0 42.034 11.8951 500 126.54 234.15 493.728
2583 0 44.161 11.526 509 130.686 234.676 493.273
2584 0 44.1696 12.2709 542 128.491 234.085 489.662
2585 0 47.1297 11.9458 563 123.526 236.298 490.103
2586 0 46.0987 12.5817 580 125.936 237.207 490.972
2587 0 47.1058 12.6311 595 127.007 236 490.166
2588 0 48.031 12.8459 617 130.643 235.376 489.433
2589 0 51.3341 12.6037 647 127.615 236.318 487.114
2590 0 53.1771 12.3361 656 129.241 236.157 487.817
2591 0 52.1662 12.9203 674 130.935 234.616 486.78
2592 0 56.302 11.9001 670 123.922 235.904 486.17
2593 0 58.2115 12.2828 715 132.323 235.607 485.58
2594 0 60.1721 12.4144 747 128.353 235.485 483.863
2595 0 60.3319 12.7296 768 121.342 236.027 481.954
2596 0 63.3669 12.7353 807 131.649 235.543 480.504
2597 0 65.3416 12.7178 831 128.664 235.603 479.816
2598 1 32.5019 8.7995 286 132.902 235.503 496.797
2599 0 33.5074 9.99781 335 131.597 235.015 495.475
2600 0 33.4927 9.9126 332 133.973 236.343 495.428
2601 0 34.4827 10.382 358 130.964 234.408 494.531
2602 0 35.5367 10.7494 382 132.06 236.11 494.524
2603 0 40.4656 10.3298 418 123.895 235.978 492.773
2604 0 41.3309 11.1055 459 135.429 236.227 492.721
2605 0 41.3309 11.1055 459 144.647 237.227 492.721
2606 0 41.0695 12.0527 495 144.461 234.505 493.859
2607 0 46.0504 11.7914 543 138.188 234.812 493.14
2608 0 45.1455 12.5594 567 144.422 235.055 492.656
2609 0 48.0632 12.1299 583 148.914 235.156 491.878
2610 0 49.1477 12.5337 616 148.62 235.524 491.334
2611 0 50.1281 12.9468 649 143.365 232.581 490.205
2612 0 49.0497 13.313 653 151.211 233.243 489.712
2613 0 52.1361 13.2729 692 149.267 236.717 489.624
2614 0 54.1819 12.901 699 151.887 237.751 489.196
2615 0 55.106 13.3742 737 144.303 237.761 487.693
2616 0 57.4286 13.4428 772 146.988 237.275 486.987
2617 0 59.1734 13.4689 797 148.984 238.053 485.705
2618 0 61.3902 13.4386 825 153.588 236.701 483.465
2619 0 61.2405 13.5695 831 153.25 236.732 482.544
2620 0 64.195 13.5836 872 150.164 237.783 481.556
2621 0 67.4795 13.4411 907 144.968 236.165 480.181
2622 0 70.3292 13.707 964 147.899 237.211 479.141
2623 0 70.4529 13.9952 986 149.895 238.4 477.942
2624 0 73.4376 13.5625 996 154.949 237.675 477.461
2625 0 77.4364 13.4949 1045 156.355 237.244 475.569
2626 0 79.4891 13.5113 1074 153.999 238.016 474.615
2627 0 80.6054 14.1802 1143 155.104 237.627 473.356
2628 0 84.5003 13.7396 1161 161.071 237.22 472.341
2629 0 86.5172 13.4077 1160 144.723 236.948 471.379
2630 0 88.2297 13.7595 1214 154.254 237.255 470.371
2631 0 90.2701 14.2129 1283 164.738 236.288 469.012
2632 0 95.5148 14.3852 1374 160.392 236.212 466.662
2633 0 97.2785 14.4225 1403 160.815 238.849 464.726
2634 0 101.352 14.4447 1464 165.346 237.997 463.928
2635 0 104.331 14.1568 1477 161.729 236.118 462.452
2636 0 107.526 14.4895 1558 169.186 236.196 461.514
2637 0 111.604 15.3848 1717 162.235 236.781 458.455
2638 0 114.433 16.3152 1867 162.14 236.148 455.529
2639 0 118.362 14.8443 1757 168.876 235.134 455.205
2640 0 122.606 14.567 1786 170.844 236.418 453.74
2641 0 127.581 14.187 1810 166.423 236.84 451.4
2642 1 68.2328 13.0876 893 170.719 236.755 480.273
2643 0 69.2323 13.4908 934 170.805 236.833 479.141
2644 0 73.3176 13.2983 975 164.999 236.521 477.872
2645 0 75.2681 13.6844 1030 167.022 235.578 475.83
2646 0 77.4794 13.8101 1070 165.187 234.455 474.873
2647 0 79.2449 13.2627 1051 158.314 235.799 473.359
2648 0 83.4296 13.5444 1130 165.563 236.448 471.167
2649 0 86.5507 14.0496 1216 166.724 237.536 469.549
2650 0 89.6333 13.4771 1208 157.805 237.977 468.5
2651 0 93.3593 13.7105 1280 156.912 238.196 466.849
2652 0 96.4221 13.8661 1337 164.45 237.773 464.794
2653 0 99.624 13.7818 1373 163.975 237.927 463.835
2654 0 101.281 14.0302 1421 162.72 234.669 461.273
2655 0 103.762 14.1381 1467 163.958 237.757 460.177
2656 0 108.405 13.8462 1501 166.536 236.844 458.865
2657 0 111.271 14.2985 1591 161.937 237.954 456.982
2658 0 113.485 14.275 1620 160.685 236.394 454.885
2659 0 117.723 14.4322 1699 153.466 236.491 453.748
2660 0 120.602 14.3364 1729 156.248 237.421 452.14
2661 0 124.576 15.8458 1974 163.168 237.279 448.345
2662 0 128.583 14.621 1880 165.193 238.211 447.616
2663 0 132.698 14.4238 1914 168.135 237.935 446.038
2664 0 137.715 14.7333 2029 167.298 237.665 443.262
2665 0 142.444 14.6584 2088 169.049 235.758 440.649
2666 0 146.668 14.2908 2096 157.787 236.605 438.504
2667 0 149.397 14.7058 2197 162.214 238.269 435.314
2668 0 157.655 15.407 2429 165.925 236.54 432.258
2669 0 163.436 14.6969 2402 160.14 238.187 430.033
2670 0 169.851 14.5951 2479 164.111 235.578 427.234
2671 0 175.517 14.6424 2570 166.342 236.604 424.288
2672 1 93.4244 13.2942 1242 163.63 234.934 464.2
2673 0 95.5364 13.5027 1290 173.091 234.159 462.977
2674 0 99.3576 13.7282 1364 162.292 236.635 461.271
2675 0 100.44 13.7495 1381 163.286 235.35 459.517
2676 0 104.441 13.893 1451 162.673 235.524 458.677
2677 0 105.61 14.1559 1495 155.682 236.423 456.617
2678 0 110.502 14.0089 1548 171.782 236.526 455.577
2679 0 113.734 14.2438 1620 164.738 236.648 453.848
2680 0 118.947 14.1408 1682 162.398 236.571 450.622
2681 0 121.667 14.1123 1717 165.411 237.859 449.493
2682 0 124.456 14.5593 1812 166.459 237.841 447.989
2683 0 129.549 14.1646 1835 164.698 238.199 445.653
2684 0 132.77 14.2201 1888 165.944 237.552 444.516
2685 0 137.545 14.9187 2052 160.209 237.74 440.793
2686 0 140.798 14.3965 2027 157.672 238.529 439.663
2687 0 148.892 14.2049 2115 170.661 238.86 437.132
2688 0 152.622 14.703 2244 169.814 236.902 433.705
2689 0 157.591 14.4234 2273 170.716 235.291 432.58
2690 0 162.796 14.5704 2372 172.899 236.254 429.586
2691 0 170.794 14.5438 2484 167.167 235.349 427.073
2692 0 178.978 14.5045 2596 169.619 236.552 423.584
2693 0 183.802 14.7768 2716 170.527 236.997 420.752
2694 0 186.742 15.0207 2805 167.748 236.682 416.012
2695 0 183.181 15.4383 2828 163.618 237.353 416.108
2696 0 188.619 14.5796 2750 170.325 235.603 417.405
2697 0 194.849 14.6421 2853 170.004 235.615 413.655
2698 0 202.804 14.5707 2955 166.667 236.781 410.715
2699 0 210.773 15.3625 3238 169.952 236.54 404.655
2700 0 216.179 14.8165 3203 173.142 236.849 402.716
2701 0 223.039 15.0422 3355 167.576 238.836 399.635
2702 0 232.739 15.1156 3518 170.984 236.499 394.413
2703 0 232.936 14.24 3317 174.858 237.046 396.048
2704 0 232.772 19.895 4631 142.656 237.182 382.581
2705 1 247.9 14.8205 3674 169.053 236.743 387.171
2706 0 248.025 14.7848 3667 166.059 237.73 387.58
2707 0 247.804 14.6568 3632 166.661 237.293 387.37
2708 0 246.898 14.7429 3640 166.183 236.894 386.202
2709 0 255.83 14.8028 3787 166.056 238.012 380.999
2710 0 266.145 15.067 4010 168.649 237.372 376.174
2711 1 60.3359 12.4801 753 162.25 237.6 477.341
2712 0 62.648 13.2327 829 160.479 238.32 476.012
2713 0 65.7908 12.5093 823 158.205 239.894 474.804
2714 0 66.7464 13.1393 877 156.542 238.828 472.977
2715 0 69.7208 12.966 904 162.345 239.263 472.081
2716 0 71.6368 13.1497 942 160.635 239.172 470.755
2717 0 74.7013 13.2662 991 158.6 241.112 469.717
2718 0 77.5958 13.609 1056 150.108 239.246 467.884
2719 0 77.6993 13.8611 1077 152.538 238.357 466.848
2720 0 80.5689 14.2735 1150 157.314 238.655 465.853
2721 0 83.6124 13.6702 1143 151.747 238.393 464.493
2722 0 87.6046 13.6979 1200 157.455 237.122 463.15
2723 0 90.3864 13.6414 1233 158.496 236.932 460.969
2724 0 93.3375 13.5101 1261 159.371 236.533 459.841
2725 0 96.5043 13.5745 1310 161.481 238.246 456.379
2726 1 50.1919 11.8744 596 154.503 236.341 482.505
2727 0 51.3942 12.4528 640 150.594 236.323 481.891
2728 0 51.5816 12.5238 646 155.532 237.124 481.749
2729 0 54.362 12.6375 687 153.309 236.787 481.507
2730 0 56.344 12.4237 700 157.997 235.117 480.321
2731 0 56.3576 12.6336 712 160.277 236.258 480.173
2732 0 60.2461 12.8971 777 157.94 236.721 479.519
2733 0 61.2074 12.6782 776 155.178 235.532 477.888
2734 1 73.2748 13.2651 972 154.057 238.645 471.614
2735 0 74.2856 13.2462 984 150.31 237.855 471.224
2736 0 76.1748 13.0883 997 149.228 235.666 470.993
2737 0 78.3378 13.1482 1030 149.829 236.642 470.187
2738 0 80.4492 13.5116 1087 145.148 234.76 469.873
2739 0 81.4167 13.7073 1116 140.428 235.704 468.62
2740 0 86.257 13.5757 1171 144.798 234.679 467.507
2741 0 87.2093 13.3816 1167 141.34 234.566 466.152
2742 1 49.0972 11.0393 542 134.758 234.404 486.697
2743 0 51.226 11.1857 573 144.478 235.372 486.736
2744 0 52.2223 11.6617 609 137.742 235.606 485.45
2745 0 54.0307 11.9007 643 139.18 234.355 485.25
2746 0 55.0627 12.1135 667 136.619 235.595 485.342
2747 0 56.0563 12.6658 710 133.425 233.844 483.477
2748 0 59.1436 11.9709 708 133.734 233.373 483.377
2749 0 60.1726 12.5805 757 140.161 233.495 483.145
2750 0 63.1136 12.4062 783 133.323 235.609 481.432
2751 0 65.0872 12.2912 800 137.472 234.856 481.442
2752 0 67.1691 12.4015 833 135.477 235.76 480.932
2753 0 68.0691 12.8105 872 139.13 235.612 479.556
2754 0 70.1181 12.7642 895 136.686 233.421 479.368
2755 0 72.0644 12.8357 925 140.786 235.628 478.203
2756 0 76.1226 12.5193 953 139.474 235.104 476.916
2757 0 78.1783 13.1622 1029 135.041 234.959 475.372
2758 0 79.1348 13.2306 1047 128.029 234.004 474.174
2759 0 83.2117 13.2914 1106 140.803 234.616 472.498
2760 0 86.1265 13.306 1146 142.057 234.839 471.499
2761 0 91.0898 13.3165 1213 141.279 236.237 470.311
2762 0 95.182 13.4584 1281 142.368 236.844 468.938
2763 0 97.1124 13.3351 1295 139.168 236.395 468.249
2764 0 100.207 13.1627 1319 144.635 235.366 467.137
2765 1 65.1099 12.1026 788 150.482 234.401 484.117
2766 0 66.1316 12.7322 842 149.167 234.279 484.221
2767 0 70.2009 12.8204 900 152.626 234.049 482.359
2768 0 73.0778 13.1777 963 148.325 232.858 481.849
2769 0 76.2287 12.961 988 149.273 234.585 480.993
2770 0 79.3021 13.2783 1053 165.442 234.014 480.465
2771 0 81.1472 13.6788 1110 166.314 233.207 478.503
2772 0 86.0933 13.9384 1200 162.15 234.178 476.961
2773 0 87.0949 13.514 1177 163.189 235.337 476.204
2774 0 89.0892 14.0197 1249 163.64 235.241 474.698
2775 0 94.0715 13.5004 1270 163.335 236.998 474.157
2776 0 98.0675 13.4703 1321 164.572 236.477 472.92
2777 0 100.097 13.9665 1398 164.567 235.202 470.881
2778 0 104.201 13.9634 1455 165.708 236.31 469.075
2779 0 107.345 14.0947 1513 165.034 235.798 467.511
2780 0 112.327 13.71 1540 156.381 235.719 465.927
2781 0 116.253 13.6857 1591 163.654 235.486 464.556
2782 0 121.466 14.0945 1712 160.863 234.587 462.203
2783 0 124.18 13.9878 1737 163.601 235.12 459.99
2784 0 129.298 14.076 1820 170.244 235.993 458.887
2785 0 134.371 13.7827 1852 154.082 236.097 455.653
2786 1 71.2099 12.2876 875 156.37 237.559 487.43
2787 0 73.1718 12.7918 936 158.915 235.436 486.069
2788 0 77.2285 12.4954 965 155.552 236.187 484.982
2789 0 78.1885 12.8536 1005 161.336 234.44 483.822
2790 0 79.2132 13.2049 1046 156.098 235.096 482.203
2791 0 85.5457 12.7885 1094 155.124 234.085 480.437
2792 0 86.2829 12.7719 1102 158.8 235.279 479.559
2793 0 88.3539 13.0045 1149 146.866 235.453 477.749
2794 0 91.3688 12.9147 1180 157.846 234.386 477.586
2795 0 94.2714 13.0156 1227 161.953 235.814 475.787
2796 0 97.5231 13.2584 1293 153.283 237.017 474.706
2797 0 102.314 12.9894 1329 157.891 236.98 473.586
2798 0 104.532 12.8765 1346 152.975 233.578 471.476
2799 0 107.448 13.1691 1415 152.832 238.324 470.632
2800 1 58.3127 11.2326 655 148.982 238.934 495.936
2801 0 61.1839 12.0457 737 143.63 235.725 494.418
2802 0 62.1332 12.103 752 151.242 235.953 494.734
2803 0 62.2763 12.4445 775 147.196 235.221 494.461
2804 0 64.1056 12.8226 822 148.052 234.333 492.967
2805 0 68.1977 12.4931 852 147.795 235.249 491.265
2806 0 70.1765 12.6111 885 151.677 236.144 490.834
2807 0 73.2928 12.6752 929 151.051 234.2 489.403
2808 0 75.2179 12.6433 951 150.465 233.779 489.575
2809 0 78.2565 12.6507 990 154.117 233.277 488.53
2810 0 81.1824 12.7737 1037 149.218 233.848 486.693
2811 0 82.406 13.033 1074 151.15 232.129 485.737
2812 0 85.4174 12.6789 1083 142.825 232.542 483.804
2813 0 88.3648 12.9803 1147 141.68 234.995 483.677
2814 0 93.2726 12.8334 1197 151.095 234.328 481.785
2815 0 95.2754 13.1933 1257 152.696 235.765 481.269
2816 0 98.354 12.7397 1253 151.606 235.771 479.789
2817 0 101.465 13.1573 1335 155.736 235.964 477.885
2818 0 104.313 13.2774 1385 146.905 236.662 475.817
2819 1 53.1088 11.1846 594 146.582 235.118 501.057
2820 0 58.2179 11.2852 657 145.271 235.113 500.487
2821 0 57.0285 11.7836 672 145.969 233.382 501.802
2822 0 60.0806 11.6843 702 140.996 236.053 500.893
2823 0 62.0796 11.5336 716 142.744 235.307 500.001
2824 0 61.0737 12.3457 754 137.678 233.794 499.668
2825 0 65.0392 12.1158 788 142.412 234.862 498.577
2826 0 67.2058 11.8293 795 144.184 235.35 497.355
2827 0 70.067 11.9885 840 137.46 235.658 496.565
2828 0 71.0561 12.0046 853 141.811 235.975 496.117
2829 0 73.1272 12.2116 893 143.617 236.071 494.965
2830 0 76.1006 12.3389 939 141.245 233.444 493.481
2831 0 78.1196 12.5577 981 142.015 232.017 493.032
2832 0 80.0457 12.4679 998 145.122 233.938 492.332
2833 0 84.2158 12.4798 1051 141.424 233.104 490.089
2834 0 88.1224 12.3578 1089 143 234.41 489.085
2835 0 89.128 12.8579 1146 152.822 233.904 487.675
2836 1 48.0426 11.5106 553 147.146 233.998 509.219
2837 0 50.0972 11.6174 582 137.12 234.058 509.091
2838 0 52.0323 11.7043 609 143.197 234.161 508.455
2839 0 52.0721 11.849 617 143.744 234.533 507.363
2840 0 55.0393 11.5372 635 141.153 235.362 507.282
2841 0 56.118 11.9213 669 143.641 235.601 506.954
2842 0 57.0686 12.0732 689 142.472 233.512 506.213
2843 0 59.1371 12.192 721 145.689 233.505 505.961
2844 0 60.2282 12.1206 730 144.852 232.388 505.084
2845 0 61.3625 12.2062 749 142.304 233.749 505.203
2846 0 63.2178 12.7812 808 147.412 234.361 504.322
2847 0 64.2118 12.7547 819 141.374 234.648 503.548
2848 0 67.2511 12.6243 849 145.261 233.408 501.947
2849 0 68.254 13.2593 905 142.371 235.352 501.25
2850 0 72.1174 12.5628 906 137.969 234.358 499.567
2851 0 76.4237 12.8625 983 146.132 235.531 499.442
2852 0 77.1793 12.7107 981 148.341 235.225 499.548
2853 0 78.336 12.9059 1011 140.137 235.05 496.676
2854 0 79.3741 13.0269 1034 148.339 235.207 495.687
2855 0 82.3081 13.085 1077 144.534 235.087 493.567
2856 1 46.2508 10.4647 484 143.512 234.981 513.258
2857 0 48.1767 10.6898 515 148.103 233.757 513.262
2858 0 49.2807 11.2417 554 143.621 233.702 512.457
2859 0 51.1486 11.9456 611 138.475 233.56 511.663
2860 0 52.0447 12.3548 643 141.415 233.72 510.801
2861 0 54.1223 12.6935 687 143.007 234.323 509.865
2862 0 58.1884 12.0127 699 144.216 233.265 509.951
2863 0 57.1384 12.7935 731 146.382 232.056 509.149
2864 0 59.069 12.9848 767 140.419 233.405 508.369
2865 0 62.0633 13.1479 816 144.691 232.571 507.107
2866 0 63.0874 13.2832 838 146.094 232.959 506.73
2867 0 65.0667 13.0174 847 150.123 232.629 506.04
2868 0 68.0967 13.2752 904 138.338 232.073 504.531
2869 0 69.0884 13.2439 915 147.405 231.961 504.49
2870 0 74.1738 13.3201 988 150.281 231.517 503.238
2871 0 77.2904 13.5722 1049 160.42 232.146 502.047
2872 0 79.0903 13.5288 1070 155.391 232.229 500.473
2873 0 82.1029 13.6536 1121 168.194 231.036 499.698
2874 0 84.1063 13.7802 1159 164.766 232.929 498.677
2875 1 43.0702 11.8643 511 162.875 233.419 519.542
2876 0 44.0528 12.6893 559 158.882 232.242 518.742
2877 0 46.1153 12.5338 578 160.875 233.773 518.348
2878 0 47.13 12.8793 607 164.671 234.041 518.188
2879 0 49.1253 12.4986 614 159.078 231.889 518.407
2880 0 50.0843 13.1578 659 162.571 233.577 517.772
2881 0 51.0376 13.206 674 167.139 232.932 518.392
2882 0 57.0951 13.5038 771 166.774 234.628 514.746
2883 0 59.044 13.3968 791 162.264 233.384 514.397
2884 0 60.0441 13.5067 811 162.027 235.407 514.416
2885 0 61.0278 13.8134 843 160.354 234.826 513.442
2886 0 63.0584 13.5589 855 155.637 234.214 512.911
2887 0 65.1143 13.5454 882 160.392 233.19 512.761
2888 0 68.0513 13.5339 921 165.787 233.999 512.702
2889 0 71.0608 13.594 966 165.412 234.869 511.353
2890 0 73.0635 13.6183 995 161.118 233.639 510.705
2891 0 75.0403 13.4861 1012 162.28 232.869 509.451
2892 0 78.202 13.4395 1051 160.847 233.464 508.269
2893 0 81.0402 13.4131 1087 161.18 234.73 507.517
2894 0 82.1112 13.7497 1129 160.299 234.943 506.154
2895 0 87.0768 13.5972 1184 161.727 233.093 504.85
2896 1 45.0369 11.9902 540 157.696 233.715 525.441
2897 0 47.1703 12.5715 593 152.186 233.218 523.814
2898 0 48.0298 12.3257 592 148.387 234.422 523.443
2899 0 47.1038 13.2898 626 155.609 233.778 522.605
2900 0 50.0324 13.1515 658 155.255 234.802 522.064
2901 0 51.0418 13.0285 665 156.585 232.241 522.296
2902 0 54.0969 13.0137 704 155.99 234.857 520.864
2903 0 55.0166 12.9597 713 152.268 231.933 521.001
2904 0 54.1218 13.1555 712 158.708 232.622 520.367
2905 0 58.1234 13.5402 787 155.1 232.156 518.809
2906 0 59.138 13.6968 810 153.442 233.153 518.186
2907 0 61.054 13.5618 828 158.353 232.598 517.396
2908 0 63.1607 13.6636 863 154.76 233.684 517.273
2909 0 66.186 13.6132 901 156.94 233.087 516.578
2910 0 67.1624 13.981 939 155.778 231.063 515.554
2911 0 70.236 14.0241 985 152.98 232.593 514.474
2912 0 72.1558 13.5124 975 154.118 231.932 513.759
2913 0 74.1543 13.8765 1029 159.982 232.446 512.907
2914 0 75.1539 14.1576 1064 158.33 232.118 511.744
2915 0 78.2164 14.396 1126 152.558 232.501 510.339
2916 0 81.1353 13.9274 1130 157.496 230.643 509.415
2917 0 82.2142 14.219 1169 154.667 231.176 508.184
2918 0 87.1988 13.9796 1219 152.587 232.127 506.464
2919 0 90.2724 13.847 1250 157.935 231.995 504.638
2920 0 91.1726 14.1051 1286 151.876 230.282 503.489
2921 0 95.2755 14.3479 1367 161.784 230.869 502.194
2922 0 98.4731 14.0749 1386 158.225 230.617 500.671
2923 0 101.275 14.3372 1452 158.927 231.499 499.238
2924 1 51.244 12.1966 625 165.55 231.429 523.522
2925 0 54.2236 12.762 692 163.658 229.686 522.841
2926 0 56.1059 12.8329 720 161.11 231.676 522.568
2927 0 58.0983 13.0985 761 160.364 231.338 521.398
2928 0 59.0612 13.5283 799 162.77 231.275 520.711
2929 0 62.0783 13.2413 822 164.603 230.791 519.652
2930 0 63.07 13.7149 865 159.92 230.462 517.955
2931 0 64.075 13.5466 868 153.076 232.12 516.835
2932 0 67.102 13.3677 897 168.557 231.935 516.405
2933 0 69.0649 13.6538 943 163.1 232.136 515.196
2934 0 71.1076 13.4163 954 161.331 230.574 514.601
2935 0 73.2216 13.3704 979 161.291 231.519 513.684
2936 0 76.2468 13.6661 1042 158.773 232.236 511.999
2937 0 78.2166 13.68 1070 160.064 232.376 510.963
2938 0 81.129 13.7066 1112 162.603 230.749 509.374
2939 0 83.383 13.9117 1160 164.616 232.745 507.873
2940 0 84.1652 13.8537 1166 167.389 230.13 508.263
2941 0 86.1635 13.8458 1193 173.48 233.02 507.294
2942 0 90.0911 13.9858 1260 164.355 231.289 506.887
2943 0 89.163 13.9632 1245 172.298 230.367 506.872
2944 0 93.1937 13.9924 1304 168.555 230.051 505.122
2945 0 95.1607 14.0289 1335 162.53 232.443 503.44
2946 0 98.1871 13.8817 1363 169.492 233.592 502.973
2947 0 100.078 13.9891 1400 176.905 233.812 502.453
2948 0 103.141 14.0293 1447 167.622 231.838 501.161
2949 0 107.256 14.2836 1532 164.051 232.409 498.85
2950 0 110.177 14.5131 1599 166.847 232.465 497.574
2951 0 114.202 14.4043 1645 168.434 231.927 495.486
2952 0 118.206 14.3393 1695 172.854 232.49 493.744
2953 0 123.281 14.3899 1774 168.56 230.762 491.556
2954 0 127.224 14.4155 1834 172.229 232.149 489.682
2955 0 132.201 14.3796 1901 164.012 230.375 487.576
2956 0 138.298 14.1145 1952 170.434 231.539 485.243
2957 0 142.196 14.3675 2043 168.776 232.857 482.528
2958 0 148.224 14.3566 2128 167.737 232.493 480.114
2959 1 83.2253 12.8326 1068 172.615 232.64 511.891
2960 1 41.0274 12.6745 520 166.25 233.808 531.046
2961 0 44.048 12.441 548 161.367 232.204 531.372
2962 0 46.1512 12.3074 568 157.033 231.278 531.211
2963 0 47.0686 12.6836 597 161.662 231.642 530.492
2964 0 50.1942 12.5512 630 167.843 233.083 530.027
2965 0 51.1382 12.6716 648 165.133 232.639 529.448
2966 0 52.0903 13.1694 686 165.755 230.604 528.243
2967 0 54.0976 12.8656 696 161.845 230.601 527.92
2968 0 54.0985 13.1612 712 165.469 231.216 527.389
2969 0 55.3286 13.1035 725 166.166 232.066 526.921
2970 0 58.0299 13.1829 765 57.7608 232.778 525.737
2971 0 61.1631 13.1288 803 162.275 233.334 524.696
2972 0 62.295 13.3237 830 160.553 230.831 523.687
2973 0 65.0861 12.9828 845 166.567 231.959 523.509
2974 0 67.1511 13.0005 873 162.585 231.082 522.751
2975 0 69.0461 13.1941 911 157.768 230.265 521.295
2976 0 71.1094 12.98 923 156.681 234.055 520.671
2977 0 73.1686 13.3664 978 160.981 232.718 519.071
2978 0 75.1181 13.0594 981 155.1 232.822 517.767
2979 0 78.2238 13.2696 1038 160.53 233.077 516.661
2980 0 79.1339 13.5087 1069 159.446 231.122 515.423
2981 0 83.1023 13.4533 1118 157.788 231.755 513.945
2982 0 87.1232 13.28 1157 151.189 231.044 512.252
2983 0 90.1332 13.2914 1198 149.952 230.57 510.905
2984 0 92.1457 13.2942 1225 145.392 229.74 509.736
2985 0 95.1796 13.2697 1263 149.139 230.781 508.455
2986 1 49.0229 10.8113 530 148.451 232.458 532.14
2987 0 52.0495 11.5851 603 149.569 231.589 530.655
2988 0 53.0351 12.3692 656 143.378 232.343 529.691
2989 0 56.0668 12.5565 704 145.277 231.862 529.118
2990 0 56.0696 12.6628 710 144.203 232.582 528.514
2991 0 58.0453 12.4213 721 139.386 231.634 527.963
2992 0 60.0888 12.8976 775 147.15 231.919 527.16
2993 0 62.0642 12.5837 781 138.977 232.045 525.932
2994 0 64.1237 12.6162 809 138.81 233.075 525.502
2995 0 65.0554 13.0812 851 141.908 232.737 524.306
2996 0 66.0365 13.0988 865 146.059 233.14 524.175
2997 0 69.0951 12.9821 897 146.301 233.216 523.363
2998 0 70.1338 12.9752 910 25.5692 232.206 522.471
2999 0 73.1162 12.993 950 145.864 232.429 521.499
3000 0 76.0757 13.3157 1013 137.187 231.993 520.367
3001 0 78.0495 13.1327 1025 149.14 232.232 519.895
3002 0 80.1691 13.3967 1074 146.606 233.169 518.696
3003 0 84.2038 13.1229 1105 144.411 231.359 517.571
3004 0 87.1181 13.0972 1141 145.812 232.019 516.455
3005 0 90.2377 13.2871 1199 141.225 232.513 515.012
3006 0 93.2391 12.8058 1194 148.399 233.964 514.083
3007 1 50.0688 11.3444 568 141.435 233.889 535.306
3008 0 51.1469 12.0829 618 146.864 235.178 535.058
3009 0 54.1105 12.5114 677 142.068 233.876 534.106
3010 0 56.1022 12.2099 685 150.438 233.499 532.949
3011 0 58.1056 12.3912 720 148.108 233.562 532.085
3012 0 60.0493 12.8728 773 145.277 233.784 531.003
3013 0 59.0839 13.1508 777 145.432 233.017 530.7
3014 0 62.1952 12.7341 792 149.402 234.875 530.131
3015 0 63.2019 12.6895 802 139.415 234.941 530.075
3016 0 66.0903 12.7855 845 144.832 235.839 528.852
3017 0 69.1862 12.9072 893 144.393 234.558 528.007
3018 0 70.1452 13.1014 919 150.326 235.408 526.823
3019 0 73.154 12.9179 945 151.447 232.844 525.489
3020 0 76.1363 12.8716 980 153.496 235.435 525.102
3021 0 78.2089 13.0804 1023 150.865 234.007 523.79
3022 0 80.1644 13.0232 1044 148.661 233.892 523.041
3023 0 82.0968 13.1674 1081 151.01 235.174 521.867
3024 0 86.1662 13.2186 1139 149.651 234.714 519.525
3025 0 89.1611 13.055 1164 143.365 236.107 518.467
3026 0 92.0946 13.4101 1235 155.278 234.964 516.978
3027 0 95.202 13.4556 1281 156.316 235.574 515.173
3028 0 100.176 13.4363 1346 157.21 233.981 513.443
3029 0 102.232 13.5574 1386 148.341 234.939 511.885
3030 0 105.268 13.0618 1375 150.998 233.04 511.114
3031 1 57.095 11.5772 661 153.486 234.53 535.083
3032 0 59.0943 11.9132 704 151.185 235.288 533.651
3033 0 61.0791 12.5084 764 147.751 237.024 532.196
3034 0 63.1811 13.0102 822 153.774 236.819 531.38
3035 0 65.0925 12.7511 830 154.386 237.182 531.001
3036 0 67.1119 12.9634 870 157.863 237.007 531.155
3037 0 68.1651 12.8511 876 155.546 234.487 530.388
3038 0 71.1101 13.3314 948 151.643 233.507 529.08
3039 0 74.0496 13.3424 988 156.924 234.56 527.477
3040 0 76.1544 13.3151 1014 154.543 234.543 526.879
3041 0 79.2699 13.3216 1056 154.201 234.373 525.483
3042 0 81.1747 13.3293 1082 152.778 233.348 525.136
3043 0 84.2091 13.4427 1132 161.558 233.348 522.968
3044 0 85.1139 13.6523 1162 160.034 233.304 521.678
3045 0 90.1625 13.5755 1224 159.452 234.505 520.364
3046 0 94.2534 13.591 1281 153.498 233.64 515.731
3047 0 96.0976 13.5904 1306 158.23 233.076 515.345
3048 0 99.2496 13.6524 1355 157.165 233.96 514.12
3049 1 56.072 10.9502 614 150.811 233.625 538.094
3050 0 57.1715 11.8765 679 149.308 233.389 535.754
3051 0 59.0819 12.3388 729 149.524 234.711 535.87
3052 0 60.1641 12.4992 752 154.868 235.476 536.346
3053 0 62.028 12.6878 787 145.814 235.659 534.999
3054 0 64.1423 13.1894 846 142.8 235.181 534.533
3055 0 67.0856 12.7598 856 148.345 234.47 534.175
3056 0 69.0805 12.5506 867 151.369 234.77 533.059
3057 0 71.1343 12.7927 910 151.404 233.958 532.686
3058 0 73.1216 12.8416 939 149.502 234.815 531.564
3059 0 75.1515 12.8407 965 146.527 234.961 530.543
3060 0 77.1773 12.5685 970 142.757 234.623 529.131
3061 0 79.112 12.7414 1008 153.082 235.016 528.355
3062 0 82.1 12.8502 1055 141.479 233.511 526.863
3063 0 86.2219 13.0709 1127 145.87 234.957 525.615
3064 0 87.1922 13.1548 1147 149.793 233.467 523.971
3065 1 44.0916 10.5916 467 146.034 233.383 545.582
3066 0 46.1213 10.7976 498 146.217 233.789 545.213
3067 0 49.0571 11.1299 546 140.588 233.451 544.522
3068 0 50.0597 11.726 587 142.075 234.957 543.62
3069 0 52.0302 12.339 642 144.394 234.273 542.91
3070 0 55.1249 12.0454 664 147.804 234.709 541.673
3071 0 54.1047 12.2725 664 144.529 233.682 541.498
3072 0 55.172 12.7782 705 147.756 232.533 541.875
3073 0 57.0502 12.2874 701 145.404 232.743 541.305
3074 0 58.0638 12.4863 725 143.716 232.822 540.914
3075 0 61.0343 12.7142 776 143.161 231.013 539.514
3076 0 61.0406 13.2207 807 143.439 230.322 539.902
3077 0 64.0526 12.7395 816 140.694 230.485 538.788
3078 0 66.2025 12.7639 845 148.23 229.569 538.108
3079 0 69.1855 12.9941 899 147.147 231.476 536.568
3080 0 71.0691 13.311 946 144.341 228.961 536.381
3081 0 73.0614 12.8385 938 148.722 230.01 535.874
3082 0 76.07 12.5542 955 147.132 231.518 534.893
3083 0 77.0997 13.1259 1012 160.231 231.177 533.961
3084 0 79.0398 13.5754 1073 153.11 232.62 532.618
3085 0 82.1903 13.4322 1104 159.749 232.034 531.61
3086 0 85.1215 13.7803 1173 157.684 233.488 530.281
3087 0 88.0781 13.6129 1199 165.634 232.947 528.5
3088 0 91.1777 13.5121 1232 158.365 233.325 526.929
3089 0 95.3477 14.0119 1336 155.055 231.847 525.123
3090 0 97.3012 13.7922 1342 162.019 231.554 523.89
3091 0 102.14 13.4325 1372 156.296 233.211 522.483
3092 0 104.213 13.3765 1394 158.793 231.223 514.399
3093 1 56.1589 11.6455 654 162.931 233.243 542.844
3094 0 58.0497 12.2481 711 161.907 232.63 542.685
3095 0 60.032 12.2601 736 152.496 230.906 541.034
3096 0 61.0481 13.1536 803 154.278 232.813 539.725
3097 0 63.051 13.164 830 157.495 232.786 540.014
3098 0 64.0773 13.2028 846 154.596 230.213 538.667
3099 0 67.1253 12.8417 862 160.277 231.401 537.374
3100 0 69.0489 13.2515 915 158.532 234.181 537.51
3101 0 71.0565 12.9193 918 163.344 232.645 536.159
3102 0 73.0811 13.4098 980 162.656 230.121 531.635
3103 0 76.2047 13.7393 1047 161.92 232.634 535.601
3104 0 78.0444 13.787 1076 160.315 232.262 536.64
3105 0 84.1576 14.9125 1255 149.872 234.32 533.109
3106 0 83.124 13.6784 1137 152.826 233.444 534.257
3107 0 87.2663 13.6937 1195 165.185 234.325 531.339
3108 0 90.1535 13.3883 1207 165.024 233.104 528.606
3109 0 91.3115 13.8975 1269 165.638 233.229 528.688
3110 0 94.2947 13.6063 1283 152.172 233.051 527.525
3111 0 98.4971 13.6045 1340 164.737 233.425 527.069
3112 0 101.433 13.7726 1397 164.676 232.991 524.638
3113 0 106.339 13.7202 1459 160.047 233.865 523.141
3114 1 54.2067 12.0096 651 152.505 232.719 548.341
3115 0 56.1708 12.462 700 158.269 233.347 548.47
3116 0 59.1865 12.5873 745 155.585 235.262 547.472
3117 0 61.1004 13.2078 807 152.269 233.708 548.683
3118 0 63.1622 13.2991 840 153.076 234.246 548.377
3119 0 64.1228 12.9907 833 150.268 233.875 547.663
3120 0 64.2918 13.081 841 150.844 234.045 547.549
3121 0 66.0651 13.2748 877 153.677 233.564 547.177
3122 0 68.2231 13.5731 926 154.964 233.365 546.466
3123 0 71.2107 13.2705 945 158.049 234.127 546.026
3124 0 74.3487 13.5981 1011 146.427 233.449 544.116
3125 0 76.2013 13.6218 1038 152.726 233.355 543.23
3126 0 78.1876 14.0815 1101 159.167 232.739 542.357
3127 0 81.131 13.6446 1107 153.566 232.616 540.581
3128 0 85.2858 13.531 1154 156.174 232.637 538.588
3129 0 88.2769 13.5256 1194 152.223 233.455 537.656
3130 0 92.1728 13.9087 1282 160.007 232.185 535.338
3131 0 94.1939 14.0667 1325 159.986 234.287 533.217
3132 0 97.1436 14.1131 1371 154.525 233.263 530.481
3133 0 101.205 14.0013 1417 158.37 233.577 531.409
3134 1 53.0453 12.2725 651 152.363 233.378 555.347
3135 0 56.2094 12.5602 706 162.261 234.268 555.061
3136 0 58.0216 13.0813 759 156.254 234.73 554.065
3137 0 58.064 13.2784 771 157.572 234.262 553.707
3138 0 61.168 13.0133 796 161.564 233.927 552.798
3139 0 62.1483 13.5482 842 163.663 234.154 552.283
3140 0 65.0672 13.2171 860 160.529 233.113 551.485
3141 0 65.0867 14.2272 926 162.28 232.913 549.233
3142 0 67.0574 13.645 915 159.97 234.137 548.481
3143 0 71.2812 13.6922 976 161.653 236.752 547.274
3144 0 72.0721 13.986 1008 164.37 234.068 546.296
3145 0 76.1414 13.7113 1044 162.862 234.045 545.149
3146 0 80.14 13.9256 1116 164.893 235.504 543.923
3147 0 82.0754 13.7435 1128 159.701 235.454 542.931
3148 0 84.1024 13.9354 1172 167.087 235.652 541.831
3149 0 87.171 14.0758 1227 164.455 233.787 539.712
3150 0 89.1582 14.2107 1267 163.733 234.608 538.025
3151 0 92.3902 13.9517 1289 168.424 234.334 536.708
3152 0 95.4954 14.0321 1340 168.493 234.679 535.49
3153 0 99.409 14.1134 1403 162.895 233.804 533.767
3154 1 53.2737 12.8769 686 159.841 232.391 556.039
3155 0 57.2294 13.0353 746 161.277 233.728 554.909
3156 0 58.1218 13.1964 767 162.683 234.498 555.156
3157 0 59.1064 13.6703 808 165.244 235.598 554.545
3158 0 62.2789 13.006 810 165.823 231.517 553.672
3159 0 62.5211 13.6114 851 169.77 232.978 552.967
3160 0 64.3565 13.6583 879 166.967 235.691 551.489
3161 0 65.3236 13.7623 899 167.181 233.247 551.308
3162 0 68.2611 14.0929 962 161.732 233.637 549.551
3163 0 69.375 13.9387 967 163.731 233.888 548.852
3164 0 72.3181 14.0629 1017 41.5929 233.409 546.998
3165 0 75.1449 14.1859 1066 167.775 235.813 546.226
3166 0 79.1042 13.6908 1083 163.173 235.022 544.986
3167 0 81.2257 14.0473 1141 164.117 234.832 543.592
3168 0 83.2027 14.2904 1189 158.681 235.633 542.189
3169 0 87.1678 13.6174 1187 157.772 236.071 541.179
3170 0 87.2024 13.8643 1209 161.347 235.196 540.089
3171 0 90.3106 14.1401 1277 155.168 235.784 539.583
3172 0 95.3009 13.9348 1328 150.361 233.165 537.528
3173 1 50.1517 12.8211 643 158.7 233.844 559.885
3174 0 53.1301 12.9117 686 150.445 232.923 558.956
3175 0 52.1633 13.6878 714 156.188 232.846 558.419
3176 0 55.2522 13.3931 740 152.974 232.041 557.754
3177 0 58.2083 13.2799 773 155.248 233.277 556.596
3178 0 59.3081 13.843 821 156.766 232.649 556.039
3179 0 61.305 13.3757 820 153.165 232.198 555.398
3180 0 63.4121 13.4675 854 155.495 232.111 553.905
3181 0 65.3706 13.7677 900 151.811 233.729 553.184
3182 0 68.3165 13.6717 934 156.188 232.11 552.379
3183 0 69.1408 14.0004 968 148.442 234.756 551.524
3184 0 71.4543 14.0649 1005 156.909 232.028 550.519
3185 0 73.3076 14.255 1045 161.976 232.694 549.012
3186 0 75.1668 14.0621 1057 161.808 234.388 547.749
3187 0 77.1279 14.1583 1092 153.807 234.315 546.766
3188 0 80.3018 14.1342 1135 157.356 235.074 545.018
3189 0 84.1669 14.1029 1187 157.332 233.419 544.361
3190 0 86.4079 14.0381 1213 163.684 233.371 543.734
3191 0 89.1594 14.0871 1256 154.049 234.541 541.992
3192 0 91.1645 14.5122 1323 154.876 233.86 539.584
3193 1 49.1056 12.9517 636 165.104 233.775 560.673
3194 0 50.2222 13.0819 657 162.247 233.776 559.826
3195 0 52.1998 13.5824 709 151.449 235.513 558.128
3196 0 55.2 13.75 759 154.959 234.946 558.792
3197 0 55.1536 14.0517 775 155.486 234.098 557.514
3198 0 58.3468 13.7454 802 154.754 234.101 556.483
3199 0 60.0979 13.6111 818 154.313 234.524 556.452
3200 0 58.1708 14.6637 853 160.334 235.025 555.848
3201 0 62.18 14.4098 896 160.354 234.061 554.334
3202 0 65.1297 14.4942 944 158.892 234.304 553.891
3203 0 68.2059 14.3243 977 161.142 233.602 552.47
3204 0 68.1446 14.616 996 164.226 232.541 552.171
3205 0 72.2353 13.9267 1006 157.702 233.665 551.582
3206 0 73.3394 14.5352 1066 156.274 232.505 550.289
3207 0 77.2683 14.3396 1108 166.018 233.676 549.72
3208 0 79.1971 14.7859 1171 167.488 234.644 548.392
3209 0 80.4186 14.9095 1199 164.997 234.281 547.418
3210 0 85.147 14.5865 1242 169.746 233.407 546.374
3211 0 88.208 14.1257 1246 167.587 235.035 546.068
3212 0 90.2598 14.7906 1335 169.241 234.793 543.346
3213 1 50.1072 13.6108 682 172.296 234.685 563.434
3214 0 51.1331 13.9636 714 167.569 235.461 562.825
3215 0 52.098 14.3 745 172.796 233.911 563.45
3216 0 54.1646 14.2344 771 170.001 232.747 562.463
3217 0 57.1537 14.5572 832 156.644 233.849 561.383
3218 0 60.1885 14.5543 876 165.551 232.256 559.604
3219 0 61.4894 14.6041 898 170.751 232.411 559.488
3220 0 61.0769 15.2431 931 165.077 230.053 558.776
3221 0 63.1718 14.6584 926 163.425 230.692 557.452
3222 0 66.3544 14.724 977 171.383 230.581 556.376
3223 0 69.0713 14.7384 1018 174.622 231.615 555.919
3224 0 70.2116 14.8551 1043 164.858 231.581 554.723
3225 0 73.2484 14.7171 1078 169.43 230.744 553.847
3226 0 76.4275 14.7198 1125 167.565 229.263 552.059
3227 0 77.1045 14.7981 1141 170.174 231.264 551.577
3228 0 82.0646 14.8298 1217 166.256 231.322 550.03
3229 0 82.2589 14.8799 1224 171.564 229.578 549.453
3230 0 88.5624 14.4982 1284 162.596 230.028 547.892
3231 0 88.2611 14.9783 1322 167.727 228.771 547.464
3232 0 94.2334 14.22 1340 168.331 230.334 546.313
3233 0 97.3414 14.2796 1390 169.291 230.725 544.842
3234 1 52.2841 14.0004 732 171.459 229.02 565.743
3235 0 52.3267 14.4286 755 172.107 230.123 564.779
3236 0 55.1653 14.5019 800 168.836 229.016 564.068
3237 0 57.4145 14.2995 821 162.495 231.304 563.354
3238 0 57.2949 14.9577 857 172.517 229.191 562.822
3239 0 59.434 14.6886 873 169.757 229.354 562.679
3240 0 63.5474 14.6033 928 170.315 230.027 561.319
3241 0 64.5319 14.6904 948 108.385 229.083 560.616
3242 0 68.385 14.4622 989 172.602 230.69 560.023
3243 0 70.7419 14.6589 1037 169.379 230.997 558.688
3244 0 73.4823 14.6566 1077 177.905 231.608 557.971
3245 0 75.709 14.4236 1092 175.476 231.429 557.244
3246 0 77.2548 14.9505 1155 175.521 230.535 555.997
3247 0 82.4791 14.8159 1222 169.236 230.516 553.713
3248 0 84.2828 14.9022 1256 171.537 230.634 552.662
3249 0 87.4417 14.6612 1282 169.31 231.04 551.544
3250 0 91.1483 14.8769 1356 171.172 232.22 550.532
3251 0 94.3286 14.6509 1382 172.486 232.237 549.174
3252 0 97.434 14.5124 1414 167.465 233.038 546.98
3253 1 53.4787 13.6316 729 167.418 230.739 568.982
3254 0 56.2783 13.7531 774 172.24 231.835 567.319
3255 0 57.3047 14.0128 803 170.758 231.691 566.826
3256 0 60.2178 14.0988 849 173.841 230.73 565.882
3257 0 61.1577 14.0784 861 169.355 231.926 565.004
3258 0 64.4613 14.0394 905 172.193 233.684 563.57
3259 0 67.2498 14.2751 960 168.716 233.238 562.655
3260 0 69.1296 14.0316 970 172.678 231.804 561.567
3261 0 72.3002 14.2323 1029 172.807 232.808 560.203
3262 0 74.3795 14.0765 1047 171.971 232.62 559.18
3263 0 77.25 14.2783 1103 166.473 234.337 557.575
3264 0 80.2009 14.2642 1144 169.319 234.075 555.779
3265 0 83.1212 14.148 1176 166.647 232.515 555.359
3266 0 86.2044 14.2916 1232 168.916 233.427 554.244
3267 0 89.2008 14.4505 1289 173.715 232.576 552.367
3268 0 93.0858 14.6961 1368 171.284 233.158 550.222
3269 0 97.0974 14.0272 1362 165.857 233.601 549.184
3270 0 100.221 14.1986 1423 169.71 233.507 547.446
3271 1 54.0426 12.8232 693 168.987 234.85 570.482
3272 0 55.05 13.4242 739 167.34 234.046 569.039
3273 0 56.199 13.5234 760 165.354 234.153 568.451
3274 0 59.0981 13.2492 783 165.087 233.313 567.764
3275 0 59.0881 13.776 814 164.381 232.833 566.235
3276 0 62.0639 13.2605 823 170.075 232.902 565.571
3277 0 65.0647 13.4789 877 158.529 235.335 563.709
3278 0 67.0573 13.7196 920 167.665 233.202 562.797
3279 0 69.1479 13.7387 950 163.14 233.253 561.325
3280 0 70.1508 14.0697 987 166.797 233.891 560.918
3281 0 73.0706 13.7675 1006 168.497 232.147 560.321
3282 0 75.0821 13.998 1051 161.601 233.253 559.876
3283 0 78.0954 13.8677 1083 168.534 235.39 557.994
3284 0 78.0719 14.6916 1147 162.268 233.795 557.287
3285 0 82.1545 14.3875 1182 164.662 233.459 555.78
3286 0 86.2274 14.0559 1212 164.305 233.158 554.553
3287 0 87.1692 14.3973 1255 163.349 232.298 553.879
3288 0 90.2316 14.2855 1289 157.319 231.229 553.649
3289 0 93.1161 14.2403 1326 163.971 232.434 552.664
3290 0 95.0831 14.4926 1378 167.398 234.205 550.294
3291 0 99.1994 14.244 1413 162.875 232.703 549.018
3292 0 103.18 14.2276 1468 160.854 234.021 548.178
3293 0 107.13 14.011 1501 159.854 232.501 546.896
3294 1 57.137 13.3539 763 157.865 232.46 570.539
3295 0 57.0993 13.6954 782 166.701 234.68 570.106
3296 0 61.0698 13.2144 807 164.608 232.898 569.721
3297 0 63.1776 13.28 839 163.949 232.294 568.602
3298 0 65.0975 13.6718 890 164.604 232.59 568.278
3299 0 66.1676 13.7227 908 166.257 234.948 567.368
3300 0 71.1844 13.5142 962 161.445 233.096 565.481
3301 0 73.2714 13.3203 976 158.059 233.752 564.919
3302 0 75.0948 13.6361 1024 163.006 234.211 563.871
3303 0 77.1133 13.5904 1048 157.059 232.75 562.04
3304 0 81.345 14.0881 1146 163.901 233.354 561.88
3305 0 82.1264 14.222 1168 160.45 234.054 561.06
3306 0 86.0949 13.9265 1199 159.478 233.866 559.286
3307 0 89.2831 14.4372 1289 159.348 234.556 558.006
3308 0 91.1248 14.343 1307 160.107 233.273 557.579
3309 0 95.187 14.3402 1365 159.431 234.223 555.435
3310 0 98.195 14.4203 1416 162.858 233.407 554.376
3311 0 101.283 14.3558 1454 161.158 231.37 553.345
3312 0 104.205 14.222 1482 163.027 231.468 551.728
3313 0 107.213 14.196 1522 162.035 232.671 550.75
3314 0 112.122 14.2434 1597 157.897 230.675 548.792
3315 0 115.253 14.6286 1686 169.618 231.594 546.816
3316 0 119.338 14.8318 1770 165.189 231.774 544.468
3317 0 124.129 14.8717 1846 168.483 230.578 542.628
3318 1 71.054 12.779 908 166.414 231.749 569.62
